##NAMES=Astrophyllite
##RRUFFID=R060202
##IDEAL CHEMISTRY=K_2_NaFe^2+^_7_Ti^4+^_2_(Si_4_O_12_)_2_O_2_(OH)_4_F
##LOCALITY=Demix Quarry, Mont Saint-Hilaire, Rouville County, Quebec, Canada
##OWNER=RRUFF
##SOURCE=Royal Ontario Museum
##DESCRIPTION=Aggregate of brown splintered wafers
##STATUS=The identification of this mineral has been confirmed by X-ray diffraction and chemical analysis
##URL=rruff.info/R060202
##MEASURED CHEMISTRY=(K_0.56_Na_0.38_Ca_0.06_)_3_(Fe^2+^_0.52_Mn_0.44_Mg_0.04_)_7_(Ti_0.75_Zr_0.15_Al_0.15_)_2_Si_8_O_24_(O_0.27_OH_0.73_)_7_
##PIN_ID=M00260
##ORIENTATION=Laser parallel to -b* (0 -1 0). Fiducial mark perpendicular to laser is parallel to c [0 0 1]
143.9560, 0.0000000E+00
145.1840, 7.519531
146.4120, 118.5059
147.6390, 75.48047
148.8670, 582.0488
150.0940, 1056.902
151.3210, 967.9336
152.5490, 1204.475
153.7750, 1095.906
155.0020, 1379.426
156.2290, 1561.393
157.4550, 1766.166
158.6810, 1898.117
159.9080, 2188.697
161.1340, 2414.453
162.3590, 2636.584
163.5850, 2662.521
164.8110, 2343.453
166.0360, 2280.338
167.2610, 2201.084
168.4860, 1722.299
169.7110, 1741.633
170.9360, 1082.818
172.1610, 1132.650
173.3850, 969.9727
174.6100, 552.6738
175.8340, 311.6660
177.0580, 239.8770
178.2820, 298.2559
179.5050, 85.08008
180.7290, 100.1191
181.9520, 98.33594
183.1760, 68.57422
184.3990, 503.0742
185.6220, 490.4688
186.8450, 473.1875
188.0670, 828.6758
189.2900, 1305.619
190.5120, 1351.947
191.7340, 1883.473
192.9560, 2206.246
194.1780, 2378.322
195.4000, 2549.750
196.6220, 2918.576
197.8430, 3012.834
199.0640, 3401.576
200.2860, 3232.121
201.5070, 3236.723
202.7270, 2874.246
203.9480, 2650.469
205.1690, 2495.416
206.3890, 2717.094
207.6090, 3009.508
208.8290, 3088.652
210.0490, 3351.531
211.2690, 3730.152
212.4890, 3917.943
213.7080, 4261.080
214.9280, 4494.242
216.1470, 4867.262
217.3660, 5325.461
218.5850, 5630.465
219.8030, 6013.781
221.0220, 6621.930
222.2400, 6991.488
223.4590, 7437.922
224.6770, 8042.182
225.8950, 8523.312
227.1120, 9011.766
228.3300, 9557.117
229.5480, 10038.20
230.7650, 10443.94
231.9820, 10936.58
233.1990, 11170.66
234.4160, 11307.69
235.6330, 11643.21
236.8490, 11615.74
238.0660, 11949.79
239.2820, 12016.84
240.4980, 11648.91
241.7140, 11710.96
242.9300, 11968.01
244.1460, 12109.04
245.3610, 12398.06
246.5770, 12396.15
247.7920, 12566.04
249.0070, 12351.02
250.2220, 12247.00
251.4370, 12136.01
252.6510, 11493.17
253.8660, 11007.45
255.0800, 10444.97
256.2940, 11151.80
257.5080, 9705.188
258.7220, 9591.631
259.9360, 7623.568
261.1490, 6494.855
262.3630, 5767.391
263.5760, 5421.152
264.7890, 4734.871
266.0020, 4255.465
267.2150, 3524.898
268.4270, 3055.158
269.6400, 2685.254
270.8520, 2213.184
272.0640, 1926.951
273.2760, 1600.559
274.4880, 1501.010
275.7000, 1157.301
276.9120, 1001.434
278.1230, 600.4082
279.3340, 539.2305
280.5450, 228.8984
281.7560, 61.41602
282.9670, 178.7793
284.1780, 0.9921880
285.3880, 6.056641
286.5980, 2.039063
287.8090, 93.67578
289.0190, 12.80078
290.2290, 88.90039
291.4380, 60.35938
292.6480, 118.5957
293.8570, 64.36719
295.0670, 115.0000
296.2760, 45.51953
297.4850, 103.0020
298.6930, 74.06445
299.9020, 77.12109
301.1110, 48.70508
302.3190, 55.55469
303.5270, 85.73242
304.7350, 33.56641
305.9430, 160.8242
307.1510, 30.55078
308.3580, 59.65039
309.5660, 27.38086
310.7730, 135.6484
311.9800, 10.03906
313.1870, 215.4941
314.3940, 146.4141
315.6010, 172.9238
316.8070, 23.57812
318.0130, 196.4844
319.2200, 42.52344
320.4260, 36.66602
321.6310, 24.09375
322.8370, 8.765625
324.0430, 165.3457
325.2480, 155.8516
326.4540, 261.6719
327.6590, 380.3770
328.8640, 472.6172
330.0680, 696.7617
331.2730, 850.8027
332.4780, 864.7344
333.6820, 1059.547
334.8860, 1152.240
336.0900, 1318.818
337.2940, 1593.279
338.4980, 1621.781
339.7010, 1538.877
340.9050, 1804.016
342.1080, 1860.051
343.3110, 2015.984
344.5140, 2226.822
345.7170, 2161.867
346.9200, 2248.568
348.1220, 2378.117
349.3240, 2499.430
350.5270, 2437.918
351.7290, 2687.043
352.9310, 2592.586
354.1320, 2622.346
355.3340, 2540.395
356.5350, 2715.574
357.7370, 2669.164
358.9380, 2341.602
360.1390, 2352.234
361.3400, 2517.639
362.5400, 2189.111
363.7410, 2223.684
364.9410, 2164.557
366.1410, 2197.535
367.3410, 1999.336
368.5410, 2013.279
369.7410, 1938.537
370.9400, 2035.645
372.1400, 2263.176
373.3390, 2344.105
374.5380, 2494.736
375.7370, 2648.262
376.9360, 2651.604
378.1350, 2575.814
379.3330, 2829.705
380.5310, 2726.510
381.7300, 2823.328
382.9280, 2774.482
384.1260, 2775.051
385.3230, 2776.982
386.5210, 2828.918
387.7180, 2956.080
388.9160, 2894.918
390.1130, 3078.682
391.3100, 2927.373
392.5060, 3018.990
393.7030, 3068.533
394.9000, 3319.004
396.0960, 3060.402
397.2920, 2911.725
398.4880, 3162.973
399.6840, 3173.146
400.8800, 3289.242
402.0750, 3371.258
403.2710, 3316.197
404.4660, 3434.053
405.6610, 3464.828
406.8560, 3560.518
408.0510, 3672.285
409.2450, 3851.650
410.4400, 3786.090
411.6340, 4043.453
412.8280, 3854.730
414.0220, 3908.930
415.2160, 3850.051
416.4100, 3927.094
417.6030, 3766.053
418.7970, 3667.955
419.9900, 3408.775
421.1830, 3227.520
422.3760, 2973.195
423.5690, 2759.799
424.7610, 2518.590
425.9540, 2264.078
427.1460, 2047.521
428.3380, 1729.178
429.5300, 1545.031
430.7220, 1236.262
431.9140, 1207.535
433.1050, 903.8730
434.2970, 850.3340
435.4880, 668.0840
436.6790, 466.4766
437.8700, 496.1328
439.0610, 259.4590
440.2510, 354.9688
441.4420, 268.9316
442.6320, 4.935547
443.8220, 232.7832
445.0120, 101.0938
446.2020, 134.7109
447.3910, 255.2031
448.5810, 228.6641
449.7700, 15.06055
450.9600, 599.8516
452.1490, 889.2969
453.3370, 611.6250
454.5260, 708.7246
455.7150, 867.5469
456.9030, 1006.311
458.0910, 1060.248
459.2800, 1222.369
460.4670, 1400.705
461.6550, 1311.035
462.8430, 1281.881
464.0300, 1490.943
465.2180, 1411.570
466.4050, 1362.195
467.5920, 1338.324
468.7790, 1209.275
469.9650, 1287.756
471.1520, 1334.648
472.3380, 1296.789
473.5250, 1044.861
474.7110, 1109.865
475.8970, 1287.807
477.0820, 930.6758
478.2680, 1255.482
479.4540, 1080.227
480.6390, 1259.902
481.8240, 1036.516
483.0090, 868.0664
484.1940, 841.5527
485.3780, 595.9766
486.5630, 589.3398
487.7470, 426.6406
488.9320, 482.8789
490.1160, 514.0566
491.3000, 285.1738
492.4830, 217.2246
493.6670, 279.2070
494.8500, 163.1211
496.0340, 122.9668
497.2170, 222.7383
498.4000, 166.4434
499.5820, 2.917969
500.7650, 51.38867
501.9480, 105.9883
503.1300, 74.25000
504.3120, 127.5820
505.4940, 133.5801
506.6760, 143.7461
507.8580, 246.0859
509.0390, 200.6504
510.2210, 303.4102
511.4020, 233.4199
512.5830, 411.6426
513.7640, 231.1680
514.9450, 306.8965
516.1250, 197.8711
517.3060, 250.0293
518.4860, 540.3965
519.6660, 113.1230
520.8460, 223.9824
522.0260, 354.0293
523.2060, 71.33203
524.3850, 32.73828
525.5650, 43.23047
526.7440, 137.1973
527.9230, 113.5781
529.1020, 272.9141
530.2810, 344.2148
531.4590, 459.4785
532.6380, 651.7109
533.8160, 919.9082
534.9940, 1128.080
536.1720, 1331.254
537.3500, 1750.402
538.5270, 2187.596
539.7050, 2645.818
540.8820, 3248.023
542.0590, 3881.270
543.2360, 4370.561
544.4130, 4886.906
545.5900, 5737.268
546.7660, 5781.684
547.9430, 6854.152
549.1190, 7457.719
550.2950, 7525.359
551.4710, 7813.064
552.6470, 8293.861
553.8220, 8034.699
554.9980, 7936.619
556.1730, 7738.598
557.3480, 7317.648
558.5230, 6994.828
559.6980, 6563.086
560.8730, 6069.428
562.0470, 5901.803
563.2220, 5318.219
564.3960, 5066.650
565.5700, 4642.082
566.7440, 4481.504
567.9170, 4047.922
569.0910, 3848.322
570.2640, 3531.717
571.4380, 3259.109
572.6110, 3318.500
573.7840, 2943.875
574.9570, 2864.252
576.1290, 2813.654
577.3020, 2646.531
578.4740, 2618.639
579.6460, 2551.918
580.8180, 2726.316
581.9900, 2391.861
583.1620, 2501.637
584.3330, 2386.926
585.5040, 2665.455
586.6760, 2525.740
587.8470, 2337.396
589.0180, 2415.598
590.1880, 2502.500
591.3590, 2509.633
592.5290, 2552.857
593.7000, 2598.992
594.8700, 2592.146
596.0400, 2665.920
597.2090, 2716.715
598.3790, 2743.584
599.5490, 2769.299
600.7180, 2939.504
601.8870, 2737.521
603.0560, 2683.613
604.2250, 2568.736
605.3940, 2828.895
606.5620, 2767.066
607.7300, 2911.266
608.8990, 3062.465
610.0670, 3162.672
611.2350, 3286.812
612.4020, 3391.098
613.5700, 3464.309
614.7370, 3563.521
615.9050, 3701.758
617.0720, 3877.953
618.2390, 4030.174
619.4060, 4186.393
620.5720, 4353.920
621.7390, 4485.846
622.9050, 4670.078
624.0710, 4869.309
625.2370, 5009.547
626.4030, 5721.791
627.5690, 5640.039
628.7340, 6337.984
629.9000, 6393.188
631.0650, 6768.455
632.2300, 7402.871
633.3950, 8008.025
634.5600, 8643.461
635.7240, 9253.395
636.8890, 10075.03
638.0530, 10730.30
639.2170, 12013.36
640.3810, 13124.92
641.5450, 14514.55
642.7080, 15988.86
643.8720, 17561.28
645.0350, 18502.45
646.1980, 19973.36
647.3610, 20755.74
648.5240, 20904.83
649.6870, 20788.89
650.8490, 20218.64
652.0120, 19094.92
653.1740, 18384.16
654.3360, 17376.88
655.4980, 16366.02
656.6600, 15575.16
657.8210, 14893.20
658.9830, 14251.10
660.1440, 14006.19
661.3050, 13472.43
662.4660, 13158.70
663.6270, 13198.92
664.7870, 13025.77
665.9480, 13353.16
667.1080, 13505.16
668.2680, 13780.13
669.4280, 13975.82
670.5880, 14613.81
671.7480, 15085.85
672.9070, 15829.91
674.0670, 16114.18
675.2260, 16737.92
676.3850, 17109.32
677.5440, 17876.61
678.7030, 18472.62
679.8610, 18975.86
681.0200, 19365.29
682.1780, 19916.08
683.3360, 20109.88
684.4940, 20548.62
685.6520, 21080.29
686.8090, 21263.02
687.9670, 21673.60
689.1240, 22291.55
690.2810, 22605.82
691.4380, 22228.07
692.5950, 22330.79
693.7520, 22830.45
694.9080, 23068.43
696.0650, 23247.88
697.2210, 23373.26
698.3770, 23279.25
699.5330, 23158.29
700.6880, 23418.66
701.8440, 23200.52
702.9990, 23310.55
704.1550, 23051.37
705.3100, 22840.78
706.4650, 22550.05
707.6190, 22369.98
708.7740, 22244.92
709.9290, 21592.87
711.0830, 21508.84
712.2370, 20726.83
713.3910, 20047.84
714.5450, 19887.86
715.6980, 19615.89
716.8520, 18730.96
718.0050, 18214.04
719.1580, 17415.14
720.3110, 16833.27
721.4640, 16288.43
722.6170, 15801.62
723.7700, 15056.88
724.9220, 14311.17
726.0740, 13883.51
727.2260, 13232.88
728.3780, 12742.28
729.5300, 12295.71
730.6810, 11512.20
731.8330, 11173.71
732.9840, 10556.24
734.1350, 10122.12
735.2860, 9804.340
736.4370, 9382.914
737.5880, 9151.504
738.7380, 8931.109
739.8880, 8700.734
741.0390, 8247.371
742.1890, 8306.023
743.3380, 8104.693
744.4880, 8056.379
745.6380, 7606.074
746.7870, 7435.791
747.9360, 7239.521
749.0850, 7090.268
750.2340, 7205.031
751.3830, 6707.809
752.5310, 6858.602
753.6800, 6339.410
754.8280, 6419.234
755.9760, 6089.076
757.1240, 5829.934
758.2720, 5517.805
759.4190, 5308.873
760.5670, 5194.600
761.7140, 4881.520
762.8610, 4832.459
764.0080, 4566.414
765.1550, 4129.383
766.3020, 4265.371
767.4480, 3856.379
768.5950, 3888.406
769.7410, 3604.447
770.8870, 3759.512
772.0330, 3643.600
773.1780, 3500.707
774.3240, 3504.318
775.4690, 3111.996
776.6140, 3300.176
777.7590, 3019.381
778.9040, 2812.627
780.0490, 3008.934
781.1940, 2844.307
782.3380, 2797.709
783.4820, 2894.188
784.6260, 2493.742
785.7700, 2529.375
786.9140, 2224.113
788.0580, 2259.945
789.2010, 2157.896
790.3450, 2015.947
791.4880, 1940.148
792.6310, 1775.447
793.7730, 1768.865
794.9160, 1456.371
796.0590, 1478.982
797.2010, 1188.770
798.3430, 1081.623
799.4850, 960.5684
800.6270, 990.6406
801.7690, 835.9160
802.9100, 599.9297
804.0520, 639.1387
805.1930, 396.3652
806.3340, 326.6152
807.4750, 204.8848
808.6160, 62.17188
809.7560, 104.4746
810.8970, 18.23438
812.0370, 106.7383
813.1770, 18.39453
814.3170, 256.3301
815.4570, 202.1875
816.5960, 16.14844
817.7360, 237.1250
818.8750, 241.2246
820.0140, 287.4551
821.1530, 125.8379
822.2920, 282.2910
823.4310, 265.8965
824.5690, 437.6445
825.7070, 330.6270
826.8460, 318.7891
827.9840, 397.1250
829.1220, 212.6758
830.2590, 354.3438
831.3970, 279.2031
832.5340, 318.2188
833.6710, 539.4062
834.8080, 341.8848
835.9450, 358.5508
837.0820, 172.4082
838.2190, 180.3633
839.3550, 103.4219
840.4910, 28.83008
841.6270, 0.6796880
842.7630, 23.16992
843.8990, 140.0195
845.0350, 60.88281
846.1700, 258.7598
847.3060, 298.6523
848.4410, 340.5586
849.5760, 456.4785
850.7100, 542.4121
851.8450, 630.6016
852.9800, 746.6016
854.1140, 862.3008
855.2480, 982.2930
856.3820, 1175.258
857.5160, 1330.787
858.6500, 1586.352
859.7830, 1848.400
860.9170, 2025.463
862.0500, 2350.539
863.1830, 2257.633
864.3160, 2733.736
865.4480, 2999.855
866.5810, 2933.986
867.7130, 3249.156
868.8460, 3736.340
869.9780, 3793.539
871.1100, 4159.773
872.2410, 4399.023
873.3730, 4747.969
874.5050, 5400.572
875.6360, 5599.900
876.7670, 6064.254
877.8980, 6594.660
879.0290, 6754.113
880.1590, 6957.623
881.2900, 7786.148
882.4200, 7886.691
883.5500, 8417.246
884.6800, 8819.820
885.8100, 9165.406
886.9400, 9481.023
888.0690, 10100.65
889.1990, 10871.30
890.3280, 10826.98
891.4570, 12004.66
892.5860, 12404.37
893.7140, 12817.09
894.8430, 13335.84
895.9710, 13856.63
897.1000, 14486.46
898.2280, 15052.34
899.3560, 15620.22
900.4830, 16349.20
901.6110, 16701.20
902.7380, 17353.27
903.8660, 17762.35
904.9930, 18399.47
906.1200, 18963.60
907.2460, 19470.51
908.3730, 19942.06
909.5000, 20525.35
910.6260, 21013.67
911.7520, 21485.02
912.8780, 21693.40
914.0040, 22203.83
915.1290, 21997.32
916.2550, 22480.84
917.3800, 22476.40
918.5050, 22637.98
919.6300, 22537.57
920.7550, 22689.23
921.8800, 22535.91
923.0040, 22718.60
924.1290, 22189.33
925.2530, 22200.13
926.3770, 22232.95
927.5010, 21749.80
928.6250, 21698.66
929.7480, 21075.53
930.8720, 20355.42
931.9950, 19882.32
933.1180, 19136.21
934.2410, 18451.14
935.3640, 17614.05
936.4860, 16848.97
937.6090, 15994.89
938.7310, 15235.72
939.8530, 14417.78
940.9750, 13739.76
942.0970, 12927.75
943.2180, 12258.74
944.3400, 11423.75
945.4610, 10920.77
946.5820, 10235.64
947.7030, 9543.070
948.8240, 9208.887
949.9450, 8573.863
951.0650, 8040.166
952.1860, 7585.984
953.3060, 6858.258
954.4260, 6449.904
955.5460, 5886.590
956.6650, 5051.365
957.7850, 4602.270
958.9040, 4199.160
960.0230, 3960.227
961.1420, 3372.980
962.2610, 2983.451
963.3800, 2754.990
964.4990, 2550.098
965.6170, 2462.311
966.7350, 1872.244
967.8530, 1744.738
968.9710, 1416.363
970.0890, 1435.410
971.2070, 947.4434
972.3240, 1068.201
973.4410, 634.5020
974.5580, 651.6719
975.6750, 821.0938
976.7920, 529.9688
977.9090, 604.0098
979.0250, 596.4531
980.1410, 555.9160
981.2580, 319.4062
982.3740, 683.9199
983.4890, 545.4551
984.6050, 386.0137
985.7200, 496.5938
986.8360, 319.1973
987.9510, 452.8223
989.0660, 678.4707
990.1810, 682.1387
991.2950, 693.0684
992.4100, 839.7812
993.5240, 860.6387
994.6390, 804.4434
995.7530, 1186.229
996.8660, 1055.033
997.9800, 1055.859
999.0940, 1378.705
1000.207, 1468.850
1001.320, 1486.199
1002.433, 1903.104
1003.546, 1979.027
1004.659, 1979.768
1005.772, 2242.273
1006.884, 2421.393
1007.996, 3099.273
1009.108, 2878.594
1010.220, 3273.771
1011.332, 3309.920
1012.444, 3458.838
1013.555, 3768.330
1014.666, 4186.738
1015.777, 4344.557
1016.888, 4449.174
1017.999, 4612.752
1019.110, 4978.375
1020.220, 4989.738
1021.331, 5162.238
1022.441, 5355.816
1023.551, 5363.164
1024.661, 5517.816
1025.770, 5324.809
1026.880, 5215.877
1027.989, 5227.240
1029.098, 5370.158
1030.207, 5191.354
1031.316, 4958.465
1032.425, 5044.934
1033.533, 4637.555
1034.642, 4642.973
1035.750, 4769.191
1036.858, 4850.299
1037.966, 4110.652
1039.073, 3603.016
1040.181, 3602.514
1041.288, 3483.586
1042.396, 3350.121
1043.503, 2977.871
1044.610, 2888.254
1045.716, 2652.260
1046.823, 2606.322
1047.929, 2215.750
1049.036, 2219.354
1050.142, 2096.375
1051.248, 1886.447
1052.353, 2007.686
1053.459, 1834.150
1054.564, 1648.617
1055.670, 1809.215
1056.775, 1605.615
1057.880, 1653.969
1058.985, 1514.918
1060.089, 1411.436
1061.194, 1539.867
1062.298, 1543.695
1063.402, 1536.756
1064.506, 1744.459
1065.610, 1605.703
1066.713, 1620.568
1067.817, 1374.869
1068.920, 1523.291
1070.023, 1539.496
1071.126, 1515.691
1072.229, 1519.131
1073.332, 1442.572
1074.435, 1465.729
1075.537, 1388.625
1076.639, 1494.988
1077.741, 1458.285
1078.843, 1617.975
1079.945, 1465.797
1081.046, 1467.693
1082.148, 1468.840
1083.249, 1427.754
1084.350, 1484.363
1085.451, 1154.865
1086.551, 1094.354
1087.652, 1487.143
1088.752, 926.7305
1089.853, 1110.146
1090.953, 1097.768
1092.053, 897.1621
1093.152, 875.9531
1094.252, 876.3887
1095.351, 667.0156
1096.451, 833.0059
1097.550, 730.0488
1098.649, 779.9453
1099.748, 501.2812
1100.846, 641.0664
1101.945, 564.5195
1103.043, 410.0547
1104.141, 444.9395
1105.239, 339.5938
1106.337, 416.2832
1107.434, 259.9902
1108.532, 241.6934
1109.629, 285.3828
1110.726, 324.0547
1111.823, 294.8633
1112.920, 114.3359
1114.017, 234.3223
1115.113, 173.8926
1116.210, 93.43359
1117.306, 191.9492
1118.402, 280.4375
1119.498, 110.8965
1120.593, 125.3281
1121.689, 216.7305
1122.784, 22.10156
1123.879, 342.9648
1124.974, 60.46289
1126.069, 83.12109
1127.164, 279.3652
1128.259, 273.8652
1129.353, 177.2070
1130.447, 490.1465
1131.541, 50.36719
1132.635, 101.5527
1133.729, 207.4414
1134.822, 187.5625
1135.916, 85.51367
1137.009, 10.33008
1138.102, 0.1347660
1139.195, 69.89648
1140.288, 118.3789
1141.380, 34.37500
1142.473, 143.4238
1143.565, 105.9414
1144.657, 160.9316
1145.749, 102.6797
1146.841, 11.91992
1147.932, 68.14648
1149.024, 85.42578
1150.115, 81.44336
1151.206, 36.28711
1152.297, 126.7637
1153.388, 4.130859
1154.479, 1.324219
1155.569, 112.7324
1156.659, 38.58594
1157.750, 27.58984
1158.839, 40.36523
1159.929, 77.78125
1161.019, 65.29883
1162.108, 46.40039
1163.198, 66.31641
1164.287, 83.11328
1165.376, 78.25195
1166.465, 153.2676
1167.553, 74.14258
1168.642, 56.79688
1169.730, 42.25195
1170.818, 104.1133
1171.906, 175.6074
1172.994, 54.24219
1174.082, 184.9980
1175.170, 33.32812
1176.257, 10.23242
1177.344, 105.4355
1178.431, 125.9902
1179.518, 16.74414
1180.605, 69.59180
1181.691, 32.95117
1182.778, 93.84375
1183.864, 169.1211
1184.950, 84.03906
1186.036, 73.76367
1187.122, 81.21484
1188.207, 127.3379
1189.292, 57.50195
1190.378, 32.72656
1191.463, 100.2070
1192.548, 48.80664
1193.632, 39.24023
1194.717, 257.3438
1195.801, 128.1797
1196.886, 72.20898
1197.970, 373.6211
1199.054, 326.1738
1200.137, 143.0742
1201.221, 145.8105
1202.305, 5.447266
1203.388, 1.832031
1204.471, 54.33203
1205.554, 83.98242
1206.637, 63.74219
1207.719, 223.2539
1208.802, 43.24219
1209.884, 237.9492
1210.966, 228.1094
1212.048, 169.1875
1213.130, 96.89062
1214.212, 125.9590
1215.293, 140.9453
1216.374, 375.4844
1217.456, 321.1973
1218.536, 160.4609
1219.617, 199.3496
1220.698, 486.4434
1221.778, 238.3945
1222.859, 501.1309
1223.939, 276.8828
1225.019, 251.5215
1226.099, 190.3047
1227.178, 191.5430
1228.258, 249.1641
1229.337, 400.1172
1230.417, 313.2422
1231.496, 608.4570
1232.574, 438.7324
1233.653, 367.6621
1234.732, 459.1855
1235.810, 548.7168
1236.888, 561.5254
1237.966, 591.9746
1239.044, 594.0625
1240.122, 547.2637
1241.199, 533.0234
1242.277, 440.4844
1243.354, 352.0879
1244.431, 676.4316
1245.508, 584.6836
1246.585, 743.4082
1247.661, 568.5957
1248.738, 683.6406
1249.814, 522.6152
1250.890, 516.5195
1251.966, 467.4570
1253.042, 332.9844
1254.117, 195.6855
1255.193, 369.3223
1256.268, 466.8262
1257.343, 406.7715
1258.418, 476.1797
1259.493, 529.5156
1260.567, 440.7832
1261.642, 529.6992
1262.716, 706.4570
1263.790, 426.5449
1264.864, 538.5625
1265.938, 669.7129
1267.011, 604.0469
1268.085, 491.8066
1269.158, 554.7109
1270.231, 368.1055
1271.304, 366.8340
1272.377, 443.2949
1273.450, 287.9316
1274.522, 345.1309
1275.594, 425.4844
1276.666, 418.1758
1277.738, 398.1387
1278.810, 567.0234
1279.882, 388.7207
1280.953, 189.8887
1282.025, 396.5156
1283.096, 303.0840
1284.167, 301.7715
1285.238, 424.2012
1286.308, 377.6172
1287.379, 356.9062
1288.449, 566.8652
1289.519, 502.3418
1290.589, 314.2930
1291.659, 245.4629
1292.729, 481.0430
1293.798, 239.3340
1294.868, 546.4512
1295.937, 269.8105
1297.006, 341.6094
1298.075, 316.1484
1299.143, 429.4453
1300.212, 474.0781
1301.280, 378.2402
1302.348, 580.2227
1303.416, 264.5469
1304.484, 383.0547
1305.552, 188.1172
1306.620, 230.9844
1307.687, 437.2578
1308.754, 369.2910
1309.821, 350.8457
