##NAMES=Astrophyllite
##RRUFFID=R060202
##IDEAL CHEMISTRY=K_2_NaFe^2+^_7_Ti^4+^_2_(Si_4_O_12_)_2_O_2_(OH)_4_F
##LOCALITY=Demix Quarry, Mont Saint-Hilaire, Rouville County, Quebec, Canada
##OWNER=RRUFF
##SOURCE=Royal Ontario Museum
##DESCRIPTION=Aggregate of brown splintered wafers
##STATUS=The identification of this mineral has been confirmed by X-ray diffraction and chemical analysis
##URL=rruff.info/R060202
##MEASURED CHEMISTRY=(K_0.56_Na_0.38_Ca_0.06_)_3_(Fe^2+^_0.52_Mn_0.44_Mg_0.04_)_7_(Ti_0.75_Zr_0.15_Al_0.15_)_2_Si_8_O_24_(O_0.27_OH_0.73_)_7_
##PIN_ID=M00495
##ORIENTATION=Laser parallel to c* (0 0 1). Fiducial mark perpendicular to laser is parallel to a [1 0 0]
147.6390, 0.0000000E+00
148.8670, 425.1992
150.0940, 17.31641
151.3210, 846.9141
152.5490, 1373.891
153.7750, 936.3828
155.0020, 838.3438
156.2290, 1196.887
157.4550, 1002.883
158.6810, 894.8594
159.9080, 909.8438
161.1340, 1037.930
162.3590, 1620.328
163.5850, 2009.355
164.8110, 2335.449
166.0360, 2474.191
167.2610, 2215.359
168.4860, 2063.922
169.7110, 2487.938
170.9360, 2764.168
172.1610, 2382.242
173.3850, 1837.812
174.6100, 1784.609
175.8340, 1391.422
177.0580, 1166.074
178.2820, 983.4414
179.5050, 894.4219
180.7290, 581.9219
181.9520, 492.8711
183.1760, 553.3359
184.3990, 243.7539
185.6220, 585.3398
186.8450, 805.4336
188.0670, 898.7969
189.2900, 1243.688
190.5120, 1653.242
191.7340, 1850.207
192.9560, 2127.621
194.1780, 2396.277
195.4000, 2586.180
196.6220, 2849.609
197.8430, 3198.609
199.0640, 3514.203
200.2860, 3790.426
201.5070, 4242.320
202.7270, 3999.680
203.9480, 4206.195
205.1690, 3444.254
206.3890, 2450.109
207.6090, 2018.797
208.8290, 2334.332
210.0490, 2145.727
211.2690, 2654.988
212.4890, 3004.109
213.7080, 3282.094
214.9280, 3637.672
216.1470, 3648.656
217.3660, 4151.242
218.5850, 4337.652
219.8030, 4506.152
221.0220, 5083.352
222.2400, 5499.602
223.4590, 5743.691
224.6770, 6181.844
225.8950, 6398.047
227.1120, 7176.383
228.3300, 7620.078
229.5480, 7760.332
230.7650, 8886.039
231.9820, 9862.855
233.1990, 9336.430
234.4160, 9334.496
235.6330, 9711.145
236.8490, 10336.54
238.0660, 10533.17
239.2820, 10517.98
240.4980, 11597.47
241.7140, 11397.02
242.9300, 11217.62
244.1460, 11746.28
245.3610, 11996.98
246.5770, 12078.72
247.7920, 12030.50
249.0070, 12253.31
250.2220, 12335.17
251.4370, 12434.08
252.6510, 12218.03
253.8660, 12308.02
255.0800, 12398.03
256.2940, 12466.10
257.5080, 12143.32
258.7220, 11764.36
259.9360, 11231.75
261.1490, 10445.88
262.3630, 9644.805
263.5760, 8660.078
264.7890, 7874.969
266.0020, 7025.254
267.2150, 6117.195
268.4270, 5583.266
269.6400, 4633.324
270.8520, 4344.305
272.0640, 3526.199
273.2760, 3303.008
274.4880, 2884.742
275.7000, 2481.387
276.9120, 2323.949
278.1230, 1759.434
279.3340, 1613.836
280.5450, 1170.156
281.7560, 857.3984
282.9670, 546.5586
284.1780, 327.6484
285.3880, 349.6523
286.5980, 285.5859
287.8090, 69.43750
289.0190, 53.78516
290.2290, 141.9141
291.4380, 47.47266
292.6480, 32.03906
293.8570, 134.8516
295.0670, 64.12500
296.2760, 98.65625
297.4850, 55.38672
298.6930, 147.9102
299.9020, 33.45703
301.1110, 84.58594
302.3190, 144.2383
303.5270, 48.39453
304.7350, 83.96875
305.9430, 222.0859
307.1510, 277.5977
308.3580, 41.79688
309.5660, 201.5312
310.7730, 126.6523
311.9800, 131.0625
313.1870, 314.7070
314.3940, 248.0078
315.6010, 49.10547
316.8070, 39.80469
318.0130, 71.48828
319.2200, 27.22266
320.4260, 347.0977
321.6310, 305.6016
322.8370, 1.390625
324.0430, 109.1992
325.2480, 696.9414
326.4540, 34.07031
327.6590, 89.81641
328.8640, 169.2461
330.0680, 8.281250
331.2730, 299.2812
332.4780, 308.2500
333.6820, 394.1758
334.8860, 427.0508
336.0900, 264.8711
337.2940, 551.6250
338.4980, 784.3164
339.7010, 637.9414
340.9050, 912.3438
342.1080, 940.4727
343.3110, 1140.453
344.5140, 1093.840
345.7170, 1162.164
346.9200, 1225.445
348.1220, 1454.668
349.3240, 1226.840
350.5270, 1467.961
351.7290, 1660.762
352.9310, 1415.152
354.1320, 1516.379
355.3340, 1518.066
356.5350, 1655.000
357.7370, 1705.824
358.9380, 1842.602
360.1390, 1804.328
361.3400, 1762.520
362.5400, 1893.281
363.7410, 1780.699
364.9410, 1747.625
366.1410, 1425.984
367.3410, 1876.941
368.5410, 1595.148
369.7410, 1614.188
370.9400, 1672.180
372.1400, 1606.461
373.3390, 1717.352
374.5380, 1854.938
375.7370, 1516.824
376.9360, 1800.125
378.1350, 1526.234
379.3330, 1739.617
380.5310, 1881.215
381.7300, 1708.273
382.9280, 1903.488
384.1260, 2038.770
385.3230, 1949.496
386.5210, 2153.371
387.7180, 2204.082
388.9160, 2372.992
390.1130, 2403.895
391.3100, 2338.012
392.5060, 2433.051
393.7030, 2419.051
394.9000, 2501.023
396.0960, 2655.953
397.2920, 2742.844
398.4880, 2828.699
399.6840, 2799.520
400.8800, 2925.305
402.0750, 2613.047
403.2710, 2702.754
404.4660, 2855.422
405.6610, 3239.059
406.8560, 2711.652
408.0510, 3025.203
409.2450, 3143.715
410.4400, 3228.188
411.6340, 3277.613
412.8280, 3152.004
414.0220, 3190.344
415.2160, 3369.648
416.4100, 3599.910
417.6030, 3437.129
418.7970, 3149.312
419.9900, 3293.453
421.1830, 2946.555
422.3760, 3082.621
423.5690, 3144.648
424.7610, 2720.641
425.9540, 2722.594
427.1460, 2593.512
428.3380, 2307.152
429.5300, 2174.238
430.7220, 1958.047
431.9140, 1748.824
433.1050, 1807.645
434.2970, 1368.352
435.4880, 1099.395
436.6790, 1103.008
437.8700, 858.4336
439.0610, 402.2773
440.2510, 511.9609
441.4420, 471.5000
442.6320, 515.0078
443.8220, 30.44531
445.0120, 38.18750
446.2020, 59.65625
447.3910, 139.2734
448.5810, 203.4922
449.7700, 59.90234
450.9600, 119.5859
452.1490, 370.8984
453.3370, 107.0547
454.5260, 160.7383
455.7150, 426.9961
456.9030, 416.5859
458.0910, 543.0703
459.2800, 379.2266
460.4670, 784.6719
461.6550, 648.9570
462.8430, 859.9219
464.0300, 818.3555
465.2180, 696.5781
466.4050, 829.7656
467.5920, 768.0508
468.7790, 734.3320
469.9650, 1018.914
471.1520, 866.0273
472.3380, 706.1992
473.5250, 838.2109
474.7110, 737.3125
475.8970, 520.3750
477.0820, 750.3984
478.2680, 825.3945
479.4540, 543.3516
480.6390, 489.2695
481.8240, 266.1602
483.0090, 253.6602
484.1940, 580.8398
485.3780, 282.6250
486.5630, 536.3828
487.7470, 607.1016
488.9320, 626.7930
490.1160, 324.4492
491.3000, 402.0742
492.4830, 205.6719
493.6670, 22.23438
494.8500, 107.7461
496.0340, 126.2227
497.2170, 62.66797
498.4000, 12.07422
499.5820, 289.4219
500.7650, 226.7422
501.9480, 213.0312
503.1300, 77.29297
504.3120, 9.480469
505.4940, 42.67969
506.6760, 48.19531
507.8580, 253.8516
509.0390, 214.1367
510.2210, 153.7148
511.4020, 91.36328
512.5830, 188.2539
513.7640, 390.0469
514.9450, 101.6094
516.1250, 149.2695
517.3060, 303.0586
518.4860, 123.0508
519.6660, 202.1484
520.8460, 97.39062
522.0260, 73.73047
523.2060, 339.1484
524.3850, 344.7773
525.5650, 115.3711
526.7440, 405.4961
527.9230, 75.60938
529.1020, 14.21094
530.2810, 64.99609
531.4590, 0.2187500
532.6380, 78.51953
533.8160, 265.2773
534.9940, 292.0234
536.1720, 489.8008
537.3500, 652.5977
538.5270, 645.4141
539.7050, 893.2461
540.8820, 1226.156
542.0590, 1433.098
543.2360, 1579.043
544.4130, 2069.105
545.5900, 2121.293
546.7660, 2846.570
547.9430, 3087.914
549.1190, 3390.344
550.2950, 3529.844
551.4710, 4238.410
552.6470, 4577.023
553.8220, 4821.680
554.9980, 4678.379
556.1730, 5252.156
557.3480, 5208.992
558.5230, 5353.812
559.6980, 5343.641
560.8730, 5427.836
562.0470, 5069.898
563.2220, 4792.973
564.3960, 4667.094
565.5700, 4426.723
566.7440, 4220.906
567.9170, 4073.406
569.0910, 3798.492
570.2640, 3509.594
571.4380, 3277.684
572.6110, 3079.461
573.7840, 2850.848
574.9570, 2793.938
576.1290, 2575.023
577.3020, 2546.113
578.4740, 2287.203
579.6460, 2381.324
580.8180, 2254.340
581.9900, 2183.496
583.1620, 2155.078
584.3330, 2095.301
585.5040, 2039.969
586.6760, 2042.934
587.8470, 2056.000
589.0180, 2074.496
590.1880, 1833.074
591.3590, 2090.004
592.5290, 1897.746
593.7000, 1926.133
594.8700, 2115.992
596.0400, 2272.219
597.2090, 2000.746
598.3790, 2028.371
599.5490, 1940.066
600.7180, 2114.789
601.8870, 2010.535
603.0560, 1951.277
604.2250, 1883.047
605.3940, 1909.383
606.5620, 1949.680
607.7300, 2055.559
608.8990, 2086.480
610.0670, 2261.441
611.2350, 2275.445
612.4020, 2477.316
613.5700, 2368.297
614.7370, 2325.289
615.9050, 2391.281
617.0720, 2413.285
618.2390, 3041.293
619.4060, 3292.305
620.5720, 2634.320
621.7390, 3104.340
622.9050, 2913.363
624.0710, 3187.398
625.2370, 3285.438
626.4030, 3417.477
627.5690, 3555.523
628.7340, 3650.578
629.9000, 3824.641
631.0650, 4162.707
632.2300, 4478.781
633.3950, 5029.863
634.5600, 5347.047
635.7240, 5317.945
636.8890, 6058.793
638.0530, 6516.137
639.2170, 6692.195
640.3810, 7449.324
641.5450, 8013.465
642.7080, 8636.609
643.8720, 9461.258
645.0350, 10256.30
646.1980, 11574.61
647.3610, 12243.36
648.5240, 12906.55
649.6870, 13485.03
650.8490, 14016.23
652.0120, 14270.57
653.1740, 14268.81
654.3360, 14355.56
655.4980, 14237.51
656.6600, 14545.55
657.8210, 14713.04
658.9830, 13487.93
660.1440, 12972.96
661.3050, 11372.69
662.4660, 10652.00
663.6270, 10042.77
664.7870, 9509.316
665.9480, 9660.770
667.1080, 9202.758
668.2680, 9135.898
669.4280, 9050.891
670.5880, 9046.125
671.7480, 8944.414
672.9070, 9207.969
674.0670, 9348.457
675.2260, 9718.656
676.3850, 9848.727
677.5440, 10405.50
678.7030, 10158.10
679.8610, 10342.20
681.0200, 10681.66
682.1780, 11054.54
683.3360, 11359.10
684.4940, 11497.66
685.6520, 12030.95
686.8090, 12303.98
687.9670, 12635.66
689.1240, 13097.59
690.2810, 13056.67
691.4380, 13499.77
692.5950, 13601.61
693.7520, 13556.23
694.9080, 13575.98
696.0650, 13733.56
697.2210, 13881.30
698.3770, 13993.42
699.5330, 14363.12
700.6880, 14224.99
701.8440, 14473.14
702.9990, 14461.18
704.1550, 14496.22
705.3100, 14417.27
706.4650, 14421.32
707.6190, 14575.38
708.7740, 14511.59
709.9290, 14432.79
711.0830, 14460.75
712.2370, 14142.83
713.3910, 13716.93
714.5450, 13525.03
715.6980, 13509.13
716.8520, 13183.25
718.0050, 12972.37
719.1580, 12748.50
720.3110, 12623.63
721.4640, 12178.77
722.6170, 11500.93
723.7700, 11230.08
724.9220, 11008.27
726.0740, 10361.54
727.2260, 10395.84
728.3780, 10107.16
729.5300, 9475.484
730.6810, 9195.848
731.8330, 8949.234
732.9840, 8431.621
734.1350, 7902.031
735.2860, 7490.453
736.4370, 7451.879
737.5880, 7031.312
738.7380, 6910.754
739.8880, 6584.195
741.0390, 6349.832
742.1890, 6384.109
743.3380, 5979.570
744.4880, 5825.047
745.6380, 5816.523
746.7870, 5561.016
747.9360, 5427.488
749.0850, 5350.984
750.2340, 5263.488
751.3830, 5272.992
752.5310, 5209.504
753.6800, 5036.020
754.8280, 5011.547
755.9760, 4743.082
757.1240, 4653.617
758.2720, 4441.160
759.4190, 4554.711
760.5670, 4244.270
761.7140, 3948.836
762.8610, 4075.410
764.0080, 3624.992
765.1550, 3646.586
766.3020, 3516.180
767.4480, 3266.789
768.5950, 3025.402
769.7410, 3047.023
770.8870, 2637.652
772.0330, 2696.289
773.1780, 2385.945
774.3240, 2687.609
775.4690, 2277.289
776.6140, 2323.977
777.7590, 2102.691
778.9040, 1854.410
780.0490, 1964.141
781.1940, 1886.879
782.3380, 1594.633
783.4820, 1794.414
784.6260, 1845.203
785.7700, 1799.035
786.9140, 1751.336
788.0580, 1315.797
789.2010, 1454.730
790.3450, 1269.711
791.4880, 1106.703
792.6310, 1117.816
793.7730, 1059.984
794.9160, 864.2227
796.0590, 957.5547
797.2010, 683.9414
798.3430, 739.4102
799.4850, 497.9180
800.6270, 357.4766
801.7690, 786.1406
802.9100, 253.9219
804.0520, 250.7148
805.1930, 24.63281
806.3340, 438.5781
807.4750, 138.4570
808.6160, 1.453125
809.7560, 210.3633
810.8970, 22.71875
812.0370, 121.8164
813.1770, 101.9922
814.3170, 96.22266
815.4570, 58.51562
816.5960, 313.8398
817.7360, 106.3398
818.8750, 43.90234
820.0140, 447.4961
821.1530, 479.3320
822.2920, 363.4180
823.4310, 263.7070
824.5690, 322.1367
825.7070, 278.7422
826.8460, 249.4922
827.9840, 202.3750
829.1220, 147.3672
830.2590, 178.0820
831.3970, 310.6094
832.5340, 212.9453
833.6710, 269.3867
834.8080, 227.9688
835.9450, 104.6680
837.0820, 285.4258
838.2190, 54.32812
839.3550, 175.2578
840.4910, 252.7188
841.6270, 109.7188
842.7630, 44.73047
843.8990, 112.7617
845.0350, 24.18750
846.1700, 43.84766
847.3060, 204.8984
848.4410, 462.9727
849.5760, 486.0625
850.7100, 440.1758
851.8450, 649.3008
852.9800, 559.4453
854.1140, 754.6094
855.2480, 934.7969
856.3820, 1004.000
857.5160, 1403.227
858.6500, 1357.469
859.7830, 1570.734
860.9170, 2009.020
862.0500, 1966.328
863.1830, 2181.652
864.3160, 2427.000
865.4480, 2541.375
866.5810, 2741.762
867.7130, 3120.176
868.8460, 3296.609
869.9780, 3661.062
871.1100, 4115.535
872.2410, 4101.035
873.3730, 5039.570
874.5050, 5032.133
875.6360, 5454.723
876.7670, 5950.363
877.8980, 5867.027
879.0290, 6643.719
880.1590, 6809.434
881.2900, 7205.172
882.4200, 7581.930
883.5500, 8131.715
884.6800, 8383.531
885.8100, 9107.367
886.9400, 9310.234
888.0690, 9628.125
889.1990, 10552.05
890.3280, 10838.01
891.4570, 11324.02
892.5860, 11844.06
893.7140, 12153.15
894.8430, 12785.27
895.9710, 12908.40
897.1000, 13730.59
898.2280, 13931.80
899.3560, 14540.04
900.4830, 15023.31
901.6110, 15836.62
902.7380, 16176.96
903.8660, 16710.31
904.9930, 17485.71
906.1200, 17796.14
907.2460, 18387.59
908.3730, 18690.06
909.5000, 19261.57
910.6260, 19563.16
911.7520, 20088.77
912.8780, 20266.45
914.0040, 20674.69
915.1290, 20926.72
916.2550, 21187.64
917.3800, 21327.47
918.5050, 21212.32
919.6300, 21253.21
920.7550, 21673.18
921.8800, 21293.17
923.0040, 21358.27
924.1290, 21011.39
925.2530, 20719.55
926.3770, 20603.75
927.5010, 20653.99
928.6250, 20294.25
929.7480, 19916.57
930.8720, 19683.91
931.9950, 18912.33
933.1180, 18760.77
934.2410, 18210.24
935.3640, 17902.77
936.4860, 17537.66
937.6090, 16903.44
938.7310, 16589.70
939.8530, 15735.51
940.9750, 14839.05
942.0970, 14367.92
943.2180, 13767.38
944.3400, 13405.81
945.4610, 12956.78
946.5820, 12044.98
947.7030, 11896.51
948.8240, 11105.22
949.9450, 10849.29
951.0650, 9882.582
952.1860, 9709.461
953.3060, 8760.047
954.4260, 8451.285
955.5460, 7789.898
956.6650, 7357.559
957.7850, 6674.562
958.9040, 6338.926
960.0230, 5998.695
961.1420, 5238.301
962.2610, 5306.820
963.3800, 4557.160
964.4990, 4207.250
965.6170, 3640.414
966.7350, 3090.492
967.8530, 3159.812
968.9710, 2725.699
970.0890, 2446.309
971.2070, 1992.312
972.3240, 2201.590
973.4410, 1940.656
974.5580, 1673.887
975.6750, 1608.180
976.7920, 1517.523
977.9090, 1432.922
979.0250, 1299.406
980.1410, 1132.805
981.2580, 1074.387
982.3740, 1021.715
983.4890, 1120.750
984.6050, 1069.516
985.7200, 949.3398
986.8360, 1107.227
987.9510, 1000.168
989.0660, 1114.203
990.1810, 1128.289
991.2950, 987.4258
992.4100, 1134.617
993.5240, 1124.863
994.6390, 1300.164
995.7530, 1326.516
996.8660, 1287.918
997.9800, 1319.371
999.0940, 1468.887
1000.207, 1642.461
1001.320, 1637.043
1002.433, 1849.777
1003.546, 1792.535
1004.659, 1990.156
1005.772, 1982.207
1006.884, 2284.977
1007.996, 2469.949
1009.108, 2519.191
1010.220, 2657.594
1011.332, 2798.523
1012.444, 2969.488
1013.555, 3229.484
1014.666, 3292.762
1015.777, 3832.090
1016.888, 3828.469
1017.999, 3922.055
1019.110, 4053.230
1020.220, 4052.766
1021.331, 4445.352
1022.441, 4853.895
1023.551, 4483.578
1024.661, 4954.246
1025.770, 5149.035
1026.880, 4726.023
1027.989, 5445.910
1029.098, 4931.840
1030.207, 4967.680
1031.316, 5107.719
1032.425, 4635.801
1033.533, 4863.461
1034.642, 4424.633
1035.750, 4774.855
1036.858, 4404.039
1037.966, 4280.387
1039.073, 4108.789
1040.181, 3977.230
1041.288, 4199.988
1042.396, 3774.523
1043.503, 3336.570
1044.610, 3542.199
1045.716, 3279.820
1046.823, 3297.531
1047.929, 2916.281
1049.036, 2781.078
1050.142, 2700.492
1051.248, 2513.371
1052.353, 2416.516
1053.459, 2327.723
1054.564, 2200.719
1055.670, 2103.512
1056.775, 2179.312
1057.880, 2026.457
1058.985, 2150.305
1060.089, 1909.621
1061.194, 1883.914
1062.298, 1935.641
1063.402, 2134.953
1064.506, 1816.656
1065.610, 2003.039
1066.713, 1849.461
1067.817, 1999.449
1068.920, 1655.398
1070.023, 2032.844
1071.126, 2114.242
1072.229, 1846.145
1073.332, 1856.922
1074.435, 2131.594
1075.537, 1988.297
1076.639, 2115.703
1077.741, 1956.523
1078.843, 2071.184
1079.945, 1951.082
1081.046, 2095.066
1082.148, 1658.223
1083.249, 1649.395
1084.350, 2015.078
1085.451, 1647.211
1086.551, 1660.648
1087.652, 1607.039
1088.752, 1620.586
1089.853, 1393.551
1090.953, 1442.785
1092.053, 1363.754
1093.152, 1430.562
1094.252, 1357.723
1095.351, 1408.359
1096.451, 1380.793
1097.550, 1432.336
1098.649, 1334.504
1099.748, 1250.102
1100.846, 1206.926
1101.945, 1141.711
1103.043, 1183.633
1104.141, 889.7305
1105.239, 1214.926
1106.337, 881.6484
1107.434, 977.7266
1108.532, 906.0938
1109.629, 1005.320
1110.726, 736.3750
1111.823, 653.5859
1112.920, 609.8281
1114.017, 181.6016
1115.113, 465.2070
1116.210, 613.8281
1117.306, 638.9883
1118.402, 170.7422
1119.498, 339.5664
1120.593, 260.7812
1121.689, 162.9062
1122.784, 421.9844
1123.879, 23.13672
1124.974, 276.6211
1126.069, 270.0742
1127.164, 382.1914
1128.259, 236.3438
1129.353, 170.2070
1130.447, 362.7969
1131.541, 413.5117
1132.635, 266.7070
1133.729, 83.41016
1134.822, 236.3086
1135.916, 262.8984
1137.009, 45.53125
1138.102, 129.0039
1139.195, 150.4414
1140.288, 58.68750
1141.380, 173.1406
1142.473, 223.2383
1143.565, 22.33203
1144.657, 36.04297
1145.749, 42.42188
1146.841, 41.95312
1147.932, 123.3242
1149.024, 40.30078
1150.115, 321.5000
1151.206, 13.15625
1152.297, 35.51562
1153.388, 108.8789
1154.479, 127.9297
1155.569, 141.6914
1156.659, 260.0703
1157.750, 124.6875
1158.839, 90.93750
1159.929, 51.11719
1161.019, 96.17188
1162.108, 63.34766
1163.198, 12.48438
1164.287, 66.39062
1165.376, 199.8984
1166.465, 23.10547
1167.553, 24.87500
1168.642, 240.2852
1169.730, 215.7188
1170.818, 159.7500
1171.906, 4.214844
1172.994, 195.0039
1174.082, 174.9883
1175.170, 146.1992
1176.257, 114.8906
1177.344, 168.8516
1178.431, 321.5156
1179.518, 350.1523
1180.605, 116.6875
1181.691, 56.18750
1182.778, 27.35938
1183.864, 121.4141
1184.950, 141.5195
1186.036, 252.9375
1187.122, 4.222656
1188.207, 168.6484
1189.292, 23.71094
1190.378, 23.55078
1191.463, 38.79688
1192.548, 61.97656
1193.632, 86.17578
1194.717, 104.6875
1195.801, 127.3516
1196.886, 103.3711
1197.970, 70.44531
1199.054, 67.52734
1200.137, 41.37109
1201.221, 86.19922
1202.305, 251.3242
1203.388, 7.769531
1204.471, 160.6562
1205.554, 291.2773
1206.637, 4.679688
1207.719, 203.0312
1208.802, 138.6406
1209.884, 284.5547
1210.966, 132.7266
1212.048, 111.8711
1213.130, 127.9297
1214.212, 31.28125
1215.293, 19.27344
1216.374, 136.6602
1217.456, 349.5703
1218.536, 224.4453
1219.617, 31.28906
1220.698, 90.88281
1221.778, 139.7891
1222.859, 47.56250
1223.939, 303.9883
1225.019, 114.5078
1226.099, 137.9844
1227.178, 81.77344
1228.258, 99.96094
1229.337, 341.3086
1230.417, 174.6250
1231.496, 283.9023
1232.574, 1.707031
1233.653, 178.5352
1234.732, 181.9609
1235.810, 120.0625
1236.888, 286.1133
1237.966, 213.9102
1239.044, 101.0859
1240.122, 22.56641
1241.199, 275.3477
1242.277, 440.8945
1243.354, 482.5430
1244.431, 28.52344
1245.508, 214.3984
1246.585, 143.6562
1247.661, 62.69922
1248.738, 338.5352
1249.814, 43.62109
1250.890, 226.1367
1251.966, 235.9648
1253.042, 364.4648
1254.117, 236.1211
1255.193, 186.2305
1256.268, 394.3672
1257.343, 459.5625
1258.418, 321.7891
1259.493, 174.7188
1260.567, 115.5977
1261.642, 117.6719
1262.716, 241.4258
1263.790, 64.13672
1264.864, 276.7656
1265.938, 105.0078
1267.011, 462.6445
1268.085, 373.3984
1269.158, 219.8242
1270.231, 293.0938
1271.304, 427.0898
1272.377, 303.3672
1273.450, 443.2344
1274.522, 451.9297
1275.594, 284.5508
1276.666, 464.6367
1277.738, 356.0352
1278.810, 227.1367
1279.882, 150.0703
1280.953, 408.9492
1282.025, 275.1875
1283.096, 223.0664
1284.167, 318.8125
1285.238, 134.5547
1286.308, 445.1836
1287.379, 225.6133
1288.449, 536.1562
1289.519, 132.7891
1290.589, 238.3320
1291.659, 384.1992
1292.729, 396.8164
1293.798, 288.1055
1294.868, 308.5938
1295.937, 37.86719
1297.006, 314.3320
1298.075, 246.3633
1299.143, 547.3398
1300.212, 486.4570
1301.280, 301.0742
1302.348, 499.4453
1303.416, 271.7656
1304.484, 466.5117
1305.552, 382.2969
1306.620, 512.9492
1307.687, 588.5469
1308.754, 422.1094
1309.821, 383.0430
1310.888, 355.8320
1311.955, 324.0273
1313.021, 291.1484
