##NAMES=Astrophyllite
##RRUFFID=R060202
##IDEAL CHEMISTRY=K_2_NaFe^2+^_7_Ti^4+^_2_(Si_4_O_12_)_2_O_2_(OH)_4_F
##LOCALITY=Demix Quarry, Mont Saint-Hilaire, Rouville County, Quebec, Canada
##OWNER=RRUFF
##SOURCE=Royal Ontario Museum
##DESCRIPTION=Aggregate of brown splintered wafers
##STATUS=The identification of this mineral has been confirmed by X-ray diffraction and chemical analysis
##URL=rruff.info/R060202
##MEASURED CHEMISTRY=(K_0.56_Na_0.38_Ca_0.06_)_3_(Fe^2+^_0.52_Mn_0.44_Mg_0.04_)_7_(Ti_0.75_Zr_0.15_Al_0.15_)_2_Si_8_O_24_(O_0.27_OH_0.73_)_7_
##PIN_ID=M00495
##ORIENTATION=Laser parallel to c* (0 0 1). Fiducial mark perpendicular to laser is parallel to a [1 0 0]
145.1840, 0.0000000E+00
146.4120, 207.0840
147.6390, 14.27539
148.8670, 246.5898
150.0940, 181.5781
151.3210, 512.8242
152.5490, 588.1914
153.7750, 681.8867
155.0020, 758.8086
156.2290, 742.6484
157.4550, 644.4531
158.6810, 470.4258
159.9080, 852.9219
161.1340, 1059.738
162.3590, 1531.633
163.5850, 1841.637
164.8110, 2364.051
166.0360, 2573.504
167.2610, 2519.719
168.4860, 2087.473
169.7110, 2124.570
170.9360, 2292.832
172.1610, 2005.109
173.3850, 2333.273
174.6100, 1283.195
175.8340, 1272.770
177.0580, 1067.938
178.2820, 760.4844
179.5050, 614.4297
180.7290, 798.1406
181.9520, 256.7578
183.1760, 220.5977
184.3990, 323.5859
185.6220, 632.7617
186.8450, 758.1602
188.0670, 899.7812
189.2900, 1072.609
190.5120, 1388.611
191.7340, 1737.754
192.9560, 1930.996
194.1780, 2235.312
195.4000, 2663.668
196.6220, 2923.039
197.8430, 3160.398
199.0640, 3713.727
200.2860, 4408.992
201.5070, 4749.191
202.7270, 5132.297
203.9480, 5306.299
205.1690, 4551.178
206.3890, 4305.924
207.6090, 3997.523
208.8290, 4220.404
210.0490, 4912.215
211.2690, 5633.613
212.4890, 6173.682
213.7080, 6951.996
214.9280, 7854.410
216.1470, 7980.738
217.3660, 8369.785
218.5850, 8510.072
219.8030, 9440.885
221.0220, 9910.996
222.2400, 10260.98
223.4590, 10479.04
224.6770, 10826.64
225.8950, 11044.57
227.1120, 11288.04
228.3300, 11426.63
229.5480, 11528.40
230.7650, 11577.16
231.9820, 11379.79
233.1990, 11354.30
234.4160, 11032.68
235.6330, 11001.83
236.8490, 10411.77
238.0660, 9968.486
239.2820, 9367.986
240.4980, 8765.953
241.7140, 8053.273
242.9300, 7507.031
244.1460, 6939.533
245.3610, 6323.801
246.5770, 6191.812
247.7920, 5233.574
249.0070, 5122.090
250.2220, 4244.363
251.4370, 3765.391
252.6510, 3606.170
253.8660, 3527.697
255.0800, 2858.973
256.2940, 2784.996
257.5080, 2636.773
258.7220, 3895.305
259.9360, 3168.363
261.1490, 2820.471
262.3630, 2505.430
263.5760, 1511.984
264.7890, 1006.297
266.0020, 1075.367
267.2150, 926.1992
268.4270, 411.7891
269.6400, 490.1445
270.8520, 295.2637
272.0640, 57.14648
273.2760, 172.7988
274.4880, 107.7871
275.7000, 90.12305
276.9120, 133.6934
278.1230, 120.0371
279.3340, 219.2246
280.5450, 224.5430
281.7560, 283.5527
282.9670, 35.37109
284.1780, 182.5098
285.3880, 70.01758
286.5980, 98.53711
287.8090, 0.8496090
289.0190, 73.73242
290.2290, 105.0273
291.4380, 283.0898
292.6480, 233.5508
293.8570, 417.5469
295.0670, 589.2148
296.2760, 598.1055
297.4850, 594.7227
298.6930, 539.5977
299.9020, 710.8730
301.1110, 722.9082
302.3190, 882.7109
303.5270, 791.7129
304.7350, 903.3438
305.9430, 1097.746
307.1510, 1281.770
308.3580, 1188.453
309.5660, 1291.529
310.7730, 1551.143
311.9800, 1713.070
313.1870, 1912.855
314.3940, 2065.877
315.6010, 2186.352
316.8070, 2230.967
318.0130, 2403.086
319.2200, 2292.111
320.4260, 2380.859
321.6310, 2516.162
322.8370, 2556.166
324.0430, 2736.229
325.2480, 2736.316
326.4540, 3121.508
327.6590, 3124.543
328.8640, 3220.285
330.0680, 3361.111
331.2730, 3393.090
332.4780, 3557.025
333.6820, 3384.305
334.8860, 3655.701
336.0900, 3984.258
337.2940, 3885.689
338.4980, 3989.990
339.7010, 3925.359
340.9050, 4169.408
342.1080, 4174.131
343.3110, 4322.387
344.5140, 4147.043
345.7170, 4032.570
346.9200, 4253.967
348.1220, 4106.230
349.3240, 4032.365
350.5270, 4228.371
351.7290, 3887.246
352.9310, 3944.990
354.1320, 3955.602
355.3340, 3885.031
356.5350, 3975.230
357.7370, 3819.189
358.9380, 3945.762
360.1390, 3946.555
361.3400, 3904.436
362.5400, 4008.383
363.7410, 3897.293
364.9410, 3862.057
366.1410, 3908.678
367.3410, 3848.387
368.5410, 3872.682
369.7410, 3839.676
370.9400, 3893.713
372.1400, 3909.598
373.3390, 3926.334
374.5380, 3906.912
375.7370, 3832.441
376.9360, 3843.611
378.1350, 3657.732
379.3330, 3592.699
380.5310, 3558.512
381.7300, 3639.174
382.9280, 3449.684
384.1260, 3336.043
385.3230, 3081.254
386.5210, 3036.316
387.7180, 2771.230
388.9160, 2830.000
390.1130, 2729.623
391.3100, 2452.100
392.5060, 2211.434
393.7030, 1989.623
394.9000, 1831.670
396.0960, 1705.578
397.2920, 1827.344
398.4880, 1426.969
399.6840, 1161.457
400.8800, 978.8105
402.0750, 1221.025
403.2710, 1043.107
404.4660, 657.0566
405.6610, 795.8652
406.8560, 402.5410
408.0510, 929.0762
409.2450, 597.4824
410.4400, 479.9863
411.6340, 501.8926
412.8280, 258.8965
414.0220, 139.7598
415.2160, 462.4746
416.4100, 94.42773
417.6030, 241.6914
418.7970, 40.42969
419.9900, 148.7617
421.1830, 63.74805
422.3760, 76.08984
423.5690, 146.3301
424.7610, 208.0371
425.9540, 39.47461
427.1460, 118.5430
428.3380, 113.2578
429.5300, 44.60352
430.7220, 370.2852
431.9140, 165.9199
433.1050, 329.6602
434.2970, 99.88672
435.4880, 459.6738
436.6790, 530.2285
437.8700, 348.6152
439.0610, 365.0391
440.2510, 151.8398
441.4420, 202.9043
442.6320, 161.4707
443.8220, 413.0977
445.0120, 299.1250
446.2020, 176.4883
447.3910, 316.1289
448.5810, 44.11328
449.7700, 184.3008
450.9600, 229.7598
452.1490, 223.5176
453.3370, 44.56445
454.5260, 212.8047
455.7150, 55.32812
456.9030, 93.04883
458.0910, 108.0176
459.2800, 21.05078
460.4670, 115.7090
461.6550, 249.3379
462.8430, 146.1543
464.0300, 163.1270
465.2180, 181.2793
466.4050, 368.3105
467.5920, 132.2324
468.7790, 269.0293
469.9650, 95.71289
471.1520, 303.2715
472.3380, 76.72070
473.5250, 412.0469
474.7110, 146.2676
475.8970, 264.3750
477.0820, 437.3730
478.2680, 621.2695
479.4540, 623.8301
480.6390, 675.7812
481.8240, 526.3965
483.0090, 625.9180
484.1940, 362.3477
485.3780, 434.6797
486.5630, 779.9180
487.7470, 554.0684
488.9320, 745.1309
490.1160, 791.1055
491.3000, 702.9941
492.4830, 674.7969
493.6670, 708.9082
494.8500, 705.8711
496.0340, 844.7012
497.2170, 678.1719
498.4000, 904.5625
499.5820, 661.8711
500.7650, 775.1016
501.9480, 705.2559
503.1300, 838.3359
504.3120, 941.3398
505.4940, 601.2734
506.6760, 1028.131
507.8580, 808.9219
509.0390, 697.6406
510.2210, 855.2871
511.4020, 772.8672
512.5830, 838.3809
513.7640, 707.8242
514.9450, 870.2051
516.1250, 897.5195
517.3060, 703.7695
518.4860, 1048.959
519.6660, 849.0859
520.8460, 826.1504
522.0260, 895.1543
523.2060, 853.0996
524.3850, 966.9863
525.5650, 780.8164
526.7440, 943.5918
527.9230, 767.3125
529.1020, 1115.977
530.2810, 1011.588
531.4590, 1516.148
532.6380, 1395.277
533.8160, 1414.115
534.9940, 1378.523
536.1720, 1492.053
537.3500, 1629.416
538.5270, 1864.490
539.7050, 2066.779
540.8820, 2404.064
542.0590, 2730.367
543.2360, 3140.635
544.4130, 3433.910
545.5900, 3831.199
546.7660, 4276.152
547.9430, 4621.740
549.1190, 4970.766
550.2950, 5408.709
551.4710, 5612.609
552.6470, 5999.037
553.8220, 6336.598
554.9980, 6598.355
556.1730, 6350.975
557.3480, 6785.547
558.5230, 6867.811
559.6980, 6499.607
560.8730, 6655.652
562.0470, 6312.217
563.2220, 6504.072
564.3960, 6004.635
565.5700, 5948.883
566.7440, 5659.385
567.9170, 5583.197
569.0910, 5327.742
570.2640, 5161.479
571.4380, 4921.729
572.6110, 4531.738
573.7840, 4143.725
574.9570, 4239.584
576.1290, 3768.986
577.3020, 3707.930
578.4740, 3590.582
579.6460, 3468.797
580.8180, 3554.146
581.9900, 3753.041
583.1620, 3738.900
584.3330, 3866.535
585.5040, 3383.559
586.6760, 3556.924
587.8470, 3302.189
589.0180, 3534.895
590.1880, 3438.891
591.3590, 3507.303
592.5290, 3544.084
593.7000, 3371.492
594.8700, 3399.369
596.0400, 3504.928
597.2090, 3265.617
598.3790, 3179.189
599.5490, 3073.184
600.7180, 3199.791
601.8870, 3017.479
603.0560, 3029.338
604.2250, 2867.875
605.3940, 2798.811
606.5620, 2922.000
607.7300, 2816.078
608.8990, 2894.061
610.0670, 2773.869
611.2350, 2813.754
612.4020, 2765.852
613.5700, 2879.791
614.7370, 2933.494
615.9050, 2846.166
617.0720, 3004.408
618.2390, 2932.453
619.4060, 3399.254
620.5720, 3424.102
621.7390, 3705.990
622.9050, 3791.729
624.0710, 4143.709
625.2370, 4465.928
626.4030, 4398.529
627.5690, 4602.648
628.7340, 5027.812
629.9000, 5016.025
631.0650, 5345.285
632.2300, 6198.594
633.3950, 6464.953
634.5600, 7127.359
635.7240, 7676.816
636.8890, 8559.328
638.0530, 9083.883
639.2170, 10334.50
640.3810, 11214.16
641.5450, 12398.88
642.7080, 13915.64
643.8720, 14679.46
645.0350, 16837.34
646.1980, 18184.27
647.3610, 19595.26
648.5240, 20899.29
649.6870, 21675.38
650.8490, 22360.53
652.0120, 22153.74
653.1740, 22278.00
654.3360, 21652.31
655.4980, 21089.70
656.6600, 19763.12
657.8210, 19183.62
658.9830, 17967.16
660.1440, 16606.77
661.3050, 15294.44
662.4660, 14363.16
663.6270, 13429.95
664.7870, 12361.79
665.9480, 11473.70
667.1080, 10956.67
668.2680, 10380.69
669.4280, 10338.78
670.5880, 10064.93
671.7480, 9986.137
672.9070, 9765.410
674.0670, 9741.742
675.2260, 10082.14
676.3850, 10154.60
677.5440, 10503.63
678.7030, 10519.78
679.8610, 10720.62
681.0200, 10827.88
682.1780, 11199.33
683.3360, 11378.31
684.4940, 11708.59
685.6520, 11864.78
686.8090, 12366.05
687.9670, 12316.35
689.1240, 12438.18
690.2810, 13099.57
691.4380, 12911.55
692.5950, 12808.16
693.7520, 13522.24
694.9080, 13403.70
696.0650, 13474.95
697.2210, 13077.83
698.3770, 13367.17
699.5330, 13660.68
700.6880, 13665.26
701.8440, 13889.25
702.9990, 13888.64
704.1550, 13984.03
705.3100, 14166.07
706.4650, 13946.86
707.6190, 14111.93
708.7740, 13929.20
709.9290, 14114.25
711.0830, 14116.43
712.2370, 14277.12
713.3910, 13886.23
714.5450, 13545.38
715.6980, 13410.64
716.8520, 13062.09
718.0050, 12709.36
719.1580, 12545.75
720.3110, 12125.76
721.4640, 11813.88
722.6170, 11202.14
723.7700, 10915.51
724.9220, 10471.06
726.0740, 10078.77
727.2260, 9489.586
728.3780, 9243.559
729.5300, 8748.613
730.6810, 8322.781
731.8330, 8068.086
732.9840, 7754.512
734.1350, 7485.012
735.2860, 7346.633
736.4370, 6933.336
737.5880, 6910.121
738.7380, 6755.957
739.8880, 6630.855
741.0390, 5938.801
742.1890, 5893.789
743.3380, 5697.867
744.4880, 5806.988
745.6380, 5399.152
746.7870, 5475.352
747.9360, 5152.594
749.0850, 5154.871
750.2340, 5085.195
751.3830, 4973.551
752.5310, 4673.953
753.6800, 4836.387
754.8280, 4580.859
755.9760, 4683.363
757.1240, 4416.902
758.2720, 4564.469
759.4190, 4292.066
760.5670, 4056.695
761.7140, 3907.348
762.8610, 3790.031
764.0080, 3539.746
765.1550, 3346.488
766.3020, 3491.262
767.4480, 3116.059
768.5950, 3160.883
769.7410, 3028.738
770.8870, 2949.617
772.0330, 2744.523
773.1780, 2723.453
774.3240, 2545.414
775.4690, 2251.398
776.6140, 2432.410
777.7590, 2041.441
778.9040, 2154.504
780.0490, 2271.586
781.1940, 2107.695
782.3380, 2116.059
783.4820, 2021.984
784.6260, 1941.164
785.7700, 1840.367
786.9140, 1841.590
788.0580, 1994.840
789.2010, 1894.109
790.3450, 1817.742
791.4880, 1270.719
792.6310, 1546.051
793.7730, 1410.410
794.9160, 1330.785
796.0590, 1428.184
797.2010, 923.6055
798.3430, 1172.043
799.4850, 898.4961
800.6270, 928.9766
801.7690, 894.4727
802.9100, 856.9844
804.0520, 1546.520
805.1930, 802.0703
806.3340, 910.6367
807.4750, 373.2266
808.6160, 871.8281
809.7560, 934.4492
810.8970, 945.0859
812.0370, 393.7383
813.1770, 79.40625
814.3170, 103.9102
815.4570, 157.2695
816.5960, 129.6953
817.7360, 238.1875
818.8750, 2.207031
820.0140, 175.3984
821.1530, 194.0859
822.2920, 99.87109
823.4310, 315.7070
824.5690, 149.7070
825.7070, 301.7891
826.8460, 371.0234
827.9840, 168.4609
829.1220, 224.9883
830.2590, 388.6367
831.3970, 200.4961
832.5340, 273.4688
833.6710, 360.5938
834.8080, 67.91797
835.9450, 269.2891
837.0820, 346.8164
838.2190, 260.5391
839.3550, 301.4102
840.4910, 479.4609
841.6270, 216.7695
842.7630, 448.2148
843.8990, 76.91406
845.0350, 130.6758
846.1700, 413.5234
847.3060, 365.6094
848.4410, 94.90625
849.5760, 116.2773
850.7100, 130.2695
851.8450, 128.8203
852.9800, 95.87500
854.1140, 15.06250
855.2480, 23.45703
856.3820, 79.95703
857.5160, 202.4531
858.6500, 205.9492
859.7830, 370.4492
860.9170, 477.9492
862.0500, 468.4492
863.1830, 640.9531
864.3160, 540.4492
865.4480, 574.9492
866.5810, 941.4453
867.7130, 914.9414
868.8460, 912.4336
869.9780, 1047.930
871.1100, 1197.418
872.2410, 1237.906
873.3730, 1448.391
874.5050, 1595.875
875.6360, 1866.352
876.7670, 1840.836
877.8980, 1862.312
879.0290, 1941.793
880.1590, 2118.266
881.2900, 2172.738
882.4200, 2467.203
883.5500, 2722.672
884.6800, 2789.141
885.8100, 2776.609
886.9400, 3022.070
888.0690, 3187.531
889.1990, 3288.930
890.3280, 3532.449
891.4570, 3585.930
892.5860, 3711.402
893.7140, 3896.875
894.8430, 3834.379
895.9710, 3982.887
897.1000, 4361.398
898.2280, 4461.914
899.3560, 4802.453
900.4830, 4746.016
901.6110, 4952.578
902.7380, 5246.184
903.8660, 5290.789
904.9930, 5273.398
906.1200, 5910.004
907.2460, 6095.609
908.3730, 6098.258
909.5000, 6112.906
910.6260, 6111.551
911.7520, 6265.422
912.8780, 6596.820
914.0040, 6678.449
915.1290, 6528.074
916.2550, 6865.695
917.3800, 6852.312
918.5050, 7094.922
919.6300, 7204.531
920.7550, 6964.145
921.8800, 7200.746
923.0040, 7076.391
924.1290, 6928.035
925.2530, 6908.664
926.3770, 6892.305
927.5010, 6906.930
928.6250, 6709.555
929.7480, 6844.168
930.8720, 6807.797
931.9950, 7131.418
933.1180, 6698.039
934.2410, 6369.664
935.3640, 6239.277
936.4860, 5600.891
937.6090, 5410.496
938.7310, 5496.102
939.8530, 5559.703
940.9750, 5407.328
942.0970, 5125.980
943.2180, 4946.629
944.3400, 4798.004
945.4610, 4653.922
946.5820, 4494.555
947.7030, 4460.191
948.8240, 4254.324
949.9450, 3977.762
951.0650, 3852.016
952.1860, 3362.449
953.3060, 3344.516
954.4260, 3169.492
955.5460, 3342.988
956.6650, 3022.238
957.7850, 3127.656
958.9040, 2757.051
960.0230, 2587.480
961.1420, 2384.449
962.2610, 2458.934
963.3800, 2124.887
964.4990, 2053.277
965.6170, 1744.289
966.7350, 1707.000
967.8530, 1815.023
968.9710, 1535.477
970.0890, 1440.574
971.2070, 1391.562
972.3240, 1303.297
973.4410, 1279.043
974.5580, 1280.824
975.6750, 1358.367
976.7920, 1328.352
977.9090, 1255.762
979.0250, 1221.043
980.1410, 1136.219
981.2580, 1199.609
982.3740, 1202.371
983.4890, 1330.664
984.6050, 1324.711
985.7200, 1347.906
986.8360, 1531.141
987.9510, 1298.406
989.0660, 1608.105
990.1810, 1516.879
991.2950, 1467.234
992.4100, 1667.617
993.5240, 1684.035
994.6390, 1928.477
995.7530, 2153.012
996.8660, 2229.578
997.9800, 2401.227
999.0940, 2630.898
1000.207, 2733.676
1001.320, 2811.492
1002.433, 3111.344
1003.546, 3356.887
1004.659, 3331.797
1005.772, 3896.738
1006.884, 3819.719
1007.996, 4468.750
1009.108, 4660.816
1010.220, 4877.438
1011.332, 5316.754
1012.444, 5826.930
1013.555, 5834.457
1014.666, 6381.695
1015.777, 6767.477
1016.888, 7465.613
1017.999, 7618.977
1019.110, 7721.344
1020.220, 7991.801
1021.331, 8562.312
1022.441, 9001.211
1023.551, 9278.984
1024.661, 9355.355
1025.770, 9835.098
1026.880, 9877.781
1027.989, 9627.473
1029.098, 9734.223
1030.207, 9536.797
1031.316, 9515.613
1032.425, 9408.730
1033.533, 9185.355
1034.642, 8948.102
1035.750, 8707.832
1036.858, 8278.789
1037.966, 7952.984
1039.073, 7891.875
1040.181, 7430.945
1041.288, 7064.688
1042.396, 6734.816
1043.503, 6306.969
1044.610, 5842.148
1045.716, 5212.352
1046.823, 5128.586
1047.929, 4663.840
1049.036, 4486.125
1050.142, 4159.441
1051.248, 4086.781
1052.353, 3820.496
1053.459, 3679.746
1054.564, 3444.184
1055.670, 3262.281
1056.775, 3184.773
1057.880, 3229.293
1058.985, 2711.844
1060.089, 2523.414
1061.194, 2677.016
1062.298, 2450.699
1063.402, 2495.805
1064.506, 2329.480
1065.610, 2472.184
1066.713, 2135.668
1067.817, 2120.422
1068.920, 2140.203
1070.023, 2083.004
1071.126, 2252.832
1072.229, 2109.684
1073.332, 2093.422
1074.435, 1936.332
1075.537, 1971.258
1076.639, 2138.266
1077.741, 1936.238
1078.843, 1986.238
1079.945, 2126.258
1081.046, 1912.305
1082.148, 2144.379
1083.249, 1889.664
1084.350, 2177.875
1085.451, 2016.250
1086.551, 2521.965
1087.652, 2014.355
1088.752, 1850.840
1089.853, 1924.375
1090.953, 1687.965
1092.053, 1920.668
1093.152, 1775.438
1094.252, 1806.312
1095.351, 1825.316
1096.451, 1712.215
1097.550, 1594.047
1098.649, 1643.559
1099.748, 1291.938
1100.846, 1407.422
1101.945, 1607.004
1103.043, 1348.664
1104.141, 1292.422
1105.239, 948.7148
1106.337, 1265.504
1107.434, 1139.930
1108.532, 1170.180
1109.629, 867.5195
1110.726, 726.2695
1111.823, 683.6250
1112.920, 800.1914
1114.017, 613.6797
1115.113, 795.0234
1116.210, 511.1406
1117.306, 745.9180
1118.402, 705.5977
1119.498, 658.7500
1120.593, 779.5234
1121.689, 755.1055
1122.784, 854.4922
1123.879, 782.7344
1124.974, 768.9141
1126.069, 671.3516
1127.164, 579.2656
1128.259, 515.8320
1129.353, 423.3867
1130.447, 349.1836
1131.541, 195.3906
1132.635, 110.6875
1133.729, 82.96484
1134.822, 39.09766
1135.916, 99.53906
1137.009, 139.6016
1138.102, 234.4609
1139.195, 281.7852
1140.288, 264.2734
1141.380, 64.97656
1142.473, 10.66016
1143.565, 103.8672
1144.657, 19.42969
1145.749, 185.8008
1146.841, 27.74609
1147.932, 39.56250
1149.024, 158.7539
1150.115, 42.39062
1151.206, 54.17969
1152.297, 89.35547
1153.388, 17.28125
1154.479, 70.89453
1155.569, 102.4727
1156.659, 2.312500
1157.750, 103.8203
1158.839, 188.0234
1159.929, 114.5469
1161.019, 96.69922
1162.108, 154.6445
1163.198, 138.3320
1164.287, 132.3633
1165.376, 21.46094
1166.465, 221.5664
1167.553, 221.2148
1168.642, 36.19922
1169.730, 26.40625
1170.818, 124.9609
1171.906, 210.7344
1172.994, 221.5156
1174.082, 181.1367
1175.170, 139.7500
1176.257, 125.3555
1177.344, 103.2812
1178.431, 210.5508
1179.518, 57.36719
1180.605, 152.7852
1181.691, 82.35547
1182.778, 185.0117
1183.864, 23.77344
1184.950, 171.7539
1186.036, 159.1016
1187.122, 218.6094
1188.207, 251.1328
1189.292, 104.5938
1190.378, 133.0664
1191.463, 135.4453
1192.548, 100.8125
1193.632, 35.83594
1194.717, 155.6016
1195.801, 165.2031
1196.886, 3.195313
1197.970, 122.0703
1199.054, 192.3203
1200.137, 500.5547
1201.221, 138.7773
1202.305, 188.9844
1203.388, 76.81641
1204.471, 109.6953
1205.554, 59.82422
1206.637, 31.84766
1207.719, 75.85156
1208.802, 72.83984
1209.884, 64.74219
1210.966, 105.8906
1212.048, 83.15234
1213.130, 10.07031
1214.212, 87.94922
1215.293, 54.82031
1216.374, 36.32812
1217.456, 192.4609
1218.536, 86.23438
1219.617, 264.9844
1220.698, 171.7148
1221.778, 137.4258
1222.859, 154.1172
1223.939, 184.7812
1225.019, 213.4258
1226.099, 224.0430
1227.178, 10.07422
1228.258, 77.78906
1229.337, 136.3047
1230.417, 306.7930
1231.496, 45.25391
1232.574, 167.6797
1233.653, 197.0781
1234.732, 16.44531
1235.810, 59.76172
1236.888, 44.03906
1237.966, 173.2734
1239.044, 226.4766
1240.122, 56.29688
1241.199, 0.2226560
1242.277, 33.33594
1243.354, 12.96875
1244.431, 39.45703
1245.508, 135.2930
1246.585, 82.00391
1247.661, 50.67578
1248.738, 157.9883
1249.814, 110.8672
1250.890, 257.4062
1251.966, 173.9102
1253.042, 168.3711
1254.117, 190.7969
1255.193, 139.1836
1256.268, 145.4688
1257.343, 111.7227
1258.418, 96.12891
1259.493, 347.8828
1260.567, 194.1406
1261.642, 56.65234
1262.716, 340.3867
1263.790, 171.0859
1264.864, 365.3047
1265.938, 111.9219
1267.011, 76.49219
1268.085, 1.1719000E-02
1269.158, 177.4453
1270.231, 29.84375
1271.304, 219.6523
1272.377, 171.7578
1273.450, 151.9961
1274.522, 246.8672
1275.594, 196.0234
1276.666, 117.6211
1277.738, 29.14453
1278.810, 85.82812
1279.882, 17.22266
1280.953, 10.40234
1282.025, 223.5469
1283.096, 218.8828
1284.167, 106.3711
1285.238, 398.2031
1286.308, 21.66016
1287.379, 312.1445
1288.449, 153.6133
1289.519, 78.01172
1290.589, 177.5703
1291.659, 345.8711
1292.729, 320.8633
1293.798, 274.0820
1294.868, 450.6719
1295.937, 350.0195
1297.006, 105.1367
1298.075, 1.1719000E-02
1299.143, 88.12109
1300.212, 208.0664
1301.280, 50.32422
1302.348, 234.1797
1303.416, 312.0000
1304.484, 246.7852
1305.552, 347.5273
1306.620, 398.6953
1307.687, 178.3672
1308.754, 98.00000
1309.821, 306.7578
1310.888, 81.31250
