##NAMES=Astrophyllite
##RRUFFID=R060202
##IDEAL CHEMISTRY=K_2_NaFe^2+^_7_Ti^4+^_2_(Si_4_O_12_)_2_O_2_(OH)_4_F
##LOCALITY=Demix Quarry, Mont Saint-Hilaire, Rouville County, Quebec, Canada
##OWNER=RRUFF
##SOURCE=Royal Ontario Museum
##DESCRIPTION=Aggregate of brown splintered wafers
##STATUS=The identification of this mineral has been confirmed by X-ray diffraction and chemical analysis
##URL=rruff.info/R060202
##MEASURED CHEMISTRY=(K_0.56_Na_0.38_Ca_0.06_)_3_(Fe^2+^_0.52_Mn_0.44_Mg_0.04_)_7_(Ti_0.75_Zr_0.15_Al_0.15_)_2_Si_8_O_24_(O_0.27_OH_0.73_)_7_
##PIN_ID=M00215
##ORIENTATION=Laser parallel to (1 1 0). Fiducial mark perpendicular to laser is parallel to -c [0 0 -1]
79.89500, 0.0000000E+00
81.13100, 1.150391
82.36700, 521.6836
83.60200, 1625.301
84.83700, 2783.867
86.07200, 3482.311
87.30800, 4036.283
88.54200, 4531.186
89.77700, 5083.744
91.01200, 5547.523
92.24600, 5873.389
93.48000, 5967.129
94.71400, 5568.133
95.94800, 5663.914
97.18200, 5562.033
98.41600, 5286.779
99.64900, 5077.615
100.8830, 4706.092
102.1160, 4400.629
103.3490, 3912.908
104.5820, 3713.328
105.8150, 3437.344
107.0470, 3773.314
108.2800, 4215.590
109.5120, 5025.508
110.7440, 4773.711
111.9760, 3478.912
113.2080, 2989.359
114.4400, 3198.902
115.6710, 3965.234
116.9030, 4094.121
118.1340, 4412.707
119.3650, 3741.850
120.5960, 2850.453
121.8270, 2460.434
123.0580, 2668.715
124.2880, 3334.229
125.5190, 3573.912
126.7490, 3761.695
127.9790, 3670.514
129.2090, 3709.314
130.4390, 3451.039
131.6680, 3115.646
132.8980, 2541.086
134.1270, 1903.404
135.3560, 1200.049
136.5850, 817.2324
137.8140, 537.5684
139.0430, 550.0508
140.2710, 280.5059
141.5000, 52.40625
142.7280, 194.9023
143.9560, 771.0020
145.1840, 633.7168
146.4120, 686.0684
147.6390, 516.0645
148.8670, 228.7227
150.0940, 392.0566
151.3210, 280.0723
152.5490, 138.2266
153.7750, 449.7188
155.0020, 683.1855
156.2290, 960.8105
157.4550, 1204.688
158.6810, 1673.863
159.9080, 2051.371
161.1340, 2695.225
162.3590, 3203.432
163.5850, 4083.980
164.8110, 4189.859
166.0360, 4662.059
167.2610, 5378.572
168.4860, 5181.385
169.7110, 5409.480
170.9360, 5508.801
172.1610, 5234.311
173.3850, 4452.004
174.6100, 4161.879
175.8340, 3677.943
177.0580, 3159.189
178.2820, 2882.619
179.5050, 2422.230
180.7290, 2214.020
181.9520, 1663.982
183.1760, 1342.115
184.3990, 1308.391
185.6220, 1237.443
186.8450, 1430.869
188.0670, 1319.531
189.2900, 1359.443
190.5120, 1612.715
191.7340, 1728.328
192.9560, 1829.844
194.1780, 2268.734
195.4000, 2523.656
196.6220, 2819.357
197.8430, 3314.441
199.0640, 3781.688
200.2860, 4052.680
201.5070, 4552.195
202.7270, 4610.170
203.9480, 5093.799
205.1690, 4691.246
206.3890, 4158.801
207.6090, 4097.455
208.8290, 3946.207
210.0490, 3911.047
211.2690, 4158.969
212.4890, 4390.965
213.7080, 4848.035
214.9280, 5240.168
216.1470, 5476.365
217.3660, 6021.621
218.5850, 6259.943
219.8030, 6692.357
221.0220, 7074.881
222.2400, 7697.596
223.4590, 7957.508
224.6770, 8592.686
225.8950, 9044.170
227.1120, 9587.768
228.3300, 10313.83
229.5480, 10934.81
230.7650, 11676.47
231.9820, 12456.75
233.1990, 13058.21
234.4160, 13928.61
235.6330, 14721.82
236.8490, 15201.67
238.0660, 15648.08
239.2820, 16356.96
240.4980, 16525.28
241.7140, 16879.98
242.9300, 17026.89
244.1460, 16873.91
245.3610, 16854.94
246.5770, 17097.03
247.7920, 16630.17
249.0070, 16822.37
250.2220, 16653.61
251.4370, 16711.91
252.6510, 16736.25
253.8660, 17254.64
255.0800, 17300.10
256.2940, 17358.61
257.5080, 17671.07
258.7220, 17426.64
259.9360, 17094.07
261.1490, 16937.97
262.3630, 15394.44
263.5760, 14243.05
264.7890, 12467.82
266.0020, 11430.74
267.2150, 10072.79
268.4270, 8853.965
269.6400, 7913.266
270.8520, 6967.680
272.0640, 6113.205
273.2760, 5218.836
274.4880, 4536.564
275.7000, 3745.389
276.9120, 3356.303
278.1230, 2672.305
279.3340, 2273.387
280.5450, 2223.545
281.7560, 1670.773
282.9670, 1350.066
284.1780, 1163.416
285.3880, 967.8125
286.5980, 717.2598
287.8090, 718.8164
289.0190, 518.6133
290.2290, 221.2012
291.4380, 145.0840
292.6480, 213.4414
293.8570, 16.43750
295.0670, 91.79102
296.2760, 157.5254
297.4850, 154.9141
298.6930, 159.6777
299.9020, 108.9961
301.1110, 151.7500
302.3190, 117.3770
303.5270, 185.0176
304.7350, 19.58203
305.9430, 38.34570
307.1510, 20.89258
308.3580, 63.01562
309.5660, 222.4883
310.7730, 7.224609
311.9800, 17.58398
313.1870, 117.8828
314.3940, 16.08203
315.6010, 2.603516
316.8070, 2.101563
318.0130, 43.41992
319.2200, 142.0215
320.4260, 57.45898
321.6310, 40.88086
322.8370, 322.2852
324.0430, 113.6797
325.2480, 228.0625
326.4540, 319.4355
327.6590, 510.7949
328.8640, 546.2598
330.0680, 371.4746
331.2730, 662.7930
332.4780, 622.0996
333.6820, 674.3438
334.8860, 918.5254
336.0900, 1030.607
337.2940, 1151.578
338.4980, 1504.453
339.7010, 1741.285
340.9050, 1823.006
342.1080, 2181.666
343.3110, 2545.230
344.5140, 2760.730
345.7170, 2718.172
346.9200, 3311.566
348.1220, 3228.939
349.3240, 2733.289
350.5270, 2574.613
351.7290, 2812.918
352.9310, 2796.193
354.1320, 2865.443
355.3340, 2991.037
356.5350, 3243.146
357.7370, 3224.625
358.9380, 3391.500
360.1390, 3566.896
361.3400, 3259.004
362.5400, 3414.672
363.7410, 3367.473
364.9410, 3446.582
366.1410, 3233.859
367.3410, 3189.934
368.5410, 2956.629
369.7410, 2785.174
370.9400, 2705.090
372.1400, 2670.350
373.3390, 2611.639
374.5380, 2417.152
375.7370, 2608.877
376.9360, 2382.922
378.1350, 2776.205
379.3330, 2696.525
380.5310, 3248.691
381.7300, 3234.422
382.9280, 3187.863
384.1260, 3543.893
385.3230, 3588.777
386.5210, 3656.000
387.7180, 3518.771
388.9160, 3728.959
390.1130, 3644.930
391.3100, 3560.244
392.5060, 3501.914
393.7030, 3590.484
394.9000, 3638.197
396.0960, 3681.848
397.2920, 3776.209
398.4880, 3798.848
399.6840, 3945.234
400.8800, 3942.539
402.0750, 4015.760
403.2710, 3995.904
404.4660, 4218.975
405.6610, 4073.977
406.8560, 4289.910
408.0510, 3966.775
409.2450, 4111.574
410.4400, 4271.303
411.6340, 4195.963
412.8280, 4234.555
414.0220, 4627.076
415.2160, 4728.529
416.4100, 4791.914
417.6030, 4992.230
418.7970, 5174.475
419.9900, 5391.654
421.1830, 5417.762
422.3760, 5429.803
423.5690, 5143.773
424.7610, 4887.676
425.9540, 4550.506
427.1460, 4356.270
428.3380, 4107.963
429.5300, 3724.627
430.7220, 3329.141
431.9140, 3026.648
433.1050, 2612.230
434.2970, 2267.469
435.4880, 1848.352
436.6790, 1545.068
437.8700, 1187.650
439.0610, 817.4453
440.2510, 685.1934
441.4420, 401.5781
442.6320, 363.6016
443.8220, 193.0449
445.0120, 29.82031
446.2020, 177.3340
447.3910, 280.8594
448.5810, 194.9668
449.7700, 129.1445
450.9600, 358.3750
452.1490, 126.6719
453.3370, 93.39062
454.5260, 137.9258
455.7150, 204.6035
456.9030, 346.1289
458.0910, 455.4883
459.2800, 668.0703
460.4670, 943.5254
461.6550, 1227.598
462.8430, 1409.287
464.0300, 1604.814
465.2180, 1986.660
466.4050, 2012.148
467.5920, 2310.537
468.7790, 2404.891
469.9650, 2470.178
471.1520, 2497.395
472.3380, 2444.217
473.5250, 2081.633
474.7110, 2191.648
475.8970, 2019.600
477.0820, 1739.486
478.2680, 1681.307
479.4540, 1762.059
480.6390, 1632.748
481.8240, 1842.369
483.0090, 1463.930
484.1940, 1498.424
485.3780, 1532.859
486.5630, 1287.229
487.7470, 1621.537
488.9320, 1387.779
490.1160, 1143.963
491.3000, 1173.086
492.4830, 854.1484
493.6670, 852.1465
494.8500, 754.0859
496.0340, 709.9629
497.2170, 230.7793
498.4000, 265.5215
499.5820, 112.1914
500.7650, 197.7676
501.9480, 66.26367
503.1300, 30.34180
504.3120, 49.90234
505.4940, 42.04102
506.6760, 163.9355
507.8580, 73.12695
509.0390, 7.511719
510.2210, 147.9746
511.4020, 227.6680
512.5830, 108.6074
513.7640, 83.72852
514.9450, 118.0195
516.1250, 203.4961
517.3060, 241.2051
518.4860, 280.9180
519.6660, 319.3809
520.8460, 370.8887
522.0260, 371.7090
523.2060, 463.8398
524.3850, 351.3281
525.5650, 460.1113
526.7440, 366.2500
527.9230, 16.68359
529.1020, 190.2344
530.2810, 80.98828
531.4590, 97.88477
532.6380, 43.93359
533.8160, 54.10156
534.9940, 177.6055
536.1720, 528.2559
537.3500, 615.8574
538.5270, 668.4141
539.7050, 1434.922
540.8820, 1313.385
542.0590, 1821.801
543.2360, 2403.254
544.4130, 2876.752
545.5900, 3376.273
546.7660, 4297.865
547.9430, 5113.482
549.1190, 6200.203
550.2950, 6857.969
551.4710, 8083.822
552.6470, 8939.777
553.8220, 9696.889
554.9980, 10378.10
556.1730, 10991.37
557.3480, 11451.74
558.5230, 11524.18
559.6980, 11538.76
560.8730, 11253.43
562.0470, 10902.14
563.2220, 10301.91
564.3960, 9630.781
565.5700, 9131.684
566.7440, 8389.676
567.9170, 8037.670
569.0910, 7534.670
570.2640, 7007.703
571.4380, 6242.729
572.6110, 6115.766
573.7840, 5337.773
574.9570, 5219.754
576.1290, 4824.703
577.3020, 4321.621
578.4740, 4185.508
579.6460, 4056.375
580.8180, 3842.238
581.9900, 3661.072
583.1620, 3441.398
584.3330, 3315.277
585.5040, 3523.588
586.6760, 3559.773
587.8470, 3497.969
589.0180, 3508.084
590.1880, 3542.893
591.3590, 3663.480
592.5290, 3675.020
593.7000, 3931.143
594.8700, 4121.951
596.0400, 4086.105
597.2090, 4477.076
598.3790, 4117.602
599.5490, 4040.561
600.7180, 3843.527
601.8870, 3957.504
603.0560, 4019.500
604.2250, 3899.486
605.3940, 4060.469
606.5620, 4056.459
607.7300, 4066.439
608.8990, 4225.410
610.0670, 4268.377
611.2350, 4461.338
612.4020, 4435.291
613.5700, 4633.238
614.7370, 5003.182
615.9050, 4708.121
617.0720, 5187.055
618.2390, 5309.986
619.4060, 5367.912
620.5720, 5407.838
621.7390, 5808.760
622.9050, 5927.680
624.0710, 6335.600
625.2370, 6450.518
626.4030, 6840.438
627.5690, 6896.355
628.7340, 7177.273
629.9000, 7408.195
631.0650, 7733.119
632.2300, 8048.043
633.3950, 8449.971
634.5600, 8891.895
635.7240, 9500.830
636.8890, 9999.766
638.0530, 10853.34
639.2170, 11512.37
640.3810, 12368.01
641.5450, 13352.24
642.7080, 14568.18
643.8720, 15792.86
645.0350, 17486.22
646.1980, 19269.44
647.3610, 21123.30
648.5240, 22962.00
649.6870, 25544.86
650.8490, 27926.08
652.0120, 29888.43
653.1740, 31247.38
654.3360, 31671.02
655.4980, 31330.66
656.6600, 30392.08
657.8210, 28509.28
658.9830, 26491.14
660.1440, 24379.76
661.3050, 23067.31
662.4660, 21229.01
663.6270, 19921.11
664.7870, 19144.47
665.9480, 18271.21
667.1080, 18002.08
668.2680, 17770.11
669.4280, 17839.48
670.5880, 17776.94
671.7480, 18180.59
672.9070, 18796.87
674.0670, 19121.76
675.2260, 19661.72
676.3850, 20318.50
677.5440, 21110.33
678.7030, 21833.22
679.8610, 22525.80
681.0200, 23509.14
682.1780, 23934.71
683.3360, 24799.68
684.4940, 25507.12
685.6520, 26542.99
686.8090, 26701.76
687.9670, 27830.99
689.1240, 28055.49
690.2810, 28706.17
691.4380, 29108.03
692.5950, 29608.26
693.7520, 30401.24
694.9080, 30301.42
696.0650, 31011.79
697.2210, 31220.02
698.3770, 31444.55
699.5330, 31559.35
700.6880, 31725.69
701.8440, 31830.96
702.9990, 31952.92
704.1550, 31989.71
705.3100, 31994.32
706.4650, 31966.85
707.6190, 31909.87
708.7740, 31491.70
709.9290, 31567.16
711.0830, 31293.09
712.2370, 31127.12
713.3910, 30946.09
714.5450, 30353.08
715.6980, 29915.10
716.8520, 29239.14
718.0050, 28431.21
719.1580, 27823.30
720.3110, 27174.16
721.4640, 26717.55
722.6170, 25769.73
723.7700, 24833.93
724.9220, 23661.18
726.0740, 23095.52
727.2260, 22060.99
728.3780, 21150.62
729.5300, 20469.38
730.6810, 19439.26
731.8330, 18525.31
732.9840, 17869.48
734.1350, 16896.76
735.2860, 16323.09
736.4370, 15697.45
737.5880, 15119.85
738.7380, 14436.45
739.8880, 13847.15
741.0390, 13165.20
742.1890, 12643.71
743.3380, 12256.25
744.4880, 11725.81
745.6380, 11463.40
746.7870, 11079.02
747.9360, 10797.67
749.0850, 10688.35
750.2340, 10310.06
751.3830, 10207.80
752.5310, 10230.57
753.6800, 9997.367
754.8280, 9668.199
755.9760, 9631.059
757.1240, 9274.953
758.2720, 9245.879
759.4190, 9333.832
760.5670, 8367.820
761.7140, 8333.838
762.8610, 8215.895
764.0080, 7551.975
765.1550, 7361.094
766.3020, 7106.244
767.4480, 6785.428
768.5950, 6302.646
769.7410, 6136.895
770.8870, 5788.182
772.0330, 5382.500
773.1780, 5219.852
774.3240, 5096.238
775.4690, 4623.660
776.6140, 4639.121
777.7590, 4556.629
778.9040, 4476.182
780.0490, 4209.781
781.1940, 4206.438
782.3380, 4017.174
783.4820, 3773.971
784.6260, 3978.828
785.7700, 3652.799
786.9140, 3653.861
788.0580, 3543.992
789.2010, 3477.230
790.3450, 3482.602
791.4880, 3356.963
792.6310, 3033.633
793.7730, 3083.293
794.9160, 2808.074
796.0590, 2463.986
797.2010, 2353.039
798.3430, 2013.244
799.4850, 1701.611
800.6270, 1846.143
801.7690, 1831.859
802.9100, 2064.730
804.0520, 1318.787
805.1930, 1087.002
806.3340, 977.2832
807.4750, 818.6719
808.6160, 781.1426
809.7560, 447.6992
810.8970, 447.3203
812.0370, 539.0137
813.1770, 317.7461
814.3170, 126.5117
815.4570, 239.3066
816.5960, 92.13867
817.7360, 89.00000
818.8750, 278.1055
820.0140, 313.3379
821.1530, 222.7188
822.2920, 386.2012
823.4310, 238.8730
824.5690, 514.6562
825.7070, 293.6953
826.8460, 437.8828
827.9840, 518.2871
829.1220, 681.9551
830.2590, 500.9688
831.3970, 327.2402
832.5340, 472.6758
833.6710, 357.3496
834.8080, 632.2051
835.9450, 460.3867
837.0820, 215.8047
838.2190, 319.3281
839.3550, 494.0137
840.4910, 202.9531
841.6270, 406.9922
842.7630, 97.23828
843.8990, 87.52734
845.0350, 218.8613
846.1700, 39.30273
847.3060, 103.7598
848.4410, 39.73242
849.5760, 236.2422
850.7100, 379.7793
851.8450, 541.3477
852.9800, 583.9453
854.1140, 847.5781
855.2480, 989.2383
856.3820, 1148.928
857.5160, 1112.652
858.6500, 1402.408
859.7830, 1473.193
860.9170, 1925.014
862.0500, 2043.865
863.1830, 2249.746
864.3160, 2512.656
865.4480, 2626.643
866.5810, 2934.660
867.7130, 3244.740
868.8460, 3406.912
869.9780, 3731.115
871.1100, 4049.383
872.2410, 4388.361
873.3730, 4790.037
874.5050, 5186.430
875.6360, 5594.869
876.7670, 6022.352
877.8980, 6413.875
879.0290, 7007.463
880.1590, 7665.146
881.2900, 8174.924
882.4200, 8585.797
883.5500, 9076.729
884.6800, 9688.734
885.8100, 10241.80
886.9400, 10566.91
888.0690, 11342.08
889.1990, 11851.75
890.3280, 12869.54
891.4570, 13123.83
892.5860, 13617.14
893.7140, 14295.49
894.8430, 14739.91
895.9710, 15589.41
897.1000, 16448.94
898.2280, 17093.51
899.3560, 17801.15
900.4830, 18629.83
901.6110, 19167.59
902.7380, 20206.38
903.8660, 21037.21
904.9930, 21831.10
906.1200, 22561.04
907.2460, 23345.03
908.3730, 24329.08
909.5000, 25037.15
910.6260, 25879.25
911.7520, 26829.37
912.8780, 27419.52
914.0040, 28050.70
915.1290, 28703.92
916.2550, 29035.16
917.3800, 29231.43
918.5050, 29866.74
919.6300, 30151.07
920.7550, 29831.43
921.8800, 30218.81
923.0040, 30395.21
924.1290, 30571.66
925.2530, 30424.14
926.3770, 30566.66
927.5010, 30278.19
928.6250, 30119.74
929.7480, 30002.33
930.8720, 29474.93
931.9950, 29482.54
933.1180, 28720.19
934.2410, 28588.84
935.3640, 27847.53
936.4860, 26997.23
937.6090, 26519.95
938.7310, 25611.67
939.8530, 24106.42
940.9750, 23308.16
942.0970, 22359.92
943.2180, 21478.69
944.3400, 20227.47
945.4610, 19472.26
946.5820, 18322.06
947.7030, 17352.87
948.8240, 16816.69
949.9450, 15816.51
951.0650, 15012.34
952.1860, 14098.18
953.3060, 13472.02
954.4260, 12808.32
955.5460, 12076.30
956.6650, 11356.85
957.7850, 10134.04
958.9040, 9404.375
960.0230, 8457.311
961.1420, 7866.029
962.2610, 6985.625
963.3800, 6414.105
964.4990, 5650.258
965.6170, 5249.723
966.7350, 4537.061
967.8530, 3963.238
968.9710, 3629.639
970.0890, 3264.777
971.2070, 2837.699
972.3240, 2552.984
973.4410, 2172.789
974.5580, 2122.654
975.6750, 1965.816
976.7920, 1618.211
977.9090, 1515.744
979.0250, 1174.848
980.1410, 1095.193
981.2580, 979.9668
982.3740, 893.3223
983.4890, 885.2988
984.6050, 857.0664
985.7200, 867.5254
986.8360, 891.0156
987.9510, 839.1387
989.0660, 962.6953
990.1810, 803.2793
991.2950, 875.6895
992.4100, 967.3379
993.5240, 1005.107
994.6390, 1009.775
995.7530, 1128.527
996.8660, 1275.430
997.9800, 1440.354
999.0940, 1797.875
1000.207, 1943.340
1001.320, 1957.529
1002.433, 2248.506
1003.546, 2289.852
1004.659, 2219.127
1005.772, 2498.211
1006.884, 2593.895
1007.996, 2681.379
1009.108, 3058.455
1010.220, 3314.545
1011.332, 3622.785
1012.444, 4126.762
1013.555, 4561.744
1014.666, 4500.820
1015.777, 5422.887
1016.888, 5306.648
1017.999, 5789.102
1019.110, 6393.293
1020.220, 6638.283
1021.331, 6958.902
1022.441, 7287.795
1023.551, 7454.248
1024.661, 7660.082
1025.770, 7846.082
1026.880, 8315.434
1027.989, 8124.777
1029.098, 8334.770
1030.207, 8403.834
1031.316, 8271.035
1032.425, 8341.184
1033.533, 8128.344
1034.642, 7938.387
1035.750, 7913.211
1036.858, 7702.830
1037.966, 7181.953
1039.073, 7160.080
1040.181, 6645.096
1041.288, 6275.045
1042.396, 6026.967
1043.503, 5762.891
1044.610, 5461.893
1045.716, 5098.424
1046.823, 4723.693
1047.929, 4675.344
1049.036, 4223.111
1050.142, 3983.129
1051.248, 3736.432
1052.353, 3694.473
1053.459, 3428.273
1054.564, 3422.842
1055.670, 3066.773
1056.775, 3028.225
1057.880, 2971.424
1058.985, 2820.588
1060.089, 2587.742
1061.194, 2686.859
1062.298, 2506.994
1063.402, 2333.826
1064.506, 2563.955
1065.610, 2457.771
1066.713, 2554.070
1067.817, 2362.834
1068.920, 2578.994
1070.023, 2366.861
1071.126, 2517.107
1072.229, 2595.369
1073.332, 2582.613
1074.435, 2804.523
1075.537, 2753.281
1076.639, 2566.322
1077.741, 2642.168
1078.843, 2977.363
1079.945, 2639.797
1081.046, 2615.002
1082.148, 2645.914
1083.249, 2428.988
1084.350, 2393.105
1085.451, 2467.207
1086.551, 2306.311
1087.652, 2371.738
1088.752, 2330.646
1089.853, 1820.686
1090.953, 1952.645
1092.053, 1926.348
1093.152, 1620.367
1094.252, 1871.818
1095.351, 1699.973
1096.451, 1550.396
1097.550, 1378.857
1098.649, 1376.439
1099.748, 1174.697
1100.846, 1176.074
1101.945, 1023.537
1103.043, 978.4824
1104.141, 895.2676
1105.239, 853.7383
1106.337, 696.6055
1107.434, 700.5918
1108.532, 505.6621
1109.629, 447.7910
1110.726, 430.9336
1111.823, 392.1855
1112.920, 333.8281
1114.017, 433.5898
1115.113, 223.8066
1116.210, 143.0059
1117.306, 99.28711
1118.402, 153.4355
1119.498, 17.44141
1120.593, 175.6426
1121.689, 127.7051
1122.784, 20.26367
1123.879, 99.72852
1124.974, 41.69141
1126.069, 21.37305
1127.164, 72.52344
1128.259, 49.38867
1129.353, 56.22461
1130.447, 176.5195
1131.541, 2.822266
1132.635, 118.1348
1133.729, 239.5488
1134.822, 16.90820
1135.916, 127.6699
1137.009, 102.6406
1138.102, 161.0820
1139.195, 29.06055
1140.288, 66.83203
1141.380, 32.80859
1142.473, 32.85352
1143.565, 105.9648
1144.657, 247.1875
1145.749, 214.5938
1146.841, 244.1660
1147.932, 93.92383
1149.024, 134.7910
1150.115, 96.78711
1151.206, 59.89453
1152.297, 52.09570
1153.388, 9.074219
1154.479, 77.73242
1155.569, 78.81641
1156.659, 58.31641
1157.750, 8.775391
1158.839, 116.8301
1159.929, 173.3477
1161.019, 19.75586
1162.108, 18.79883
1163.198, 139.2207
1164.287, 26.38672
1165.376, 118.6367
1166.465, 13.97266
1167.553, 19.51562
1168.642, 68.00781
1169.730, 82.64453
1170.818, 16.59766
1171.906, 93.22852
1172.994, 141.8145
1174.082, 49.81055
1175.170, 129.7480
1176.257, 73.63281
1177.344, 99.46484
1178.431, 17.75586
1179.518, 196.9297
1180.605, 139.9590
1181.691, 24.84570
1182.778, 139.6406
1183.864, 198.0781
1184.950, 89.46484
1186.036, 171.7969
1187.122, 53.92383
1188.207, 15.23633
1189.292, 67.31445
1190.378, 69.33008
1191.463, 146.1621
1192.548, 42.17969
1193.632, 204.0039
1194.717, 149.7793
1195.801, 54.49609
1196.886, 341.1426
1197.970, 2.253906
1199.054, 151.2480
1200.137, 198.6973
1201.221, 143.4043
1202.305, 142.7422
1203.388, 145.7578
1204.471, 188.9824
1205.554, 225.3574
1206.637, 172.7617
1207.719, 203.7129
1208.802, 90.72070
1209.884, 134.6602
1210.966, 155.8320
1212.048, 191.6543
1213.130, 172.4219
1214.212, 168.1309
1215.293, 417.8984
1216.374, 373.5566
1217.456, 313.1055
1218.536, 219.6348
1219.617, 206.4863
1220.698, 246.0762
1221.778, 322.4121
1222.859, 280.2598
1223.939, 207.1172
1225.019, 296.0527
1226.099, 264.3574
1227.178, 300.8906
1228.258, 302.8691
1229.337, 444.5684
1230.417, 457.7246
1231.496, 931.5840
1232.574, 330.1699
1233.653, 398.1895
1234.732, 247.8223
1235.810, 789.5820
1236.888, 493.5332
1237.966, 406.1445
1239.044, 655.5508
1240.122, 426.3379
1241.199, 397.5820
1242.277, 465.2324
1243.354, 425.3828
1244.431, 433.4980
1245.508, 451.1250
1246.585, 402.7812
1247.661, 515.7910
1248.738, 475.6426
1249.814, 612.7793
1250.890, 542.4492
1251.966, 504.0586
1253.042, 473.8105
1254.117, 670.2930
