##NAMES=Astrophyllite
##RRUFFID=R060202
##IDEAL CHEMISTRY=K_2_NaFe^2+^_7_Ti^4+^_2_(Si_4_O_12_)_2_O_2_(OH)_4_F
##LOCALITY=Demix Quarry, Mont Saint-Hilaire, Rouville County, Quebec, Canada
##OWNER=RRUFF
##SOURCE=Royal Ontario Museum
##DESCRIPTION=Aggregate of brown splintered wafers
##STATUS=The identification of this mineral has been confirmed by X-ray diffraction and chemical analysis
##URL=rruff.info/R060202
##MEASURED CHEMISTRY=(K_0.56_Na_0.38_Ca_0.06_)_3_(Fe^2+^_0.52_Mn_0.44_Mg_0.04_)_7_(Ti_0.75_Zr_0.15_Al_0.15_)_2_Si_8_O_24_(O_0.27_OH_0.73_)_7_
##PIN_ID=M00495
##ORIENTATION=Laser parallel to c* (0 0 1). Fiducial mark perpendicular to laser is parallel to a [1 0 0]
140.2710, 0.0000000E+00
141.5000, 418.3066
142.7280, 82.32617
143.9560, 11.99414
145.1840, 10.76172
146.4120, 26.47852
147.6390, 279.2500
148.8670, 251.2461
150.0940, 202.1914
151.3210, 665.3301
152.5490, 1205.992
153.7750, 1385.492
155.0020, 1572.219
156.2290, 1856.643
157.4550, 2050.338
158.6810, 2331.014
159.9080, 2561.963
161.1340, 2821.734
162.3590, 3079.934
163.5850, 3345.027
164.8110, 3695.426
166.0360, 3937.887
167.2610, 3719.215
168.4860, 3828.242
169.7110, 3484.836
170.9360, 3856.895
172.1610, 3661.328
173.3850, 3059.059
174.6100, 3149.027
175.8340, 2721.227
177.0580, 2568.793
178.2820, 2329.203
179.5050, 2008.406
180.7290, 1952.633
181.9520, 1773.762
183.1760, 1844.543
184.3990, 1701.945
185.6220, 1956.922
186.8450, 1999.488
188.0670, 2140.676
189.2900, 2478.492
190.5120, 2514.957
191.7340, 2596.094
192.9560, 2922.906
194.1780, 3007.414
195.4000, 3620.621
196.6220, 3691.543
197.8430, 3771.188
199.0640, 3765.570
200.2860, 4288.699
201.5070, 4343.590
202.7270, 4817.238
203.9480, 4515.648
205.1690, 3931.824
206.3890, 3305.773
207.6090, 3254.504
208.8290, 3077.000
210.0490, 3143.289
211.2690, 3561.793
212.4890, 3656.488
213.7080, 3938.621
214.9280, 4443.941
216.1470, 4383.240
217.3660, 4568.471
218.5850, 4833.516
219.8030, 4993.191
221.0220, 5127.789
222.2400, 5453.900
223.4590, 5624.777
224.6770, 6080.074
225.8950, 6181.459
227.1120, 6468.062
228.3300, 6918.418
229.5480, 7133.359
230.7650, 7420.211
231.9820, 7363.971
233.1990, 7372.641
234.4160, 7550.225
235.6330, 7562.707
236.8490, 7543.096
238.0660, 7420.391
239.2820, 7345.590
240.4980, 7052.688
241.7140, 6667.688
242.9300, 6227.590
244.1460, 5990.393
245.3610, 5988.094
246.5770, 5536.697
247.7920, 4925.197
249.0070, 4797.598
250.2220, 4200.896
251.4370, 3795.092
252.6510, 3519.160
253.8660, 3092.143
255.0800, 3126.049
256.2940, 2629.898
257.5080, 2378.752
258.7220, 3026.514
259.9360, 2469.324
261.1490, 3636.756
262.3630, 2125.197
263.5760, 1425.502
264.7890, 1250.680
266.0020, 1509.721
267.2150, 1181.633
268.4270, 903.4219
269.6400, 731.0801
270.8520, 683.6113
272.0640, 557.0176
273.2760, 521.3008
274.4880, 287.4648
275.7000, 341.5117
276.9120, 678.4297
278.1230, 405.9512
279.3340, 340.7656
280.5450, 348.8633
281.7560, 49.78906
282.9670, 27.40430
284.1780, 258.0645
285.3880, 259.6914
286.5980, 0.4003910
287.8090, 255.0527
289.0190, 159.6445
290.2290, 104.2949
291.4380, 277.5566
292.6480, 21.33203
293.8570, 111.0723
295.0670, 171.3262
296.2760, 146.0449
297.4850, 14.07617
298.6930, 126.3887
299.9020, 191.3828
301.1110, 283.8809
302.3190, 236.1016
303.5270, 162.4180
304.7350, 400.8672
305.9430, 345.5254
307.1510, 445.9551
308.3580, 522.5254
309.5660, 365.9707
310.7730, 582.4707
311.9800, 405.2676
313.1870, 642.6914
314.3940, 569.0820
315.6010, 789.4238
316.8070, 834.7188
318.0130, 752.9688
319.2200, 764.1699
320.4260, 857.3184
321.6310, 1003.416
322.8370, 1085.453
324.0430, 1057.406
325.2480, 1281.264
326.4540, 1246.027
327.6590, 1346.689
328.8640, 1549.254
330.0680, 1382.723
331.2730, 1833.096
332.4780, 1953.381
333.6820, 1748.570
334.8860, 1953.668
336.0900, 1991.682
337.2940, 1966.607
338.4980, 2300.449
339.7010, 2511.203
340.9050, 2726.877
342.1080, 2604.467
343.3110, 2789.975
344.5140, 2852.404
345.7170, 2923.752
346.9200, 3108.023
348.1220, 2844.219
349.3240, 2998.340
350.5270, 3254.381
351.7290, 3125.352
352.9310, 2973.246
354.1320, 3274.066
355.3340, 3343.818
356.5350, 3176.486
357.7370, 3198.902
358.9380, 3173.080
360.1390, 3076.338
361.3400, 3035.801
362.5400, 2930.043
363.7410, 2978.961
364.9410, 2852.865
366.1410, 2693.662
367.3410, 2535.408
368.5410, 2536.043
369.7410, 2475.143
370.9400, 2629.951
372.1400, 2496.301
373.3390, 2573.375
374.5380, 2571.844
375.7370, 2595.914
376.9360, 2153.926
378.1350, 2327.785
379.3330, 2481.660
380.5310, 2150.469
381.7300, 2568.215
382.9280, 2680.891
384.1260, 2111.512
385.3230, 2116.059
386.5210, 2008.547
387.7180, 1986.973
388.9160, 1788.340
390.1130, 1867.641
391.3100, 1587.879
392.5060, 1539.062
393.7030, 1309.180
394.9000, 1485.242
396.0960, 1600.246
397.2920, 1225.191
398.4880, 1164.074
399.6840, 1063.902
400.8800, 1141.676
402.0750, 1206.387
403.2710, 843.0469
404.4660, 957.6484
405.6610, 956.1953
406.8560, 643.6875
408.0510, 1123.121
409.2450, 752.5078
410.4400, 633.8359
411.6340, 654.1172
412.8280, 394.3438
414.0220, 454.5234
415.2160, 619.6484
416.4100, 464.7266
417.6030, 367.7617
418.7970, 608.7383
419.9900, 529.6797
421.1830, 365.5781
422.3760, 357.4258
423.5690, 137.2266
424.7610, 400.9727
425.9540, 239.4844
427.1460, 40.60156
428.3380, 84.37109
429.5300, 63.25000
430.7220, 72.94531
431.9140, 144.9844
433.1050, 294.5117
434.2970, 276.4414
435.4880, 10.13281
436.6790, 297.9805
437.8700, 71.39062
439.0610, 150.9844
440.2510, 378.5625
441.4420, 368.2031
442.6320, 364.7578
443.8220, 438.4375
445.0120, 244.9336
446.2020, 185.3203
447.3910, 158.6016
448.5810, 118.2305
449.7700, 99.55859
450.9600, 26.58203
452.1490, 123.7305
453.3370, 179.7578
454.5260, 91.21094
455.7150, 310.8867
456.9030, 470.3945
458.0910, 558.6875
459.2800, 396.1328
460.4670, 942.5508
461.6550, 1143.945
462.8430, 1088.301
464.0300, 800.6328
465.2180, 1304.941
466.4050, 1312.215
467.5920, 1550.465
468.7790, 1454.691
469.9650, 1304.891
471.1520, 1350.062
472.3380, 1386.211
473.5250, 1400.340
474.7110, 1297.445
475.8970, 1192.531
477.0820, 1187.867
478.2680, 1145.641
479.4540, 1112.664
480.6390, 993.6680
481.8240, 924.6562
483.0090, 1054.625
484.1940, 872.5781
485.3780, 766.5195
486.5630, 940.4414
487.7470, 771.3516
488.9320, 890.2500
490.1160, 585.1328
491.3000, 638.0000
492.4830, 647.8633
493.6670, 342.7109
494.8500, 239.5508
496.0340, 481.3789
497.2170, 74.20312
498.4000, 173.0117
499.5820, 121.8164
500.7650, 13.61719
501.9480, 22.59375
503.1300, 194.1875
504.3120, 290.9688
505.4940, 163.7500
506.6760, 120.4648
507.8580, 2.292969
509.0390, 124.9531
510.2210, 60.22656
511.4020, 110.5078
512.5830, 190.8125
513.7640, 204.1680
514.9450, 152.5742
516.1250, 73.01562
517.3060, 22.53906
518.4860, 66.48047
519.6660, 234.3281
520.8460, 137.1875
522.0260, 96.72266
523.2060, 41.26172
524.3850, 259.8164
525.5650, 76.38281
526.7440, 331.9688
527.9230, 325.5664
529.1020, 398.1797
530.2810, 426.8125
531.4590, 560.1484
532.6380, 730.1250
533.8160, 876.8086
534.9940, 1056.512
536.1720, 1248.234
537.3500, 1400.621
538.5270, 1726.742
539.7050, 1794.527
540.8820, 2142.332
542.0590, 2494.168
543.2360, 2771.016
544.4130, 3357.898
545.5900, 3833.801
546.7660, 4253.730
547.9430, 4714.680
549.1190, 5267.684
550.2950, 5652.711
551.4710, 6180.770
552.6470, 6763.895
553.8220, 7023.086
554.9980, 7161.941
556.1730, 7562.176
557.3480, 7465.684
558.5230, 7384.188
559.6980, 7423.379
560.8730, 6847.164
562.0470, 7223.094
563.2220, 6745.637
564.3960, 6635.250
565.5700, 6531.703
566.7440, 6064.738
567.9170, 5790.109
569.0910, 5299.859
570.2640, 5209.613
571.4380, 4985.617
572.6110, 4797.945
573.7840, 4218.992
574.9570, 4011.266
576.1290, 3805.242
577.3020, 3744.879
578.4740, 3462.844
579.6460, 3254.543
580.8180, 3333.934
581.9900, 3108.805
583.1620, 2930.645
584.3330, 3125.988
585.5040, 3128.996
586.6760, 2769.391
587.8470, 3168.844
589.0180, 2761.297
590.1880, 3037.543
591.3590, 2861.227
592.5290, 2798.758
593.7000, 3093.461
594.8700, 3168.145
596.0400, 3086.566
597.2090, 3003.387
598.3790, 3193.277
599.5490, 3037.234
600.7180, 2855.258
601.8870, 2934.344
603.0560, 2912.508
604.2250, 2890.781
605.3940, 2929.023
606.5620, 2947.391
607.7300, 3070.820
608.8990, 3164.316
610.0670, 2909.883
611.2350, 2834.520
612.4020, 2958.227
613.5700, 3191.000
614.7370, 3314.844
615.9050, 3252.762
617.0720, 3493.746
618.2390, 3485.801
619.4060, 3407.930
620.5720, 3765.129
621.7390, 4060.398
622.9050, 4050.738
624.0710, 4261.148
625.2370, 4425.230
626.4030, 4449.184
627.5690, 4748.809
628.7340, 4707.500
629.9000, 4834.270
631.0650, 5270.109
632.2300, 5540.023
633.3950, 6033.008
634.5600, 6333.148
635.7240, 6695.203
636.8890, 7117.406
638.0530, 7393.680
639.2170, 8042.031
640.3810, 8760.453
641.5450, 9712.922
642.7080, 10425.04
643.8720, 11138.68
645.0350, 11964.39
646.1980, 13328.18
647.3610, 13871.92
648.5240, 14942.75
649.6870, 15719.60
650.8490, 16019.55
652.0120, 16651.16
653.1740, 16789.81
654.3360, 16727.04
655.4980, 16075.55
656.6600, 15645.68
657.8210, 15411.21
658.9830, 14767.82
660.1440, 14461.58
661.3050, 13796.34
662.4660, 13082.17
663.6270, 12667.08
664.7870, 12404.07
665.9480, 12205.13
667.1080, 11999.27
668.2680, 11847.48
669.4280, 11878.76
670.5880, 12206.13
671.7480, 12200.57
672.9070, 12500.08
674.0670, 12679.67
675.2260, 12964.33
676.3850, 13423.07
677.5440, 13752.89
678.7030, 14126.77
679.8610, 14424.73
681.0200, 14619.77
682.1780, 14875.88
683.3360, 15232.29
684.4940, 15898.32
685.6520, 16009.66
686.8090, 16363.06
687.9670, 16854.80
689.1240, 17073.34
690.2810, 17431.88
691.4380, 17626.91
692.5950, 17978.96
693.7520, 18180.91
694.9080, 18363.89
696.0650, 18430.43
697.2210, 18702.46
698.3770, 18614.00
699.5330, 19080.35
700.6880, 18936.00
701.8440, 19156.93
702.9990, 19183.99
704.1550, 19519.32
705.3100, 19445.64
706.4650, 19235.16
707.6190, 19320.98
708.7740, 19250.64
709.9290, 19082.31
711.0830, 19216.59
712.2370, 19260.97
713.3910, 18481.91
714.5450, 18550.73
715.6980, 18354.08
716.8520, 17888.21
718.0050, 17850.15
719.1580, 17254.42
720.3110, 16874.86
721.4640, 16571.80
722.6170, 16252.02
723.7700, 15393.14
724.9220, 14987.87
726.0740, 14437.80
727.2260, 13984.16
728.3780, 13595.04
729.5300, 13178.73
730.6810, 12831.66
731.8330, 12395.05
732.9840, 12016.12
734.1350, 11443.43
735.2860, 10893.57
736.4370, 10902.73
737.5880, 10358.92
738.7380, 9914.129
739.8880, 9765.367
741.0390, 9736.625
742.1890, 9350.906
743.3380, 9155.211
744.4880, 8945.539
745.6380, 8735.887
746.7870, 8466.262
747.9360, 8487.656
749.0850, 8246.070
750.2340, 8257.504
751.3830, 7850.961
752.5310, 7606.434
753.6800, 7352.930
754.8280, 7238.445
755.9760, 7269.977
757.1240, 7184.531
758.2720, 7022.488
759.4190, 6853.367
760.5670, 6637.289
761.7140, 6281.914
762.8610, 6025.543
764.0080, 5573.195
765.1550, 5511.859
766.3020, 5130.535
767.4480, 4922.227
768.5950, 4879.934
769.7410, 5027.656
770.8870, 4608.383
772.0330, 4495.129
773.1780, 4243.883
774.3240, 3991.645
775.4690, 3769.418
776.6140, 3766.199
777.7590, 3484.996
778.9040, 3384.797
780.0490, 3453.602
781.1940, 3144.426
782.3380, 3142.254
783.4820, 3197.086
784.6260, 3058.926
785.7700, 2680.789
786.9140, 2708.656
788.0580, 2534.547
789.2010, 2447.449
790.3450, 2353.367
791.4880, 2215.320
792.6310, 1954.301
793.7730, 2002.305
794.9160, 1871.891
796.0590, 1738.328
797.2010, 1745.344
798.3430, 1653.395
799.4850, 1488.438
800.6270, 1254.484
801.7690, 1320.527
802.9100, 1374.566
804.0520, 1057.602
805.1930, 949.6328
806.3340, 1057.660
807.4750, 820.7344
808.6160, 691.6953
809.7560, 640.7109
810.8970, 580.7109
812.0370, 552.7031
813.1770, 383.6914
814.3170, 591.6758
815.4570, 628.6406
816.5960, 423.6055
817.7360, 302.5547
818.8750, 396.4922
820.0140, 110.4219
821.1530, 315.3398
822.2920, 149.8516
823.4310, 72.13281
824.5690, 38.99219
825.7070, 102.8320
826.8460, 31.63672
827.9840, 89.57422
829.1220, 122.8750
830.2590, 324.2812
831.3970, 272.9102
832.5340, 70.72266
833.6710, 297.6172
834.8080, 110.7227
835.9450, 119.9375
837.0820, 328.2656
838.2190, 153.8242
839.3550, 104.5234
840.4910, 105.3320
841.6270, 275.2578
842.7630, 310.3867
843.8990, 214.7461
845.0350, 272.2812
846.1700, 269.0312
847.3060, 306.9844
848.4410, 417.1719
849.5760, 119.6562
850.7100, 336.2695
851.8450, 309.1367
852.9800, 207.2227
854.1140, 152.5039
855.2480, 4.195313
856.3820, 473.1914
857.5160, 86.08984
858.6500, 95.67188
859.7830, 106.5703
860.9170, 181.3906
862.0500, 112.6836
863.1830, 84.90234
864.3160, 147.7500
865.4480, 146.3633
866.5810, 275.9453
867.7130, 164.4922
868.8460, 279.1953
869.9780, 215.4805
871.1100, 437.9219
872.2410, 461.3281
873.3730, 588.7227
874.5050, 719.0820
875.6360, 906.4062
876.7670, 991.5547
877.8980, 1016.953
879.0290, 1190.207
880.1590, 1034.434
881.2900, 1102.672
882.4200, 1288.875
883.5500, 1290.043
884.6800, 1467.199
885.8100, 1506.344
886.9400, 1584.441
888.0690, 1486.590
889.1990, 1562.719
890.3280, 2000.812
891.4570, 1907.871
892.5860, 2020.898
893.7140, 2199.887
894.8430, 1929.871
895.9710, 2258.828
897.1000, 2430.742
898.2280, 2357.617
899.3560, 2637.461
900.4830, 2604.266
901.6110, 2686.039
902.7380, 2933.766
903.8660, 2935.457
904.9930, 2967.117
906.1200, 3305.742
907.2460, 3132.328
908.3730, 3416.875
909.5000, 3301.383
910.6260, 3591.859
911.7520, 3612.297
912.8780, 3758.691
914.0040, 3969.059
915.1290, 4074.504
916.2550, 4215.664
917.3800, 4302.910
918.5050, 4368.117
919.6300, 4252.289
920.7550, 4143.414
921.8800, 3951.504
923.0040, 4284.547
924.1290, 3866.551
925.2530, 3964.512
926.3770, 3702.438
927.5010, 3895.320
928.6250, 3984.164
929.7480, 3735.973
930.8720, 3788.742
931.9950, 3885.469
933.1180, 3831.160
934.2410, 3789.809
935.3640, 3501.414
936.4860, 3747.973
937.6090, 3400.500
938.7310, 3890.977
939.8530, 3409.414
940.9750, 2962.809
942.0970, 3056.164
943.2180, 2907.473
944.3400, 2653.742
945.4610, 2794.969
946.5820, 2502.156
947.7030, 2525.316
948.8240, 2482.426
949.9450, 2433.496
951.0650, 2315.516
952.1860, 2062.492
953.3060, 1952.430
954.4260, 1837.469
955.5460, 1986.168
956.6650, 1682.969
957.7850, 1772.727
958.9040, 1763.449
960.0230, 1506.871
961.1420, 1466.500
962.2610, 1434.836
963.3800, 1198.379
964.4990, 1261.594
965.6170, 1294.934
966.7350, 983.2734
967.8530, 1163.086
968.9710, 1277.438
970.0890, 1112.309
971.2070, 949.3906
972.3240, 908.1953
973.4410, 854.9766
974.5580, 936.2070
975.6750, 874.4219
976.7920, 797.2031
977.9090, 765.1875
979.0250, 751.0078
980.1410, 706.0508
981.2580, 858.4258
982.3740, 789.9766
983.4890, 949.4727
984.6050, 621.7656
985.7200, 698.0703
986.8360, 646.3867
987.9510, 694.1953
989.0660, 727.7578
990.1810, 728.0938
991.2950, 758.4219
992.4100, 802.2148
993.5240, 832.9180
994.6390, 1036.852
995.7530, 1100.395
996.8660, 1453.848
997.9800, 1252.676
999.0940, 1046.566
1000.207, 1031.941
1001.320, 1667.398
1002.433, 1576.172
1003.546, 1603.516
1004.659, 1697.992
1005.772, 1798.914
1006.884, 1689.219
1007.996, 1975.609
1009.108, 2316.523
1010.220, 2580.809
1011.332, 2600.656
1012.444, 2877.691
1013.555, 2933.602
1014.666, 3147.883
1015.777, 3263.840
1016.888, 3290.516
1017.999, 3473.645
1019.110, 3640.180
1020.220, 3771.992
1021.331, 4122.617
1022.441, 4172.383
1023.551, 4440.168
1024.661, 4429.246
1025.770, 4645.684
1026.880, 4515.820
1027.989, 4091.238
1029.098, 4640.180
1030.207, 4207.504
1031.316, 4484.305
1032.425, 4130.758
1033.533, 4137.352
1034.642, 4198.414
1035.750, 4137.598
1036.858, 3753.070
1037.966, 3913.297
1039.073, 3565.438
1040.181, 3564.242
1041.288, 3524.305
1042.396, 3295.844
1043.503, 3429.246
1044.610, 2812.590
1045.716, 2848.672
1046.823, 2652.879
1047.929, 2857.879
1049.036, 2796.988
1050.142, 2373.766
1051.248, 2284.766
1052.353, 2300.137
1053.459, 2255.402
1054.564, 2085.055
1055.670, 1912.371
1056.775, 1980.910
1057.880, 2255.258
1058.985, 1856.016
1060.089, 1455.859
1061.194, 1794.629
1062.298, 1820.277
1063.402, 1677.789
1064.506, 1758.758
1065.610, 1692.348
1066.713, 1974.691
1067.817, 1834.688
1068.920, 1707.973
1070.023, 1681.465
1071.126, 1518.551
1072.229, 1632.504
1073.332, 1616.031
1074.435, 1857.199
1075.537, 1683.645
1076.639, 1356.648
1077.741, 1747.844
1078.843, 1535.668
1079.945, 1572.918
1081.046, 1770.824
1082.148, 1334.965
1083.249, 1570.824
1084.350, 1572.059
1085.451, 1577.598
1086.551, 1447.426
1087.652, 1381.922
1088.752, 1184.707
1089.853, 1190.777
1090.953, 1061.969
1092.053, 910.4180
1093.152, 1039.473
1094.252, 1115.445
1095.351, 834.0742
1096.451, 868.8633
1097.550, 491.2812
1098.649, 785.1172
1099.748, 918.8945
1100.846, 464.9258
1101.945, 451.8086
1103.043, 691.7578
1104.141, 569.9023
1105.239, 258.0469
1106.337, 524.4961
1107.434, 224.5430
1108.532, 3.183594
1109.629, 288.6016
1110.726, 448.5508
1111.823, 482.6016
1112.920, 15.56641
1114.017, 195.6797
1115.113, 116.1602
1116.210, 26.17969
1117.306, 298.1367
1118.402, 95.80469
1119.498, 170.2305
1120.593, 173.0352
1121.689, 295.8477
1122.784, 158.5195
1123.879, 102.3320
1124.974, 315.3164
1126.069, 377.0117
1127.164, 224.2266
1128.259, 357.9492
1129.353, 41.16016
1130.447, 33.51953
1131.541, 305.5469
1132.635, 7.339844
1133.729, 80.40234
1134.822, 34.14062
1135.916, 27.06250
1137.009, 71.33203
1138.102, 92.91406
1139.195, 25.86719
1140.288, 139.0078
1141.380, 50.58203
1142.473, 155.1641
1143.565, 166.4180
1144.657, 1.984375
1145.749, 196.2031
1146.841, 142.9609
1147.932, 230.6836
1149.024, 111.9961
1150.115, 70.09375
1151.206, 171.6680
1152.297, 309.2812
1153.388, 87.95703
1154.479, 124.9961
1155.569, 10.96094
1156.659, 15.42578
1157.750, 85.91016
1158.839, 143.5352
1159.929, 132.3867
1161.019, 38.85156
1162.108, 175.6523
1163.198, 19.25781
1164.287, 9.828125
1165.376, 133.9805
1166.465, 102.7461
1167.553, 334.7656
1168.642, 89.15234
1169.730, 29.68750
1170.818, 186.6016
1171.906, 144.7109
1172.994, 27.73828
1174.082, 59.36328
1175.170, 71.01953
1176.257, 131.0117
1177.344, 102.2734
1178.431, 150.5938
1179.518, 124.7227
1180.605, 199.8086
1181.691, 1.097656
1182.778, 299.0664
1183.864, 328.3594
1184.950, 264.1016
1186.036, 428.7109
1187.122, 286.0273
1188.207, 345.2344
1189.292, 37.60938
1190.378, 229.1797
1191.463, 246.1758
1192.548, 8.261719
1193.632, 301.7578
1194.717, 191.2578
1195.801, 56.64844
1196.886, 334.2891
1197.970, 175.5000
1199.054, 342.9492
1200.137, 65.83984
1201.221, 541.9102
1202.305, 174.0508
1203.388, 273.9414
1204.471, 116.8711
1205.554, 288.5312
1206.637, 151.5586
1207.719, 342.0000
1208.802, 193.6172
1209.884, 6.191406
1210.966, 519.8086
1212.048, 346.8555
1213.130, 486.9648
1214.212, 319.8945
1215.293, 242.6406
1216.374, 408.8281
1217.456, 246.3008
1218.536, 411.4141
1219.617, 108.4688
1220.698, 309.2148
1221.778, 245.2617
1222.859, 338.9531
1223.939, 357.4102
1225.019, 570.7344
1226.099, 402.5703
1227.178, 258.2812
1228.258, 419.0625
1229.337, 209.4844
1230.417, 390.8359
1231.496, 206.4297
1232.574, 434.6523
1233.653, 398.3789
1234.732, 418.5664
1235.810, 354.6992
1236.888, 467.6562
1237.966, 143.5430
1239.044, 497.9492
1240.122, 284.2852
1241.199, 386.9570
1242.277, 303.8594
1243.354, 426.1094
1244.431, 543.2109
1245.508, 457.2461
1246.585, 316.9453
1247.661, 360.2227
1248.738, 395.0000
1249.814, 344.1250
1250.890, 488.1758
1251.966, 245.8359
1253.042, 161.7344
1254.117, 62.90234
1255.193, 60.14453
1256.268, 158.9688
1257.343, 47.38281
1258.418, 22.66797
1259.493, 62.86328
1260.567, 14.64844
1261.642, 267.5469
1262.716, 53.96484
1263.790, 569.3242
1264.864, 49.65234
1265.938, 357.0273
1267.011, 472.2188
1268.085, 445.2031
1269.158, 145.9062
1270.231, 239.9336
1271.304, 228.4922
1272.377, 20.60547
1273.450, 89.71094
1274.522, 68.73828
1275.594, 88.87500
1276.666, 330.2109
1277.738, 415.8281
1278.810, 545.0039
1279.882, 265.5039
1280.953, 186.6211
1282.025, 296.4609
1283.096, 135.5742
1284.167, 329.2148
1285.238, 235.2461
1286.308, 202.4766
1287.379, 173.8281
1288.449, 99.59766
1289.519, 50.13281
1290.589, 55.01172
1291.659, 40.10156
1292.729, 147.8594
1293.798, 180.2031
1294.868, 262.3516
1295.937, 190.6133
1297.006, 122.6523
1298.075, 372.8125
1299.143, 324.8203
1300.212, 129.9102
1301.280, 364.3984
1302.348, 208.8320
1303.416, 188.6406
1304.484, 334.5742
1305.552, 31.67188
1306.620, 79.85938
