##NAMES=Astrophyllite
##RRUFFID=R060103
##IDEAL CHEMISTRY=K_2_NaFe^2+^_7_Ti^4+^_2_(Si_4_O_12_)_2_O_2_(OH)_4_F
##LOCALITY=Brivik, Norway
##OWNER=RRUFF
##SOURCE=University of Arizona Mineral Museum
##DESCRIPTION=Brown fragment embedded in matrix
##STATUS=The identification of this mineral is confirmed by single-crystal X-ray diffraction and chemical analysis.
##URL=rruff.info/R060103
##MEASURED CHEMISTRY=K_2.00_Na_1.00_(Fe^2+^_0.55_Mn_0.32_Fe^3+^_0.04_Mg_0.04_Ca_0.04_)_7_(Ti_0.66_Zr_0.18_Al_0.16_)_2_Si_8.00_O_26_(OH)_4_F_1.00_
##PIN_ID=M01690
##ORIENTATION=Laser parallel to (0 1 1). Fiducial mark perpendicular to laser is parallel to a [1 0 0]
150.1650, 0.0000000E+00
151.3980, 3.872803
152.6310, 13.11401
153.8640, 2.382324
155.0960, 26.18945
156.3280, 15.45874
157.5600, 83.12378
158.7920, 143.6106
160.0240, 179.4893
161.2560, 240.0042
162.4870, 295.9570
163.7180, 416.3518
164.9490, 433.1724
166.1800, 493.8440
167.4110, 488.1296
168.6410, 561.1755
169.8720, 625.0205
171.1020, 573.7979
172.3320, 561.1919
173.5620, 462.9250
174.7910, 344.9688
176.0210, 340.2979
177.2500, 316.8860
178.4790, 330.7100
179.7080, 163.7473
180.9370, 144.9783
182.1650, 20.61377
183.3940, 84.95459
184.6220, 6.668945
185.8500, 19.47729
187.0780, 8.470459
188.3050, 9.291748
189.5330, 7.069824
190.7600, 7.385498
191.9870, 29.33398
193.2140, 46.21191
194.4410, 95.98218
195.6680, 194.3716
196.8940, 217.6204
198.1200, 288.9626
199.3470, 349.3875
200.5720, 393.6252
201.7980, 450.5769
203.0240, 517.0645
204.2490, 554.7302
205.4740, 653.4375
206.6990, 732.1809
207.9240, 796.9832
209.1490, 840.7598
210.3740, 944.5894
211.5980, 1025.445
212.8220, 1149.619
214.0460, 1289.603
215.2700, 1443.116
216.4930, 1603.029
217.7170, 1787.952
218.9400, 1950.902
220.1630, 2207.897
221.3860, 2212.037
222.6090, 2452.417
223.8320, 2547.170
225.0540, 2614.061
226.2760, 2668.169
227.4980, 2722.530
228.7200, 2792.450
229.9420, 2813.599
231.1630, 2844.193
232.3850, 2872.010
233.6060, 2871.716
234.8270, 2888.395
236.0480, 2907.022
237.2690, 2749.600
238.4890, 2859.123
239.7090, 2718.587
240.9290, 2488.995
242.1490, 2364.343
243.3690, 2254.638
244.5890, 2061.886
245.8080, 1932.091
247.0270, 1793.254
248.2470, 1569.377
249.4650, 1507.460
250.6840, 1285.500
251.9030, 1357.500
253.1210, 1239.459
254.3390, 1182.377
255.5570, 1092.255
256.7750, 987.0913
257.9930, 1049.889
259.2100, 1001.876
260.4280, 976.9690
261.6450, 1045.062
262.8620, 938.7261
264.0790, 972.3599
265.2950, 965.9683
266.5120, 1010.555
267.7280, 970.1248
268.9440, 948.7046
270.1600, 930.2866
271.3760, 923.8616
272.5920, 892.3975
273.8070, 885.8943
275.0220, 825.3491
276.2370, 783.7622
277.4520, 769.1326
278.6670, 711.4604
279.8820, 600.7466
281.0960, 599.9905
282.3100, 571.1924
283.5240, 655.3525
284.7380, 654.0000
285.9520, 583.8035
287.1650, 520.7708
288.3780, 570.2209
289.5920, 635.3198
290.8050, 637.6050
292.0170, 621.2576
293.2300, 779.3936
294.4430, 750.9790
295.6550, 788.6174
296.8670, 850.1943
298.0790, 884.3655
299.2910, 943.4426
300.5020, 1043.423
301.7140, 1047.871
302.9250, 1110.488
304.1360, 1253.088
305.3470, 1262.260
306.5580, 1363.144
307.7680, 1454.753
308.9780, 1516.021
310.1890, 1513.198
311.3990, 1627.146
312.6090, 1653.419
313.8180, 1651.776
315.0280, 1719.347
316.2370, 1772.439
317.4460, 1734.787
318.6550, 1751.137
319.8640, 1788.986
321.0730, 1649.015
322.2810, 1697.050
323.4890, 1588.087
324.6980, 1592.746
325.9060, 1526.402
327.1130, 1514.054
328.3210, 1314.198
329.5280, 1421.838
330.7360, 1330.472
331.9430, 1306.667
333.1500, 1391.148
334.3560, 1307.606
335.5630, 1356.204
336.7690, 1336.763
337.9760, 1409.565
339.1820, 1424.132
340.3870, 1510.854
341.5930, 1509.449
342.7990, 1570.218
344.0040, 1636.893
345.2090, 1620.564
346.4140, 1582.267
347.6190, 1445.719
348.8240, 1470.154
350.0280, 1452.657
351.2330, 1434.057
352.4370, 1384.525
353.6410, 1360.015
354.8440, 1251.358
356.0480, 1215.684
357.2520, 1225.990
358.4550, 1251.276
359.6580, 1239.543
360.8610, 1312.790
362.0640, 1280.948
363.2660, 1340.225
364.4690, 1283.535
365.6710, 1270.702
366.8730, 1342.906
368.0750, 1363.029
369.2770, 1250.417
370.4780, 1248.761
371.6800, 1341.366
372.8810, 1286.765
374.0820, 1298.267
375.2830, 1260.637
376.4830, 1306.959
377.6840, 1253.476
378.8840, 1265.876
380.0840, 1238.323
381.2840, 1296.035
382.4840, 1357.629
383.6840, 1366.393
384.8830, 1381.023
386.0830, 1381.052
387.2820, 1368.777
388.4810, 1343.672
389.6800, 1350.250
390.8780, 1255.894
392.0770, 1222.696
393.2750, 1168.485
394.4730, 1151.108
395.6710, 1055.739
396.8690, 1067.195
398.0660, 979.6431
399.2640, 950.0354
400.4610, 905.4143
401.6580, 803.7515
402.8550, 747.0610
404.0520, 714.3435
405.2490, 641.5986
406.4450, 543.8264
407.6410, 461.0273
408.8370, 427.2014
410.0330, 365.3486
411.2290, 279.4695
412.4240, 266.5632
413.6200, 246.6306
414.8150, 193.6709
416.0100, 103.6853
417.2050, 166.6711
418.4000, 127.6306
419.5940, 99.56299
420.7880, 125.4675
421.9830, 76.34521
423.1770, 65.19531
424.3700, 68.01685
425.5640, 85.81055
426.7580, 75.57739
427.9510, 61.31714
429.1440, 11.97290
430.3370, 19.69360
431.5300, 35.67554
432.7220, 6.902832
433.9150, 11.44214
435.1070, 96.07129
436.2990, 22.67603
437.4910, 94.34229
438.6830, 30.12402
439.8750, 91.00537
441.0660, 19.97876
442.2570, 66.00684
443.4480, 98.11426
444.6390, 102.3174
445.8300, 104.6191
447.0210, 136.0208
448.2110, 33.53906
449.4010, 13.11914
450.5910, 40.75146
451.7810, 51.44946
452.9710, 66.21948
454.1610, 15.06812
455.3500, 20.96899
456.5390, 10.07544
457.7280, 5.081299
458.9170, 80.04712
460.1060, 7.986328
461.2940, 49.88745
462.4830, 131.7603
463.6710, 87.60962
464.8590, 85.43359
466.0470, 83.23242
467.2350, 228.0061
468.4220, 183.7573
469.6090, 274.4868
470.7970, 251.4714
471.9840, 209.8826
473.1700, 195.5483
474.3570, 190.1926
475.5440, 187.8167
476.7300, 222.4202
477.9160, 177.0022
479.1020, 140.5630
480.2880, 103.1018
481.4740, 154.6172
482.6590, 113.1108
483.8440, 138.5818
485.0300, 92.03052
486.2140, 109.4561
487.3990, 104.8586
488.5840, 92.23853
489.7680, 155.5957
490.9530, 162.9316
492.1370, 123.2471
493.3210, 198.5408
494.5040, 119.8142
495.6880, 109.0664
496.8720, 225.2966
498.0550, 163.5068
499.2380, 186.6968
500.4210, 191.8667
501.6040, 227.0168
502.7860, 164.1472
503.9690, 143.2578
505.1510, 136.3486
506.3330, 96.42041
507.5150, 153.4714
508.6970, 108.5032
509.8780, 127.5151
511.0600, 50.50830
512.2410, 53.47998
513.4220, 6.430664
514.6030, 26.35718
515.7840, 9.261963
516.9640, 20.14429
518.1440, 21.00439
519.3250, 1.156738
520.5050, 2.761719
521.6850, 2.110107
522.8640, 11.78198
524.0440, 10.04126
525.2230, 15.32666
526.4020, 33.63989
527.5820, 50.99048
528.7600, 34.38721
529.9390, 34.17993
531.1180, 50.27197
532.2960, 77.23242
533.4740, 30.72070
534.6520, 25.19067
535.8300, 56.64307
537.0080, 46.07861
538.1850, 79.49780
539.3630, 72.90186
540.5400, 91.29077
541.7170, 72.66455
542.8940, 189.0242
544.0700, 186.3694
545.2470, 267.7004
546.4230, 324.0403
547.5990, 388.3662
548.7750, 458.6802
549.9510, 529.9851
551.1270, 707.2983
552.3020, 845.6182
553.4780, 941.9326
554.6530, 1073.252
555.8280, 1242.594
557.0030, 1390.940
558.1770, 1492.913
559.3520, 1570.260
560.5260, 1544.267
561.7000, 1623.235
562.8740, 1597.310
564.0480, 1542.090
565.2220, 1534.768
566.3950, 1305.495
567.5680, 1237.385
568.7420, 1133.184
569.9150, 1101.822
571.0870, 956.7231
572.2600, 940.4175
573.4320, 771.8491
574.6050, 722.9575
575.7770, 557.3120
576.9490, 595.9810
578.1210, 505.2678
579.2920, 547.0664
580.4640, 445.9067
581.6350, 475.9346
582.8060, 544.4321
583.9770, 460.0532
585.1480, 383.6738
586.3190, 440.0481
587.4890, 496.2974
588.6590, 472.6030
589.8290, 509.3665
590.9990, 503.4385
592.1690, 594.8044
593.3390, 565.5288
594.5080, 597.3579
595.6770, 662.4304
596.8470, 590.1672
598.0160, 625.8325
599.1840, 573.2720
600.3530, 569.1929
601.5210, 519.8630
602.6900, 477.5369
603.8580, 502.7173
605.0260, 477.9573
606.1930, 498.7192
607.3610, 459.7166
608.5280, 538.0916
609.6960, 478.4690
610.8630, 465.8481
612.0300, 568.2302
613.1970, 455.6147
614.3630, 606.0015
615.5300, 595.3914
616.6960, 594.7839
617.8620, 629.1792
619.0280, 645.5776
620.1940, 722.9031
621.3590, 821.0811
622.5250, 804.4829
623.6900, 882.7212
624.8550, 880.0754
626.0200, 961.2441
627.1850, 1053.496
628.3490, 973.7388
629.5140, 953.9385
630.6780, 1094.376
631.8420, 1074.818
633.0060, 1218.180
634.1700, 1245.631
635.3330, 1381.000
636.4970, 1495.336
637.6600, 1552.803
638.8230, 1754.276
639.9860, 1940.754
641.1490, 2092.238
642.3110, 2282.727
643.4740, 2492.222
644.6360, 2882.724
645.7980, 3176.132
646.9600, 3563.459
648.1220, 4007.142
649.2840, 4411.609
650.4450, 4993.143
651.6060, 5485.394
652.7670, 5967.671
653.9280, 6353.667
655.0890, 6530.851
656.2500, 6491.908
657.4100, 6362.081
658.5700, 5936.277
659.7300, 5394.258
660.8900, 4991.334
662.0500, 4553.344
663.2100, 3964.066
664.3690, 3613.885
665.5280, 3238.516
666.6880, 2888.069
667.8460, 2775.584
669.0050, 2537.194
670.1640, 2482.614
671.3220, 2594.334
672.4810, 2451.969
673.6390, 2492.427
674.7970, 2486.880
675.9540, 2578.481
677.1120, 2662.057
678.2690, 2650.791
679.4270, 2888.515
680.5840, 2909.279
681.7410, 3009.637
682.8980, 2965.823
684.0540, 3158.619
685.2110, 3300.421
686.3670, 3331.240
687.5230, 3522.207
688.6790, 3629.844
689.8350, 3778.444
690.9900, 3906.680
692.1460, 3917.999
693.3010, 4119.633
694.4560, 4116.738
695.6110, 4129.217
696.7660, 4270.241
697.9210, 4360.955
699.0750, 4272.129
700.2290, 4522.352
701.3840, 4497.312
702.5370, 4565.097
703.6910, 4718.958
704.8450, 4778.593
705.9980, 4830.415
707.1520, 4808.203
708.3050, 4832.633
709.4580, 4884.900
710.6110, 4926.935
711.7630, 4933.100
712.9160, 5041.300
714.0680, 4988.046
715.2200, 4982.432
716.3720, 4934.482
717.5240, 4768.911
718.6760, 4764.832
719.8270, 4619.118
720.9780, 4520.448
722.1300, 4376.802
723.2810, 4197.194
724.4310, 4037.632
725.5820, 3926.117
726.7330, 3697.323
727.8830, 3681.910
729.0330, 3447.525
730.1830, 3166.163
731.3330, 3182.832
732.4830, 2931.534
733.6320, 2889.271
734.7810, 2710.032
735.9310, 2579.817
737.0800, 2574.619
738.2290, 2394.438
739.3770, 2241.268
740.5260, 2124.114
741.6740, 1912.971
742.8220, 1908.837
743.9700, 1810.714
745.1180, 1818.600
746.2660, 1740.496
747.4130, 1767.401
748.5610, 1697.313
749.7080, 1569.234
750.8550, 1622.165
752.0020, 1480.103
753.1490, 1490.050
754.2950, 1421.005
755.4420, 1511.968
756.5880, 1396.940
757.7340, 1413.921
758.8800, 1259.910
760.0250, 1326.909
761.1710, 1331.917
762.3160, 1301.933
763.4620, 1288.958
764.6070, 1182.994
765.7520, 1173.038
766.8960, 1142.092
768.0410, 1189.155
769.1850, 1152.227
770.3300, 1155.307
771.4740, 1137.396
772.6180, 1071.494
773.7610, 1073.601
774.9050, 1070.717
776.0480, 1066.842
777.1920, 1086.974
778.3350, 1060.095
779.4780, 1058.266
780.6200, 1045.424
781.7630, 1059.591
782.9060, 1042.877
784.0480, 998.9500
785.1900, 1035.142
786.3320, 989.3428
787.4740, 1012.552
788.6150, 975.7700
789.7570, 962.9971
790.8980, 965.2339
792.0390, 915.4814
793.1800, 876.7388
794.3210, 786.0066
795.4620, 729.2847
796.6020, 733.5725
797.7420, 661.8716
798.8830, 664.1809
800.0230, 580.5020
801.1620, 592.8354
802.3020, 522.1821
803.4420, 454.5417
804.5810, 410.9197
805.7200, 385.3198
806.8590, 306.7383
807.9980, 210.1650
809.1370, 262.6138
810.2750, 157.0706
811.4140, 110.5356
812.5520, 119.0095
813.6900, 126.4915
814.8280, 140.9819
815.9650, 82.47974
817.1030, 103.9849
818.2400, 6.497803
819.3780, 28.01758
820.5150, 13.54419
821.6520, 89.92188
822.7880, 12.57446
823.9250, 7.7881001E-02
825.0610, 14.41504
826.1980, 83.91016
827.3340, 77.44141
828.4700, 26.00562
829.6050, 66.57812
830.7410, 137.1780
831.8760, 62.84351
833.0120, 54.53540
834.1470, 129.2498
835.2820, 56.02563
836.4160, 38.82520
837.5510, 7.359863
838.6860, 112.4504
839.8200, 97.31470
840.9540, 93.22485
842.0880, 47.17920
843.2220, 9.154053
844.3550, 21.13135
845.4890, 36.11694
846.6220, 56.11743
847.7550, 23.14355
848.8880, 69.17944
850.0210, 24.24780
851.1540, 2.673584
852.2860, 28.40381
853.4190, 16.49365
854.5510, 5.591064
855.6830, 88.30908
856.8150, 113.2141
857.9460, 104.1008
859.0780, 147.0403
860.2090, 42.96045
861.3410, 66.88550
862.4720, 5.181396
863.6020, 127.7483
864.7330, 50.68164
865.8640, 49.63208
866.9940, 101.5938
868.1240, 68.56274
869.2540, 49.53540
870.3840, 116.5227
871.5140, 125.5190
872.6440, 159.5269
873.7730, 150.5466
874.9020, 122.5762
876.0320, 288.6089
877.1600, 215.6443
878.2890, 280.6829
879.4180, 266.7268
880.5460, 214.7769
881.6750, 303.8381
882.8030, 302.9128
883.9310, 449.0020
885.0590, 454.1035
886.1860, 485.2092
887.3140, 486.3176
888.4410, 586.4287
889.5680, 644.5422
890.6950, 594.6582
891.8220, 719.7771
892.9490, 647.8979
894.0750, 835.0312
895.2020, 904.1665
896.3280, 877.3042
897.4540, 937.4634
898.5800, 1029.625
899.7050, 1094.797
900.8310, 1073.981
901.9560, 1108.167
903.0820, 1159.358
904.2070, 1268.558
905.3320, 1241.761
906.4560, 1346.978
907.5810, 1497.197
908.7050, 1549.418
909.8300, 1569.641
910.9540, 1660.871
912.0780, 1741.102
913.2010, 1805.335
914.3250, 1904.570
915.4480, 1811.813
916.5720, 1937.057
917.6950, 1892.303
918.8180, 1962.551
919.9410, 2043.800
921.0630, 1974.051
922.1860, 2065.302
923.3080, 2072.557
924.4300, 2020.820
925.5520, 2050.084
926.6740, 1997.353
927.7960, 2004.623
928.9170, 2014.896
930.0390, 2002.171
931.1600, 1978.907
932.2810, 1885.724
933.4020, 1898.001
934.5230, 1851.283
935.6430, 1786.565
936.7640, 1775.851
937.8840, 1609.138
939.0040, 1651.426
940.1240, 1568.715
941.2440, 1520.004
942.3630, 1537.293
943.4830, 1528.583
944.6020, 1464.071
945.7210, 1440.466
946.8400, 1363.466
947.9590, 1329.771
949.0770, 1334.085
950.1960, 1281.403
951.3140, 1274.727
952.4320, 1238.050
953.5500, 1183.374
954.6680, 1167.696
955.7860, 921.0195
956.9030, 1009.346
958.0210, 870.6680
959.1380, 834.8511
960.2550, 825.3755
961.3720, 692.9487
962.4890, 700.8965
963.6050, 579.7725
964.7220, 517.3438
965.8380, 595.4561
966.9540, 519.2046
968.0700, 438.4185
969.1860, 391.9575
970.3010, 285.0469
971.4170, 244.0991
972.5320, 308.4287
973.6470, 122.9473
974.7620, 289.3999
975.8770, 232.0957
976.9910, 178.6187
978.1060, 264.1899
979.2200, 204.1328
980.3340, 203.2539
981.4480, 237.2178
982.5620, 214.0332
983.6760, 140.1709
984.7890, 199.9175
985.9030, 172.0430
987.0160, 212.5576
988.1290, 227.7178
989.2420, 249.4375
990.3550, 251.8242
991.4670, 221.2559
992.5800, 330.6509
993.6920, 307.0493
994.8040, 390.4521
995.9160, 522.6758
997.0280, 580.4121
998.1390, 614.8267
999.2510, 698.1689
1000.362, 751.1689
1001.473, 899.3916
1002.584, 904.8320
1003.695, 938.7021
1004.805, 858.4819
1005.916, 868.6787
1007.026, 911.1055
1008.136, 975.0083
1009.246, 1079.455
1010.356, 1114.905
1011.466, 1285.357
1012.576, 1405.301
1013.685, 1493.363
1014.794, 1635.649
1015.903, 1741.543
1017.012, 1890.671
1018.121, 2050.346
1019.229, 2259.003
1020.338, 2390.544
1021.446, 2534.519
1022.554, 2687.496
1023.662, 2808.970
1024.770, 2873.444
1025.878, 3060.922
1026.985, 3125.598
1028.092, 3325.078
1029.200, 3182.558
1030.307, 3299.516
1031.413, 3321.021
1032.520, 3379.319
1033.627, 3352.983
1034.733, 3313.468
1035.839, 3344.361
1036.945, 3408.681
1038.051, 3271.169
1039.157, 3255.413
1040.262, 3035.028
1041.368, 2981.516
1042.473, 2856.004
1043.578, 2726.525
1044.683, 2462.012
1045.788, 2380.500
1046.893, 2156.987
1047.997, 2062.925
1049.101, 1905.412
1050.205, 1712.939
1051.309, 1616.442
1052.413, 1469.928
1053.517, 1319.432
1054.621, 1260.917
1055.724, 1135.716
1056.827, 982.7485
1057.930, 906.2588
1059.033, 861.4263
1060.136, 704.9497
1061.238, 775.8501
1062.341, 755.4160
1063.443, 560.8950
1064.545, 610.4658
1065.647, 502.9619
1066.749, 519.9985
1067.850, 437.5610
1068.952, 451.5537
1070.053, 458.1211
1071.154, 520.7681
1072.255, 457.2920
1073.356, 429.8042
1074.457, 393.3286
1075.557, 416.8252
1076.658, 363.0298
1077.758, 360.5752
1078.858, 475.4688
1079.958, 515.1924
1081.057, 465.4478
1082.157, 488.8877
1083.256, 404.6851
1084.356, 438.1445
1085.455, 403.6006
1086.554, 544.0547
1087.653, 362.5073
1088.751, 401.9570
1089.850, 302.4282
1090.948, 378.8965
1092.046, 334.4048
1093.144, 323.8750
1094.242, 378.3647
1095.340, 213.8726
1096.437, 240.3848
1097.534, 287.9121
1098.632, 282.4736
1099.729, 205.0488
1100.826, 427.6367
1101.922, 307.6758
1103.019, 421.8960
1104.115, 259.5444
1105.212, 194.1914
1106.308, 228.8687
1107.404, 212.5693
1108.499, 281.2935
1109.595, 216.0273
1110.691, 298.7637
1111.786, 185.5039
1112.881, 184.2524
1113.976, 161.0132
1115.071, 150.7788
1116.166, 107.5610
1117.260, 27.34814
1118.355, 53.13477
1119.449, 59.92725
1120.543, 31.72217
1121.637, 62.51807
1122.731, 1.311035
1123.824, 44.09912
1124.918, 57.88818
1126.011, 114.6733
1127.104, 11.54492
1128.197, 13.22461
1129.290, 74.99463
1130.382, 44.23828
1131.475, 22.49951
1132.567, 9.779785
1133.659, 14.92822
1134.751, 35.36719
1135.843, 17.68848
1136.935, 24.02637
1138.027, 27.38477
1139.118, 18.76465
1140.209, 48.84424
1141.300, 39.44971
1142.391, 59.05078
1143.482, 2.347656
1144.573, 3.963379
1145.663, 23.17529
1146.754, 32.61572
1147.844, 36.08105
1148.934, 28.61523
1150.024, 4.906250
1151.113, 12.38135
1152.203, 27.58008
1153.292, 71.31641
1154.381, 59.77734
1155.470, 45.23291
1156.559, 94.77344
1157.648, 26.86865
1158.737, 53.55420
1159.825, 76.97266
1160.913, 62.61377
1162.001, 29.75635
1163.089, 19.87891
1164.177, 25.53467
1165.265, 47.78516
1166.352, 3.100098
1167.440, 19.59424
1168.527, 51.68994
1169.614, 34.03125
1170.701, 15.21875
1171.788, 116.4619
1172.874, 46.70068
1173.961, 6.065430
1175.047, 52.15381
1176.133, 55.36768
1177.219, 92.57666
1178.305, 12.21924
1179.390, 93.96631
1180.476, 33.14697
1181.561, 39.32227
1182.646, 83.49219
1183.731, 39.65723
1184.816, 59.81641
1185.901, 8.971191
1186.985, 12.88281
1188.070, 39.24365
1189.154, 1.083984
1190.238, 36.47412
1191.322, 6.577637
1192.406, 26.67188
1193.489, 56.76074
1194.573, 25.84375
1195.656, 43.92041
1196.739, 3.991211
1197.822, 28.05225
1198.905, 5.106445
1199.988, 27.15039
1201.070, 19.18799
1202.153, 39.12354
1203.235, 42.14795
1204.317, 39.16797
1205.399, 45.83594
1206.481, 2.189453
1207.562, 34.18506
1208.644, 9.174805
1209.725, 21.84619
1210.806, 14.33740
1211.887, 1.310059
1212.968, 6.972656
1214.049, 53.92773
1215.129, 120.8232
1216.209, 137.7134
1217.290, 153.5977
1218.370, 112.4771
1219.450, 95.35059
1220.529, 112.2192
1221.609, 46.08154
1222.688, 104.9385
1223.768, 136.7896
1224.847, 65.63477
1225.926, 183.4746
1227.005, 65.30859
1228.083, 126.1372
1229.162, 180.9585
1230.240, 186.7744
1231.318, 101.5845
1232.396, 200.2764
1233.474, 157.0728
1234.552, 116.8633
1235.629, 257.2383
1236.707, 143.0688
1237.784, 241.8389
1238.861, 138.6021
1239.938, 161.3579
1241.015, 186.1074
1242.092, 143.8569
1243.168, 203.6001
1244.244, 135.3354
1245.321, 190.0640
1246.397, 253.7856
1247.473, 155.4995
1248.548, 123.2065
1249.624, 198.9053
1250.699, 294.5981
1251.775, 173.2832
1252.850, 161.9194
1253.925, 109.3501
1254.999, 171.0132
1256.074, 197.6689
1257.148, 143.5015
1258.223, 223.2256
1259.297, 141.8687
1260.371, 298.8687
1261.445, 290.9199
1262.519, 164.7446
1263.592, 179.3486
1264.666, 165.5220
1265.739, 221.7871
1266.812, 217.6323
1267.885, 243.2441
1268.958, 266.9854
1270.030, 252.5703
1271.103, 252.1489
1272.175, 167.6421
1273.247, 208.7373
1274.319, 256.6924
1275.391, 312.4409
1276.463, 254.5566
1277.535, 185.4365
1278.606, 87.76611
1279.677, 165.1094
1280.748, 153.5649
1281.819, 217.0786
1282.890, 232.5957
1283.961, 220.1084
1285.031, 223.6147
1286.102, 247.1172
1287.172, 227.4170
1288.242, 227.9097
1289.312, 232.2944
1290.381, 263.4033
1291.451, 214.8579
1292.520, 216.5161
1293.590, 179.8047
1294.659, 197.2671
1295.728, 238.3179
1296.797, 216.9375
1297.865, 197.3867
1298.934, 248.0737
1300.002, 292.3862
1301.070, 176.8228
1302.138, 222.2549
1303.206, 170.6484
1304.274, 259.0728
1305.341, 158.4922
1306.409, 188.9082
1307.476, 149.8696
1308.543, 247.2778
1309.610, 241.6426
1310.677, 208.0278
1311.744, 238.4282
1312.810, 237.8042
1313.877, 210.1958
1314.943, 233.2686
1316.009, 303.1045
