##NAMES=Astrophyllite
##RRUFFID=R060103
##IDEAL CHEMISTRY=K_2_NaFe^2+^_7_Ti^4+^_2_(Si_4_O_12_)_2_O_2_(OH)_4_F
##LOCALITY=Brivik, Norway
##OWNER=RRUFF
##SOURCE=University of Arizona Mineral Museum
##DESCRIPTION=Brown fragment embedded in matrix
##STATUS=The identification of this mineral is confirmed by single-crystal X-ray diffraction and chemical analysis.
##URL=rruff.info/R060103
##MEASURED CHEMISTRY=K_2.00_Na_1.00_(Fe^2+^_0.55_Mn_0.32_Fe^3+^_0.04_Mg_0.04_Ca_0.04_)_7_(Ti_0.66_Zr_0.18_Al_0.16_)_2_Si_8.00_O_26_(OH)_4_F_1.00_
##PIN_ID=M01690
##ORIENTATION=Laser parallel to (0 1 1). Fiducial mark perpendicular to laser is parallel to a [1 0 0]
146.4650, 0.0000000E+00
147.6990, 0.2827150
148.9320, 31.20703
150.1650, 14.98828
151.3980, 91.45117
152.6310, 47.67139
153.8640, 1.108887
155.0960, 66.79150
156.3280, 177.8369
157.5600, 316.2725
158.7920, 286.9893
160.0240, 486.2148
161.2560, 637.6465
162.4870, 656.7637
163.7180, 893.9116
164.9490, 866.3462
166.1800, 973.0352
167.4110, 1052.887
168.6410, 980.0269
169.8720, 1017.292
171.1020, 955.0913
172.3320, 893.1797
173.5620, 877.5366
174.7910, 781.1470
176.0210, 588.9971
177.2500, 455.0806
178.4790, 346.3955
179.7080, 328.9434
180.9370, 218.7217
182.1650, 69.72314
183.3940, 73.93994
184.6220, 23.63965
185.8500, 36.02783
187.0780, 55.22900
188.3050, 42.24316
189.5330, 36.07764
190.7600, 18.74512
191.9870, 73.74219
193.2140, 46.62842
194.4410, 139.1294
195.6680, 206.0020
196.8940, 112.9819
198.1200, 238.0645
199.3470, 266.2422
200.5720, 417.5122
201.7980, 543.8687
203.0240, 576.3105
204.2490, 543.8428
205.4740, 588.4834
206.6990, 681.2568
207.9240, 786.1792
209.1490, 815.2632
210.3740, 941.2314
211.5980, 1011.912
212.8220, 1169.455
214.0460, 1234.128
215.2700, 1385.486
216.4930, 1373.818
217.7170, 1612.814
218.9400, 1665.899
220.1630, 1833.053
221.3860, 1929.242
222.6090, 2020.476
223.8320, 2129.769
225.0540, 2225.645
226.2760, 2287.639
227.4980, 2434.258
228.7200, 2521.004
229.9420, 2635.841
231.1630, 2846.721
232.3850, 3000.620
233.6060, 3148.524
234.8270, 3252.432
236.0480, 3318.340
237.2690, 3439.038
238.4890, 3581.169
239.7090, 3596.051
240.9290, 3643.863
242.1490, 3651.638
243.3690, 3685.403
244.5890, 3849.165
245.8080, 3647.937
247.0270, 3808.719
248.2470, 3617.514
249.4650, 3675.320
250.6840, 3802.139
251.9030, 3636.967
253.1210, 3695.806
254.3390, 3636.666
255.5570, 3578.542
256.7750, 3568.442
257.9930, 3638.376
259.2100, 3484.575
260.4280, 3392.380
261.6450, 3203.888
262.8620, 3034.575
264.0790, 2830.615
265.2950, 2605.037
266.5120, 2348.785
267.7280, 2083.786
268.9440, 1975.057
270.1600, 1696.560
271.3760, 1622.223
272.5920, 1457.004
273.8070, 1375.823
275.0220, 1196.593
276.2370, 1187.301
277.4520, 1035.943
278.6670, 929.5195
279.8820, 864.0312
281.0960, 728.4775
282.3100, 688.8594
283.5240, 562.1748
284.7380, 686.4258
285.9520, 680.6108
287.1650, 664.7305
288.3780, 634.7832
289.5920, 622.7715
290.8050, 643.6934
292.0170, 799.5488
293.2300, 681.3496
294.4430, 829.1597
295.6550, 833.0146
296.8670, 780.1538
298.0790, 839.5508
299.2910, 964.2993
300.5020, 859.0723
301.7140, 1019.682
302.9250, 1008.898
304.1360, 1001.940
305.3470, 969.0659
306.5580, 1062.648
307.7680, 980.4800
308.9780, 1046.648
310.1890, 1037.846
311.3990, 1106.439
312.6090, 1065.916
313.8180, 970.5908
315.0280, 1034.944
316.2370, 956.9043
317.4460, 1054.679
318.6550, 1038.400
319.8640, 1001.896
321.0730, 1039.350
322.2810, 877.8203
323.4890, 934.3066
324.6980, 879.8081
325.9060, 915.3228
327.1130, 895.8496
328.3210, 1013.388
329.5280, 1028.936
330.7360, 1129.878
331.9430, 1132.220
333.1500, 1210.527
334.3560, 1334.812
335.5630, 1421.643
336.7690, 1497.597
337.9760, 1611.201
339.1820, 1714.812
340.3870, 1833.645
341.5930, 2012.987
342.7990, 2104.574
344.0040, 2232.160
345.2090, 2395.827
346.4140, 2283.416
347.6190, 2213.994
348.8240, 2378.967
350.0280, 2416.535
351.2330, 2369.257
352.4370, 2314.814
353.6410, 2225.594
354.8440, 2231.136
356.0480, 2136.867
357.2520, 2089.605
358.4550, 2040.220
359.6580, 2015.374
360.8610, 1786.566
362.0640, 1703.365
363.2660, 1597.447
364.4690, 1535.699
365.6710, 1466.373
366.8730, 1405.868
368.0750, 1363.047
369.2770, 1110.830
370.4780, 1110.116
371.6800, 1180.100
372.8810, 961.9419
374.0820, 1037.877
375.2830, 1083.143
376.4830, 966.7515
377.6840, 1106.816
378.8840, 995.6826
380.0840, 1033.554
381.2840, 1116.255
382.4840, 1168.082
383.6840, 1211.329
384.8830, 1201.644
386.0830, 1287.218
387.2820, 1227.376
388.4810, 1306.895
389.6800, 1273.618
390.8780, 1309.331
392.0770, 1275.834
393.2750, 1290.929
394.4730, 1308.434
395.6710, 1309.037
396.8690, 1252.915
398.0660, 1246.078
399.2640, 1271.811
400.4610, 1196.988
401.6580, 1322.946
402.8550, 1214.685
404.0520, 1261.224
405.2490, 1253.726
406.4450, 1183.187
407.6410, 1122.606
408.8370, 1167.981
410.0330, 1277.312
411.2290, 1110.596
412.4240, 1174.832
413.6200, 1254.017
414.8150, 1178.152
416.0100, 1212.236
417.2050, 1212.267
418.4000, 1313.245
419.5940, 1271.169
420.7880, 1381.042
421.9830, 1348.862
423.1770, 1349.630
424.3700, 1320.345
425.5640, 1349.008
426.7580, 1300.619
427.9510, 1198.178
429.1440, 1182.686
430.3370, 1029.143
431.5300, 1013.547
432.7220, 873.9019
433.9150, 785.9673
435.1070, 762.4580
436.2990, 597.6602
437.4910, 512.8174
438.6830, 431.9297
439.8750, 363.9956
441.0660, 306.3140
442.2570, 222.9800
443.4480, 211.8931
444.6390, 126.7510
445.8300, 82.54736
447.0210, 91.27637
448.2110, 35.93896
449.4010, 20.52490
450.5910, 102.0288
451.7810, 7.467285
452.9710, 78.81787
454.1610, 58.09961
455.3500, 120.3086
456.5390, 185.4551
457.7280, 217.5454
458.9170, 295.5820
460.1060, 345.5674
461.2940, 363.5039
462.4830, 422.3906
463.6710, 499.2314
464.8590, 474.0254
466.0470, 559.7729
467.2350, 596.4736
468.4220, 631.1270
469.6090, 640.4844
470.7970, 625.4771
471.9840, 624.8047
473.1700, 564.2686
474.3570, 566.6924
475.5440, 542.0786
476.7300, 513.4312
477.9160, 515.7456
479.1020, 546.0200
480.2880, 431.2500
481.4740, 486.4302
482.6590, 464.5718
483.8440, 512.6646
485.0300, 435.7085
486.2140, 565.7036
487.3990, 413.6504
488.5840, 431.5459
489.7680, 457.3931
490.9530, 337.1909
492.1370, 471.9365
493.3210, 393.6328
494.5040, 516.2778
495.6880, 375.8740
496.8720, 452.4185
498.0550, 381.9141
499.2380, 377.3584
500.4210, 403.7510
501.6040, 271.0938
502.7860, 258.3804
503.9690, 348.6118
505.1510, 276.7910
506.3330, 231.9160
507.5150, 172.9844
508.6970, 191.9922
509.8780, 119.9414
511.0600, 78.82471
512.2410, 27.36279
513.4220, 30.33740
514.6030, 5.046387
515.7840, 102.5308
516.9640, 124.1675
518.1440, 177.9673
519.3250, 153.9585
520.5050, 199.2329
521.6850, 215.9980
522.8640, 214.0845
524.0440, 248.8770
525.2230, 176.8965
526.4020, 163.1055
527.5820, 136.4961
528.7600, 131.0532
529.9390, 201.7744
531.1180, 126.6953
532.2960, 159.7764
533.4740, 126.0342
534.6520, 73.45068
535.8300, 96.99707
537.0080, 36.68506
538.1850, 90.48291
539.3630, 15.58301
540.5400, 61.56836
541.7170, 233.4893
542.8940, 273.3594
544.0700, 313.1821
545.2470, 588.9575
546.4230, 674.6890
547.5990, 818.3760
548.7750, 976.0181
549.9510, 1164.618
551.1270, 1291.173
552.3020, 1546.686
553.4780, 1769.156
554.6530, 1904.584
555.8280, 2179.969
557.0030, 2198.313
558.1770, 2335.615
559.3520, 2435.876
560.5260, 2368.101
561.7000, 2334.285
562.8740, 2319.431
564.0480, 2184.546
565.2220, 1973.623
566.3950, 1919.661
567.5680, 1796.681
568.7420, 1536.673
569.9150, 1523.656
571.0870, 1323.621
572.2600, 1169.562
573.4320, 1083.118
574.6050, 946.3882
575.7770, 846.2588
576.9490, 796.0952
578.1210, 678.8970
579.2920, 660.6719
580.4640, 670.4131
581.6350, 508.8413
582.8060, 606.9927
583.9770, 481.7598
585.1480, 587.4019
586.3190, 539.2363
587.4890, 522.4233
588.6590, 578.7197
589.8290, 624.8682
590.9990, 626.5132
592.1690, 547.8877
593.3390, 571.9023
594.5080, 597.8569
595.6770, 565.8813
596.8470, 608.2856
598.0160, 554.0522
599.1840, 650.4253
600.3530, 641.1318
601.5210, 648.0215
602.6900, 670.9609
603.8580, 704.1211
605.0260, 697.7671
606.1930, 706.4917
607.3610, 703.6416
608.5280, 714.7949
609.6960, 657.8706
610.8630, 717.9512
612.0300, 718.0093
613.1970, 673.0459
614.3630, 738.0605
615.5300, 818.0532
616.6960, 751.0259
617.8620, 940.9775
619.0280, 805.9087
620.1940, 990.8203
621.3590, 897.6943
622.5250, 956.5664
623.6900, 1020.420
624.8550, 1195.255
626.0200, 1114.071
627.1850, 1290.870
628.3490, 1317.568
629.5140, 1432.325
630.6780, 1557.073
631.8420, 1689.406
633.0060, 1797.121
634.1700, 1949.663
635.3330, 2257.348
636.4970, 2436.790
637.6600, 2592.445
638.8230, 2810.888
639.9860, 2886.302
641.1490, 3237.816
642.3110, 3420.764
643.4740, 3649.650
644.6360, 4013.905
645.7980, 4485.851
646.9600, 4935.601
648.1220, 5350.903
649.2840, 5827.359
650.4450, 6291.106
651.6060, 6613.222
652.7670, 6862.810
653.9280, 7061.673
655.0890, 6923.653
656.2500, 6959.511
657.4100, 6684.015
658.5700, 6327.148
659.7300, 6121.797
660.8900, 5511.621
662.0500, 5179.414
663.2100, 4738.354
664.3690, 4396.144
665.5280, 4077.488
666.6880, 4175.742
667.8460, 3852.716
669.0050, 3797.083
670.1640, 3823.070
671.3220, 3763.832
672.4810, 3813.614
673.6390, 3708.524
674.7970, 3968.841
675.9540, 4032.759
677.1120, 4226.542
678.2690, 4222.033
679.4270, 4405.223
680.5840, 4556.824
681.7410, 4652.961
682.8980, 4901.303
684.0540, 5015.844
685.2110, 5253.567
686.3670, 5400.312
687.5230, 5617.076
688.6790, 5817.874
689.8350, 5973.221
690.9900, 6124.511
692.1460, 6303.363
693.3010, 6487.238
694.4560, 6654.137
695.6110, 6799.060
696.7660, 6902.005
697.9210, 6883.976
699.0750, 7013.009
700.2290, 7158.028
701.3840, 7158.171
702.5370, 7286.296
703.6910, 7384.433
704.8450, 7364.692
705.9980, 7400.214
707.1520, 7442.390
708.3050, 7578.196
709.4580, 7464.725
710.6110, 7467.667
711.7630, 7383.998
712.9160, 7451.576
714.0680, 7361.000
715.2200, 7221.655
716.3720, 7121.306
717.5240, 6855.445
718.6760, 6753.180
719.8270, 6592.979
720.9780, 6344.817
722.1300, 6222.688
723.2810, 6087.592
724.4310, 5874.531
725.5820, 5637.505
726.7330, 5404.521
727.8830, 5122.578
729.0330, 5023.151
730.1830, 4683.752
731.3330, 4654.867
732.4830, 4457.110
733.6320, 4030.970
734.7810, 3800.526
735.9310, 3712.894
737.0800, 3413.297
738.2290, 3240.738
739.3770, 3178.213
740.5260, 2913.724
741.6740, 2713.268
742.8220, 2675.847
743.9700, 2470.459
745.1180, 2571.105
746.2660, 2323.786
747.4130, 2281.501
748.5610, 2251.251
749.7080, 2090.035
750.8550, 2141.855
752.0020, 2135.711
753.1490, 1949.603
754.2950, 2063.531
755.4420, 1959.494
756.5880, 1809.494
757.7340, 1819.530
758.8800, 1709.604
760.0250, 1697.714
761.1710, 1711.861
762.3160, 1555.046
763.4620, 1589.269
764.6070, 1497.529
765.7520, 1402.827
766.8960, 1457.165
768.0410, 1366.540
769.1850, 1334.954
770.3300, 1265.409
771.4740, 1227.903
772.6180, 1199.438
773.7610, 1210.012
774.9050, 1071.627
776.0480, 1116.281
777.1920, 977.9771
778.3350, 1024.714
779.4780, 957.4917
780.6200, 834.3130
781.7630, 937.1782
782.9060, 809.0850
784.0480, 872.0361
785.1900, 815.0317
786.3320, 871.0737
787.4740, 751.1626
788.6150, 811.3008
789.7570, 920.4917
790.8980, 800.7559
792.0390, 885.0791
793.1800, 945.4707
794.3210, 920.9556
795.4620, 962.5400
796.6020, 728.2383
797.7420, 874.0435
798.8830, 695.9683
800.0230, 722.0161
801.1620, 756.1880
802.3020, 753.4917
803.4420, 777.0264
804.5810, 714.4360
805.7200, 781.0654
806.8590, 724.7964
807.9980, 681.6465
809.1370, 532.5957
810.2750, 474.0581
811.4140, 369.8101
812.5520, 328.0513
813.6900, 255.3838
814.8280, 279.7905
815.9650, 176.2866
817.1030, 97.84229
818.2400, 256.4502
819.3780, 286.1040
820.5150, 138.8022
821.6520, 206.5439
822.7880, 48.32910
823.9250, 178.1562
825.0610, 6.026367
826.1980, 168.9390
827.3340, 104.8940
828.4700, 8.890625
829.6050, 28.93018
830.7410, 150.0117
831.8760, 73.13525
833.0120, 146.3013
834.1470, 27.50928
835.2820, 52.24072
836.4160, 23.04004
837.5510, 5.637207
838.6860, 83.27490
839.8200, 2.381348
840.9540, 7.194824
842.0880, 137.9131
843.2220, 78.36523
844.3550, 182.7402
845.4890, 128.4946
846.6220, 86.90527
847.7550, 138.4561
848.8880, 69.06104
850.0210, 33.45459
851.1540, 1.669434
852.2860, 62.06445
853.4190, 45.86670
854.5510, 104.4771
855.6830, 54.50244
856.8150, 268.0020
857.9460, 163.7246
859.0780, 224.4824
860.2090, 116.2759
861.3410, 141.1035
862.4720, 203.9668
863.6020, 75.86426
864.7330, 10.20361
865.8640, 106.2437
866.9940, 72.29102
868.1240, 23.66797
869.2540, 85.33936
870.3840, 29.34424
871.5140, 125.6807
872.6440, 184.7822
873.7730, 83.96094
874.9020, 154.1855
876.0320, 245.4790
877.1600, 358.8179
878.2890, 482.1904
879.4180, 584.6006
880.5460, 607.0552
881.6750, 912.5493
882.8030, 1018.096
883.9310, 1058.676
885.0590, 1432.291
886.1860, 1474.938
887.3140, 1538.616
888.4410, 1757.325
889.5680, 1903.065
890.6950, 2124.836
891.8220, 2316.635
892.9490, 2508.465
894.0750, 2764.326
895.2020, 3037.215
896.3280, 3196.135
897.4540, 3461.083
898.5800, 3741.061
899.7050, 3821.067
900.8310, 4060.117
901.9560, 4361.198
903.0820, 4654.317
904.2070, 4897.390
905.3320, 5185.271
906.4560, 5435.917
907.5810, 5741.197
908.7050, 6082.505
909.8300, 6417.839
910.9540, 6676.699
912.0780, 7027.587
913.2010, 7139.001
914.3250, 7424.441
915.4480, 7541.909
916.5720, 7828.399
917.6950, 7640.917
918.8180, 7772.458
919.9410, 7660.025
921.0630, 7659.617
922.1860, 7740.233
923.3080, 7605.873
924.4300, 7532.537
925.5520, 7504.225
926.6740, 7373.937
927.7960, 7293.670
928.9170, 7217.426
930.0390, 6960.204
931.1600, 6720.004
932.2810, 6695.825
933.4020, 6376.667
934.5230, 6129.539
935.6430, 5973.439
936.7640, 5665.887
937.8840, 5527.327
939.0040, 5147.315
940.1240, 4842.325
941.2440, 4571.349
942.3630, 4297.401
943.4830, 4023.579
944.6020, 3893.565
945.7210, 3554.682
946.8400, 3341.812
947.9590, 3237.955
949.0770, 3038.112
950.1960, 2962.281
951.3140, 2745.843
952.4320, 2624.654
953.5500, 2340.859
954.6680, 2166.073
955.7860, 1975.300
956.9030, 1709.537
958.0210, 1652.784
959.1380, 1465.041
960.2550, 1277.298
961.3720, 1166.574
962.4890, 990.8081
963.6050, 911.1543
964.7220, 754.4570
965.8380, 601.7695
966.9540, 601.0898
968.0700, 488.4185
969.1860, 365.7544
970.3010, 349.0605
971.4170, 213.4121
972.5320, 217.6738
973.6470, 15.01611
974.7620, 90.30029
975.8770, 60.47314
976.9910, 69.49951
978.1060, 69.21045
979.2200, 101.4277
980.3340, 37.42529
981.4480, 141.8252
982.5620, 55.62256
983.6760, 41.65723
984.7890, 87.52344
985.9030, 54.61475
987.0160, 10.69043
988.1290, 34.23389
989.2420, 99.35645
990.3550, 16.53857
991.4670, 166.2578
992.5800, 173.0596
993.6920, 332.8662
994.8040, 390.6782
995.9160, 362.5142
997.0280, 472.3350
998.1390, 748.1606
999.2510, 886.5181
1000.362, 1090.900
1001.473, 1016.811
1002.584, 1150.651
1003.695, 1158.399
1004.805, 978.0059
1005.916, 926.1797
1007.026, 895.1963
1008.136, 940.8765
1009.246, 1098.163
1010.356, 1099.826
1011.466, 1247.954
1012.576, 1381.865
1013.685, 1427.419
1014.794, 1539.108
1015.903, 1528.729
1017.012, 1697.699
1018.121, 1923.565
1019.229, 1895.623
1020.338, 2130.475
1021.446, 2170.326
1022.554, 2313.174
1023.662, 2355.020
1024.770, 2486.864
1025.878, 2574.704
1026.985, 2714.541
1028.092, 2790.375
1029.200, 2836.205
1030.307, 2888.401
1031.413, 2945.854
1032.520, 2912.883
1033.627, 2950.699
1034.733, 2945.217
1035.839, 2788.941
1036.945, 2726.388
1038.051, 2630.500
1039.157, 2499.273
1040.262, 2544.213
1041.368, 2296.988
1042.473, 2141.762
1043.578, 2120.523
1044.683, 2063.317
1045.788, 1824.064
1046.893, 1675.804
1047.997, 1520.535
1049.101, 1430.260
1050.205, 1288.975
1051.309, 1173.937
1052.413, 1060.550
1053.517, 950.0713
1054.621, 832.7529
1055.724, 735.4253
1056.827, 637.0879
1057.930, 602.7422
1059.033, 591.3867
1060.136, 480.0220
1061.238, 379.6470
1062.341, 387.2617
1063.443, 373.8672
1064.545, 364.4780
1065.647, 346.9604
1066.749, 389.2715
1067.850, 326.0337
1068.952, 299.2358
1070.053, 338.9458
1071.154, 325.3184
1072.255, 287.6924
1073.356, 354.4580
1074.457, 355.1958
1075.557, 289.6792
1076.658, 339.2261
1077.758, 345.0298
1078.858, 359.2603
1079.958, 454.9043
1081.057, 427.3213
1082.157, 463.7251
1083.256, 507.1147
1084.356, 460.4912
1085.455, 434.8525
1086.554, 381.2007
1087.653, 379.5342
1088.751, 364.8540
1089.850, 414.1592
1090.948, 415.4497
1092.046, 458.7256
1093.144, 444.9873
1094.242, 463.9751
1095.340, 426.4712
1096.437, 485.7070
1097.534, 477.9282
1098.632, 496.1377
1099.729, 501.3315
1100.826, 560.5112
1101.922, 682.6768
1103.019, 770.8330
1104.115, 868.9741
1105.212, 981.1011
1106.308, 1192.950
1107.404, 1349.056
1108.499, 1529.329
1109.595, 1657.341
1110.691, 1718.290
1111.786, 1733.616
1112.881, 1608.604
1113.976, 1389.744
1115.071, 1194.942
1116.166, 1067.962
1117.260, 811.4839
1118.355, 719.7778
1119.449, 528.4331
1120.543, 356.8296
1121.637, 348.5737
1122.731, 268.8774
1123.824, 234.9819
1124.918, 87.08105
1126.011, 158.1694
1127.104, 83.24561
1128.197, 123.3081
1129.290, 227.3579
1130.382, 129.3945
1131.475, 150.4224
1132.567, 108.4570
1133.659, 172.4927
1134.751, 56.51611
1135.843, 6.538086
1136.935, 126.4648
1138.027, 123.8081
1139.118, 6.777344
1140.209, 96.02295
1141.300, 6.354980
1142.391, 72.27246
1143.482, 34.88330
1144.573, 4.529785
1145.663, 11.01855
1146.754, 37.46436
1147.844, 85.99658
1148.934, 37.44189
1150.024, 79.86328
1151.113, 134.2686
1152.203, 118.6592
1153.292, 248.0356
1154.381, 224.3979
1155.470, 225.7461
1156.559, 326.0796
1157.648, 192.3984
1158.737, 270.7031
1159.825, 200.9932
1160.913, 182.2686
1162.001, 172.5298
1163.089, 84.77637
1164.177, 9.993652
1165.265, 53.19385
1166.352, 8.360840
1167.440, 20.50488
1168.527, 0.5830080
1169.614, 13.63330
1170.701, 17.34570
1171.788, 114.6299
1172.874, 113.5908
1173.961, 126.5366
1175.047, 106.4683
1176.133, 244.3838
1177.219, 362.2856
1178.305, 387.1724
1179.390, 307.0449
1180.476, 511.9023
1181.561, 786.7451
1182.646, 714.5732
1183.731, 896.3872
1184.816, 841.1865
1185.901, 861.9717
1186.985, 829.7417
1188.070, 762.4971
1189.154, 683.3369
1190.238, 536.9648
1191.322, 447.6772
1192.406, 314.3755
1193.489, 186.0586
1194.573, 122.1631
1195.656, 92.47998
1196.739, 4.882324
1197.822, 27.71924
1198.905, 8.704590
1199.988, 17.16650
1201.070, 4.418457
1202.153, 43.88281
1203.235, 86.32471
1204.317, 3.249512
1205.399, 161.8267
1206.481, 16.79639
1207.562, 19.53857
1208.644, 134.8472
1209.725, 199.1421
1210.806, 233.4229
1211.887, 333.8140
1212.968, 385.9424
1214.049, 459.2153
1215.129, 550.4399
1216.209, 553.6514
1217.290, 607.8481
1218.370, 724.0317
1219.450, 814.2007
1220.529, 894.3555
1221.609, 973.4961
1222.688, 965.6230
1223.768, 952.7363
1224.847, 938.9346
1225.926, 1001.215
1227.005, 948.2866
1228.083, 895.1270
1229.162, 961.1699
1230.240, 984.3525
1231.318, 891.6782
1232.396, 899.9868
1233.474, 758.0591
1234.552, 822.1030
1235.629, 838.0962
1236.707, 735.0586
1237.784, 865.0557
1238.861, 800.0171
1239.938, 847.9824
1241.015, 704.0498
1242.092, 909.3301
1243.168, 857.3657
1244.244, 867.3848
1245.321, 909.2397
1246.397, 953.4434
1247.473, 1144.229
1248.548, 1112.819
1249.624, 1004.022
1250.699, 1178.341
1251.775, 1135.116
1252.850, 1115.243
1253.925, 1107.981
1254.999, 1105.625
1256.074, 1183.659
1257.148, 1163.659
1258.223, 1084.813
1259.297, 943.8047
1260.371, 885.9663
1261.445, 802.0156
1262.519, 765.9658
1263.592, 670.2715
1264.666, 720.7139
1265.739, 726.8433
1266.812, 643.4165
1267.885, 617.1357
1268.958, 645.4531
1270.030, 673.8813
1271.103, 649.9307
1272.175, 624.5049
1273.247, 516.2852
1274.319, 550.5830
1275.391, 637.5654
1276.463, 543.6035
1277.535, 448.2817
1278.606, 620.0513
1279.677, 552.6177
1280.748, 630.3765
1281.819, 614.1260
1282.890, 620.8647
1283.961, 775.5938
1285.031, 698.3130
1286.102, 837.0220
1287.172, 786.7222
1288.242, 783.4180
1289.312, 782.1040
1290.381, 771.2061
1291.451, 746.7407
1292.520, 786.8970
1293.590, 718.5449
1294.659, 734.4766
1295.728, 800.1890
1296.797, 701.1646
1297.865, 637.4604
1298.934, 642.3540
1300.002, 600.5205
1301.070, 668.1104
1302.138, 545.6870
1303.206, 645.2603
1304.274, 641.7856
1305.341, 638.3433
1306.409, 696.8931
1307.476, 593.4346
1308.543, 607.9683
1309.610, 570.4946
1310.677, 604.0137
1311.744, 574.5273
1312.810, 507.0312
1313.877, 414.5288
