##NAMES=Astrophyllite
##RRUFFID=R060103
##IDEAL CHEMISTRY=K_2_NaFe^2+^_7_Ti^4+^_2_(Si_4_O_12_)_2_O_2_(OH)_4_F
##LOCALITY=Brivik, Norway
##OWNER=RRUFF
##SOURCE=University of Arizona Mineral Museum
##DESCRIPTION=Brown fragment embedded in matrix
##STATUS=The identification of this mineral is confirmed by single-crystal X-ray diffraction and chemical analysis.
##URL=rruff.info/R060103
##MEASURED CHEMISTRY=K_2.00_Na_1.00_(Fe^2+^_0.55_Mn_0.32_Fe^3+^_0.04_Mg_0.04_Ca_0.04_)_7_(Ti_0.66_Zr_0.18_Al_0.16_)_2_Si_8.00_O_26_(OH)_4_F_1.00_
##PIN_ID=M01690
##ORIENTATION=Laser parallel to (0 1 1). Fiducial mark perpendicular to laser is parallel to a [1 0 0]
146.4650, 0.0000000E+00
147.6990, 6.334473
148.9320, 32.79102
150.1650, 160.4326
151.3980, 140.1997
152.6310, 219.3496
153.8640, 439.0098
155.0960, 505.2266
156.3280, 523.6250
157.5600, 644.2915
158.7920, 740.5703
160.0240, 1024.889
161.2560, 1068.748
162.4870, 1382.731
163.7180, 1631.501
164.9490, 1689.884
166.1800, 1789.781
167.4110, 1905.118
168.6410, 1771.863
169.8720, 1846.840
171.1020, 1793.824
172.3320, 1732.628
173.5620, 1588.108
174.7910, 1565.143
176.0210, 1285.641
177.2500, 1146.528
178.4790, 896.7500
179.7080, 897.2593
180.9370, 661.0142
182.1650, 475.7754
183.3940, 267.2358
184.6220, 230.2759
185.8500, 309.1055
187.0780, 311.4487
188.3050, 82.89600
189.5330, 233.2539
190.7600, 234.9717
191.9870, 296.5552
193.2140, 364.9053
194.4410, 456.0161
195.6680, 554.9033
196.8940, 586.5806
198.1200, 798.0581
199.3470, 768.3462
200.5720, 1103.454
201.7980, 1210.391
203.0240, 1273.167
204.2490, 1380.802
205.4740, 1257.319
206.6990, 1600.744
207.9240, 1492.097
209.1490, 1513.386
210.3740, 1770.604
211.5980, 1713.749
212.8220, 1716.814
214.0460, 1817.794
215.2700, 2000.688
216.4930, 2134.115
217.7170, 2263.138
218.9400, 2404.916
220.1630, 2535.004
221.3860, 2701.529
222.6090, 2880.850
223.8320, 3081.139
225.0540, 3252.554
226.2760, 3431.766
227.4980, 3668.420
228.7200, 3812.113
229.9420, 3984.430
231.1630, 4119.142
232.3850, 4225.703
233.6060, 4354.017
234.8270, 4487.312
236.0480, 4535.130
237.2690, 4487.579
238.4890, 4635.466
239.7090, 4632.332
240.9290, 4507.173
242.1490, 4318.988
243.3690, 4152.773
244.5890, 3918.527
245.8080, 3642.247
247.0270, 3381.501
248.2470, 3080.576
249.4650, 2793.183
250.6840, 2529.372
251.9030, 2253.471
253.1210, 2008.748
254.3390, 1752.188
255.5570, 1523.604
256.7750, 1320.987
257.9930, 1365.355
259.2100, 1338.798
260.4280, 1212.386
261.6450, 911.1533
262.8620, 792.0586
264.0790, 694.1455
265.2950, 656.5132
266.5120, 595.1948
267.7280, 605.7495
268.9440, 556.5479
270.1600, 558.3276
271.3760, 575.6655
272.5920, 438.5498
273.8070, 536.9854
275.0220, 482.3047
276.2370, 345.5083
277.4520, 224.5977
278.6670, 239.5728
279.8820, 318.4336
281.0960, 210.1826
282.3100, 215.8188
283.5240, 93.34180
284.7380, 102.7529
285.9520, 116.9473
287.1650, 54.75830
288.3780, 125.8013
289.5920, 0.9653320
290.8050, 36.02588
292.0170, 62.69336
293.2300, 13.65137
294.4430, 32.37354
295.6550, 29.89795
296.8670, 79.15576
298.0790, 129.7070
299.2910, 42.11230
300.5020, 39.90430
301.7140, 3.285645
302.9250, 9.795410
304.1360, 26.43164
305.3470, 25.87305
306.5580, 42.16455
307.7680, 99.98389
308.9780, 73.80225
310.1890, 39.32959
311.3990, 79.17725
312.6090, 75.88135
313.8180, 29.22021
315.0280, 41.88965
316.2370, 23.91309
317.4460, 129.2539
318.6550, 63.34131
319.8640, 29.09131
321.0730, 10.43066
322.2810, 62.91553
323.4890, 34.36426
324.6980, 161.7749
325.9060, 87.14746
327.1130, 124.4810
328.3210, 282.7700
329.5280, 238.0122
330.7360, 350.2056
331.9430, 444.3457
333.1500, 439.4302
334.3560, 581.4531
335.5630, 767.4097
336.7690, 684.2993
337.9760, 925.1221
339.1820, 952.8779
340.3870, 1093.568
341.5930, 1232.193
342.7990, 1308.754
344.0040, 1428.704
345.2090, 1556.686
346.4140, 1603.059
347.6190, 1685.369
348.8240, 1742.632
350.0280, 1895.807
351.2330, 1868.934
352.4370, 1972.002
353.6410, 1974.009
354.8440, 2058.956
356.0480, 2055.842
357.2520, 2006.668
358.4550, 2118.435
359.6580, 2174.504
360.8610, 2048.518
362.0640, 2058.092
363.2660, 1886.819
364.4690, 1831.734
365.6710, 1695.507
366.8730, 1672.588
368.0750, 1549.616
369.2770, 1566.016
370.4780, 1565.507
371.6800, 1440.660
372.8810, 1439.767
374.0820, 1425.489
375.2830, 1389.497
376.4830, 1300.543
377.6840, 1534.159
378.8840, 1356.619
380.0840, 1514.802
381.2840, 1577.577
382.4840, 1526.258
383.6840, 1705.460
384.8830, 1700.006
386.0830, 1565.391
387.2820, 1570.873
388.4810, 1604.233
389.6800, 1435.477
390.8780, 1497.143
392.0770, 1407.884
393.2750, 1312.499
394.4730, 1159.647
395.6710, 1192.683
396.8690, 1069.657
398.0660, 995.5669
399.2640, 927.4150
400.4610, 915.2002
401.6580, 805.9229
402.8550, 776.5830
404.0520, 717.1792
405.2490, 729.7119
406.4450, 704.1797
407.6410, 646.5815
408.8370, 602.9165
410.0330, 518.1836
411.2290, 536.3823
412.4240, 610.5112
413.6200, 525.5703
414.8150, 587.5586
416.0100, 554.4766
417.2050, 665.3257
418.4000, 565.1060
419.5940, 619.8174
420.7880, 599.1016
421.9830, 578.0361
423.1770, 566.5444
424.3700, 518.9863
425.5640, 532.3618
426.7580, 412.6709
427.9510, 393.9136
429.1440, 281.0889
430.3370, 310.1191
431.5300, 238.8530
432.7220, 199.0532
433.9150, 143.6499
435.1070, 79.93750
436.2990, 97.58008
437.4910, 81.94482
438.6830, 70.27783
439.8750, 9.472656
441.0660, 19.32373
442.2570, 53.72607
443.4480, 105.5933
444.6390, 41.34326
445.8300, 49.74268
447.0210, 123.1538
448.2110, 26.56885
449.4010, 72.23242
450.5910, 91.92725
451.7810, 14.19482
452.9710, 47.97510
454.1610, 114.0845
455.3500, 155.5239
456.5390, 210.0146
457.7280, 259.2871
458.9170, 330.6206
460.1060, 488.9414
461.2940, 443.5132
462.4830, 596.3096
463.6710, 774.8965
464.8590, 663.8022
466.0470, 758.3403
467.2350, 998.5454
468.4220, 938.8320
469.6090, 972.8413
470.7970, 1017.380
471.9840, 1002.262
473.1700, 1022.085
474.3570, 1067.849
475.5440, 1031.555
476.7300, 964.2031
477.9160, 1061.793
479.1020, 928.3257
480.2880, 971.8018
481.4740, 996.2207
482.6590, 915.6719
483.8440, 1001.891
485.0300, 865.1436
486.2140, 854.3403
487.3990, 913.4824
488.5840, 886.5708
489.7680, 830.6055
490.9530, 710.5859
492.1370, 763.5137
493.3210, 624.3892
494.5040, 510.2119
495.6880, 444.9824
496.8720, 501.7017
498.0550, 439.3696
499.2380, 362.9868
500.4210, 304.5537
501.6040, 187.0703
502.7860, 182.5342
503.9690, 65.94531
505.1510, 42.29736
506.3330, 114.5889
507.5150, 123.8267
508.6970, 65.01221
509.8780, 19.85645
511.0600, 44.81104
512.2410, 64.86377
513.4220, 126.0234
514.6030, 97.32080
515.7840, 142.7393
516.9640, 183.3013
518.1440, 60.02588
519.3250, 184.8477
520.5050, 121.8296
521.6850, 231.9375
522.8640, 260.2280
524.0440, 261.7139
525.2230, 177.3955
526.4020, 106.2261
527.5820, 234.1675
528.7600, 143.2842
529.9390, 144.5283
531.1180, 145.8979
532.2960, 44.39307
533.4740, 27.04248
534.6520, 36.43896
535.8300, 126.7983
537.0080, 173.1240
538.1850, 164.4175
539.3630, 309.6787
540.5400, 432.9092
541.7170, 634.1089
542.8940, 706.2783
544.0700, 942.4194
545.2470, 1207.530
546.4230, 1452.613
547.5990, 1848.667
548.7750, 2254.694
549.9510, 2546.695
551.1270, 2874.669
552.3020, 3301.617
553.4780, 3797.540
554.6530, 4206.438
555.8280, 4637.312
557.0030, 4886.163
558.1770, 5229.989
559.3520, 5331.795
560.5260, 5488.578
561.7000, 5471.340
562.8740, 5188.082
564.0480, 5168.804
565.2220, 4797.505
566.3950, 4462.191
567.5680, 4137.859
568.7420, 3811.120
569.9150, 3481.290
571.0870, 3109.827
572.2600, 2810.670
573.4320, 2611.937
574.6050, 2350.794
575.7770, 2151.562
576.9490, 2018.319
578.1210, 1863.878
579.2920, 1755.875
580.4640, 1583.416
581.6350, 1463.874
582.8060, 1366.094
583.9770, 1341.374
585.1480, 1375.207
586.3190, 1298.196
587.4890, 1324.564
588.6590, 1415.580
589.8290, 1398.738
590.9990, 1316.312
592.1690, 1345.737
593.3390, 1339.239
594.5080, 1406.500
595.6770, 1429.149
596.8470, 1379.695
598.0160, 1380.713
599.1840, 1315.587
600.3530, 1303.612
601.5210, 1235.999
602.6900, 1219.470
603.8580, 1170.968
605.0260, 1284.497
606.1930, 1151.046
607.3610, 1226.615
608.5280, 1170.197
609.6960, 1227.790
610.8630, 1261.396
612.0300, 1280.014
613.1970, 1422.644
614.3630, 1432.285
615.5300, 1505.939
616.6960, 1548.605
617.8620, 1686.285
619.0280, 1656.979
620.1940, 1743.687
621.3590, 1737.408
622.5250, 1931.146
623.6900, 1994.899
624.8550, 2025.669
626.0200, 2103.454
627.1850, 2255.257
628.3490, 2373.077
629.5140, 2525.915
630.6780, 2640.771
631.8420, 2706.647
633.0060, 3119.541
634.1700, 3181.456
635.3330, 3524.391
636.4970, 3698.346
637.6600, 4043.323
638.8230, 4311.322
639.9860, 4826.341
641.1490, 5271.384
642.3110, 5583.088
643.4740, 6066.810
644.6360, 6860.879
645.7980, 7497.676
646.9600, 8248.234
648.1220, 8987.871
649.2840, 9839.166
650.4450, 10609.38
651.6060, 11303.14
652.7670, 11862.76
653.9280, 12113.67
655.0890, 12286.50
656.2500, 12316.61
657.4100, 11939.31
658.5700, 11348.89
659.7300, 10921.77
660.8900, 9977.745
662.0500, 9341.962
663.2100, 8567.558
664.3690, 8197.221
665.5280, 7590.342
666.6880, 7493.101
667.8460, 7161.001
669.0050, 7301.785
670.1640, 7178.674
671.3220, 7097.664
672.4810, 7129.213
673.6390, 7414.671
674.7970, 7601.240
675.9540, 7919.258
677.1120, 8262.376
678.2690, 8679.542
679.4270, 8969.755
680.5840, 9164.016
681.7410, 9388.326
682.8980, 9781.688
684.0540, 10302.10
685.2110, 10525.56
686.3670, 10927.07
687.5230, 11152.63
688.6790, 11492.24
689.8350, 11870.90
690.9900, 12226.61
692.1460, 12449.38
693.3010, 12649.20
694.4560, 12920.07
695.6110, 13347.00
696.7660, 13470.97
697.9210, 13660.01
699.0750, 14038.11
700.2290, 14108.27
701.3840, 14164.50
702.5370, 14260.80
703.6910, 14366.19
704.8450, 14578.82
705.9980, 14861.41
707.1520, 14675.08
708.3050, 14986.88
709.4580, 14837.77
710.6110, 14721.75
711.7630, 14762.63
712.9160, 14561.12
714.0680, 14343.51
715.2200, 14388.87
716.3720, 13977.14
717.5240, 13801.31
718.6760, 13625.87
719.8270, 13184.49
720.9780, 12863.21
722.1300, 12556.02
723.2810, 12246.13
724.4310, 11809.21
725.5820, 11210.84
726.7330, 10919.47
727.8830, 10463.11
729.0330, 10041.59
730.1830, 9678.326
731.3330, 9192.045
732.4830, 8738.623
733.6320, 8342.144
734.7810, 7836.852
735.9310, 7539.305
737.0800, 7249.178
738.2290, 7011.269
739.3770, 6615.695
740.5260, 6364.252
741.6740, 5977.846
742.8220, 5734.943
743.9700, 5583.510
745.1180, 5358.105
746.2660, 5242.344
747.4130, 5160.632
748.5610, 4996.969
749.7080, 4775.352
750.8550, 4739.785
752.0020, 4624.266
753.1490, 4354.795
754.2950, 4430.371
755.4420, 4337.994
756.5880, 4215.668
757.7340, 4110.389
758.8800, 3976.157
760.0250, 3884.974
761.1710, 3701.837
762.3160, 3568.750
763.4620, 3434.709
764.6070, 3426.717
765.7520, 3296.771
766.8960, 3279.873
768.0410, 3184.023
769.1850, 2963.221
770.3300, 2937.466
771.4740, 2775.758
772.6180, 2704.098
773.7610, 2593.485
774.9050, 2484.920
776.0480, 2544.402
777.1920, 2329.932
778.3350, 2553.508
779.4780, 2325.130
780.6200, 2299.801
781.7630, 2325.521
782.9060, 2115.293
784.0480, 2201.117
785.1900, 2092.990
786.3320, 2051.914
787.4740, 1958.886
788.6150, 1862.925
789.7570, 1826.035
790.8980, 1784.403
792.0390, 1740.504
793.1800, 1758.868
794.3210, 1729.328
795.4620, 1719.894
796.6020, 1602.532
797.7420, 1510.275
798.8830, 1426.107
800.0230, 1231.055
801.1620, 1256.125
802.3020, 1149.317
803.4420, 1175.609
804.5810, 1084.982
805.7200, 1023.468
806.8590, 992.0410
807.9980, 879.7031
809.1370, 767.4521
810.2750, 770.2607
811.4140, 728.1143
812.5520, 580.0107
813.6900, 405.9492
814.8280, 504.9287
815.9650, 459.9492
817.1030, 411.0088
818.2400, 412.1104
819.3780, 445.2500
820.5150, 399.4307
821.6520, 353.6484
822.7880, 295.9072
823.9250, 344.2031
825.0610, 227.5381
826.1980, 226.9092
827.3340, 139.3203
828.4700, 147.2158
829.6050, 206.5586
830.7410, 138.1494
831.8760, 213.5264
833.0120, 127.3496
834.1470, 206.8096
835.2820, 162.7158
836.4160, 86.65039
837.5510, 101.9668
838.6860, 150.6816
839.8200, 125.2236
840.9540, 9.652344
842.0880, 57.76855
843.2220, 50.59375
844.3550, 6.204102
845.4890, 46.27246
846.6220, 9.433594
847.7550, 93.42188
848.8880, 17.85840
850.0210, 8.785156
851.1540, 0.3242190
852.2860, 110.7871
853.4190, 29.10449
854.5510, 146.9014
855.6830, 56.98633
856.8150, 35.90527
857.9460, 129.2119
859.0780, 6.650391
860.2090, 20.49512
861.3410, 50.67188
862.4720, 14.14355
863.6020, 64.94434
864.7330, 79.75293
865.8640, 122.5752
866.9940, 193.4277
868.1240, 113.3477
869.2540, 218.2988
870.3840, 129.3320
871.5140, 279.4043
872.6440, 250.5889
873.7730, 165.8564
874.9020, 238.1826
876.0320, 151.6045
877.1600, 75.05176
878.2890, 19.51953
879.4180, 3.967773
880.5460, 27.40918
881.6750, 70.14551
882.8030, 64.73340
883.9310, 116.3330
885.0590, 178.9580
886.1860, 188.5928
887.3140, 245.2412
888.4410, 350.9023
889.5680, 270.5742
890.6950, 638.2578
891.8220, 518.9502
892.9490, 572.6533
894.0750, 779.3652
895.2020, 837.0869
896.3280, 936.7363
897.4540, 879.5576
898.5800, 1060.305
899.7050, 1017.061
900.8310, 981.8271
901.9560, 1266.623
903.0820, 1218.441
904.2070, 1479.275
905.3320, 1446.141
906.4560, 1581.021
907.5810, 1683.907
908.7050, 1901.801
909.8300, 1786.700
910.9540, 1943.604
912.0780, 1966.513
913.2010, 2113.425
914.3250, 2048.343
915.4480, 2129.262
916.5720, 2189.185
917.6950, 2197.111
918.8180, 2267.039
919.9410, 2173.971
921.0630, 2171.902
922.1860, 2130.836
923.3080, 2158.771
924.4300, 2049.707
925.5520, 2074.644
926.6740, 1980.580
927.7960, 1977.515
928.9170, 2017.449
930.0390, 1961.383
931.1600, 1928.312
932.2810, 1865.240
933.4020, 1817.165
934.5230, 1763.087
935.6430, 1690.007
936.7640, 1618.360
937.8840, 1549.835
939.0040, 1452.744
940.1240, 1385.660
941.2440, 1304.579
942.3630, 1117.493
943.4830, 1027.398
944.6020, 1144.297
945.7210, 1074.185
946.8400, 767.0635
947.9590, 936.9316
949.0770, 773.7832
950.1960, 632.6387
951.3140, 724.4775
952.4320, 487.3037
953.5500, 544.1191
954.6680, 601.9238
955.7860, 464.7158
956.9030, 242.4961
958.0210, 234.2637
959.1380, 163.0195
960.2550, 213.7617
961.3720, 266.4912
962.4890, 203.2070
963.6050, 99.90918
964.7220, 117.5928
965.8380, 121.2617
966.9540, 161.9131
968.0700, 84.55078
969.1860, 46.16406
970.3010, 47.74121
971.4170, 65.27930
972.5320, 0.2138670
973.6470, 27.76758
974.7620, 67.39941
975.8770, 102.7275
976.9910, 28.12793
978.1060, 103.0547
979.2200, 109.1182
980.3340, 11.71484
981.4480, 37.51758
982.5620, 111.3486
983.6760, 144.6514
984.7890, 34.10059
985.9030, 33.38184
987.0160, 108.2490
988.1290, 66.01953
989.2420, 185.4697
990.3550, 207.9014
991.4670, 302.3154
992.5800, 366.7100
993.6920, 461.8701
994.8040, 532.6426
995.9160, 801.9834
997.0280, 979.8633
998.1390, 1111.785
999.2510, 1224.946
1000.362, 1343.905
1001.473, 1508.938
1002.584, 1494.184
1003.695, 1437.544
1004.805, 1159.761
1005.916, 931.4355
1007.026, 932.8584
1008.136, 997.9961
1009.246, 889.0801
1010.356, 807.9326
1011.466, 988.6875
1012.576, 1010.100
1013.685, 1158.751
1014.794, 1265.409
1015.903, 1317.842
1017.012, 1397.052
1018.121, 1548.560
1019.229, 1483.560
1020.338, 1700.867
1021.446, 1947.307
1022.554, 1898.260
1023.662, 1876.197
1024.770, 1968.120
1025.878, 1943.638
1026.985, 2115.028
1028.092, 2024.901
1029.200, 2146.759
1030.307, 2256.600
1031.413, 2275.425
1032.520, 2122.232
1033.627, 2221.750
1034.733, 2258.545
1035.839, 2292.729
1036.945, 2023.551
1038.051, 2090.721
1039.157, 1938.464
1040.262, 1927.187
1041.368, 1976.246
1042.473, 1745.947
1043.578, 1725.578
1044.683, 1474.192
1045.788, 1483.786
1046.893, 1515.363
1047.997, 1320.920
1049.101, 1237.459
1050.205, 1129.978
1051.309, 1100.480
1052.413, 1085.962
1053.517, 1024.545
1054.621, 983.8135
1055.724, 952.2949
1056.827, 870.7012
1057.930, 821.0879
1059.033, 764.4561
1060.136, 831.8047
1061.238, 732.1348
1062.341, 738.4453
1063.443, 631.7373
1064.545, 690.0098
1065.647, 740.2637
1066.749, 630.4971
1067.850, 648.3047
1068.952, 642.5000
1070.053, 712.9189
1071.154, 747.0762
1072.255, 634.3281
1073.356, 649.6807
1074.457, 680.3086
1075.557, 719.4707
1076.658, 690.5684
1077.758, 691.6064
1078.858, 783.6260
1079.958, 710.6260
1081.057, 779.6045
1082.157, 831.5645
1083.256, 903.5049
1084.356, 863.5840
1085.455, 729.3262
1086.554, 768.2080
1087.653, 628.0693
1088.751, 581.9111
1089.850, 684.7344
1090.948, 552.5371
1092.046, 547.3213
1093.144, 596.0850
1094.242, 528.8311
1095.340, 360.5576
1096.437, 655.9580
1097.534, 602.5811
1098.632, 574.2051
1099.729, 401.8604
1100.826, 504.6641
1101.922, 652.0400
1103.019, 797.4238
1104.115, 828.5068
1105.212, 809.0957
1106.308, 901.9326
1107.404, 957.2051
1108.499, 1034.193
1109.595, 1109.792
1110.691, 1132.619
1111.786, 1132.001
1112.881, 1083.881
1113.976, 994.6367
1115.071, 890.5684
1116.166, 780.4814
1117.260, 672.9893
1118.355, 510.0518
1119.449, 447.8955
1120.543, 342.4229
1121.637, 257.8828
1122.731, 252.3291
1123.824, 246.7715
1124.918, 212.9746
1126.011, 153.6377
1127.104, 192.0654
1128.197, 209.4805
1129.290, 203.8887
1130.382, 80.29785
1131.475, 157.7119
1132.567, 74.14355
1133.659, 128.6064
1134.751, 69.08203
1135.843, 80.60449
1136.935, 41.14453
1138.027, 53.26367
1139.118, 39.34668
1140.209, 21.98340
1141.300, 85.33789
1142.391, 38.30859
1143.482, 54.02051
1144.573, 120.6084
1145.663, 166.2295
1146.754, 55.15137
1147.844, 40.41797
1148.934, 25.02441
1150.024, 97.50098
1151.113, 29.01465
1152.203, 19.51367
1153.292, 178.9990
1154.381, 150.4756
1155.470, 241.9424
1156.559, 55.39746
1157.648, 58.84277
1158.737, 88.27637
1159.825, 87.70117
1160.913, 171.1152
1162.001, 134.5205
1163.089, 129.9160
1164.177, 5.302734
1165.265, 66.32812
1166.352, 41.01172
1167.440, 19.73633
1168.527, 73.48926
1169.614, 19.29883
1170.701, 63.86133
1171.788, 22.01465
1172.874, 60.15430
1173.961, 193.2842
1175.047, 144.4062
1176.133, 169.5176
1177.219, 148.6221
1178.305, 208.2324
1179.390, 366.8037
1180.476, 333.8818
1181.561, 510.9531
1182.646, 545.0146
1183.731, 683.0684
1184.816, 721.1133
1185.901, 695.1514
1186.985, 620.1807
1188.070, 570.2031
1189.154, 431.2178
1190.238, 451.2227
1191.322, 169.2217
1192.406, 279.2139
1193.489, 138.1973
1194.573, 170.1738
1195.656, 241.1436
1196.739, 96.10449
1197.822, 3.060547
1198.905, 87.00293
1199.988, 11.06152
1201.070, 85.85449
1202.153, 41.23535
1203.235, 27.35938
1204.317, 4.488281
1205.399, 48.32520
1206.481, 59.15430
1207.562, 149.9775
1208.644, 198.7949
1209.725, 165.6221
1210.806, 195.4268
1211.887, 323.2256
1212.968, 377.0176
1214.049, 344.8057
1215.129, 407.5869
1216.209, 445.3623
1217.290, 514.1309
1218.370, 536.8955
1219.450, 595.1992
1220.529, 642.7607
1221.609, 695.1553
1222.688, 722.8984
1223.768, 769.6357
1224.847, 773.3672
1225.926, 749.2227
1227.005, 782.1064
1228.083, 699.5010
1229.162, 764.3242
1230.240, 824.0830
1231.318, 733.7930
1232.396, 725.3018
1233.474, 771.3906
1234.552, 756.9473
1235.629, 727.8379
1236.707, 579.8564
1237.784, 630.7764
1238.861, 612.6279
1239.938, 722.5049
1241.015, 690.4277
1242.092, 638.4971
1243.168, 755.4863
1244.244, 732.9570
1245.321, 775.9746
1246.397, 877.3486
1247.473, 720.5215
1248.548, 719.7031
1249.624, 721.8320
1250.699, 874.9922
1251.775, 749.1543
1252.850, 846.3633
1253.925, 845.4531
1254.999, 755.5420
1256.074, 869.5771
1257.148, 698.6084
1258.223, 881.6357
1259.297, 612.7627
1260.371, 898.7803
1261.445, 692.8311
1262.519, 596.8408
1263.592, 648.8447
1264.666, 562.0420
1265.739, 550.0811
1266.812, 568.9111
1267.885, 614.8418
1268.958, 622.1152
1270.030, 577.6592
1271.103, 590.3369
1272.175, 656.6475
1273.247, 604.2812
1274.319, 522.3076
1275.391, 605.2705
1276.463, 430.9238
1277.535, 634.6865
1278.606, 735.1299
1279.677, 625.0615
1280.748, 751.6660
1281.819, 810.1250
1282.890, 742.0488
1283.961, 822.9688
1285.031, 755.8848
1286.102, 841.7324
1287.172, 859.5908
1288.242, 798.4932
1289.312, 899.3926
1290.381, 911.2891
1291.451, 832.1797
1292.520, 855.0674
1293.590, 893.2266
1294.659, 844.0869
1295.728, 773.5391
1296.797, 749.3330
1297.865, 651.7598
1298.934, 684.5918
1300.002, 610.4248
1301.070, 646.8975
1302.138, 707.7100
1303.206, 727.5693
1304.274, 525.4258
1305.341, 621.2793
1306.409, 515.1289
1307.476, 697.9766
1308.543, 611.8203
1309.610, 474.6621
1310.677, 678.4990
1311.744, 636.3359
1312.810, 512.1670
1313.877, 525.9980
