##NAMES=Astrophyllite
##RRUFFID=R060202
##IDEAL CHEMISTRY=K_2_NaFe^2+^_7_Ti^4+^_2_(Si_4_O_12_)_2_O_2_(OH)_4_F
##LOCALITY=Demix Quarry, Mont Saint-Hilaire, Rouville County, Quebec, Canada
##OWNER=RRUFF
##SOURCE=Royal Ontario Museum
##DESCRIPTION=Aggregate of brown splintered wafers
##STATUS=The identification of this mineral has been confirmed by X-ray diffraction and chemical analysis
##URL=rruff.info/R060202
##MEASURED CHEMISTRY=(K_0.56_Na_0.38_Ca_0.06_)_3_(Fe^2+^_0.52_Mn_0.44_Mg_0.04_)_7_(Ti_0.75_Zr_0.15_Al_0.15_)_2_Si_8_O_24_(O_0.27_OH_0.73_)_7_
##PIN_ID=M00255
##ORIENTATION=Laser parallel to (0 1 1). Fiducial mark perpendicular to laser is parallel to a [1 0 0]
86.07200, 0.0000000E+00
87.30800, 11.35547
88.54200, 193.8164
89.77700, 795.0410
91.01200, 1565.068
92.24600, 3034.359
93.48000, 3989.869
94.71400, 5224.004
95.94800, 7070.430
97.18200, 8366.105
98.41600, 9209.773
99.64900, 9714.391
100.8830, 10414.77
102.1160, 9370.150
103.3490, 8403.604
104.5820, 7116.461
105.8150, 6481.588
107.0470, 5740.598
108.2800, 5429.734
109.5120, 5907.957
110.7440, 6298.020
111.9760, 3338.516
113.2080, 966.9316
114.4400, 378.6738
115.6710, 1177.541
116.9030, 1557.754
118.1340, 2126.008
119.3650, 2293.416
120.5960, 2392.578
121.8270, 2219.463
123.0580, 1847.725
124.2880, 2306.260
125.5190, 2352.982
126.7490, 2088.822
127.9790, 2492.715
129.2090, 2611.891
130.4390, 2822.422
131.6680, 3004.129
132.8980, 2605.654
134.1270, 2248.961
135.3560, 2074.012
136.5850, 2114.795
137.8140, 1720.850
139.0430, 1440.586
140.2710, 980.5742
141.5000, 928.2949
142.7280, 196.7539
143.9560, 194.0488
145.1840, 457.1562
146.4120, 317.5996
147.6390, 254.4277
148.8670, 530.6855
150.0940, 444.4082
151.3210, 441.6367
152.5490, 207.4062
153.7750, 91.64062
155.0020, 204.2988
156.2290, 388.7109
157.4550, 443.4570
158.6810, 896.5098
159.9080, 1034.781
161.1340, 1435.158
162.3590, 1857.758
163.5850, 2407.623
164.8110, 2861.773
166.0360, 3109.199
167.2610, 3116.902
168.4860, 3235.863
169.7110, 3078.057
170.9360, 3103.469
172.1610, 2877.086
173.3850, 2592.896
174.6100, 1827.879
175.8340, 1690.980
177.0580, 930.1719
178.2820, 890.4648
179.5050, 548.8750
180.7290, 425.4492
181.9520, 288.2051
183.1760, 317.1973
184.3990, 190.5410
185.6220, 317.3184
186.8450, 251.7266
188.0670, 669.7285
189.2900, 691.2422
190.5120, 878.2715
191.7340, 1024.578
192.9560, 1318.195
194.1780, 1580.480
195.4000, 1932.387
196.6220, 2344.145
197.8430, 2684.996
199.0640, 3311.725
200.2860, 3720.742
201.5070, 4329.916
202.7270, 5362.125
203.9480, 5745.359
205.1690, 5601.609
206.3890, 5121.783
207.6090, 4893.863
208.8290, 5592.848
210.0490, 6106.732
211.2690, 6773.521
212.4890, 7661.229
213.7080, 8448.838
214.9280, 9161.332
216.1470, 9883.680
217.3660, 10469.95
218.5850, 11122.08
219.8030, 11540.08
221.0220, 11994.95
222.2400, 12639.68
223.4590, 12858.27
224.6770, 13307.71
225.8950, 13470.01
227.1120, 14020.16
228.3300, 14313.16
229.5480, 14695.00
230.7650, 14446.71
231.9820, 14160.27
233.1990, 14069.48
234.4160, 13864.56
235.6330, 13379.49
236.8490, 13030.60
238.0660, 12358.52
239.2820, 11761.01
240.4980, 11085.93
241.7140, 10670.14
242.9300, 9870.514
244.1460, 9202.004
245.3610, 8624.344
246.5770, 7732.178
247.7920, 7346.789
249.0070, 6825.256
250.2220, 6153.498
251.4370, 5888.559
252.6510, 5271.469
253.8660, 5120.252
255.0800, 4915.932
256.2940, 4729.520
257.5080, 4517.031
258.7220, 4137.477
259.9360, 4044.184
261.1490, 3938.711
262.3630, 3685.568
263.5760, 3261.162
264.7890, 2927.297
266.0020, 2413.926
267.2150, 2401.584
268.4270, 2080.260
269.6400, 1935.299
270.8520, 2084.482
272.0640, 1645.783
273.2760, 1570.727
274.4880, 1141.826
275.7000, 1188.506
276.9120, 1258.150
278.1230, 1107.930
279.3340, 1134.857
280.5450, 1128.207
281.7560, 1123.879
282.9670, 1209.234
284.1780, 1395.352
285.3880, 1366.848
286.5980, 1553.447
287.8090, 1349.553
289.0190, 1611.445
290.2290, 1990.053
291.4380, 2025.199
292.6480, 2502.932
293.8570, 2971.273
295.0670, 2358.383
296.2760, 2563.836
297.4850, 2696.707
298.6930, 2869.213
299.9020, 2926.037
301.1110, 3037.918
302.3190, 3247.984
303.5270, 3412.504
304.7350, 3540.941
305.9430, 3911.121
307.1510, 4019.543
308.3580, 4310.771
309.5660, 4509.434
310.7730, 4675.807
311.9800, 4869.664
313.1870, 4994.744
314.3940, 5133.064
315.6010, 5443.393
316.8070, 5200.785
318.0130, 5165.207
319.2200, 5154.660
320.4260, 5357.195
321.6310, 5269.383
322.8370, 5263.266
324.0430, 5486.131
325.2480, 5264.746
326.4540, 5228.193
327.6590, 5285.357
328.8640, 5263.334
330.0680, 5260.615
331.2730, 5445.123
332.4780, 5483.104
333.6820, 5634.328
334.8860, 5709.951
336.0900, 5847.096
337.2940, 5827.445
338.4980, 6227.318
339.7010, 6100.297
340.9050, 6223.592
342.1080, 6109.998
343.3110, 6130.594
344.5140, 5822.129
345.7170, 5876.561
346.9200, 5541.119
348.1220, 5942.787
349.3240, 5585.852
350.5270, 5585.955
351.7290, 5687.682
352.9310, 5671.086
354.1320, 5678.562
355.3340, 5608.191
356.5350, 5675.711
357.7370, 5722.371
358.9380, 5776.414
360.1390, 5669.344
361.3400, 5770.998
362.5400, 5884.154
363.7410, 5766.727
364.9410, 5992.305
366.1410, 6007.256
367.3410, 5872.637
368.5410, 6093.094
369.7410, 5704.332
370.9400, 5593.977
372.1400, 5847.021
373.3390, 5885.188
374.5380, 6058.139
375.7370, 5811.027
376.9360, 5859.490
378.1350, 5957.000
379.3330, 5784.291
380.5310, 5754.900
381.7300, 5660.162
382.9280, 5559.574
384.1260, 5347.221
385.3230, 5367.561
386.5210, 5074.641
387.7180, 4918.002
388.9160, 4778.629
390.1130, 4341.092
391.3100, 4212.387
392.5060, 4093.516
393.7030, 3800.475
394.9000, 3357.268
396.0960, 3029.895
397.2920, 2972.354
398.4880, 2922.645
399.6840, 2474.773
400.8800, 2391.734
402.0750, 2025.531
403.2710, 1961.162
404.4660, 1687.625
405.6610, 1450.922
406.8560, 1527.059
408.0510, 1259.033
409.2450, 983.8555
410.4400, 888.5215
411.6340, 666.0293
412.8280, 836.3711
414.0220, 579.5527
415.2160, 566.5625
416.4100, 346.4023
417.6030, 334.0547
418.7970, 290.5195
419.9900, 295.7930
421.1830, 286.8730
422.3760, 12.76172
423.5690, 187.3809
424.7610, 80.20898
425.9540, 55.87891
427.1460, 73.27930
428.3380, 255.7520
429.5300, 35.63477
430.7220, 124.8125
431.9140, 298.3320
433.1050, 323.2793
434.2970, 455.6074
435.4880, 476.3223
436.6790, 541.4668
437.8700, 393.0938
439.0610, 410.0527
440.2510, 397.3750
441.4420, 421.0605
442.6320, 476.1719
443.8220, 243.7617
445.0120, 329.7441
446.2020, 166.1621
447.3910, 150.9258
448.5810, 502.0293
449.7700, 318.6523
450.9600, 335.7012
452.1490, 287.1777
453.3370, 295.0566
454.5260, 72.33789
455.7150, 16.91016
456.9030, 103.7344
458.0910, 199.1406
459.2800, 187.8320
460.4670, 105.6660
461.6550, 252.5449
462.8430, 134.5762
464.0300, 21.58398
465.2180, 419.0156
466.4050, 392.4492
467.5920, 259.7148
468.7790, 429.8086
469.9650, 464.7383
471.1520, 413.5059
472.3380, 435.1113
473.5250, 522.5547
474.7110, 374.8398
475.8970, 284.9629
477.0820, 386.9219
478.2680, 250.7207
479.4540, 91.35547
480.6390, 453.8105
481.8240, 390.1133
483.0090, 513.5977
484.1940, 446.2520
485.3780, 598.0957
486.5630, 569.7910
487.7470, 312.3398
488.9320, 478.7363
490.1160, 407.9863
491.3000, 508.0879
492.4830, 455.0449
493.6670, 261.8555
494.8500, 533.5156
496.0340, 605.0352
497.2170, 257.4180
498.4000, 611.6562
499.5820, 293.7578
500.7650, 538.7148
501.9480, 715.5391
503.1300, 639.2363
504.3120, 473.8008
505.4940, 330.2344
506.6760, 522.5293
507.8580, 388.6953
509.0390, 478.7266
510.2210, 416.6309
511.4020, 423.4062
512.5830, 281.0488
513.7640, 379.5605
514.9450, 304.9453
516.1250, 73.20117
517.3060, 281.3184
518.4860, 99.30859
519.6660, 289.1641
520.8460, 301.7168
522.0260, 420.5039
523.2060, 327.9902
524.3850, 450.3574
525.5650, 334.6094
526.7440, 540.7422
527.9230, 554.7617
529.1020, 439.6777
530.2810, 704.4805
531.4590, 842.1758
532.6380, 890.7676
533.8160, 831.2578
534.9940, 1208.645
536.1720, 1302.932
537.3500, 1503.115
538.5270, 1471.201
539.7050, 2031.189
540.8820, 2222.086
542.0590, 2155.926
543.2360, 2706.684
544.4130, 3069.348
545.5900, 3536.938
546.7660, 3918.469
547.9430, 4403.906
549.1190, 5119.346
550.2950, 5537.773
551.4710, 5903.623
552.6470, 6400.236
553.8220, 6432.887
554.9980, 6770.223
556.1730, 6939.447
557.3480, 7052.609
558.5230, 7176.148
559.6980, 7106.602
560.8730, 6653.525
562.0470, 6621.607
563.2220, 6380.625
564.3960, 6250.584
565.5700, 5985.146
566.7440, 5697.387
567.9170, 5355.988
569.0910, 5104.832
570.2640, 4754.350
571.4380, 4618.740
572.6110, 4533.652
573.7840, 4397.789
574.9570, 4167.412
576.1290, 4108.826
577.3020, 4139.039
578.4740, 3875.256
579.6460, 3969.869
580.8180, 3915.496
581.9900, 3964.004
583.1620, 4003.744
584.3330, 3867.869
585.5040, 4134.318
586.6760, 4254.496
587.8470, 4429.070
589.0180, 4422.734
590.1880, 4685.508
591.3590, 4739.949
592.5290, 4818.482
593.7000, 4714.238
594.8700, 4391.688
596.0400, 4575.305
597.2090, 4316.598
598.3790, 4502.648
599.5490, 4202.406
600.7180, 4167.094
601.8870, 4193.648
603.0560, 4046.070
604.2250, 4049.309
605.3940, 3948.914
606.5620, 4102.477
607.7300, 3801.074
608.8990, 3933.824
610.0670, 3957.637
611.2350, 4310.617
612.4020, 4640.422
613.5700, 4145.348
614.7370, 4298.672
615.9050, 4160.410
617.0720, 4350.789
618.2390, 4827.652
619.4060, 4784.875
620.5720, 4797.777
621.7390, 5329.031
622.9050, 5218.059
624.0710, 5488.641
625.2370, 5764.988
626.4030, 6101.008
627.5690, 6416.117
628.7340, 6875.875
629.9000, 7162.531
631.0650, 7591.941
632.2300, 8101.816
633.3950, 8790.520
634.5600, 9261.074
635.7240, 9978.715
636.8890, 10519.08
638.0530, 11501.16
639.2170, 12461.77
640.3810, 13506.11
641.5450, 14905.52
642.7080, 16422.73
643.8720, 17681.68
645.0350, 19695.00
646.1980, 21491.77
647.3610, 23507.40
648.5240, 25388.54
649.6870, 26415.11
650.8490, 27982.48
652.0120, 28656.95
653.1740, 28898.88
654.3360, 28433.29
655.4980, 26832.45
656.6600, 25396.70
657.8210, 23953.89
658.9830, 22029.38
660.1440, 20125.74
661.3050, 18711.22
662.4660, 17044.27
663.6270, 16279.99
664.7870, 15344.30
665.9480, 14416.20
667.1080, 14282.03
668.2680, 13569.98
669.4280, 13487.54
670.5880, 13501.70
671.7480, 13189.89
672.9070, 13139.12
674.0670, 13504.39
675.2260, 13578.70
676.3850, 13611.05
677.5440, 13939.44
678.7030, 13925.86
679.8610, 14226.47
681.0200, 14638.62
682.1780, 14774.84
683.3360, 15413.43
684.4940, 15593.10
685.6520, 15819.41
686.8090, 16334.13
687.9670, 16429.84
689.1240, 16698.83
690.2810, 16815.79
691.4380, 16983.21
692.5950, 17160.51
693.7520, 17265.71
694.9080, 17372.84
696.0650, 17502.17
697.2210, 17544.48
698.3770, 17636.09
699.5330, 17720.49
700.6880, 17765.99
701.8440, 17671.21
702.9990, 17815.45
704.1550, 17607.04
705.3100, 18040.06
706.4650, 17911.39
707.6190, 17882.41
708.7740, 18190.62
709.9290, 18272.90
711.0830, 17993.74
712.2370, 17856.88
713.3910, 17854.88
714.5450, 17675.62
715.6980, 17016.59
716.8520, 16931.16
718.0050, 17076.44
719.1580, 15653.72
720.3110, 15531.19
721.4640, 14638.84
722.6170, 14610.67
723.7700, 13711.71
724.9220, 13122.89
726.0740, 13052.23
727.2260, 12439.70
728.3780, 12047.27
729.5300, 11284.05
730.6810, 10517.98
731.8330, 10353.08
732.9840, 10216.33
734.1350, 9630.723
735.2860, 9256.203
736.4370, 9037.766
737.5880, 8439.414
738.7380, 8566.109
739.8880, 8293.844
741.0390, 7752.676
742.1890, 7669.539
743.3380, 7555.449
744.4880, 7377.426
745.6380, 7029.434
746.7870, 7065.469
747.9360, 6772.547
749.0850, 6850.652
750.2340, 6488.793
751.3830, 6525.969
752.5310, 6665.164
753.6800, 6388.395
754.8280, 5993.660
755.9760, 6275.953
757.1240, 5603.281
758.2720, 5748.645
759.4190, 5514.047
760.5670, 4997.480
761.7140, 5196.941
762.8610, 5130.430
764.0080, 4889.961
765.1550, 4724.195
766.3020, 4592.066
767.4480, 4114.672
768.5950, 3968.305
769.7410, 3792.961
770.8870, 3340.641
772.0330, 3827.355
773.1780, 3063.098
774.3240, 3193.863
775.4690, 2910.656
776.6140, 2748.480
777.7590, 3018.320
778.9040, 2961.195
780.0490, 2905.090
781.1940, 2588.004
782.3380, 2460.938
783.4820, 2237.902
784.6260, 2108.887
785.7700, 2032.895
786.9140, 2083.922
788.0580, 1968.977
789.2010, 2131.051
790.3450, 1822.152
791.4880, 2172.273
792.6310, 1470.418
793.7730, 1594.586
794.9160, 1347.785
796.0590, 1399.004
797.2010, 1248.250
798.3430, 1052.520
799.4850, 1194.812
800.6270, 976.1211
801.7690, 771.4492
802.9100, 637.7891
804.0520, 864.1562
805.1930, 784.5391
806.3340, 633.9336
807.4750, 352.3477
808.6160, 344.7695
809.7560, 235.2109
810.8970, 206.6641
812.0370, 159.0938
813.1770, 121.6055
814.3170, 83.08984
815.4570, 26.58984
816.5960, 12.10156
817.7360, 164.3906
818.8750, 30.95703
820.0140, 174.4609
821.1530, 73.11328
822.2920, 99.72266
823.4310, 202.6172
824.5690, 328.0352
825.7070, 293.8633
826.8460, 438.8477
827.9840, 647.0742
829.1220, 354.6406
830.2590, 201.4023
831.3970, 175.2812
832.5340, 265.2656
833.6710, 134.4062
834.8080, 359.6328
835.9450, 301.0625
837.0820, 577.6680
838.2190, 407.6016
839.3550, 484.7695
840.4910, 248.2148
841.6270, 172.8125
842.7630, 333.5312
843.8990, 198.4453
845.0350, 389.4961
846.1700, 115.7812
847.3060, 297.1562
848.4410, 298.7188
849.5760, 19.52734
850.7100, 141.5234
851.8450, 109.1055
852.9800, 65.07031
854.1140, 33.91797
855.2480, 256.8789
856.3820, 371.8359
857.5160, 422.7891
858.6500, 515.7383
859.7830, 434.6797
860.9170, 668.6055
862.0500, 924.5312
863.1830, 917.4492
864.3160, 1209.305
865.4480, 1986.250
866.5810, 1255.160
867.7130, 2005.066
868.8460, 1287.965
869.9780, 1355.887
871.1100, 1382.824
872.2410, 1744.742
873.3730, 2080.656
874.5050, 1771.547
875.6360, 1980.449
876.7670, 2223.359
877.8980, 2491.320
879.0290, 2505.270
880.1590, 2756.203
881.2900, 2784.125
882.4200, 2905.031
883.5500, 2961.918
884.6800, 3205.926
885.8100, 3180.016
886.9400, 3553.090
888.0690, 3742.262
889.1990, 3524.406
890.3280, 4010.562
891.4570, 4225.762
892.5860, 4579.941
893.7140, 4998.113
894.8430, 4675.266
895.9710, 5060.398
897.1000, 5371.520
898.2280, 5259.660
899.3560, 5633.828
900.4830, 5806.977
901.6110, 5982.105
902.7380, 6385.219
903.8660, 6284.305
904.9930, 6608.402
906.1200, 6806.500
907.2460, 7048.578
908.3730, 7113.645
909.5000, 7539.691
910.6260, 7507.719
911.7520, 7932.734
912.8780, 8230.715
914.0040, 8093.758
915.1290, 8354.773
916.2550, 8331.785
917.3800, 8299.781
918.5050, 8318.758
919.6300, 8451.707
920.7550, 8399.660
921.8800, 8515.594
923.0040, 8642.508
924.1290, 8165.402
925.2530, 8290.273
926.3770, 8298.156
927.5010, 8044.020
928.6250, 8117.855
929.7480, 8160.691
930.8720, 7895.500
931.9950, 7556.328
933.1180, 7351.195
934.2410, 7462.066
935.3640, 7354.914
936.4860, 7318.738
937.6090, 6958.531
938.7310, 6916.305
939.8530, 6670.051
940.9750, 6518.766
942.0970, 6661.461
943.2180, 6212.129
944.3400, 6355.773
945.4610, 6132.383
946.5820, 5898.797
947.7030, 6074.531
948.8240, 5600.062
949.9450, 5115.566
951.0650, 5244.047
952.1860, 5099.359
953.3060, 4819.133
954.4260, 4485.867
955.5460, 4228.238
956.6650, 4135.539
957.7850, 3699.215
958.9040, 3780.504
960.0230, 3259.812
961.1420, 3409.043
962.2610, 2933.953
963.3800, 2643.590
964.4990, 2747.387
965.6170, 2248.617
966.7350, 2135.297
967.8530, 2004.152
968.9710, 1899.039
970.0890, 2199.633
971.2070, 1811.734
972.3240, 1521.324
973.4410, 1727.445
974.5580, 1387.594
975.6750, 1456.465
976.7920, 1546.949
977.9090, 1623.234
979.0250, 1233.895
980.1410, 1448.465
981.2580, 1076.121
982.3740, 1432.309
983.4890, 1203.312
984.6050, 1330.027
985.7200, 1436.754
986.8360, 1383.512
987.9510, 1418.953
989.0660, 1500.797
990.1810, 1723.824
991.2950, 1859.875
992.4100, 1765.930
993.5240, 2210.984
994.6390, 1988.039
995.7530, 2478.559
996.8660, 2639.617
997.9800, 2536.680
999.0940, 3110.742
1000.207, 3280.363
1001.320, 3484.055
1002.433, 3881.637
1003.546, 4415.488
1004.659, 4429.969
1005.772, 4840.434
1006.884, 5373.957
1007.996, 5535.023
1009.108, 5769.289
1010.220, 6341.797
1011.332, 6994.258
1012.444, 7247.914
1013.555, 7813.488
1014.666, 8287.883
1015.777, 8842.316
1016.888, 9621.930
1017.999, 10105.12
1019.110, 10902.23
1020.220, 11176.11
1021.331, 11651.55
1022.441, 12144.57
1023.551, 12294.11
1024.661, 12521.94
1025.770, 12462.80
1026.880, 13856.13
1027.989, 14131.12
1029.098, 13951.46
1030.207, 13116.84
1031.316, 12762.45
1032.425, 12644.27
1033.533, 12290.66
1034.642, 11779.82
1035.750, 11649.91
1036.858, 11119.05
1037.966, 10307.04
1039.073, 9918.449
1040.181, 9300.852
1041.288, 8635.902
1042.396, 8304.016
1043.503, 7485.215
1044.610, 7282.715
1045.716, 6869.531
1046.823, 6394.891
1047.929, 5562.773
1049.036, 5464.789
1050.142, 4942.562
1051.248, 4644.793
1052.353, 4358.539
1053.459, 4185.672
1054.564, 3862.848
1055.670, 3820.504
1056.775, 3430.672
1057.880, 3068.598
1058.985, 3296.227
1060.089, 2909.926
1061.194, 2575.348
1062.298, 2986.828
1063.402, 2488.949
1064.506, 2404.473
1065.610, 2815.953
1066.713, 2307.434
1067.817, 2342.398
1068.920, 2488.941
1070.023, 2728.469
1071.126, 2222.484
1072.229, 2316.977
1073.332, 1966.453
1074.435, 2018.922
1075.537, 1888.363
1076.639, 2118.789
1077.741, 1870.207
1078.843, 2030.605
1079.945, 1947.992
1081.046, 2027.367
1082.148, 2020.719
1083.249, 2093.059
1084.350, 2148.203
1085.451, 2200.695
1086.551, 2127.039
1087.652, 2113.371
1088.752, 1778.691
1089.853, 1711.020
1090.953, 1950.363
1092.053, 1596.688
1093.152, 1626.094
1094.252, 1365.562
1095.351, 1627.137
1096.451, 1400.875
1097.550, 1428.695
1098.649, 1897.562
1099.748, 1349.473
1100.846, 2243.441
1101.945, 1084.445
1103.043, 814.5312
1104.141, 1104.695
1105.239, 952.0078
1106.337, 448.4219
1107.434, 894.9609
1108.532, 581.5664
1109.629, 551.2070
1110.726, 684.9414
1111.823, 286.7227
1112.920, 388.6016
1114.017, 627.5117
1115.113, 310.8945
1116.210, 55.03906
1117.306, 519.9844
1118.402, 109.0469
1119.498, 78.86719
1120.593, 320.5234
1121.689, 273.5664
1122.784, 171.0430
1123.879, 537.1914
1124.974, 526.2031
1126.069, 295.1680
1127.164, 47.11719
1128.259, 435.0391
1129.353, 173.9375
1130.447, 185.8242
1131.541, 69.31250
1132.635, 23.47266
1133.729, 53.23438
1134.822, 149.0273
1135.916, 30.41406
1137.009, 88.14844
1138.102, 77.68359
1139.195, 238.5273
1140.288, 38.46875
1141.380, 73.04688
1142.473, 198.7070
1143.565, 59.48047
1144.657, 80.64062
1145.749, 125.7734
1146.841, 119.8828
1147.932, 77.57812
1149.024, 475.3672
1150.115, 313.6133
1151.206, 38.92969
1152.297, 365.5625
1153.388, 425.7070
1154.479, 47.05469
1155.569, 162.8906
1156.659, 45.93750
1157.750, 25.96484
1158.839, 398.3867
1159.929, 147.0234
1161.019, 137.9258
1162.108, 108.2344
1163.198, 111.4414
1164.287, 137.2461
1165.376, 186.9062
1166.465, 207.5312
1167.553, 191.1328
1168.642, 48.29297
1169.730, 6.792969
1170.818, 127.6523
1171.906, 16.06641
1172.994, 193.8594
1174.082, 172.2812
1175.170, 99.58984
1176.257, 276.1914
1177.344, 210.5508
1178.431, 242.5312
1179.518, 29.41016
1180.605, 308.6328
1181.691, 154.7617
1182.778, 421.6914
1183.864, 30.40625
1184.950, 163.4258
1186.036, 73.22656
1187.122, 160.4844
1188.207, 216.6641
1189.292, 85.06641
1190.378, 266.5352
1191.463, 95.11328
1192.548, 13.66016
1193.632, 160.2383
1194.717, 82.30078
1195.801, 208.9492
1196.886, 17.76562
1197.970, 187.3438
1199.054, 652.4297
1200.137, 904.4844
1201.221, 165.5234
1202.305, 668.5234
1203.388, 713.5039
1204.471, 320.4609
1205.554, 825.3906
1206.637, 858.4961
1207.719, 619.4648
1208.802, 805.7383
1209.884, 507.5625
1210.966, 514.3672
1212.048, 1128.141
1213.130, 765.1641
1214.212, 740.6211
1215.293, 784.3359
1216.374, 552.0195
1217.456, 947.6719
1218.536, 995.3125
1219.617, 1502.926
1220.698, 813.5117
1221.778, 920.1016
1222.859, 903.6602
1223.939, 1617.195
1225.019, 1150.707
1226.099, 696.1953
1227.178, 1211.648
1228.258, 806.0781
1229.337, 626.4766
1230.417, 900.8516
1231.496, 850.1953
1232.574, 976.5039
1233.653, 1079.785
1234.732, 1331.035
1235.810, 714.2578
1236.888, 733.4492
1237.966, 983.6094
1239.044, 667.7383
1240.122, 939.8359
1241.199, 1039.898
1242.277, 1043.965
1243.354, 865.3242
1244.431, 218.0078
1245.508, 424.9766
1246.585, 318.4961
1247.661, 486.3945
1248.738, 329.1914
1249.814, 18.10938
1250.890, 452.6367
1251.966, 19.64844
1253.042, 274.9844
1254.117, 303.5781
1255.193, 315.1484
1256.268, 378.6836
1257.343, 317.7227
1258.418, 457.1875
1259.493, 322.6250
