##NAMES=Astrophyllite
##RRUFFID=R060103
##IDEAL CHEMISTRY=K_2_NaFe^2+^_7_Ti^4+^_2_(Si_4_O_12_)_2_O_2_(OH)_4_F
##LOCALITY=Brivik, Norway
##OWNER=RRUFF
##SOURCE=University of Arizona Mineral Museum
##DESCRIPTION=Brown fragment embedded in matrix
##STATUS=The identification of this mineral is confirmed by single-crystal X-ray diffraction and chemical analysis.
##URL=rruff.info/R060103
##MEASURED CHEMISTRY=K_2.00_Na_1.00_(Fe^2+^_0.55_Mn_0.32_Fe^3+^_0.04_Mg_0.04_Ca_0.04_)_7_(Ti_0.66_Zr_0.18_Al_0.16_)_2_Si_8.00_O_26_(OH)_4_F_1.00_
##PIN_ID=M01746
##ORIENTATION=Laser parallel to a* (1 0 0). Fiducial mark perpendicular to laser is parallel to b [0 1 0]
143.9980, 0.0000000E+00
145.2320, 3.148926
146.4650, 47.06543
147.6990, 20.99463
148.9320, 53.41602
150.1650, 18.83252
151.3980, 9.617676
152.6310, 100.3584
153.8640, 144.5312
155.0960, 245.4429
156.3280, 314.7402
157.5600, 290.1406
158.7920, 461.4082
160.0240, 552.3394
161.2560, 738.7563
162.4870, 944.5034
163.7180, 1019.443
164.9490, 1282.468
166.1800, 1341.504
167.4110, 1357.489
168.6410, 1354.366
169.8720, 1463.071
171.1020, 1524.543
172.3320, 1411.722
173.5620, 1428.551
174.7910, 1212.977
176.0210, 1045.953
177.2500, 983.4326
178.4790, 853.6445
179.7080, 793.7417
180.9370, 633.4976
182.1650, 550.6089
183.3940, 449.0601
184.6220, 297.9165
185.8500, 253.1738
187.0780, 246.8667
188.3050, 160.9937
189.5330, 267.5327
190.7600, 207.4526
191.9870, 122.7163
193.2140, 229.2905
194.4410, 380.1431
195.6680, 439.2490
196.8940, 491.5825
198.1200, 549.1211
199.3470, 744.8467
200.5720, 1045.739
201.7980, 1148.783
203.0240, 1172.964
204.2490, 1136.269
205.4740, 1075.684
206.6990, 1228.199
207.9240, 1478.805
209.1490, 1757.490
210.3740, 1985.245
211.5980, 2155.060
212.8220, 2502.930
214.0460, 2747.844
215.2700, 3135.798
216.4930, 3378.787
217.7170, 3678.807
218.9400, 4079.799
220.1630, 4204.920
221.3860, 4712.365
222.6090, 4850.282
223.8320, 5110.645
225.0540, 5344.560
226.2760, 5494.104
227.4980, 5743.150
228.7200, 5767.656
229.9420, 5980.509
231.1630, 6122.558
232.3850, 6163.739
233.6060, 6212.984
234.8270, 6229.252
236.0480, 6088.483
237.2690, 5885.633
238.4890, 5862.701
239.7090, 5765.683
240.9290, 5591.579
242.1490, 5085.391
243.3690, 4918.117
244.5890, 4544.762
245.8080, 4210.323
247.0270, 4076.806
248.2470, 3574.211
249.4650, 3464.541
250.6840, 3199.796
251.9030, 3115.979
253.1210, 2867.089
254.3390, 2817.127
255.5570, 2605.097
256.7750, 2628.998
257.9930, 2491.832
259.2100, 2494.601
260.4280, 2359.304
261.6450, 2124.942
262.8620, 1952.520
264.0790, 1826.683
265.2950, 1672.493
266.5120, 1559.883
267.7280, 1374.206
268.9440, 1187.461
270.1600, 1092.648
271.3760, 984.7686
272.5920, 862.0342
273.8070, 918.8057
275.0220, 695.7231
276.2370, 664.5742
277.4520, 661.3589
278.6670, 499.0771
279.8820, 555.7285
281.0960, 504.3145
282.3100, 326.8335
283.5240, 320.2876
284.7380, 360.6768
285.9520, 448.9995
287.1650, 320.2588
288.3780, 398.8101
289.5920, 373.5518
290.8050, 353.7075
292.0170, 470.7285
293.2300, 445.5586
294.4430, 443.8184
295.6550, 514.7666
296.8670, 478.5542
298.0790, 462.6230
299.2910, 604.5210
300.5020, 584.4336
301.7140, 577.6514
302.9250, 645.7510
304.1360, 730.9277
305.3470, 722.2769
306.5580, 859.7607
307.7680, 973.8057
308.9780, 927.0049
310.1890, 1030.442
311.3990, 951.7715
312.6090, 1105.263
313.8180, 1109.065
315.0280, 1196.500
316.2370, 1403.584
317.4460, 1331.891
318.6550, 1351.232
319.8640, 1482.661
321.0730, 1412.152
322.2810, 1699.404
323.4890, 1666.164
324.6980, 1684.311
325.9060, 1790.582
327.1130, 1670.921
328.3210, 1744.580
329.5280, 1802.594
330.7360, 1661.191
331.9430, 1856.218
333.1500, 1885.126
334.3560, 1786.259
335.5630, 1944.116
336.7690, 2136.828
337.9760, 2102.780
339.1820, 2169.463
340.3870, 2234.129
341.5930, 2355.776
342.7990, 2331.404
344.0040, 2427.013
345.2090, 2395.599
346.4140, 2512.164
347.6190, 2349.704
348.8240, 2419.221
350.0280, 2215.714
351.2330, 2097.181
352.4370, 2159.621
353.6410, 2087.035
354.8440, 2131.423
356.0480, 1912.782
357.2520, 1933.113
358.4550, 1904.416
359.6580, 1954.690
360.8610, 1904.936
362.0640, 1886.151
363.2660, 1932.337
364.4690, 1987.494
365.6710, 1889.620
366.8730, 1993.714
368.0750, 1990.773
369.2770, 1969.796
370.4780, 1927.983
371.6800, 1980.927
372.8810, 1942.021
374.0820, 2071.946
375.2830, 1993.751
376.4830, 2050.549
377.6840, 2113.386
378.8840, 2029.305
380.0840, 2184.346
381.2840, 1996.104
382.4840, 2128.082
383.6840, 2052.823
384.8830, 2018.229
386.0830, 1899.699
387.2820, 1827.769
388.4810, 1841.291
389.6800, 1674.502
390.8780, 1542.665
392.0770, 1537.780
393.2750, 1549.848
394.4730, 1375.867
395.6710, 1288.840
396.8690, 1204.766
398.0660, 1072.645
399.2640, 1032.477
400.4610, 990.2632
401.6580, 930.0034
402.8550, 878.7690
404.0520, 805.3457
405.2490, 776.9482
406.4450, 748.5059
407.6410, 738.0186
408.8370, 660.4873
410.0330, 584.9121
411.2290, 767.2930
412.4240, 639.6289
413.6200, 592.9224
414.8150, 668.1719
416.0100, 560.3799
417.2050, 587.5444
418.4000, 651.6680
419.5940, 701.7500
420.7880, 679.5635
421.9830, 679.1611
423.1770, 628.7529
424.3700, 588.6743
425.5640, 564.5566
426.7580, 490.3999
427.9510, 406.2056
429.1440, 219.9731
430.3370, 385.7012
431.5300, 209.3931
432.7220, 255.0444
433.9150, 164.6558
435.1070, 135.2349
436.2990, 47.78418
437.4910, 22.71143
438.6830, 54.28613
439.8750, 124.0249
441.0660, 148.9102
442.2570, 188.7163
443.4480, 202.8408
444.6390, 158.1440
445.8300, 186.6050
447.0210, 266.2368
448.2110, 236.0830
449.4010, 301.1274
450.5910, 325.4038
451.7810, 215.9263
452.9710, 187.6367
454.1610, 265.5200
455.3500, 172.6162
456.5390, 161.8779
457.7280, 188.2979
458.9170, 23.89014
460.1060, 139.5679
461.2940, 13.39111
462.4830, 79.29346
463.6710, 14.69141
464.8590, 62.38721
466.0470, 82.43115
467.2350, 62.79346
468.4220, 146.8809
469.6090, 128.5166
470.7970, 86.11475
471.9840, 201.6714
473.1700, 88.19287
474.3570, 191.6743
475.5440, 216.1206
476.7300, 157.5327
477.9160, 217.9092
479.1020, 276.2515
480.2880, 183.5630
481.4740, 241.8394
482.6590, 300.0835
483.8440, 256.2969
485.0300, 282.4785
486.2140, 298.6289
487.3990, 285.4565
488.5840, 354.8374
489.7680, 301.8955
490.9530, 336.9238
492.1370, 376.9214
493.3210, 355.8892
494.5040, 341.8271
495.6880, 361.7354
496.8720, 338.6147
498.0550, 341.4644
499.2380, 464.2847
500.4210, 342.0771
501.6040, 342.8408
502.7860, 391.5762
503.9690, 277.2837
505.1510, 341.9634
506.3330, 297.6162
507.5150, 297.2407
508.6970, 343.8384
509.8780, 241.4102
511.0600, 210.9541
512.2410, 113.4727
513.4220, 211.9634
514.6030, 108.4282
515.7840, 134.8652
516.9640, 225.2773
518.1440, 135.6641
519.3250, 111.0259
520.5050, 76.36182
521.6850, 31.57861
522.8640, 83.95410
524.0440, 16.21191
525.2230, 57.44189
526.4020, 148.6475
527.5820, 91.83008
528.7600, 109.9897
529.9390, 160.1284
531.1180, 161.2456
532.2960, 199.7349
533.4740, 204.4180
534.6520, 253.4741
535.8300, 313.5107
537.0080, 331.5283
538.1850, 418.5264
539.3630, 495.5059
540.5400, 567.4678
541.7170, 692.4111
542.8940, 830.3369
544.0700, 981.2466
545.2470, 1104.152
546.4230, 1334.054
547.5990, 1474.954
548.7750, 1733.854
549.9510, 2005.747
551.1270, 2222.634
552.3020, 2553.519
553.4780, 2865.399
554.6530, 3098.286
555.8280, 3291.181
557.0030, 3564.090
558.1770, 3729.033
559.3520, 3754.011
560.5260, 3775.021
561.7000, 3627.049
562.8740, 3683.122
564.0480, 3554.240
565.2220, 3278.398
566.3950, 3173.603
567.5680, 2890.822
568.7420, 2697.065
569.9150, 2613.352
571.0870, 2259.299
572.2600, 2149.641
573.4320, 1966.621
574.6050, 1847.836
575.7770, 1731.683
576.9490, 1566.318
578.1210, 1539.651
579.2920, 1494.210
580.4640, 1295.781
581.6350, 1237.971
582.8060, 1338.594
583.9770, 1364.717
585.1480, 1316.958
586.3190, 1312.012
587.4890, 1310.292
588.6590, 1316.594
589.8290, 1304.386
590.9990, 1319.979
592.1690, 1292.659
593.3390, 1267.257
594.5080, 1291.680
595.6770, 1260.622
596.8470, 1257.756
598.0160, 1220.981
599.1840, 1185.620
600.3530, 1126.654
601.5210, 1059.506
602.6900, 1026.834
603.8580, 980.2529
605.0260, 949.4487
606.1930, 921.9731
607.3610, 904.5337
608.5280, 883.7290
609.6960, 909.8267
610.8630, 933.8760
612.0300, 863.6255
613.1970, 944.0386
614.3630, 944.8857
615.5300, 902.3174
616.6960, 1024.882
617.8620, 1009.231
619.0280, 1145.864
620.1940, 1159.651
621.3590, 1272.203
622.5250, 1260.029
623.6900, 1363.876
624.8550, 1384.742
626.0200, 1573.629
627.1850, 1598.537
628.3490, 1704.465
629.5140, 2003.415
630.6780, 2097.387
631.8420, 2400.378
633.0060, 2482.392
634.1700, 2657.427
635.3330, 3081.484
636.4970, 3280.563
637.6600, 3594.665
638.8230, 4029.790
639.9860, 4576.936
641.1490, 5033.106
642.3110, 5611.298
643.4740, 6400.515
644.6360, 7178.754
645.7980, 7944.020
646.9600, 9002.306
648.1220, 10079.62
649.2840, 10877.95
650.4450, 11640.31
651.6060, 12359.69
652.7670, 12934.90
653.9280, 13276.33
655.0890, 13412.59
656.2500, 13085.01
657.4100, 12426.51
658.5700, 11930.01
659.7300, 10759.44
660.8900, 9933.762
662.0500, 8878.940
663.2100, 7987.375
664.3690, 7221.566
665.5280, 6513.970
666.6880, 6018.688
667.8460, 5735.319
669.0050, 5334.068
670.1640, 5306.865
671.3220, 5168.691
672.4810, 5065.542
673.6390, 5144.422
674.7970, 4965.329
675.9540, 5236.265
677.1120, 5176.226
678.2690, 5425.217
679.4270, 5624.236
680.5840, 5873.284
681.7410, 5902.358
682.8980, 6241.488
684.0540, 6381.967
685.2110, 6367.630
686.3670, 6968.281
687.5230, 6934.080
688.6790, 7206.408
689.8350, 7397.439
690.9900, 7522.990
692.1460, 7754.251
693.3010, 7821.765
694.4560, 8058.715
695.6110, 8061.934
696.7660, 8293.189
697.9210, 8365.147
699.0750, 8358.750
700.2290, 8733.668
701.3840, 8557.261
702.5370, 8609.629
703.6910, 8879.768
704.8450, 8988.443
705.9980, 8880.494
707.1520, 9203.152
708.3050, 9108.609
709.4580, 9152.325
710.6110, 9262.671
711.7630, 9385.681
712.9160, 9439.113
714.0680, 9383.682
715.2200, 9351.529
716.3720, 9315.906
717.5240, 9128.515
718.6760, 8835.043
719.8270, 8678.460
720.9780, 8252.489
722.1300, 8225.591
723.2810, 8026.780
724.4310, 7503.061
725.5820, 7195.423
726.7330, 6955.875
727.8830, 6574.437
729.0330, 6340.100
730.1830, 6173.882
731.3330, 5740.787
732.4830, 5567.789
733.6320, 5337.879
734.7810, 5051.077
735.9310, 4854.360
737.0800, 4552.722
738.2290, 4463.171
739.3770, 4264.666
740.5260, 4213.233
741.6740, 4050.792
742.8220, 3831.506
743.9700, 3769.205
745.1180, 3616.955
746.2660, 3470.728
747.4130, 3365.552
748.5610, 3296.395
749.7080, 3226.258
750.8550, 3164.224
752.0020, 3135.044
753.1490, 3097.966
754.2950, 3048.907
755.4420, 3004.379
756.5880, 2988.840
757.7340, 2885.832
758.8800, 2845.840
760.0250, 2758.758
761.1710, 2749.907
762.3160, 2640.965
763.4620, 2592.037
764.6070, 2555.125
765.7520, 2488.230
766.8960, 2449.349
768.0410, 2341.484
769.1850, 2216.634
770.3300, 2201.799
771.4740, 2181.979
772.6180, 2071.173
773.7610, 2038.383
774.9050, 1986.566
776.0480, 1947.504
777.1920, 1882.099
778.3350, 1872.367
779.4780, 1795.649
780.6200, 1768.424
781.7630, 1729.255
782.9060, 1720.579
784.0480, 1672.917
785.1900, 1698.268
786.3320, 1588.632
787.4740, 1623.009
788.6150, 1437.401
789.7570, 1437.805
790.8980, 1345.223
792.0390, 1287.654
793.1800, 1234.098
794.3210, 1157.126
795.4620, 1106.025
796.6020, 1033.507
797.7420, 958.0024
798.8830, 914.5103
800.0230, 768.0322
801.1620, 714.4033
802.3020, 703.1157
803.4420, 577.6763
804.5810, 555.2485
805.7200, 551.8320
806.8590, 366.4268
807.9980, 356.0317
809.1370, 297.6479
810.2750, 174.2744
811.4140, 253.9102
812.5520, 273.5562
813.6900, 224.2119
814.8280, 197.8428
815.9650, 149.6484
817.1030, 63.23633
818.2400, 25.92920
819.3780, 6.631348
820.5150, 48.66113
821.6520, 50.28516
822.7880, 48.29639
823.9250, 67.64160
825.0610, 19.01416
826.1980, 31.39258
827.3340, 39.55762
828.4700, 32.54590
829.6050, 71.61523
830.7410, 77.07178
831.8760, 95.56543
833.0120, 174.1079
834.1470, 167.7407
835.2820, 160.4609
836.4160, 100.2656
837.5510, 205.1235
838.6860, 200.0918
839.8200, 179.1665
840.9540, 202.3389
842.0880, 79.62109
843.2220, 119.9497
844.3550, 179.3457
845.4890, 70.84131
846.6220, 175.3794
847.7550, 169.0156
848.8880, 190.7480
850.0210, 48.58643
851.1540, 63.45898
852.2860, 48.37207
853.4190, 6.681152
854.5510, 9.727051
855.6830, 13.76807
856.8150, 30.80371
857.9460, 50.84326
859.0780, 64.88672
860.2090, 86.93311
861.3410, 116.9819
862.4720, 140.0347
863.6020, 193.0938
864.7330, 290.1548
865.8640, 236.2251
866.9940, 340.2959
868.1240, 343.3672
869.2540, 435.4482
870.3840, 487.5288
871.5140, 520.6113
872.6440, 704.6963
873.7730, 675.8081
874.9020, 706.9170
876.0320, 796.0469
877.1600, 944.1792
878.2890, 1011.312
879.4180, 1116.455
880.5460, 1242.599
881.6750, 1333.750
882.8030, 1405.896
883.9310, 1463.039
885.0590, 1587.178
886.1860, 1660.204
887.3140, 1753.442
888.4410, 1839.569
889.5680, 1975.702
890.6950, 2046.830
891.8220, 2151.953
892.9490, 2192.070
894.0750, 2375.192
895.2020, 2460.308
896.3280, 2564.436
897.4540, 2566.566
898.5800, 2771.692
899.7050, 2912.838
900.8310, 2922.978
901.9560, 3029.120
903.0820, 3159.258
904.2070, 3344.396
905.3320, 3486.536
906.4560, 3492.670
907.5810, 3638.814
908.7050, 3723.441
909.8300, 3832.583
910.9540, 3937.269
912.0780, 4098.429
913.2010, 4235.582
914.3250, 4388.730
915.4480, 4351.873
916.5720, 4542.021
917.6950, 4553.164
918.8180, 4497.299
919.9410, 4529.435
921.0630, 4528.566
922.1860, 4528.689
923.3080, 4528.825
924.4300, 4496.955
925.5520, 4456.878
926.6740, 4248.196
927.7960, 4329.308
928.9170, 4218.414
930.0390, 4121.056
931.1600, 4253.645
932.2810, 3977.755
933.4020, 3871.857
934.5230, 3843.952
935.6430, 3578.040
936.7640, 3492.120
937.8840, 3382.192
939.0040, 3302.256
940.1240, 3228.313
941.2440, 3131.364
942.3630, 2968.406
943.4830, 2823.440
944.6020, 2902.466
945.7210, 2741.484
946.8400, 2677.494
947.9590, 2589.497
949.0770, 2435.492
950.1960, 2390.480
951.3140, 2327.458
952.4320, 2246.427
953.5500, 2111.393
954.6680, 2073.323
955.7860, 1926.925
956.9030, 1918.363
958.0210, 1767.835
959.1380, 1724.178
960.2550, 1601.013
961.3720, 1358.163
962.4890, 1315.814
963.6050, 1243.776
964.7220, 1216.502
965.8380, 1013.814
966.9540, 1082.877
968.0700, 920.9233
969.1860, 842.2871
970.3010, 801.0278
971.4170, 749.4707
972.5320, 735.2583
973.6470, 719.2925
974.7620, 712.5742
975.8770, 522.3403
976.9910, 711.7505
978.1060, 421.5747
979.2200, 604.6177
980.3340, 506.4224
981.4480, 461.6187
982.5620, 473.1719
983.6760, 404.3232
984.7890, 437.3638
985.9030, 354.4380
987.0160, 529.4272
988.1290, 477.5024
989.2420, 605.7124
990.3550, 567.0869
991.4670, 708.2529
992.5800, 666.1162
993.6920, 744.9834
994.8040, 662.8564
995.9160, 767.8809
997.0280, 898.4482
998.1390, 980.3779
999.2510, 1044.038
1000.362, 1120.921
1001.473, 1202.839
1002.584, 1283.945
1003.695, 1342.865
1004.805, 1401.157
1005.916, 1477.896
1007.026, 1720.293
1008.136, 1790.188
1009.246, 1904.409
1010.356, 2116.311
1011.466, 2163.775
1012.576, 2420.635
1013.685, 2655.379
1014.794, 2855.456
1015.903, 2958.475
1017.012, 3215.372
1018.121, 3492.269
1019.229, 3817.198
1020.338, 3938.095
1021.446, 4196.209
1022.554, 4437.103
1023.662, 4582.133
1024.770, 4708.029
1025.878, 4825.923
1026.985, 4934.458
1028.092, 5017.353
1029.200, 5129.125
1030.307, 5174.589
1031.413, 5266.637
1032.520, 5275.133
1033.627, 5197.339
1034.733, 5241.788
1035.839, 5136.804
1036.945, 5062.814
1038.051, 4899.487
1039.157, 4750.496
1040.262, 4455.805
1041.368, 4351.839
1042.473, 4099.104
1043.578, 3827.649
1044.683, 3623.297
1045.788, 3432.250
1046.893, 3206.160
1047.997, 3082.256
1049.101, 2777.942
1050.205, 2582.805
1051.309, 2242.905
1052.413, 2136.148
1053.517, 1975.235
1054.621, 1918.269
1055.724, 1702.270
1056.827, 1562.275
1057.930, 1517.637
1059.033, 1403.502
1060.136, 1340.979
1061.238, 1288.809
1062.341, 1141.490
1063.443, 1219.319
1064.545, 1154.420
1065.647, 994.3555
1066.749, 970.3301
1067.850, 1034.289
1068.952, 1018.112
1070.053, 1007.933
1071.154, 870.7324
1072.255, 896.0762
1073.356, 847.9106
1074.457, 913.7080
1075.557, 792.6465
1076.658, 903.4351
1077.758, 730.5400
1078.858, 804.4790
1079.958, 850.2812
1081.057, 844.6201
1082.157, 778.3872
1083.256, 885.1499
1084.356, 863.9072
1085.455, 784.8105
1086.554, 812.8096
1087.653, 693.8286
1088.751, 703.8491
1089.850, 800.8154
1090.948, 792.6968
1092.046, 689.4795
1093.144, 809.5322
1094.242, 738.3232
1095.340, 752.2412
1096.437, 695.0586
1097.534, 725.9531
1098.632, 683.9980
1099.729, 744.8828
1100.826, 597.9570
1101.922, 496.9160
1103.019, 572.9155
1104.115, 449.9961
1105.212, 428.0728
1106.308, 498.2017
1107.404, 359.3765
1108.499, 355.6035
1109.595, 246.8877
1110.691, 280.1665
1111.786, 285.4917
1112.881, 227.8354
1113.976, 247.5435
1115.071, 203.9805
1116.166, 205.0317
1117.260, 155.6675
1118.355, 85.28516
1119.449, 59.91113
1120.543, 28.46582
1121.637, 23.49463
1122.731, 8.237305
1123.824, 45.77783
1124.918, 18.53760
1126.011, 12.15967
1127.104, 2.213867
1128.197, 12.65186
1129.290, 5.568359
1130.382, 28.97266
1131.475, 20.46143
1132.567, 13.88965
1133.659, 34.50244
1134.751, 17.07275
1135.843, 4.544434
1136.935, 11.17383
1138.027, 100.8218
1139.118, 29.57275
1140.209, 81.14648
1141.300, 11.86426
1142.391, 4.482910
1143.482, 42.22119
1144.573, 8.066895
1145.663, 28.92725
1146.754, 9.183105
1147.844, 41.28320
1148.934, 40.30908
1150.024, 33.58496
1151.113, 49.62598
1152.203, 5.690430
1153.292, 23.25146
1154.381, 13.77881
1155.470, 47.97266
1156.559, 62.98291
1157.648, 16.01562
1158.737, 53.10645
1159.825, 50.92676
1160.913, 13.78760
1162.001, 18.11133
1163.089, 79.89600
1164.177, 19.94434
1165.265, 12.23975
1166.352, 26.55176
1167.440, 4.667969
1168.527, 14.90820
1169.614, 29.82520
1170.701, 40.45264
1171.788, 35.77148
1172.874, 10.87256
1173.961, 27.49902
1175.047, 28.90381
1176.133, 44.65625
1177.219, 55.30078
1178.305, 21.83887
1179.390, 28.63525
1180.476, 67.01367
1181.561, 22.49316
1182.646, 5.040039
1183.731, 24.40234
1184.816, 29.83252
1185.901, 48.34229
1186.985, 34.02832
1188.070, 12.38672
1189.154, 69.21240
1190.238, 10.70264
1191.322, 87.01611
1192.406, 57.53906
1193.489, 139.3193
1194.573, 0.5581050
1195.656, 53.77344
1196.739, 44.09863
1197.822, 47.29004
1198.905, 79.52637
1199.988, 79.69336
1201.070, 87.98535
1202.153, 17.99365
1203.235, 79.54395
1204.317, 94.80225
1205.399, 53.96240
1206.481, 100.0654
1207.562, 33.14551
1208.644, 52.21143
1209.725, 84.26465
1210.806, 21.45898
1211.887, 166.5767
1212.968, 118.5889
1214.049, 118.5898
1215.129, 7.669434
1216.209, 42.63672
1217.290, 40.58936
1218.370, 41.52734
1219.450, 49.45166
1220.529, 69.43311
1221.609, 151.3311
1222.688, 43.21631
1223.768, 149.0869
1224.847, 75.12500
1225.926, 133.9707
1227.005, 86.80371
1228.083, 56.78174
1229.162, 99.58643
1230.240, 65.37842
1231.318, 112.3892
1232.396, 139.1533
1233.474, 90.90381
1234.552, 129.6401
1235.629, 120.4805
1236.707, 130.1992
1237.784, 136.9497
1238.861, 97.62842
1239.938, 137.3223
1241.015, 200.9702
1242.092, 170.6216
1243.168, 141.2388
1244.244, 48.12012
1245.321, 32.70312
1246.397, 76.26465
1247.473, 84.80908
1248.548, 86.33594
1249.624, 145.8452
1250.699, 35.41260
1251.775, 12.11523
1252.850, 37.00049
1253.925, 57.41162
1254.999, 81.80420
1256.074, 79.17432
1257.148, 33.37939
1258.223, 58.02393
1259.297, 145.2905
1260.371, 175.8130
1261.445, 125.4629
1262.519, 65.69922
1263.592, 64.73047
1264.666, 139.9336
1265.739, 149.7500
1266.812, 177.1045
1267.885, 76.78662
1268.958, 101.9561
1270.030, 83.78467
1271.103, 54.91943
1272.175, 79.47412
1273.247, 130.6191
1274.319, 106.3955
1275.391, 169.2944
1276.463, 140.9009
1277.535, 69.28906
1278.606, 99.32568
1279.677, 113.3149
1280.748, 100.3232
1281.819, 103.5088
1282.890, 112.4917
1283.961, 50.32373
1285.031, 132.2769
1286.102, 171.2163
1287.172, 55.50146
1288.242, 199.4136
1289.312, 38.43311
1290.381, 144.7490
1291.451, 60.46875
1292.520, 77.56641
1293.590, 162.2622
1294.659, 200.5400
1295.728, 80.23535
1296.797, 82.92139
1297.865, 112.9316
1298.934, 107.5918
1300.002, 96.93604
1301.070, 142.5425
1302.138, 206.9028
1303.206, 130.9688
1304.274, 162.9180
1305.341, 42.54541
1306.409, 101.2026
1307.476, 181.6514
1308.543, 24.49561
1309.610, 102.1421
1310.677, 90.53369
