##NAMES=Astrophyllite
##RRUFFID=R060103
##IDEAL CHEMISTRY=K_2_NaFe^2+^_7_Ti^4+^_2_(Si_4_O_12_)_2_O_2_(OH)_4_F
##LOCALITY=Brivik, Norway
##OWNER=RRUFF
##SOURCE=University of Arizona Mineral Museum
##DESCRIPTION=Brown fragment embedded in matrix
##STATUS=The identification of this mineral is confirmed by single-crystal X-ray diffraction and chemical analysis.
##URL=rruff.info/R060103
##MEASURED CHEMISTRY=K_2.00_Na_1.00_(Fe^2+^_0.55_Mn_0.32_Fe^3+^_0.04_Mg_0.04_Ca_0.04_)_7_(Ti_0.66_Zr_0.18_Al_0.16_)_2_Si_8.00_O_26_(OH)_4_F_1.00_
##PIN_ID=M01031
##ORIENTATION=Laser parallel to c* (0 0 1). Fiducial mark perpendicular to laser is parallel to a [1 0 0]
150.1650, 0.0000000E+00
151.3980, 1.601563
152.6310, 178.4600
153.8640, 160.3555
155.0960, 188.5244
156.3280, 81.82129
157.5600, 63.73633
158.7920, 189.8535
160.0240, 302.0977
161.2560, 447.3262
162.4870, 485.4688
163.7180, 630.4609
164.9490, 627.5635
166.1800, 661.2402
167.4110, 736.3975
168.6410, 836.2988
169.8720, 889.5449
171.1020, 756.2256
172.3320, 922.3379
173.5620, 754.9072
174.7910, 930.2744
176.0210, 744.1699
177.2500, 620.9180
178.4790, 463.4863
179.7080, 449.9502
180.9370, 360.6797
182.1650, 320.2480
183.3940, 231.5332
184.6220, 124.8164
185.8500, 123.6699
187.0780, 79.26367
188.3050, 14.48535
189.5330, 3.215820
190.7600, 22.72070
191.9870, 32.38770
193.2140, 25.96191
194.4410, 8.029297
195.6680, 11.38867
196.8940, 47.80762
198.1200, 75.63281
199.3470, 166.1006
200.5720, 370.2227
201.7980, 358.0146
203.0240, 404.4883
204.2490, 318.6543
205.4740, 397.5205
206.6990, 496.0967
207.9240, 596.3359
209.1490, 787.4062
210.3740, 977.0947
211.5980, 1142.755
212.8220, 1433.068
214.0460, 1510.832
215.2700, 1754.522
216.4930, 2055.195
217.7170, 2407.782
218.9400, 2451.140
220.1630, 2791.055
221.3860, 2965.478
222.6090, 3044.823
223.8320, 3385.113
225.0540, 3482.568
226.2760, 3763.112
227.4980, 3894.333
228.7200, 3925.615
229.9420, 4019.542
231.1630, 4039.939
232.3850, 4028.401
233.6060, 3979.106
234.8270, 3931.959
236.0480, 3915.699
237.2690, 3794.371
238.4890, 3573.967
239.7090, 3598.483
240.9290, 3270.915
242.1490, 2864.251
243.3690, 2846.478
244.5890, 2449.569
245.8080, 2247.494
247.0270, 2169.272
248.2470, 1954.927
249.4650, 1696.468
250.6840, 1565.899
251.9030, 1415.219
253.1210, 1182.428
254.3390, 1084.524
255.5570, 915.5054
256.7750, 908.3677
257.9930, 988.1060
259.2100, 1105.717
260.4280, 810.1992
261.6450, 765.5547
262.8620, 544.7822
264.0790, 586.8872
265.2950, 367.8784
266.5120, 269.8120
267.7280, 340.6577
268.9440, 163.4316
270.1600, 198.1411
271.3760, 78.84326
272.5920, 94.45996
273.8070, 240.9634
275.0220, 5.363281
276.2370, 68.63965
277.4520, 54.79297
278.6670, 55.11035
279.8820, 143.1226
281.0960, 51.76611
282.3100, 13.74365
283.5240, 11.61084
284.7380, 55.78955
285.9520, 70.57812
287.1650, 91.41846
288.3780, 56.86475
289.5920, 41.96240
290.8050, 118.7383
292.0170, 84.89209
293.2300, 120.0352
294.4430, 133.7441
295.6550, 136.9487
296.8670, 305.1655
298.0790, 228.9458
299.2910, 277.5981
300.5020, 225.4810
301.7140, 233.3550
302.9250, 377.3242
304.1360, 252.3384
305.3470, 309.8838
306.5580, 354.1201
307.7680, 592.3716
308.9780, 544.4482
310.1890, 496.3374
311.3990, 617.3462
312.6090, 506.8071
313.8180, 613.8311
315.0280, 611.4224
316.2370, 773.4839
317.4460, 593.0083
318.6550, 851.9678
319.8640, 849.1421
321.0730, 987.3872
322.2810, 1014.992
323.4890, 1097.090
324.6980, 1087.241
325.9060, 1110.309
327.1130, 1126.587
328.3210, 1141.164
329.5280, 1122.897
330.7360, 1219.073
331.9430, 1212.116
333.1500, 1265.963
334.3560, 1338.405
335.5630, 1360.851
336.7690, 1504.640
337.9760, 1555.917
339.1820, 1595.730
340.3870, 1801.558
341.5930, 1849.562
342.7990, 1997.519
344.0040, 1968.572
345.2090, 2060.893
346.4140, 2154.379
347.6190, 2320.773
348.8240, 2258.078
350.0280, 2394.293
351.2330, 2493.421
352.4370, 2486.460
353.6410, 2668.411
354.8440, 2535.264
356.0480, 2666.006
357.2520, 2672.623
358.4550, 2599.104
359.6580, 2651.403
360.8610, 2524.469
362.0640, 2581.381
363.2660, 2370.155
364.4690, 2500.681
365.6710, 2483.085
366.8730, 2309.383
368.0750, 2159.580
369.2770, 2151.684
370.4780, 2133.697
371.6800, 2061.899
372.8810, 2025.447
374.0820, 1969.188
375.2830, 1872.961
376.4830, 1778.855
377.6840, 1751.125
378.8840, 1710.153
380.0840, 1644.535
381.2840, 1640.163
382.4840, 1568.359
383.6840, 1614.388
384.8830, 1492.104
386.0830, 1486.202
387.2820, 1433.296
388.4810, 1480.580
389.6800, 1302.988
390.8780, 1260.072
392.0770, 1264.245
393.2750, 1173.743
394.4730, 1094.584
395.6710, 990.8223
396.8690, 860.9194
398.0660, 756.5063
399.2640, 602.0337
400.4610, 679.1201
401.6580, 602.1338
402.8550, 506.0752
404.0520, 431.9443
405.2490, 351.7397
406.4450, 305.4609
407.6410, 253.1074
408.8370, 192.0977
410.0330, 194.3115
411.2290, 109.4536
412.4240, 210.3086
413.6200, 237.1846
414.8150, 265.2734
416.0100, 65.10156
417.2050, 98.05420
418.4000, 96.09131
419.5940, 217.5327
420.7880, 104.8628
421.9830, 201.3789
423.1770, 183.2935
424.3700, 139.1001
425.5640, 0.2299800
426.7580, 140.4907
427.9510, 36.64893
429.1440, 6.914063
430.3370, 62.93018
431.5300, 4.378418
432.7220, 8.551758
433.9150, 30.23145
435.1070, 82.99707
436.2990, 23.19678
437.4910, 61.29346
438.6830, 39.13965
439.8750, 116.5576
441.0660, 5.581055
442.2570, 147.7412
443.4480, 26.08936
444.6390, 90.89502
445.8300, 49.86523
447.0210, 20.31445
448.2110, 95.46924
449.4010, 109.5439
450.5910, 1.642090
451.7810, 15.08447
452.9710, 34.45312
454.1610, 38.66211
455.3500, 15.51172
456.5390, 77.96875
457.7280, 33.20508
458.9170, 57.29150
460.1060, 91.29443
461.2940, 29.83594
462.4830, 81.97412
463.6710, 56.70508
464.8590, 128.3569
466.0470, 223.9341
467.2350, 186.4409
468.4220, 180.8760
469.6090, 187.2397
470.7970, 164.5332
471.9840, 180.7568
473.1700, 246.9111
474.3570, 240.9995
475.5440, 119.0225
476.7300, 253.9775
477.9160, 94.87109
479.1020, 262.7007
480.2880, 327.4707
481.4740, 251.1938
482.6590, 453.8672
483.8440, 389.4863
485.0300, 424.0576
486.2140, 479.5737
487.3990, 476.0371
488.5840, 639.4443
489.7680, 588.7964
490.9530, 779.0928
492.1370, 835.3350
493.3210, 703.5225
494.5040, 882.6558
495.6880, 988.7354
496.8720, 1075.762
498.0550, 1185.737
499.2380, 1133.659
500.4210, 1136.529
501.6040, 1158.349
502.7860, 1112.118
503.9690, 1105.839
505.1510, 1117.512
506.3330, 1014.136
507.5150, 936.7148
508.6970, 735.2476
509.8780, 644.7344
511.0600, 601.1768
512.2410, 524.5747
513.4220, 513.9287
514.6030, 350.2397
515.7840, 224.5068
516.9640, 192.7324
518.1440, 140.9141
519.3250, 28.05176
520.5050, 63.14160
521.6850, 95.81494
522.8640, 22.85791
524.0440, 42.95410
525.2230, 5.110352
526.4020, 60.31396
527.5820, 70.58203
528.7600, 21.91846
529.9390, 112.3042
531.1180, 148.7783
532.2960, 32.35791
533.4740, 64.98779
534.6520, 17.67920
535.8300, 4.416016
537.0080, 12.80518
538.1850, 49.01318
539.3630, 48.11572
540.5400, 40.24707
541.7170, 228.2622
542.8940, 136.2837
544.0700, 321.2759
545.2470, 452.8857
546.4230, 538.1694
547.5990, 732.1211
548.7750, 926.8872
549.9510, 833.4243
551.1270, 1075.460
552.3020, 1238.564
553.4780, 1530.731
554.6530, 1702.031
555.8280, 1844.604
557.0030, 1889.345
558.1770, 2117.798
559.3520, 2224.071
560.5260, 2159.351
561.7000, 2123.008
562.8740, 2019.562
564.0480, 1977.219
565.2220, 1932.751
566.3950, 1786.054
567.5680, 1668.598
568.7420, 1408.971
569.9150, 1366.577
571.0870, 1159.941
572.2600, 1180.513
573.4320, 951.1182
574.6050, 932.0186
575.7770, 899.9990
576.9490, 839.2715
578.1210, 711.0576
579.2920, 780.7891
580.4640, 618.2246
581.6350, 643.5918
582.8060, 710.6699
583.9770, 602.1816
585.1480, 693.3848
586.3190, 715.5801
587.4890, 804.4131
588.6590, 978.1631
589.8290, 979.2627
590.9990, 1052.548
592.1690, 1046.676
593.3390, 1234.833
594.5080, 1048.041
595.6770, 1216.000
596.8470, 1264.386
598.0160, 1243.084
599.1840, 1312.079
600.3530, 1304.433
601.5210, 1181.101
602.6900, 1211.129
603.8580, 1116.775
605.0260, 1222.238
606.1930, 1256.254
607.3610, 1051.688
608.5280, 1083.982
609.6960, 1173.273
610.8630, 1092.608
612.0300, 1170.867
613.1970, 969.2158
614.3630, 1149.861
615.5300, 1008.502
616.6960, 1245.654
617.8620, 1338.393
619.0280, 1491.487
620.1940, 1539.309
621.3590, 1419.422
622.5250, 1586.240
623.6900, 1560.463
624.8550, 1726.693
626.0200, 1801.930
627.1850, 1763.175
628.3490, 1770.426
629.5140, 1757.688
630.6780, 1741.956
631.8420, 1787.485
633.0060, 1849.652
634.1700, 1935.820
635.3330, 2062.129
636.4970, 2267.445
637.6600, 2436.774
638.8230, 2739.113
639.9860, 3020.463
641.1490, 3368.826
642.3110, 3800.201
643.4740, 4343.588
644.6360, 4846.454
645.7980, 5416.396
646.9600, 6055.821
648.1220, 6702.260
649.2840, 7413.713
650.4450, 7975.176
651.6060, 8388.656
652.7670, 8947.149
653.9280, 9035.660
655.0890, 8938.184
656.2500, 8644.724
657.4100, 8103.170
658.5700, 7646.436
659.7300, 6787.260
660.8900, 6066.271
662.0500, 5372.867
663.2100, 4726.158
664.3690, 4237.822
665.5280, 3710.597
666.6880, 3210.626
667.8460, 2945.219
669.0050, 3016.755
670.1640, 2769.050
671.3220, 2666.163
672.4810, 2543.548
673.6390, 2563.789
674.7970, 2526.654
675.9540, 2564.807
677.1120, 2445.146
678.2690, 2587.258
679.4270, 2708.830
680.5840, 2613.412
681.7410, 2765.389
682.8980, 2790.726
684.0540, 3088.771
685.2110, 3160.117
686.3670, 3201.448
687.5230, 3429.300
688.6790, 3584.342
689.8350, 3583.951
690.9900, 3699.327
692.1460, 3911.790
693.3010, 4103.501
694.4560, 4089.955
695.6110, 4128.839
696.7660, 4293.438
697.9210, 4302.381
699.0750, 4371.344
700.2290, 4423.672
701.3840, 4424.827
702.5370, 4410.817
703.6910, 4372.631
704.8450, 4464.298
705.9980, 4455.172
707.1520, 4521.807
708.3050, 4529.666
709.4580, 4668.558
710.6110, 4711.498
711.7630, 4626.467
712.9160, 4837.477
714.0680, 4650.525
715.2200, 4779.609
716.3720, 4792.754
717.5240, 4628.933
718.6760, 4574.170
719.8270, 4322.440
720.9780, 4074.777
722.1300, 4064.156
723.2810, 3926.613
724.4310, 3807.116
725.5820, 3618.683
726.7330, 3419.302
727.8830, 3165.965
729.0330, 3190.692
730.1830, 3009.488
731.3330, 2776.322
732.4830, 2551.189
733.6320, 2292.105
734.7810, 2435.050
735.9310, 2125.027
737.0800, 2062.064
738.2290, 1903.130
739.3770, 1782.227
740.5260, 1700.688
741.6740, 1548.516
742.8220, 1543.709
743.9700, 1441.932
745.1180, 1410.180
746.2660, 1385.452
747.4130, 1339.748
748.5610, 1260.070
749.7080, 1215.416
750.8550, 1270.787
752.0020, 1125.184
753.1490, 1017.603
754.2950, 1100.046
755.4420, 965.5146
756.5880, 1017.007
757.7340, 1105.525
758.8800, 949.0654
760.0250, 1083.629
761.1710, 979.2148
762.3160, 817.8223
763.4620, 812.4492
764.6070, 742.0996
765.7520, 778.7715
766.8960, 871.4639
768.0410, 806.1777
769.1850, 871.9121
770.3300, 710.6680
771.4740, 665.4453
772.6180, 682.2441
773.7610, 555.0645
774.9050, 562.9053
776.0480, 482.7686
777.1920, 597.6514
778.3350, 539.5566
779.4780, 679.4824
780.6200, 518.4307
781.7630, 544.3994
782.9060, 444.3887
784.0480, 508.3994
785.1900, 477.4307
786.3320, 471.4834
787.4740, 505.5566
788.6150, 448.6514
789.7570, 466.7656
790.8980, 492.9023
792.0390, 391.0596
793.1800, 523.2383
794.3210, 417.4365
795.4620, 353.6582
796.6020, 183.9014
797.7420, 271.1699
798.8830, 261.4609
800.0230, 352.7969
801.1620, 282.1602
802.3020, 282.5547
803.4420, 354.9756
804.5810, 415.4297
805.7200, 361.9199
806.8590, 409.4385
807.9980, 526.0049
809.1370, 638.6260
810.2750, 787.2773
811.4140, 687.9619
812.5520, 655.6729
813.6900, 548.4102
814.8280, 438.1709
815.9650, 327.9619
817.1030, 175.7764
818.2400, 130.6143
819.3780, 2.473633
820.5150, 53.72363
821.6520, 17.78906
822.7880, 112.9189
823.9250, 121.0859
825.0610, 48.29395
826.1980, 95.51074
827.3340, 246.7578
828.4700, 90.10938
829.6050, 233.4902
830.7410, 210.9707
831.8760, 112.5371
833.0120, 260.1445
834.1470, 215.8652
835.2820, 123.6787
836.4160, 171.8730
837.5510, 53.84668
838.6860, 136.9717
839.8200, 41.83691
840.9540, 148.8867
842.0880, 179.1260
843.2220, 350.2402
844.3550, 506.1396
845.4890, 555.1895
846.6220, 763.4160
847.7550, 924.4980
848.8880, 1205.595
850.0210, 1366.709
851.1540, 1582.837
852.2860, 1730.981
853.4190, 2160.141
854.5510, 2345.313
855.6830, 2548.503
856.8150, 2733.707
857.9460, 2767.926
859.0780, 2797.157
860.2090, 2731.405
861.3410, 2612.665
862.4720, 2413.939
863.6020, 2084.227
864.7330, 1727.527
865.8640, 1534.842
866.9940, 1280.168
868.1240, 1112.508
869.2540, 897.8584
870.3840, 865.2227
871.5140, 853.5996
872.6440, 724.9873
873.7730, 661.3877
874.9020, 615.7988
876.0320, 593.2227
877.1600, 479.6582
878.2890, 667.1045
879.4180, 542.5625
880.5460, 711.0312
881.6750, 721.5117
882.8030, 609.0029
883.9310, 673.5049
885.0590, 677.0176
886.1860, 754.5420
887.3140, 725.0762
888.4410, 858.6211
889.5680, 957.1758
890.6950, 951.7432
891.8220, 1068.321
892.9490, 1149.909
894.0750, 936.5059
895.2020, 1209.114
896.3280, 1181.731
897.4540, 1339.360
898.5800, 1420.998
899.7050, 1339.646
900.8310, 1506.303
901.9560, 1514.970
903.0820, 1652.646
904.2070, 1530.332
905.3320, 1775.029
906.4560, 1664.734
907.5810, 1784.448
908.7050, 2084.173
909.8300, 1963.905
910.9540, 2010.646
912.0780, 2253.397
913.2010, 2018.159
914.3250, 2160.930
915.4480, 2107.707
916.5720, 2201.496
917.6950, 2206.291
918.8180, 2264.096
919.9410, 2253.910
921.0630, 2038.732
922.1860, 1957.563
923.3080, 2017.407
924.4300, 1951.279
925.5520, 1971.159
926.6740, 1950.048
927.7960, 1915.958
928.9170, 1980.897
930.0390, 1790.869
931.1600, 1826.877
932.2810, 1653.895
933.4020, 1677.924
934.5230, 1686.969
935.6430, 1541.054
936.7640, 1475.175
937.8840, 1466.344
939.0040, 1345.562
940.1240, 1338.830
941.2440, 1181.150
942.3630, 1121.500
943.4830, 1208.899
944.6020, 872.3203
945.7210, 876.7471
946.8400, 800.2012
947.9590, 913.6729
949.0770, 861.1543
950.1960, 874.6475
951.3140, 746.1621
952.4320, 676.6836
953.5500, 845.2080
954.6680, 749.3984
955.7860, 570.9121
956.9030, 709.1543
958.0210, 412.4512
959.1380, 505.2637
960.2550, 499.9268
961.3720, 305.0576
962.4890, 360.4590
963.6050, 227.8115
964.7220, 311.9580
965.8380, 285.3984
966.9540, 138.4453
968.0700, 185.8125
969.1860, 152.8818
970.3010, 60.73730
971.4170, 33.27539
972.5320, 124.3252
973.6470, 0.8027340
974.7620, 213.8574
975.8770, 119.3867
976.9910, 79.96191
978.1060, 181.5635
979.2200, 17.75781
980.3340, 0.9091800
981.4480, 26.42969
982.5620, 124.7793
983.6760, 65.13965
984.7890, 109.5117
985.9030, 164.8955
987.0160, 261.2891
988.1290, 194.6924
989.2420, 184.1074
990.3550, 284.5332
991.4670, 194.9688
992.5800, 393.4150
993.6920, 550.8721
994.8040, 779.3389
995.9160, 873.8154
997.0280, 1077.303
998.1390, 1240.800
999.2510, 1413.306
1000.362, 1583.822
1001.473, 1726.350
1002.584, 1874.885
1003.695, 1821.150
1004.805, 1613.986
1005.916, 1588.552
1007.026, 1373.126
1008.136, 1114.710
1009.246, 1175.303
1010.356, 1201.905
1011.466, 1382.517
1012.576, 1601.136
1013.685, 1657.766
1014.794, 1864.404
1015.903, 1992.051
1017.012, 2190.707
1018.121, 2260.371
1019.229, 2468.045
1020.338, 2608.727
1021.446, 2855.416
1022.554, 2930.114
1023.662, 3219.821
1024.770, 3266.536
1025.878, 3237.260
1026.985, 3263.992
1028.092, 3190.731
1029.200, 3344.479
1030.307, 3256.236
1031.413, 3292.000
1032.520, 3230.773
1033.627, 3271.554
1034.733, 3122.341
1035.839, 2888.138
1036.945, 2877.939
1038.051, 2808.750
1039.157, 2704.568
1040.262, 2357.394
1041.368, 2417.227
1042.473, 2291.067
1043.578, 2091.914
1044.683, 2081.770
1045.788, 1722.631
1046.893, 1571.500
1047.997, 1542.376
1049.101, 1219.258
1050.205, 1300.147
1051.309, 1169.044
1052.413, 1051.003
1053.517, 752.9131
1054.621, 821.8301
1055.724, 652.5146
1056.827, 625.8555
1057.930, 585.7930
1059.033, 476.7344
1060.136, 471.4502
1061.238, 491.2412
1062.341, 233.6660
1063.443, 456.1016
1064.545, 488.3594
1065.647, 277.0117
1066.749, 231.5791
1067.850, 197.9316
1068.952, 255.5439
1070.053, 367.0361
1071.154, 355.5400
1072.255, 476.7197
1073.356, 468.0469
1074.457, 476.1904
1075.557, 348.2568
1076.658, 500.3867
1077.758, 558.6543
1078.858, 603.1025
1079.958, 720.7021
1081.057, 679.5322
1082.157, 672.8818
1083.256, 711.2139
1084.356, 709.2002
1085.455, 723.1836
1086.554, 779.1670
1087.653, 769.1504
1088.751, 766.5586
1089.850, 806.7236
1090.948, 721.0557
1092.046, 770.3926
1093.144, 738.4639
1094.242, 762.3281
1095.340, 963.7119
1096.437, 893.8887
1097.534, 960.1211
1098.632, 1156.426
1099.729, 1098.759
1100.826, 1127.162
1101.922, 1125.618
1103.019, 1066.439
1104.115, 1228.012
1105.212, 1157.733
1106.308, 1265.176
1107.404, 1321.027
1108.499, 1324.379
1109.595, 1357.871
1110.691, 1381.595
1111.786, 1384.184
1112.881, 1374.610
1113.976, 1406.198
1115.071, 1164.784
1116.166, 1190.369
1117.260, 1036.953
1118.355, 1020.535
1119.449, 745.1162
1120.543, 790.6963
1121.637, 622.2744
1122.731, 525.8506
1123.824, 573.4268
1124.918, 496.0010
1126.011, 431.5723
1127.104, 189.1426
1128.197, 309.7100
1129.290, 202.2764
1130.382, 262.8398
1131.475, 269.4014
1132.567, 129.9609
1133.659, 153.5176
1134.751, 184.0732
1135.843, 187.6250
1136.935, 202.1738
1138.027, 186.8516
1139.118, 187.3652
1140.209, 154.8076
1141.300, 146.3457
1142.391, 159.8818
1143.482, 90.41504
1144.573, 146.9443
1145.663, 142.4707
1146.754, 197.9951
1147.844, 234.9160
1148.934, 232.0332
1150.024, 310.5469
1151.113, 382.0566
1152.203, 395.5645
1153.292, 467.0693
1154.381, 485.0996
1155.470, 471.1152
1156.559, 492.5576
1157.648, 461.0479
1158.737, 387.5332
1159.825, 465.0146
1160.913, 443.4922
1162.001, 583.9658
1163.089, 452.4355
1164.177, 212.9014
1165.265, 330.3623
1166.352, 298.8193
1167.440, 343.2734
1168.527, 337.7217
1169.614, 226.1660
1170.701, 277.6055
1171.788, 262.0410
1172.874, 328.4727
1173.961, 302.8994
1175.047, 138.3213
1176.133, 231.7383
1177.219, 237.1514
1178.305, 162.5586
1179.390, 284.9609
1180.476, 147.3584
1181.561, 175.7520
1182.646, 53.13965
1183.731, 183.5225
1184.816, 65.89941
1185.901, 15.27148
1186.985, 45.37012
1188.070, 62.94238
1189.154, 67.25000
1190.238, 18.44922
1191.322, 51.17773
1192.406, 60.95703
1193.489, 76.78906
1194.573, 38.31445
1195.656, 21.41016
1196.739, 1.493164
1197.822, 90.44727
1198.905, 78.45801
1199.988, 124.1914
1201.070, 124.2432
1202.153, 134.9434
1203.235, 137.2891
1204.317, 54.72852
1205.399, 133.2197
1206.481, 22.80371
1207.562, 40.57715
1208.644, 44.05273
1209.725, 14.72656
1210.806, 16.56836
1211.887, 4.848633
1212.968, 26.89062
1214.049, 82.33301
1215.129, 193.5508
1216.209, 74.76367
1217.290, 123.9697
1218.370, 92.17188
1219.450, 0.3662110
1220.529, 36.54004
1221.609, 4.703125
1222.688, 262.8486
1223.768, 138.9883
1224.847, 182.1211
1225.926, 317.2480
1227.005, 282.3682
1228.083, 346.4629
1229.162, 344.0498
1230.240, 394.7041
1231.318, 473.7969
1232.396, 525.8818
1233.474, 435.9766
1234.552, 437.0732
1235.629, 568.1943
1236.707, 517.3096
1237.784, 567.4678
1238.861, 544.6455
1239.938, 612.8369
1241.015, 541.0625
1242.092, 721.2803
1243.168, 561.4932
1244.244, 590.6973
1245.321, 676.8936
1246.397, 613.0820
1247.473, 575.2627
1248.548, 665.4365
1249.624, 559.6006
1250.699, 597.7598
1251.775, 631.9092
1252.850, 747.0527
1253.925, 631.1885
1254.999, 691.3174
1256.074, 580.4385
1257.148, 704.5527
1258.223, 619.6611
1259.297, 751.7617
1260.371, 732.8555
1261.445, 861.9424
1262.519, 859.0225
1263.592, 934.0957
1264.666, 835.1621
1265.739, 986.2266
1266.812, 998.2842
1267.885, 1118.336
1268.958, 1004.381
1270.030, 1140.418
1271.103, 1002.448
1272.175, 1127.474
1273.247, 1113.492
1274.319, 1035.504
1275.391, 1036.520
1276.463, 1052.528
1277.535, 998.0127
1278.606, 1012.529
1279.677, 942.5195
1280.748, 895.5049
1281.819, 874.4844
1282.890, 653.4580
1283.961, 722.4258
1285.031, 632.3867
1286.102, 639.3447
1287.172, 683.2959
1288.242, 746.2412
1289.312, 776.1221
1290.381, 741.1172
1291.451, 851.0479
1292.520, 901.9736
1293.590, 896.8936
1294.659, 993.8096
1295.728, 975.5293
1296.797, 851.6250
1297.865, 900.5264
1298.934, 867.4229
1300.002, 823.3037
1301.070, 839.2002
1302.138, 766.0830
1303.206, 777.9609
1304.274, 752.8350
1305.341, 782.7041
1306.409, 799.5713
1307.476, 833.4326
1308.543, 855.2949
1309.610, 875.1514
1310.677, 945.0078
1311.744, 860.8018
1312.810, 978.6484
1313.877, 1087.486
1314.943, 1076.554
1316.009, 1018.966
