##NAMES=Astrophyllite
##RRUFFID=R060202
##IDEAL CHEMISTRY=K_2_NaFe^2+^_7_Ti^4+^_2_(Si_4_O_12_)_2_O_2_(OH)_4_F
##LOCALITY=Demix Quarry, Mont Saint-Hilaire, Rouville County, Quebec, Canada
##OWNER=RRUFF
##SOURCE=Royal Ontario Museum
##DESCRIPTION=Aggregate of brown splintered wafers
##STATUS=The identification of this mineral has been confirmed by X-ray diffraction and chemical analysis
##URL=rruff.info/R060202
##MEASURED CHEMISTRY=(K_0.56_Na_0.38_Ca_0.06_)_3_(Fe^2+^_0.52_Mn_0.44_Mg_0.04_)_7_(Ti_0.75_Zr_0.15_Al_0.15_)_2_Si_8_O_24_(O_0.27_OH_0.73_)_7_
##PIN_ID=M00215
##ORIENTATION=Laser parallel to (1 1 0). Fiducial mark perpendicular to laser is parallel to -c [0 0 -1]
73.71400, 0.0000000E+00
74.95100, 35.63086
76.18700, 346.3281
77.42300, 651.1797
78.65900, 1005.933
79.89500, 1687.834
81.13100, 2393.271
82.36700, 4021.518
83.60200, 6057.223
84.83700, 7820.609
86.07200, 8913.902
87.30800, 10224.12
88.54200, 11637.11
89.77700, 11959.85
91.01200, 12797.06
92.24600, 13568.93
93.48000, 14033.00
94.71400, 15025.68
95.94800, 16011.69
97.18200, 16790.86
98.41600, 16966.02
99.64900, 16797.74
100.8830, 16616.66
102.1160, 15355.05
103.3490, 13808.94
104.5820, 12404.12
105.8150, 11546.43
107.0470, 11166.70
108.2800, 11145.59
109.5120, 9851.408
110.7440, 10527.53
111.9760, 7780.477
113.2080, 6205.002
114.4400, 5435.719
115.6710, 5341.967
116.9030, 5023.586
118.1340, 4755.438
119.3650, 4011.406
120.5960, 3310.375
121.8270, 2919.242
123.0580, 3610.912
124.2880, 3753.299
125.5190, 4101.434
126.7490, 4095.551
127.9790, 4241.391
129.2090, 4214.023
130.4390, 3722.064
131.6680, 3254.293
132.8980, 2444.742
134.1270, 1843.439
135.3560, 1572.398
136.5850, 896.5938
137.8140, 953.9824
139.0430, 794.5137
140.2710, 790.1387
141.5000, 260.8105
142.7280, 256.5195
143.9560, 409.8965
145.1840, 551.3652
146.4120, 566.9707
147.6390, 482.0977
148.8670, 540.5859
150.0940, 599.1055
151.3210, 419.4785
152.5490, 194.5859
153.7750, 119.6445
155.0020, 270.2695
156.2290, 299.3242
157.4550, 230.8359
158.6810, 442.8145
159.9080, 801.2676
161.1340, 1011.201
162.3590, 1484.619
163.5850, 1786.521
164.8110, 2351.904
166.0360, 2575.748
167.2610, 2854.021
168.4860, 3117.717
169.7110, 3133.830
170.9360, 3141.109
172.1610, 3030.299
173.3850, 2786.648
174.6100, 2421.398
175.8340, 1985.547
177.0580, 1677.141
178.2820, 1280.641
179.5050, 1151.092
180.7290, 898.2539
181.9520, 768.1582
183.1760, 507.6758
184.3990, 389.1504
185.6220, 355.3184
186.8450, 307.1230
188.0670, 324.0410
189.2900, 354.2246
190.5120, 438.6348
191.7340, 574.2500
192.9560, 759.1660
194.1780, 968.2266
195.4000, 1255.023
196.6220, 1561.523
197.8430, 1872.580
199.0640, 2279.010
200.2860, 2712.703
201.5070, 3637.584
202.7270, 3918.619
203.9480, 4233.777
205.1690, 3864.109
206.3890, 3386.586
207.6090, 3736.195
208.8290, 4010.945
210.0490, 4431.801
211.2690, 5150.738
212.4890, 6085.727
213.7080, 6710.754
214.9280, 7339.816
216.1470, 8476.912
217.3660, 9008.035
218.5850, 9798.172
219.8030, 10685.32
221.0220, 11735.47
222.2400, 11864.97
223.4590, 12281.77
224.6770, 12992.97
225.8950, 13095.87
227.1120, 13635.98
228.3300, 14318.94
229.5480, 14916.50
230.7650, 15278.62
231.9820, 15661.93
233.1990, 15840.76
234.4160, 16004.90
235.6330, 16031.06
236.8490, 15889.71
238.0660, 15625.22
239.2820, 15069.34
240.4980, 14558.98
241.7140, 13877.09
242.9300, 13025.65
244.1460, 12207.64
245.3610, 11442.05
246.5770, 10281.86
247.7920, 9422.035
249.0070, 8522.572
250.2220, 7827.455
251.4370, 7200.660
252.6510, 6853.176
253.8660, 6534.984
255.0800, 5993.953
256.2940, 5618.711
257.5080, 5443.232
258.7220, 5513.484
259.9360, 6108.750
261.1490, 6015.295
262.3630, 4813.109
263.5760, 3873.178
264.7890, 3482.492
266.0020, 3086.039
267.2150, 2614.814
268.4270, 2363.801
269.6400, 1733.996
270.8520, 1603.391
272.0640, 1153.973
273.2760, 901.7305
274.4880, 649.6484
275.7000, 250.7188
276.9120, 244.9355
278.1230, 240.2910
279.3340, 86.22070
280.5450, 154.6348
281.7560, 337.9648
282.9670, 339.2539
284.1780, 228.5078
285.3880, 160.5059
286.5980, 167.7891
287.8090, 134.9961
289.0190, 108.9297
290.2290, 55.54492
291.4380, 88.00586
292.6480, 20.95312
293.8570, 12.13281
295.0670, 59.91016
296.2760, 6.060547
297.4850, 125.8047
298.6930, 340.2754
299.9020, 267.7305
301.1110, 387.1895
302.3190, 640.7324
303.5270, 692.2285
304.7350, 665.7969
305.9430, 840.0742
307.1510, 826.3379
308.3580, 939.4316
309.5660, 1067.270
310.7730, 1306.516
311.9800, 1502.736
313.1870, 1607.383
314.3940, 1803.160
315.6010, 2158.646
316.8070, 2531.773
318.0130, 2542.244
319.2200, 2755.033
320.4260, 2787.973
321.6310, 2938.086
322.8370, 3092.922
324.0430, 3236.090
325.2480, 3399.691
326.4540, 3560.547
327.6590, 3714.758
328.8640, 3555.646
330.0680, 3536.586
331.2730, 3571.701
332.4780, 3794.344
333.6820, 3992.141
334.8860, 4172.230
336.0900, 4375.469
337.2940, 4535.111
338.4980, 4764.615
339.7010, 5141.531
340.9050, 5336.664
342.1080, 5374.482
343.3110, 5384.646
344.5140, 5436.539
345.7170, 5583.684
346.9200, 5539.621
348.1220, 5288.373
349.3240, 5067.518
350.5270, 4677.568
351.7290, 4589.520
352.9310, 4580.348
354.1320, 4533.336
355.3340, 4602.026
356.5350, 4613.859
357.7370, 4577.750
358.9380, 4515.943
360.1390, 4664.039
361.3400, 4700.035
362.5400, 4874.945
363.7410, 4839.742
364.9410, 4830.441
366.1410, 4690.214
367.3410, 4772.031
368.5410, 5003.871
369.7410, 4691.716
370.9400, 4541.553
372.1400, 4638.369
373.3390, 4363.156
374.5380, 4635.908
375.7370, 4380.616
376.9360, 4421.273
378.1350, 4669.031
379.3330, 4540.573
380.5310, 4622.050
381.7300, 4619.727
382.9280, 4709.477
384.1260, 4475.076
385.3230, 4397.259
386.5210, 4205.357
387.7180, 4000.373
388.9160, 3944.301
390.1130, 3469.140
391.3100, 3511.888
392.5060, 3128.543
393.7030, 2689.101
394.9000, 2595.562
396.0960, 2499.924
397.2920, 2281.185
398.4880, 2140.343
399.6840, 2064.396
400.8800, 1832.346
402.0750, 1610.191
403.2710, 1559.938
404.4660, 1447.581
405.6610, 1447.121
406.8560, 1235.557
408.0510, 1116.887
409.2450, 1139.109
410.4400, 1010.223
411.6340, 912.2275
412.8280, 776.1211
414.0220, 1010.904
415.2160, 723.5752
416.4100, 955.1338
417.6030, 851.5781
418.7970, 976.9092
419.9900, 993.1240
421.1830, 891.2246
422.3760, 828.2090
423.5690, 819.3789
424.7610, 823.8018
425.9540, 773.6680
427.1460, 532.2832
428.3380, 395.3359
429.5300, 244.8486
430.7220, 144.8730
431.9140, 187.8867
433.1050, 188.8301
434.2970, 53.15430
435.4880, 47.11230
436.6790, 144.4766
437.8700, 257.9404
439.0610, 286.5596
440.2510, 155.3115
441.4420, 295.2773
442.6320, 334.6377
443.8220, 396.4365
445.0120, 475.7070
446.2020, 489.4326
447.3910, 393.7998
448.5810, 531.5801
449.7700, 482.9053
450.9600, 495.7500
452.1490, 587.1230
453.3370, 530.0703
454.5260, 434.5645
455.7150, 314.5518
456.9030, 221.9707
458.0910, 138.7725
459.2800, 229.9131
460.4670, 109.4375
461.6550, 68.28418
462.8430, 72.42969
464.0300, 128.1250
465.2180, 86.47363
466.4050, 138.6045
467.5920, 357.5342
468.7790, 256.3184
469.9650, 201.9365
471.1520, 376.3760
472.3380, 368.6729
473.5250, 419.8281
474.7110, 284.8535
475.8970, 235.7197
477.0820, 260.4209
478.2680, 290.9600
479.4540, 270.3467
480.6390, 317.5762
481.8240, 293.0186
483.0090, 236.5889
484.1940, 287.3594
485.3780, 312.9785
486.5630, 374.4531
487.7470, 352.7949
488.9320, 424.9990
490.1160, 435.0801
491.3000, 497.0371
492.4830, 497.0479
493.6670, 497.5127
494.8500, 504.2119
496.0340, 461.7080
497.2170, 489.0859
498.4000, 453.3506
499.5820, 432.5010
500.7650, 561.5332
501.9480, 558.4561
503.1300, 721.2715
504.3120, 524.9795
505.4940, 746.5791
506.6760, 735.0723
507.8580, 762.4609
509.0390, 903.7432
510.2210, 653.9199
511.4020, 827.9902
512.5830, 567.9551
513.7640, 534.8135
514.9450, 776.5674
516.1250, 578.1553
517.3060, 638.7607
518.4860, 526.2002
519.6660, 457.5352
520.8460, 497.7656
522.0260, 519.8926
523.2060, 420.9160
524.3850, 389.8340
525.5650, 396.6436
526.7440, 605.3477
527.9230, 600.9512
529.1020, 534.4541
530.2810, 826.8574
531.4590, 759.1650
532.6380, 793.3721
533.8160, 939.4824
534.9940, 929.4961
536.1720, 1934.415
537.3500, 2612.236
538.5270, 2619.965
539.7050, 1879.598
540.8820, 2038.139
542.0590, 2170.636
543.2360, 2522.080
544.4130, 2934.765
545.5900, 3745.773
546.7660, 4097.059
547.9430, 4669.301
549.1190, 5514.504
550.2950, 6028.697
551.4710, 6737.861
552.6470, 7515.012
553.8220, 8139.193
554.9980, 8766.364
556.1730, 8990.564
557.3480, 9335.762
558.5230, 9312.950
559.6980, 9350.134
560.8730, 8860.341
562.0470, 8661.570
563.2220, 8123.814
564.3960, 7726.094
565.5700, 7340.410
566.7440, 7120.785
567.9170, 6693.230
569.0910, 6173.763
570.2640, 5919.160
571.4380, 5465.951
572.6110, 5003.748
573.7840, 4802.234
574.9570, 4481.895
576.1290, 4268.693
577.3020, 4114.480
578.4740, 3976.334
579.6460, 3865.635
580.8180, 3771.510
581.9900, 3763.662
583.1620, 3665.643
584.3330, 3698.018
585.5040, 3679.393
586.6760, 3770.682
587.8470, 3928.018
589.0180, 4058.277
590.1880, 4139.830
591.3590, 4313.389
592.5290, 4161.113
593.7000, 4211.086
594.8700, 4211.645
596.0400, 4048.217
597.2090, 4018.355
598.3790, 3931.279
599.5490, 3678.625
600.7180, 3741.246
601.8870, 3554.506
603.0560, 3422.438
604.2250, 3577.199
605.3940, 3449.408
606.5620, 3339.164
607.7300, 3314.832
608.8990, 3311.264
610.0670, 3154.746
611.2350, 3473.541
612.4020, 3627.596
613.5700, 3883.539
614.7370, 3898.982
615.9050, 3839.426
617.0720, 3924.406
618.2390, 3960.055
619.4060, 4135.510
620.5720, 4171.516
621.7390, 4425.605
622.9050, 4698.223
624.0710, 4884.562
625.2370, 5049.156
626.4030, 5349.332
627.5690, 5470.715
628.7340, 5749.775
629.9000, 6164.973
631.0650, 6435.285
632.2300, 6885.133
633.3950, 7413.006
634.5600, 8097.906
635.7240, 8659.855
636.8890, 9225.568
638.0530, 10300.51
639.2170, 11144.23
640.3810, 12145.83
641.5450, 13445.04
642.7080, 15111.28
643.8720, 16816.39
645.0350, 18891.79
646.1980, 21041.14
647.3610, 23714.48
648.5240, 26402.85
649.6870, 29481.24
650.8490, 31844.67
652.0120, 34335.13
653.1740, 36225.62
654.3360, 36437.13
655.4980, 35987.67
656.6600, 34506.25
657.8210, 31570.86
658.9830, 28560.51
660.1440, 25665.02
661.3050, 22974.74
662.4660, 20572.49
663.6270, 18455.00
664.7870, 17247.40
665.9480, 15752.91
667.1080, 14842.80
668.2680, 13964.73
669.4280, 13637.70
670.5880, 13573.71
671.7480, 13100.75
672.9070, 13351.84
674.0670, 13592.97
675.2260, 13582.14
676.3850, 13830.35
677.5440, 14323.60
678.7030, 14299.90
679.8610, 14913.24
681.0200, 15154.48
682.1780, 15323.43
683.3360, 15985.46
684.4940, 16788.51
685.6520, 16868.70
686.8090, 17685.41
687.9670, 17886.71
689.1240, 18046.50
690.2810, 18688.97
691.4380, 19013.67
692.5950, 19253.86
693.7520, 19608.78
694.9080, 19589.13
696.0650, 19698.23
697.2210, 19785.73
698.3770, 19773.45
699.5330, 19601.99
700.6880, 20177.20
701.8440, 19814.62
702.9990, 20128.18
704.1550, 19925.64
705.3100, 20248.10
706.4650, 20444.35
707.6190, 20368.81
708.7740, 20445.65
709.9290, 20533.99
711.0830, 20645.97
712.2370, 20752.48
713.3910, 20984.57
714.5450, 20731.97
715.6980, 20421.68
716.8520, 20108.56
718.0050, 19425.17
719.1580, 18822.26
720.3110, 18230.51
721.4640, 17656.90
722.6170, 16828.47
723.7700, 16281.22
724.9220, 15451.72
726.0740, 14599.36
727.2260, 13824.78
728.3780, 13182.39
729.5300, 12370.25
730.6810, 11967.33
731.8330, 11151.64
732.9840, 10987.22
734.1350, 10187.03
735.2860, 9951.053
736.4370, 9391.266
737.5880, 8864.637
738.7380, 8464.148
739.8880, 8163.816
741.0390, 7764.617
742.1890, 7514.537
743.3380, 7306.576
744.4880, 7062.688
745.6380, 6852.879
746.7870, 6602.143
747.9360, 6648.445
749.0850, 6178.809
750.2340, 6129.230
751.3830, 5974.695
752.5310, 6157.203
753.6800, 5718.748
754.8280, 5728.344
755.9760, 5603.994
757.1240, 5232.701
758.2720, 5250.455
759.4190, 5225.264
760.5670, 5098.115
761.7140, 4833.018
762.8610, 4888.977
764.0080, 4559.984
765.1550, 4579.039
766.3020, 4315.133
767.4480, 4085.273
768.5950, 3912.449
769.7410, 4046.660
770.8870, 3676.904
772.0330, 3887.184
773.1780, 3328.496
774.3240, 3141.842
775.4690, 3223.223
776.6140, 3080.639
777.7590, 3020.059
778.9040, 3128.574
780.0490, 2886.094
781.1940, 2953.643
782.3380, 2920.225
783.4820, 2999.840
784.6260, 2964.484
785.7700, 2978.279
786.9140, 2904.871
788.0580, 2952.611
789.2010, 2683.383
790.3450, 2590.188
791.4880, 2528.021
792.6310, 2290.887
793.7730, 2287.783
794.9160, 2021.711
796.0590, 2065.666
797.2010, 1878.652
798.3430, 1793.674
799.4850, 1414.723
800.6270, 1340.803
801.7690, 1228.914
802.9100, 1195.061
804.0520, 993.2363
805.1930, 898.4414
806.3340, 713.6758
807.4750, 619.9395
808.6160, 664.2324
809.7560, 364.5527
810.8970, 390.9023
812.0370, 188.2773
813.1770, 101.6816
814.3170, 246.1152
815.4570, 138.5742
816.5960, 132.0605
817.7360, 210.4258
818.8750, 167.9844
820.0140, 44.59180
821.1530, 231.1992
822.2920, 178.8906
823.4310, 184.6445
824.5690, 208.3555
825.7070, 293.3652
826.8460, 221.3906
827.9840, 285.5039
829.1220, 433.7441
830.2590, 283.1875
831.3970, 414.7578
832.5340, 312.5234
833.6710, 268.4355
834.8080, 285.4668
835.9450, 375.6309
837.0820, 383.9766
838.2190, 353.5059
839.3550, 401.2090
840.4910, 318.1074
841.6270, 348.1602
842.7630, 263.3867
843.8990, 328.7363
845.0350, 333.2480
846.1700, 291.9238
847.3060, 236.7422
848.4410, 338.6758
849.5760, 154.7812
850.7100, 106.9590
851.8450, 139.8164
852.9800, 33.60938
854.1140, 13.41797
855.2480, 248.2305
856.3820, 254.0625
857.5160, 348.9121
858.6500, 536.7812
859.7830, 542.6699
860.9170, 662.5742
862.0500, 655.4961
863.1830, 879.4336
864.3160, 943.3848
865.4480, 951.3516
866.5810, 1158.330
867.7130, 1246.180
868.8460, 1395.236
869.9780, 1597.344
871.1100, 1721.375
872.2410, 1991.449
873.3730, 2159.545
874.5050, 2269.666
875.6360, 2560.828
876.7670, 2723.021
877.8980, 2900.240
879.0290, 3277.502
880.1590, 3477.061
881.2900, 3571.070
882.4200, 4005.395
883.5500, 4216.721
884.6800, 4401.051
885.8100, 4736.383
886.9400, 4795.721
888.0690, 5197.061
889.1990, 5624.408
890.3280, 5633.793
891.4570, 5796.199
892.5860, 6238.621
893.7140, 6585.047
894.8430, 6762.480
895.9710, 7074.951
897.1000, 7446.449
898.2280, 7858.990
899.3560, 7968.568
900.4830, 8488.148
901.6110, 8894.732
902.7380, 9557.316
903.8660, 9625.902
904.9930, 9825.488
906.1200, 10569.11
907.2460, 10842.78
908.3730, 11066.48
909.5000, 11838.23
910.6260, 12027.98
911.7520, 12492.76
912.8780, 12747.56
914.0040, 13085.35
915.1290, 13356.18
916.2550, 13637.02
917.3800, 13858.11
918.5050, 14146.70
919.6300, 14232.54
920.7550, 14310.38
921.8800, 14449.22
923.0040, 14349.06
924.1290, 14455.38
925.2530, 14754.79
926.3770, 14513.68
927.5010, 14560.64
928.6250, 14569.60
929.7480, 14458.55
930.8720, 14388.51
931.9950, 14146.46
933.1180, 13843.41
934.2410, 13817.36
935.3640, 13411.33
936.4860, 13122.29
937.6090, 12767.26
938.7310, 12321.21
939.8530, 11728.17
940.9750, 11562.12
942.0970, 10904.08
943.2180, 10509.04
944.3400, 9816.984
945.4610, 9542.930
946.5820, 9019.869
947.7030, 8801.805
948.8240, 8647.746
949.9450, 8104.682
951.0650, 7724.613
952.1860, 7252.547
953.3060, 7158.639
954.4260, 6751.053
955.5460, 6343.430
956.6650, 5927.270
957.7850, 5698.127
958.9040, 5011.945
960.0230, 4653.227
961.1420, 4476.059
962.2610, 4154.252
963.3800, 3605.268
964.4990, 3427.832
965.6170, 3018.711
966.7350, 2699.197
967.8530, 2438.980
968.9710, 2412.412
970.0890, 2098.662
971.2070, 2123.143
972.3240, 1856.006
973.4410, 1478.688
974.5580, 1324.287
975.6750, 1544.027
976.7920, 1274.811
977.9090, 1355.855
979.0250, 1261.738
980.1410, 1024.289
981.2580, 934.3906
982.3740, 1116.912
983.4890, 1129.010
984.6050, 1009.582
985.7200, 1159.938
986.8360, 1077.117
987.9510, 1061.221
989.0660, 1123.740
990.1810, 1166.986
991.2950, 1339.248
992.4100, 1470.533
993.5240, 1741.838
994.6390, 1756.164
995.7530, 1942.510
996.8660, 2213.877
997.9800, 2215.264
999.0940, 2487.672
1000.207, 2676.100
1001.320, 2622.545
1002.433, 2951.795
1003.546, 3052.279
1004.659, 3514.461
1005.772, 3506.625
1006.884, 4021.650
1007.996, 4326.133
1009.108, 4668.066
1010.220, 4933.281
1011.332, 5373.320
1012.444, 5933.189
1013.555, 6461.117
1014.666, 6940.441
1015.777, 7519.182
1016.888, 8071.865
1017.999, 8642.182
1019.110, 9326.594
1020.220, 9854.383
1021.331, 10413.31
1022.441, 11068.03
1023.551, 11562.08
1024.661, 11926.34
1025.770, 12410.82
1026.880, 12857.83
1027.989, 13141.76
1029.098, 13050.64
1030.207, 13351.93
1031.316, 13356.21
1032.425, 13479.99
1033.533, 13475.95
1034.642, 12911.23
1035.750, 12539.42
1036.858, 12173.37
1037.966, 11930.45
1039.073, 11646.67
1040.181, 10897.13
1041.288, 10170.55
1042.396, 9566.660
1043.503, 9099.830
1044.610, 8394.516
1045.716, 7874.883
1046.823, 7468.838
1047.929, 6913.525
1049.036, 6473.395
1050.142, 5860.436
1051.248, 5515.396
1052.353, 4973.797
1053.459, 5007.193
1054.564, 4416.080
1055.670, 4013.146
1056.775, 3841.379
1057.880, 3414.605
1058.985, 3297.047
1060.089, 3010.500
1061.194, 3091.463
1062.298, 2656.609
1063.402, 2606.588
1064.506, 2597.707
1065.610, 2483.990
1066.713, 2563.605
1067.817, 2367.592
1068.920, 2311.756
1070.023, 2288.609
1071.126, 2147.498
1072.229, 2222.920
1073.332, 2212.176
1074.435, 2217.303
1075.537, 2190.811
1076.639, 2174.318
1077.741, 2171.846
1078.843, 2328.852
1079.945, 2155.941
1081.046, 2008.689
1082.148, 2316.693
1083.249, 2030.824
1084.350, 2107.412
1085.451, 2069.197
1086.551, 2188.240
1087.652, 2033.982
1088.752, 2204.109
1089.853, 2051.553
1090.953, 2142.744
1092.053, 2223.975
1093.152, 2183.365
1094.252, 2180.605
1095.351, 2185.285
1096.451, 2046.400
1097.550, 2092.174
1098.649, 2016.031
1099.748, 1834.344
1100.846, 1830.250
1101.945, 1582.477
1103.043, 1465.480
1104.141, 1306.328
1105.239, 1260.639
1106.337, 990.9297
1107.434, 1007.625
1108.532, 1162.102
1109.629, 766.6230
1110.726, 758.2578
1111.823, 740.0801
1112.920, 541.2344
1114.017, 502.1094
1115.113, 475.4004
1116.210, 283.6738
1117.306, 413.7324
1118.402, 198.8164
1119.498, 202.0273
1120.593, 394.0938
1121.689, 270.4688
1122.784, 223.5195
1123.879, 284.5605
1124.974, 309.9785
1126.069, 286.0000
1127.164, 296.4219
1128.259, 137.8809
1129.353, 98.86328
1130.447, 146.3887
1131.541, 12.35156
1132.635, 14.29883
1133.729, 20.76953
1134.822, 37.13477
1135.916, 15.97461
1137.009, 132.1094
1138.102, 48.33398
1139.195, 69.59961
1140.288, 122.7363
1141.380, 93.50977
1142.473, 72.91797
1143.565, 132.1602
1144.657, 35.78125
1145.749, 24.44336
1146.841, 93.14648
1147.932, 107.0762
1149.024, 19.50195
1150.115, 22.62305
1151.206, 49.90625
1152.297, 25.35352
1153.388, 3.279297
1154.479, 102.4434
1155.569, 56.44922
1156.659, 26.51367
1157.750, 40.36914
1158.839, 1.230469
1159.929, 107.9434
1161.019, 65.21289
1162.108, 127.4121
1163.198, 117.8613
1164.287, 87.16406
1165.376, 29.58984
1166.465, 43.98633
1167.553, 104.3574
1168.642, 11.70312
1169.730, 84.99023
1170.818, 103.5781
1171.906, 117.4629
1172.994, 143.4531
1174.082, 82.43359
1175.170, 86.47461
1176.257, 0.7109380
1177.344, 145.0059
1178.431, 83.30469
1179.518, 21.47266
1180.605, 136.0586
1181.691, 250.5781
1182.778, 69.07422
1183.864, 72.53711
1184.950, 40.97070
1186.036, 147.3828
1187.122, 52.24805
1188.207, 13.03906
1189.292, 53.72461
1190.378, 148.5742
1191.463, 3.441406
1192.548, 144.6660
1193.632, 204.5977
1194.717, 156.4961
1195.801, 30.36719
1196.886, 154.1914
1197.970, 24.01367
1199.054, 153.7051
1200.137, 93.39648
1201.221, 140.1387
1202.305, 106.7637
1203.388, 149.9375
1204.471, 36.09570
1205.554, 114.9473
1206.637, 116.9531
1207.719, 116.3926
1208.802, 241.9590
1209.884, 208.6016
1210.966, 27.90039
1212.048, 236.1133
1213.130, 205.5410
1214.212, 34.18945
1215.293, 30.72266
1216.374, 250.8340
1217.456, 115.9121
1218.536, 235.9531
1219.617, 45.95898
1220.698, 291.1543
1221.778, 294.0742
1222.859, 60.77539
1223.939, 191.8320
1225.019, 208.6680
1226.099, 223.8633
1227.178, 229.5859
1228.258, 120.4375
1229.337, 125.5801
1230.417, 264.5352
1231.496, 206.4453
1232.574, 351.2324
1233.653, 138.1855
1234.732, 255.1445
1235.810, 315.9590
1236.888, 212.6387
1237.966, 298.1914
1239.044, 127.8652
1240.122, 292.4785
1241.199, 265.6582
1242.277, 207.8320
1243.354, 338.1758
1244.431, 210.5879
1245.508, 236.7344
1246.585, 359.6855
1247.661, 313.5938
1248.738, 267.4570
