##NAMES=Astrophyllite
##RRUFFID=R060103
##IDEAL CHEMISTRY=K_2_NaFe^2+^_7_Ti^4+^_2_(Si_4_O_12_)_2_O_2_(OH)_4_F
##LOCALITY=Brivik, Norway
##OWNER=RRUFF
##SOURCE=University of Arizona Mineral Museum
##DESCRIPTION=Brown fragment embedded in matrix
##STATUS=The identification of this mineral is confirmed by single-crystal X-ray diffraction and chemical analysis.
##URL=rruff.info/R060103
##MEASURED CHEMISTRY=K_2.00_Na_1.00_(Fe^2+^_0.55_Mn_0.32_Fe^3+^_0.04_Mg_0.04_Ca_0.04_)_7_(Ti_0.66_Zr_0.18_Al_0.16_)_2_Si_8.00_O_26_(OH)_4_F_1.00_
##PIN_ID=M01528
##ORIENTATION=Laser parallel to (1 0 1). Fiducial mark perpendicular to laser is parallel to c [0 0 1]
147.6990, 0.0000000E+00
148.9320, 41.14746
150.1650, 2.442871
151.3980, 3.413086
152.6310, 86.77734
153.8640, 61.56592
155.0960, 131.6182
156.3280, 119.1499
157.5600, 122.0239
158.7920, 231.8945
160.0240, 266.2021
161.2560, 456.8716
162.4870, 535.4316
163.7180, 688.8193
164.9490, 900.9736
166.1800, 954.9443
167.4110, 1003.356
168.6410, 1025.050
169.8720, 989.5078
171.1020, 917.0542
172.3320, 904.1523
173.5620, 805.7617
174.7910, 776.8447
176.0210, 730.3682
177.2500, 483.3018
178.4790, 433.6182
179.7080, 350.2915
180.9370, 223.2969
182.1650, 164.6113
183.3940, 117.2109
184.6220, 20.92627
185.8500, 9.826172
187.0780, 50.49121
188.3050, 19.02539
189.5330, 54.21484
190.7600, 0.2216800
191.9870, 35.99316
193.2140, 69.45605
194.4410, 152.1079
195.6680, 304.9458
196.8940, 310.9585
198.1200, 391.1372
199.3470, 390.4751
200.5720, 470.9624
201.7980, 470.8398
203.0240, 607.3604
204.2490, 517.2529
205.4740, 573.2686
206.6990, 687.3989
207.9240, 666.6357
209.1490, 739.9746
210.3740, 904.4097
211.5980, 1071.933
212.8220, 1283.532
214.0460, 1476.202
215.2700, 1532.932
216.4930, 1768.715
217.7170, 1975.546
218.9400, 1846.415
220.1630, 2239.319
221.3860, 2380.236
222.6090, 2428.117
223.8320, 2630.988
225.0540, 2745.872
226.2760, 2897.826
227.4980, 2819.022
228.7200, 2976.477
229.9420, 3014.141
231.1630, 3159.014
232.3850, 3199.130
233.6060, 3327.415
234.8270, 3240.886
236.0480, 3277.422
237.2690, 3282.953
238.4890, 3186.471
239.7090, 3261.977
240.9290, 3078.462
242.1490, 2918.927
243.3690, 2939.381
244.5890, 2800.865
245.8080, 2672.416
247.0270, 2490.001
248.2470, 2568.632
249.4650, 2583.272
250.6840, 2443.913
251.9030, 2229.569
253.1210, 2294.313
254.3390, 2394.057
255.5570, 2213.814
256.7750, 2348.564
257.9930, 2272.310
259.2100, 2283.152
260.4280, 2243.536
261.6450, 2157.941
262.8620, 2092.501
264.0790, 1973.321
265.2950, 1883.074
266.5120, 1769.858
267.7280, 1663.688
268.9440, 1595.841
270.1600, 1490.251
271.3760, 1418.082
272.5920, 1303.831
273.8070, 1215.527
275.0220, 1104.169
276.2370, 1141.753
277.4520, 1038.278
278.6670, 1010.743
279.8820, 957.1479
281.0960, 848.4937
282.3100, 846.7793
283.5240, 831.0054
284.7380, 871.1719
285.9520, 795.2773
287.1650, 959.3232
288.3780, 923.3096
289.5920, 880.2344
290.8050, 963.1001
292.0170, 981.9043
293.2300, 944.6489
294.4430, 998.9009
295.6550, 1140.139
296.8670, 978.9062
298.0790, 1218.420
299.2910, 1249.151
300.5020, 1224.929
301.7140, 1353.329
302.9250, 1431.531
304.1360, 1495.246
305.3470, 1380.194
306.5580, 1600.556
307.7680, 1558.805
308.9780, 1480.201
310.1890, 1766.946
311.3990, 1697.393
312.6090, 1698.370
313.8180, 1626.566
315.0280, 1678.325
316.2370, 1698.297
317.4460, 1785.609
318.6550, 1810.973
319.8640, 1875.699
321.0730, 1824.702
322.2810, 1644.186
323.4890, 1568.604
324.6980, 1622.539
325.9060, 1679.524
327.1130, 1693.851
328.3210, 1494.528
329.5280, 1443.850
330.7360, 1555.773
331.9430, 1555.398
333.1500, 1585.409
334.3560, 1656.315
335.5630, 1683.568
336.7690, 1750.269
337.9760, 1783.624
339.1820, 1939.599
340.3870, 2012.439
341.5930, 2138.284
342.7990, 2181.214
344.0040, 2228.025
345.2090, 2254.518
346.4140, 2392.697
347.6190, 2308.929
348.8240, 2409.234
350.0280, 2332.745
351.2330, 2364.667
352.4370, 2344.789
353.6410, 2148.533
354.8440, 2122.160
356.0480, 2045.012
357.2520, 1944.081
358.4550, 1991.329
359.6580, 1809.156
360.8610, 1862.643
362.0640, 1899.335
363.2660, 1826.099
364.4690, 1744.463
365.6710, 1657.426
366.8730, 1628.815
368.0750, 1594.320
369.2770, 1724.762
370.4780, 1599.186
371.6800, 1620.762
372.8810, 1662.187
374.0820, 1533.750
375.2830, 1641.436
376.4830, 1617.417
377.6840, 1695.919
378.8840, 1631.398
380.0840, 1657.889
381.2840, 1597.907
382.4840, 1706.034
383.6840, 1642.153
384.8830, 1525.515
386.0830, 1715.386
387.2820, 1449.090
388.4810, 1467.436
389.6800, 1481.030
390.8780, 1531.495
392.0770, 1407.651
393.2750, 1316.591
394.4730, 1175.727
395.6710, 1240.946
396.8690, 1214.106
398.0660, 1060.923
399.2640, 1067.885
400.4610, 906.4888
401.6580, 889.0850
402.8550, 799.5977
404.0520, 795.0645
405.2490, 669.4854
406.4450, 755.8599
407.6410, 780.1880
408.8370, 717.4692
410.0330, 676.7046
411.2290, 698.8931
412.4240, 678.0347
413.6200, 751.1299
414.8150, 762.1782
416.0100, 778.1787
417.2050, 957.1333
418.4000, 903.0410
419.5940, 983.9028
420.7880, 838.7183
421.9830, 990.4883
423.1770, 928.2124
424.3700, 1030.892
425.5640, 1083.526
426.7580, 814.1162
427.9510, 855.6611
429.1440, 764.1626
430.3370, 769.6196
431.5300, 636.0322
432.7220, 561.4004
433.9150, 469.7251
435.1070, 498.0063
436.2990, 339.2432
437.4910, 245.4375
438.6830, 197.5947
439.8750, 264.7148
441.0660, 53.80029
442.2570, 201.8384
443.4480, 53.83594
444.6390, 103.7842
445.8300, 9.687500
447.0210, 13.47217
448.2110, 79.70801
449.4010, 133.0542
450.5910, 82.53955
451.7810, 52.13867
452.9710, 88.83545
454.1610, 35.64990
455.3500, 75.55371
456.5390, 94.56836
457.7280, 98.70459
458.9170, 79.96484
460.1060, 48.33838
461.2940, 48.96045
462.4830, 102.3779
463.6710, 27.07275
464.8590, 2.854004
466.0470, 16.29150
467.2350, 115.3716
468.4220, 109.4028
469.6090, 69.38281
470.7970, 178.3096
471.9840, 69.18799
473.1700, 83.01221
474.3570, 164.7861
475.5440, 103.5117
476.7300, 118.1855
477.9160, 72.80908
479.1020, 37.38477
480.2880, 113.9009
481.4740, 24.36963
482.6590, 44.22266
483.8440, 12.91016
485.0300, 23.32373
486.2140, 13.42285
487.3990, 41.59131
488.5840, 36.37109
489.7680, 56.57666
490.9530, 48.46875
492.1370, 11.69434
493.3210, 80.06641
494.5040, 55.77441
495.6880, 1.571777
496.8720, 22.01074
498.0550, 84.46582
499.2380, 9.056152
500.4210, 34.27930
501.6040, 64.55859
502.7860, 18.21533
503.9690, 71.93359
505.1510, 59.03125
506.3330, 18.92529
507.5150, 36.04297
508.6970, 89.95557
509.8780, 29.81738
511.0600, 16.37402
512.2410, 8.641602
513.4220, 27.97900
514.6030, 74.39551
515.7840, 13.91699
516.9640, 29.49072
518.1440, 87.84424
519.3250, 43.06543
520.5050, 32.40430
521.6850, 27.49316
522.8640, 68.75586
524.0440, 15.14355
525.2230, 48.11133
526.4020, 69.16504
527.5820, 60.68359
528.7600, 2.484863
529.9390, 11.22803
531.1180, 79.91895
532.2960, 45.43750
533.4740, 41.87451
534.6520, 199.6089
535.8300, 140.0518
537.0080, 107.4531
538.1850, 108.8101
539.3630, 178.1265
540.5400, 130.4038
541.7170, 212.6387
542.8940, 191.8418
544.0700, 247.0059
545.2470, 464.1357
546.4230, 439.2529
547.5990, 602.3320
548.7750, 770.3828
549.9510, 852.3965
551.1270, 1029.402
552.3020, 1247.382
553.4780, 1458.352
554.6530, 1555.321
555.8280, 1736.287
557.0030, 1830.019
558.1770, 1969.152
559.3520, 1980.072
560.5260, 2026.989
561.7000, 2049.921
562.8740, 1899.857
564.0480, 1816.805
565.2220, 1621.742
566.3950, 1591.687
567.5680, 1592.616
568.7420, 1382.541
569.9150, 1360.437
571.0870, 1180.299
572.2600, 1044.129
573.4320, 1049.927
574.6050, 873.6904
575.7770, 766.4229
576.9490, 639.1240
578.1210, 678.7920
579.2920, 581.3096
580.4640, 675.5918
581.6350, 469.1201
582.8060, 575.4297
583.9770, 489.6270
585.1480, 508.5361
586.3190, 621.5391
587.4890, 562.4717
588.6590, 654.9355
589.8290, 621.2002
590.9990, 691.0781
592.1690, 721.0889
593.3390, 882.9746
594.5080, 740.5254
595.6770, 763.3838
596.8470, 843.7119
598.0160, 681.8213
599.1840, 683.6494
600.3530, 765.6328
601.5210, 738.5859
602.6900, 798.4844
603.8580, 734.0186
605.0260, 659.2695
606.1930, 773.0312
607.3610, 658.8486
608.5280, 738.1387
609.6960, 732.3652
610.8630, 706.2354
612.0300, 887.7393
613.1970, 780.5830
614.3630, 787.5312
615.5300, 921.9316
616.6960, 1044.027
617.8620, 1184.204
619.0280, 1194.019
620.1940, 1303.344
621.3590, 1444.463
622.5250, 1587.477
623.6900, 1630.599
624.8550, 1889.690
626.0200, 2010.666
627.1850, 2070.734
628.3490, 2074.092
629.5140, 1815.733
630.6780, 1951.292
631.8420, 1873.747
633.0060, 1747.965
634.1700, 1867.740
635.3330, 2002.282
636.4970, 1967.171
637.6600, 2441.144
638.8230, 2463.857
639.9860, 2708.321
641.1490, 2943.572
642.3110, 3401.211
643.4740, 3858.156
644.6360, 4192.859
645.7980, 4609.460
646.9600, 5013.424
648.1220, 5705.755
649.2840, 6012.626
650.4450, 6595.875
651.6060, 7074.096
652.7670, 7452.827
653.9280, 7734.375
655.0890, 7728.038
656.2500, 7831.527
657.4100, 7578.856
658.5700, 7193.750
659.7300, 6407.290
660.8900, 6133.711
662.0500, 5318.080
663.2100, 4791.881
664.3690, 4391.533
665.5280, 3951.154
666.6880, 3820.492
667.8460, 3456.283
669.0050, 3478.201
670.1640, 3368.438
671.3220, 3315.389
672.4810, 3246.427
673.6390, 3467.734
674.7970, 3446.223
675.9540, 3528.474
677.1120, 3565.603
678.2690, 3807.004
679.4270, 3909.456
680.5840, 3969.724
681.7410, 4228.292
682.8980, 4376.846
684.0540, 4391.098
685.2110, 4500.915
686.3670, 4792.527
687.5230, 4917.010
688.6790, 5173.634
689.8350, 5263.369
690.9900, 5522.461
692.1460, 5557.402
693.3010, 5708.635
694.4560, 5782.286
695.6110, 5971.140
696.7660, 6031.145
697.9210, 6047.250
699.0750, 6174.111
700.2290, 6214.067
701.3840, 6407.562
702.5370, 6373.428
703.6910, 6450.445
704.8450, 6586.643
705.9980, 6537.154
707.1520, 6664.256
708.3050, 6522.477
709.4580, 6467.203
710.6110, 6591.936
711.7630, 6790.672
712.9160, 6752.413
714.0680, 6649.162
715.2200, 6396.914
716.3720, 6575.672
717.5240, 6401.436
718.6760, 6301.207
719.8270, 6085.986
720.9780, 5999.775
722.1300, 5745.572
723.2810, 5624.790
724.4310, 5287.201
725.5820, 5294.033
726.7330, 4870.885
727.8830, 4591.762
729.0330, 4564.684
730.1830, 4359.661
731.3330, 4020.685
732.4830, 3771.746
733.6320, 3692.855
734.7810, 3498.998
735.9310, 3213.184
737.0800, 3092.420
738.2290, 3081.705
739.3770, 2697.037
740.5260, 2608.406
741.6740, 2656.816
742.8220, 2534.277
743.9700, 2334.771
745.1180, 2375.293
746.2660, 2221.838
747.4130, 2082.398
748.5610, 2145.973
749.7080, 2019.566
750.8550, 2015.175
752.0020, 2016.803
753.1490, 1841.447
754.2950, 1885.108
755.4420, 1758.788
756.5880, 1880.483
757.7340, 1793.198
758.8800, 1743.935
760.0250, 1746.688
761.1710, 1730.467
762.3160, 1649.284
763.4620, 1608.134
764.6070, 1561.378
765.7520, 1521.904
766.8960, 1477.843
768.0410, 1472.810
769.1850, 1466.799
770.3300, 1458.809
771.4740, 1443.851
772.6180, 1296.913
773.7610, 1204.998
774.9050, 1137.112
776.0480, 1079.021
777.1920, 1067.231
778.3350, 1056.664
779.4780, 1084.911
780.6200, 1078.458
781.7630, 1165.479
782.9060, 1085.802
784.0480, 1116.147
785.1900, 1099.526
786.3320, 949.5391
787.4740, 961.5225
788.6150, 950.3896
789.7570, 917.3516
790.8980, 796.7852
792.0390, 789.3438
793.1800, 736.6318
794.3210, 682.0918
795.4620, 690.6777
796.6020, 583.0430
797.7420, 590.7021
798.8830, 552.3350
800.0230, 677.0713
801.1620, 640.8408
802.3020, 539.6436
803.4420, 386.4863
804.5810, 324.3770
805.7200, 372.2891
806.8590, 266.2305
807.9980, 223.1973
809.1370, 125.1855
810.2750, 120.2148
811.4140, 65.24219
812.5520, 34.50000
813.6900, 15.47949
814.8280, 1.391602
815.9650, 11.75586
817.1030, 11.92188
818.2400, 18.89258
819.3780, 46.30176
820.5150, 10.48340
821.6520, 103.2578
822.7880, 31.93945
823.9250, 36.84375
825.0610, 55.37402
826.1980, 118.3877
827.3340, 48.18457
828.4700, 102.9873
829.6050, 162.8193
830.7410, 133.7070
831.8760, 3.362305
833.0120, 156.5537
834.1470, 87.52246
835.2820, 136.5137
836.4160, 209.5498
837.5510, 163.6670
838.6860, 188.8408
839.8200, 102.0840
840.9540, 177.3574
842.0880, 73.69434
843.2220, 122.0459
844.3550, 4.435547
845.4890, 84.18848
846.6220, 43.83301
847.7550, 109.4971
848.8880, 59.18066
850.0210, 188.8857
851.1540, 50.61133
852.2860, 163.3584
853.4190, 209.1250
854.5510, 328.9131
855.6830, 442.7207
856.8150, 377.5498
857.9460, 399.3994
859.0780, 589.2715
860.2090, 643.1650
861.3410, 579.0791
862.4720, 695.0127
863.6020, 742.9678
864.7330, 650.9443
865.8640, 506.9414
866.9940, 587.9590
868.1240, 553.0156
869.2540, 580.0918
870.3840, 393.1904
871.5140, 335.3252
872.6440, 560.4824
873.7730, 713.6865
874.9020, 590.9473
876.0320, 682.2285
877.1600, 758.5645
878.2890, 778.9229
879.4180, 765.3330
880.5460, 865.7734
881.6750, 948.2656
882.8030, 1032.817
883.9310, 1186.430
885.0590, 1294.063
886.1860, 1386.080
887.3140, 1370.439
888.4410, 1562.168
889.5680, 1617.949
890.6950, 1693.768
891.8220, 1867.604
892.9490, 1977.510
894.0750, 2124.854
895.2020, 2295.227
896.3280, 2450.140
897.4540, 2616.082
898.5800, 2821.073
899.7050, 2927.132
900.8310, 2977.121
901.9560, 3160.175
903.0820, 3370.246
904.2070, 3494.315
905.3320, 3681.441
906.4560, 3820.563
907.5810, 4036.701
908.7050, 4237.445
909.8300, 4461.027
910.9540, 4663.216
912.0780, 4816.421
913.2010, 4988.645
914.3250, 5057.882
915.4480, 5238.145
916.5720, 5238.425
917.6950, 5435.718
918.8180, 5443.025
919.9410, 5486.348
921.0630, 5614.689
922.1860, 5532.042
923.3080, 5599.424
924.4300, 5606.822
925.5520, 5455.234
926.6740, 5498.662
927.7960, 5436.103
928.9170, 5470.557
930.0390, 5406.026
931.1600, 5158.511
932.2810, 5100.008
933.4020, 5055.534
934.5230, 4715.082
935.6430, 4815.676
936.7640, 4579.285
937.8840, 4371.906
939.0040, 4317.543
940.1240, 4114.225
941.2440, 3937.917
942.3630, 3771.621
943.4830, 3580.340
944.6020, 3297.070
945.7210, 3096.812
946.8400, 2934.584
947.9590, 2897.367
949.0770, 2870.160
950.1960, 2719.719
951.3140, 2590.541
952.4320, 2507.376
953.5500, 2329.601
954.6680, 2192.546
955.7860, 2073.311
956.9030, 1850.975
958.0210, 1850.863
959.1380, 1674.898
960.2550, 1548.808
961.3720, 1297.625
962.4890, 1148.104
963.6050, 1013.752
964.7220, 965.1240
965.8380, 860.0986
966.9540, 795.8857
968.0700, 750.6211
969.1860, 703.1152
970.3010, 367.9502
971.4170, 386.6016
972.5320, 248.9512
973.6470, 88.83887
974.7620, 281.5938
975.8770, 229.1875
976.9910, 137.4873
978.1060, 106.2148
979.2200, 129.8438
980.3340, 19.98535
981.4480, 105.1416
982.5620, 129.3135
983.6760, 181.5000
984.7890, 104.7012
985.9030, 148.9160
987.0160, 61.14551
988.1290, 55.38867
989.2420, 197.6465
990.3550, 279.9170
991.4670, 189.2021
992.5800, 254.8223
993.6920, 426.1338
994.8040, 428.4600
995.9160, 539.7988
997.0280, 701.1504
998.1390, 653.5127
999.2510, 926.9619
1000.362, 1154.426
1001.473, 1148.816
1002.584, 1365.229
1003.695, 1369.205
1004.805, 1245.879
1005.916, 1375.176
1007.026, 1406.391
1008.136, 1489.636
1009.246, 1566.158
1010.356, 1841.193
1011.466, 1974.281
1012.576, 2167.488
1013.685, 2306.455
1014.794, 2538.855
1015.903, 2708.318
1017.012, 2950.924
1018.121, 3201.756
1019.229, 3459.512
1020.338, 3747.692
1021.446, 4064.502
1022.554, 4328.774
1023.662, 4535.577
1024.770, 4736.520
1025.878, 4931.097
1026.985, 5067.697
1028.092, 5223.463
1029.200, 5239.704
1030.307, 5248.787
1031.413, 5374.504
1032.520, 5155.345
1033.627, 5102.150
1034.733, 5084.750
1035.839, 4826.352
1036.945, 4991.068
1038.051, 4578.673
1039.157, 4468.309
1040.262, 3988.916
1041.368, 3905.525
1042.473, 3680.135
1043.578, 3412.744
1044.683, 3257.844
1045.788, 2870.604
1046.893, 2864.215
1047.997, 2518.732
1049.101, 2397.345
1050.205, 2006.955
1051.309, 2001.565
1052.413, 1789.176
1053.517, 1608.937
1054.621, 1364.546
1055.724, 1405.229
1056.827, 1066.835
1057.930, 1121.586
1059.033, 1096.208
1060.136, 938.8105
1061.238, 879.5322
1062.341, 893.1299
1063.443, 913.8574
1064.545, 694.8691
1065.647, 705.4648
1066.749, 724.5986
1067.850, 610.3750
1068.952, 739.0381
1070.053, 723.6172
1071.154, 763.1465
1072.255, 657.4385
1073.356, 691.0322
1074.457, 657.6992
1075.557, 561.5361
1076.658, 710.2227
1077.758, 611.7705
1078.858, 681.1494
1079.958, 735.6865
1081.057, 773.2188
1082.157, 735.4297
1083.256, 713.9521
1084.356, 848.4697
1085.455, 720.9795
1086.554, 813.4912
1087.653, 765.9951
1088.751, 781.4980
1089.850, 673.0166
1090.948, 699.5293
1092.046, 674.0449
1093.144, 582.7598
1094.242, 551.2891
1095.340, 493.8232
1096.437, 547.3750
1097.534, 572.9561
1098.632, 405.5625
1099.729, 554.1631
1100.826, 453.7930
1101.922, 466.4375
1103.019, 390.1064
1104.115, 372.9766
1105.212, 457.5576
1106.308, 332.3428
1107.404, 400.1426
1108.499, 368.9756
1109.595, 363.8184
1110.691, 301.6807
1111.786, 284.5381
1112.881, 402.3848
1113.976, 240.2217
1115.071, 337.0508
1116.166, 217.8682
1117.260, 185.6777
1118.355, 121.4756
1119.449, 186.2637
1120.543, 111.0410
1121.637, 167.8086
1122.731, 86.56445
1123.824, 15.31055
1124.918, 188.0430
1126.011, 98.76367
1127.104, 138.4736
1128.197, 137.3428
1129.290, 163.8604
1130.382, 51.53613
1131.475, 53.19922
1132.567, 44.14941
1133.659, 78.45410
1134.751, 17.04492
1135.843, 30.38184
1136.935, 9.149414
1138.027, 69.34082
1139.118, 116.8955
1140.209, 75.46191
1141.300, 112.1943
1142.391, 23.06250
1143.482, 97.70020
1144.573, 45.54297
1145.663, 24.43848
1146.754, 159.3760
1147.844, 130.4277
1148.934, 33.42383
1150.024, 23.74414
1151.113, 61.94824
1152.203, 53.78418
1153.292, 94.49902
1154.381, 38.86035
1155.470, 46.72656
1156.559, 121.2959
1157.648, 102.1602
1158.737, 67.39258
1159.825, 31.92090
1160.913, 9.571289
1162.001, 83.10059
1163.089, 63.29395
1164.177, 4.328125
1165.265, 137.0137
1166.352, 178.3428
1167.440, 88.65723
1168.527, 198.1260
1169.614, 110.2402
1170.701, 236.5107
1171.788, 215.7656
1172.874, 157.0078
1173.961, 127.2344
1175.047, 49.44629
1176.133, 86.63965
1177.219, 131.8154
1178.305, 2.978516
1179.390, 138.1074
1180.476, 183.2217
1181.561, 268.3203
1182.646, 193.4053
1183.731, 91.47461
1184.816, 217.5283
1185.901, 14.43359
1186.985, 174.5625
1188.070, 95.54297
1189.154, 126.5068
1190.238, 164.4561
1191.322, 103.3896
1192.406, 161.3076
1193.489, 102.2109
1194.573, 64.09766
1195.656, 12.03516
1196.739, 12.79004
1197.822, 94.41504
1198.905, 117.2930
1199.988, 157.9863
1201.070, 32.66406
1202.153, 70.68066
1203.235, 131.9004
1204.317, 113.4648
1205.399, 82.01465
1206.481, 107.5459
1207.562, 160.0605
1208.644, 24.43848
1209.725, 238.0117
1210.806, 282.4473
1211.887, 10.86621
1212.968, 254.2568
1214.049, 268.6309
1215.129, 290.9902
1216.209, 149.3340
1217.290, 261.6631
1218.370, 340.9766
1219.450, 235.2764
1220.529, 284.5596
1221.609, 192.8281
1222.688, 94.08105
1223.768, 196.3164
1224.847, 236.5391
1225.926, 212.7451
1227.005, 202.9346
1228.083, 293.1094
1229.162, 234.2695
1230.240, 250.4131
1231.318, 343.8652
1232.396, 157.9785
1233.474, 283.0742
1234.552, 210.1553
1235.629, 489.6582
1236.707, 320.7051
1237.784, 399.7363
1238.861, 227.7510
1239.938, 245.7383
1241.015, 450.7285
1242.092, 258.6914
1243.168, 186.6387
1244.244, 214.5684
1245.321, 366.4814
1246.397, 499.3828
1247.473, 350.2773
1248.548, 401.1611
1249.624, 401.0283
1250.699, 334.8789
1251.775, 271.7139
1252.850, 387.5322
1253.925, 358.0117
1254.999, 341.7979
1256.074, 352.5684
1257.148, 354.3291
1258.223, 348.2764
1259.297, 355.7461
1260.371, 375.4912
1261.445, 383.1387
1262.519, 462.8564
1263.592, 532.5479
1264.666, 593.6709
1265.739, 523.0947
1266.812, 607.8916
1267.885, 603.7676
1268.958, 615.6104
1270.030, 697.1738
1271.103, 712.5186
1272.175, 739.7461
1273.247, 782.0742
1274.319, 734.1748
1275.391, 700.5605
1276.463, 616.4385
1277.535, 489.0996
1278.606, 535.1094
1279.677, 580.8994
1280.748, 414.8174
1281.819, 542.0469
1282.890, 623.1982
1283.961, 393.4258
1285.031, 380.5059
1286.102, 568.9473
1287.172, 352.3584
1288.242, 452.2979
1289.312, 472.0566
1290.381, 676.9678
1291.451, 539.2402
1292.520, 587.3809
1293.590, 612.5518
1294.659, 531.9199
1295.728, 557.1201
1296.797, 476.5195
1297.865, 564.8623
1298.934, 545.1689
1300.002, 660.4951
1301.070, 536.8115
1302.138, 656.1230
1303.206, 598.4248
1304.274, 649.2314
1305.341, 691.3672
1306.409, 685.6436
1307.476, 720.0059
1308.543, 712.2676
1309.610, 744.5225
1310.677, 802.7695
1311.744, 689.0098
1312.810, 822.0898
1313.877, 686.3164
1314.943, 775.4600
