##NAMES=Astrophyllite
##RRUFFID=R060103
##IDEAL CHEMISTRY=K_2_NaFe^2+^_7_Ti^4+^_2_(Si_4_O_12_)_2_O_2_(OH)_4_F
##LOCALITY=Brivik, Norway
##OWNER=RRUFF
##SOURCE=University of Arizona Mineral Museum
##DESCRIPTION=Brown fragment embedded in matrix
##STATUS=The identification of this mineral is confirmed by single-crystal X-ray diffraction and chemical analysis.
##URL=rruff.info/R060103
##MEASURED CHEMISTRY=K_2.00_Na_1.00_(Fe^2+^_0.55_Mn_0.32_Fe^3+^_0.04_Mg_0.04_Ca_0.04_)_7_(Ti_0.66_Zr_0.18_Al_0.16_)_2_Si_8.00_O_26_(OH)_4_F_1.00_
##PIN_ID=M01572
##ORIENTATION=Laser parallel to (1 1 0). Fiducial mark perpendicular to laser is parallel to c [0 0 1]
155.0960, 0.0000000E+00
156.3280, 207.4023
157.5600, 125.1274
158.7920, 180.5850
160.0240, 364.6348
161.2560, 497.3438
162.4870, 601.4873
163.7180, 828.1626
164.9490, 941.2725
166.1800, 1018.312
167.4110, 1011.272
168.6410, 1030.416
169.8720, 1055.351
171.1020, 979.4771
172.3320, 1053.625
173.5620, 970.5308
174.7910, 915.3789
176.0210, 840.8774
177.2500, 698.9844
178.4790, 554.6562
179.7080, 283.8501
180.9370, 215.5254
182.1650, 66.64746
183.3940, 54.81348
184.6220, 62.12207
185.8500, 4.561035
187.0780, 4.122070
188.3050, 75.84473
189.5330, 63.47754
190.7600, 68.79492
191.9870, 39.50684
193.2140, 11.02734
194.4410, 88.99219
195.6680, 155.8169
196.8940, 257.9097
198.1200, 367.2480
199.3470, 407.8115
200.5720, 587.5781
201.7980, 705.5264
203.0240, 776.6416
204.2490, 834.9160
205.4740, 817.3384
206.6990, 784.9014
207.9240, 1077.602
209.1490, 1103.437
210.3740, 1296.415
211.5980, 1454.549
212.8220, 1673.855
214.0460, 1945.340
215.2700, 2117.007
216.4930, 2353.149
217.7170, 2467.846
218.9400, 2752.993
220.1630, 2997.280
221.3860, 3147.694
222.6090, 3555.227
223.8320, 3696.871
225.0540, 3843.618
226.2760, 4129.460
227.4980, 4254.392
228.7200, 4502.395
229.9420, 4769.449
231.1630, 5001.681
232.3850, 5168.802
233.6060, 5284.781
234.8270, 5426.642
236.0480, 5542.595
237.2690, 5586.603
238.4890, 5665.606
239.7090, 5626.608
240.9290, 5592.609
242.1490, 5643.615
243.3690, 5460.565
244.5890, 5423.510
245.8080, 5457.375
247.0270, 5323.162
248.2470, 5226.958
249.4650, 5156.772
250.6840, 5257.608
251.9030, 5124.463
253.1210, 5087.340
254.3390, 5008.241
255.5570, 4947.161
256.7750, 5002.103
257.9930, 5033.073
259.2100, 4855.182
260.4280, 4700.282
261.6450, 4484.375
262.8620, 4183.655
264.0790, 3954.115
265.2950, 3721.874
266.5120, 3574.878
267.7280, 3333.179
268.9440, 3151.725
270.1600, 2893.013
271.3760, 2674.437
272.5920, 2350.602
273.8070, 2106.895
275.0220, 1833.203
276.2370, 1756.485
277.4520, 1555.740
278.6670, 1462.963
279.8820, 1320.157
281.0960, 1274.321
282.3100, 1032.455
283.5240, 962.5596
284.7380, 798.6357
285.9520, 756.6821
287.1650, 618.6992
288.3780, 568.6870
289.5920, 566.6460
290.8050, 537.5752
292.0170, 526.0161
293.2300, 472.3447
294.4430, 491.1860
295.6550, 457.9971
296.8670, 392.7793
298.0790, 359.5308
299.2910, 411.2534
300.5020, 446.9565
301.7140, 441.4941
302.9250, 287.4946
304.1360, 387.3262
305.3470, 423.2070
306.5580, 426.9355
307.7680, 540.1152
308.9780, 482.3862
310.1890, 484.9399
311.3990, 518.6323
312.6090, 530.5640
313.8180, 596.8735
315.0280, 635.3159
316.2370, 599.1333
317.4460, 743.4648
318.6550, 834.1182
319.8640, 869.3677
321.0730, 801.6743
322.2810, 954.0342
323.4890, 864.4443
324.6980, 941.9043
325.9060, 846.4087
327.1130, 936.9561
328.3210, 891.5449
329.5280, 980.9160
330.7360, 1113.581
331.9430, 1112.624
333.1500, 1214.283
334.3560, 1270.456
335.5630, 1321.659
336.7690, 1504.769
337.9760, 1573.900
339.1820, 1636.776
340.3870, 1698.676
341.5930, 1808.599
342.7990, 1724.542
344.0040, 1845.507
345.2090, 1768.489
346.4140, 1863.490
347.6190, 1861.508
348.8240, 1774.543
350.0280, 1703.591
351.2330, 1580.656
352.4370, 1489.733
353.6410, 1453.825
354.8440, 1369.928
356.0480, 1209.042
357.2520, 1047.295
358.4550, 1028.549
359.6580, 1060.901
360.8610, 1014.671
362.0640, 896.5444
363.2660, 957.8901
364.4690, 897.7441
365.6710, 953.3081
366.8730, 875.6387
368.0750, 867.0020
369.2770, 843.6821
370.4780, 894.3564
371.6800, 899.7222
372.8810, 989.8643
374.0820, 1116.794
375.2830, 1020.630
376.4830, 986.7759
377.6840, 1089.222
378.8840, 1208.865
380.0840, 1212.979
381.2840, 1179.073
382.4840, 1092.750
383.6840, 1209.806
384.8830, 1131.879
386.0830, 1128.523
387.2820, 1057.752
388.4810, 1085.367
389.6800, 1184.689
390.8780, 1029.029
392.0770, 1071.336
393.2750, 1023.513
394.4730, 974.7744
395.6710, 943.1191
396.8690, 916.1050
398.0660, 938.0771
399.2640, 966.0342
400.4610, 941.8335
401.6580, 912.9082
402.8550, 925.8242
404.0520, 972.7241
405.2490, 984.6104
406.4450, 1038.480
407.6410, 1019.334
408.8370, 1164.172
410.0330, 1301.992
411.2290, 1409.792
412.4240, 1420.573
413.6200, 1448.333
414.8150, 1616.069
416.0100, 1713.783
417.2050, 1865.474
418.4000, 1891.140
419.5940, 2061.781
420.7880, 1930.399
421.9830, 2004.994
423.1770, 1903.564
424.3700, 2005.110
425.5640, 2039.634
426.7580, 1790.135
427.9510, 1731.612
429.1440, 1587.066
430.3370, 1420.499
431.5300, 1292.909
432.7220, 1175.296
433.9150, 1065.661
435.1070, 895.0049
436.2990, 895.3262
437.4910, 720.6265
438.6830, 562.9048
439.8750, 344.1621
441.0660, 422.3979
442.2570, 317.6123
443.4480, 177.8062
444.6390, 149.9780
445.8300, 126.1343
447.0210, 31.27197
448.2110, 46.61621
449.4010, 27.56787
450.5910, 2.572754
451.7810, 99.61914
452.9710, 72.75781
454.1610, 43.97363
455.3500, 48.25293
456.5390, 22.59717
457.7280, 67.00781
458.9170, 33.41064
460.1060, 57.11475
461.2940, 126.6172
462.4830, 217.1016
463.6710, 248.0234
464.8590, 301.0254
466.0470, 294.4644
467.2350, 291.8877
468.4220, 297.2944
469.6090, 289.6851
470.7970, 312.1450
471.9840, 307.6167
473.1700, 343.7764
474.3570, 319.1187
475.5440, 302.4463
476.7300, 319.7588
477.9160, 289.8091
479.1020, 320.3857
480.2880, 272.6968
481.4740, 307.9985
482.6590, 337.2812
483.8440, 276.5459
485.0300, 316.7915
486.2140, 383.0186
487.3990, 422.2261
488.5840, 415.3770
489.7680, 392.4473
490.9530, 381.7358
492.1370, 296.8672
493.3210, 276.9785
494.5040, 271.0703
495.6880, 306.1431
496.8720, 196.1958
498.0550, 207.2290
499.2380, 166.2412
500.4210, 168.2329
501.6040, 147.2031
502.7860, 70.15088
503.9690, 6.926758
505.1510, 24.94629
506.3330, 22.21289
507.5150, 16.57129
508.6970, 2.318359
509.8780, 29.97852
511.0600, 13.66406
512.2410, 50.73145
513.4220, 189.1997
514.6030, 153.8130
515.7840, 150.5513
516.9640, 101.4155
518.1440, 154.3779
519.3250, 159.4663
520.5050, 226.6841
521.6850, 139.0664
522.8640, 59.56592
524.0440, 133.1411
525.2230, 123.8306
526.4020, 156.6289
527.5820, 134.5537
528.7600, 128.6826
529.9390, 103.7407
531.1180, 83.98730
532.2960, 37.31885
533.4740, 10.28711
534.6520, 142.8579
535.8300, 117.4077
537.0080, 92.93604
538.1850, 197.4424
539.3630, 303.9297
540.5400, 344.3979
541.7170, 435.8481
542.8940, 555.2798
544.0700, 666.7085
545.2470, 850.1245
546.4230, 1013.134
547.5990, 1258.951
548.7750, 1466.385
549.9510, 1755.822
551.1270, 1981.681
552.3020, 2308.719
553.4780, 2468.196
554.6530, 2748.697
555.8280, 2984.215
557.0030, 3168.744
558.1770, 3380.286
559.3520, 3373.848
560.5260, 3465.426
561.7000, 3409.041
562.8740, 3338.673
564.0480, 3310.325
565.2220, 3156.973
566.3950, 2910.627
567.5680, 2627.300
568.7420, 2447.980
569.9150, 2212.670
571.0870, 1983.371
572.2600, 1929.059
573.4320, 1774.749
574.6050, 1464.436
575.7770, 1421.152
576.9490, 1268.877
578.1210, 1134.599
579.2920, 1083.308
580.4640, 970.0039
581.6350, 1066.685
582.8060, 1045.353
583.9770, 861.0059
585.1480, 978.6343
586.3190, 936.1309
587.4890, 952.5098
588.6590, 969.2109
589.8290, 945.9287
590.9990, 969.8159
592.1690, 979.2456
593.3390, 937.5596
594.5080, 1018.536
595.6770, 999.2993
596.8470, 973.7744
598.0160, 1028.842
599.1840, 1011.761
600.3530, 927.1172
601.5210, 867.9297
602.6900, 987.1377
603.8580, 917.5947
605.0260, 872.0430
606.1930, 840.4824
607.3610, 815.9131
608.5280, 813.5161
609.6960, 810.1440
610.8630, 846.1528
612.0300, 828.5493
613.1970, 875.9375
614.3630, 885.5376
615.5300, 921.6895
616.6960, 964.0527
617.8620, 1033.408
619.0280, 1097.756
620.1940, 1143.096
621.3590, 1165.428
622.5250, 1302.753
623.6900, 1343.069
624.8550, 1337.379
626.0200, 1535.681
627.1850, 1582.975
628.3490, 1629.262
629.5140, 1786.543
630.6780, 1989.816
631.8420, 1956.083
633.0060, 2206.343
634.1700, 2486.596
635.3330, 2482.843
636.4970, 2776.083
637.6600, 3099.317
638.8230, 3400.545
639.9860, 3837.641
641.1490, 4156.739
642.3110, 4642.741
643.4740, 5220.329
644.6360, 5802.816
645.7980, 6565.830
646.9600, 7098.336
648.1220, 8187.133
649.2840, 8848.163
650.4450, 9559.159
651.6060, 10268.83
652.7670, 10761.52
653.9280, 11059.51
655.0890, 11162.82
656.2500, 11072.34
657.4100, 10782.64
658.5700, 10339.84
659.7300, 9659.736
660.8900, 8855.430
662.0500, 8069.647
663.2100, 7525.880
664.3690, 6944.524
665.5280, 6378.786
666.6880, 5974.023
667.8460, 5716.687
669.0050, 5570.762
670.1640, 5462.447
671.3220, 5349.561
672.4810, 5341.375
673.6390, 5352.360
674.7970, 5368.474
675.9540, 5616.499
677.1120, 5799.441
678.2690, 5966.737
679.4270, 6111.047
680.5840, 6343.367
681.7410, 6441.699
682.8980, 6729.044
684.0540, 7025.209
685.2110, 7217.500
686.3670, 7386.383
687.5230, 7603.888
688.6790, 7888.651
689.8350, 7952.096
690.9900, 8069.508
692.1460, 8253.019
693.3010, 8624.303
694.4560, 8605.982
695.6110, 8839.879
696.7660, 8939.174
697.9210, 9121.637
699.0750, 9187.563
700.2290, 9108.479
701.3840, 9224.539
702.5370, 9419.760
703.6910, 9445.498
704.8450, 9687.283
705.9980, 9516.560
707.1520, 9649.669
708.3050, 9593.076
709.4580, 9618.715
710.6110, 9559.261
711.7630, 9496.318
712.9160, 9423.588
714.0680, 9312.225
715.2200, 9215.898
716.3720, 9037.293
717.5240, 8899.093
718.6760, 8726.671
719.8270, 8393.254
720.9780, 8367.841
722.1300, 7851.430
723.2810, 7599.024
724.4310, 7326.625
725.5820, 7111.229
726.7330, 6888.839
727.8830, 6606.639
729.0330, 6327.107
730.1830, 6103.779
731.3330, 5777.466
732.4830, 5619.195
733.6320, 5164.959
734.7810, 5052.754
735.9310, 4781.577
737.0800, 4608.421
738.2290, 4405.276
739.3770, 4248.156
740.5260, 3986.045
741.6740, 3948.941
742.8220, 3900.844
743.9700, 3649.753
745.1180, 3657.670
746.2660, 3449.591
747.4130, 3259.521
748.5610, 3293.457
749.7080, 3299.400
750.8550, 3173.353
752.0020, 2894.311
753.1490, 3073.277
754.2950, 2924.251
755.4420, 2914.233
756.5880, 2895.223
757.7340, 2851.221
758.8800, 2770.227
760.0250, 2673.240
761.1710, 2784.263
762.3160, 2708.294
763.4620, 2608.333
764.6070, 2561.381
765.7520, 2470.437
766.8960, 2397.817
768.0410, 2437.575
769.1850, 2264.659
770.3300, 2259.750
771.4740, 2232.853
772.6180, 2329.963
773.7610, 2079.083
774.9050, 2171.212
776.0480, 2191.352
777.1920, 2009.500
778.3350, 1979.660
779.4780, 1958.829
780.6200, 1888.009
781.7630, 1868.202
782.9060, 1921.420
784.0480, 1904.653
785.1900, 1731.915
786.3320, 1768.195
787.4740, 1689.498
788.6150, 1695.831
789.7570, 1596.183
790.8980, 1533.571
792.0390, 1340.032
793.1800, 1311.557
794.3210, 1268.143
795.4620, 1284.780
796.6020, 1096.480
797.7420, 1111.245
798.8830, 990.0923
800.0230, 891.9990
801.1620, 792.9438
802.3020, 659.9468
803.4420, 711.0049
804.5810, 537.1260
805.7200, 467.3052
806.8590, 509.5396
807.9980, 326.8242
809.1370, 344.1519
810.2750, 254.5112
811.4140, 195.8892
812.5520, 190.2783
813.6900, 177.6797
814.8280, 95.09180
815.9650, 72.51465
817.1030, 108.9482
818.2400, 35.39160
819.3780, 53.15527
820.5150, 10.72266
821.6520, 32.29199
822.7880, 92.87354
823.9250, 125.4966
825.0610, 66.18066
826.1980, 83.89355
827.3340, 98.64551
828.4700, 147.4443
829.6050, 143.3164
830.7410, 117.2588
831.8760, 104.2583
833.0120, 94.30908
834.1470, 128.4048
835.2820, 119.5645
836.4160, 182.7832
837.5510, 121.0938
838.6860, 123.4648
839.8200, 32.89795
840.9540, 68.34424
842.0880, 123.8237
843.2220, 73.36426
844.3550, 77.94092
845.4890, 97.55371
846.6220, 27.78516
847.7550, 55.86572
848.8880, 37.54248
850.0210, 154.2358
851.1540, 77.00586
852.2860, 25.81250
853.4190, 6.369629
854.5510, 110.5557
855.6830, 58.75146
856.8150, 145.9653
857.9460, 96.18945
859.0780, 153.4233
860.2090, 130.6729
861.3410, 121.9321
862.4720, 329.2041
863.6020, 393.4873
864.7330, 431.7812
865.8640, 501.0859
866.9940, 573.4004
868.1240, 630.7251
869.2540, 758.0605
870.3840, 849.4199
871.5140, 857.7900
872.6440, 1073.176
873.7730, 1164.584
874.9020, 1361.019
876.0320, 1531.469
877.1600, 1597.934
878.2890, 1803.410
879.4180, 1961.896
880.5460, 2162.412
881.6750, 2324.944
882.8030, 2624.508
883.9310, 2777.111
885.0590, 3085.744
886.1860, 3233.413
887.3140, 3516.105
888.4410, 3769.817
889.5680, 4074.554
890.6950, 4442.299
891.8220, 4554.058
892.9490, 4853.827
894.0750, 4952.609
895.2020, 5401.402
896.3280, 5601.203
897.4540, 6002.014
898.5800, 6275.845
899.7050, 6527.687
900.8310, 6837.543
901.9560, 7187.436
903.0820, 7345.368
904.2070, 7920.309
905.3320, 8144.261
906.4560, 8474.229
907.5810, 8969.207
908.7050, 9182.197
909.8300, 9499.206
910.9540, 9785.220
912.0780, 9886.246
913.2010, 10351.29
914.3250, 10527.34
915.4480, 10737.42
916.5720, 10730.50
917.6950, 10825.60
918.8180, 10899.71
919.9410, 10969.84
921.0630, 10933.96
922.1860, 11001.10
923.3080, 10843.24
924.4300, 10799.40
925.5520, 10658.56
926.6740, 10600.73
927.7960, 10502.91
928.9170, 10303.10
930.0390, 10082.26
931.1600, 9856.505
932.2810, 9521.718
933.4020, 9264.946
934.5230, 9018.184
935.6430, 8825.426
936.7640, 8473.676
937.8840, 8187.930
939.0040, 7939.198
940.1240, 7518.471
941.2440, 7155.747
942.3630, 6901.034
943.4830, 6451.325
944.6020, 6186.625
945.7210, 5758.925
946.8400, 5588.230
947.9590, 5247.540
949.0770, 4890.852
950.1960, 4765.167
951.3140, 4526.490
952.4320, 4395.815
953.5500, 4160.936
954.6680, 3829.474
955.7860, 3700.999
956.9030, 3409.412
958.0210, 3188.247
959.1380, 2910.007
960.2550, 2638.461
961.3720, 2438.779
962.4890, 2196.269
963.6050, 2027.431
964.7220, 1819.956
965.8380, 1655.101
966.9540, 1520.295
968.0700, 1374.743
969.1860, 1284.019
970.3010, 1168.979
971.4170, 1072.969
972.5320, 1048.830
973.6470, 925.5459
974.7620, 854.7598
975.8770, 709.9468
976.9910, 725.6592
978.1060, 748.5483
979.2200, 650.1611
980.3340, 546.5562
981.4480, 558.0581
982.5620, 518.0659
983.6760, 555.1104
984.7890, 548.0098
985.9030, 528.7759
987.0160, 550.4766
988.1290, 513.8530
989.2420, 564.4365
990.3550, 556.6699
991.4670, 560.2759
992.5800, 647.8936
993.6920, 717.5000
994.8040, 747.1392
995.9160, 690.2451
997.0280, 752.9067
998.1390, 822.6748
999.2510, 850.4932
1000.362, 928.1875
1001.473, 1043.948
1002.584, 1138.663
1003.695, 1108.727
1004.805, 1230.543
1005.916, 1251.575
1007.026, 1376.137
1008.136, 1519.661
1009.246, 1563.642
1010.356, 1737.706
1011.466, 1908.604
1012.576, 2044.467
1013.685, 2212.981
1014.794, 2361.634
1015.903, 2508.438
1017.012, 2679.021
1018.121, 2809.641
1019.229, 2988.132
1020.338, 3092.453
1021.446, 3296.249
1022.554, 3493.588
1023.662, 3659.605
1024.770, 3731.018
1025.878, 4041.211
1026.985, 3980.535
1028.092, 4162.581
1029.200, 4167.585
1030.307, 4137.602
1031.413, 4297.996
1032.520, 4236.912
1033.627, 4273.394
1034.733, 4392.383
1035.839, 4145.183
1036.945, 4099.486
1038.051, 4031.422
1039.157, 3910.178
1040.262, 3804.094
1041.368, 3670.319
1042.473, 3517.570
1043.578, 3362.654
1044.683, 3193.101
1045.788, 3004.274
1046.893, 2816.363
1047.997, 2499.577
1049.101, 2404.694
1050.205, 2159.697
1051.309, 1941.703
1052.413, 1892.697
1053.517, 1752.741
1054.621, 1600.702
1055.724, 1545.762
1056.827, 1367.739
1057.930, 1243.948
1059.033, 1207.104
1060.136, 1149.388
1061.238, 1114.527
1062.341, 1048.769
1063.443, 983.7881
1064.545, 1014.163
1065.647, 866.0762
1066.749, 873.5483
1067.850, 810.1299
1068.952, 841.2524
1070.053, 735.2896
1071.154, 696.9771
1072.255, 680.2588
1073.356, 619.2285
1074.457, 624.7324
1075.557, 595.0137
1076.658, 700.4800
1077.758, 592.5293
1078.858, 649.9648
1079.958, 717.9712
1081.057, 601.9282
1082.157, 551.9424
1083.256, 571.1157
1084.356, 586.0874
1085.455, 620.1440
1086.554, 600.0879
1087.653, 618.0439
1088.751, 648.0259
1089.850, 682.1504
1090.948, 617.1401
1092.046, 561.3574
1093.144, 523.4614
1094.242, 589.5205
1095.340, 528.2793
1096.437, 575.4600
1097.534, 565.8428
1098.632, 538.0308
1099.729, 441.2554
1100.826, 437.5796
1101.922, 416.3335
1103.019, 416.8857
1104.115, 357.5352
1105.212, 409.4292
1106.308, 379.9307
1107.404, 285.7983
1108.499, 209.4155
1109.595, 274.1040
1110.691, 248.5889
1111.786, 163.2583
1112.881, 197.7837
1113.976, 109.3047
1115.071, 29.99316
1116.166, 92.53271
1117.260, 94.15967
1118.355, 28.75732
1119.449, 88.88574
1120.543, 53.48389
1121.637, 35.84131
1122.731, 15.72607
1123.824, 71.28711
1124.918, 23.15967
1126.011, 17.37500
1127.104, 12.09570
1128.197, 105.4287
1129.290, 8.5937999E-02
1130.382, 1.401855
1131.475, 55.10059
1132.567, 5.594727
1133.659, 23.86719
1134.751, 54.42383
1135.843, 5.248535
1136.935, 20.32471
1138.027, 43.85986
1139.118, 58.35645
1140.209, 17.02979
1141.300, 17.58057
1142.391, 9.701660
1143.482, 21.99707
1144.573, 73.74219
1145.663, 14.40771
1146.754, 79.22412
1147.844, 100.9365
1148.934, 68.98193
1150.024, 81.97461
1151.113, 46.76074
1152.203, 21.85742
1153.292, 45.86865
1154.381, 18.96289
1155.470, 1.904785
1156.559, 6.707031
1157.648, 4.494141
1158.737, 22.26318
1159.825, 35.02051
1160.913, 33.79492
1162.001, 26.33594
1163.089, 79.57520
1164.177, 10.73438
1165.265, 82.05713
1166.352, 94.45850
1167.440, 12.24463
1168.527, 117.7559
1169.614, 12.74561
1170.701, 27.72363
1171.788, 27.17822
1172.874, 17.18164
1173.961, 42.22607
1175.047, 12.64746
1176.133, 29.06787
1177.219, 21.52197
1178.305, 5.803711
1179.390, 1.107422
1180.476, 12.61426
1181.561, 70.63330
1182.646, 74.86621
1183.731, 64.08594
1184.816, 106.3491
1185.901, 62.54150
1186.985, 107.0718
1188.070, 40.23633
1189.154, 48.93115
1190.238, 3.578613
1191.322, 54.68555
1192.406, 39.84229
1193.489, 84.91748
1194.573, 31.06055
1195.656, 4.895996
1196.739, 27.11523
1197.822, 23.10742
1198.905, 64.25879
1199.988, 85.21582
1201.070, 0.1577150
1202.153, 42.06934
1203.235, 109.0835
1204.317, 3.962891
1205.399, 84.81445
1206.481, 22.72803
1207.562, 85.54248
1208.644, 34.55566
1209.725, 96.33594
1210.806, 114.1006
1211.887, 94.85107
1212.968, 12.58594
1214.049, 105.2949
1215.129, 84.98828
1216.209, 113.6655
1217.290, 140.3286
1218.370, 107.9761
1219.450, 76.69727
1220.529, 150.3169
1221.609, 68.91650
1222.688, 100.4990
1223.768, 154.0654
1224.847, 32.61621
1225.926, 104.3550
1227.005, 66.86621
1228.083, 134.3589
1229.162, 118.1968
1230.240, 100.6548
1231.318, 45.09619
1232.396, 66.61963
1233.474, 61.09131
1234.552, 44.47021
1235.629, 101.8271
1236.707, 49.20361
1237.784, 82.48926
1238.861, 73.97510
1239.938, 157.2515
1241.015, 87.50928
1242.092, 143.7461
1243.168, 144.1187
1244.244, 91.31836
1245.321, 167.4976
1246.397, 117.6577
1247.473, 157.7783
1248.548, 49.89893
1249.624, 211.9961
1250.699, 112.1504
1251.775, 160.5703
1252.850, 165.6074
1253.925, 195.6255
1254.999, 172.6470
1256.074, 157.0854
1257.148, 173.8506
1258.223, 102.9033
1259.297, 165.7280
1260.371, 183.5161
1261.445, 139.3975
1262.519, 131.2017
1263.592, 208.0439
1264.666, 78.63428
1265.739, 141.3545
1266.812, 119.0029
1267.885, 98.96094
1268.958, 158.9629
1270.030, 92.48242
1271.103, 151.9072
1272.175, 120.4897
1273.247, 130.0981
1274.319, 91.82227
1275.391, 156.2129
1276.463, 78.68945
1277.535, 139.5376
1278.606, 6.338379
1279.677, 133.2515
1280.748, 207.3364
1281.819, 69.93652
1282.890, 98.98193
1283.961, 65.40527
1285.031, 163.3564
1286.102, 108.5171
1287.172, 103.5366
1288.242, 151.8242
1289.312, 87.14355
1290.381, 61.46484
1291.451, 41.37256
1292.520, 201.9214
1293.590, 88.71777
1294.659, 213.9961
1295.728, 38.45361
1296.797, 169.3950
1297.865, 175.6934
1298.934, 102.1611
1300.002, 128.2412
1301.070, 31.29492
1302.138, 100.3682
1303.206, 70.46094
1304.274, 66.17871
1305.341, 65.15869
1306.409, 161.8096
1307.476, 83.12549
1308.543, 168.1255
1309.610, 117.2290
1310.677, 142.3184
1311.744, 256.4082
1312.810, 57.43555
1313.877, 119.5322
1314.943, 45.49463
1316.009, 97.54834
1317.075, 56.34766
1318.140, 131.1880
1319.206, 95.88818
1320.272, 53.72021
