##NAMES=Astrophyllite
##RRUFFID=R060202
##IDEAL CHEMISTRY=K_2_NaFe^2+^_7_Ti^4+^_2_(Si_4_O_12_)_2_O_2_(OH)_4_F
##LOCALITY=Demix Quarry, Mont Saint-Hilaire, Rouville County, Quebec, Canada
##OWNER=RRUFF
##SOURCE=Royal Ontario Museum
##DESCRIPTION=Aggregate of brown splintered wafers
##STATUS=The identification of this mineral has been confirmed by X-ray diffraction and chemical analysis
##URL=rruff.info/R060202
##MEASURED CHEMISTRY=(K_0.56_Na_0.38_Ca_0.06_)_3_(Fe^2+^_0.52_Mn_0.44_Mg_0.04_)_7_(Ti_0.75_Zr_0.15_Al_0.15_)_2_Si_8_O_24_(O_0.27_OH_0.73_)_7_
##PIN_ID=M00349
##ORIENTATION=Laser parallel to a* (1 0 0). Fiducial mark perpendicular to laser is parallel to b [0 1 0]
121.8270, 0.0000000E+00
123.0580, 309.4531
124.2880, 85.86523
125.5190, 64.75781
126.7490, 0.6093750
127.9790, 239.3613
129.2090, 251.2598
130.4390, 370.7422
131.6680, 245.5527
132.8980, 304.7227
134.1270, 144.8379
135.3560, 241.2656
136.5850, 135.1973
137.8140, 488.9648
139.0430, 517.1934
140.2710, 191.8496
141.5000, 137.9082
142.7280, 12.65820
143.9560, 10.11914
145.1840, 47.78320
146.4120, 100.6113
147.6390, 25.29102
148.8670, 34.23633
150.0940, 25.56445
151.3210, 232.8750
152.5490, 282.5430
153.7750, 134.4277
155.0020, 298.5156
156.2290, 263.8047
157.4550, 398.2871
158.6810, 379.9551
159.9080, 221.7949
161.1340, 420.7949
162.3590, 575.9414
163.5850, 868.2285
164.8110, 980.6406
166.0360, 889.1680
167.2610, 740.8027
168.4860, 937.5547
169.7110, 1049.418
170.9360, 983.4023
172.1610, 978.5098
173.3850, 649.7344
174.6100, 556.0703
175.8340, 583.5078
177.0580, 521.0449
178.2820, 399.6758
179.5050, 363.3945
180.7290, 361.2031
181.9520, 361.1016
183.1760, 382.6875
184.3990, 577.1348
185.6220, 473.2773
186.8450, 597.5117
188.0670, 686.8457
189.2900, 432.2695
190.5120, 700.7793
191.7340, 715.3730
192.9560, 781.0391
194.1780, 802.7793
195.4000, 799.5781
196.6220, 844.4102
197.8430, 783.2520
199.0640, 1078.109
200.2860, 1204.988
201.5070, 1108.354
202.7270, 1209.787
203.9480, 941.7090
205.1690, 758.6445
206.3890, 694.5781
207.6090, 750.4824
208.8290, 858.4082
210.0490, 996.3516
211.2690, 1119.330
212.4890, 1182.346
213.7080, 1293.561
214.9280, 1402.785
216.1470, 1509.227
217.3660, 1649.773
218.5850, 1870.389
219.8030, 1852.121
221.0220, 2093.988
222.2400, 2006.865
223.4590, 2213.754
224.6770, 2273.652
225.8950, 2563.555
227.1120, 2477.469
228.3300, 2655.393
229.5480, 2738.330
230.7650, 3107.281
231.9820, 2992.252
233.1990, 3166.252
234.4160, 2969.266
235.6330, 3261.297
236.8490, 3329.348
238.0660, 3315.428
239.2820, 3225.547
240.4980, 3289.723
241.7140, 3038.906
242.9300, 3153.096
244.1460, 3116.344
245.3610, 3160.604
246.5770, 2935.924
247.7920, 2879.422
249.0070, 3097.061
250.2220, 2847.871
251.4370, 3013.807
252.6510, 3049.828
253.8660, 3067.852
255.0800, 3169.883
256.2940, 3094.918
257.5080, 3048.936
258.7220, 2938.818
259.9360, 2936.926
261.1490, 2639.889
262.3630, 2205.836
263.5760, 2090.762
264.7890, 2106.666
266.0020, 1727.551
267.2150, 1679.410
268.4270, 1483.889
269.6400, 1585.051
270.8520, 1106.889
272.0640, 1114.662
273.2760, 955.5781
274.4880, 1034.402
275.7000, 750.2051
276.9120, 670.0078
278.1230, 673.8203
279.3340, 425.5566
280.5450, 467.1680
281.7560, 570.8203
282.9670, 561.4648
284.1780, 403.1562
285.3880, 247.8867
286.5980, 279.6562
287.8090, 186.4609
289.0190, 239.9395
290.2290, 105.5879
291.4380, 5.339844
292.6480, 299.2773
293.8570, 106.1816
295.0670, 205.2539
296.2760, 355.5195
297.4850, 126.8281
298.6930, 174.4746
299.9020, 172.8379
301.1110, 15.52344
302.3190, 62.24414
303.5270, 259.4863
304.7350, 122.2559
305.9430, 343.0488
307.1510, 309.3574
308.3580, 481.7539
309.5660, 152.7090
310.7730, 482.2090
311.9800, 232.3770
313.1870, 429.1914
314.3940, 486.2969
315.6010, 557.8711
316.8070, 489.4258
318.0130, 550.5820
319.2200, 558.6895
320.4260, 671.0527
321.6310, 728.5703
322.8370, 704.0000
324.0430, 723.3066
325.2480, 647.6660
326.4540, 759.0215
327.6590, 738.3789
328.8640, 668.7402
330.0680, 802.1152
331.2730, 729.6094
332.4780, 981.1289
333.6820, 982.9629
334.8860, 808.6113
336.0900, 774.3262
337.2940, 1032.818
338.4980, 1154.191
339.7010, 900.6797
340.9050, 899.3242
342.1080, 936.8555
343.3110, 927.9219
344.5140, 968.0117
345.7170, 908.3789
346.9200, 965.5527
348.1220, 958.0410
349.3240, 840.0391
350.5270, 625.8965
351.7290, 859.1680
352.9310, 602.0859
354.1320, 855.8301
355.3340, 720.7188
356.5350, 772.6133
357.7370, 797.3320
358.9380, 566.8574
360.1390, 779.6719
361.3400, 812.1211
362.5400, 637.4922
363.7410, 658.2070
364.9410, 619.5840
366.1410, 704.8730
367.3410, 436.7520
368.5410, 639.7148
369.7410, 414.1484
370.9400, 611.1836
372.1400, 529.7949
373.3390, 587.6758
374.5380, 592.2441
375.7370, 586.9629
376.9360, 651.5723
378.1350, 591.0078
379.3330, 693.8477
380.5310, 667.3359
381.7300, 787.2949
382.9280, 689.9551
384.1260, 696.9199
385.3230, 796.1113
386.5210, 784.5723
387.7180, 696.7344
388.9160, 612.5762
390.1130, 594.8320
391.3100, 743.8496
392.5060, 669.8965
393.7030, 730.2227
394.9000, 564.1875
396.0960, 661.5039
397.2920, 590.4258
398.4880, 549.3359
399.6840, 745.2207
400.8800, 724.0859
402.0750, 511.9316
403.2710, 707.7578
404.4660, 634.5645
405.6610, 539.3535
406.8560, 632.1211
408.0510, 693.8711
409.2450, 675.6016
410.4400, 828.3145
411.6340, 720.0059
412.8280, 921.6816
414.0220, 867.3438
415.2160, 826.9902
416.4100, 861.6230
417.6030, 906.2461
418.7970, 1034.857
419.9900, 933.4531
421.1830, 675.0371
422.3760, 877.6074
423.5690, 742.1641
424.7610, 828.7070
425.9540, 571.2402
427.1460, 577.7578
428.3380, 519.2637
429.5300, 493.7559
430.7220, 455.4668
431.9140, 369.6992
433.1050, 347.1562
434.2970, 313.6016
435.4880, 222.0469
436.6790, 221.4766
437.8700, 148.8926
439.0610, 103.2949
440.2510, 106.5938
441.4420, 32.05273
442.6320, 106.4062
443.8220, 34.73828
445.0120, 33.04883
446.2020, 125.6582
447.3910, 32.53906
448.5810, 30.71680
449.7700, 109.1289
450.9600, 94.06445
452.1490, 17.92383
453.3370, 31.11328
454.5260, 73.19727
455.7150, 50.64844
456.9030, 9.474609
458.0910, 46.72656
459.2800, 77.98633
460.4670, 71.31836
461.6550, 14.27930
462.8430, 174.8555
464.0300, 140.4121
465.2180, 199.9492
466.4050, 173.4648
467.5920, 183.9648
468.7790, 199.4160
469.9650, 192.9082
471.1520, 199.3496
472.3380, 185.7754
473.5250, 159.1836
474.7110, 153.5684
475.8970, 78.93555
477.0820, 124.4219
478.2680, 109.6055
479.4540, 162.9043
480.6390, 205.1855
481.8240, 164.4453
483.0090, 12.31445
484.1940, 154.8848
485.3780, 32.06445
486.5630, 29.21680
487.7470, 195.3477
488.9320, 19.45312
490.1160, 164.5352
491.3000, 42.59570
492.4830, 0.6308590
493.6670, 11.63086
494.8500, 61.59961
496.0340, 13.45508
497.2170, 67.44531
498.4000, 47.67773
499.5820, 106.1387
500.7650, 151.9297
501.9480, 81.70312
503.1300, 168.4473
504.3120, 185.3047
505.4940, 61.12305
506.6760, 180.5137
507.8580, 201.1289
509.0390, 16.27930
510.2210, 37.27148
511.4020, 89.20703
512.5830, 146.7676
513.7640, 92.44141
514.9450, 49.20312
516.1250, 172.0234
517.3060, 110.9727
518.4860, 96.01562
519.6660, 89.14648
520.8460, 82.35742
522.0260, 80.64844
523.2060, 53.98242
524.3850, 71.58984
525.5650, 6.828125
526.7440, 175.7148
527.9230, 31.75977
529.1020, 173.7168
530.2810, 20.17969
531.4590, 142.6191
532.6380, 261.0391
533.8160, 183.4414
534.9940, 111.8281
536.1720, 239.2070
537.3500, 104.5684
538.5270, 250.9062
539.7050, 191.2305
540.8820, 241.5586
542.0590, 194.8926
543.2360, 530.2383
544.4130, 620.6504
545.5900, 672.0449
546.7660, 965.4727
547.9430, 1003.885
549.1190, 934.2812
550.2950, 1554.672
551.4710, 1082.061
552.6470, 1443.432
553.8220, 1398.803
554.9980, 1324.152
556.1730, 1670.537
557.3480, 1384.961
558.5230, 1499.434
559.6980, 1683.930
560.8730, 1608.410
562.0470, 1452.867
563.2220, 1255.312
564.3960, 1231.736
565.5700, 1122.199
566.7440, 1048.650
567.9170, 961.0781
569.0910, 931.5234
570.2640, 865.0430
571.4380, 900.4395
572.6110, 766.8730
573.7840, 794.3516
574.9570, 742.8105
576.1290, 792.2891
577.3020, 783.7461
578.4740, 755.1855
579.6460, 785.5293
580.8180, 609.6582
581.9900, 728.7734
583.1620, 618.5566
584.3330, 863.6309
585.5040, 791.5508
586.6760, 840.0977
587.8470, 800.2949
589.0180, 760.9668
590.1880, 856.6094
591.3590, 1024.734
592.5290, 794.7715
593.7000, 610.2441
594.8700, 882.1680
596.0400, 854.4219
597.2090, 617.0234
598.3790, 726.3281
599.5490, 754.1582
600.7180, 886.0020
601.8870, 507.2363
603.0560, 738.5098
604.2250, 452.5195
605.3940, 646.3652
606.5620, 544.3809
607.7300, 543.3320
608.8990, 734.3066
610.0670, 788.2773
611.2350, 874.2305
612.4020, 782.1699
613.5700, 856.0801
614.7370, 776.8652
615.9050, 915.6074
617.0720, 1011.020
618.2390, 996.6055
619.4060, 1014.113
620.5720, 800.8242
621.7390, 888.6387
622.9050, 1025.324
624.0710, 1305.836
625.2370, 1065.445
626.4030, 1165.504
627.5690, 1283.520
628.7340, 1330.242
629.9000, 1418.141
631.0650, 1761.707
632.2300, 1699.746
633.3950, 1904.912
634.5600, 1775.643
635.7240, 2119.715
636.8890, 2285.938
638.0530, 2411.002
639.2170, 2583.041
640.3810, 2899.238
641.5450, 3236.609
642.7080, 3453.672
643.8720, 3584.084
645.0350, 4014.551
646.1980, 4411.652
647.3610, 4789.070
648.5240, 5294.557
649.6870, 5733.434
650.8490, 6028.199
652.0120, 6206.471
653.1740, 6297.119
654.3360, 6158.174
655.4980, 6111.332
656.6600, 5511.379
657.8210, 5357.260
658.9830, 5109.109
660.1440, 4390.729
661.3050, 4183.434
662.4660, 3627.238
663.6270, 3400.266
664.7870, 3437.072
665.9480, 3322.615
667.1080, 3144.445
668.2680, 3117.801
669.4280, 3201.469
670.5880, 3039.699
671.7480, 3162.293
672.9070, 2975.281
674.0670, 3180.258
675.2260, 3094.484
676.3850, 3203.352
677.5440, 3261.594
678.7030, 3540.281
679.8610, 3294.508
681.0200, 3357.109
682.1780, 3818.652
683.3360, 3860.246
684.4940, 3657.133
685.6520, 3817.891
686.8090, 3752.707
687.9670, 3794.797
689.1240, 3918.199
690.2810, 3978.555
691.4380, 4049.961
692.5950, 4239.840
693.7520, 4102.156
694.9080, 4201.789
696.0650, 4455.840
697.2210, 4459.668
698.3770, 4237.203
699.5330, 4344.336
700.6880, 4459.375
701.8440, 4100.867
702.9990, 4321.879
704.1550, 4276.559
705.3100, 4236.254
706.4650, 4175.336
707.6190, 4382.812
708.7740, 4448.344
709.9290, 4166.273
711.0830, 4311.801
712.2370, 4235.582
713.3910, 3931.465
714.5450, 4164.898
715.6980, 3853.012
716.8520, 3937.859
718.0050, 3613.695
719.1580, 3512.512
720.3110, 3556.312
721.4640, 3291.102
722.6170, 3212.871
723.7700, 3160.625
724.9220, 2944.367
726.0740, 2856.098
727.2260, 2454.031
728.3780, 2396.699
729.5300, 2251.496
730.6810, 2244.238
731.8330, 2162.996
732.9840, 2307.746
734.1350, 2059.488
735.2860, 2280.246
736.4370, 2000.988
737.5880, 1788.719
738.7380, 1717.457
739.8880, 1578.691
741.0390, 1495.355
742.1890, 1514.707
743.3380, 1406.438
744.4880, 1468.152
745.6380, 1512.855
746.7870, 1577.543
747.9360, 1443.211
749.0850, 1279.871
750.2340, 1511.508
751.3830, 1249.137
752.5310, 1066.750
753.6800, 1457.352
754.8280, 1695.938
755.9760, 1280.512
757.1240, 1297.070
758.2720, 1122.617
759.4190, 1263.156
760.5670, 1115.676
761.7140, 1087.180
762.8610, 1024.684
764.0080, 960.1758
765.1550, 903.0078
766.3020, 846.5508
767.4480, 791.5742
768.5950, 772.0195
769.7410, 775.4492
770.8870, 811.8672
772.0330, 767.3438
773.1780, 858.6875
774.3240, 727.0781
775.4690, 734.4648
776.6140, 762.8438
777.7590, 597.2266
778.9040, 627.6055
780.0490, 495.9609
781.1940, 505.3125
782.3380, 624.6484
783.4820, 486.9688
784.6260, 727.3047
785.7700, 588.6250
786.9140, 552.9336
788.0580, 581.2344
789.2010, 851.5312
790.3450, 343.8438
791.4880, 480.1914
792.6310, 101.5586
793.7730, 256.9297
794.9160, 421.3398
796.0590, 190.7734
797.2010, 111.2305
798.3430, 194.6953
799.4850, 422.1836
800.6270, 129.6836
801.7690, 267.1758
802.9100, 182.6484
804.0520, 56.12500
805.1930, 98.88672
806.3340, 3.035156
807.4750, 31.45312
808.6160, 74.86719
809.7560, 34.25781
810.8970, 29.62891
812.0370, 25.01953
813.1770, 57.29297
814.3170, 116.5859
815.4570, 96.85938
816.5960, 50.87891
817.7360, 72.67969
818.8750, 71.55078
820.0140, 295.4922
821.1530, 41.37891
822.2920, 154.7695
823.4310, 52.96875
824.5690, 37.68750
825.7070, 13.61328
826.8460, 32.95312
827.9840, 139.6562
829.1220, 29.74609
830.2590, 155.7969
831.3970, 153.6680
832.5340, 192.2578
833.6710, 204.9727
834.8080, 136.8320
835.9450, 182.2070
837.0820, 240.2344
838.2190, 89.24219
839.3550, 354.2422
840.4910, 188.7773
841.6270, 32.07422
842.7630, 170.9062
843.8990, 91.26953
845.0350, 124.5312
846.1700, 215.1172
847.3060, 46.74609
848.4410, 209.6367
849.5760, 249.8359
850.7100, 109.7031
851.8450, 133.5977
852.9800, 257.9609
854.1140, 241.3086
855.2480, 362.6445
856.3820, 404.9727
857.5160, 336.2891
858.6500, 325.5859
859.7830, 352.8789
860.9170, 308.1562
862.0500, 232.4219
863.1830, 139.6797
864.3160, 288.9219
865.4480, 546.1523
866.5810, 544.4141
867.7130, 750.6680
868.8460, 572.9336
869.9780, 767.1914
871.1100, 570.4297
872.2410, 756.6641
873.3730, 861.8828
874.5050, 914.0898
875.6360, 675.2930
876.7670, 848.4844
877.8980, 788.7344
879.0290, 1090.996
880.1590, 988.2461
881.2900, 1130.484
882.4200, 1241.754
883.5500, 1226.031
884.6800, 1342.543
885.8100, 1501.645
886.9400, 1520.992
888.0690, 1597.316
889.1990, 1813.641
890.3280, 1857.953
891.4570, 1971.301
892.5860, 2063.547
893.7140, 2160.836
894.8430, 2263.109
895.9710, 2408.379
897.1000, 2415.633
898.2280, 2562.879
899.3560, 2725.121
900.4830, 2949.344
901.6110, 2591.562
902.7380, 3032.766
903.8660, 2777.965
904.9930, 3128.152
906.1200, 3176.332
907.2460, 3505.504
908.3730, 3781.680
909.5000, 3630.852
910.6260, 3778.012
911.7520, 3959.160
912.8780, 4079.301
914.0040, 4118.434
915.1290, 4146.562
916.2550, 4295.676
917.3800, 4303.785
918.5050, 4221.883
919.6300, 4108.973
920.7550, 4508.055
921.8800, 4562.125
923.0040, 4488.219
924.1290, 4347.312
925.2530, 4539.391
926.3770, 4830.457
927.5010, 4571.516
928.6250, 4586.172
929.7480, 4484.211
930.8720, 4286.246
931.9950, 4170.234
933.1180, 4067.926
934.2410, 4169.965
935.3640, 4186.000
936.4860, 4039.758
937.6090, 3866.785
938.7310, 3710.738
939.8530, 3737.156
940.9750, 3302.734
942.0970, 3375.266
943.2180, 3197.523
944.3400, 3281.988
945.4610, 2881.273
946.5820, 2877.508
947.7030, 2751.172
948.8240, 2462.527
949.9450, 2701.152
951.0650, 2545.684
952.1860, 2472.660
953.3060, 2097.246
954.4260, 1950.879
955.5460, 2080.438
956.6650, 1635.695
957.7850, 1671.059
958.9040, 1606.355
960.0230, 1342.574
961.1420, 1308.766
962.2610, 1143.246
963.3800, 1388.363
964.4990, 958.5156
965.6170, 805.2109
966.7350, 867.5742
967.8530, 549.5039
968.9710, 711.6367
970.0890, 480.0508
971.2070, 488.8516
972.3240, 541.7266
973.4410, 551.1445
974.5580, 593.1719
975.6750, 317.3711
976.7920, 566.5352
977.9090, 240.4297
979.0250, 337.7852
980.1410, 304.8711
981.2580, 1181.941
982.3740, 244.1992
983.4890, 421.1914
984.6050, 355.0703
985.7200, 122.6250
986.8360, 551.9727
987.9510, 97.81250
989.0660, 592.6641
990.1810, 510.5117
991.2950, 439.3711
992.4100, 435.2227
993.5240, 398.9414
994.6390, 321.9414
995.7530, 411.8086
996.8660, 443.6719
997.9800, 494.9492
999.0940, 607.2305
1000.207, 595.1055
1001.320, 639.9805
1002.433, 715.8867
1003.546, 721.7695
1004.659, 792.6523
1005.772, 1095.535
1006.884, 654.4219
1007.996, 988.3086
1009.108, 813.9961
1010.220, 815.8906
1011.332, 1013.551
1012.444, 965.2930
1013.555, 1220.191
1014.666, 1492.086
1015.777, 1524.781
1016.888, 1336.473
1017.999, 1693.000
1019.110, 1665.898
1020.220, 1403.996
1021.331, 1752.035
1022.441, 1662.930
1023.551, 1830.098
1024.661, 1876.992
1025.770, 2210.188
1026.880, 2127.125
1027.989, 2157.246
1029.098, 2254.148
1030.207, 2263.051
1031.316, 2217.168
1032.425, 1874.074
1033.533, 2165.969
1034.642, 1982.871
1035.750, 1413.770
1036.858, 1702.668
1037.966, 1651.723
1039.073, 1816.844
1040.181, 1659.133
1041.288, 1698.582
1042.396, 1436.445
1043.503, 1515.336
1044.610, 1405.234
1045.716, 1077.129
1046.823, 1102.020
1047.929, 1128.844
1049.036, 851.9258
1050.142, 976.8164
1051.248, 628.7109
1052.353, 739.6016
1053.459, 557.4883
1054.564, 579.3789
1055.670, 850.8008
1056.775, 597.6875
1057.880, 770.5742
1058.985, 681.4609
1060.089, 496.3438
1061.194, 723.2266
1062.298, 674.1133
1063.402, 658.0000
1064.506, 421.8828
1065.610, 535.3008
1066.713, 477.9453
1067.817, 704.8320
1068.920, 601.1719
1070.023, 865.0508
1071.126, 699.9297
1072.229, 605.8203
1073.332, 619.6992
1074.435, 503.5820
1075.537, 372.4727
1076.639, 428.2617
1077.741, 378.1484
1078.843, 579.0469
1079.945, 648.9414
1081.046, 625.8555
1082.148, 453.2461
1083.249, 637.3438
1084.350, 371.2539
1085.451, 623.1875
1086.551, 524.1484
1087.652, 335.1406
1088.752, 385.2148
1089.853, 405.3750
1090.953, 583.5039
1092.053, 895.6289
1093.152, 466.7617
1094.252, 711.9023
1095.351, 649.2461
1096.451, 514.4062
1097.550, 436.5781
1098.649, 483.7539
1099.748, 356.9805
1100.846, 353.2656
1101.945, 365.6133
1103.043, 313.0039
1104.141, 339.5000
1105.239, 199.8906
1106.337, 18.27734
1107.434, 283.6680
1108.532, 86.11328
1109.629, 24.56250
1110.726, 228.0078
1111.823, 116.4883
1112.920, 362.0078
1114.017, 71.52344
1115.113, 208.0469
1116.210, 517.6289
1117.306, 713.2148
1118.402, 572.9102
1119.498, 403.5273
1120.593, 855.1484
1121.689, 750.7656
1122.784, 749.3828
1123.879, 847.9961
1124.974, 687.6055
1126.069, 502.2188
1127.164, 363.8320
1128.259, 146.4414
1129.353, 444.0469
1130.447, 277.6562
1131.541, 157.7383
1132.635, 151.7773
1133.729, 77.70312
1134.822, 67.76562
1135.916, 75.23047
1137.009, 128.6992
1138.102, 212.1641
1139.195, 319.6289
1140.288, 3.910156
1141.380, 299.5391
1142.473, 246.0156
1143.565, 87.69922
1144.657, 275.5586
1145.749, 270.8125
1146.841, 117.9297
1147.932, 85.74609
1149.024, 162.6211
1150.115, 350.6133
1151.206, 171.3516
1152.297, 45.57812
1153.388, 307.5117
1154.479, 15.44141
1155.569, 138.3672
1156.659, 10.70703
1157.750, 71.49219
1158.839, 27.40234
1159.929, 254.8711
1161.019, 174.7773
1162.108, 31.67188
1163.198, 230.5625
1164.287, 154.5938
1165.376, 178.4805
1166.465, 232.3672
1167.553, 102.2461
1168.642, 48.13281
1169.730, 32.00781
1170.818, 10.35156
1171.906, 13.25000
1172.994, 2.406250
1174.082, 239.4219
1175.170, 287.2500
1176.257, 505.0781
1177.344, 172.9023
1178.431, 1.281250
1179.518, 43.53516
1180.605, 181.3477
1181.691, 437.1562
1182.778, 325.9609
1183.864, 185.7656
1184.950, 135.5703
1186.036, 124.6289
1187.122, 396.0977
1188.207, 371.8203
1189.292, 197.5547
1190.378, 190.2773
1191.463, 150.0156
1192.548, 192.7500
1193.632, 148.4883
1194.717, 278.2188
1195.801, 140.0547
1196.886, 15.41016
1197.970, 262.2148
1199.054, 27.16406
1200.137, 131.4727
1201.221, 163.1094
1202.305, 93.73438
1203.388, 409.3633
1204.471, 352.9883
1205.554, 315.6094
1206.637, 81.76562
1207.719, 363.8008
1208.802, 507.3711
1209.884, 148.9375
1210.966, 382.5039
1212.048, 122.9297
1213.130, 54.55469
1214.212, 147.0430
1215.293, 341.5234
1216.374, 228.0117
1217.456, 334.5078
1218.536, 414.9961
1219.617, 80.48438
1220.698, 106.9648
1221.778, 313.4492
1222.859, 638.9336
1223.939, 374.4141
1225.019, 57.89062
1226.099, 618.3672
1227.178, 384.8438
1228.258, 218.3125
1229.337, 507.8242
1230.417, 349.3281
1231.496, 461.8320
1232.574, 520.3789
1233.653, 4.082031
1234.732, 286.4414
1235.810, 644.9609
1236.888, 269.3359
1237.966, 269.8477
1239.044, 115.3594
1240.122, 305.7461
1241.199, 316.2500
1242.277, 370.7578
1243.354, 443.2578
1244.431, 585.7578
1245.508, 224.2461
1246.585, 108.7305
1247.661, 476.2188
1248.738, 374.7188
1249.814, 514.2227
1250.890, 285.7188
1251.966, 385.2227
1253.042, 658.7148
1254.117, 557.2031
1255.193, 509.6953
1256.268, 378.1758
1257.343, 375.6523
1258.418, 303.1211
1259.493, 353.6172
1260.567, 501.1055
1261.642, 253.5898
1262.716, 477.0664
1263.790, 232.5156
1264.864, 527.9805
1265.938, 437.4414
1267.011, 420.9023
1268.085, 346.3555
1269.158, 297.8086
1270.231, 353.4531
1271.304, 633.8906
1272.377, 106.6719
1273.450, 197.2500
1274.522, 524.6758
1275.594, 423.1016
1276.666, 150.7227
1277.738, 80.33984
1278.810, 17.12500
1279.882, 122.5273
1280.953, 67.73047
1282.025, 185.9844
1283.096, 157.5508
1284.167, 278.7812
1285.238, 85.17188
1286.308, 2.742188
1287.379, 68.59766
1288.449, 42.25391
1289.519, 273.1016
1290.589, 115.4492
