##NAMES=Astrophyllite
##RRUFFID=R060103
##IDEAL CHEMISTRY=K_2_NaFe^2+^_7_Ti^4+^_2_(Si_4_O_12_)_2_O_2_(OH)_4_F
##LOCALITY=Brivik, Norway
##OWNER=RRUFF
##SOURCE=University of Arizona Mineral Museum
##DESCRIPTION=Brown fragment embedded in matrix
##STATUS=The identification of this mineral is confirmed by single-crystal X-ray diffraction and chemical analysis.
##URL=rruff.info/R060103
##MEASURED CHEMISTRY=K_2.00_Na_1.00_(Fe^2+^_0.55_Mn_0.32_Fe^3+^_0.04_Mg_0.04_Ca_0.04_)_7_(Ti_0.66_Zr_0.18_Al_0.16_)_2_Si_8.00_O_26_(OH)_4_F_1.00_
##PIN_ID=M01746
##ORIENTATION=Laser parallel to a* (1 0 0). Fiducial mark perpendicular to laser is parallel to b [0 1 0]
150.1650, 0.0000000E+00
151.3980, 6.472656
152.6310, 98.51855
153.8640, 228.0547
155.0960, 620.2568
156.3280, 776.1260
157.5600, 1092.983
158.7920, 1657.076
160.0240, 2112.455
161.2560, 2500.522
162.4870, 3186.763
163.7180, 3877.150
164.9490, 4715.057
166.1800, 5277.150
167.4110, 5675.962
168.6410, 6135.152
169.8720, 6576.381
171.1020, 6879.356
172.3320, 6845.924
173.5620, 6303.521
174.7910, 5998.646
176.0210, 5572.471
177.2500, 4927.447
178.4790, 4403.969
179.7080, 3648.493
180.9370, 2970.035
182.1650, 2353.857
183.3940, 1922.500
184.6220, 1322.671
185.8500, 1091.669
187.0780, 715.9736
188.3050, 547.5723
189.5330, 435.4258
190.7600, 55.49609
191.9870, 7.796875
193.2140, 11.26758
194.4410, 59.15625
195.6680, 36.52441
196.8940, 109.8594
198.1200, 1.179688
199.3470, 26.50684
200.5720, 170.7705
201.7980, 292.1416
203.0240, 183.5820
204.2490, 162.2549
205.4740, 101.5566
206.6990, 46.82031
207.9240, 85.16211
209.1490, 295.4570
210.3740, 240.8594
211.5980, 393.5977
212.8220, 658.0957
214.0460, 567.9365
215.2700, 829.4941
216.4930, 769.7500
217.7170, 989.1250
218.9400, 1008.355
220.1630, 959.5781
221.3860, 1053.923
222.6090, 1022.336
223.8320, 917.7031
225.0540, 908.9453
226.2760, 861.9502
227.4980, 637.7441
228.7200, 747.4189
229.9420, 833.2393
231.1630, 525.8223
232.3850, 588.7412
233.6060, 630.2090
234.8270, 571.1289
236.0480, 393.1582
237.2690, 283.3701
238.4890, 306.8193
239.7090, 308.1045
240.9290, 383.2236
242.1490, 324.1709
243.3690, 69.95898
244.5890, 187.5859
245.8080, 140.0508
247.0270, 223.3164
248.2470, 222.4014
249.4650, 38.32422
250.6840, 18.91406
251.9030, 65.68262
253.1210, 2.079102
254.3390, 104.1387
255.5570, 155.1270
256.7750, 153.9619
257.9930, 61.09277
259.2100, 4.320313
260.4280, 40.07910
261.6450, 87.05859
262.8620, 23.35938
264.0790, 150.7227
265.2950, 38.85352
266.5120, 38.49219
267.7280, 16.26270
268.9440, 38.71777
270.1600, 57.13379
271.3760, 39.07617
272.5920, 75.46191
273.8070, 16.87109
275.0220, 90.04590
276.2370, 3.081055
277.4520, 93.40918
278.6670, 6.108398
279.8820, 13.73438
281.0960, 55.63672
282.3100, 19.04395
283.5240, 193.7031
284.7380, 113.8018
285.9520, 75.94141
287.1650, 65.08398
288.3780, 63.67773
289.5920, 86.38086
290.8050, 172.9277
292.0170, 86.75195
293.2300, 86.68945
294.4430, 169.3574
295.6550, 157.3037
296.8670, 278.0186
298.0790, 199.6602
299.2910, 418.8672
300.5020, 225.8867
301.7140, 197.0293
302.9250, 308.0098
304.1360, 362.4160
305.3470, 238.6748
306.5580, 251.6895
307.7680, 334.5781
308.9780, 290.3223
310.1890, 333.4336
311.3990, 326.5312
312.6090, 181.8130
313.8180, 304.6450
315.0280, 210.3892
316.2370, 332.9385
317.4460, 310.4512
318.6550, 305.8857
319.8640, 379.0752
321.0730, 360.2954
322.2810, 418.1733
323.4890, 317.1104
324.6980, 530.4497
325.9060, 479.7168
327.1130, 573.2168
328.3210, 523.2715
329.5280, 687.2310
330.7360, 570.9756
331.9430, 777.4639
333.1500, 798.1709
334.3560, 838.9531
335.5630, 901.3735
336.7690, 1155.017
337.9760, 1136.519
339.1820, 1314.053
340.3870, 1339.083
341.5930, 1412.228
342.7990, 1577.690
344.0040, 1650.649
345.2090, 1760.661
346.4140, 1797.348
347.6190, 1778.591
348.8240, 1806.988
350.0280, 1652.285
351.2330, 1809.898
352.4370, 1725.085
353.6410, 1603.995
354.8440, 1657.076
356.0480, 1567.096
357.2520, 1472.539
358.4550, 1487.859
359.6580, 1330.031
360.8610, 1322.342
362.0640, 1094.700
363.2660, 1226.530
364.4690, 1053.472
365.6710, 1019.828
366.8730, 969.9062
368.0750, 858.1172
369.2770, 957.7129
370.4780, 714.1294
371.6800, 956.0835
372.8810, 856.1616
374.0820, 783.7090
375.2830, 696.0234
376.4830, 693.4692
377.6840, 743.4248
378.8840, 634.3311
380.0840, 685.1182
381.2840, 646.0459
382.4840, 596.0820
383.6840, 610.1270
384.8830, 533.8481
386.0830, 560.8906
387.2820, 518.3521
388.4810, 572.3145
389.6800, 508.4043
390.8780, 490.8379
392.0770, 456.8247
393.2750, 433.6519
394.4730, 385.8623
395.6710, 370.7246
396.8690, 389.6543
398.0660, 256.7891
399.2640, 273.4346
400.4610, 192.9355
401.6580, 129.2871
402.8550, 64.39258
404.0520, 61.93506
405.2490, 0.5439450
406.4450, 22.13770
407.6410, 11.71338
408.8370, 133.9561
410.0330, 64.15430
411.2290, 36.44189
412.4240, 44.07715
413.6200, 67.91016
414.8150, 33.80615
416.0100, 34.68262
417.2050, 117.2471
418.4000, 15.27539
419.5940, 87.29004
420.7880, 50.91357
421.9830, 47.06104
423.1770, 65.70117
424.3700, 100.5713
425.5640, 66.48779
426.7580, 135.7129
427.9510, 88.49658
429.1440, 50.05811
430.3370, 77.36279
431.5300, 43.69043
432.7220, 55.51562
433.9150, 152.9521
435.1070, 135.4897
436.2990, 7.540039
437.4910, 131.9907
438.6830, 48.48682
439.8750, 32.41162
441.0660, 59.24414
442.2570, 70.48975
443.4480, 59.75537
444.6390, 45.55420
445.8300, 84.54199
447.0210, 74.74072
448.2110, 125.7832
449.4010, 93.40283
450.5910, 154.8955
451.7810, 104.5059
452.9710, 51.81787
454.1610, 135.1162
455.3500, 201.2183
456.5390, 248.5518
457.7280, 251.2505
458.9170, 275.5830
460.1060, 268.9199
461.2940, 262.1924
462.4830, 280.2964
463.6710, 250.5605
464.8590, 311.5991
466.0470, 275.6426
467.2350, 394.2124
468.4220, 385.0195
469.6090, 301.7119
470.7970, 380.2856
471.9840, 373.7461
473.1700, 395.0928
474.3570, 425.3276
475.5440, 341.4517
476.7300, 291.4634
477.9160, 345.3623
479.1020, 259.1494
480.2880, 259.8247
481.4740, 218.3872
482.6590, 281.8369
483.8440, 342.1826
485.0300, 242.4248
486.2140, 211.5688
487.3990, 315.6045
488.5840, 210.5361
489.7680, 279.3608
490.9530, 208.0815
492.1370, 187.6963
493.3210, 308.2051
494.5040, 123.6138
495.6880, 128.9170
496.8720, 70.11572
498.0550, 251.2085
499.2380, 116.2031
500.4210, 110.0972
501.6040, 108.8906
502.7860, 48.58398
503.9690, 15.17529
505.1510, 59.66406
506.3330, 21.05469
507.5150, 17.65527
508.6970, 61.47119
509.8780, 35.58691
511.0600, 11.44922
512.2410, 113.5864
513.4220, 206.8696
514.6030, 102.3457
515.7840, 114.9570
516.9640, 38.70801
518.1440, 123.5605
519.3250, 232.5527
520.5050, 73.73926
521.6850, 7.034668
522.8640, 120.4180
524.0440, 238.9292
525.2230, 132.8511
526.4020, 164.8701
527.5820, 15.38574
528.7600, 78.87891
529.9390, 30.66064
531.1180, 37.69189
532.2960, 21.30225
533.4740, 90.45605
534.6520, 91.85938
535.8300, 145.5347
537.0080, 60.53418
538.1850, 143.3506
539.3630, 85.25488
540.5400, 185.6226
541.7170, 254.2046
542.8940, 320.1001
544.0700, 469.0093
545.2470, 411.3174
546.4230, 603.5020
547.5990, 625.3999
548.7750, 825.0430
549.9510, 996.3242
551.1270, 1312.237
552.3020, 1406.623
553.4780, 1606.574
554.6530, 1784.976
555.8280, 1873.334
557.0030, 2069.979
558.1770, 2157.578
559.3520, 2201.803
560.5260, 2198.661
561.7000, 2134.850
562.8740, 2044.537
564.0480, 1877.069
565.2220, 1763.522
566.3950, 1688.400
567.5680, 1467.176
568.7420, 1168.292
569.9150, 1169.028
571.0870, 971.2563
572.2600, 1026.674
573.4320, 917.5801
574.6050, 747.0430
575.7770, 644.5166
576.9490, 525.1826
578.1210, 489.9746
579.2920, 445.5322
580.4640, 492.5557
581.6350, 403.1807
582.8060, 516.2676
583.9770, 442.8193
585.1480, 556.1914
586.3190, 590.9297
587.4890, 518.2119
588.6590, 665.3838
589.8290, 801.9600
590.9990, 702.9912
592.1690, 872.3379
593.3390, 1035.955
594.5080, 1087.282
595.6770, 1163.687
596.8470, 1220.610
598.0160, 1187.769
599.1840, 1277.668
600.3530, 1196.769
601.5210, 1212.911
602.6900, 1498.084
603.8580, 1469.393
605.0260, 1469.625
606.1930, 1472.146
607.3610, 1518.551
608.5280, 1659.487
609.6960, 1704.419
610.8630, 1773.247
612.0300, 1817.021
613.1970, 1888.015
614.3630, 2043.137
615.5300, 2115.424
616.6960, 2273.400
617.8620, 2320.211
619.0280, 2412.288
620.1940, 2515.049
621.3590, 2638.855
622.5250, 2554.534
623.6900, 2759.526
624.8550, 2809.817
626.0200, 2973.739
627.1850, 3042.581
628.3490, 3186.909
629.5140, 3393.849
630.6780, 3396.127
631.8420, 3540.160
633.0060, 3736.163
634.1700, 4010.724
635.3330, 4045.568
636.4970, 4442.492
637.6600, 4617.131
638.8230, 4821.680
639.9860, 4976.729
641.1490, 5440.809
642.3110, 5581.945
643.4740, 6085.822
644.6360, 6414.507
645.7980, 6482.625
646.9600, 6960.536
648.1220, 7602.873
649.2840, 8000.389
650.4450, 8541.674
651.6060, 8987.477
652.7670, 9354.354
653.9280, 9647.595
655.0890, 9781.613
656.2500, 9713.065
657.4100, 9441.654
658.5700, 9337.019
659.7300, 8982.771
660.8900, 8613.476
662.0500, 8211.208
663.2100, 7799.707
664.3690, 7594.008
665.5280, 7459.211
666.6880, 7447.656
667.8460, 7571.695
669.0050, 7281.230
670.1640, 7542.186
671.3220, 7747.928
672.4810, 7750.250
673.6390, 8283.938
674.7970, 8565.708
675.9540, 8783.019
677.1120, 9205.341
678.2690, 9411.782
679.4270, 9898.287
680.5840, 10300.87
681.7410, 10707.51
682.8980, 11163.24
684.0540, 11587.06
685.2110, 12058.98
686.3670, 12614.00
687.5230, 13118.13
688.6790, 13542.38
689.8350, 13967.96
690.9900, 14400.27
692.1460, 14727.92
693.3010, 15163.67
694.4560, 15595.55
695.6110, 15770.56
696.7660, 16227.69
697.9210, 16415.95
699.0750, 17196.29
700.2290, 17389.75
701.3840, 17765.32
702.5370, 17848.96
703.6910, 18173.73
704.8450, 18465.59
705.9980, 18837.54
707.1520, 19053.59
708.3050, 19184.72
709.4580, 19393.95
710.6110, 19581.28
711.7630, 19476.62
712.9160, 19513.52
714.0680, 19474.82
715.2200, 19583.15
716.3720, 19504.19
717.5240, 19159.76
718.6760, 19191.70
719.8270, 18971.81
720.9780, 18542.01
722.1300, 18364.96
723.2810, 18061.28
724.4310, 17664.86
725.5820, 17183.48
726.7330, 16656.40
727.8830, 16305.03
729.0330, 15878.52
730.1830, 15449.50
731.3330, 14778.94
732.4830, 14492.02
733.6320, 13924.02
734.7810, 13644.31
735.9310, 13220.21
737.0800, 12790.91
738.2290, 12399.50
739.3770, 12024.14
740.5260, 11650.34
741.6740, 11331.12
742.8220, 11003.30
743.9700, 10788.35
745.1180, 10600.49
746.2660, 10500.66
747.4130, 10159.88
748.5610, 9965.169
749.7080, 9847.623
750.8550, 9828.921
752.0020, 9706.384
753.1490, 9742.908
754.2950, 9670.610
755.4420, 9694.135
756.5880, 9612.837
757.7340, 9522.601
758.8800, 9544.425
760.0250, 9257.312
761.1710, 9015.258
762.3160, 9009.268
763.4620, 8821.141
764.6070, 8756.472
765.7520, 8641.663
766.8960, 8519.915
768.0410, 8380.233
769.1850, 8174.607
770.3300, 8063.047
771.4740, 7783.547
772.6180, 7700.895
773.7610, 7549.727
774.9050, 7481.414
776.0480, 7353.164
777.1920, 7241.975
778.3350, 7144.849
779.4780, 6976.783
780.6200, 6834.782
781.7630, 6778.845
782.9060, 6721.973
784.0480, 6815.162
785.1900, 6558.416
786.3320, 6613.738
787.4740, 6518.137
788.6150, 6336.600
789.7570, 6167.125
790.8980, 6008.872
792.0390, 5852.470
793.1800, 5646.281
794.3210, 5366.178
795.4620, 5168.394
796.6020, 5245.195
797.7420, 4796.361
798.8830, 4786.599
800.0230, 4648.898
801.1620, 4363.281
802.3020, 4127.775
803.4420, 3842.353
804.5810, 3818.021
805.7200, 3618.751
806.8590, 3336.550
807.9980, 3026.409
809.1370, 2928.326
810.2750, 2588.303
811.4140, 2546.347
812.5520, 2463.458
813.6900, 2217.623
814.8280, 2010.845
815.9650, 2042.119
817.1030, 1871.447
818.2400, 1630.827
819.3780, 1625.261
820.5150, 1481.748
821.6520, 1341.287
822.7880, 1354.877
823.9250, 1217.518
825.0610, 1214.210
826.1980, 1069.953
827.3340, 1101.745
828.4700, 978.5859
829.6050, 1061.477
830.7410, 910.0039
831.8760, 756.4004
833.0120, 718.4316
834.1470, 640.5098
835.2820, 551.9141
836.4160, 527.8037
837.5510, 400.0166
838.6860, 381.2744
839.8200, 289.5771
840.9540, 251.9219
842.0880, 162.3096
843.2220, 87.74023
844.3550, 236.2119
845.4890, 57.72656
846.6220, 82.28125
847.7550, 36.12402
848.8880, 65.51172
850.0210, 222.8975
851.1540, 65.35156
852.2860, 32.80371
853.4190, 101.2441
854.5510, 179.7012
855.6830, 123.2139
856.8150, 157.7559
857.9460, 241.3447
859.0780, 115.0205
860.2090, 244.7266
861.3410, 260.5234
862.4720, 331.4189
863.6020, 323.4521
864.7330, 318.0303
865.8640, 374.9131
866.9940, 277.3682
868.1240, 159.9365
869.2540, 155.5635
870.3840, 284.2500
871.5140, 149.0547
872.6440, 179.9170
873.7730, 120.8457
874.9020, 137.8213
876.0320, 85.84473
877.1600, 83.86719
878.2890, 31.90625
879.4180, 54.06543
880.5460, 50.10645
881.6750, 102.3203
882.8030, 78.40820
883.9310, 161.6484
885.0590, 176.9238
886.1860, 221.2383
887.3140, 169.6055
888.4410, 151.0117
889.5680, 340.4590
890.6950, 249.9355
891.8220, 382.4648
892.9490, 357.0361
894.0750, 380.6484
895.2020, 452.3105
896.3280, 585.0117
897.4540, 409.7598
898.5800, 600.5469
899.7050, 591.3652
900.8310, 580.2139
901.9560, 758.0986
903.0820, 735.0205
904.2070, 1056.980
905.3320, 997.3291
906.4560, 985.0352
907.5810, 1026.129
908.7050, 925.2588
909.8300, 1008.433
910.9540, 1216.628
912.0780, 1178.986
913.2010, 1279.851
914.3250, 1348.485
915.4480, 1386.360
916.5720, 1312.655
917.6950, 1374.478
918.8180, 1376.749
919.9410, 1372.999
921.0630, 1443.216
922.1860, 1366.521
923.3080, 1337.152
924.4300, 1385.580
925.5520, 1483.024
926.6740, 1510.484
927.7960, 1409.961
928.9170, 1512.451
930.0390, 1462.956
931.1600, 1502.477
932.2810, 1508.305
933.4020, 1384.565
934.5230, 1472.141
935.6430, 1386.739
936.7640, 1305.354
937.8840, 1200.002
939.0040, 1336.674
940.1240, 1373.361
941.2440, 1329.085
942.3630, 1251.843
943.4830, 1355.614
944.6020, 1370.398
945.7210, 1390.195
946.8400, 1449.999
947.9590, 1463.819
949.0770, 1367.647
950.1960, 1415.484
951.3140, 1386.327
952.4320, 1401.178
953.5500, 1389.035
954.6680, 1318.898
955.7860, 1337.768
956.9030, 1281.643
958.0210, 1143.523
959.1380, 1166.409
960.2550, 1267.300
961.3720, 1145.193
962.4890, 1127.094
963.6050, 1023.996
964.7220, 1030.672
965.8380, 1129.813
966.9540, 1087.728
968.0700, 1167.984
969.1860, 1187.383
970.3010, 1258.483
971.4170, 1250.406
972.5320, 1242.331
973.6470, 1297.256
974.7620, 1307.183
975.8770, 1466.111
976.9910, 1437.040
978.1060, 1416.969
979.2200, 1605.896
980.3340, 1641.824
981.4480, 1509.753
982.5620, 1733.768
983.6760, 1779.350
984.7890, 1930.642
985.9030, 2074.064
987.0160, 2109.924
988.1290, 2225.363
989.2420, 2468.569
990.3550, 2656.730
991.4670, 2799.924
992.5800, 3100.472
993.6920, 3209.795
994.8040, 3533.971
995.9160, 3790.197
997.0280, 4075.220
998.1390, 4273.612
999.2510, 4507.231
1000.362, 5062.863
1001.473, 5297.704
1002.584, 5938.970
1003.695, 6351.419
1004.805, 6719.649
1005.916, 7359.861
1007.026, 7683.711
1008.136, 8520.039
1009.246, 9166.960
1010.356, 9767.118
1011.466, 10748.79
1012.576, 11747.52
1013.685, 12642.17
1014.794, 13646.54
1015.903, 14928.66
1017.012, 16079.87
1018.121, 17199.11
1019.229, 18442.90
1020.338, 19673.08
1021.446, 20577.29
1022.554, 22106.71
1023.662, 22798.57
1024.770, 23803.57
1025.878, 24711.20
1026.985, 25482.83
1028.092, 26198.61
1029.200, 26646.65
1030.307, 27058.59
1031.413, 27399.05
1032.520, 27136.64
1033.627, 26841.19
1034.733, 26598.16
1035.839, 26181.14
1036.945, 25239.59
1038.051, 24311.16
1039.157, 23503.19
1040.262, 22310.02
1041.368, 21503.76
1042.473, 20077.54
1043.578, 18805.21
1044.683, 17769.66
1045.788, 16494.05
1046.893, 15402.36
1047.997, 14116.62
1049.101, 12818.77
1050.205, 11860.88
1051.309, 10886.98
1052.413, 10113.08
1053.517, 9161.168
1054.621, 8280.258
1055.724, 7701.340
1056.827, 7023.417
1057.930, 6535.486
1059.033, 6147.549
1060.136, 5667.611
1061.238, 5315.128
1062.341, 5061.887
1063.443, 4674.275
1064.545, 4425.750
1065.647, 4234.932
1066.749, 3997.530
1067.850, 3850.790
1068.952, 3778.646
1070.053, 3569.764
1071.154, 3595.594
1072.255, 3329.735
1073.356, 3149.314
1074.457, 3299.189
1075.557, 2993.851
1076.658, 3208.841
1077.758, 2980.171
1078.858, 2864.434
1079.958, 2742.135
1081.057, 2750.098
1082.157, 2661.152
1083.256, 2615.565
1084.356, 2581.929
1085.455, 2543.850
1086.554, 2498.761
1087.653, 2498.657
1088.751, 2372.541
1089.850, 2279.412
1090.948, 2419.272
1092.046, 2174.118
1093.144, 2266.953
1094.242, 2199.771
1095.340, 2062.576
1096.437, 2146.369
1097.534, 1934.150
1098.632, 1896.926
1099.729, 1774.689
1100.826, 1676.409
1101.922, 1717.176
1103.019, 1548.897
1104.115, 1666.604
1105.212, 1685.297
1106.308, 1536.978
1107.404, 1475.646
1108.499, 1370.299
1109.595, 1452.936
1110.691, 1378.559
1111.786, 1173.165
1112.881, 1175.760
1113.976, 994.3428
1115.071, 858.9258
1116.166, 771.5107
1117.260, 770.1328
1118.355, 545.7578
1119.449, 532.3779
1120.543, 404.0068
1121.637, 386.6650
1122.731, 253.3457
1123.824, 209.0518
1124.918, 157.7998
1126.011, 99.21191
1127.104, 111.3818
1128.197, 62.24316
1129.290, 77.16992
1130.382, 67.34277
1131.475, 14.21973
1132.567, 69.34863
1133.659, 82.53320
1134.751, 95.74316
1135.843, 99.97949
1136.935, 97.36328
1138.027, 27.58789
1139.118, 44.93066
1140.209, 12.28906
1141.300, 94.11914
1142.391, 20.61816
1143.482, 42.31836
1144.573, 130.0605
1145.663, 172.9043
1146.754, 119.8750
1147.844, 72.49414
1148.934, 8.505859
1150.024, 16.67676
1151.113, 69.63672
1152.203, 5.942383
1153.292, 24.29297
1154.381, 33.30176
1155.470, 64.13281
1156.559, 25.62695
1157.648, 25.19238
1158.737, 58.81445
1159.825, 14.51074
1160.913, 44.25781
1162.001, 20.06934
1163.089, 12.06152
1164.177, 14.15527
1165.265, 10.74805
1166.352, 10.74316
1167.440, 17.39844
1168.527, 66.88477
1169.614, 10.06738
1170.701, 54.28027
1171.788, 20.58984
1172.874, 36.95508
1173.961, 72.61230
1175.047, 93.29004
1176.133, 28.79980
1177.219, 113.2744
1178.305, 122.0459
1179.390, 151.4648
1180.476, 187.8604
1181.561, 247.2305
1182.646, 217.8223
1183.731, 206.1846
1184.816, 233.6367
1185.901, 388.9043
1186.985, 370.2646
1188.070, 352.4814
1189.154, 288.6738
1190.238, 244.4697
1191.322, 137.8896
1192.406, 182.5518
1193.489, 114.9248
1194.573, 105.7451
1195.656, 150.3516
1196.739, 3.542969
1197.822, 9.717773
1198.905, 76.00293
1199.988, 34.70020
1201.070, 2.039063
1202.153, 57.21191
1203.235, 41.50195
1204.317, 44.75098
1205.399, 96.12207
1206.481, 70.08301
1207.562, 138.9922
1208.644, 147.4570
1209.725, 35.87500
1210.806, 316.7734
1211.887, 232.6250
1212.968, 315.9434
1214.049, 457.0791
1215.129, 298.5566
1216.209, 338.9561
1217.290, 347.1621
1218.370, 339.3408
1219.450, 425.7080
1220.529, 364.0459
1221.609, 512.1406
1222.688, 417.4561
1223.768, 461.4941
1224.847, 367.6631
1225.926, 617.6631
1227.005, 537.1191
1228.083, 517.2734
1229.162, 435.6270
1230.240, 422.0566
1231.318, 402.7539
1232.396, 387.6387
1233.474, 414.5420
1234.552, 392.4189
1235.629, 463.2559
1236.707, 388.2295
1237.784, 333.8965
1238.861, 499.7646
1239.938, 458.4287
1241.015, 308.4971
1242.092, 542.4854
1243.168, 394.3672
1244.244, 509.7266
1245.321, 518.1943
1246.397, 406.6572
1247.473, 473.0674
1248.548, 512.4482
1249.624, 541.7988
1250.699, 599.1221
1251.775, 662.0146
1252.850, 506.2773
1253.925, 522.8291
1254.999, 558.9678
1256.074, 619.1406
1257.148, 548.2832
1258.223, 503.3936
1259.297, 604.5430
1260.371, 506.9658
1261.445, 399.5576
1262.519, 398.5820
1263.592, 326.6416
1264.666, 368.5693
1265.739, 362.7422
1266.812, 271.7949
1267.885, 303.2393
1268.958, 272.8555
1270.030, 211.8809
1271.103, 214.4414
1272.175, 371.5107
1273.247, 279.1338
1274.319, 340.1650
1275.391, 306.4268
1276.463, 125.9385
1277.535, 185.3467
1278.606, 259.6934
1279.677, 153.4580
1280.748, 212.8262
1281.819, 305.1230
1282.890, 215.1992
1283.961, 285.8320
1285.031, 200.2734
1286.102, 358.0674
1287.172, 287.4551
1288.242, 358.4102
1289.312, 250.7139
1290.381, 235.0908
1291.451, 272.9326
1292.520, 218.6123
1293.590, 173.3115
1294.659, 308.5732
1295.728, 177.7803
1296.797, 284.5146
1297.865, 315.0898
1298.934, 163.1797
1300.002, 168.4434
1301.070, 248.7734
1302.138, 240.0283
1303.206, 122.3799
1304.274, 316.9082
1305.341, 187.4785
1306.409, 77.10254
1307.476, 189.7393
1308.543, 286.4688
1309.610, 287.2070
1310.677, 94.92480
1311.744, 143.6162
1312.810, 116.2822
1313.877, 170.9268
1314.943, 125.5479
1316.009, 153.1455
