##NAMES=Astrophyllite
##RRUFFID=R060202
##IDEAL CHEMISTRY=K_2_NaFe^2+^_7_Ti^4+^_2_(Si_4_O_12_)_2_O_2_(OH)_4_F
##LOCALITY=Demix Quarry, Mont Saint-Hilaire, Rouville County, Quebec, Canada
##OWNER=RRUFF
##SOURCE=Royal Ontario Museum
##DESCRIPTION=Aggregate of brown splintered wafers
##STATUS=The identification of this mineral has been confirmed by X-ray diffraction and chemical analysis
##URL=rruff.info/R060202
##MEASURED CHEMISTRY=(K_0.56_Na_0.38_Ca_0.06_)_3_(Fe^2+^_0.52_Mn_0.44_Mg_0.04_)_7_(Ti_0.75_Zr_0.15_Al_0.15_)_2_Si_8_O_24_(O_0.27_OH_0.73_)_7_
##PIN_ID=M00255
##ORIENTATION=Laser parallel to (0 1 1). Fiducial mark perpendicular to laser is parallel to a [1 0 0]
83.60200, 0.0000000E+00
84.83700, 385.0195
86.07200, 1000.611
87.30800, 1197.842
88.54200, 1412.402
89.77700, 1755.658
91.01200, 1794.525
92.24600, 1943.633
93.48000, 1931.662
94.71400, 1910.475
95.94800, 1548.850
97.18200, 1759.256
98.41600, 1505.184
99.64900, 1402.176
100.8830, 1388.449
102.1160, 1222.475
103.3490, 697.4688
104.5820, 543.7539
105.8150, 607.7402
107.0470, 710.9316
108.2800, 903.9062
109.5120, 1346.352
110.7440, 1677.846
111.9760, 504.6895
113.2080, 161.5059
114.4400, 57.99023
115.6710, 954.9902
116.9030, 2819.219
118.1340, 2618.506
119.3650, 2313.682
120.5960, 1719.594
121.8270, 1256.064
123.0580, 983.9336
124.2880, 1163.080
125.5190, 1342.406
126.7490, 1278.832
127.9790, 1236.283
129.2090, 1094.697
130.4390, 1049.021
131.6680, 941.2012
132.8980, 559.1973
134.1270, 252.3242
135.3560, 145.1426
136.5850, 47.50586
137.8140, 0.4570310
139.0430, 117.7930
140.2710, 248.0684
141.5000, 229.3926
142.7280, 331.3027
143.9560, 245.6387
145.1840, 474.3691
146.4120, 567.4785
147.6390, 745.9414
148.8670, 615.7402
150.0940, 524.8555
151.3210, 705.2617
152.5490, 966.9492
153.7750, 1551.895
155.0020, 1725.090
156.2290, 1974.539
157.4550, 2249.068
158.6810, 2609.281
159.9080, 3140.350
161.1340, 3858.365
162.3590, 4210.396
163.5850, 4719.488
164.8110, 5017.672
166.0360, 5210.971
167.2610, 5413.406
168.4860, 5451.986
169.7110, 5476.729
170.9360, 5464.637
172.1610, 4898.703
173.3850, 4568.930
174.6100, 3945.332
175.8340, 3685.910
177.0580, 3443.666
178.2820, 2684.598
179.5050, 2529.699
180.7290, 2149.973
181.9520, 2030.428
183.1760, 1882.900
184.3990, 1700.271
185.6220, 1715.738
186.8450, 1913.906
188.0670, 1640.199
189.2900, 1841.600
190.5120, 2145.791
191.7340, 2115.523
192.9560, 2481.918
194.1780, 2617.436
195.4000, 3157.734
196.6220, 3498.857
197.8430, 3910.766
199.0640, 4208.750
200.2860, 4443.461
201.5070, 4688.176
202.7270, 5202.912
203.9480, 5184.668
205.1690, 5099.445
206.3890, 4402.234
207.6090, 4284.035
208.8290, 4324.838
210.0490, 4473.643
211.2690, 4326.441
212.4890, 4639.221
213.7080, 5067.988
214.9280, 5264.730
216.1470, 5404.449
217.3660, 5854.139
218.5850, 6114.797
219.8030, 6401.426
221.0220, 6822.031
222.2400, 7001.621
223.4590, 7220.191
224.6770, 7869.789
225.8950, 8820.570
227.1120, 8830.633
228.3300, 9385.879
229.5480, 9563.367
230.7650, 9862.008
231.9820, 9897.129
233.1990, 10497.52
234.4160, 10481.66
235.6330, 10799.15
236.8490, 10754.78
238.0660, 10729.36
239.2820, 10667.77
240.4980, 10352.94
241.7140, 9687.738
242.9300, 9290.086
244.1460, 8743.943
245.3610, 7959.193
246.5770, 7333.844
247.7920, 6720.879
249.0070, 6283.268
250.2220, 5403.982
251.4370, 4911.996
252.6510, 4400.287
253.8660, 4068.836
255.0800, 3878.621
256.2940, 3034.629
257.5080, 2936.836
258.7220, 2521.232
259.9360, 2817.383
261.1490, 2679.766
262.3630, 2138.656
263.5760, 1719.688
264.7890, 1562.855
266.0020, 1356.141
267.2150, 1080.541
268.4270, 1159.047
269.6400, 942.6523
270.8520, 785.3535
272.0640, 658.1406
273.2760, 551.0078
274.4880, 536.9512
275.7000, 154.9668
276.9120, 193.0488
278.1230, 73.19336
279.3340, 277.9199
280.5450, 56.48047
281.7560, 88.90234
282.9670, 278.2148
284.1780, 108.9277
285.3880, 238.2168
286.5980, 155.7812
287.8090, 171.7578
289.0190, 158.1270
290.2290, 155.4336
291.4380, 123.9355
292.6480, 170.0195
293.8570, 165.1406
295.0670, 20.87891
296.2760, 187.1133
297.4850, 185.1680
298.6930, 285.5371
299.9020, 188.9688
301.1110, 64.31055
302.3190, 16.55664
303.5270, 26.92383
304.7350, 18.20117
305.9430, 10.99219
307.1510, 47.50195
308.3580, 104.2031
309.5660, 159.3184
310.7730, 165.1055
311.9800, 74.50000
313.1870, 122.8301
314.3940, 73.12695
315.6010, 131.3789
316.8070, 199.5957
318.0130, 361.7754
319.2200, 350.9141
320.4260, 388.0137
321.6310, 411.0742
322.8370, 546.0918
324.0430, 645.0625
325.2480, 759.9922
326.4540, 886.6641
327.6590, 643.7070
328.8640, 1104.475
330.0680, 1142.105
331.2730, 1178.596
332.4780, 1579.955
333.6820, 1583.188
334.8860, 1761.270
336.0900, 1813.221
337.2940, 2133.973
338.4980, 2436.596
339.7010, 2312.121
340.9050, 2536.543
342.1080, 2680.838
343.3110, 2826.004
344.5140, 3055.057
345.7170, 3035.031
346.9200, 3237.938
348.1220, 3084.770
349.3240, 3111.529
350.5270, 3420.217
351.7290, 3476.828
352.9310, 3206.367
354.1320, 3548.832
355.3340, 3605.773
356.5350, 3489.691
357.7370, 3617.818
358.9380, 3586.480
360.1390, 3546.824
361.3400, 3386.014
362.5400, 3436.455
363.7410, 3311.746
364.9410, 3179.545
366.1410, 3139.404
367.3410, 3010.238
368.5410, 2943.816
369.7410, 2775.289
370.9400, 2627.699
372.1400, 2473.512
373.3390, 2584.979
374.5380, 2777.016
375.7370, 2642.629
376.9360, 2680.625
378.1350, 2916.902
379.3330, 2869.875
380.5310, 3016.645
381.7300, 3027.508
382.9280, 2665.732
384.1260, 2854.789
385.3230, 3023.877
386.5210, 2681.553
387.7180, 2419.439
388.9160, 2441.965
390.1130, 2216.414
391.3100, 1962.783
392.5060, 1930.070
393.7030, 1778.271
394.9000, 1649.389
396.0960, 1498.420
397.2920, 1617.361
398.4880, 1465.211
399.6840, 1196.971
400.8800, 1031.635
402.0750, 1269.211
403.2710, 987.6875
404.4660, 1089.078
405.6610, 846.3730
406.8560, 982.5703
408.0510, 859.4180
409.2450, 804.6680
410.4400, 697.5664
411.6340, 624.9844
412.8280, 694.0664
414.0220, 513.6660
415.2160, 568.1621
416.4100, 590.5586
417.6030, 711.8516
418.7970, 516.0430
419.9900, 559.1328
421.1830, 466.1230
422.3760, 353.0098
423.5690, 357.7754
424.7610, 373.4199
425.9540, 200.3535
427.1460, 265.2910
428.3380, 96.81055
429.5300, 66.05469
430.7220, 89.34375
431.9140, 268.1543
433.1050, 145.8262
434.2970, 178.9355
435.4880, 205.4258
436.6790, 210.3574
437.8700, 78.76172
439.0610, 6.914063
440.2510, 130.2891
441.4420, 211.9668
442.6320, 332.9980
443.8220, 304.4961
445.0120, 178.8477
446.2020, 71.26758
447.3910, 9.466797
448.5810, 166.7266
449.7700, 67.43164
450.9600, 250.1094
452.1490, 258.2773
453.3370, 461.6699
454.5260, 443.1699
455.7150, 632.0781
456.9030, 555.3965
458.0910, 589.8242
459.2800, 1058.967
460.4670, 1324.020
461.6550, 1560.986
462.8430, 1727.863
464.0300, 1878.650
465.2180, 2086.352
466.4050, 2026.967
467.5920, 2150.492
468.7790, 2060.934
469.9650, 2360.285
471.1520, 2299.555
472.3380, 2269.734
473.5250, 2129.834
474.7110, 1889.846
475.8970, 2022.775
477.0820, 2000.623
478.2680, 1742.387
479.4540, 1699.072
480.6390, 1519.676
481.8240, 1772.201
483.0090, 1455.646
484.1940, 1295.016
485.3780, 1422.307
486.5630, 1088.521
487.7470, 1060.660
488.9320, 950.7246
490.1160, 929.7109
491.3000, 881.6270
492.4830, 850.4668
493.6670, 715.2344
494.8500, 514.9297
496.0340, 402.5508
497.2170, 226.1035
498.4000, 219.5723
499.5820, 193.9648
500.7650, 222.2773
501.9480, 246.5137
503.1300, 108.6719
504.3120, 89.74219
505.4940, 4.285156
506.6760, 143.4375
507.8580, 111.7891
509.0390, 248.3203
510.2210, 234.1016
511.4020, 26.12109
512.5830, 236.2715
513.7640, 278.6602
514.9450, 4.306641
516.1250, 243.0664
517.3060, 303.0566
518.4860, 137.3164
519.6660, 304.7500
520.8460, 13.44531
522.0260, 145.2461
523.2060, 71.22070
524.3850, 65.32617
525.5650, 178.5605
526.7440, 152.0195
527.9230, 219.5391
529.1020, 147.9980
530.2810, 354.3984
531.4590, 442.7422
532.6380, 761.0312
533.8160, 804.2676
534.9940, 1117.447
536.1720, 988.5723
537.3500, 1077.648
538.5270, 1335.672
539.7050, 1597.334
540.8820, 2370.570
542.0590, 2525.443
543.2360, 3151.270
544.4130, 3827.045
545.5900, 4133.777
546.7660, 4696.465
547.9430, 5535.104
549.1190, 6285.711
550.2950, 6950.271
551.4710, 7711.838
552.6470, 8434.391
553.8220, 8988.984
554.9980, 9493.564
556.1730, 9710.189
557.3480, 10040.30
558.5230, 10004.49
559.6980, 10115.13
560.8730, 9854.828
562.0470, 9223.592
563.2220, 9050.402
564.3960, 8446.676
565.5700, 7990.979
566.7440, 7594.658
567.9170, 7239.879
569.0910, 6859.359
570.2640, 6520.646
571.4380, 6164.773
572.6110, 5741.449
573.7840, 5423.584
574.9570, 5271.695
576.1290, 4791.996
577.3020, 4815.965
578.4740, 4388.953
579.6460, 4645.605
580.8180, 4485.801
581.9900, 4265.822
583.1620, 4462.148
584.3330, 4444.555
585.5040, 4408.227
586.6760, 4551.855
587.8470, 4574.434
589.0180, 4716.025
590.1880, 4595.086
591.3590, 4931.402
592.5290, 4667.910
593.7000, 4931.809
594.8700, 4769.145
596.0400, 4683.488
597.2090, 4958.873
598.3790, 4956.270
599.5490, 5016.682
600.7180, 5047.086
601.8870, 4866.545
603.0560, 5018.996
604.2250, 4769.461
605.3940, 4825.941
606.5620, 4628.438
607.7300, 4985.945
608.8990, 5111.477
610.0670, 5081.020
611.2350, 5158.580
612.4020, 5209.199
613.5700, 4991.762
614.7370, 5271.381
615.9050, 5246.020
617.0720, 5194.680
618.2390, 5350.359
619.4060, 5616.062
620.5720, 5814.787
621.7390, 6133.533
622.9050, 6325.383
624.0710, 6343.100
625.2370, 6753.918
626.4030, 6854.762
627.5690, 7064.635
628.7340, 7431.531
629.9000, 7571.453
631.0650, 8145.406
632.2300, 8314.381
633.3950, 8594.387
634.5600, 9012.422
635.7240, 9815.484
636.8890, 10069.58
638.0530, 10910.15
639.2170, 11546.71
640.3810, 12188.01
641.5450, 13268.73
642.7080, 14095.73
643.8720, 15179.84
645.0350, 16947.66
646.1980, 18406.58
647.3610, 19452.96
648.5240, 21138.52
649.6870, 22490.70
650.8490, 23778.98
652.0120, 24511.52
653.1740, 24663.09
654.3360, 24845.21
655.4980, 24303.64
656.6600, 23240.46
657.8210, 22166.75
658.9830, 20631.69
660.1440, 19465.37
661.3050, 18647.36
662.4660, 17748.57
663.6270, 16893.68
664.7870, 16604.43
665.9480, 15886.35
667.1080, 15823.23
668.2680, 15815.50
669.4280, 16081.55
670.5880, 16217.95
671.7480, 16607.40
672.9070, 16821.93
674.0670, 17216.50
675.2260, 17889.15
676.3850, 18253.86
677.5440, 18814.62
678.7030, 19211.45
679.8610, 19891.35
681.0200, 20471.31
682.1780, 21029.33
683.3360, 21385.41
684.4940, 21871.56
685.6520, 22060.87
686.8090, 23122.14
687.9670, 23526.62
689.1240, 23764.04
690.2810, 24565.71
691.4380, 24800.47
692.5950, 25129.72
693.7520, 25766.63
694.9080, 25947.65
696.0650, 26076.91
697.2210, 26483.64
698.3770, 26619.13
699.5330, 26744.18
700.6880, 26881.35
701.8440, 27107.99
702.9990, 27435.76
704.1550, 27525.65
705.3100, 27626.02
706.4650, 27695.12
707.6190, 27646.10
708.7740, 27737.62
709.9290, 27594.54
711.0830, 27538.06
712.2370, 27170.63
713.3910, 27073.71
714.5450, 26808.57
715.6980, 26106.85
716.8520, 26035.94
718.0050, 25438.65
719.1580, 25260.73
720.3110, 24504.18
721.4640, 24063.47
722.6170, 23425.58
723.7700, 22743.10
724.9220, 21906.79
726.0740, 21321.63
727.2260, 20700.60
728.3780, 19841.66
729.5300, 19326.78
730.6810, 18446.99
731.8330, 18103.25
732.9840, 17040.56
734.1350, 16644.91
735.2860, 15927.30
736.4370, 15439.74
737.5880, 14727.21
738.7380, 14423.73
739.8880, 13952.29
741.0390, 13258.89
742.1890, 12903.54
743.3380, 12356.23
744.4880, 12233.96
745.6380, 11904.68
746.7870, 11956.54
747.9360, 11512.39
749.0850, 11348.29
750.2340, 11208.23
751.3830, 10821.20
752.5310, 11027.23
753.6800, 10700.29
754.8280, 10371.39
755.9760, 10470.54
757.1240, 9995.730
758.2720, 9532.963
759.4190, 9425.234
760.5670, 9164.551
761.7140, 8723.902
762.8610, 8438.297
764.0080, 7923.734
765.1550, 7498.211
766.3020, 7321.730
767.4480, 6906.291
768.5950, 6517.893
769.7410, 6141.531
770.8870, 5821.213
772.0330, 5517.938
773.1780, 5169.699
774.3240, 5020.500
775.4690, 4832.340
776.6140, 4418.227
777.7590, 4116.154
778.9040, 4254.129
780.0490, 3717.145
781.1940, 3539.205
782.3380, 3652.312
783.4820, 3480.475
784.6260, 3252.705
785.7700, 3065.037
786.9140, 2876.467
788.0580, 2807.025
789.2010, 2754.711
790.3450, 2477.465
791.4880, 2388.342
792.6310, 2222.355
793.7730, 2116.266
794.9160, 2106.621
796.0590, 1897.955
797.2010, 1901.379
798.3430, 1647.939
799.4850, 1584.557
800.6270, 1427.268
801.7690, 1423.047
802.9100, 1227.145
804.0520, 1024.840
805.1930, 918.8203
806.3340, 911.8320
807.4750, 862.8809
808.6160, 788.0117
809.7560, 711.5508
810.8970, 633.2129
812.0370, 585.3867
813.1770, 460.5898
814.3170, 568.8242
815.4570, 241.0879
816.5960, 69.37891
817.7360, 225.7012
818.8750, 235.0527
820.0140, 208.4316
821.1530, 132.8359
822.2920, 12.27148
823.4310, 161.7246
824.5690, 29.79492
825.7070, 162.6953
826.8460, 199.7891
827.9840, 110.3535
829.1220, 313.9473
830.2590, 105.6777
831.3970, 318.4434
832.5340, 239.3516
833.6710, 144.3672
834.8080, 102.4355
835.9450, 336.5449
837.0820, 366.8145
838.2190, 307.2617
839.3550, 57.85938
840.4910, 38.47852
841.6270, 293.1113
842.7630, 189.8887
843.8990, 630.7598
845.0350, 380.9551
846.1700, 415.3496
847.3060, 563.9590
848.4410, 290.8633
849.5760, 198.9141
850.7100, 16.97461
851.8450, 385.1367
852.9800, 0.5527340
854.1140, 208.7676
855.2480, 227.2070
856.3820, 101.7754
857.5160, 11.58984
858.6500, 122.0508
859.7830, 50.22852
860.9170, 79.51367
862.0500, 165.8086
863.1830, 232.1172
864.3160, 325.4297
865.4480, 442.7500
866.5810, 275.0723
867.7130, 206.4062
868.8460, 292.7422
869.9780, 540.0859
871.1100, 276.4492
872.2410, 303.8555
873.3730, 787.2734
874.5050, 865.7148
875.6360, 1131.219
876.7670, 1056.729
877.8980, 931.2969
879.0290, 1170.867
880.1590, 1260.467
881.2900, 1240.105
882.4200, 1398.744
883.5500, 1313.385
884.6800, 1569.033
885.8100, 1639.570
886.9400, 1940.332
888.0690, 1905.018
889.1990, 2079.707
890.3280, 2205.459
891.4570, 2313.287
892.5860, 2420.115
893.7140, 2554.941
894.8430, 2646.773
895.9710, 2897.609
897.1000, 3018.445
898.2280, 3556.281
899.3560, 3174.129
900.4830, 3450.986
901.6110, 3718.898
902.7380, 3460.812
903.8660, 3850.721
904.9930, 4096.627
906.1200, 4024.533
907.2460, 4182.438
908.3730, 4352.336
909.5000, 4332.889
910.6260, 4152.158
911.7520, 4390.119
912.8780, 4475.111
914.0040, 4462.098
915.1290, 4603.092
916.2550, 4694.660
917.3800, 5060.086
918.5050, 4838.074
919.6300, 5100.059
920.7550, 4937.035
921.8800, 4878.004
923.0040, 4941.969
924.1290, 4590.922
925.2530, 4801.863
926.3770, 4439.801
927.5010, 4483.734
928.6250, 4676.648
929.7480, 4677.574
930.8720, 4625.480
931.9950, 4364.375
933.1180, 4374.262
934.2410, 4157.129
935.3640, 4014.988
936.4860, 3693.836
937.6090, 3743.660
938.7310, 3587.480
939.8530, 3434.285
940.9750, 3450.074
942.0970, 3502.844
943.2180, 3353.609
944.3400, 3367.359
945.4610, 3007.133
946.5820, 2702.891
947.7030, 2664.629
948.8240, 2626.355
949.9450, 2399.059
951.0650, 2488.742
952.1860, 2324.406
953.3060, 2114.051
954.4260, 2199.680
955.5460, 1978.297
956.6650, 1822.887
957.7850, 1824.383
958.9040, 1703.941
960.0230, 1569.352
961.1420, 1648.883
962.2610, 1243.180
963.3800, 1095.453
964.4990, 1128.277
965.6170, 1016.492
966.7350, 822.6523
967.8530, 1189.586
968.9710, 993.6641
970.0890, 1253.922
971.2070, 908.2227
972.3240, 878.4570
973.4410, 731.2617
974.5580, 412.9883
975.6750, 433.6367
976.7920, 215.8672
977.9090, 180.5703
979.0250, 488.1797
980.1410, 171.4766
981.2580, 446.4922
982.3740, 577.0625
983.4890, 356.7539
984.6050, 497.1484
985.7200, 306.6406
986.8360, 369.1602
987.9510, 439.9141
989.0660, 342.2188
990.1810, 546.2891
991.2950, 391.0898
992.4100, 561.1992
993.5240, 663.6445
994.6390, 643.1992
995.7530, 877.4297
996.8660, 941.3477
997.9800, 1084.578
999.0940, 1254.816
1000.207, 1439.051
1001.320, 1287.285
1002.433, 1496.762
1003.546, 1621.230
1004.659, 1588.375
1005.772, 1803.816
1006.884, 2204.801
1007.996, 2301.883
1009.108, 2567.094
1010.220, 2939.688
1011.332, 3190.254
1012.444, 3469.645
1013.555, 3788.367
1014.666, 3730.258
1015.777, 4063.469
1016.888, 4296.094
1017.999, 5042.566
1019.110, 4922.207
1020.220, 5019.402
1021.331, 5415.586
1022.441, 5359.156
1023.551, 5625.844
1024.661, 5502.863
1025.770, 5903.285
1026.880, 5776.445
1027.989, 5727.820
1029.098, 5753.527
1030.207, 5705.898
1031.316, 5476.320
1032.425, 5648.465
1033.533, 5481.242
1034.642, 5203.930
1035.750, 4931.309
1036.858, 4892.387
1037.966, 4539.840
1039.073, 4761.902
1040.181, 4299.617
1041.288, 4162.230
1042.396, 3628.824
1043.503, 3462.395
1044.610, 3287.992
1045.716, 3120.930
1046.823, 3005.164
1047.929, 3152.410
1049.036, 2742.059
1050.142, 2305.070
1051.248, 2667.012
1052.353, 2489.938
1053.459, 2441.852
1054.564, 2215.750
1055.670, 2258.641
1056.775, 1991.516
1057.880, 1823.586
1058.985, 2141.043
1060.089, 1818.512
1061.194, 1980.336
1062.298, 2038.844
1063.402, 1937.641
1064.506, 2104.453
1065.610, 2119.691
1066.713, 2008.875
1067.817, 1954.625
1068.920, 1922.762
1070.023, 1648.602
1071.126, 1852.648
1072.229, 2143.344
1073.332, 2023.242
1074.435, 1898.691
1075.537, 1990.352
1076.639, 2086.992
1077.741, 1876.676
1078.843, 1955.289
1079.945, 2164.934
1081.046, 1871.516
1082.148, 1799.086
1083.249, 1572.645
1084.350, 1590.184
1085.451, 1523.988
1086.551, 1430.371
1087.652, 1382.059
1088.752, 1434.547
1089.853, 1319.691
1090.953, 1325.559
1092.053, 1232.105
1093.152, 1165.984
1094.252, 1240.410
1095.351, 972.8672
1096.451, 673.3477
1097.550, 1096.887
1098.649, 782.4414
1099.748, 731.0664
1100.846, 676.7422
1101.945, 542.4453
1103.043, 418.6094
1104.141, 577.3984
1105.239, 580.2812
1106.337, 293.2383
1107.434, 612.2031
1108.532, 526.1758
1109.629, 379.0039
1110.726, 406.5312
1111.823, 231.5312
1112.920, 71.86328
1114.017, 341.2930
1115.113, 15.13672
1116.210, 171.5078
1117.306, 236.0703
1118.402, 13.35938
1119.498, 123.2930
1120.593, 232.9375
1121.689, 328.8320
1122.784, 133.5820
1123.879, 205.3555
1124.974, 128.1172
1126.069, 13.91016
1127.164, 272.6875
1128.259, 1.441406
1129.353, 150.1719
1130.447, 131.8867
1131.541, 174.5859
1132.635, 161.3047
1133.729, 46.93359
1134.822, 50.58594
1135.916, 27.78125
1137.009, 127.1641
1138.102, 8.371094
1139.195, 40.12891
1140.288, 200.6094
1141.380, 39.79688
1142.473, 172.8164
1143.565, 86.44531
1144.657, 62.31250
1145.749, 96.14453
1146.841, 192.9453
1147.932, 45.02344
1149.024, 74.08203
1150.115, 46.11719
1151.206, 192.1289
1152.297, 96.87500
1153.388, 164.0352
1154.479, 211.0781
1155.569, 230.3398
1156.659, 90.23438
1157.750, 256.7891
1158.839, 16.32422
1159.929, 46.82812
1161.019, 104.3008
1162.108, 89.75391
1163.198, 11.78125
1164.287, 10.63672
1165.376, 178.9844
1166.465, 99.25781
1167.553, 269.4766
1168.642, 80.67578
1169.730, 327.8477
1170.818, 118.0000
1171.906, 177.1406
1172.994, 15.75391
1174.082, 67.30859
1175.170, 158.6602
1176.257, 84.18750
1177.344, 125.0586
1178.431, 6.859375
1179.518, 18.61719
1180.605, 37.33984
1181.691, 220.0469
1182.778, 204.9062
1183.864, 248.0039
1184.950, 280.0391
1186.036, 227.6562
1187.122, 231.2617
1188.207, 147.8477
1189.292, 76.40625
1190.378, 73.93750
1191.463, 306.4453
1192.548, 4.929688
1193.632, 210.3711
1194.717, 198.7891
1195.801, 99.18750
1196.886, 105.8789
1197.970, 208.2266
1199.054, 113.5547
1200.137, 182.8633
1201.221, 39.14844
1202.305, 356.3945
1203.388, 339.6289
1204.471, 228.8359
1205.554, 4.046875
1206.637, 395.1875
1207.719, 107.6953
1208.802, 317.3164
1209.884, 209.5156
1210.966, 338.4805
1212.048, 584.9531
1213.130, 418.8828
1214.212, 300.7930
1215.293, 222.6758
1216.374, 100.5430
1217.456, 84.61328
1218.536, 316.1914
1219.617, 74.08594
1220.698, 177.8516
1221.778, 206.5938
1222.859, 45.31641
1223.939, 332.0078
1225.019, 414.7539
1226.099, 475.3984
1227.178, 351.4531
1228.258, 499.2891
1229.337, 518.8789
1230.417, 247.4414
1231.496, 468.9805
1232.574, 132.6523
1233.653, 265.1641
1234.732, 415.6562
1235.810, 239.1484
1236.888, 368.2383
1237.966, 313.6562
1239.044, 383.0508
1240.122, 466.5781
1241.199, 469.1875
1242.277, 502.6836
1243.354, 591.7930
1244.431, 533.0586
1245.508, 475.9805
1246.585, 532.3438
1247.661, 294.6523
1248.738, 432.6875
1249.814, 332.8086
1250.890, 193.9023
1251.966, 604.9688
1253.042, 277.0039
1254.117, 540.0039
1255.193, 470.9844
1256.268, 398.6133
1257.343, 310.5312
