##NAMES=Astrophyllite
##RRUFFID=R060103
##IDEAL CHEMISTRY=K_2_NaFe^2+^_7_Ti^4+^_2_(Si_4_O_12_)_2_O_2_(OH)_4_F
##LOCALITY=Brivik, Norway
##OWNER=RRUFF
##SOURCE=University of Arizona Mineral Museum
##DESCRIPTION=Brown fragment embedded in matrix
##STATUS=The identification of this mineral is confirmed by single-crystal X-ray diffraction and chemical analysis.
##URL=rruff.info/R060103
##MEASURED CHEMISTRY=K_2.00_Na_1.00_(Fe^2+^_0.55_Mn_0.32_Fe^3+^_0.04_Mg_0.04_Ca_0.04_)_7_(Ti_0.66_Zr_0.18_Al_0.16_)_2_Si_8.00_O_26_(OH)_4_F_1.00_
##PIN_ID=M01031
##ORIENTATION=Laser parallel to c* (0 0 1). Fiducial mark perpendicular to laser is parallel to a [1 0 0]
146.4650, 0.0000000E+00
147.6990, 105.1162
148.9320, 118.9990
150.1650, 3.920898
151.3980, 127.9941
152.6310, 85.55957
153.8640, 233.2061
155.0960, 167.2881
156.3280, 167.6748
157.5600, 243.8896
158.7920, 373.1104
160.0240, 321.7510
161.2560, 424.2744
162.4870, 611.0391
163.7180, 618.7988
164.9490, 802.0674
166.1800, 799.1670
167.4110, 776.1094
168.6410, 831.2158
169.8720, 774.7676
171.1020, 995.5039
172.3320, 1077.748
173.5620, 1000.836
174.7910, 1002.355
176.0210, 962.3457
177.2500, 862.0732
178.4790, 828.7910
179.7080, 639.5947
180.9370, 441.4746
182.1650, 304.5693
183.3940, 238.9863
184.6220, 302.7295
185.8500, 141.7256
187.0780, 188.9590
188.3050, 118.4355
189.5330, 94.05371
190.7600, 98.80664
191.9870, 31.65723
193.2140, 8.433594
194.4410, 36.52930
195.6680, 107.6699
196.8940, 62.13477
198.1200, 112.1211
199.3470, 97.56445
200.5720, 2.805664
201.7980, 279.7686
203.0240, 238.2861
204.2490, 165.7529
205.4740, 250.1689
206.6990, 320.5547
207.9240, 273.9268
209.1490, 320.3027
210.3740, 385.0361
211.5980, 370.1094
212.8220, 536.5371
214.0460, 673.9746
215.2700, 761.4131
216.4930, 866.7090
217.7170, 1007.554
218.9400, 1103.862
220.1630, 1277.057
221.3860, 1309.115
222.6090, 1428.823
223.8320, 1461.193
225.0540, 1614.888
226.2760, 1862.607
227.4980, 2004.047
228.7200, 2083.236
229.9420, 2505.875
231.1630, 2517.437
232.3850, 2579.290
233.6060, 2792.477
234.8270, 2840.217
236.0480, 2949.271
237.2690, 3112.471
238.4890, 3227.953
239.7090, 3411.447
240.9290, 3557.888
242.1490, 3628.392
243.3690, 3645.828
244.5890, 3687.102
245.8080, 3838.218
247.0270, 3885.229
248.2470, 3944.199
249.4650, 3953.138
250.6840, 4081.046
251.9030, 4195.896
253.1210, 4410.775
254.3390, 4514.594
255.5570, 4556.383
256.7750, 4722.138
257.9930, 4667.859
259.2100, 4620.558
260.4280, 4501.908
261.6450, 4326.904
262.8620, 4029.596
264.0790, 3728.361
265.2950, 3318.383
266.5120, 3136.572
267.7280, 2689.947
268.9440, 2577.553
270.1600, 2053.393
271.3760, 1831.376
272.5920, 1599.529
273.8070, 1359.802
275.0220, 1220.050
276.2370, 1116.239
277.4520, 914.3613
278.6670, 724.3975
279.8820, 635.3506
281.0960, 312.2207
282.3100, 379.0068
283.5240, 312.7090
284.7380, 188.3301
285.9520, 264.8672
287.1650, 13.32031
288.3780, 16.30762
289.5920, 160.9795
290.8050, 55.16309
292.0170, 44.25879
293.2300, 71.86230
294.4430, 37.93262
295.6550, 24.52832
296.8670, 1.144531
298.0790, 23.85840
299.2910, 89.86426
300.5020, 106.6602
301.7140, 17.45508
302.9250, 84.04980
304.1360, 26.81836
305.3470, 94.59082
306.5580, 112.9199
307.7680, 184.8125
308.9780, 58.16113
310.1890, 20.41211
311.3990, 143.8477
312.6090, 171.4062
313.8180, 244.5879
315.0280, 224.1123
316.2370, 163.7031
317.4460, 42.54688
318.6550, 200.3770
319.8640, 176.4463
321.0730, 177.0322
322.2810, 255.4678
323.4890, 190.7764
324.6980, 186.2412
325.9060, 148.2646
327.1130, 195.9893
328.3210, 243.6885
329.5280, 196.2461
330.7360, 262.9365
331.9430, 318.6523
333.1500, 307.1221
334.3560, 276.5352
335.5630, 417.2646
336.7690, 439.5820
337.9760, 382.9678
339.1820, 424.6240
340.3870, 608.8477
341.5930, 674.2461
342.7990, 794.6152
344.0040, 743.8447
345.2090, 948.4746
346.4140, 999.6680
347.6190, 1156.857
348.8240, 1268.005
350.0280, 1200.820
351.2330, 1434.910
352.4370, 1440.967
353.6410, 1503.989
354.8440, 1579.979
356.0480, 1577.935
357.2520, 1670.854
358.4550, 1617.740
359.6580, 1512.591
360.8610, 1661.406
362.0640, 1469.182
363.2660, 1611.894
364.4690, 1626.559
365.6710, 1484.171
366.8730, 1546.727
368.0750, 1313.223
369.2770, 1266.371
370.4780, 1234.201
371.6800, 1151.568
372.8810, 1099.812
374.0820, 973.5059
375.2830, 912.1406
376.4830, 800.2529
377.6840, 813.2715
378.8840, 712.1836
380.0840, 825.0928
381.2840, 886.3535
382.4840, 911.1064
383.6840, 853.0693
384.8830, 872.2988
386.0830, 851.4805
387.2820, 1028.622
388.4810, 1029.673
389.6800, 1079.270
390.8780, 1061.085
392.0770, 1052.779
393.2750, 1062.223
394.4730, 1004.650
395.6710, 988.4932
396.8690, 975.4561
398.0660, 949.1367
399.2640, 973.5488
400.4610, 1002.850
401.6580, 1070.855
402.8550, 1196.532
404.0520, 1115.977
405.2490, 888.7695
406.4450, 1088.898
407.6410, 1016.775
408.8370, 1105.604
410.0330, 1187.380
411.2290, 1027.107
412.4240, 1318.783
413.6200, 1283.404
414.8150, 1382.974
416.0100, 1196.487
417.2050, 1494.945
418.4000, 1388.485
419.5940, 1553.780
420.7880, 1637.930
421.9830, 1641.712
423.1770, 1522.438
424.3700, 1410.760
425.5640, 1203.435
426.7580, 1321.584
427.9510, 1231.540
429.1440, 1239.075
430.3370, 1157.870
431.5300, 977.3398
432.7220, 932.2480
433.9150, 823.4258
435.1070, 547.0547
436.2990, 397.5293
437.4910, 456.1367
438.6830, 493.4014
439.8750, 349.4795
441.0660, 240.2451
442.2570, 234.1641
443.4480, 90.46777
444.6390, 7.746094
445.8300, 186.2949
447.0210, 42.72949
448.2110, 66.63086
449.4010, 119.6104
450.5910, 50.99414
451.7810, 12.24316
452.9710, 24.68262
454.1610, 53.17871
455.3500, 100.4141
456.5390, 122.1758
457.7280, 180.1582
458.9170, 150.4756
460.1060, 192.4590
461.2940, 160.6221
462.4830, 248.6084
463.6710, 358.4297
464.8590, 386.1875
466.0470, 487.2119
467.2350, 529.3955
468.4220, 465.5234
469.6090, 602.9209
470.7970, 595.4590
471.9840, 599.1406
473.1700, 515.5654
474.3570, 381.2109
475.5440, 481.0293
476.7300, 411.7412
477.9160, 582.2656
479.1020, 387.0898
480.2880, 430.8574
481.4740, 482.5742
482.6590, 417.2471
483.8440, 528.8818
485.0300, 569.5000
486.2140, 620.0703
487.3990, 594.6230
488.5840, 603.1250
489.7680, 667.5830
490.9530, 628.9863
492.1370, 725.3359
493.3210, 639.6338
494.5040, 841.8779
495.6880, 879.0684
496.8720, 829.2061
498.0550, 694.2900
499.2380, 892.3203
500.4210, 758.2979
501.6040, 760.2227
502.7860, 753.0928
503.9690, 870.9111
505.1510, 744.6768
506.3330, 921.3896
507.5150, 675.0498
508.6970, 619.6572
509.8780, 527.2129
511.0600, 317.7168
512.2410, 379.1621
513.4220, 235.5527
514.6030, 251.8838
515.7840, 366.1543
516.9640, 70.37109
518.1440, 41.51465
519.3250, 42.58105
520.5050, 12.57031
521.6850, 84.52734
522.8640, 202.7637
524.0440, 116.1992
525.2230, 104.7764
526.4020, 30.50195
527.5820, 174.3350
528.7600, 63.35059
529.9390, 206.4922
531.1180, 136.8320
532.2960, 205.3340
533.4740, 113.0342
534.6520, 86.88281
535.8300, 107.8652
537.0080, 115.9932
538.1850, 167.2686
539.3630, 84.71973
540.5400, 34.30078
541.7170, 59.01367
542.8940, 209.2627
544.0700, 96.46191
545.2470, 115.6338
546.4230, 214.8018
547.5990, 358.9316
548.7750, 635.0469
549.9510, 692.1709
551.1270, 857.2754
552.3020, 1138.412
553.4780, 1240.509
554.6530, 1468.567
555.8280, 1537.596
557.0030, 1818.587
558.1770, 1922.549
559.3520, 2120.470
560.5260, 2101.368
561.7000, 2148.566
562.8740, 2109.440
564.0480, 2038.907
565.2220, 1911.684
566.3950, 1702.419
567.5680, 1553.113
568.7420, 1549.767
569.9150, 1347.382
571.0870, 1239.959
572.2600, 1066.495
573.4320, 990.0000
574.6050, 780.4746
575.7770, 841.9131
576.9490, 684.3096
578.1210, 725.0479
579.2920, 752.9980
580.4640, 557.0762
581.6350, 419.5215
582.8060, 617.4824
583.9770, 724.3701
585.1480, 758.8242
586.3190, 828.1504
587.4890, 901.5547
588.6590, 827.6611
589.8290, 1122.619
590.9990, 931.8496
592.1690, 1081.364
593.3390, 1077.289
594.5080, 1112.188
595.6770, 1146.789
596.8470, 1226.145
598.0160, 1348.756
599.1840, 1426.894
600.3530, 1393.763
601.5210, 1382.968
602.6900, 1407.891
603.8580, 1351.465
605.0260, 1452.479
606.1930, 1346.593
607.3610, 1383.110
608.5280, 1066.785
609.6960, 1212.178
610.8630, 1114.823
612.0300, 1328.447
613.1970, 1207.051
614.3630, 1419.587
615.5300, 1324.546
616.6960, 1377.906
617.8620, 1743.960
619.0280, 1686.461
620.1940, 1934.380
621.3590, 2209.467
622.5250, 2377.754
623.6900, 2329.754
624.8550, 2550.153
626.0200, 2258.534
627.1850, 2506.896
628.3490, 2407.238
629.5140, 2327.562
630.6780, 2063.865
631.8420, 1755.152
633.0060, 1774.422
634.1700, 1826.673
635.3330, 1896.907
636.4970, 2000.126
637.6600, 2076.328
638.8230, 2313.514
639.9860, 2454.684
641.1490, 2874.838
642.3110, 2862.977
643.4740, 3392.102
644.6360, 3735.213
645.7980, 4087.309
646.9600, 4556.391
648.1220, 4776.462
649.2840, 5308.520
650.4450, 5758.562
651.6060, 5856.893
652.7670, 6167.477
653.9280, 6449.454
655.0890, 6464.494
656.2500, 6396.010
657.4100, 5980.525
658.5700, 5417.501
659.7300, 4928.508
660.8900, 4465.561
662.0500, 4073.558
663.2100, 3654.146
664.3690, 3300.833
665.5280, 2792.434
666.6880, 2676.889
667.8460, 2477.340
669.0050, 2252.786
670.1640, 2328.277
671.3220, 1991.178
672.4810, 2165.816
673.6390, 2112.294
674.7970, 2227.462
675.9540, 2187.362
677.1120, 2266.807
678.2690, 2413.092
679.4270, 2330.618
680.5840, 2474.374
681.7410, 2662.201
682.8980, 2878.775
684.0540, 2803.268
685.2110, 3022.087
686.3670, 3258.704
687.5230, 3211.271
688.6790, 3460.862
689.8350, 3763.854
690.9900, 3689.040
692.1460, 3797.408
693.3010, 4015.188
694.4560, 3841.969
695.6110, 4100.113
696.7660, 4382.319
697.9210, 4418.412
699.0750, 4565.625
700.2290, 4438.326
701.3840, 4688.249
702.5370, 4571.043
703.6910, 4679.187
704.8450, 4697.342
705.9980, 4743.507
707.1520, 4789.006
708.3050, 4923.936
709.4580, 4855.172
710.6110, 4909.457
711.7630, 4960.766
712.9160, 4814.104
714.0680, 4836.460
715.2200, 5116.827
716.3720, 4948.209
717.5240, 4766.619
718.6760, 4641.048
719.8270, 4418.508
720.9780, 4368.785
722.1300, 4259.480
723.2810, 4231.998
724.4310, 4143.543
725.5820, 4025.125
726.7330, 3993.730
727.8830, 3729.389
729.0330, 3632.075
730.1830, 3464.834
731.3330, 3340.646
732.4830, 3048.504
733.6320, 2870.396
734.7810, 2703.322
735.9310, 2382.273
737.0800, 2392.255
738.2290, 2291.263
739.3770, 2038.296
740.5260, 1854.355
741.6740, 1759.442
742.8220, 1693.555
743.9700, 1608.690
745.1180, 1475.849
746.2660, 1477.027
747.4130, 1498.227
748.5610, 1361.450
749.7080, 1397.693
750.8550, 1327.958
752.0020, 1136.243
753.1490, 1159.552
754.2950, 1243.885
755.4420, 1110.241
756.5880, 1080.620
757.7340, 1123.022
758.8800, 1086.451
760.0250, 1052.903
761.1710, 1061.380
762.3160, 1027.881
763.4620, 914.4062
764.6070, 916.9561
765.7520, 928.5283
766.8960, 710.1250
768.0410, 618.7461
769.1850, 691.3926
770.3300, 607.0625
771.4740, 401.7578
772.6180, 384.4785
773.7610, 697.2236
774.9050, 363.9951
776.0480, 578.7920
777.1920, 309.6133
778.3350, 344.4619
779.4780, 398.3359
780.6200, 303.2354
781.7630, 316.1611
782.9060, 230.1143
784.0480, 279.0947
785.1900, 248.5420
786.3320, 227.1348
787.4740, 233.1963
788.6150, 281.2852
789.7570, 273.4033
790.8980, 218.5518
792.0390, 443.7314
793.1800, 265.2832
794.3210, 299.1865
795.4620, 135.4688
796.6020, 50.81738
797.7420, 164.2100
798.8830, 107.6533
800.0230, 45.16895
801.1620, 66.21289
802.3020, 53.46289
803.4420, 101.2148
804.5810, 182.0293
805.7200, 294.5488
806.8590, 284.9160
807.9980, 476.9980
809.1370, 563.1680
810.2750, 576.4414
811.4140, 806.7969
812.5520, 425.2285
813.6900, 735.7383
814.8280, 650.3301
815.9650, 361.0156
817.1030, 199.7754
818.2400, 55.59766
819.3780, 10.54102
820.5150, 155.6523
821.6520, 250.7891
822.7880, 79.99414
823.9250, 147.1992
825.0610, 255.4316
826.1980, 110.7422
827.3340, 352.0664
828.4700, 3.517578
829.6050, 14.94336
830.7410, 62.34766
831.8760, 23.74609
833.0120, 70.78516
834.1470, 13.49609
835.2820, 92.84961
836.4160, 100.2051
837.5510, 40.56836
838.6860, 59.91992
839.8200, 186.7324
840.9540, 291.4199
842.0880, 440.1367
843.2220, 480.9746
844.3550, 361.7559
845.4890, 583.1309
846.6220, 844.4336
847.7550, 914.7480
848.8880, 1203.139
850.0210, 1382.615
851.1540, 1714.586
852.2860, 1801.582
853.4190, 2319.234
854.5510, 2525.406
855.6830, 2952.812
856.8150, 3036.934
857.9460, 3295.082
859.0780, 3307.262
860.2090, 3360.473
861.3410, 3524.711
862.4720, 3004.982
863.6020, 2845.281
864.7330, 2719.609
865.8640, 2356.969
866.9940, 2220.359
868.1240, 1915.777
869.2540, 1792.227
870.3840, 1840.703
871.5140, 1828.221
872.6440, 1761.789
873.7730, 1905.414
874.9020, 1893.113
876.0320, 2115.867
877.1600, 2045.691
878.2890, 2491.543
879.4180, 2421.426
880.5460, 2439.338
881.6750, 2840.279
882.8030, 2779.283
883.9310, 3045.314
885.0590, 3428.381
886.1860, 3536.475
887.3140, 3646.594
888.4410, 3876.742
889.5680, 4052.922
890.6950, 4309.125
891.8220, 4528.357
892.9490, 4797.617
894.0750, 4897.904
895.2020, 5270.219
896.3280, 5611.561
897.4540, 5550.928
898.5800, 5958.324
899.7050, 6165.746
900.8310, 6438.195
901.9560, 6423.672
903.0820, 6880.176
904.2070, 6897.703
905.3320, 7327.262
906.4560, 7495.844
907.5810, 7755.453
908.7050, 7984.086
909.8300, 8376.746
910.9540, 8459.434
912.0780, 8816.150
913.2010, 8915.887
914.3250, 9005.652
915.4480, 9102.443
916.5720, 9117.598
917.6950, 9043.098
918.8180, 9051.965
919.9410, 9052.859
921.0630, 8857.775
922.1860, 9067.715
923.3080, 8729.684
924.4300, 8530.676
925.5520, 8636.689
926.6740, 8463.734
927.7960, 8268.797
928.9170, 8121.889
930.0390, 7800.004
931.1600, 7764.652
932.2810, 7234.129
933.4020, 7092.691
934.5230, 6982.906
935.6430, 6579.156
936.7640, 6399.949
937.8840, 6152.242
939.0040, 5782.600
940.1240, 5491.008
941.2440, 5040.473
942.3630, 5086.965
943.4830, 4550.510
944.6020, 4390.125
945.7210, 4037.842
946.8400, 3932.586
947.9590, 3729.406
949.0770, 3502.254
950.1960, 3421.119
951.3140, 3181.006
952.4320, 3072.912
953.5500, 3081.838
954.6680, 2981.289
955.7860, 2733.129
956.9030, 2125.855
958.0210, 1887.410
959.1380, 1950.660
960.2550, 1864.117
961.3720, 1667.199
962.4890, 1544.117
963.6050, 1492.877
964.7220, 1189.256
965.8380, 1157.658
966.9540, 858.7266
968.0700, 880.7617
969.1860, 583.9395
970.3010, 495.9746
971.4170, 442.6523
972.5320, 356.0840
973.6470, 63.67383
974.7620, 78.94531
975.8770, 94.23242
976.9910, 147.4590
978.1060, 14.80273
979.2200, 13.91797
980.3340, 171.6230
981.4480, 56.38867
982.5620, 77.16016
983.6760, 12.94922
984.7890, 74.27734
985.9030, 40.51758
987.0160, 59.22461
988.1290, 2.3437999E-02
989.2420, 72.71680
990.3550, 154.5312
991.4670, 195.7949
992.5800, 97.07812
993.6920, 68.37305
994.8040, 398.6855
995.9160, 610.0137
997.0280, 772.3555
998.1390, 994.7129
999.2510, 1343.088
1000.362, 1620.854
1001.473, 1917.256
1002.584, 1866.674
1003.695, 1645.107
1004.805, 1451.566
1005.916, 1071.459
1007.026, 836.8359
1008.136, 781.2793
1009.246, 800.8984
1010.356, 667.6250
1011.466, 943.7910
1012.576, 876.5547
1013.685, 1039.100
1014.794, 1144.822
1015.903, 1330.330
1017.012, 1400.152
1018.121, 1546.416
1019.229, 1701.152
1020.338, 1762.754
1021.446, 1870.363
1022.554, 1899.982
1023.662, 2224.611
1024.770, 2292.248
1025.878, 2175.895
1026.985, 2059.549
1028.092, 1938.209
1029.200, 1925.879
1030.307, 1747.557
1031.413, 1906.238
1032.520, 1808.932
1033.627, 1668.629
1034.733, 1850.334
1035.839, 1579.047
1036.945, 1504.766
1038.051, 1484.492
1039.157, 1343.223
1040.262, 1237.961
1041.368, 1136.705
1042.473, 1269.453
1043.578, 827.2109
1044.683, 1030.973
1045.788, 768.7383
1046.893, 783.5098
1047.997, 687.2871
1049.101, 449.0684
1050.205, 640.8555
1051.309, 507.6445
1052.413, 357.4395
1053.517, 418.2402
1054.621, 282.0449
1055.724, 315.8516
1056.827, 142.6641
1057.930, 270.4805
1059.033, 266.2988
1060.136, 110.1191
1061.238, 167.9453
1062.341, 33.28516
1063.443, 84.88281
1064.545, 9.900391
1065.647, 8.337891
1066.749, 73.11523
1067.850, 179.8770
1068.952, 139.6602
1070.053, 290.4570
1071.154, 242.2637
1072.255, 367.1309
1073.356, 329.4590
1074.457, 375.4316
1075.557, 487.6719
1076.658, 232.6973
1077.758, 645.2832
1078.858, 838.1016
1079.958, 680.8203
1081.057, 727.4902
1082.157, 757.2344
1083.256, 774.0195
1084.356, 732.5527
1085.455, 765.2363
1086.554, 767.8203
1087.653, 769.1816
1088.751, 768.7402
1089.850, 650.5781
1090.948, 644.4277
1092.046, 696.3008
1093.144, 635.2227
1094.242, 714.1660
1095.340, 422.2402
1096.437, 544.1797
1097.534, 620.9219
1098.632, 654.9414
1099.729, 518.0996
1100.826, 601.8906
1101.922, 597.2344
1103.019, 589.0000
1104.115, 703.8340
1105.212, 591.8887
1106.308, 704.7695
1107.404, 989.7031
1108.499, 1001.770
1109.595, 1024.740
1110.691, 1082.791
1111.786, 1023.273
1112.881, 1034.494
1113.976, 1119.445
1115.071, 996.9844
1116.166, 900.4590
1117.260, 892.4688
1118.355, 514.4707
1119.449, 708.8477
1120.543, 464.7246
1121.637, 447.3887
1122.731, 516.3633
1123.824, 291.3320
1124.918, 293.2949
1126.011, 595.4805
1127.104, 361.2578
1128.197, 256.2559
1129.290, 281.3008
1130.382, 393.4355
1131.475, 51.91211
1132.567, 256.8203
1133.659, 90.72070
1134.751, 224.6094
1135.843, 6.494141
1136.935, 47.65039
1138.027, 54.85352
1139.118, 119.1191
1140.209, 73.64648
1141.300, 90.90625
1142.391, 44.58203
1143.482, 67.05664
1144.573, 177.5195
1145.663, 72.97461
1146.754, 85.58203
1147.844, 67.78320
1148.934, 58.13867
1150.024, 58.47656
1151.113, 96.80469
1152.203, 145.1230
1153.292, 160.6035
1154.381, 189.6230
1155.470, 208.0254
1156.559, 249.3066
1157.648, 251.5820
1158.737, 331.8477
1159.825, 265.1016
1160.913, 278.2305
1162.001, 333.5859
1163.089, 218.8125
1164.177, 282.0312
1165.265, 234.2422
1166.352, 266.8613
1167.440, 212.6309
1168.527, 337.8105
1169.614, 314.9844
1170.701, 295.1445
1171.788, 250.2969
1172.874, 262.1211
1173.961, 282.5742
1175.047, 234.6992
1176.133, 253.8145
1177.219, 149.9199
1178.305, 157.2461
1179.390, 154.3203
1180.476, 175.1777
1181.561, 186.2441
1182.646, 310.3008
1183.731, 361.3477
1184.816, 323.7773
1185.901, 350.4512
1186.985, 181.4297
1188.070, 164.2559
1189.154, 325.3047
1190.238, 402.7227
1191.322, 401.3711
1192.406, 65.08594
1193.489, 176.7578
1194.573, 112.8418
1195.656, 53.61328
1196.739, 247.2129
1197.822, 5.681641
1198.905, 197.8281
1199.988, 228.5645
1201.070, 117.6055
1202.153, 54.85156
1203.235, 94.16211
1204.317, 32.44336
1205.399, 76.97266
1206.481, 137.4629
1207.562, 274.0605
1208.644, 9.162109
1209.725, 163.6426
1210.806, 11.42969
1211.887, 179.4766
1212.968, 25.51367
1214.049, 328.5254
1215.129, 52.53125
1216.209, 171.5195
1217.290, 344.5000
1218.370, 188.4727
1219.450, 236.4336
1220.529, 176.3867
1221.609, 183.3320
1222.688, 215.2637
1223.768, 172.1875
1224.847, 195.1035
1225.926, 223.3164
1227.005, 266.8398
1228.083, 328.9082
1229.162, 414.9121
1230.240, 489.2422
1231.318, 577.4180
1232.396, 676.2617
1233.474, 612.0957
1234.552, 623.9180
1235.629, 715.7324
1236.707, 681.5332
1237.784, 727.3242
1238.861, 625.1055
1239.938, 899.9082
1241.015, 674.7031
1242.092, 916.4902
1243.168, 824.3066
1244.244, 813.1250
1245.321, 804.9492
1246.397, 981.7695
1247.473, 837.5781
1248.548, 941.3809
1249.624, 829.1855
1250.699, 805.9824
1251.775, 947.7949
1252.850, 1012.596
1253.925, 862.3906
1254.999, 894.2090
1256.074, 982.0195
1257.148, 815.8223
1258.223, 887.6133
1259.297, 1058.400
1260.371, 983.1777
1261.445, 1040.574
1262.519, 960.3418
1263.592, 1108.100
1264.666, 1120.873
1265.739, 1262.625
1266.812, 1290.953
1267.885, 1303.801
1268.958, 1435.588
1270.030, 1456.209
1271.103, 1468.547
1272.175, 1593.816
1273.247, 1473.311
1274.319, 1479.031
1275.391, 1476.580
1276.463, 1484.350
1277.535, 1151.812
1278.606, 1263.109
1279.677, 1008.402
1280.748, 921.0977
1281.819, 1133.795
1282.890, 846.4863
1283.961, 935.1758
1285.031, 828.8633
1286.102, 947.5469
1287.172, 846.2285
1288.242, 863.9062
1289.312, 876.5820
1290.381, 974.2520
1291.451, 1131.920
1292.520, 1155.584
1293.590, 1291.246
1294.659, 1114.904
1295.728, 1171.562
1296.797, 1149.215
1297.865, 1117.865
1298.934, 977.5117
1300.002, 904.1641
1301.070, 950.8086
1302.138, 912.9258
1303.206, 1080.096
1304.274, 1015.736
1305.341, 1083.373
1306.409, 1215.008
1307.476, 1146.641
1308.543, 1218.270
1309.610, 1329.896
1310.677, 1235.520
1311.744, 1188.145
1312.810, 1210.764
