##NAMES=Astrophyllite
##RRUFFID=R060103
##IDEAL CHEMISTRY=K_2_NaFe^2+^_7_Ti^4+^_2_(Si_4_O_12_)_2_O_2_(OH)_4_F
##LOCALITY=Brivik, Norway
##OWNER=RRUFF
##SOURCE=University of Arizona Mineral Museum
##DESCRIPTION=Brown fragment embedded in matrix
##STATUS=The identification of this mineral is confirmed by single-crystal X-ray diffraction and chemical analysis.
##URL=rruff.info/R060103
##MEASURED CHEMISTRY=K_2.00_Na_1.00_(Fe^2+^_0.55_Mn_0.32_Fe^3+^_0.04_Mg_0.04_Ca_0.04_)_7_(Ti_0.66_Zr_0.18_Al_0.16_)_2_Si_8.00_O_26_(OH)_4_F_1.00_
##PIN_ID=M01746
##ORIENTATION=Laser parallel to a* (1 0 0). Fiducial mark perpendicular to laser is parallel to b [0 1 0]
150.1650, 0.0000000E+00
151.3980, 38.55469
152.6310, 55.24170
153.8640, 0.5219730
155.0960, 10.06885
156.3280, 21.51807
157.5600, 126.9551
158.7920, 391.3105
160.0240, 420.8984
161.2560, 603.2017
162.4870, 931.8232
163.7180, 1131.451
164.9490, 1376.833
166.1800, 1614.760
167.4110, 1698.055
168.6410, 1824.570
169.8720, 1889.177
171.1020, 1972.771
172.3320, 2028.274
173.5620, 1756.614
174.7910, 1758.722
176.0210, 1462.538
177.2500, 1211.003
178.4790, 1088.067
179.7080, 953.6831
180.9370, 741.8110
182.1650, 535.4146
183.3940, 450.4570
184.6220, 361.9062
185.8500, 257.7305
187.0780, 246.9004
188.3050, 78.38867
189.5330, 75.18652
190.7600, 120.3105
191.9870, 64.77490
193.2140, 103.5728
194.4410, 108.6807
195.6680, 97.06982
196.8940, 32.71631
198.1200, 42.60059
199.3470, 201.7056
200.5720, 320.0156
201.7980, 322.5142
203.0240, 331.1919
204.2490, 363.0327
205.4740, 149.0273
206.6990, 43.16943
207.9240, 165.4517
209.1490, 257.8721
210.3740, 392.4248
211.5980, 364.1006
212.8220, 496.8887
214.0460, 630.7788
215.2700, 589.7598
216.4930, 812.8213
217.7170, 937.9551
218.9400, 1038.154
220.1630, 1170.637
221.3860, 1174.712
222.6090, 1327.061
223.8320, 1291.434
225.0540, 1301.843
226.2760, 1509.327
227.4980, 1628.034
228.7200, 1550.067
229.9420, 1481.517
231.1630, 1504.368
232.3850, 1590.562
233.6060, 1581.961
234.8270, 1652.478
236.0480, 1584.049
237.2690, 1571.611
238.4890, 1567.142
239.7090, 1560.638
240.9290, 1422.104
242.1490, 1347.536
243.3690, 1377.955
244.5890, 1159.364
245.8080, 1134.782
247.0270, 1075.203
248.2470, 989.6196
249.4650, 929.0254
250.6840, 820.4126
251.9030, 866.7974
253.1210, 859.1826
254.3390, 863.5708
255.5570, 794.9307
256.7750, 800.4131
257.9930, 872.9790
259.2100, 921.8706
260.4280, 948.4238
261.6450, 884.2021
262.8620, 938.2993
264.0790, 945.6309
265.2950, 951.5654
266.5120, 1023.778
267.7280, 975.2983
268.9440, 1047.430
270.1600, 1072.061
271.3760, 1119.044
272.5920, 1118.914
273.8070, 1133.854
275.0220, 1196.728
276.2370, 1233.679
277.4520, 1229.667
278.6670, 1280.432
279.8820, 1234.430
281.0960, 1301.665
282.3100, 1285.730
283.5240, 1385.735
284.7380, 1402.680
285.9520, 1490.564
287.1650, 1424.389
288.3780, 1482.153
289.5920, 1542.856
290.8050, 1683.499
292.0170, 1758.081
293.2300, 1778.602
294.4430, 1787.293
295.6550, 1913.924
296.8670, 1928.557
298.0790, 1848.216
299.2910, 2031.336
300.5020, 2060.413
301.7140, 2136.011
302.9250, 2077.869
304.1360, 2115.448
305.3470, 2201.509
306.5580, 2271.820
307.7680, 2273.927
308.9780, 2357.189
310.1890, 2364.262
311.3990, 2336.247
312.6090, 2369.533
313.8180, 2257.513
315.0280, 2202.945
316.2370, 2218.527
317.4460, 2145.768
318.6550, 2027.311
319.8640, 2007.882
321.0730, 1950.070
322.2810, 1729.410
323.4890, 1842.975
324.6980, 1620.356
325.9060, 1496.786
327.1130, 1460.945
328.3210, 1366.211
329.5280, 1392.788
330.7360, 1294.906
331.9430, 1313.439
333.1500, 1291.959
334.3560, 1300.500
335.5630, 1285.393
336.7690, 1195.339
337.9760, 1212.441
339.1820, 1228.584
340.3870, 1468.243
341.5930, 1354.070
342.7990, 1446.992
344.0040, 1475.697
345.2090, 1433.843
346.4140, 1518.271
347.6190, 1520.561
348.8240, 1426.849
350.0280, 1366.144
351.2330, 1412.640
352.4370, 1415.376
353.6410, 1433.563
354.8440, 1450.201
356.0480, 1356.097
357.2520, 1342.725
358.4550, 1297.650
359.6580, 1396.711
360.8610, 1392.578
362.0640, 1488.489
363.2660, 1497.505
364.4690, 1651.804
365.6710, 1612.508
366.8730, 1666.505
368.0750, 1728.152
369.2770, 1932.538
370.4780, 1896.235
371.6800, 1989.169
372.8810, 2052.327
374.0820, 2031.000
375.2830, 2132.435
376.4830, 2161.322
377.6840, 2252.938
378.8840, 2213.018
380.0840, 2181.167
381.2840, 2147.966
382.4840, 2067.229
383.6840, 1984.782
384.8830, 1938.619
386.0830, 1906.443
387.2820, 1899.479
388.4810, 1875.713
389.6800, 1851.843
390.8780, 1819.893
392.0770, 1792.998
393.2750, 1752.850
394.4730, 1695.059
395.6710, 1679.610
396.8690, 1657.434
398.0660, 1656.898
399.2640, 1572.317
400.4610, 1592.692
401.6580, 1447.023
402.8550, 1332.311
404.0520, 1282.553
405.2490, 1264.749
406.4450, 1052.901
407.6410, 1091.007
408.8370, 846.0674
410.0330, 876.0811
411.2290, 839.0483
412.4240, 830.9683
413.6200, 811.7583
414.8150, 652.6670
416.0100, 793.4453
417.2050, 701.1758
418.4000, 769.8608
419.5940, 697.4976
420.7880, 675.0879
421.9830, 783.6318
423.1770, 682.1289
424.3700, 747.5801
425.5640, 701.9849
426.7580, 579.3442
427.9510, 686.6587
429.1440, 571.9282
430.3370, 573.1528
431.5300, 402.3330
432.7220, 395.4692
433.9150, 261.5615
435.1070, 164.6113
436.2990, 290.6162
437.4910, 186.5781
438.6830, 201.4966
439.8750, 63.37109
441.0660, 8.791992
442.2570, 19.98096
443.4480, 3.703125
444.6390, 50.63379
445.8300, 47.05371
447.0210, 151.5723
448.2110, 93.22998
449.4010, 159.0020
450.5910, 185.9233
451.7810, 171.0093
452.9710, 196.3818
454.1610, 134.6641
455.3500, 184.2148
456.5390, 98.93066
457.7280, 73.76660
458.9170, 75.70996
460.1060, 38.10889
461.2940, 5.099121
462.4830, 27.10596
463.6710, 37.60596
464.8590, 32.26562
466.0470, 79.87109
467.2350, 103.4316
468.4220, 98.94678
469.6090, 157.4175
470.7970, 133.8467
471.9840, 83.23242
473.1700, 171.5723
474.3570, 158.8706
475.5440, 101.1260
476.7300, 45.33740
477.9160, 51.07666
479.1020, 46.61133
480.2880, 36.67383
481.4740, 33.68555
482.6590, 2.354492
483.8440, 49.53857
485.0300, 41.38232
486.2140, 55.55078
487.3990, 2.923340
488.5840, 80.60791
489.7680, 97.24707
490.9530, 92.84229
492.1370, 15.39355
493.3210, 59.89014
494.5040, 4.340332
495.6880, 93.73096
496.8720, 11.92139
498.0550, 21.35840
499.2380, 33.58691
500.4210, 129.7681
501.6040, 89.90820
502.7860, 129.0049
503.9690, 111.0610
505.1510, 78.07568
506.3330, 1.047852
507.5150, 11.96240
508.6970, 44.17334
509.8780, 9.610352
511.0600, 68.65674
512.2410, 27.01562
513.4220, 52.55664
514.6030, 20.91406
515.7840, 30.44971
516.9640, 12.05518
518.1440, 35.28076
519.3250, 97.42627
520.5050, 122.2358
521.6850, 61.16064
522.8640, 20.83203
524.0440, 34.21777
525.2230, 72.33447
526.4020, 62.53760
527.5820, 2.179688
528.7600, 37.14893
529.9390, 46.45703
531.1180, 73.02539
532.2960, 10.55664
533.4740, 106.0479
534.6520, 86.50391
535.8300, 9.925293
537.0080, 153.3081
538.1850, 54.65723
539.3630, 177.9717
540.5400, 187.2539
541.7170, 182.5044
542.8940, 277.7241
544.0700, 297.9121
545.2470, 382.0698
546.4230, 525.7456
547.5990, 716.2935
548.7750, 765.3594
549.9510, 895.3960
551.1270, 1008.080
552.3020, 1085.382
553.4780, 1201.331
554.6530, 1327.252
555.8280, 1396.145
557.0030, 1473.010
558.1770, 1564.847
559.3520, 1720.657
560.5260, 1639.440
561.7000, 1517.207
562.8740, 1583.948
564.0480, 1402.688
565.2220, 1289.401
566.3950, 1359.124
567.5680, 1262.867
568.7420, 1141.639
569.9150, 1059.397
571.0870, 1011.157
572.2600, 834.9307
573.4320, 962.7114
574.6050, 687.5093
575.7770, 690.3062
576.9490, 664.8828
578.1210, 558.6924
579.2920, 501.4004
580.4640, 626.1709
581.6350, 517.1250
582.8060, 465.2397
583.9770, 598.0293
585.1480, 515.9224
586.3190, 536.3906
587.4890, 688.1011
588.6590, 674.2471
589.8290, 696.0308
590.9990, 641.6865
592.1690, 721.6460
593.3390, 814.5464
594.5080, 783.8462
595.6770, 698.0176
596.8470, 890.0801
598.0160, 820.5010
599.1840, 790.5098
600.3530, 871.4087
601.5210, 813.6807
602.6900, 839.6812
603.8580, 820.6777
605.0260, 811.0806
606.1930, 794.3506
607.3610, 876.4111
608.5280, 822.6680
609.6960, 941.8877
610.8630, 955.3857
612.0300, 920.7832
613.1970, 1041.874
614.3630, 998.4253
615.5300, 1057.922
616.6960, 1112.169
617.8620, 1148.836
619.0280, 1157.184
620.1940, 1132.316
621.3590, 1153.863
622.5250, 1158.363
623.6900, 1172.336
624.8550, 1392.131
626.0200, 1385.817
627.1850, 1442.709
628.3490, 1454.145
629.5140, 1548.284
630.6780, 1651.546
631.8420, 1707.795
633.0060, 1674.018
634.1700, 1969.023
635.3330, 1802.770
636.4970, 2072.046
637.6600, 2196.853
638.8230, 2352.382
639.9860, 2619.159
641.1490, 2693.617
642.3110, 2960.917
643.4740, 3184.391
644.6360, 3496.800
645.7980, 3679.081
646.9600, 4231.057
648.1220, 4635.604
649.2840, 4974.838
650.4450, 5349.397
651.6060, 5726.196
652.7670, 6133.661
653.9280, 6384.865
655.0890, 6378.824
656.2500, 6286.239
657.4100, 6084.868
658.5700, 5983.017
659.7300, 5538.407
660.8900, 5066.303
662.0500, 4647.100
663.2100, 4310.215
664.3690, 4050.839
665.5280, 3911.140
666.6880, 3632.126
667.8460, 3570.097
669.0050, 3358.826
670.1640, 3449.330
671.3220, 3512.967
672.4810, 3611.255
673.6390, 3699.079
674.7970, 3808.848
675.9540, 3832.230
677.1120, 4045.242
678.2690, 4006.954
679.4270, 4126.996
680.5840, 4425.056
681.7410, 4538.129
682.8980, 4758.221
684.0540, 4948.329
685.2110, 5197.453
686.3670, 5424.593
687.5230, 5719.753
688.6790, 5747.930
689.8350, 5819.121
690.9900, 6152.333
692.1460, 6265.562
693.3010, 6506.810
694.4560, 6586.076
695.6110, 6676.362
696.7660, 6859.665
697.9210, 6857.989
699.0750, 7132.330
700.2290, 7401.616
701.3840, 7430.997
702.5370, 7797.690
703.6910, 7677.112
704.8450, 7801.843
705.9980, 7894.623
707.1520, 7879.134
708.3050, 8023.436
709.4580, 8227.658
710.6110, 8172.373
711.7630, 8277.602
712.9160, 8281.097
714.0680, 8238.380
715.2200, 8226.948
716.3720, 8090.154
717.5240, 8081.410
718.6760, 8121.168
719.8270, 7976.418
720.9780, 7871.599
722.1300, 7816.902
723.2810, 7490.191
724.4310, 7314.394
725.5820, 7245.079
726.7330, 7053.617
727.8830, 6766.548
729.0330, 6570.104
730.1830, 6302.759
731.3330, 6109.951
732.4830, 5884.690
733.6320, 5704.933
734.7810, 5467.287
735.9310, 5216.722
737.0800, 5034.210
738.2290, 4831.749
739.3770, 4764.338
740.5260, 4666.966
741.6740, 4388.622
742.8220, 4447.317
743.9700, 4180.033
745.1180, 4169.774
746.2660, 4042.531
747.4130, 4049.308
748.5610, 3855.103
749.7080, 3947.916
750.8550, 3866.745
752.0020, 3876.595
753.1490, 3849.461
754.2950, 3718.346
755.4420, 3658.249
756.5880, 3667.174
757.7340, 3593.119
758.8800, 3650.088
760.0250, 3610.077
761.1710, 3522.091
762.3160, 3566.135
763.4620, 3486.200
764.6070, 3396.287
765.7520, 3351.931
766.8960, 3251.533
768.0410, 3170.691
769.1850, 3067.869
770.3300, 2951.067
771.4740, 3000.291
772.6180, 2888.536
773.7610, 3036.809
774.9050, 2814.103
776.0480, 2840.428
777.1920, 2759.778
778.3350, 2737.150
779.4780, 2633.543
780.6200, 2568.956
781.7630, 2627.388
782.9060, 2511.840
784.0480, 2559.312
785.1900, 2549.814
786.3320, 2476.340
787.4740, 2414.905
788.6150, 2333.496
789.7570, 2282.132
790.8980, 2228.049
792.0390, 2147.495
793.1800, 2115.219
794.3210, 2045.979
795.4620, 1943.768
796.6020, 1891.191
797.7420, 1844.441
798.8830, 1721.361
800.0230, 1629.324
801.1620, 1500.308
802.3020, 1462.326
803.4420, 1257.388
804.5810, 1177.491
805.7200, 1124.618
806.8590, 1159.779
807.9980, 992.9609
809.1370, 1077.162
810.2750, 933.3882
811.4140, 673.6255
812.5520, 696.8862
813.6900, 667.1675
814.8280, 543.4673
815.9650, 461.7861
817.1030, 534.1230
818.2400, 515.4780
819.3780, 473.8506
820.5150, 406.2417
821.6520, 328.6494
822.7880, 207.0757
823.9250, 247.5195
825.0610, 155.9805
826.1980, 214.4585
827.3340, 82.95459
828.4700, 157.4678
829.6050, 167.9985
830.7410, 68.54639
831.8760, 72.11084
833.0120, 85.69287
834.1470, 31.29199
835.2820, 15.90771
836.4160, 37.46094
837.5510, 31.16650
838.6860, 99.18945
839.8200, 64.42090
840.9540, 131.9517
842.0880, 181.3755
843.2220, 207.8755
844.3550, 30.46631
845.4890, 102.0615
846.6220, 143.6943
847.7550, 117.3853
848.8880, 155.1221
850.0210, 81.92383
851.1540, 120.7554
852.2860, 96.63525
853.4190, 247.5513
854.5510, 100.5820
855.6830, 162.6523
856.8150, 75.79395
857.9460, 145.9634
859.0780, 76.19434
860.2090, 55.45410
861.3410, 181.7324
862.4720, 78.09326
863.6020, 46.52734
864.7330, 75.83691
865.8640, 20.23096
866.9940, 56.62891
868.1240, 71.96875
869.2540, 23.58936
870.3840, 79.23730
871.5140, 160.8989
872.6440, 233.5752
873.7730, 240.2891
874.9020, 212.0259
876.0320, 346.7954
877.1600, 363.5845
878.2890, 417.4014
879.4180, 466.2427
880.5460, 405.1055
881.6750, 577.9902
882.8030, 608.8984
883.9310, 737.8213
885.0590, 726.7666
886.1860, 665.7300
887.3140, 762.7114
888.4410, 798.7041
889.5680, 917.7090
890.6950, 867.7246
891.8220, 927.7715
892.9490, 1015.830
894.0750, 1145.920
895.2020, 1202.039
896.3280, 1226.170
897.4540, 1134.317
898.5800, 1412.479
899.7050, 1332.667
900.8310, 1462.885
901.9560, 1455.114
903.0820, 1583.371
904.2070, 1742.646
905.3320, 1702.956
906.4560, 1792.276
907.5810, 1958.623
908.7050, 1934.989
909.8300, 2008.365
910.9540, 2140.767
912.0780, 2148.176
913.2010, 2129.598
914.3250, 2195.030
915.4480, 2234.473
916.5720, 2435.925
917.6950, 2375.387
918.8180, 2374.861
919.9410, 2513.344
921.0630, 2420.835
922.1860, 2467.336
923.3080, 2418.846
924.4300, 2429.148
925.5520, 2532.890
926.6740, 2438.424
927.7960, 2448.966
928.9170, 2400.517
930.0390, 2443.075
931.1600, 2435.641
932.2810, 2329.214
933.4020, 2400.794
934.5230, 2313.382
935.6430, 2342.977
936.7640, 2201.578
937.8840, 2245.190
939.0040, 2330.811
940.1240, 2232.438
941.2440, 2138.070
942.3630, 2150.709
943.4830, 2156.355
944.6020, 2215.006
945.7210, 2136.664
946.8400, 2148.325
947.9590, 2133.996
949.0770, 2155.672
950.1960, 2068.358
951.3140, 2068.050
952.4320, 1933.746
953.5500, 1878.447
954.6680, 1922.154
955.7860, 1749.866
956.9030, 1763.583
958.0210, 1637.305
959.1380, 1580.031
960.2550, 1492.762
961.3720, 1407.988
962.4890, 1283.239
963.6050, 1236.985
964.7220, 1189.735
965.8380, 1067.490
966.9540, 1136.248
968.0700, 1040.010
969.1860, 949.7769
970.3010, 993.5488
971.4170, 866.3999
972.5320, 772.1782
973.6470, 886.6660
974.7620, 900.4517
975.8770, 810.9487
976.9910, 831.4194
978.1060, 823.2583
979.2200, 780.0938
980.3340, 877.2856
981.4480, 793.9180
982.5620, 836.0635
983.6760, 1003.964
984.7890, 859.1025
985.9030, 962.9775
987.0160, 971.2451
988.1290, 945.2446
989.2420, 1138.247
990.3550, 1083.542
991.4670, 1249.936
992.5800, 1291.250
993.6920, 1393.612
994.8040, 1463.100
995.9160, 1549.709
997.0280, 1646.654
998.1390, 1776.599
999.2510, 1887.983
1000.362, 2053.354
1001.473, 2138.237
1002.584, 2373.196
1003.695, 2563.348
1004.805, 2724.367
1005.916, 2820.559
1007.026, 3213.212
1008.136, 3326.449
1009.246, 3558.138
1010.356, 3901.505
1011.466, 4183.773
1012.576, 4452.740
1013.685, 4943.975
1014.794, 5472.184
1015.903, 5913.560
1017.012, 6352.115
1018.121, 6725.550
1019.229, 7177.765
1020.338, 7536.349
1021.446, 8069.513
1022.554, 8639.687
1023.662, 9172.867
1024.770, 9399.362
1025.878, 9736.557
1026.985, 10149.46
1028.092, 10352.57
1029.200, 10551.87
1030.307, 10775.07
1031.413, 10892.03
1032.520, 10798.65
1033.627, 10837.99
1034.733, 10838.51
1035.839, 10647.21
1036.945, 10289.28
1038.051, 10225.33
1039.157, 9846.582
1040.262, 9406.170
1041.368, 9032.528
1042.473, 8535.900
1043.578, 8121.331
1044.683, 7575.602
1045.788, 7066.094
1046.893, 6705.764
1047.997, 6257.039
1049.101, 5594.561
1050.205, 5239.007
1051.309, 4714.585
1052.413, 4377.935
1053.517, 4082.215
1054.621, 3728.496
1055.724, 3460.851
1056.827, 3160.133
1057.930, 2919.254
1059.033, 2696.700
1060.136, 2529.984
1061.238, 2355.269
1062.341, 2277.552
1063.443, 2248.837
1064.545, 2123.251
1065.647, 1978.545
1066.749, 1806.839
1067.850, 1754.133
1068.952, 1751.427
1070.053, 1614.737
1071.154, 1570.286
1072.255, 1567.682
1073.356, 1467.067
1074.457, 1400.356
1075.557, 1450.960
1076.658, 1442.248
1077.758, 1405.534
1078.858, 1367.820
1079.958, 1354.671
1081.057, 1333.283
1082.157, 1355.500
1083.256, 1293.786
1084.356, 1241.070
1085.455, 1176.353
1086.554, 1294.008
1087.653, 1176.285
1088.751, 1192.568
1089.850, 1085.870
1090.948, 1079.281
1092.046, 1086.704
1093.144, 967.3828
1094.242, 987.4512
1095.340, 941.6172
1096.437, 952.5557
1097.534, 894.8359
1098.632, 887.1753
1099.729, 880.4595
1100.826, 844.0776
1101.922, 795.5972
1103.019, 717.8599
1104.115, 667.1670
1105.212, 722.4326
1106.308, 642.7192
1107.404, 584.0020
1108.499, 444.3711
1109.595, 457.8237
1110.691, 418.2266
1111.786, 451.6895
1112.881, 357.2017
1113.976, 384.0645
1115.071, 356.5708
1116.166, 237.3413
1117.260, 257.8833
1118.355, 236.5879
1119.449, 133.1787
1120.543, 93.82959
1121.637, 32.50244
1122.731, 20.70459
1123.824, 86.17041
1124.918, 48.93213
1126.011, 72.70947
1127.104, 128.4976
1128.197, 37.67188
1129.290, 14.30322
1130.382, 9.121094
1131.475, 8.503418
1132.567, 54.29980
1133.659, 29.82031
1134.751, 48.03320
1135.843, 34.88916
1136.935, 0.6318360
1138.027, 85.60840
1139.118, 30.42090
1140.209, 68.77637
1141.300, 15.18115
1142.391, 49.60156
1143.482, 34.47900
1144.573, 26.95703
1145.663, 25.66797
1146.754, 27.72852
1147.844, 1.888184
1148.934, 27.45850
1150.024, 9.800293
1151.113, 10.34277
1152.203, 102.0679
1153.292, 74.56689
1154.381, 61.86768
1155.470, 56.07178
1156.559, 50.17090
1157.648, 61.59619
1158.737, 48.33398
1159.825, 29.80078
1160.913, 1.075195
1162.001, 3.193359
1163.089, 38.72314
1164.177, 49.68115
1165.265, 17.31348
1166.352, 38.70557
1167.440, 12.29297
1168.527, 75.36133
1169.614, 85.75342
1170.701, 35.40918
1171.788, 14.55566
1172.874, 40.20850
1173.961, 31.03955
1175.047, 109.9673
1176.133, 30.66797
1177.219, 20.48145
1178.305, 129.1519
1179.390, 30.81006
1180.476, 38.45410
1181.561, 28.08447
1182.646, 57.72607
1183.731, 120.3975
1184.816, 104.9883
1185.901, 59.72949
1186.985, 100.3291
1188.070, 168.8818
1189.154, 102.5005
1190.238, 125.0283
1191.322, 118.5430
1192.406, 93.22119
1193.489, 157.7109
1194.573, 57.37891
1195.656, 126.9863
1196.739, 149.5566
1197.822, 159.2319
1198.905, 109.7837
1199.988, 11.19336
1201.070, 44.58057
1202.153, 66.95215
1203.235, 70.30859
1204.317, 93.86670
1205.399, 42.10254
1206.481, 108.6533
1207.562, 131.9521
1208.644, 115.5278
1209.725, 28.79980
1210.806, 89.63574
1211.887, 10.87402
1212.968, 111.2324
1214.049, 131.4307
1215.129, 110.7109
1216.209, 43.88086
1217.290, 138.0347
1218.370, 136.1045
1219.450, 162.1494
1220.529, 85.25977
1221.609, 82.40332
1222.688, 51.48291
1223.768, 119.5444
1224.847, 139.5908
1225.926, 58.62305
1227.005, 197.6377
1228.083, 101.6377
1229.162, 114.6226
1230.240, 57.59277
1231.318, 67.87500
1232.396, 203.4800
1233.474, 110.5762
1234.552, 175.4814
1235.629, 204.3716
1236.707, 130.3252
1237.784, 108.1860
1238.861, 99.03027
1239.938, 148.8584
1241.015, 110.6758
1242.092, 104.4717
1243.168, 58.25098
1244.244, 121.0107
1245.321, 74.75439
1246.397, 169.4800
1247.473, 94.32715
1248.548, 198.1011
1249.624, 131.7749
1250.699, 186.4785
1251.775, 89.11768
1252.850, 113.2612
1253.925, 158.8638
1254.999, 183.4478
1256.074, 154.0151
1257.148, 237.5635
1258.223, 92.85254
1259.297, 164.4199
1260.371, 49.91309
1261.445, 64.38379
1262.519, 10.39160
1263.592, 186.8457
1264.666, 82.10156
1265.739, 135.4810
1266.812, 116.6792
1267.885, 41.40967
1268.958, 140.5459
1270.030, 122.2222
1271.103, 110.2119
1272.175, 27.99121
1273.247, 101.7388
1274.319, 4.835938
1275.391, 83.99316
1276.463, 54.92432
1277.535, 48.66797
1278.606, 42.52246
1279.677, 71.43799
1280.748, 12.72510
1281.819, 53.36328
1282.890, 136.4434
1283.961, 10.50830
1285.031, 122.2417
1286.102, 201.2715
1287.172, 70.57715
1288.242, 98.67432
1289.312, 88.57959
1290.381, 46.56689
1291.451, 96.78271
1292.520, 100.3301
1293.590, 129.1533
1294.659, 172.7812
1295.728, 5.223145
1296.797, 69.28271
1297.865, 16.35059
1298.934, 131.2100
1300.002, 27.28906
1301.070, 69.43262
1302.138, 132.1309
1303.206, 5.757813
1304.274, 113.5371
1305.341, 31.08398
1306.409, 115.4429
1307.476, 102.1865
1308.543, 77.67285
1309.610, 93.22510
1310.677, 54.63232
1311.744, 44.24854
1312.810, 123.9214
1313.877, 21.58203
1314.943, 52.15820
1316.009, 109.7959
