##NAMES=Astrophyllite
##RRUFFID=R060202
##IDEAL CHEMISTRY=K_2_NaFe^2+^_7_Ti^4+^_2_(Si_4_O_12_)_2_O_2_(OH)_4_F
##LOCALITY=Demix Quarry, Mont Saint-Hilaire, Rouville County, Quebec, Canada
##OWNER=RRUFF
##SOURCE=Royal Ontario Museum
##DESCRIPTION=Aggregate of brown splintered wafers
##STATUS=The identification of this mineral has been confirmed by X-ray diffraction and chemical analysis
##URL=rruff.info/R060202
##MEASURED CHEMISTRY=(K_0.56_Na_0.38_Ca_0.06_)_3_(Fe^2+^_0.52_Mn_0.44_Mg_0.04_)_7_(Ti_0.75_Zr_0.15_Al_0.15_)_2_Si_8_O_24_(O_0.27_OH_0.73_)_7_
##PIN_ID=M00260
##ORIENTATION=Laser parallel to -b* (0 -1 0). Fiducial mark perpendicular to laser is parallel to c [0 0 1]
143.9560, 0.0000000E+00
145.1840, 153.0645
146.4120, 7.546875
147.6390, 234.2773
148.8670, 702.7930
150.0940, 1136.686
151.3210, 769.6094
152.5490, 1108.379
153.7750, 877.9727
155.0020, 1073.102
156.2290, 1063.230
157.4550, 1131.896
158.6810, 1505.707
159.9080, 1693.330
161.1340, 1886.541
162.3590, 1969.766
163.5850, 1990.729
164.8110, 1895.463
166.0360, 1909.344
167.2610, 1683.213
168.4860, 1420.938
169.7110, 1323.395
170.9360, 802.4805
172.1610, 732.1055
173.3850, 567.1895
174.6100, 391.6543
175.8340, 538.4375
177.0580, 128.7871
178.2820, 52.32422
179.5050, 126.5508
180.7290, 16.51367
181.9520, 182.5176
183.1760, 57.45508
184.3990, 185.3496
185.6220, 211.2793
186.8450, 616.2988
188.0670, 825.4121
189.2900, 873.5977
190.5120, 1415.834
191.7340, 1385.100
192.9560, 1831.369
194.1780, 2411.629
195.4000, 2278.859
196.6220, 2767.035
197.8430, 3476.150
199.0640, 3751.184
200.2860, 4393.123
201.5070, 4217.953
202.7270, 4054.664
203.9480, 3624.244
205.1690, 3830.684
206.3890, 4510.973
207.6090, 4987.191
208.8290, 5416.363
210.0490, 6183.248
211.2690, 6603.254
212.4890, 7492.719
213.7080, 8034.113
214.9280, 8054.225
216.1470, 8793.082
217.3660, 9375.148
218.5850, 9647.600
219.8030, 10085.45
221.0220, 10531.40
222.2400, 10945.48
223.4590, 11258.27
224.6770, 11437.09
225.8950, 11651.03
227.1120, 11565.68
228.3300, 11743.72
229.5480, 11657.00
230.7650, 11804.26
231.9820, 11463.40
233.1990, 10967.36
234.4160, 10544.14
235.6330, 9997.576
236.8490, 9436.184
238.0660, 8845.459
239.2820, 8195.551
240.4980, 7620.467
241.7140, 6916.195
242.9300, 6607.730
244.1460, 6444.062
245.3610, 6243.191
246.5770, 5752.127
247.7920, 5321.863
249.0070, 4996.775
250.2220, 4836.715
251.4370, 4202.816
252.6510, 4186.688
253.8660, 3601.758
255.0800, 3531.271
256.2940, 3384.182
257.5080, 3164.592
258.7220, 2656.059
259.9360, 2520.158
261.1490, 2234.852
262.3630, 1942.977
263.5760, 1859.135
264.7890, 1391.723
266.0020, 1304.121
267.2150, 1064.596
268.4270, 894.4883
269.6400, 290.8906
270.8520, 268.4727
272.0640, 45.83398
273.2760, 347.9805
274.4880, 4.087891
275.7000, 25.89648
276.9120, 9.406250
278.1230, 230.1250
279.3340, 133.6191
280.5450, 148.2109
281.7560, 52.27734
282.9670, 146.6914
284.1780, 14.42383
285.3880, 18.12695
286.5980, 105.5137
287.8090, 149.8945
289.0190, 62.38086
290.2290, 195.8926
291.4380, 116.8184
292.6480, 38.29297
293.8570, 308.0215
295.0670, 370.8184
296.2760, 424.5625
297.4850, 565.5938
298.6930, 641.6758
299.9020, 588.0254
301.1110, 604.1641
302.3190, 1005.426
303.5270, 1143.906
304.7350, 1077.525
305.9430, 1139.295
307.1510, 1291.658
308.3580, 1638.072
309.5660, 1665.939
310.7730, 1929.299
311.9800, 1984.922
313.1870, 2021.035
314.3940, 2292.979
315.6010, 2407.971
316.8070, 2332.906
318.0130, 2493.906
319.2200, 2356.951
320.4260, 2461.191
321.6310, 2209.367
322.8370, 2428.822
324.0430, 2570.463
325.2480, 2641.885
326.4540, 2423.834
327.6590, 2578.457
328.8640, 2582.812
330.0680, 2582.107
331.2730, 2788.762
332.4780, 2610.873
333.6820, 2814.014
334.8860, 2864.572
336.0900, 2984.615
337.2940, 2954.477
338.4980, 2969.828
339.7010, 3135.225
340.9050, 3217.178
342.1080, 3167.686
343.3110, 3291.316
344.5140, 3106.318
345.7170, 3191.219
346.9200, 3392.730
348.1220, 3350.123
349.3240, 3475.025
350.5270, 3527.500
351.7290, 3578.072
352.9310, 3671.822
354.1320, 3630.648
355.3340, 3754.584
356.5350, 3527.576
357.7370, 3613.197
358.9380, 3574.611
360.1390, 3767.260
361.3400, 3613.398
362.5400, 3619.990
363.7410, 3511.520
364.9410, 3463.391
366.1410, 3295.482
367.3410, 3402.367
368.5410, 3622.561
369.7410, 3389.398
370.9400, 3653.219
372.1400, 3366.055
373.3390, 3288.613
374.5380, 3597.352
375.7370, 3205.768
376.9360, 3353.023
378.1350, 3354.887
379.3330, 3238.539
380.5310, 3213.852
381.7300, 3075.691
382.9280, 2840.395
384.1260, 2783.961
385.3230, 2599.998
386.5210, 2470.678
387.7180, 2310.832
388.9160, 2148.854
390.1130, 1998.736
391.3100, 1879.488
392.5060, 1736.123
393.7030, 1518.588
394.9000, 1467.939
396.0960, 1341.160
397.2920, 1177.248
398.4880, 1190.209
399.6840, 1089.043
400.8800, 1089.748
402.0750, 986.3086
403.2710, 1050.783
404.4660, 910.1133
405.6610, 719.3223
406.8560, 956.4023
408.0510, 813.3633
409.2450, 853.2012
410.4400, 826.9180
411.6340, 749.5156
412.8280, 866.9941
414.0220, 702.3535
415.2160, 655.5586
416.4100, 643.6934
417.6030, 757.7031
418.7970, 580.8145
419.9900, 600.7559
421.1830, 379.0781
422.3760, 362.9590
423.5690, 385.7305
424.7610, 159.4238
425.9540, 223.9668
427.1460, 326.4238
428.3380, 141.8516
429.5300, 3.744141
430.7220, 106.1133
431.9140, 68.57617
433.1050, 173.2324
434.2970, 175.8320
435.4880, 212.5527
436.6790, 230.2363
437.8700, 166.2461
439.0610, 196.7305
440.2510, 137.6777
441.4420, 139.0996
442.6320, 526.8457
443.8220, 158.5234
445.0120, 369.4727
446.2020, 454.8066
447.3910, 204.5645
448.5810, 241.6113
449.7700, 365.9707
450.9600, 226.7031
452.1490, 141.7363
453.3370, 201.0234
454.5260, 304.5918
455.7150, 61.49609
456.9030, 126.6074
458.0910, 182.0410
459.2800, 39.43750
460.4670, 61.89453
461.6550, 503.0840
462.8430, 209.1602
464.0300, 135.1133
465.2180, 183.9395
466.4050, 323.6387
467.5920, 73.22266
468.7790, 123.6758
469.9650, 138.0059
471.1520, 250.2090
472.3380, 68.29492
473.5250, 130.2559
474.7110, 343.0957
475.8970, 111.8242
477.0820, 239.4297
478.2680, 190.9238
479.4540, 130.3008
480.6390, 308.5645
481.8240, 347.7168
483.0090, 360.7656
484.1940, 458.7090
485.3780, 168.5527
486.5630, 420.2832
487.7470, 354.9141
488.9320, 268.4453
490.1160, 431.8730
491.3000, 337.2012
492.4830, 222.4297
493.6670, 421.5566
494.8500, 343.5879
496.0340, 526.5234
497.2170, 453.3652
498.4000, 604.1172
499.5820, 373.7852
500.7650, 686.3633
501.9480, 495.8574
503.1300, 587.2695
504.3120, 434.6016
505.4940, 408.8477
506.6760, 529.0098
507.8580, 440.0957
509.0390, 453.0469
510.2210, 342.0176
511.4020, 388.8574
512.5830, 354.6152
513.7640, 310.2949
514.9450, 336.8887
516.1250, 253.4062
517.3060, 290.6504
518.4860, 287.6855
519.6660, 341.4727
520.8460, 351.6719
522.0260, 392.7988
523.2060, 498.8555
524.3850, 712.8398
525.5650, 540.7578
526.7440, 632.6113
527.9230, 731.3945
529.1020, 572.1172
530.2810, 864.7754
531.4590, 1099.375
532.6380, 1059.949
533.8160, 1331.465
534.9940, 1150.920
536.1720, 1739.316
537.3500, 1851.656
538.5270, 2274.014
539.7050, 2784.369
540.8820, 2955.727
542.0590, 3350.070
543.2360, 4182.441
544.4130, 4561.830
545.5900, 5056.242
546.7660, 5360.393
547.9430, 5744.791
549.1190, 6255.229
550.2950, 6174.111
551.4710, 6681.191
552.6470, 6748.244
553.8220, 6625.031
554.9980, 6585.377
556.1730, 6538.016
557.3480, 6275.508
558.5230, 5903.957
559.6980, 5522.906
560.8730, 5192.225
562.0470, 5000.666
563.2220, 4678.115
564.3960, 4357.686
565.5700, 4341.600
566.7440, 3767.457
567.9170, 3676.352
569.0910, 3654.258
570.2640, 3069.260
571.4380, 2883.574
572.6110, 3186.512
573.7840, 2681.855
574.9570, 2899.697
576.1290, 2791.434
577.3020, 2719.930
578.4740, 2672.396
579.6460, 2745.955
580.8180, 2546.686
581.9900, 2845.205
583.1620, 2819.727
584.3330, 2765.012
585.5040, 2901.520
586.6760, 3126.902
587.8470, 3141.055
589.0180, 2774.047
590.1880, 2748.854
591.3590, 2433.004
592.5290, 2664.053
593.7000, 2566.598
594.8700, 2472.588
596.0400, 2573.254
597.2090, 2266.359
598.3790, 2309.566
599.5490, 2265.645
600.7180, 2304.701
601.8870, 1916.613
603.0560, 2329.396
604.2250, 2243.898
605.3940, 2147.830
606.5620, 2477.227
607.7300, 2153.363
608.8990, 2305.895
610.0670, 2523.943
611.2350, 2552.164
612.4020, 2422.113
613.5700, 2797.861
614.7370, 2742.186
615.9050, 3019.615
617.0720, 3254.902
618.2390, 3411.961
619.4060, 3485.850
620.5720, 3802.469
621.7390, 3766.922
622.9050, 3830.572
624.0710, 4144.312
625.2370, 4890.498
626.4030, 4961.508
627.5690, 5400.605
628.7340, 5611.469
629.9000, 5909.008
631.0650, 6545.268
632.2300, 7222.172
633.3950, 7932.635
634.5600, 8838.650
635.7240, 10064.02
636.8890, 10853.88
638.0530, 12226.46
639.2170, 13467.73
640.3810, 15454.07
641.5450, 16993.38
642.7080, 18942.31
643.8720, 21031.65
645.0350, 22639.41
646.1980, 24069.11
647.3610, 24656.99
648.5240, 24969.29
649.6870, 24543.30
650.8490, 23874.90
652.0120, 22503.74
653.1740, 20697.47
654.3360, 18660.08
655.4980, 17259.84
656.6600, 15939.29
657.8210, 14555.95
658.9830, 13527.64
660.1440, 12373.60
661.3050, 11805.66
662.4660, 11412.93
663.6270, 10725.55
664.7870, 10091.20
665.9480, 10069.86
667.1080, 10052.54
668.2680, 9932.238
669.4280, 10141.75
670.5880, 10315.26
671.7480, 10444.51
672.9070, 10591.22
674.0670, 10610.02
675.2260, 11168.71
676.3850, 11355.36
677.5440, 11826.16
678.7030, 11919.71
679.8610, 12649.21
681.0200, 12783.84
682.1780, 12950.66
683.3360, 13566.13
684.4940, 13750.83
685.6520, 13887.68
686.8090, 13934.68
687.9670, 14197.23
689.1240, 14164.59
690.2810, 14576.45
691.4380, 14573.18
692.5950, 14604.28
693.7520, 14643.49
694.9080, 14831.33
696.0650, 14844.66
697.2210, 15009.73
698.3770, 14954.95
699.5330, 15247.42
700.6880, 15212.69
701.8440, 15356.86
702.9990, 15245.53
704.1550, 15340.94
705.3100, 15380.98
706.4650, 15424.25
707.6190, 15473.32
708.7740, 15448.69
709.9290, 14883.45
711.0830, 14780.51
712.2370, 14751.61
713.3910, 13885.14
714.5450, 13401.72
715.6980, 12940.34
716.8520, 12529.37
718.0050, 12188.02
719.1580, 11610.76
720.3110, 11039.58
721.4640, 10635.46
722.6170, 10275.42
723.7700, 9644.539
724.9220, 9463.734
726.0740, 8892.053
727.2260, 8290.520
728.3780, 8139.066
729.5300, 7338.707
730.6810, 7496.469
731.8330, 7232.316
732.9840, 6989.223
734.1350, 6437.211
735.2860, 6314.297
736.4370, 6103.424
737.5880, 5867.607
738.7380, 5450.785
739.8880, 5627.992
741.0390, 5377.213
742.1890, 4843.420
743.3380, 5029.623
744.4880, 5072.826
745.6380, 4661.029
746.7870, 4826.223
747.9360, 4505.422
749.0850, 4599.617
750.2340, 4659.811
751.3830, 4494.000
752.5310, 4519.275
753.6800, 4250.369
754.8280, 4239.547
755.9760, 4031.719
757.1240, 3598.883
758.2720, 3495.039
759.4190, 3557.193
760.5670, 3511.336
761.7140, 3505.467
762.8610, 3421.590
764.0080, 3245.699
765.1550, 2952.803
766.3020, 3095.891
767.4480, 3055.969
768.5950, 2797.035
769.7410, 3184.090
770.8870, 2924.133
772.0330, 2412.162
773.1780, 2707.180
774.3240, 2899.184
775.4690, 2517.170
776.6140, 2431.143
777.7590, 2595.098
778.9040, 2887.035
780.0490, 2670.955
781.1940, 2559.859
782.3380, 2571.746
783.4820, 2389.615
784.6260, 2352.469
785.7700, 2272.301
786.9140, 1964.121
788.0580, 1730.920
789.2010, 1665.703
790.3450, 1867.469
791.4880, 1601.219
792.6310, 1264.951
793.7730, 1554.668
794.9160, 1064.371
796.0590, 1286.059
797.2010, 985.7285
798.3430, 790.3809
799.4850, 980.0156
800.6270, 990.6309
801.7690, 635.2285
802.9100, 570.8027
804.0520, 397.3555
805.1930, 428.8906
806.3340, 83.40430
807.4750, 89.88867
808.6160, 97.65430
809.7560, 57.70508
810.8970, 348.0352
812.0370, 79.34180
813.1770, 98.62109
814.3170, 238.1328
815.4570, 152.0625
816.5960, 181.1250
817.7360, 85.33398
818.8750, 261.6465
820.0140, 222.1543
821.1530, 239.8359
822.2920, 176.7012
823.4310, 304.7227
824.5690, 310.9629
825.7070, 276.4277
826.8460, 234.1016
827.9840, 421.9609
829.1220, 331.1074
830.2590, 363.4902
831.3970, 22.12891
832.5340, 283.8457
833.6710, 103.7793
834.8080, 168.8320
835.9450, 475.0410
837.0820, 136.5664
838.2190, 214.2305
839.3550, 349.0762
840.4910, 294.1758
841.6270, 500.4941
842.7630, 278.1465
843.8990, 36.00977
845.0350, 215.9629
846.1700, 63.09766
847.3060, 115.6699
848.4410, 119.4004
849.5760, 51.10156
850.7100, 270.7578
851.8450, 282.2461
852.9800, 202.9883
854.1140, 417.5605
855.2480, 429.1035
856.3820, 332.6230
857.5160, 660.1152
858.6500, 472.5801
859.7830, 893.0137
860.9170, 962.4199
862.0500, 889.7988
863.1830, 1019.145
864.3160, 1147.469
865.4480, 983.7559
866.5810, 1421.018
867.7130, 1158.246
868.8460, 1636.445
869.9780, 1718.613
871.1100, 2004.746
872.2410, 2104.852
873.3730, 2242.922
874.5050, 2361.957
875.6360, 2502.934
876.7670, 2692.938
877.8980, 2825.879
879.0290, 2976.789
880.1590, 3200.660
881.2900, 3197.512
882.4200, 3379.332
883.5500, 3852.113
884.6800, 3715.879
885.8100, 4189.613
886.9400, 4210.312
888.0690, 4333.984
889.1990, 4305.621
890.3280, 4770.230
891.4570, 4943.805
892.5860, 5234.344
893.7140, 5283.859
894.8430, 5832.344
895.9710, 6078.793
897.1000, 6235.215
898.2280, 6155.602
899.3560, 6319.992
900.4830, 7005.422
901.6110, 7254.840
902.7380, 7560.223
903.8660, 7829.574
904.9930, 8193.906
906.1200, 8232.207
907.2460, 8687.492
908.3730, 8823.750
909.5000, 9258.008
910.6260, 9265.234
911.7520, 9274.457
912.8780, 9646.703
914.0040, 9623.934
915.1290, 10061.20
916.2550, 10018.47
917.3800, 10218.71
918.5050, 10069.94
919.6300, 10290.16
920.7550, 10123.36
921.8800, 10113.54
923.0040, 10413.74
924.1290, 9910.906
925.2530, 10003.09
926.3770, 10002.31
927.5010, 9795.605
928.6250, 9827.465
929.7480, 9767.125
930.8720, 9541.371
931.9950, 9216.598
933.1180, 8744.609
934.2410, 8615.039
935.3640, 8037.336
936.4860, 7829.605
937.6090, 7664.891
938.7310, 7348.219
939.8530, 6966.516
940.9750, 6691.812
942.0970, 6314.309
943.2180, 5830.797
944.3400, 5548.578
945.4610, 5187.898
946.5820, 5207.125
947.7030, 4758.457
948.8240, 4487.840
949.9450, 4444.062
951.0650, 3971.539
952.1860, 3878.059
953.3060, 3586.453
954.4260, 3260.672
955.5460, 3111.242
956.6650, 2697.586
957.7850, 2380.777
958.9040, 2515.824
960.0230, 2007.379
961.1420, 1904.254
962.2610, 1781.219
963.3800, 1558.527
964.4990, 1457.480
965.6170, 1500.340
966.7350, 1321.562
967.8530, 1236.312
968.9710, 1183.312
970.0890, 986.1836
971.2070, 1073.805
972.3240, 1076.641
973.4410, 840.5742
974.5580, 790.0195
975.6750, 904.9062
976.7920, 798.8320
977.9090, 958.7227
979.0250, 708.8203
980.1410, 882.6406
981.2580, 920.0781
982.3740, 1073.266
983.4890, 1189.492
984.6050, 1314.348
985.7200, 1357.238
986.8360, 1627.191
987.9510, 1562.836
989.0660, 1474.945
990.1810, 1676.074
991.2950, 1823.215
992.4100, 1709.371
993.5240, 2007.543
994.6390, 2264.742
995.7530, 2363.945
996.8660, 2653.145
997.9800, 2307.398
999.0940, 3002.645
1000.207, 2905.898
1001.320, 2855.172
1002.433, 3428.453
1003.546, 3761.750
1004.659, 4028.059
1005.772, 4418.395
1006.884, 4467.746
1007.996, 4820.109
1009.108, 5412.484
1010.220, 5356.879
1011.332, 5822.281
1012.444, 6286.551
1013.555, 6704.387
1014.666, 7178.238
1015.777, 7684.934
1016.888, 7869.715
1017.999, 8345.973
1019.110, 8867.574
1020.220, 9107.102
1021.331, 9305.645
1022.441, 9386.203
1023.551, 9727.781
1024.661, 9638.383
1025.770, 9858.004
1026.880, 9899.719
1027.989, 9924.367
1029.098, 9640.238
1030.207, 9678.332
1031.316, 9384.023
1032.425, 8741.438
1033.533, 8741.656
1034.642, 8382.094
1035.750, 7822.223
1036.858, 7745.301
1037.966, 7394.969
1039.073, 6762.320
1040.181, 6656.082
1041.288, 6238.324
1042.396, 5752.582
1043.503, 5755.281
1044.610, 5199.418
1045.716, 4630.566
1046.823, 4491.059
1047.929, 4293.391
1049.036, 3741.039
1050.142, 3721.984
1051.248, 3481.793
1052.353, 3077.676
1053.459, 2803.645
1054.564, 3426.855
1055.670, 2938.016
1056.775, 2798.434
1057.880, 2446.969
1058.985, 2398.531
1060.089, 2457.973
1061.194, 2111.285
1062.298, 2297.008
1063.402, 2085.477
1064.506, 2444.625
1065.610, 1755.879
1066.713, 2133.723
1067.817, 1985.352
1068.920, 1768.758
1070.023, 1823.621
1071.126, 2121.672
1072.229, 2116.152
1073.332, 2011.605
1074.435, 2251.988
1075.537, 1946.602
1076.639, 1754.250
1077.741, 2128.523
1078.843, 1793.043
1079.945, 1941.883
1081.046, 1937.148
1082.148, 1784.547
1083.249, 1953.262
1084.350, 1863.645
1085.451, 1995.926
1086.551, 1950.406
1087.652, 1798.652
1088.752, 1709.281
1089.853, 1948.039
1090.953, 1767.766
1092.053, 1448.348
1093.152, 1684.906
1094.252, 1554.656
1095.351, 1468.766
1096.451, 1800.488
1097.550, 1308.691
1098.649, 1141.324
1099.748, 1273.664
1100.846, 1018.055
1101.945, 1074.230
1103.043, 1220.367
1104.141, 1291.141
1105.239, 1288.324
1106.337, 996.8203
1107.434, 1078.285
1108.532, 1010.449
1109.629, 936.9844
1110.726, 1071.242
1111.823, 822.1836
1112.920, 953.2383
1114.017, 932.6211
1115.113, 981.9766
1116.210, 880.4258
1117.306, 825.3164
1118.402, 921.0977
1119.498, 933.0820
1120.593, 814.1992
1121.689, 868.3086
1122.784, 614.5156
1123.879, 630.7070
1124.974, 764.9102
1126.069, 654.9570
1127.164, 710.9844
1128.259, 703.9570
1129.353, 407.0508
1130.447, 613.1484
1131.541, 601.4805
1132.635, 366.5078
1133.729, 555.2852
1134.822, 351.4219
1135.916, 287.6328
1137.009, 332.9727
1138.102, 264.6445
1139.195, 369.7070
1140.288, 307.3828
1141.380, 230.7148
1142.473, 218.6758
1143.565, 22.55078
1144.657, 168.7344
1145.749, 4.289063
1146.841, 40.84375
1147.932, 30.09766
1149.024, 47.79688
1150.115, 90.89062
1151.206, 145.0039
1152.297, 205.0391
1153.388, 229.3906
1154.479, 166.0195
1155.569, 202.6797
1156.659, 176.2578
1157.750, 125.6914
1158.839, 211.2031
1159.929, 105.1289
1161.019, 62.02344
1162.108, 276.0156
1163.198, 107.2148
1164.287, 293.3164
1165.376, 26.75000
1166.465, 94.92578
1167.553, 114.9922
1168.642, 2.476563
1169.730, 67.80859
1170.818, 46.05469
1171.906, 111.9023
1172.994, 85.09375
1174.082, 18.82812
1175.170, 62.61328
1176.257, 204.2266
1177.344, 9.234375
1178.431, 216.9766
1179.518, 107.9297
1180.605, 28.28906
1181.691, 66.60156
1182.778, 89.83594
1183.864, 42.67578
1184.950, 10.30469
1186.036, 120.4375
1187.122, 195.0352
1188.207, 90.75391
1189.292, 264.7188
1190.378, 292.9336
1191.463, 2.363281
1192.548, 152.9609
1193.632, 49.47266
1194.717, 61.78125
1195.801, 59.01953
1196.886, 19.04688
1197.970, 348.5898
1199.054, 256.8125
1200.137, 110.6250
1201.221, 191.8398
1202.305, 250.7188
1203.388, 36.41797
1204.471, 43.34766
1205.554, 32.76172
1206.637, 83.55078
1207.719, 90.16016
1208.802, 272.3164
1209.884, 198.2773
1210.966, 102.1211
1212.048, 73.73438
1213.130, 258.7227
1214.212, 117.1367
1215.293, 157.8828
1216.374, 17.86719
1217.456, 200.9570
1218.536, 130.5625
1219.617, 359.3086
1220.698, 146.1758
1221.778, 208.2969
1222.859, 241.2266
1223.939, 218.1836
1225.019, 154.4453
1226.099, 279.5117
1227.178, 194.1641
1228.258, 358.7500
1229.337, 197.6367
1230.417, 214.3164
1231.496, 361.6680
1232.574, 306.3398
1233.653, 107.6328
1234.732, 426.0859
1235.810, 524.1719
1236.888, 748.5586
1237.966, 429.5547
1239.044, 349.1602
1240.122, 546.5195
1241.199, 469.8203
1242.277, 487.6562
1243.354, 527.4727
1244.431, 330.6523
1245.508, 475.5000
1246.585, 468.6016
1247.661, 350.8008
1248.738, 485.8086
1249.814, 653.5352
1250.890, 252.3516
1251.966, 368.9297
1253.042, 314.6680
1254.117, 92.18359
1255.193, 155.4844
1256.268, 452.1367
1257.343, 291.4141
1258.418, 385.5352
1259.493, 495.2227
1260.567, 549.1055
1261.642, 440.7344
1262.716, 658.1758
1263.790, 368.7930
1264.864, 432.5117
1265.938, 61.21484
1267.011, 442.4727
1268.085, 490.8828
1269.158, 631.8477
1270.231, 387.9531
1271.304, 695.9023
1272.377, 384.7500
1273.450, 517.0820
1274.522, 248.7930
1275.594, 478.7578
1276.666, 321.4922
1277.738, 364.6719
1278.810, 456.1758
1279.882, 631.6953
1280.953, 370.1797
1282.025, 406.5742
1283.096, 347.5391
1284.167, 241.4766
1285.238, 411.4297
1286.308, 323.7031
1287.379, 478.4180
1288.449, 734.8750
1289.519, 815.1094
1290.589, 586.3750
1291.659, 397.6094
1292.729, 584.2852
1293.798, 739.9570
1294.868, 328.4258
1295.937, 247.5391
1297.006, 358.4023
1298.075, 386.8164
1299.143, 428.4648
1300.212, 242.7969
1301.280, 434.1445
1302.348, 429.3906
1303.416, 172.8320
1304.484, 528.1992
1305.552, 185.5430
1306.620, 12.54688
1307.687, 71.24219
1308.754, 215.9531
1309.821, 390.8359
