##NAMES=Astrophyllite
##RRUFFID=R060103
##IDEAL CHEMISTRY=K_2_NaFe^2+^_7_Ti^4+^_2_(Si_4_O_12_)_2_O_2_(OH)_4_F
##LOCALITY=Brivik, Norway
##OWNER=RRUFF
##SOURCE=University of Arizona Mineral Museum
##DESCRIPTION=Brown fragment embedded in matrix
##STATUS=The identification of this mineral is confirmed by single-crystal X-ray diffraction and chemical analysis.
##URL=rruff.info/R060103
##MEASURED CHEMISTRY=K_2.00_Na_1.00_(Fe^2+^_0.55_Mn_0.32_Fe^3+^_0.04_Mg_0.04_Ca_0.04_)_7_(Ti_0.66_Zr_0.18_Al_0.16_)_2_Si_8.00_O_26_(OH)_4_F_1.00_
##PIN_ID=M01528
##ORIENTATION=Laser parallel to (1 0 1). Fiducial mark perpendicular to laser is parallel to c [0 0 1]
157.5600, 0.0000000E+00
158.7920, 29.01367
160.0240, 30.74805
161.2560, 71.47949
162.4870, 436.2559
163.7180, 549.4561
164.9490, 746.5039
166.1800, 844.4912
167.4110, 827.4902
168.6410, 835.7598
169.8720, 921.6318
171.1020, 916.4199
172.3320, 1138.081
173.5620, 1097.649
174.7910, 1103.731
176.0210, 1122.061
177.2500, 774.6484
178.4790, 695.5850
179.7080, 574.9932
180.9370, 587.8320
182.1650, 298.0547
183.3940, 137.6221
184.6220, 24.49316
185.8500, 8.567383
187.0780, 52.78613
188.3050, 77.40527
189.5330, 8.685547
190.7600, 37.78906
191.9870, 33.28027
193.2140, 148.5771
194.4410, 108.1719
195.6680, 229.1016
196.8940, 327.3457
198.1200, 370.8643
199.3470, 461.6191
200.5720, 581.5674
201.7980, 635.6709
203.0240, 781.8867
204.2490, 797.1836
205.4740, 756.5430
206.6990, 646.9492
207.9240, 762.3936
209.1490, 864.8682
210.3740, 1018.361
211.5980, 1188.861
212.8220, 1432.352
214.0460, 1454.820
215.2700, 1555.256
216.4930, 1769.648
217.7170, 1991.983
218.9400, 2189.255
220.1630, 2301.460
221.3860, 2353.629
222.6090, 2609.880
223.8320, 2801.346
225.0540, 2799.052
226.2760, 2986.123
227.4980, 2846.788
228.7200, 3116.196
229.9420, 2995.332
231.1630, 3122.105
232.3850, 3088.632
233.6060, 3115.633
234.8270, 3105.607
236.0480, 3060.444
237.2690, 2875.142
238.4890, 2870.618
239.7090, 2793.438
240.9290, 2713.115
242.1490, 2733.494
243.3690, 2567.761
244.5890, 2427.932
245.8080, 2303.672
247.0270, 2281.084
248.2470, 2167.256
249.4650, 2064.268
250.6840, 1889.143
251.9030, 1840.455
253.1210, 1856.562
254.3390, 1777.090
255.5570, 1758.508
256.7750, 1872.884
257.9930, 1882.263
259.2100, 1974.592
260.4280, 2004.783
261.6450, 1541.851
262.8620, 1654.777
264.0790, 1415.567
265.2950, 1583.216
266.5120, 1405.713
267.7280, 1548.052
268.9440, 1462.232
270.1600, 1473.249
271.3760, 1292.107
272.5920, 1227.807
273.8070, 1257.345
275.0220, 1089.724
276.2370, 975.9355
277.4520, 982.0068
278.6670, 797.9316
279.8820, 778.7031
281.0960, 731.3145
282.3100, 573.1816
283.5240, 652.1904
284.7380, 555.1260
285.9520, 585.5039
287.1650, 572.8887
288.3780, 685.8203
289.5920, 607.0898
290.8050, 591.8867
292.0170, 748.4648
293.2300, 732.5264
294.4430, 781.8291
295.6550, 841.5723
296.8670, 879.5938
298.0790, 1058.113
299.2910, 1241.426
300.5020, 1418.978
301.7140, 1421.586
302.9250, 1569.253
304.1360, 1692.464
305.3470, 1823.933
306.5580, 2023.784
307.7680, 2101.322
308.9780, 2214.088
310.1890, 2296.337
311.3990, 2338.504
312.6090, 2397.156
313.8180, 2406.801
315.0280, 2347.545
316.2370, 2423.807
317.4460, 2362.154
318.6550, 2241.167
319.8640, 2260.279
321.0730, 2205.533
322.2810, 2090.126
323.4890, 2177.896
324.6980, 2026.394
325.9060, 1809.140
327.1130, 1902.252
328.3210, 1863.864
329.5280, 1800.338
330.7360, 1719.650
331.9430, 1734.536
333.1500, 1679.685
334.3560, 1706.152
335.5630, 1838.672
336.7690, 1800.316
337.9760, 1800.063
339.1820, 1878.676
340.3870, 1845.562
341.5930, 2066.543
342.7990, 2150.528
344.0040, 2255.262
345.2090, 2425.655
346.4140, 2374.759
347.6190, 2445.413
348.8240, 2286.058
350.0280, 2199.690
351.2330, 2133.525
352.4370, 2070.427
353.6410, 2191.882
354.8440, 2046.104
356.0480, 1917.266
357.2520, 1962.122
358.4550, 1714.450
359.6580, 1816.484
360.8610, 1851.007
362.0640, 1738.780
363.2660, 1812.032
364.4690, 1791.433
365.6710, 1724.420
366.8730, 1659.612
368.0750, 1705.988
369.2770, 1648.295
370.4780, 1764.156
371.6800, 1764.924
372.8810, 1929.897
374.0820, 1804.722
375.2830, 1705.119
376.4830, 1664.893
377.6840, 1761.089
378.8840, 1764.356
380.0840, 1915.973
381.2840, 1811.987
382.4840, 1895.900
383.6840, 2008.841
384.8830, 1930.480
386.0830, 1997.839
387.2820, 2178.113
388.4810, 2235.290
389.6800, 2191.383
390.8780, 2138.455
392.0770, 2056.828
393.2750, 2166.659
394.4730, 1743.076
395.6710, 1853.702
396.8690, 1748.949
398.0660, 1491.997
399.2640, 1465.922
400.4610, 1374.423
401.6580, 1108.759
402.8550, 1063.061
404.0520, 943.9355
405.2490, 715.6982
406.4450, 785.3428
407.6410, 662.8740
408.8370, 670.2881
410.0330, 349.5879
411.2290, 418.7646
412.4240, 293.8223
413.6200, 346.7568
414.8150, 148.5723
416.0100, 142.2578
417.2050, 259.8145
418.4000, 132.2500
419.5940, 20.55566
420.7880, 146.7197
421.9830, 189.7568
423.1770, 70.66992
424.3700, 74.45020
425.5640, 137.1006
426.7580, 11.62207
427.9510, 105.0000
429.1440, 95.76172
430.3370, 8.708984
431.5300, 26.83105
432.7220, 61.13281
433.9150, 96.64746
435.1070, 66.36035
436.2990, 66.27832
437.4910, 74.45508
438.6830, 176.7773
439.8750, 58.41602
441.0660, 149.3203
442.2570, 104.5049
443.4480, 55.98535
444.6390, 131.7324
445.8300, 187.7520
447.0210, 63.09473
448.2110, 179.6523
449.4010, 29.48535
450.5910, 38.48535
451.7810, 93.70605
452.9710, 123.8740
454.1610, 66.31445
455.3500, 130.6045
456.5390, 109.7559
457.7280, 160.7695
458.9170, 102.6494
460.1060, 145.3916
461.2940, 251.0020
462.4830, 339.4922
463.6710, 237.8662
464.8590, 367.1221
466.0470, 305.2637
467.2350, 352.2930
468.4220, 512.2080
469.6090, 405.0156
470.7970, 503.7148
471.9840, 387.3076
473.1700, 379.7910
474.3570, 391.1719
475.5440, 384.4580
476.7300, 338.8896
477.9160, 313.5977
479.1020, 243.8037
480.2880, 206.7334
481.4740, 184.5566
482.6590, 110.2676
483.8440, 143.8643
485.0300, 146.3467
486.2140, 51.71387
487.3990, 11.96289
488.5840, 56.08105
489.7680, 45.08203
490.9530, 107.9629
492.1370, 92.73145
493.3210, 52.38770
494.5040, 11.07324
495.6880, 20.66504
496.8720, 61.42676
498.0550, 63.83984
499.2380, 78.32227
500.4210, 41.52734
501.6040, 29.12500
502.7860, 72.66797
503.9690, 25.10254
505.1510, 6.572266
506.3330, 34.63574
507.5150, 67.73633
508.6970, 23.73438
509.8780, 3.374023
511.0600, 138.4072
512.2410, 9.089844
513.4220, 3.667969
514.6030, 122.1436
515.7840, 124.5205
516.9640, 191.8018
518.1440, 66.99023
519.3250, 169.0820
520.5050, 116.0830
521.6850, 235.9902
522.8640, 104.8096
524.0440, 92.53711
525.2230, 50.17480
526.4020, 85.71973
527.5820, 117.1758
528.7600, 101.5430
529.9390, 88.82422
531.1180, 73.02344
532.2960, 43.13379
533.4740, 174.1650
534.6520, 30.13184
535.8300, 94.01562
537.0080, 83.18164
538.1850, 64.51465
539.3630, 77.15137
540.5400, 71.73242
541.7170, 53.74414
542.8940, 142.6855
544.0700, 116.0518
545.2470, 268.3535
546.4230, 402.5859
547.5990, 403.3984
548.7750, 463.4629
549.9510, 531.9775
551.1270, 804.4609
552.3020, 882.4551
553.4780, 1191.777
554.6530, 1218.209
555.8280, 1370.050
557.0030, 1553.713
558.1770, 1781.233
559.3520, 1863.200
560.5260, 1734.475
561.7000, 1801.307
562.8740, 1713.759
564.0480, 1694.806
565.2220, 1673.498
566.3950, 1416.283
567.5680, 1335.456
568.7420, 1210.725
569.9150, 1207.223
571.0870, 951.7646
572.2600, 975.7676
573.4320, 816.6328
574.6050, 776.3457
575.7770, 655.8369
576.9490, 443.2373
578.1210, 561.6543
579.2920, 417.5732
580.4640, 600.0889
581.6350, 597.0586
582.8060, 559.3496
583.9770, 769.4902
585.1480, 697.7158
586.3190, 763.2334
587.4890, 823.2891
588.6590, 895.2266
589.8290, 914.9121
590.9990, 913.0898
592.1690, 976.1445
593.3390, 1012.366
594.5080, 1037.428
595.6770, 1105.420
596.8470, 1113.627
598.0160, 1157.581
599.1840, 1065.213
600.3530, 1086.141
601.5210, 1068.863
602.6900, 1103.118
603.8580, 1052.940
605.0260, 998.3379
606.1930, 996.2920
607.3610, 969.1777
608.5280, 980.3311
609.6960, 995.5039
610.8630, 1030.660
612.0300, 1126.244
613.1970, 1173.354
614.3630, 1335.446
615.5300, 1562.604
616.6960, 1850.569
617.8620, 2313.721
619.0280, 2656.605
620.1940, 3243.215
621.3590, 3822.690
622.5250, 4364.093
623.6900, 4886.967
624.8550, 5306.164
626.0200, 5465.424
627.1850, 5273.850
628.3490, 4920.529
629.5140, 4421.130
630.6780, 3932.657
631.8420, 3452.825
633.0060, 3106.915
634.1700, 2979.718
635.3330, 2765.785
636.4970, 2774.372
637.6600, 2992.524
638.8230, 3371.651
639.9860, 3765.999
641.1490, 4150.787
642.3110, 4566.781
643.4740, 5113.573
644.6360, 5855.289
645.7980, 6273.812
646.9600, 6911.105
648.1220, 7529.726
649.2840, 7648.057
650.4450, 8231.124
651.6060, 8578.176
652.7670, 8793.591
653.9280, 8812.009
655.0890, 8660.138
656.2500, 8468.324
657.4100, 7927.842
658.5700, 7090.887
659.7300, 6438.413
660.8900, 5546.771
662.0500, 4773.680
663.2100, 4152.096
664.3690, 3459.518
665.5280, 3086.815
666.6880, 2725.318
667.8460, 2493.010
669.0050, 2428.695
670.1640, 2302.056
671.3220, 2131.738
672.4810, 2118.270
673.6390, 2108.256
674.7970, 2242.329
675.9540, 2346.461
677.1120, 2422.334
678.2690, 2572.971
679.4270, 2764.485
680.5840, 2796.582
681.7410, 2829.336
682.8980, 2825.209
684.0540, 3188.732
685.2110, 3299.143
686.3670, 3525.721
687.5230, 3661.968
688.6790, 3714.800
689.8350, 3792.842
690.9900, 4001.923
692.1460, 4156.425
693.3010, 4220.594
694.4560, 4518.248
695.6110, 4486.514
696.7660, 4631.831
697.9210, 4749.209
699.0750, 4754.635
700.2290, 4724.121
701.3840, 4900.691
702.5370, 4918.334
703.6910, 4961.093
704.8450, 5068.466
705.9980, 5141.031
707.1520, 5239.209
708.3050, 5279.549
709.4580, 5406.031
710.6110, 5265.690
711.7630, 5319.451
712.9160, 5104.338
714.0680, 5359.329
715.2200, 5147.434
716.3720, 5205.636
717.5240, 5000.938
718.6760, 4871.343
719.8270, 4630.877
720.9780, 4586.510
722.1300, 4538.265
723.2810, 4313.127
724.4310, 4164.091
725.5820, 3909.170
726.7330, 3763.283
727.8830, 3781.692
729.0330, 3472.133
730.1830, 3294.664
731.3330, 3206.270
732.4830, 2894.981
733.6320, 2909.758
734.7810, 2374.605
735.9310, 2343.516
737.0800, 2086.491
738.2290, 2105.531
739.3770, 1842.638
740.5260, 1646.808
741.6740, 1701.038
742.8220, 1565.328
743.9700, 1454.679
745.1180, 1395.090
746.2660, 1385.562
747.4130, 1164.095
748.5610, 1043.684
749.7080, 1215.333
750.8550, 1183.041
752.0020, 889.8096
753.1490, 1091.638
754.2950, 858.5283
755.4420, 922.4795
756.5880, 909.4932
757.7340, 891.5693
758.8800, 946.3291
760.0250, 942.9141
761.1710, 996.1826
762.3160, 941.5205
763.4620, 911.9248
764.6070, 864.3936
765.7520, 931.9336
766.8960, 806.5469
768.0410, 794.9902
769.1850, 807.9844
770.3300, 697.8037
771.4740, 676.6914
772.6180, 656.6494
773.7610, 685.6846
774.9050, 672.7998
776.0480, 662.4658
777.1920, 635.1729
778.3350, 611.6934
779.4780, 571.1689
780.6200, 547.1133
781.7630, 505.3232
782.9060, 486.0029
784.0480, 495.7539
785.1900, 462.5732
786.3320, 588.4600
787.4740, 577.4131
788.6150, 678.4375
789.7570, 589.5264
790.8980, 592.6816
792.0390, 585.9053
793.1800, 530.1934
794.3210, 438.5469
795.4620, 557.9629
796.6020, 408.4424
797.7420, 557.9863
798.8830, 311.5947
800.0230, 504.2637
801.1620, 200.9971
802.3020, 276.7949
803.4420, 131.6572
804.5810, 93.58301
805.7200, 145.5713
806.8590, 35.37695
807.9980, 54.72949
809.1370, 44.10156
810.2750, 130.8789
811.4140, 20.63086
812.5520, 4.324219
813.6900, 50.95801
814.8280, 159.5273
815.9650, 160.0791
817.1030, 156.6172
818.2400, 11.13965
819.3780, 83.59473
820.5150, 73.96387
821.6520, 23.39160
822.7880, 145.7188
823.9250, 160.0312
825.0610, 172.3330
826.1980, 43.36816
827.3340, 44.12793
828.4700, 82.05469
829.6050, 100.7959
830.7410, 109.2959
831.8760, 55.63574
833.0120, 33.62598
834.1470, 100.6719
835.2820, 140.7734
836.4160, 159.9307
837.5510, 412.3965
838.6860, 440.2246
839.8200, 606.4336
840.9540, 668.9902
842.0880, 666.8125
843.2220, 765.9355
844.3550, 1184.551
845.4890, 1234.076
846.6220, 1275.707
847.7550, 1460.791
848.8880, 1509.636
850.0210, 1476.263
851.1540, 1755.929
852.2860, 1753.777
853.4190, 2083.668
854.5510, 2427.602
855.6830, 2577.576
856.8150, 3200.594
857.9460, 3323.651
859.0780, 3563.749
860.2090, 3664.887
861.3410, 3866.064
862.4720, 3413.280
863.6020, 3274.535
864.7330, 2926.828
865.8640, 2734.158
866.9940, 2350.525
868.1240, 2080.929
869.2540, 1798.368
870.3840, 1722.843
871.5140, 1729.353
872.6440, 1692.926
873.7730, 1537.560
874.9020, 1627.246
876.0320, 1376.004
877.1600, 1517.845
878.2890, 1463.770
879.4180, 1375.795
880.5460, 1236.900
881.6750, 1292.075
882.8030, 1474.323
883.9310, 1319.647
885.0590, 1402.028
886.1860, 1348.488
887.3140, 1374.036
888.4410, 1499.617
889.5680, 1677.250
890.6950, 1632.924
891.8220, 1741.633
892.9490, 1798.384
894.0750, 1961.183
895.2020, 1927.017
896.3280, 2072.887
897.4540, 2160.783
898.5800, 2311.708
899.7050, 2292.664
900.8310, 2299.646
901.9560, 2377.652
903.0820, 2470.688
904.2070, 2575.748
905.3320, 2728.834
906.4560, 2675.944
907.5810, 2768.078
908.7050, 2879.235
909.8300, 3093.416
910.9540, 3002.619
912.0780, 3005.845
913.2010, 3102.093
914.3250, 3054.361
915.4480, 3001.648
916.5720, 3009.960
917.6950, 2883.289
918.8180, 2994.639
919.9410, 2847.006
921.0630, 2934.394
922.1860, 2802.798
923.3080, 2938.222
924.4300, 2904.662
925.5520, 2927.119
926.6740, 2816.762
927.7960, 2827.643
928.9170, 2816.348
930.0390, 2784.003
931.1600, 2667.670
932.2810, 2659.908
933.4020, 2608.681
934.5230, 2555.678
935.6430, 2563.269
936.7640, 2459.284
937.8840, 2465.934
939.0040, 2428.453
940.1240, 2292.826
941.2440, 2294.529
942.3630, 2122.574
943.4830, 2015.301
944.6020, 1980.144
945.7210, 1913.152
946.8400, 1884.542
947.9590, 1855.211
949.0770, 1719.854
950.1960, 1881.688
951.3140, 1690.472
952.4320, 1663.371
953.5500, 1696.963
954.6680, 1552.530
955.7860, 1601.408
956.9030, 1481.750
958.0210, 1344.969
959.1380, 1245.560
960.2550, 935.6113
961.3720, 981.4971
962.4890, 737.3896
963.6050, 597.9141
964.7220, 607.8193
965.8380, 597.2959
966.9540, 441.2139
968.0700, 402.1387
969.1860, 209.0674
970.3010, 135.0020
971.4170, 41.94043
972.5320, 35.86035
973.6470, 167.2432
974.7620, 239.4639
975.8770, 190.8408
976.9910, 245.3496
978.1060, 252.0176
979.2200, 248.8496
980.3340, 180.8438
981.4480, 4.030273
982.5620, 62.13477
983.6760, 95.62598
984.7890, 96.37891
985.9030, 157.1211
987.0160, 196.8633
988.1290, 267.6055
989.2420, 333.3486
990.3550, 433.0898
991.4670, 385.8311
992.5800, 406.5703
993.6920, 589.3682
994.8040, 681.1045
995.9160, 1122.840
997.0280, 1360.642
998.1390, 1972.371
999.2510, 2750.099
1000.362, 3633.824
1001.473, 4026.547
1002.584, 4267.266
1003.695, 3805.979
1004.805, 3106.691
1005.916, 2544.526
1007.026, 2092.899
1008.136, 1824.497
1009.246, 1899.155
1010.356, 1859.061
1011.466, 2165.646
1012.576, 2368.927
1013.685, 2696.988
1014.794, 3072.856
1015.903, 3369.541
1017.012, 3870.358
1018.121, 4426.974
1019.229, 4683.687
1020.338, 5026.355
1021.446, 5515.385
1022.554, 5624.678
1023.662, 5776.090
1024.770, 6127.868
1025.878, 6093.101
1026.985, 6484.344
1028.092, 6566.089
1029.200, 6378.055
1030.307, 6253.531
1031.413, 6149.958
1032.520, 6257.045
1033.627, 6156.437
1034.733, 5712.811
1035.839, 5723.592
1036.945, 5400.928
1038.051, 5559.245
1039.157, 5093.544
1040.262, 4938.824
1041.368, 4531.084
1042.473, 4486.325
1043.578, 4100.545
1044.683, 3681.748
1045.788, 3482.931
1046.893, 3378.094
1047.997, 3161.237
1049.101, 2891.359
1050.205, 2550.460
1051.309, 2521.541
1052.413, 2061.603
1053.517, 1957.643
1054.621, 1718.661
1055.724, 1456.660
1056.827, 1402.637
1057.930, 1311.594
1059.033, 1257.529
1060.136, 1044.441
1061.238, 1024.334
1062.341, 869.2686
1063.443, 828.3164
1064.545, 820.3184
1065.647, 842.1230
1066.749, 812.9043
1067.850, 882.9209
1068.952, 799.6582
1070.053, 872.3730
1071.154, 804.0645
1072.255, 863.7334
1073.356, 1094.378
1074.457, 1061.000
1075.557, 1281.604
1076.658, 1271.362
1077.758, 1338.924
1078.858, 1586.479
1079.958, 1819.014
1081.057, 1989.525
1082.157, 2149.021
1083.256, 2128.514
1084.356, 1967.007
1085.455, 1968.498
1086.554, 1634.968
1087.653, 1849.424
1088.751, 1448.867
1089.850, 1443.288
1090.948, 1200.708
1092.046, 1203.128
1093.144, 1133.549
1094.242, 1025.947
1095.340, 1055.321
1096.437, 1020.682
1097.534, 1096.018
1098.632, 907.3457
1099.729, 960.6504
1100.826, 996.9316
1101.922, 844.1875
1103.019, 866.4189
1104.115, 906.3740
1105.212, 945.9980
1106.308, 989.2715
1107.404, 1000.228
1108.499, 983.0684
1109.595, 936.1582
1110.691, 881.3867
1111.786, 782.4932
1112.881, 655.5234
1113.976, 582.1309
1115.071, 528.0068
1116.166, 495.1270
1117.260, 375.2354
1118.355, 211.1885
1119.449, 391.1260
1120.543, 385.0469
1121.637, 228.9531
1122.731, 287.8428
1123.824, 167.7178
1124.918, 142.5771
1126.011, 302.4199
1127.104, 247.2471
1128.197, 138.0605
1129.290, 236.8555
1130.382, 294.6367
1131.475, 200.4023
1132.567, 391.1533
1133.659, 189.8896
1134.751, 230.6123
1135.843, 191.3193
1136.935, 41.98633
1138.027, 35.36523
1139.118, 7.809570
1140.209, 73.30664
1141.300, 125.8896
1142.391, 137.5850
1143.482, 187.4004
1144.573, 125.3584
1145.663, 81.42969
1146.754, 95.58789
1147.844, 114.8389
1148.934, 33.19531
1150.024, 131.6113
1151.113, 164.1396
1152.203, 80.20605
1153.292, 33.46582
1154.381, 11.80371
1155.470, 31.04102
1156.559, 4.986328
1157.648, 22.57227
1158.737, 24.55176
1159.825, 13.65137
1160.913, 103.7236
1162.001, 167.7842
1163.089, 45.83301
1164.177, 269.8633
1165.265, 258.8838
1166.352, 55.89355
1167.440, 354.8877
1168.527, 389.8721
1169.614, 362.8467
1170.701, 455.8096
1171.788, 394.7646
1172.874, 485.7100
1173.961, 517.6455
1175.047, 587.5732
1176.133, 595.4902
1177.219, 485.3994
1178.305, 255.2998
1179.390, 311.1924
1180.476, 312.0771
1181.561, 257.9531
1182.646, 352.8223
1183.731, 495.6826
1184.816, 371.5371
1185.901, 230.3818
1186.985, 474.2217
1188.070, 299.0547
1189.154, 327.8799
1190.238, 256.6992
1191.322, 129.5127
1192.406, 36.32129
1193.489, 18.12207
1194.573, 169.0850
1195.656, 119.6113
1196.739, 248.3037
1197.822, 4.991211
1198.905, 159.6699
1199.988, 405.3447
1201.070, 217.0166
1202.153, 215.6816
1203.235, 129.3447
1204.317, 146.0059
1205.399, 57.66211
1206.481, 88.68457
1207.562, 99.92578
1208.644, 114.5342
1209.725, 291.1396
1210.806, 397.7432
1211.887, 358.3457
1212.968, 462.9453
1214.049, 755.5430
1215.129, 525.1416
1216.209, 737.7373
1217.290, 677.3320
1218.370, 549.9277
1219.450, 477.5215
1220.529, 517.1152
1221.609, 461.7080
1222.688, 294.3018
1223.768, 331.8945
1224.847, 273.4893
1225.926, 438.0830
1227.005, 439.6787
1228.083, 285.2754
1229.162, 513.8730
1230.240, 797.4727
1231.318, 753.0732
1232.396, 846.6768
1233.474, 813.2832
1234.552, 1087.903
1235.629, 1111.541
1236.707, 1085.241
1237.784, 1141.023
1238.861, 1113.878
1239.938, 1120.816
1241.015, 1233.844
1242.092, 1120.958
1243.168, 1100.142
1244.244, 1090.352
1245.321, 1177.604
1246.397, 1264.867
1247.473, 1259.140
1248.548, 1339.420
1249.624, 1408.726
1250.699, 1389.750
1251.775, 1251.384
1252.850, 1319.761
1253.925, 1369.161
1254.999, 1218.517
1256.074, 1293.948
1257.148, 1369.391
1258.223, 1425.782
1259.297, 1634.255
1260.371, 1662.738
1261.445, 1829.743
1262.519, 1981.766
1263.592, 2092.312
1264.666, 2197.873
1265.739, 2263.440
1266.812, 2331.892
1267.885, 2419.908
1268.958, 2527.511
1270.030, 2579.156
1271.103, 2612.562
1272.175, 2675.297
1273.247, 2585.970
1274.319, 2436.609
1275.391, 2297.079
1276.463, 2275.738
1277.535, 2288.271
1278.606, 2007.013
1279.677, 2127.664
1280.748, 1952.363
1281.819, 1874.713
1282.890, 1818.803
1283.961, 1764.035
1285.031, 1861.391
1286.102, 1778.557
1287.172, 1767.716
1288.242, 1866.376
1289.312, 1857.818
1290.381, 1931.758
1291.451, 2200.747
1292.520, 2481.080
1293.590, 2377.112
1294.659, 2464.165
1295.728, 2389.813
1296.797, 2147.909
1297.865, 2252.025
1298.934, 2130.163
1300.002, 2396.321
1301.070, 2252.502
1302.138, 2250.701
1303.206, 2368.923
1304.274, 2338.166
1305.341, 2465.431
1306.409, 2474.715
1307.476, 2695.021
1308.543, 2878.352
1309.610, 2950.705
1310.677, 2963.078
1311.744, 3052.473
1312.810, 3088.887
1313.877, 3067.321
1314.943, 3104.779
1316.009, 3094.260
1317.075, 3030.765
1318.140, 3093.290
1319.206, 2841.841
1320.272, 2845.416
1321.337, 2610.951
1322.402, 2282.375
1323.467, 2230.851
