##NAMES=Astrophyllite
##RRUFFID=R060202
##IDEAL CHEMISTRY=K_2_NaFe^2+^_7_Ti^4+^_2_(Si_4_O_12_)_2_O_2_(OH)_4_F
##LOCALITY=Demix Quarry, Mont Saint-Hilaire, Rouville County, Quebec, Canada
##OWNER=RRUFF
##SOURCE=Royal Ontario Museum
##DESCRIPTION=Aggregate of brown splintered wafers
##STATUS=The identification of this mineral has been confirmed by X-ray diffraction and chemical analysis
##URL=rruff.info/R060202
##MEASURED CHEMISTRY=(K_0.56_Na_0.38_Ca_0.06_)_3_(Fe^2+^_0.52_Mn_0.44_Mg_0.04_)_7_(Ti_0.75_Zr_0.15_Al_0.15_)_2_Si_8_O_24_(O_0.27_OH_0.73_)_7_
##PIN_ID=M00170
##ORIENTATION=Laser parallel to (-1 0 -1). Fiducial mark perpendicular to laser is parallel to -b [0 -1 0]
118.1340, 0.0000000E+00
119.3650, 180.3652
120.5960, 145.7031
121.8270, 100.9316
123.0580, 369.6465
124.2880, 279.3477
125.5190, 36.71680
126.7490, 2.914063
127.9790, 5.248047
129.2090, 133.3848
130.4390, 199.4902
131.6680, 546.8066
132.8980, 415.0996
134.1270, 558.1543
135.3560, 549.7773
136.5850, 500.8008
137.8140, 404.0898
139.0430, 395.2656
140.2710, 342.9492
141.5000, 319.7578
142.7280, 294.3848
143.9560, 245.9336
145.1840, 245.3203
146.4120, 632.4688
147.6390, 970.3027
148.8670, 1502.754
150.0940, 1690.762
151.3210, 2075.264
152.5490, 2705.219
153.7750, 3094.592
155.0020, 3384.369
156.2290, 3983.592
157.4550, 4720.297
158.6810, 5366.496
159.9080, 6182.191
161.1340, 6821.393
162.3590, 7800.152
163.5850, 8580.398
164.8110, 9130.141
166.0360, 9482.281
167.2610, 9823.748
168.4860, 9803.461
169.7110, 9590.391
170.9360, 9449.496
172.1610, 8648.750
173.3850, 7843.129
174.6100, 7370.602
175.8340, 6463.152
177.0580, 5582.754
178.2820, 4919.398
179.5050, 4459.062
180.7290, 3641.744
181.9520, 3214.428
183.1760, 2957.107
184.3990, 2406.809
185.6220, 2211.559
186.8450, 1898.371
188.0670, 1702.266
189.2900, 1683.230
190.5120, 1599.365
191.7340, 1504.168
192.9560, 1492.588
194.1780, 1424.660
195.4000, 1416.227
196.6220, 1574.311
197.8430, 1474.883
199.0640, 1597.854
200.2860, 1950.117
201.5070, 1859.701
202.7270, 2090.939
203.9480, 2122.324
205.1690, 1881.914
206.3890, 1764.197
207.6090, 1695.625
208.8290, 1798.314
210.0490, 1768.816
211.2690, 1888.875
212.4890, 1944.945
213.7080, 2139.188
214.9280, 2158.436
216.1470, 2395.742
217.3660, 2000.738
218.5850, 1995.523
219.8030, 2035.104
221.0220, 1919.477
222.2400, 1804.652
223.4590, 1686.627
224.6770, 1662.402
225.8950, 1503.984
227.1120, 1435.373
228.3300, 1465.570
229.5480, 1158.574
230.7650, 1358.395
231.9820, 1136.031
233.1990, 1083.488
234.4160, 1565.764
235.6330, 1233.861
236.8490, 1167.783
238.0660, 939.5586
239.2820, 832.1973
240.4980, 909.6777
241.7140, 760.0254
242.9300, 918.2461
244.1460, 706.3105
245.3610, 659.2773
246.5770, 718.2148
247.7920, 637.0918
249.0070, 684.3320
250.2220, 631.1328
251.4370, 311.5996
252.6510, 507.6758
253.8660, 510.8359
255.0800, 402.3340
256.2940, 560.1973
257.5080, 639.4199
258.7220, 942.4785
259.9360, 1653.066
261.1490, 1217.857
262.3630, 744.4336
263.5760, 1203.545
264.7890, 1959.568
266.0020, 1352.646
267.2150, 2539.879
268.4270, 828.7910
269.6400, 765.3184
270.8520, 773.1582
272.0640, 751.6230
273.2760, 726.0117
274.4880, 732.6426
275.7000, 767.9629
276.9120, 689.2129
278.1230, 866.5215
279.3340, 776.6953
280.5450, 752.5215
281.7560, 571.9883
282.9670, 608.5879
284.1780, 574.2793
285.3880, 569.1680
286.5980, 770.5488
287.8090, 716.9648
289.0190, 764.5547
290.2290, 576.2207
291.4380, 537.0664
292.6480, 726.7930
293.8570, 610.9922
295.0670, 877.3945
296.2760, 741.3652
297.4850, 585.9668
298.6930, 542.9004
299.9020, 580.2773
301.1110, 563.2031
302.3190, 685.5840
303.5270, 658.7227
304.7350, 652.3438
305.9430, 673.2012
307.1510, 826.5645
308.3580, 670.5498
309.5660, 640.0400
310.7730, 925.3379
311.9800, 970.9180
313.1870, 764.2920
314.3940, 809.3125
315.6010, 881.2256
316.8070, 803.0381
318.0130, 797.7539
319.2200, 867.3672
320.4260, 938.8799
321.6310, 1014.289
322.8370, 849.5967
324.0430, 1016.800
325.2480, 948.8994
326.4540, 1052.892
327.6590, 1041.779
328.8640, 1226.562
330.0680, 1165.235
331.2730, 1275.803
332.4780, 1211.570
333.6820, 1464.920
334.8860, 1399.159
336.0900, 1542.288
337.2940, 1603.302
338.4980, 1717.195
339.7010, 1629.973
340.9050, 1703.261
342.1080, 1862.784
343.3110, 2013.932
344.5140, 1673.197
345.7170, 1801.788
346.9200, 1809.529
348.1220, 1894.773
349.3240, 1947.027
350.5270, 1886.946
351.7290, 1804.179
352.9310, 1760.139
354.1320, 1529.418
355.3340, 1697.588
356.5350, 1621.106
357.7370, 1670.840
358.9380, 1473.978
360.1390, 1472.364
361.3400, 1633.519
362.5400, 1333.990
363.7410, 1426.867
364.9410, 1364.399
366.1410, 1336.801
367.3410, 1274.589
368.5410, 1292.817
369.7410, 1121.901
370.9400, 1168.159
372.1400, 1053.233
373.3390, 1007.551
374.5380, 1010.438
375.7370, 1030.246
376.9360, 968.9160
378.1350, 817.0684
379.3330, 764.3164
380.5310, 617.7305
381.7300, 827.9336
382.9280, 756.8379
384.1260, 689.9033
385.3230, 537.2373
386.5210, 584.8105
387.7180, 794.7754
388.9160, 504.9961
390.1130, 515.9863
391.3100, 628.8359
392.5060, 469.5469
393.7030, 429.1172
394.9000, 395.5371
396.0960, 507.8105
397.2920, 434.9307
398.4880, 467.9053
399.6840, 488.7246
400.8800, 385.3555
402.0750, 272.9043
403.2710, 222.2549
404.4660, 62.44434
405.6610, 10.44238
406.8560, 46.20605
408.0510, 333.2910
409.2450, 62.20117
410.4400, 140.3789
411.6340, 275.8594
412.8280, 173.7100
414.0220, 129.8750
415.2160, 199.3379
416.4100, 181.1162
417.6030, 187.2139
418.7970, 96.63672
419.9900, 280.3350
421.1830, 11.40723
422.3760, 201.7109
423.5690, 38.34766
424.7610, 50.22559
425.9540, 22.35449
427.1460, 57.71777
428.3380, 222.4053
429.5300, 248.5498
430.7220, 219.8486
431.9140, 209.4824
433.1050, 38.44238
434.2970, 19.86133
435.4880, 84.68164
436.6790, 8.805664
437.8700, 183.9541
439.0610, 91.02344
440.2510, 65.92773
441.4420, 79.03125
442.6320, 235.7695
443.8220, 111.5098
445.0120, 302.0059
446.2020, 217.8711
447.3910, 263.4717
448.5810, 218.8984
449.7700, 260.6865
450.9600, 309.7168
452.1490, 398.9531
453.3370, 414.7666
454.5260, 557.0088
455.7150, 575.1396
456.9030, 629.0879
458.0910, 725.9961
459.2800, 750.7939
460.4670, 844.4824
461.6550, 866.1738
462.8430, 729.5391
464.0300, 907.9062
465.2180, 781.1680
466.4050, 781.3262
467.5920, 765.3770
468.7790, 689.3242
469.9650, 806.1699
471.1520, 766.9102
472.3380, 737.5508
473.5250, 614.0879
474.7110, 431.5254
475.8970, 555.8594
477.0820, 517.0938
478.2680, 553.2305
479.4540, 605.2656
480.6390, 600.2051
481.8240, 559.4004
483.0090, 290.7969
484.1940, 527.4434
485.3780, 245.9941
486.5630, 436.4473
487.7470, 297.8047
488.9320, 220.0684
490.1160, 297.2324
491.3000, 252.3027
492.4830, 287.2793
493.6670, 169.1641
494.8500, 190.9531
496.0340, 69.64844
497.2170, 50.24805
498.4000, 60.24805
499.5820, 22.65430
500.7650, 8.591797
501.9480, 62.58398
503.1300, 24.33203
504.3120, 3.349609
505.4940, 118.4629
506.6760, 22.71094
507.8580, 25.05859
509.0390, 45.50195
510.2210, 41.95312
511.4020, 66.67188
512.5830, 237.4004
513.7640, 192.3145
514.9450, 27.38867
516.1250, 216.5527
517.3060, 113.8828
518.4860, 272.3223
519.6660, 4.957031
520.8460, 61.03125
522.0260, 127.4180
523.2060, 102.5391
524.3850, 126.8867
525.5650, 82.27539
526.7440, 64.77734
527.9230, 43.14844
529.1020, 22.35742
530.2810, 33.72656
531.4590, 128.5430
532.6380, 196.3516
533.8160, 197.5781
534.9940, 367.0918
536.1720, 270.2363
537.3500, 239.0566
538.5270, 395.5820
539.7050, 434.6543
540.8820, 669.9258
542.0590, 721.2441
543.2360, 843.7910
544.4130, 1134.209
545.5900, 1258.889
546.7660, 1477.953
547.9430, 1471.271
549.1190, 2118.562
550.2950, 1744.320
551.4710, 2160.111
552.6470, 2296.018
553.8220, 2258.453
554.9980, 2319.344
556.1730, 2433.033
557.3480, 2303.416
558.5230, 2385.004
559.6980, 2138.279
560.8730, 2173.318
562.0470, 1884.924
563.2220, 1819.500
564.3960, 1603.230
565.5700, 1385.326
566.7440, 1429.828
567.9170, 1204.195
569.0910, 1095.514
570.2640, 1135.635
571.4380, 998.2695
572.6110, 1020.877
573.7840, 898.3574
574.9570, 803.7988
576.1290, 874.0762
577.3020, 1021.518
578.4740, 1056.541
579.6460, 1249.396
580.8180, 1195.748
581.9900, 1141.496
583.1620, 1218.975
584.3330, 1520.061
585.5040, 1498.836
586.6760, 1771.832
587.8470, 1799.277
589.0180, 1827.293
590.1880, 2073.092
591.3590, 2204.400
592.5290, 2307.094
593.7000, 2497.271
594.8700, 2638.602
596.0400, 2825.619
597.2090, 2775.795
598.3790, 2876.283
599.5490, 3108.803
600.7180, 3104.357
601.8870, 3350.939
603.0560, 3306.551
604.2250, 3419.191
605.3940, 3499.865
606.5620, 3803.570
607.7300, 3858.322
608.8990, 4167.111
610.0670, 4346.930
611.2350, 4560.787
612.4020, 4627.688
613.5700, 4965.625
614.7370, 5018.602
615.9050, 5113.301
617.0720, 5311.355
618.2390, 5221.445
619.4060, 5680.576
620.5720, 5644.748
621.7390, 5721.963
622.9050, 6164.219
624.0710, 5878.879
625.2370, 6227.225
626.4030, 6455.859
627.5690, 6583.293
628.7340, 6699.312
629.9000, 6852.094
631.0650, 7020.283
632.2300, 7438.371
633.3950, 7542.691
634.5600, 7639.609
635.7240, 7712.705
636.8890, 8243.381
638.0530, 8357.068
639.2170, 8709.316
640.3810, 9201.258
641.5450, 9561.703
642.7080, 10097.82
643.8720, 10483.64
645.0350, 10822.94
646.1980, 11333.31
647.3610, 11760.96
648.5240, 12260.65
649.6870, 12624.88
650.8490, 12927.59
652.0120, 13314.38
653.1740, 13304.92
654.3360, 13365.56
655.4980, 13089.90
656.6600, 13080.60
657.8210, 12494.30
658.9830, 12464.08
660.1440, 11963.31
661.3050, 11904.38
662.4660, 11681.21
663.6270, 11645.20
664.7870, 11849.43
665.9480, 12192.43
667.1080, 12102.10
668.2680, 12317.48
669.4280, 12574.40
670.5880, 12784.02
671.7480, 13384.80
672.9070, 13818.67
674.0670, 13996.62
675.2260, 14296.66
676.3850, 15014.79
677.5440, 15174.00
678.7030, 15771.29
679.8610, 16072.68
681.0200, 16531.16
682.1780, 17040.72
683.3360, 17301.37
684.4940, 17695.12
685.6520, 18231.97
686.8090, 18368.94
687.9670, 18526.04
689.1240, 18984.27
690.2810, 19395.73
691.4380, 19542.33
692.5950, 19719.11
693.7520, 19798.10
694.9080, 19949.27
696.0650, 20616.61
697.2210, 20281.14
698.3770, 20771.86
699.5330, 20627.76
700.6880, 20935.29
701.8440, 20571.57
702.9990, 20503.99
704.1550, 20604.40
705.3100, 20538.68
706.4650, 20269.58
707.6190, 20383.94
708.7740, 20178.90
709.9290, 20034.44
711.0830, 19852.34
712.2370, 19360.63
713.3910, 18759.27
714.5450, 18595.74
715.6980, 18050.77
716.8520, 18009.00
718.0050, 17713.83
719.1580, 17287.03
720.3110, 17007.51
721.4640, 16230.46
722.6170, 16175.02
723.7700, 15571.16
724.9220, 15090.16
726.0740, 14801.48
727.2260, 14238.86
728.3780, 13945.50
729.5300, 13530.13
730.6810, 13134.71
731.8330, 12622.57
732.9840, 12073.38
734.1350, 11892.31
735.2860, 11648.96
736.4370, 11369.66
737.5880, 10923.46
738.7380, 10708.31
739.8880, 10459.23
741.0390, 10120.21
742.1890, 9913.254
743.3380, 9911.361
744.4880, 9904.531
745.6380, 9491.092
746.7870, 9637.387
747.9360, 9473.746
749.0850, 9269.164
750.2340, 9105.703
751.3830, 8835.246
752.5310, 8777.852
753.6800, 9001.520
754.8280, 8786.250
755.9760, 8780.047
757.1240, 8760.902
758.2720, 8675.820
759.4190, 8560.805
760.5670, 8508.838
761.7140, 8221.953
762.8610, 8310.123
764.0080, 8194.357
765.1550, 8012.652
766.3020, 8268.012
767.4480, 8187.438
768.5950, 8063.926
769.7410, 8169.477
770.8870, 8217.090
772.0330, 8323.770
773.1780, 8210.512
774.3240, 8193.316
775.4690, 8175.191
776.6140, 8466.125
777.7590, 8315.141
778.9040, 8389.227
780.0490, 8726.387
781.1940, 8601.605
782.3380, 8454.896
783.4820, 8474.250
784.6260, 8580.695
785.7700, 8548.207
786.9140, 8273.785
788.0580, 8357.438
789.2010, 8255.146
790.3450, 8186.928
791.4880, 7640.824
792.6310, 7667.820
793.7730, 7358.881
794.9160, 6928.047
796.0590, 6938.289
797.2010, 6594.648
798.3430, 6211.066
799.4850, 5736.551
800.6270, 5333.113
801.7690, 5136.748
802.9100, 4700.768
804.0520, 4642.230
805.1930, 4054.066
806.3340, 3843.965
807.4750, 3601.922
808.6160, 3255.928
809.7560, 3020.986
810.8970, 2648.098
812.0370, 2445.199
813.1770, 2199.473
814.3170, 2078.734
815.4570, 1904.518
816.5960, 1716.238
817.7360, 1559.818
818.8750, 1392.277
820.0140, 1229.781
821.1530, 1124.336
822.2920, 1145.936
823.4310, 850.5820
824.5690, 883.2715
825.7070, 724.0098
826.8460, 636.7930
827.9840, 888.6172
829.1220, 516.4844
830.2590, 528.3926
831.3970, 556.3418
832.5340, 208.3301
833.6710, 327.3613
834.8080, 189.4258
835.9450, 166.5293
837.0820, 30.33008
838.2190, 154.8242
839.3550, 66.00977
840.4910, 8.767578
841.6270, 163.5293
842.7630, 63.66211
843.8990, 191.1191
845.0350, 22.96680
846.1700, 69.80859
847.3060, 90.66797
848.4410, 274.5547
849.5760, 257.5566
850.7100, 158.6660
851.8450, 305.8398
852.9800, 339.1523
854.1140, 293.6172
855.2480, 398.2207
856.3820, 262.0078
857.5160, 403.9160
858.6500, 359.0215
859.7830, 365.2969
860.9170, 393.7578
862.0500, 242.3926
863.1830, 394.1582
864.3160, 259.1172
865.4480, 273.2051
866.5810, 218.4336
867.7130, 151.1309
868.8460, 74.18750
869.9780, 55.65039
871.1100, 48.12891
872.2410, 28.63867
873.3730, 84.82031
874.5050, 150.3086
875.6360, 121.8145
876.7670, 183.7168
877.8980, 205.8770
879.0290, 121.4395
880.1590, 213.0254
881.2900, 9.628906
882.4200, 200.2539
883.5500, 516.9102
884.6800, 134.6055
885.8100, 42.33398
886.9400, 411.1133
888.0690, 315.9648
889.1990, 402.8750
890.3280, 529.8242
891.4570, 387.8359
892.5860, 418.9043
893.7140, 516.9883
894.8430, 554.0859
895.9710, 568.2031
897.1000, 373.3359
898.2280, 313.4805
899.3560, 534.7129
900.4830, 686.9629
901.6110, 616.2852
902.7380, 450.6348
903.8660, 811.9883
904.9930, 622.3555
906.1200, 700.7324
907.2460, 939.1152
908.3730, 940.5078
909.5000, 945.9102
910.6260, 902.3496
911.7520, 997.7949
912.8780, 1059.250
914.0040, 1126.711
915.1290, 1200.184
916.2550, 1167.666
917.3800, 1285.152
918.5050, 1193.652
919.6300, 1120.156
920.7550, 1376.666
921.8800, 1199.182
923.0040, 1343.717
924.1290, 1444.285
925.2530, 1192.855
926.3770, 1456.430
927.5010, 1432.010
928.6250, 1353.594
929.7480, 1514.211
930.8720, 1558.832
931.9950, 1382.461
933.1180, 1702.109
934.2410, 1478.766
935.3640, 1635.422
936.4860, 1664.088
937.6090, 1730.756
938.7310, 1834.420
939.8530, 1608.082
940.9750, 1679.744
942.0970, 1796.400
943.2180, 1804.057
944.3400, 2063.709
945.4610, 1927.357
946.5820, 2019.018
947.7030, 1984.680
948.8240, 2182.334
949.9450, 1916.986
951.0650, 1795.635
952.1860, 2067.277
953.3060, 1891.916
954.4260, 1649.547
955.5460, 1750.174
956.6650, 1701.795
957.7850, 1791.408
958.9040, 1578.016
960.0230, 1860.619
961.1420, 1563.215
962.2610, 1745.803
963.3800, 1779.383
964.4990, 1551.953
965.6170, 1874.512
966.7350, 1878.064
967.8530, 1823.605
968.9710, 1851.137
970.0890, 1705.658
971.2070, 1964.170
972.3240, 2073.207
973.4410, 2126.699
974.5580, 2044.180
975.6750, 2254.846
976.7920, 2126.766
977.9090, 2303.211
979.0250, 2686.322
980.1410, 2500.975
981.2580, 2778.219
982.3740, 2956.291
983.4890, 2940.160
984.6050, 3029.857
985.7200, 3337.854
986.8360, 3423.400
987.9510, 3896.844
989.0660, 4057.812
990.1810, 3936.506
991.2950, 4193.051
992.4100, 4710.152
993.5240, 4929.760
994.6390, 5246.891
995.7530, 5393.250
996.8660, 5911.375
997.9800, 6309.520
999.0940, 6632.484
1000.207, 6940.543
1001.320, 7748.730
1002.433, 8096.715
1003.546, 8891.824
1004.659, 9591.305
1005.772, 10090.73
1006.884, 10921.17
1007.996, 12087.05
1009.108, 12647.69
1010.220, 13799.15
1011.332, 15148.63
1012.444, 16175.48
1013.555, 17331.68
1014.666, 18762.40
1015.777, 20093.75
1016.888, 21274.56
1017.999, 22781.05
1019.110, 24152.90
1020.220, 25489.72
1021.331, 26457.00
1022.441, 27876.25
1023.551, 29043.69
1024.661, 30158.60
1025.770, 30789.71
1026.880, 31790.94
1027.989, 32643.72
1029.098, 33270.46
1030.207, 33211.01
1031.316, 33037.77
1032.425, 32809.26
1033.533, 32094.29
1034.642, 31509.38
1035.750, 30783.35
1036.858, 29664.95
1037.966, 28773.55
1039.073, 27403.14
1040.181, 26524.73
1041.288, 24974.33
1042.396, 23576.01
1043.503, 22407.80
1044.610, 20796.37
1045.716, 19311.93
1046.823, 18086.49
1047.929, 16859.28
1049.036, 15598.96
1050.142, 14265.50
1051.248, 13588.52
1052.353, 12204.18
1053.459, 11475.73
1054.564, 10684.24
1055.670, 9935.516
1056.775, 9262.008
1057.880, 8892.719
1058.985, 8176.527
1060.089, 7922.992
1061.194, 7516.244
1062.298, 6916.795
1063.402, 6933.162
1064.506, 6690.824
1065.610, 6272.430
1066.713, 6197.637
1067.817, 5929.461
1068.920, 5631.748
1070.023, 5707.338
1071.126, 5443.707
1072.229, 5287.227
1073.332, 5080.871
1074.435, 5224.199
1075.537, 4987.609
1076.639, 4952.912
1077.741, 4646.203
1078.843, 4633.883
1079.945, 4488.818
1081.046, 4447.070
1082.148, 4559.074
1083.249, 4422.301
1084.350, 4046.568
1085.451, 4153.430
1086.551, 3894.615
1087.652, 4063.309
1088.752, 3716.658
1089.853, 3501.805
1090.953, 3604.215
1092.053, 3439.609
1093.152, 3409.719
1094.252, 3049.814
1095.351, 2956.895
1096.451, 2976.273
1097.550, 2652.326
1098.649, 2552.432
1099.748, 2477.521
1100.846, 2213.691
1101.945, 1902.684
1103.043, 1889.660
1104.141, 1604.908
1105.239, 1575.105
1106.337, 1587.420
1107.434, 1302.350
1108.532, 1174.270
1109.629, 1191.219
1110.726, 777.1504
1111.823, 903.1172
1112.920, 907.0762
1114.017, 536.0449
1115.113, 510.9844
1116.210, 733.1758
1117.306, 770.8770
1118.402, 947.2148
1119.498, 898.4531
1120.593, 893.4219
1121.689, 805.9941
1122.784, 965.9160
1123.879, 920.6309
1124.974, 1045.598
1126.069, 903.8887
1127.164, 534.3008
1128.259, 501.5117
1129.353, 431.9531
1130.447, 60.00000
1131.541, 60.08398
1132.635, 249.3066
1133.729, 139.4219
1134.822, 230.5781
1135.916, 67.16406
1137.009, 108.9688
1138.102, 65.10742
1139.195, 17.38281
1140.288, 15.30078
1141.380, 43.25391
1142.473, 46.72656
1143.565, 9.228516
1144.657, 3.140625
1145.749, 40.40430
1146.841, 111.2324
1147.932, 32.82617
1149.024, 58.45312
1150.115, 47.46484
1151.206, 158.4082
1152.297, 195.8379
1153.388, 128.3926
1154.479, 66.96484
1155.569, 153.4121
1156.659, 124.1914
1157.750, 36.05469
1158.839, 78.42188
1159.929, 13.39453
1161.019, 22.55469
1162.108, 87.67188
1163.198, 238.3125
1164.287, 8.390625
1165.376, 199.2500
1166.465, 5.658203
1167.553, 161.9277
1168.642, 181.7344
1169.730, 240.9961
1170.818, 179.6426
1171.906, 142.1465
1172.994, 120.4844
1174.082, 64.15039
1175.170, 237.0781
1176.257, 154.2695
1177.344, 265.4453
1178.431, 23.59570
1179.518, 124.7070
1180.605, 405.7930
1181.691, 16.85156
1182.778, 130.8711
1183.864, 155.8613
1184.950, 290.8262
1186.036, 21.04102
1187.122, 56.16797
1188.207, 117.8672
1189.292, 101.6328
1190.378, 215.3691
1191.463, 59.22070
1192.548, 72.10156
1193.632, 51.48242
1194.717, 35.22852
1195.801, 40.72266
1196.886, 63.71484
1197.970, 100.1172
1199.054, 3.509766
1200.137, 139.8066
1201.221, 190.4141
1202.305, 153.6738
1203.388, 121.9062
1204.471, 317.1074
1205.554, 175.2812
1206.637, 320.5078
1207.719, 216.8730
1208.802, 25.03516
1209.884, 83.99023
1210.966, 226.9805
1212.048, 77.94336
1213.130, 207.8711
1214.212, 195.7715
1215.293, 88.64258
1216.374, 307.4805
1217.456, 107.2930
1218.536, 168.0723
1219.617, 405.8223
1220.698, 149.5527
1221.778, 48.59375
1222.859, 247.2520
1223.939, 336.8828
1225.019, 293.5801
1226.099, 148.1602
1227.178, 321.7090
1228.258, 208.2305
1229.337, 209.7246
1230.417, 189.1895
1231.496, 233.6230
1232.574, 234.1172
1233.653, 162.4961
1234.732, 174.3828
1235.810, 144.1621
1236.888, 263.4492
1237.966, 260.0273
1239.044, 386.9395
1240.122, 304.1660
1241.199, 303.3828
1242.277, 239.5664
1243.354, 300.6875
1244.431, 81.80664
1245.508, 204.8594
1246.585, 117.9238
1247.661, 190.9414
1248.738, 230.9258
1249.814, 107.8789
1250.890, 186.3027
1251.966, 133.2012
1253.042, 188.0547
1254.117, 150.8750
1255.193, 102.6602
1256.268, 129.6035
1257.343, 155.1133
1258.418, 128.7832
1259.493, 229.4160
1260.567, 234.3848
1261.642, 217.1172
1262.716, 366.1250
1263.790, 252.6172
1264.864, 79.07422
1265.938, 265.7832
1267.011, 425.1582
1268.085, 167.5000
1269.158, 130.3633
1270.231, 95.43555
1271.304, 55.64844
1272.377, 73.18555
1273.450, 169.5488
1274.522, 62.10547
1275.594, 0.3359380
1276.666, 129.4316
1277.738, 124.0273
1278.810, 185.9258
1279.882, 42.42969
1280.953, 264.8691
1282.025, 60.57031
1283.096, 184.4121
1284.167, 131.1777
1285.238, 171.4434
1286.308, 131.4766
1287.379, 95.35938
