##NAMES=Astrophyllite
##RRUFFID=R060202
##IDEAL CHEMISTRY=K_2_NaFe^2+^_7_Ti^4+^_2_(Si_4_O_12_)_2_O_2_(OH)_4_F
##LOCALITY=Demix Quarry, Mont Saint-Hilaire, Rouville County, Quebec, Canada
##OWNER=RRUFF
##SOURCE=Royal Ontario Museum
##DESCRIPTION=Aggregate of brown splintered wafers
##STATUS=The identification of this mineral has been confirmed by X-ray diffraction and chemical analysis
##URL=rruff.info/R060202
##MEASURED CHEMISTRY=(K_0.56_Na_0.38_Ca_0.06_)_3_(Fe^2+^_0.52_Mn_0.44_Mg_0.04_)_7_(Ti_0.75_Zr_0.15_Al_0.15_)_2_Si_8_O_24_(O_0.27_OH_0.73_)_7_
##PIN_ID=M00255
##ORIENTATION=Laser parallel to (0 1 1). Fiducial mark perpendicular to laser is parallel to a [1 0 0]
91.01200, 0.0000000E+00
92.24600, 62.17773
93.48000, 702.1113
94.71400, 525.3457
95.94800, 1060.229
97.18200, 1353.379
98.41600, 1319.527
99.64900, 2001.779
100.8830, 1879.080
102.1160, 1765.180
103.3490, 1537.311
104.5820, 861.4160
105.8150, 1209.357
107.0470, 1367.938
108.2800, 1343.873
109.5120, 598.5625
110.7440, 781.2930
111.9760, 590.8906
113.2080, 384.7578
114.4400, 450.0918
115.6710, 840.2441
116.9030, 913.5859
118.1340, 1177.262
119.3650, 1067.309
120.5960, 1236.148
121.8270, 1145.139
123.0580, 1155.057
124.2880, 1408.088
125.5190, 1557.172
126.7490, 1305.250
127.9790, 1394.275
129.2090, 1690.184
130.4390, 1421.918
131.6680, 1619.426
132.8980, 1313.670
134.1270, 1168.609
135.3560, 1040.215
136.5850, 743.4492
137.8140, 801.2871
139.0430, 741.6953
140.2710, 587.6562
141.5000, 341.1387
142.7280, 68.89648
143.9560, 268.4785
145.1840, 281.6152
146.4120, 312.3066
147.6390, 113.5605
148.8670, 233.3926
150.0940, 224.8105
151.3210, 28.83008
152.5490, 310.5332
153.7750, 325.2754
155.0020, 270.3809
156.2290, 346.8418
157.4550, 380.6504
158.6810, 500.2969
159.9080, 806.3105
161.1340, 874.1699
162.3590, 1167.385
163.5850, 1510.957
164.8110, 1455.793
166.0360, 1852.697
167.2610, 1604.744
168.4860, 1712.971
169.7110, 1692.395
170.9360, 1687.023
172.1610, 1585.863
173.3850, 1342.912
174.6100, 1036.164
175.8340, 817.6191
177.0580, 978.2773
178.2820, 509.1289
179.5050, 595.1504
180.7290, 480.3340
181.9520, 326.6836
183.1760, 244.1953
184.3990, 243.8691
185.6220, 159.7129
186.8450, 221.7207
188.0670, 347.8965
189.2900, 498.2324
190.5120, 531.7148
191.7340, 523.1289
192.9560, 872.4531
194.1780, 1063.760
195.4000, 1078.176
196.6220, 1201.766
197.8430, 1386.551
199.0640, 1637.680
200.2860, 1948.168
201.5070, 2063.902
202.7270, 2667.812
203.9480, 2601.867
205.1690, 2426.070
206.3890, 1860.414
207.6090, 1920.898
208.8290, 1885.518
210.0490, 2019.275
211.2690, 2246.164
212.4890, 2452.184
213.7080, 2845.336
214.9280, 2987.623
216.1470, 3446.035
217.3660, 3585.766
218.5850, 3857.225
219.8030, 3958.043
221.0220, 4092.988
222.2400, 4333.080
223.4590, 4466.348
224.6770, 5057.900
225.8950, 5075.717
227.1120, 5261.824
228.3300, 5906.188
229.5480, 5905.816
230.7650, 6427.736
231.9820, 6422.883
233.1990, 6650.414
234.4160, 7076.119
235.6330, 7210.908
236.8490, 7515.930
238.0660, 7722.305
239.2820, 7819.395
240.4980, 7864.574
241.7140, 8128.080
242.9300, 8273.174
244.1460, 8614.432
245.3610, 8732.070
246.5770, 9029.047
247.7920, 9301.328
249.0070, 9352.109
250.2220, 9260.566
251.4370, 9505.453
252.6510, 9513.426
253.8660, 9612.484
255.0800, 9674.629
256.2940, 9335.875
257.5080, 9440.225
258.7220, 9030.676
259.9360, 8374.238
261.1490, 8326.906
262.3630, 7414.684
263.5760, 6678.492
264.7890, 5927.891
266.0020, 5286.064
267.2150, 4799.973
268.4270, 4160.029
269.6400, 3731.229
270.8520, 3238.574
272.0640, 3027.055
273.2760, 2811.668
274.4880, 2518.408
275.7000, 1939.270
276.9120, 2009.254
278.1230, 1916.352
279.3340, 1411.566
280.5450, 1609.885
281.7560, 1249.311
282.9670, 1058.840
284.1780, 979.4688
285.3880, 1254.191
286.5980, 1087.012
287.8090, 1149.922
289.0190, 1046.199
290.2290, 1007.395
291.4380, 1060.236
292.6480, 913.9160
293.8570, 975.0723
295.0670, 874.9824
296.2760, 987.2441
297.4850, 961.9414
298.6930, 937.5840
299.9020, 1159.301
301.1110, 976.0859
302.3190, 1069.129
303.5270, 1248.613
304.7350, 1163.451
305.9430, 905.6348
307.1510, 1063.295
308.3580, 1145.723
309.5660, 889.1074
310.7730, 1050.447
311.9800, 1134.137
313.1870, 1239.520
314.3940, 1249.986
315.6010, 1331.441
316.8070, 1157.977
318.0130, 1061.559
319.2200, 878.1914
320.4260, 1237.867
321.6310, 926.5898
322.8370, 1206.357
324.0430, 1085.166
325.2480, 1226.018
326.4540, 1282.914
327.6590, 1168.848
328.8640, 1265.312
330.0680, 1298.123
331.2730, 1325.883
332.4780, 1394.969
333.6820, 1516.533
334.8860, 1466.689
336.0900, 1708.387
337.2940, 1817.646
338.4980, 1809.904
339.7010, 2031.195
340.9050, 1919.516
342.1080, 1874.115
343.3110, 1965.498
344.5140, 1776.352
345.7170, 1899.695
346.9200, 1884.762
348.1220, 1974.924
349.3240, 1913.367
350.5270, 1967.574
351.7290, 1736.482
352.9310, 1815.801
354.1320, 1676.496
355.3340, 1733.102
356.5350, 1862.402
357.7370, 1699.721
358.9380, 1715.385
360.1390, 1603.281
361.3400, 1731.816
362.5400, 1425.898
363.7410, 1665.793
364.9410, 1509.914
366.1410, 1266.850
367.3410, 1252.867
368.5410, 1342.287
369.7410, 1401.346
370.9400, 1222.123
372.1400, 1326.188
373.3390, 1387.561
374.5380, 1402.295
375.7370, 1443.141
376.9360, 1703.402
378.1350, 1571.176
379.3330, 1665.596
380.5310, 1524.100
381.7300, 1767.203
382.9280, 1628.920
384.1260, 1706.104
385.3230, 1679.854
386.5210, 1707.908
387.7180, 1879.734
388.9160, 1817.094
390.1130, 2212.008
391.3100, 1876.129
392.5060, 1937.736
393.7030, 2131.344
394.9000, 1988.027
396.0960, 1918.697
397.2920, 2248.611
398.4880, 2069.254
399.6840, 1804.883
400.8800, 2013.498
402.0750, 2142.098
403.2710, 2170.684
404.4660, 2093.252
405.6610, 2061.803
406.8560, 1991.336
408.0510, 2198.854
409.2450, 2117.354
410.4400, 2190.842
411.6340, 2027.314
412.8280, 2355.775
414.0220, 2498.219
415.2160, 2307.646
416.4100, 2510.061
417.6030, 2734.455
418.7970, 2450.834
419.9900, 2554.193
421.1830, 2380.533
422.3760, 2294.854
423.5690, 2210.154
424.7610, 2068.434
425.9540, 1933.691
427.1460, 2157.926
428.3380, 1712.137
429.5300, 1317.324
430.7220, 1451.486
431.9140, 1193.572
433.1050, 1067.387
434.2970, 1137.895
435.4880, 767.0625
436.6790, 710.2578
437.8700, 470.4434
439.0610, 382.6406
440.2510, 299.8438
441.4420, 121.0195
442.6320, 368.1660
443.8220, 208.2812
445.0120, 189.3633
446.2020, 59.58398
447.3910, 186.6074
448.5810, 24.22852
449.7700, 161.9707
450.9600, 171.3008
452.1490, 36.22852
453.3370, 41.27539
454.5260, 66.14453
455.7150, 259.5293
456.9030, 119.8750
458.0910, 163.1836
459.2800, 348.4531
460.4670, 324.6855
461.6550, 250.8770
462.8430, 135.0293
464.0300, 162.1426
465.2180, 428.2129
466.4050, 432.2461
467.5920, 281.2344
468.7790, 521.1816
469.9650, 455.0879
471.1520, 546.9512
472.3380, 399.7734
473.5250, 480.5508
474.7110, 333.2852
475.8970, 92.97656
477.0820, 225.6191
478.2680, 95.21484
479.4540, 201.7617
480.6390, 320.2598
481.8240, 225.7129
483.0090, 346.1191
484.1940, 174.4824
485.3780, 318.7910
486.5630, 139.0566
487.7470, 17.26562
488.9320, 128.3965
490.1160, 124.4727
491.3000, 108.4922
492.4830, 131.5762
493.6670, 18.36133
494.8500, 72.18164
496.0340, 7.066406
497.2170, 99.41211
498.4000, 60.90820
499.5820, 43.53711
500.7650, 63.28711
501.9480, 113.1699
503.1300, 26.21875
504.3120, 33.38086
505.4940, 108.6660
506.6760, 47.11328
507.8580, 42.87109
509.0390, 154.3965
510.2210, 0.2890630
511.4020, 25.29297
512.5830, 99.41797
513.7640, 166.7031
514.9450, 298.1855
516.1250, 484.5449
517.3060, 166.7539
518.4860, 231.1621
519.6660, 69.46680
520.8460, 40.54492
522.0260, 200.6914
523.2060, 369.0527
524.3850, 170.7246
525.5650, 129.6016
526.7440, 217.6621
527.9230, 237.9512
529.1020, 167.4805
530.2810, 186.1582
531.4590, 55.03516
532.6380, 63.05664
533.8160, 134.7793
534.9940, 134.5391
536.1720, 398.2754
537.3500, 478.9883
538.5270, 331.7051
539.7050, 432.4160
540.8820, 690.1309
542.0590, 536.8203
543.2360, 683.4707
544.4130, 892.1016
545.5900, 1293.684
546.7660, 1383.299
547.9430, 1618.982
549.1190, 2055.674
550.2950, 1988.355
551.4710, 2370.025
552.6470, 2488.660
553.8220, 2766.283
554.9980, 2905.852
556.1730, 3070.424
557.3480, 3216.010
558.5230, 3161.537
559.6980, 3083.047
560.8730, 2836.539
562.0470, 2962.037
563.2220, 3112.482
564.3960, 2672.875
565.5700, 2655.215
566.7440, 2446.504
567.9170, 2305.738
569.0910, 2095.916
570.2640, 2117.039
571.4380, 1958.367
572.6110, 2004.117
573.7840, 1783.082
574.9570, 1663.988
576.1290, 1582.840
577.3020, 1740.637
578.4740, 1610.379
579.6460, 1641.064
580.8180, 1359.693
581.9900, 1399.270
583.1620, 1359.656
584.3330, 1609.250
585.5040, 1392.656
586.6760, 1644.006
587.8470, 1723.547
589.0180, 1909.936
590.1880, 1836.984
591.3590, 1910.561
592.5290, 2045.375
593.7000, 1951.234
594.8700, 1636.871
596.0400, 1971.701
597.2090, 1690.570
598.3790, 1824.387
599.5490, 2144.150
600.7180, 1749.863
601.8870, 1893.523
603.0560, 2071.129
604.2250, 1717.688
605.3940, 1825.193
606.5620, 2001.650
607.7300, 1970.055
608.8990, 1999.408
610.0670, 1763.711
611.2350, 1743.963
612.4020, 1762.164
613.5700, 1894.316
614.7370, 2173.416
615.9050, 2117.469
617.0720, 2045.025
618.2390, 2334.979
619.4060, 2122.371
620.5720, 2211.189
621.7390, 2480.994
622.9050, 2559.752
624.0710, 2645.488
625.2370, 2587.877
626.4030, 2829.488
627.5690, 2808.615
628.7340, 3063.229
629.9000, 3088.100
631.0650, 3332.852
632.2300, 3661.320
633.3950, 3490.961
634.5600, 3885.895
635.7240, 4197.395
636.8890, 4319.492
638.0530, 4746.656
639.2170, 4931.094
640.3810, 5475.488
641.5450, 6028.510
642.7080, 6293.271
643.8720, 6981.365
645.0350, 7581.889
646.1980, 8096.562
647.3610, 9028.988
648.5240, 9576.562
649.6870, 10351.03
650.8490, 10539.06
652.0120, 11008.43
653.1740, 11405.03
654.3360, 11224.32
655.4980, 11420.27
656.6600, 10870.82
657.8210, 9886.219
658.9830, 9055.168
660.1440, 8559.562
661.3050, 8223.271
662.4660, 7443.855
663.6270, 7030.801
664.7870, 6789.133
665.9480, 6494.988
667.1080, 6304.270
668.2680, 6364.230
669.4280, 6383.068
670.5880, 6253.520
671.7480, 6494.859
672.9070, 6334.205
674.0670, 6778.504
675.2260, 6543.367
676.3850, 6658.246
677.5440, 6853.215
678.7030, 7128.037
679.8610, 7512.189
681.0200, 7673.061
682.1780, 7634.492
683.3360, 7757.254
684.4940, 8176.434
685.6520, 8087.203
686.8090, 8762.832
687.9670, 8561.105
689.1240, 8966.008
690.2810, 8669.312
691.4380, 9130.242
692.5950, 9123.281
693.7520, 9191.174
694.9080, 9284.600
696.0650, 9526.564
697.2210, 9659.391
698.3770, 9694.344
699.5330, 9468.000
700.6880, 9724.172
701.8440, 9592.930
702.9990, 9529.641
704.1550, 9692.832
705.3100, 9546.520
706.4650, 9632.168
707.6190, 9744.789
708.7740, 9495.391
709.9290, 9782.969
711.0830, 9475.533
712.2370, 9486.771
713.3910, 9475.289
714.5450, 9542.791
715.6980, 9232.271
716.8520, 9156.730
718.0050, 8795.172
719.1580, 8615.598
720.3110, 8190.002
721.4640, 7910.391
722.6170, 7705.434
723.7700, 7531.117
724.9220, 7322.453
726.0740, 7039.312
727.2260, 6899.098
728.3780, 6427.461
729.5300, 6044.807
730.6810, 5937.188
731.8330, 5669.605
732.9840, 5445.008
734.1350, 5503.418
735.2860, 5259.811
736.4370, 5187.195
737.5880, 4920.566
738.7380, 4660.922
739.8880, 4482.270
741.0390, 4147.605
742.1890, 4333.930
743.3380, 3968.240
744.4880, 3871.543
745.6380, 4064.836
746.7870, 4050.119
747.9360, 3608.395
749.0850, 3754.658
750.2340, 3513.916
751.3830, 3469.166
752.5310, 3605.406
753.6800, 3387.641
754.8280, 3016.867
755.9760, 2990.090
757.1240, 2852.309
758.2720, 3198.521
759.4190, 2912.730
760.5670, 2802.934
761.7140, 2675.135
762.8610, 2560.330
764.0080, 2412.523
765.1550, 2365.715
766.3020, 2385.900
767.4480, 2080.105
768.5950, 1788.305
769.7410, 2110.508
770.8870, 1670.715
772.0330, 1645.924
773.1780, 1476.148
774.3240, 1422.381
775.4690, 1363.867
776.6140, 1153.941
777.7590, 1307.289
778.9040, 1123.670
780.0490, 1176.094
781.1940, 872.5762
782.3380, 1214.092
783.4820, 942.6406
784.6260, 918.2500
785.7700, 881.8965
786.9140, 873.5859
788.0580, 770.3438
789.2010, 899.1367
790.3450, 794.9629
791.4880, 851.8496
792.6310, 971.8105
793.7730, 603.8809
794.9160, 523.9570
796.0590, 425.0449
797.2010, 345.1367
798.3430, 979.2500
799.4850, 562.4062
800.6270, 252.6523
801.7690, 1789.031
802.9100, 403.4844
804.0520, 389.0156
805.1930, 441.6367
806.3340, 194.6406
807.4750, 31.95312
808.6160, 325.7930
809.7560, 1.589844
810.8970, 215.4258
812.0370, 164.7188
813.1770, 86.94531
814.3170, 216.2227
815.4570, 170.6172
816.5960, 204.1016
817.7360, 88.69922
818.8750, 50.35156
820.0140, 104.0273
821.1530, 11.76562
822.2920, 312.5078
823.4310, 454.4180
824.5690, 210.5703
825.7070, 157.8359
826.8460, 149.1836
827.9840, 64.60938
829.1220, 147.0703
830.2590, 115.3945
831.3970, 203.1328
832.5340, 244.7656
833.6710, 41.47266
834.8080, 119.2773
835.9450, 132.0820
837.0820, 236.9570
838.2190, 12.04688
839.3550, 98.06250
840.4910, 5.914063
841.6270, 12.10938
842.7630, 54.14062
843.8990, 175.1875
845.0350, 228.2422
846.1700, 251.3086
847.3060, 405.3867
848.4410, 14.52344
849.5760, 420.6328
850.7100, 276.8008
851.8450, 358.9844
852.9800, 597.2031
854.1140, 752.4297
855.2480, 775.6719
856.3820, 1090.930
857.5160, 951.1992
858.6500, 1356.480
859.7830, 1397.781
860.9170, 1342.090
862.0500, 1446.418
863.1830, 1334.758
864.3160, 1785.113
865.4480, 1624.484
866.5810, 2310.883
867.7130, 2290.363
868.8460, 2437.891
869.9780, 3045.480
871.1100, 2856.102
872.2410, 3060.758
873.3730, 3137.434
874.5050, 3222.121
875.6360, 3505.039
876.7670, 4062.551
877.8980, 4098.293
879.0290, 4336.094
880.1590, 4747.012
881.2900, 4915.949
882.4200, 5438.898
883.5500, 5878.871
884.6800, 6064.883
885.8100, 6751.906
886.9400, 6578.953
888.0690, 6833.012
889.1990, 7097.090
890.3280, 7329.211
891.4570, 7602.418
892.5860, 8091.664
893.7140, 8635.000
894.8430, 8801.359
895.9710, 9572.742
897.1000, 9508.141
898.2280, 9843.562
899.3560, 10528.00
900.4830, 10868.45
901.6110, 11213.93
902.7380, 11601.41
903.8660, 11838.93
904.9930, 12045.48
906.1200, 12585.04
907.2460, 13075.61
908.3730, 13592.21
909.5000, 13890.55
910.6260, 14263.59
911.7520, 14400.36
912.8780, 14695.17
914.0040, 14899.00
915.1290, 15024.84
916.2550, 15151.70
917.3800, 15265.58
918.5050, 15487.47
919.6300, 15508.39
920.7550, 15483.32
921.8800, 15711.30
923.0040, 15486.30
924.1290, 15506.34
925.2530, 15359.40
926.3770, 15289.47
927.5010, 14922.56
928.6250, 14512.66
929.7480, 14453.77
930.8720, 14319.89
931.9950, 14288.04
933.1180, 13726.19
934.2410, 13440.36
935.3640, 13227.60
936.4860, 12510.85
937.6090, 12271.11
938.7310, 11972.39
939.8530, 11367.66
940.9750, 11082.96
942.0970, 10511.78
943.2180, 10257.79
944.3400, 9893.121
945.4610, 9488.930
946.5820, 9190.977
947.7030, 9019.055
948.8240, 8514.719
949.9450, 8155.289
951.0650, 7863.746
952.1860, 7177.133
953.3060, 6892.785
954.4260, 6738.879
955.5460, 6076.637
956.6650, 5889.977
957.7850, 5327.719
958.9040, 5240.602
960.0230, 4536.836
961.1420, 4411.438
962.2610, 4053.645
963.3800, 3509.215
964.4990, 3255.680
965.6170, 3032.285
966.7350, 2630.359
967.8530, 2539.891
968.9710, 2216.566
970.0890, 2018.129
971.2070, 1807.957
972.3240, 1799.289
973.4410, 1349.027
974.5580, 1358.816
975.6750, 1430.125
976.7920, 1044.945
977.9090, 1045.805
979.0250, 1089.684
980.1410, 990.5898
981.2580, 1050.516
982.3740, 899.4648
983.4890, 1029.941
984.6050, 741.9375
985.7200, 654.8477
986.8360, 773.4727
987.9510, 582.5352
989.0660, 974.6211
990.1810, 802.7227
991.2950, 944.8477
992.4100, 1005.992
993.5240, 840.1562
994.6390, 753.3438
995.7530, 840.5508
996.8660, 823.7773
997.9800, 1004.285
999.0940, 1075.809
1000.207, 1297.332
1001.320, 1377.688
1002.433, 1274.992
1003.546, 1559.371
1004.659, 1624.484
1005.772, 1701.250
1006.884, 1990.906
1007.996, 2038.641
1009.108, 1808.078
1010.220, 2205.703
1011.332, 2266.855
1012.444, 2620.691
1013.555, 2715.328
1014.666, 2931.117
1015.777, 3047.059
1016.888, 3196.469
1017.999, 3736.312
1019.110, 3524.199
1020.220, 3860.781
1021.331, 4073.367
1022.441, 4086.969
1023.551, 4144.555
1024.661, 4253.816
1025.770, 4141.426
1026.880, 4341.918
1027.989, 4361.227
1029.098, 4318.223
1030.207, 4650.734
1031.316, 4486.410
1032.425, 4381.305
1033.533, 4067.340
1034.642, 3920.527
1035.750, 3948.234
1036.858, 3470.543
1037.966, 3474.754
1039.073, 3247.480
1040.181, 3131.211
1041.288, 3018.133
1042.396, 2772.441
1043.503, 2758.875
1044.610, 2717.715
1045.716, 2575.074
1046.823, 2484.230
1047.929, 2085.059
1049.036, 1778.824
1050.142, 1416.590
1051.248, 1604.566
1052.353, 1507.512
1053.459, 1428.641
1054.564, 1181.879
1055.670, 1632.656
1056.775, 1434.395
1057.880, 1013.207
1058.985, 1380.156
1060.089, 988.9648
1061.194, 1121.770
1062.298, 1090.578
1063.402, 1072.383
1064.506, 1014.281
1065.610, 1108.090
1066.713, 962.9805
1067.817, 899.0977
1068.920, 958.9023
1070.023, 1280.703
1071.126, 1103.504
1072.229, 1133.301
1073.332, 1251.098
1074.435, 895.0625
1075.537, 775.9102
1076.639, 980.7656
1077.741, 624.7930
1078.843, 793.6523
1079.945, 735.5000
1081.046, 964.3984
1082.148, 961.3203
1083.249, 1009.070
1084.350, 808.4180
1085.451, 970.5000
1086.551, 1062.605
1087.652, 816.7266
1088.752, 978.8711
1089.853, 484.0234
1090.953, 651.2539
1092.053, 591.6094
1093.152, 575.0117
1094.252, 644.4531
1095.351, 674.9375
1096.451, 547.4336
1097.550, 562.9688
1098.649, 842.4961
1099.748, 494.0703
1100.846, 587.4883
1101.945, 104.1562
1103.043, 205.8516
1104.141, 152.6445
1105.239, 381.4219
1106.337, 296.7344
1107.434, 245.0781
1108.532, 234.8359
1109.629, 370.5898
1110.726, 375.3320
1111.823, 337.0664
1112.920, 133.7891
1114.017, 120.5000
1115.113, 234.7930
1116.210, 194.7812
1117.306, 15.64844
1118.402, 61.79297
1119.498, 175.7109
1120.593, 121.5625
1121.689, 143.0391
1122.784, 281.5664
1123.879, 224.0156
1124.974, 269.4531
1126.069, 318.8828
1127.164, 116.2930
1128.259, 150.6914
1129.353, 51.37500
1130.447, 54.63281
1131.541, 40.98438
1132.635, 213.6523
1133.729, 112.4336
1134.822, 145.7500
1135.916, 44.07031
1137.009, 53.11719
1138.102, 77.79297
1139.195, 65.67969
1140.288, 325.5508
1141.380, 104.4258
1142.473, 4.722656
1143.565, 93.90625
1144.657, 376.1680
1145.749, 89.33203
1146.841, 57.99609
1147.932, 226.4570
1149.024, 54.09766
1150.115, 88.28125
1151.206, 165.6445
1152.297, 223.9805
1153.388, 218.3008
1154.479, 62.39453
1155.569, 226.1602
1156.659, 34.08984
1157.750, 233.0742
1158.839, 9.773438
1159.929, 103.5859
1161.019, 32.37891
1162.108, 200.1367
1163.198, 138.8828
1164.287, 108.6055
1165.376, 76.30078
1166.465, 360.9727
1167.553, 0.6523440
1168.642, 80.28516
1169.730, 386.8906
1170.818, 215.4805
1171.906, 36.05469
1172.994, 108.4023
1174.082, 107.9648
1175.170, 81.90625
1176.257, 25.66797
1177.344, 117.7734
1178.431, 197.9219
1179.518, 239.0508
1180.605, 304.1562
1181.691, 169.2383
1182.778, 43.30078
1183.864, 137.3281
1184.950, 66.66797
1186.036, 290.2461
1187.122, 54.32031
1188.207, 255.4883
1189.292, 199.2773
1190.378, 391.0469
1191.463, 384.7852
1192.548, 433.5078
1193.632, 348.2070
1194.717, 217.8828
1195.801, 346.5352
1196.886, 64.16016
1197.970, 119.2422
1199.054, 330.2344
1200.137, 560.6836
1201.221, 382.1133
1202.305, 261.5195
1203.388, 608.9023
1204.471, 65.26562
1205.554, 547.5898
1206.637, 444.8906
1207.719, 210.1719
1208.802, 671.4258
1209.884, 296.6562
1210.966, 298.8594
1212.048, 510.0430
1213.130, 448.1992
1214.212, 235.3320
1215.293, 535.4375
1216.374, 319.9766
1217.456, 490.0312
1218.536, 512.0586
1219.617, 627.0625
1220.698, 534.7383
1221.778, 474.9883
1222.859, 364.9102
1223.939, 292.8086
1225.019, 369.6758
1226.099, 468.5156
1227.178, 564.3320
1228.258, 404.1211
1229.337, 388.8789
1230.417, 121.9336
1231.496, 354.6328
1232.574, 699.3008
1233.653, 263.1680
1234.732, 481.7734
1235.810, 377.3438
1236.888, 253.8867
1237.966, 587.4023
1239.044, 721.9062
1240.122, 403.3750
1241.199, 456.8164
1242.277, 357.2266
1243.354, 586.7812
1244.431, 629.4922
1245.508, 670.6445
1246.585, 470.3867
1247.661, 200.7539
1248.738, 452.3945
1249.814, 185.5938
1250.890, 490.7695
1251.966, 258.9102
1253.042, 325.0234
1254.117, 431.1016
1255.193, 364.1562
1256.268, 622.1797
1257.343, 686.2461
1258.418, 475.2070
1259.493, 244.3906
1260.567, 611.0391
1261.642, 346.6836
1262.716, 262.3828
1263.790, 381.3281
