##NAMES=Astrophyllite
##RRUFFID=R060202
##IDEAL CHEMISTRY=K_2_NaFe^2+^_7_Ti^4+^_2_(Si_4_O_12_)_2_O_2_(OH)_4_F
##LOCALITY=Demix Quarry, Mont Saint-Hilaire, Rouville County, Quebec, Canada
##OWNER=RRUFF
##SOURCE=Royal Ontario Museum
##DESCRIPTION=Aggregate of brown splintered wafers
##STATUS=The identification of this mineral has been confirmed by X-ray diffraction and chemical analysis
##URL=rruff.info/R060202
##MEASURED CHEMISTRY=(K_0.56_Na_0.38_Ca_0.06_)_3_(Fe^2+^_0.52_Mn_0.44_Mg_0.04_)_7_(Ti_0.75_Zr_0.15_Al_0.15_)_2_Si_8_O_24_(O_0.27_OH_0.73_)_7_
##PIN_ID=M00170
##ORIENTATION=Laser parallel to (-1 0 -1). Fiducial mark perpendicular to laser is parallel to -b [0 -1 0]
141.5000, 0.0000000E+00
142.7280, 156.7031
143.9560, 56.36914
145.1840, 81.63867
146.4120, 166.5938
147.6390, 24.08984
148.8670, 177.9277
150.0940, 71.10156
151.3210, 431.7129
152.5490, 915.1016
153.7750, 677.2773
155.0020, 905.7539
156.2290, 844.7480
157.4550, 1001.381
158.6810, 1260.725
159.9080, 1501.824
161.1340, 1676.691
162.3590, 2037.043
163.5850, 2006.547
164.8110, 2316.385
166.0360, 2325.717
167.2610, 2224.924
168.4860, 2190.947
169.7110, 1915.732
170.9360, 1697.234
172.1610, 1864.430
173.3850, 1451.299
174.6100, 1323.826
175.8340, 957.9844
177.0580, 738.7461
178.2820, 639.0820
179.5050, 593.9512
180.7290, 217.3066
181.9520, 0.8964840
183.1760, 126.6738
184.3990, 59.03711
185.6220, 109.0000
186.8450, 78.58203
188.0670, 38.19141
189.2900, 43.29688
190.5120, 201.7109
191.7340, 309.4160
192.9560, 443.3965
194.1780, 645.6426
195.4000, 806.1387
196.6220, 887.8906
197.8430, 1125.914
199.0640, 1181.232
200.2860, 1691.875
201.5070, 2039.859
202.7270, 2313.211
203.9480, 2352.932
205.1690, 2213.994
206.3890, 2050.381
207.6090, 2315.061
208.8290, 2415.021
210.0490, 2827.232
211.2690, 2991.680
212.4890, 3483.346
213.7080, 3849.211
214.9280, 4106.240
216.1470, 4403.320
217.3660, 4832.389
218.5850, 5261.412
219.8030, 5856.465
221.0220, 6175.564
222.2400, 6429.746
223.4590, 7072.443
224.6770, 7948.701
225.8950, 8114.441
227.1120, 8644.348
228.3300, 8961.508
229.5480, 9701.734
230.7650, 10132.01
231.9820, 10524.33
233.1990, 11039.70
234.4160, 11544.12
235.6330, 11838.55
236.8490, 12219.98
238.0660, 12125.43
239.2820, 12643.92
240.4980, 12677.46
241.7140, 12629.05
242.9300, 12766.69
244.1460, 12621.38
245.3610, 12676.90
246.5770, 12554.93
247.7920, 12626.81
249.0070, 12733.83
250.2220, 12600.09
251.4370, 12516.66
252.6510, 12693.57
253.8660, 13538.95
255.0800, 14185.86
256.2940, 14702.24
257.5080, 14277.47
258.7220, 12481.46
259.9360, 12617.28
261.1490, 11806.61
262.3630, 10300.45
263.5760, 9409.680
264.7890, 8919.090
266.0020, 8050.475
267.2150, 7172.812
268.4270, 6602.086
269.6400, 5994.277
270.8520, 5256.389
272.0640, 4452.418
273.2760, 4175.365
274.4880, 3575.230
275.7000, 3227.014
276.9120, 2694.715
278.1230, 2559.334
279.3340, 2033.875
280.5450, 1638.330
281.7560, 1606.701
282.9670, 1201.990
284.1780, 1154.195
285.3880, 836.3184
286.5980, 676.3574
287.8090, 552.4414
289.0190, 468.2578
290.2290, 424.7305
291.4380, 439.9023
292.6480, 380.3438
293.8570, 460.2715
295.0670, 380.3125
296.2760, 306.3125
297.4850, 323.1680
298.6930, 170.1250
299.9020, 188.6992
301.1110, 289.4277
302.3190, 46.19531
303.5270, 226.0449
304.7350, 366.2031
305.9430, 514.6816
307.1510, 283.9277
308.3580, 553.1816
309.5660, 557.7266
310.7730, 660.9883
311.9800, 807.6934
313.1870, 994.6602
314.3940, 1054.268
315.6010, 1043.717
316.8070, 1282.596
318.0130, 1480.189
319.2200, 1475.477
320.4260, 1670.189
321.6310, 1774.953
322.8370, 1807.770
324.0430, 1886.633
325.2480, 1749.539
326.4540, 2053.488
327.6590, 2064.445
328.8640, 2053.322
330.0680, 2373.332
331.2730, 2352.020
332.4780, 2380.684
333.6820, 2892.840
334.8860, 2809.023
336.0900, 2835.232
337.2940, 2682.467
338.4980, 3054.721
339.7010, 2976.207
340.9050, 3514.295
342.1080, 3034.613
343.3110, 3152.941
344.5140, 3031.137
345.7170, 2917.697
346.9200, 2876.672
348.1220, 2688.896
349.3240, 2536.764
350.5270, 2402.447
351.7290, 2183.947
352.9310, 2139.680
354.1320, 2082.914
355.3340, 1841.340
356.5350, 1920.324
357.7370, 1781.209
358.9380, 1729.664
360.1390, 1837.885
361.3400, 1652.795
362.5400, 1675.068
363.7410, 1702.947
364.9410, 1640.443
366.1410, 1640.330
367.3410, 1713.736
368.5410, 1683.143
369.7410, 1844.955
370.9400, 1835.928
372.1400, 1967.217
373.3390, 2003.672
374.5380, 1959.555
375.7370, 2414.182
376.9360, 2335.506
378.1350, 2352.477
379.3330, 2341.572
380.5310, 2319.123
381.7300, 2316.287
382.9280, 2339.396
384.1260, 2306.412
385.3230, 2356.457
386.5210, 2394.393
387.7180, 2324.457
388.9160, 2211.123
390.1130, 2321.545
391.3100, 2084.174
392.5060, 2021.209
393.7030, 1996.121
394.9000, 2134.688
396.0960, 2279.211
397.2920, 2222.684
398.4880, 2134.105
399.6840, 2177.477
400.8800, 2140.793
402.0750, 2149.051
403.2710, 2202.250
404.4660, 2199.389
405.6610, 2505.463
406.8560, 2398.473
408.0510, 2772.416
409.2450, 2903.291
410.4400, 3131.100
411.6340, 3311.840
412.8280, 3550.516
414.0220, 3722.123
415.2160, 3914.668
416.4100, 3794.145
417.6030, 4004.559
418.7970, 4260.906
419.9900, 4067.195
421.1830, 4013.418
422.3760, 3976.580
423.5690, 3805.680
424.7610, 3571.719
425.9540, 3747.697
427.1460, 3123.615
428.3380, 2982.475
429.5300, 2483.271
430.7220, 2429.012
431.9140, 1967.703
433.1050, 1906.352
434.2970, 1765.961
435.4880, 1299.539
436.6790, 1406.080
437.8700, 1137.592
439.0610, 1048.066
440.2510, 641.4980
441.4420, 530.8887
442.6320, 488.2344
443.8220, 226.5352
445.0120, 86.78125
446.2020, 30.96484
447.3910, 201.0664
448.5810, 152.8906
449.7700, 30.97461
450.9600, 222.7578
452.1490, 164.4824
453.3370, 1.851563
454.5260, 63.70703
455.7150, 104.8066
456.9030, 209.5254
458.0910, 265.7930
459.2800, 420.0000
460.4670, 544.1543
461.6550, 355.2578
462.8430, 531.3027
464.0300, 806.2949
465.2180, 766.2305
466.4050, 995.1152
467.5920, 1190.945
468.7790, 955.7227
469.9650, 1143.447
471.1520, 886.1133
472.3380, 955.7402
473.5250, 774.3184
474.7110, 850.8496
475.8970, 940.3320
477.0820, 944.9297
478.2680, 880.3594
479.4540, 1082.443
480.6390, 711.6992
481.8240, 666.8984
483.0090, 703.0430
484.1940, 680.1250
485.3780, 678.1523
486.5630, 525.1191
487.7470, 632.0273
488.9320, 394.8789
490.1160, 579.6660
491.3000, 465.3945
492.4830, 234.0586
493.6670, 280.6543
494.8500, 116.1797
496.0340, 165.6250
497.2170, 44.00781
498.4000, 4.785156
499.5820, 34.68945
500.7650, 154.7363
501.9480, 47.01172
503.1300, 66.34180
504.3120, 342.8535
505.4940, 81.67188
506.6760, 298.6562
507.8580, 336.9238
509.0390, 122.4941
510.2210, 266.2578
511.4020, 273.2832
512.5830, 244.5762
513.7640, 314.1250
514.9450, 237.9648
516.1250, 182.0508
517.3060, 338.3594
518.4860, 286.9668
519.6660, 330.4316
520.8460, 302.0293
522.0260, 390.4883
523.2060, 250.2734
524.3850, 296.3105
525.5650, 183.6230
526.7440, 87.15039
527.9230, 8.158203
529.1020, 215.3555
530.2810, 128.4824
531.4590, 149.5332
532.6380, 116.5137
533.8160, 407.4199
534.9940, 423.2656
536.1720, 817.0527
537.3500, 869.7832
538.5270, 987.4590
539.7050, 1388.080
540.8820, 1624.674
542.0590, 1674.324
543.2360, 2063.953
544.4130, 2435.588
545.5900, 3045.234
546.7660, 3422.861
547.9430, 3944.543
549.1190, 4401.963
550.2950, 4788.959
551.4710, 5216.682
552.6470, 5520.422
553.8220, 5761.201
554.9980, 5900.074
556.1730, 6141.988
557.3480, 6137.895
558.5230, 5963.871
559.6980, 5714.867
560.8730, 5809.920
562.0470, 5500.992
563.2220, 5157.117
564.3960, 4756.227
565.5700, 4541.379
566.7440, 4074.521
567.9170, 4048.672
569.0910, 3976.844
570.2640, 3648.988
571.4380, 3492.148
572.6110, 3172.299
573.7840, 2986.406
574.9570, 2842.465
576.1290, 2852.480
577.3020, 2663.451
578.4740, 2514.377
579.6460, 2549.260
580.8180, 2433.096
581.9900, 2524.889
583.1620, 2562.639
584.3330, 2591.344
585.5040, 2660.957
586.6760, 2825.588
587.8470, 2941.195
589.0180, 2811.547
590.1880, 3024.629
591.3590, 3091.988
592.5290, 2921.281
593.7000, 2810.227
594.8700, 2813.453
596.0400, 2940.285
597.2090, 2969.896
598.3790, 3002.900
599.5490, 3073.094
600.7180, 3149.891
601.8870, 3061.996
603.0560, 2972.436
604.2250, 3102.469
605.3940, 3100.467
606.5620, 3065.430
607.7300, 2939.355
608.8990, 3127.311
610.0670, 3187.715
611.2350, 3356.930
612.4020, 3583.719
613.5700, 3460.475
614.7370, 3754.195
615.9050, 3680.883
617.0720, 4058.541
618.2390, 3693.164
619.4060, 3985.758
620.5720, 4178.316
621.7390, 4101.842
622.9050, 4492.340
624.0710, 4773.803
625.2370, 4860.238
626.4030, 5258.641
627.5690, 5248.967
628.7340, 5602.312
629.9000, 5956.025
631.0650, 6132.314
632.2300, 6508.254
633.3950, 6947.193
634.5600, 7241.295
635.7240, 8006.141
636.8890, 8456.453
638.0530, 9021.551
639.2170, 10383.06
640.3810, 10949.64
641.5450, 12020.64
642.7080, 13283.81
643.8720, 14594.27
645.0350, 15908.35
646.1980, 17552.79
647.3610, 19099.58
648.5240, 20459.96
649.6870, 22048.78
650.8490, 22712.59
652.0120, 23648.95
653.1740, 24149.12
654.3360, 23548.96
655.4980, 22960.59
656.6600, 21929.77
657.8210, 20573.18
658.9830, 19430.85
660.1440, 17714.86
661.3050, 16686.70
662.4660, 15620.07
663.6270, 14454.32
664.7870, 13951.77
665.9480, 13385.38
667.1080, 12800.15
668.2680, 12541.00
669.4280, 12620.70
670.5880, 12476.77
671.7480, 12568.06
672.9070, 12898.12
674.0670, 13182.75
675.2260, 13478.46
676.3850, 13780.80
677.5440, 14167.56
678.7030, 14414.63
679.8610, 14696.55
681.0200, 15139.26
682.1780, 15673.18
683.3360, 16258.81
684.4940, 16157.40
685.6520, 16745.96
686.8090, 16965.51
687.9670, 17261.41
689.1240, 17806.92
690.2810, 17723.61
691.4380, 17917.11
692.5950, 18163.78
693.7520, 18441.23
694.9080, 18497.05
696.0650, 18660.74
697.2210, 18456.87
698.3770, 18322.38
699.5330, 18524.54
700.6880, 18563.47
701.8440, 18590.18
702.9990, 18628.10
704.1550, 18541.44
705.3100, 18515.63
706.4650, 18416.70
707.6190, 18168.49
708.7740, 17885.55
709.9290, 17705.30
711.0830, 17677.21
712.2370, 17208.52
713.3910, 16951.84
714.5450, 16665.15
715.6980, 15820.46
716.8520, 15580.78
718.0050, 15066.09
719.1580, 14664.41
720.3110, 14178.73
721.4640, 13588.05
722.6170, 12815.38
723.7700, 12614.70
724.9220, 11848.03
726.0740, 11901.38
727.2260, 10971.74
728.3780, 10625.11
729.5300, 10042.55
730.6810, 9686.020
731.8330, 8999.492
732.9840, 8753.980
734.1350, 8258.498
735.2860, 8054.031
736.4370, 7666.625
737.5880, 7421.229
738.7380, 6890.846
739.8880, 6848.473
741.0390, 6665.105
742.1890, 6133.748
743.3380, 6125.402
744.4880, 6193.061
745.6380, 6053.730
746.7870, 5633.412
747.9360, 5198.084
749.0850, 5412.535
750.2340, 5486.174
751.3830, 5426.566
752.5310, 4834.670
753.6800, 4930.162
754.8280, 4750.238
755.9760, 4559.041
757.1240, 4751.414
758.2720, 4237.010
759.4190, 4423.408
760.5670, 4330.023
761.7140, 4364.764
762.8610, 4122.297
764.0080, 3965.479
765.1550, 4085.963
766.3020, 3768.803
767.4480, 3692.719
768.5950, 3574.656
769.7410, 3438.607
770.8870, 3516.576
772.0330, 3446.570
773.1780, 3383.584
774.3240, 3217.627
775.4690, 3204.777
776.6140, 3131.826
777.7590, 3131.010
778.9040, 3057.252
780.0490, 3040.588
781.1940, 2847.959
782.3380, 2865.400
783.4820, 2742.986
784.6260, 2746.645
785.7700, 2890.434
786.9140, 2663.365
788.0580, 2627.381
789.2010, 2547.521
790.3450, 2388.785
791.4880, 2258.172
792.6310, 2089.691
793.7730, 1956.326
794.9160, 2027.064
796.0590, 1800.943
797.2010, 1840.951
798.3430, 1545.100
799.4850, 1577.379
800.6270, 1334.816
801.7690, 1376.375
802.9100, 1534.061
804.0520, 1752.848
805.1930, 735.7070
806.3340, 344.6172
807.4750, 536.5566
808.6160, 709.5254
809.7560, 399.5234
810.8970, 486.5527
812.0370, 370.6074
813.1770, 182.6836
814.3170, 149.7812
815.4570, 238.9023
816.5960, 77.95703
817.7360, 398.8477
818.8750, 93.93945
820.0140, 204.0742
821.1530, 218.3047
822.2920, 102.6445
823.4310, 375.0312
824.5690, 204.6074
825.7070, 309.2852
826.8460, 152.1172
827.9840, 228.0215
829.1220, 310.0410
830.2590, 529.2188
831.3970, 311.6660
832.5340, 134.2715
833.6710, 411.9434
834.8080, 242.8242
835.9450, 364.8281
837.0820, 234.0117
838.2190, 342.3145
839.3550, 101.7910
840.4910, 307.3125
841.6270, 127.9883
842.7630, 174.7227
843.8990, 234.5391
845.0350, 33.47070
846.1700, 213.4160
847.3060, 114.4590
848.4410, 78.44922
849.5760, 144.3965
850.7100, 155.3672
851.8450, 291.3594
852.9800, 346.3789
854.1140, 688.4199
855.2480, 480.4863
856.3820, 599.5762
857.5160, 846.6895
858.6500, 819.8281
859.7830, 904.9902
860.9170, 1168.180
862.0500, 1156.393
863.1830, 1236.631
864.3160, 1389.893
865.4480, 1666.209
866.5810, 1999.564
867.7130, 2002.947
868.8460, 2438.373
869.9780, 2514.822
871.1100, 2709.301
872.2410, 3091.807
873.3730, 3393.391
874.5050, 3636.746
875.6360, 3962.838
876.7670, 4136.467
877.8980, 4561.287
879.0290, 4788.195
880.1590, 5162.148
881.2900, 5348.158
882.4200, 5830.193
883.5500, 6195.277
884.6800, 6466.387
885.8100, 6582.523
886.9400, 6984.693
888.0690, 7721.957
889.1990, 7919.336
890.3280, 8548.754
891.4570, 9007.246
892.5860, 9303.812
893.7140, 9727.406
894.8430, 10364.08
895.9710, 10879.78
897.1000, 11318.57
898.2280, 11850.43
899.3560, 12250.23
900.4830, 12795.10
901.6110, 13303.00
902.7380, 13809.92
903.8660, 14741.89
904.9930, 15326.90
906.1200, 15895.94
907.2460, 16707.00
908.3730, 17016.08
909.5000, 17661.20
910.6260, 18193.35
911.7520, 18726.52
912.8780, 19167.71
914.0040, 19383.94
915.1290, 19676.19
916.2550, 20113.49
917.3800, 20837.86
918.5050, 21262.33
919.6300, 21371.86
920.7550, 21462.42
921.8800, 21260.01
923.0040, 21828.63
924.1290, 21849.27
925.2530, 21628.93
926.3770, 22027.61
927.5010, 21611.32
928.6250, 21584.04
929.7480, 21606.80
930.8720, 21401.58
931.9950, 21103.87
933.1180, 20862.23
934.2410, 20500.08
935.3640, 19787.99
936.4860, 19905.92
937.6090, 18968.86
938.7310, 18129.82
939.8530, 17962.79
940.9750, 16747.79
942.0970, 15973.79
943.2180, 15590.81
944.3400, 14797.84
945.4610, 14185.89
946.5820, 13694.95
947.7030, 13100.02
948.8240, 12459.63
949.9450, 11823.21
951.0650, 11220.32
952.1860, 10474.62
953.3060, 9985.139
954.4260, 9240.496
955.5460, 8690.164
956.6650, 8149.504
957.7850, 7537.207
958.9040, 7106.564
960.0230, 6443.098
961.1420, 5952.062
962.2610, 5481.879
963.3800, 5029.934
964.4990, 4405.840
965.6170, 4143.000
966.7350, 3683.828
967.8530, 3598.814
968.9710, 3127.398
970.0890, 2905.633
971.2070, 2620.250
972.3240, 2426.023
973.4410, 2269.254
974.5580, 2132.340
975.6750, 1942.373
976.7920, 1900.547
977.9090, 1650.461
979.0250, 1474.691
980.1410, 1429.674
981.2580, 1485.551
982.3740, 1406.371
983.4890, 1460.609
984.6050, 1337.479
985.7200, 1560.383
986.8360, 1034.326
987.9510, 1444.305
989.0660, 1420.338
990.1810, 1317.406
991.2950, 1522.510
992.4100, 1262.645
993.5240, 1392.818
994.6390, 1479.072
995.7530, 1386.361
996.8660, 1666.729
997.9800, 2023.135
999.0940, 2048.779
1000.207, 1995.459
1001.320, 2359.963
1002.433, 2157.787
1003.546, 2509.371
1004.659, 2640.225
1005.772, 2763.203
1006.884, 2968.602
1007.996, 3380.062
1009.108, 3653.318
1010.220, 3840.545
1011.332, 4254.582
1012.444, 4402.777
1013.555, 4841.754
1014.666, 5268.215
1015.777, 5379.285
1016.888, 6004.863
1017.999, 6243.785
1019.110, 6647.732
1020.220, 6807.791
1021.331, 7322.617
1022.441, 7520.992
1023.551, 7959.514
1024.661, 8307.061
1025.770, 8496.754
1026.880, 8801.191
1027.989, 9015.770
1029.098, 8995.443
1030.207, 9291.258
1031.316, 9382.680
1032.425, 9203.031
1033.533, 8969.289
1034.642, 8829.463
1035.750, 8670.174
1036.858, 8850.062
1037.966, 8266.465
1039.073, 7951.129
1040.181, 7361.703
1041.288, 7419.283
1042.396, 7138.168
1043.503, 6670.762
1044.610, 6256.078
1045.716, 5615.020
1046.823, 5209.688
1047.929, 5054.287
1049.036, 4524.057
1050.142, 4289.832
1051.248, 4164.332
1052.353, 3795.830
1053.459, 3750.768
1054.564, 3294.443
1055.670, 3049.789
1056.775, 2864.135
1057.880, 2576.486
1058.985, 2490.080
1060.089, 2437.551
1061.194, 2229.455
1062.298, 2083.564
1063.402, 2003.371
1064.506, 2054.812
1065.610, 2054.812
1066.713, 1938.303
1067.817, 1794.709
1068.920, 1712.578
1070.023, 1640.285
1071.126, 1651.197
1072.229, 1637.562
1073.332, 1570.648
1074.435, 1551.379
1075.537, 1433.070
1076.639, 1689.854
1077.741, 1505.439
1078.843, 1586.400
1079.945, 1532.271
1081.046, 1581.621
1082.148, 1555.209
1083.249, 1491.574
1084.350, 1410.912
1085.451, 1352.271
1086.551, 1326.119
1087.652, 1122.232
1088.752, 1306.781
1089.853, 1254.521
1090.953, 1274.354
1092.053, 1495.324
1093.152, 1490.330
1094.252, 1342.619
1095.351, 1236.182
1096.451, 1123.723
1097.550, 1168.305
1098.649, 971.5645
1099.748, 998.9434
1100.846, 867.2520
1101.945, 661.9141
1103.043, 1115.193
1104.141, 902.7656
1105.239, 818.3984
1106.337, 505.3418
1107.434, 580.0859
1108.532, 745.1816
1109.629, 392.0293
1110.726, 545.9180
1111.823, 216.8652
1112.920, 6.867188
1114.017, 22.13086
1115.113, 99.79297
1116.210, 256.1797
1117.306, 178.3164
1118.402, 456.0801
1119.498, 255.0078
1120.593, 506.8828
1121.689, 465.7793
1122.784, 558.5410
1123.879, 228.4023
1124.974, 196.1074
1126.069, 103.6777
1127.164, 226.1699
1128.259, 114.5898
1129.353, 86.83594
1130.447, 95.97656
1131.541, 62.29492
1132.635, 70.51758
1133.729, 59.88281
1134.822, 61.01562
1135.916, 10.54102
1137.009, 4.964844
1138.102, 187.3516
1139.195, 42.66406
1140.288, 100.9297
1141.380, 225.7109
1142.473, 77.16406
1143.565, 205.0723
1144.657, 56.24609
1145.749, 93.72461
1146.841, 69.40820
1147.932, 59.75391
1149.024, 128.8164
1150.115, 601.3594
1151.206, 1.876953
1152.297, 231.6504
1153.388, 302.3438
1154.479, 16.24023
1155.569, 126.5215
1156.659, 159.2559
1157.750, 69.54688
1158.839, 154.3633
1159.929, 34.27539
1161.019, 203.0957
1162.108, 100.3496
1163.198, 123.7637
1164.287, 153.1445
1165.376, 314.4922
1166.465, 56.81250
1167.553, 36.90430
1168.642, 22.30273
1169.730, 85.46484
1170.818, 112.5898
1171.906, 117.6797
1172.994, 60.75000
1174.082, 124.7656
1175.170, 196.7461
1176.257, 65.69141
1177.344, 123.5996
1178.431, 144.4707
1179.518, 5.695313
1180.605, 163.9297
1181.691, 206.3145
1182.778, 61.87500
1183.864, 4.113281
1184.950, 43.15625
1186.036, 282.3809
1187.122, 424.5684
1188.207, 361.7246
1189.292, 185.8418
1190.378, 27.91797
1191.463, 117.9414
1192.548, 39.92383
1193.632, 146.8516
1194.717, 3.259766
1195.801, 112.5566
1196.886, 230.3262
1197.970, 79.93945
1199.054, 56.67773
1200.137, 186.6016
1201.221, 139.1270
1202.305, 331.7910
1203.388, 116.2363
1204.471, 188.6387
1205.554, 199.0020
1206.637, 179.3242
1207.719, 227.6055
1208.802, 139.8457
1209.884, 162.0430
1210.966, 323.1973
1212.048, 232.3145
1213.130, 287.7285
1214.212, 372.6953
1215.293, 314.6973
1216.374, 302.6582
1217.456, 395.5801
1218.536, 311.4629
1219.617, 273.3047
1220.698, 57.10742
1221.778, 252.8457
1222.859, 32.54297
1223.939, 213.1680
1225.019, 161.8418
1226.099, 181.2031
1227.178, 191.8594
1228.258, 304.2988
1229.337, 296.6914
1230.417, 417.0391
1231.496, 266.3438
1232.574, 154.5957
1233.653, 419.7969
1234.732, 430.9531
1235.810, 119.0625
1236.888, 388.3457
1237.966, 268.3477
1239.044, 398.3027
1240.122, 614.2129
1241.199, 401.0723
1242.277, 264.8848
1243.354, 369.8203
1244.431, 329.6836
1245.508, 612.0410
1246.585, 299.6523
1247.661, 93.21484
1248.738, 430.7090
1249.814, 11.15625
1250.890, 410.5117
1251.966, 164.8223
1253.042, 379.0723
1254.117, 169.2773
1255.193, 95.57617
1256.268, 192.5371
1257.343, 77.34180
1258.418, 119.4590
1259.493, 122.1992
1260.567, 345.6719
1261.642, 309.0996
1262.716, 350.6836
1263.790, 262.9473
1264.864, 347.6055
1265.938, 313.6934
1267.011, 435.2520
1268.085, 257.5078
1269.158, 231.2227
1270.231, 133.0918
1271.304, 201.8301
1272.377, 288.7988
1273.450, 510.5312
1274.522, 54.47461
1275.594, 187.8984
1276.666, 84.70703
1277.738, 363.0039
1278.810, 477.9316
1279.882, 386.8223
1280.953, 400.6875
1282.025, 349.8750
1283.096, 355.6719
1284.167, 422.9238
1285.238, 362.2891
1286.308, 368.0586
1287.379, 167.5469
1288.449, 352.6289
1289.519, 227.5977
1290.589, 277.3984
1291.659, 377.0508
1292.729, 448.2910
1293.798, 440.5840
1294.868, 327.2285
1295.937, 513.0254
1297.006, 250.6211
1298.075, 335.6758
1299.143, 280.4414
1300.212, 294.2734
1301.280, 214.0781
1302.348, 516.5488
1303.416, 276.2832
1304.484, 338.2715
1305.552, 595.6035
1306.620, 338.1875
1307.687, 701.8105
