##NAMES=Atacamite
##RRUFFID=R050098
##IDEAL CHEMISTRY=Cu^2+^_2_Cl(OH)_3_
##LOCALITY=La Farola mine, Tierra Amarilla, Atacama, Chile
##OWNER=RRUFF
##SOURCE=Rock Currier
##DESCRIPTION=Green prismatic single crystals
##STATUS=The identification of this mineral has been confirmed by X-ray diffraction and chemical analysis
##URL=rruff.info/R050098
##MEASURED CHEMISTRY=Cu_2.00_Cl_1.00_(OH)_3_
##PIN_ID=M00116
##ORIENTATION=Laser parallel to -a* (-1 0 0). Fiducial mark perpendicular to laser is parallel to b [0 1 0]
54.966, 0.000
56.365, 31.342
57.765, 160.540
59.164, 188.926
60.563, 268.728
61.962, 139.323
63.360, 11.103
64.758, 82.857
66.157, 23.646
67.554, 252.929
68.952, 530.396
70.349, 471.543
71.747, 221.955
73.144, 144.314
74.540, 235.362
75.937, 389.853
77.333, 619.562
78.729, 554.278
80.125, 861.809
81.521, 955.987
82.916, 958.670
84.311, 836.446
85.706, 1044.062
87.101, 409.602
88.496, 498.334
89.890, 491.262
91.284, 748.337
92.678, 1006.460
94.071, 1193.540
95.465, 1361.502
96.858, 1623.279
98.251, 1849.799
99.644, 2153.986
101.036, 2440.774
102.428, 2747.116
103.820, 3032.977
105.212, 3664.321
106.604, 4615.125
107.995, 6160.366
109.387, 8671.022
110.777, 12119.078
112.168, 16912.518
113.559, 20682.320
114.949, 24282.488
116.339, 27047.127
117.729, 28324.236
119.119, 28574.010
120.508, 28260.602
121.897, 25748.027
123.286, 21508.248
124.675, 15931.233
126.063, 11438.517
127.452, 8369.921
128.840, 6317.449
130.228, 5211.106
131.615, 4706.893
133.003, 4080.813
134.390, 3647.871
135.777, 3649.067
137.164, 3529.403
138.550, 4112.844
139.937, 4643.262
141.323, 6116.640
142.709, 7836.959
144.094, 9740.152
145.480, 11178.365
146.865, 12333.613
148.250, 12795.914
149.635, 13145.283
151.019, 13306.727
152.403, 12799.254
153.788, 11024.875
155.171, 8799.594
156.555, 7167.411
157.939, 5704.339
159.322, 4758.377
160.705, 4113.529
162.088, 3761.796
163.470, 3477.179
164.853, 3202.680
166.235, 3035.302
167.617, 2862.045
168.998, 2873.907
170.380, 2649.891
171.761, 2682.998
173.142, 2600.226
174.523, 2599.625
175.904, 2466.339
177.284, 2495.412
178.664, 2442.517
180.044, 2358.110
181.424, 2543.631
182.803, 2564.733
184.183, 2617.054
185.562, 2632.662
186.940, 2723.526
188.319, 2806.579
189.698, 2903.125
191.076, 2968.912
192.454, 3047.071
193.831, 3180.196
195.209, 3327.983
196.586, 3605.858
197.963, 3760.862
199.340, 4029.995
200.717, 4352.257
202.093, 4807.647
203.470, 5305.163
204.846, 5856.805
206.221, 6624.569
207.597, 7574.453
208.972, 8613.458
210.347, 9171.582
211.722, 10090.829
213.097, 11395.194
214.472, 11709.680
215.846, 12422.286
217.220, 12437.011
218.594, 12192.854
219.967, 11494.812
221.341, 10385.251
222.714, 9615.155
224.087, 7910.809
225.460, 6621.106
226.832, 5558.901
228.204, 4623.813
229.577, 3941.555
230.948, 3331.378
232.320, 2871.703
233.692, 2572.346
235.063, 2239.772
236.434, 2060.479
237.805, 1866.935
239.175, 1755.631
240.545, 1674.556
241.916, 1686.697
243.286, 1560.043
244.655, 1543.586
246.025, 1530.314
247.394, 1493.224
248.763, 1487.304
250.132, 1481.551
251.501, 1538.958
252.869, 1527.518
254.237, 1542.228
255.605, 1541.079
256.973, 1514.069
258.340, 1586.191
259.708, 1542.441
261.075, 1505.815
262.442, 1393.311
263.808, 1492.922
265.175, 1376.647
266.541, 1306.483
267.907, 1278.429
269.273, 1172.479
270.639, 1047.635
272.004, 926.891
273.369, 739.248
274.734, 753.703
276.099, 631.253
277.463, 474.899
278.828, 525.639
280.192, 373.469
281.556, 211.389
282.919, 313.395
284.283, 259.485
285.646, 204.656
287.009, 80.903
288.372, 35.222
289.734, 108.611
291.097, 74.067
292.459, 5.592
293.821, 143.182
295.183, 74.162
296.544, 71.549
297.905, 58.675
299.266, 41.155
300.627, 56.947
301.988, 14.007
303.348, 64.977
304.709, 81.907
306.069, 87.785
307.428, 103.611
308.788, 135.384
310.147, 129.766
311.507, 93.799
312.865, 148.430
314.224, 138.014
315.583, 182.558
316.941, 75.068
318.299, 106.525
319.657, 183.935
321.015, 90.307
322.372, 195.629
323.729, 163.916
325.086, 110.156
326.443, 190.346
327.800, 170.492
329.156, 73.601
330.512, 107.637
331.868, 54.612
333.224, 2.513
334.579, 107.674
335.935, 214.948
337.290, 482.312
338.645, 556.773
339.999, 806.316
341.354, 1158.930
342.708, 1598.634
344.062, 2063.423
345.416, 2559.285
346.769, 3288.192
348.123, 4180.160
349.476, 5017.170
350.829, 5410.217
352.182, 6008.305
353.534, 6423.422
354.887, 6795.583
356.239, 6946.762
357.591, 6895.006
358.942, 6427.327
360.294, 6168.741
361.645, 5681.250
362.996, 5133.841
364.347, 4679.520
365.698, 4118.288
367.048, 3724.137
368.398, 3303.085
369.748, 2885.096
371.098, 2548.160
372.448, 2364.278
373.797, 2046.454
375.146, 1883.685
376.495, 1900.976
377.844, 1814.323
379.192, 1695.720
380.540, 1770.167
381.889, 1730.663
383.236, 1722.203
384.584, 1862.808
385.932, 1888.476
387.279, 1917.208
388.626, 2002.008
389.973, 2044.876
391.319, 1972.811
392.666, 2091.819
394.012, 1922.915
395.358, 1943.072
396.704, 1891.289
398.049, 1682.563
399.394, 1793.893
400.740, 1494.277
402.084, 1462.715
403.429, 1366.204
404.774, 1308.746
406.118, 1330.337
407.462, 1288.977
408.806, 1169.666
410.150, 1189.401
411.493, 1073.182
412.836, 1174.009
414.179, 1047.880
415.522, 888.795
416.865, 962.752
418.207, 767.751
419.549, 674.792
420.891, 671.873
422.233, 566.993
423.575, 543.153
424.916, 487.350
426.257, 514.585
427.598, 558.858
428.939, 468.166
430.279, 594.510
431.619, 584.890
432.959, 490.304
434.299, 606.752
435.639, 672.232
436.978, 692.746
438.318, 873.292
439.657, 1071.715
440.996, 1307.477
442.334, 1671.116
443.673, 1996.784
445.011, 2449.482
446.349, 3101.208
447.687, 3574.962
449.024, 3992.745
450.361, 4313.554
451.699, 4324.391
453.036, 4270.254
454.372, 4109.105
455.709, 3968.019
457.045, 3600.581
458.381, 3450.545
459.717, 3082.664
461.053, 3034.968
462.388, 2927.413
463.724, 2775.473
465.059, 2866.385
466.394, 2613.274
467.728, 2615.509
469.063, 2688.948
470.397, 2678.095
471.731, 2682.373
473.065, 2799.840
474.398, 2852.989
475.732, 2993.018
477.065, 2973.423
478.398, 3215.372
479.731, 3299.229
481.063, 3596.802
482.396, 3823.312
483.728, 4097.738
485.060, 4497.203
486.391, 4770.259
487.723, 5299.756
489.054, 5769.044
490.385, 6283.419
491.716, 6949.110
493.047, 7613.613
494.377, 8478.021
495.708, 9296.778
497.038, 10458.448
498.368, 11607.592
499.697, 12839.510
501.027, 14547.389
502.356, 16271.633
503.685, 18075.789
505.014, 20332.006
506.342, 22240.191
507.671, 24967.137
508.999, 26822.754
510.327, 28830.297
511.655, 29860.863
512.982, 30140.672
514.310, 30095.260
515.637, 28311.545
516.964, 26674.426
518.291, 23803.199
519.617, 21546.252
520.944, 18863.096
522.270, 15877.146
523.596, 14088.562
524.921, 11983.590
526.247, 10513.851
527.572, 9093.432
528.897, 7785.336
530.222, 7050.967
531.547, 6175.799
532.871, 5524.132
534.196, 4810.609
535.520, 4267.606
536.844, 3944.141
538.167, 3554.434
539.491, 3256.192
540.814, 2947.243
542.137, 2731.178
543.460, 2399.812
544.783, 2229.258
546.105, 2022.691
547.427, 1909.110
548.749, 1711.515
550.071, 1524.904
551.393, 1528.278
552.714, 1384.636
554.035, 1328.978
555.356, 1120.302
556.677, 1076.608
557.998, 1068.898
559.318, 971.169
560.638, 957.421
561.958, 836.655
563.278, 772.869
564.597, 800.063
565.917, 671.238
567.236, 652.392
568.555, 577.524
569.874, 478.636
571.192, 544.726
572.511, 572.794
573.829, 534.841
575.147, 465.864
576.464, 576.865
577.782, 505.842
579.099, 525.796
580.416, 456.726
581.733, 511.631
583.050, 523.513
584.366, 525.370
585.683, 569.202
586.999, 491.008
588.315, 565.790
589.630, 564.544
590.946, 576.273
592.261, 658.975
593.576, 575.651
594.891, 563.299
596.206, 592.920
597.520, 613.514
598.834, 634.080
600.148, 584.618
601.462, 542.127
602.776, 553.608
604.089, 445.060
605.402, 376.484
606.715, 362.878
608.028, 367.243
609.341, 242.578
610.653, 208.883
611.965, 183.157
613.277, 135.404
614.589, 127.619
615.901, 124.816
617.212, 115.983
618.523, 63.127
619.834, 66.237
621.145, 95.321
622.456, 108.374
623.766, 51.407
625.076, 75.414
626.386, 39.399
627.696, 132.360
629.006, 44.311
630.315, 55.242
631.624, 26.149
632.933, 99.032
634.242, 78.905
635.551, 70.774
636.859, 66.617
638.167, 32.440
639.475, 69.246
640.783, 23.028
642.090, 9.792
643.398, 24.526
644.705, 8.291
646.012, 38.891
647.318, 42.463
648.625, 17.892
649.931, 45.191
651.237, 58.604
652.543, 49.604
653.849, 59.360
655.155, 98.214
656.460, 94.189
657.765, 45.282
659.070, 114.468
660.375, 112.784
661.679, 145.228
662.984, 96.817
664.288, 156.527
665.592, 119.389
666.895, 86.383
668.199, 134.493
669.502, 74.743
670.805, 119.101
672.108, 98.591
673.411, 124.203
674.713, 90.949
676.016, 79.812
677.318, 92.787
678.620, 48.877
679.921, 71.062
681.223, 81.353
682.524, 53.755
683.825, 123.252
685.126, 18.120
686.427, 68.434
687.727, 57.703
689.028, 34.924
690.328, 28.095
691.628, 10.213
692.927, 23.815
694.227, 81.277
695.526, 54.241
696.825, 94.333
698.124, 102.035
699.423, 127.873
700.721, 182.676
702.020, 232.446
703.318, 238.182
704.616, 223.885
705.913, 206.556
707.211, 300.193
708.508, 299.798
709.805, 374.370
711.102, 314.910
712.399, 434.418
713.695, 427.894
714.992, 396.337
716.288, 433.749
717.584, 442.128
718.879, 480.477
720.175, 509.294
721.470, 541.080
722.765, 561.334
724.060, 585.559
725.355, 581.751
726.649, 512.914
727.944, 517.046
729.238, 629.149
730.532, 542.221
731.825, 642.264
733.119, 586.276
734.412, 612.260
735.705, 611.214
736.998, 602.139
738.291, 591.036
739.584, 600.903
740.876, 632.742
742.168, 595.553
743.460, 605.336
744.752, 625.091
746.043, 590.818
747.334, 655.518
748.626, 687.190
749.916, 584.836
751.207, 610.455
752.498, 696.047
753.788, 707.612
755.078, 603.156
756.368, 681.674
757.658, 658.167
758.947, 615.635
760.237, 667.079
761.526, 573.498
762.815, 699.894
764.104, 643.265
765.392, 693.611
766.680, 683.945
767.969, 629.266
769.257, 687.565
770.544, 779.854
771.832, 729.124
773.119, 679.382
774.406, 743.328
775.693, 843.290
776.980, 714.500
778.267, 720.694
779.553, 772.258
780.839, 736.240
782.125, 801.405
783.411, 809.533
784.697, 864.743
785.982, 779.200
787.267, 860.716
788.552, 826.771
789.837, 903.572
791.122, 951.208
792.406, 880.730
793.690, 986.290
794.974, 909.791
796.258, 978.941
797.542, 1048.419
798.825, 1094.547
800.108, 1128.817
801.391, 1188.339
802.674, 1268.383
803.957, 1321.923
805.239, 1336.706
806.522, 1489.624
807.804, 1478.075
809.085, 1745.886
810.367, 1773.225
811.649, 1836.785
812.930, 2088.385
814.211, 2242.617
815.492, 2563.944
816.772, 2833.218
818.053, 3181.516
819.333, 3503.054
820.613, 3858.917
821.893, 4500.848
823.173, 4858.759
824.452, 5451.425
825.732, 5795.314
827.011, 5871.500
828.290, 6018.095
829.568, 6110.800
830.847, 5968.227
832.125, 6207.864
833.403, 6226.290
834.681, 6616.352
835.959, 7258.799
837.236, 8229.030
838.514, 9559.936
839.791, 11300.512
841.068, 13057.372
842.345, 14864.026
843.621, 16603.180
844.898, 16878.186
846.174, 16447.660
847.450, 15429.604
848.726, 13073.783
850.001, 11097.495
851.277, 9207.912
852.552, 7513.437
853.827, 6067.262
855.102, 5040.271
856.376, 4154.291
857.651, 3611.318
858.925, 3096.356
860.199, 2698.406
861.473, 2337.466
862.746, 2152.536
864.020, 2030.618
865.293, 1818.326
866.566, 1725.584
867.839, 1595.933
869.112, 1541.062
870.384, 1533.203
871.656, 1488.356
872.928, 1439.523
874.200, 1468.703
875.472, 1500.896
876.744, 1483.103
878.015, 1568.324
879.286, 1679.558
880.557, 1757.806
881.828, 1893.068
883.098, 2095.346
884.369, 2163.638
885.639, 2382.944
886.909, 2655.267
888.178, 3059.604
889.448, 3355.957
890.717, 3920.326
891.987, 4354.711
893.256, 5070.113
894.524, 5913.530
895.793, 6922.964
897.061, 8300.413
898.330, 9945.884
899.598, 12128.369
900.865, 15402.873
902.133, 19152.395
903.401, 23885.934
904.668, 29792.494
905.935, 36003.066
907.202, 40975.512
908.468, 44585.125
909.735, 45658.762
911.001, 43461.445
912.267, 39238.422
913.533, 34849.152
914.799, 30025.918
916.064, 24741.656
917.330, 20557.422
918.595, 16478.486
919.860, 13174.554
921.124, 10959.525
922.389, 9073.309
923.653, 7688.160
924.918, 6517.123
926.182, 5726.341
927.445, 5058.958
928.709, 4460.747
929.972, 4008.884
931.236, 3699.849
932.499, 3449.999
933.761, 3155.062
935.024, 2815.667
936.286, 2691.459
937.549, 2575.354
938.811, 2222.425
940.073, 2301.994
941.334, 2051.317
942.596, 1967.229
943.857, 1933.255
945.118, 1778.098
946.379, 1680.997
947.640, 1658.501
948.900, 1648.044
950.161, 1509.596
951.421, 1534.920
952.681, 1480.171
953.940, 1548.657
955.200, 1375.175
956.459, 1378.818
957.719, 1485.104
958.978, 1327.713
960.236, 1375.508
961.495, 1381.797
962.753, 1321.625
964.012, 1236.516
965.270, 1257.562
966.527, 1365.942
967.785, 1293.504
969.043, 1320.649
970.300, 1306.858
971.557, 1358.145
972.814, 1416.500
974.071, 1301.915
975.327, 1357.401
976.583, 1305.943
977.840, 1387.557
979.095, 1366.237
980.351, 1433.689
981.607, 1565.505
982.862, 1641.576
984.117, 1815.131
985.372, 2103.110
986.627, 2146.147
987.882, 2266.075
989.136, 2193.219
990.390, 1902.431
991.644, 1713.155
992.898, 1457.419
994.152, 1282.708
995.405, 1117.023
996.659, 1003.367
997.912, 938.741
999.165, 834.145
1000.417, 847.570
1001.670, 787.021
1002.922, 811.492
1004.174, 682.983
1005.426, 728.493
1006.678, 611.028
1007.930, 598.590
1009.181, 647.168
1010.432, 535.767
1011.683, 519.381
1012.934, 517.014
1014.185, 496.663
1015.435, 479.330
1016.685, 460.018
1017.935, 441.722
1019.185, 393.444
1020.435, 391.189
1021.684, 370.961
1022.934, 352.751
1024.183, 344.570
1025.432, 374.406
1026.680, 406.258
1027.929, 339.125
1029.177, 315.008
1030.425, 288.906
1031.673, 290.824
1032.921, 255.757
1034.169, 308.706
1035.416, 253.669
1036.663, 222.646
1037.911, 271.654
1039.157, 191.657
1040.404, 257.672
1041.650, 239.731
1042.897, 255.774
1044.143, 176.830
1045.389, 213.898
1046.634, 189.979
1047.880, 130.071
1049.125, 176.719
1050.371, 104.835
1051.615, 125.963
1052.860, 67.102
1054.105, 52.679
1055.349, 109.841
1056.593, 37.801
1057.837, 34.518
1059.081, 10.500
1060.325, 2.745
1061.568, 16.979
1062.812, 0.703
1064.055, 1.703
1065.298, 6.596
1066.540, 52.834
1067.783, 65.870
1069.025, 64.634
1070.267, 7.396
1071.509, 76.069
1072.751, 33.775
1073.993, 57.474
1075.234, 12.926
1076.475, 23.955
1077.716, 69.462
1078.957, 34.554
1080.198, 29.279
1081.438, 32.387
1082.679, 29.155
1083.919, 16.051
1085.159, 19.906
1086.398, 21.138
1087.638, 24.152
1088.877, 33.668
1090.116, 47.209
1091.355, 56.776
1092.594, 105.822
1093.833, 69.725
1095.071, 52.679
1096.309, 77.593
1097.547, 24.601
1098.785, 59.617
1100.023, 17.474
1101.260, 14.462
1102.498, 37.403
1103.735, 26.526
1104.972, 4.634
1106.208, 78.353
1107.445, 33.379
1108.681, 35.012
1109.918, 4.312
1111.154, 23.283
1112.389, 67.200
1113.625, 7.375
1114.860, 35.700
1116.096, 0.876
1117.331, 58.012
1118.566, 46.166
1119.800, 18.161
1121.035, 116.043
1122.269, 148.167
1123.503, 230.972
1124.737, 189.774
1125.971, 185.568
1127.205, 106.457
1128.438, 16.021
1129.671, 20.845
1130.904, 13.316
1132.137, 4.136
1133.370, 35.905
1134.602, 57.786
1135.834, 29.382
1137.066, 57.670
1138.298, 68.389
1139.530, 5.739
1140.762, 70.998
1141.993, 51.796
1143.224, 40.630
1144.455, 70.421
1145.686, 67.321
1146.917, 104.399
1148.147, 121.256
1149.377, 153.142
1150.607, 208.992
1151.837, 171.700
1153.067, 187.367
1154.296, 262.207
1155.526, 222.763
1156.755, 216.608
1157.984, 295.811
1159.213, 295.309
1160.441, 314.176
1161.670, 306.041
1162.898, 278.776
1164.126, 252.575
1165.354, 283.095
1166.581, 241.003
1167.809, 254.172
1169.036, 217.506
1170.263, 245.510
1171.490, 216.171
1172.717, 202.970
1173.943, 209.708
1175.170, 173.241
1176.396, 165.913
1177.622, 200.248
1178.848, 150.105
1180.073, 134.521
1181.299, 205.322
1182.524, 133.691
1183.749, 114.919
1184.974, 81.132
1186.199, 131.329
1187.423, 140.510
1188.648, 82.713
1189.872, 150.166
1191.096, 138.380
1192.320, 153.498
1193.543, 97.599
1194.767, 151.684
1195.990, 54.753
1197.213, 135.902
1198.436, 102.931
1199.659, 120.944
1200.881, 61.948
1202.104, 137.923
1203.326, 74.885
1204.548, 77.981
1205.770, 26.916
1206.991, 96.861
1208.213, 92.830
1209.434, 64.377
1210.655, 38.300
1211.876, 96.256
1213.096, 115.042
1214.317, 104.146
1215.537, 114.750
1216.757, 109.626
1217.977, 91.478
1219.197, 93.597
1220.417, 91.377
1221.636, 66.490
1222.855, 81.807
1224.074, 45.875
1225.293, 49.629
1226.512, 89.120
1227.731, 48.902
1228.949, 97.300
1230.167, 16.840
1231.385, 71.811
1232.603, 89.627
1233.820, 91.504
1235.038, 63.978
1236.255, 64.238
1237.472, 86.557
1238.689, 101.374
1239.906, 98.078
1241.122, 115.706
1242.338, 84.680
1243.555, 115.759
1244.771, 100.812
1245.986, 54.875
1247.202, 78.179
1248.417, 65.576
1249.633, 103.744
1250.848, 54.911
1252.063, 72.977
1253.277, 69.432
1254.492, 28.601
1255.706, 15.617
1256.920, 18.182
1258.134, 71.223
1259.348, 36.256
1260.562, 70.165
1261.775, 94.786
1262.988, 70.275
1264.201, 34.238
1265.414, 49.183
1266.627, 72.111
1267.839, 37.019
1269.052, 101.908
1270.264, 115.781
1271.476, 11.616
1272.688, 9.425
1273.899, 19.211
1275.111, 67.276
1276.322, 19.011
1277.533, 75.521
1278.744, 84.569
1279.955, 7.203
1281.165, 66.812
1282.376, 32.570
1283.586, 82.131
1284.796, 48.672
1286.006, 69.712
1287.215, 53.219
1288.425, 47.706
1289.634, 52.175
1290.843, 38.626
1292.052, 26.059
1293.261, 41.473
1294.469, 37.868
1295.678, 40.247
1296.886, 58.606
1298.094, 65.947
1299.302, 13.731
1300.509, 9.438
1301.717, 36.827
1302.924, 17.067
1304.131, 98.282
1305.338, 32.479
1306.545, 31.657
1307.752, 41.815
1308.958, 0.954
1310.164, 75.067
1311.370, 26.161
1312.576, 5.757
1313.782, 24.616
1314.987, 19.576
1316.193, 30.420
1317.398, 28.545
1318.603, 31.543
1319.807, 50.470
1321.012, 34.506
1322.216, 87.461
1323.421, 3.667
1324.625, 61.205
1325.829, 22.050
1327.032, 64.860
1328.236, 96.652
1329.439, 171.477
1330.642, 131.230
1331.845, 216.958
1333.048, 85.775
1334.251, 37.455
1335.453, 75.148
1336.656, 111.117
1337.858, 105.778
1339.060, 133.424
1340.261, 132.346
1341.463, 69.126
1342.664, 125.726
1343.866, 100.311
1345.067, 90.904
1346.267, 111.114
1347.468, 108.910
1348.669, 134.455
1349.869, 90.825
1351.069, 78.524
1352.269, 65.957
1353.469, 92.352
1354.668, 63.708
1355.868, 44.976
1357.067, 96.520
1358.266, 29.101
1359.465, 56.449
1360.664, 58.844
1361.862, 13.213
1363.061, 25.486
1364.259, 64.774
1365.457, 14.044
1366.655, 99.010
1367.852, 52.156
1369.050, 84.526
1370.247, 63.063
1371.444, 39.200
1372.641, 81.692
1373.838, 68.822
1375.035, 73.055
1376.231, 64.983
1377.427, 34.013
1378.623, 96.030
1379.819, 27.854
1381.015, 59.620
1382.211, 39.582
1383.406, 39.773
1384.601, 44.602
1385.796, 66.515
1386.991, 82.312
1388.185, 89.281
1389.380, 106.303
1390.574, 101.906
1391.768, 121.326
1392.962, 116.593
1394.156, 105.245
1395.350, 108.146
1396.543, 91.680
1397.736, 92.356
1398.929, 140.934
1400.122, 162.719
1401.315, 95.520
1402.507, 84.443
1403.700, 140.156
1404.892, 98.500
1406.084, 181.839
1407.276, 82.295
1408.467, 93.646
1409.659, 161.856
1410.850, 180.689
1412.041, 112.683
1413.232, 118.043
1414.423, 137.241
1415.614, 183.527
1416.804, 127.589
1417.994, 155.252
1419.184, 137.866
1420.374, 134.340
1421.564, 112.956
1422.753, 188.204
1423.943, 131.644
1425.132, 157.338
1426.321, 120.125
1427.510, 117.329
1428.698, 120.459
1429.887, 110.829
1431.075, 126.158
1432.263, 121.103
1433.451, 120.148
1434.639, 139.021
1435.827, 100.036
1437.014, 132.021
1438.201, 104.988
1439.388, 87.850
1440.575, 78.636
1441.762, 102.070
1442.949, 109.438
1444.135, 103.901
1445.321, 100.149
1446.507, 91.515
1447.693, 75.432
1448.879, 75.072
1450.064, 48.477
1451.250, 52.101
1452.435, 47.925
1453.620, 81.623
1454.805, 44.902
1455.989, 24.038
1457.174, 9.653
1458.358, 44.339
1459.542, 62.986
1460.726, 32.621
1461.910, 59.211
1463.093, 13.759
1464.277, 28.297
1465.460, 83.821
1466.643, 37.327
1467.826, 38.791
1469.009, 85.223
1470.191, 44.626
1471.373, 29.111
1472.556, 66.579
1473.738, 61.086
1474.919, 17.756
1476.101, 92.481
1477.283, 45.258
1478.464, 2.976
1479.645, 61.785
1480.826, 88.530
1482.007, 66.258
1483.187, 49.970
1484.368, 54.888
1485.548, 56.398
