##NAMES=Atacamite
##RRUFFID=R050098
##IDEAL CHEMISTRY=Cu^2+^_2_Cl(OH)_3_
##LOCALITY=La Farola mine, Tierra Amarilla, Atacama, Chile
##OWNER=RRUFF
##SOURCE=Rock Currier
##DESCRIPTION=Green prismatic single crystals
##STATUS=The identification of this mineral has been confirmed by X-ray diffraction and chemical analysis
##URL=rruff.info/R050098
##MEASURED CHEMISTRY=Cu_2.00_Cl_1.00_(OH)_3_
##PIN_ID=M00436
##ORIENTATION=Laser parallel to c* (0 0 1). Fiducial mark perpendicular to laser is parallel to a [1 0 0]
54.966, 0.000
56.365, 91.286
57.765, 232.791
59.164, 307.952
60.563, 351.718
61.962, 354.067
63.360, 475.272
64.758, 555.481
66.157, 484.858
67.554, 321.350
68.952, 228.355
70.349, 90.757
71.747, 26.602
73.144, 26.884
74.540, 31.248
75.937, 100.837
77.333, 48.793
78.729, 70.736
80.125, 198.595
81.521, 470.636
82.916, 804.730
84.311, 1074.762
85.706, 1421.629
87.101, 1974.243
88.496, 2513.527
89.890, 3090.414
91.284, 3996.844
92.678, 4614.764
94.071, 4999.125
95.465, 5340.886
96.858, 5656.003
98.251, 6056.415
99.644, 6644.034
101.036, 6904.771
102.428, 7515.538
103.820, 7910.268
105.212, 8306.919
106.604, 8945.462
107.995, 9307.864
109.387, 9856.105
110.777, 10508.167
112.168, 11658.027
113.559, 12447.671
114.949, 13358.086
116.339, 13922.252
117.729, 14394.168
119.119, 14380.815
120.508, 14237.194
121.897, 13299.307
123.286, 12512.148
124.675, 11114.706
126.063, 10343.976
127.452, 9914.947
128.840, 9692.612
130.228, 10044.963
131.615, 10487.001
133.003, 11555.713
134.390, 11932.097
135.777, 12465.149
137.164, 12744.860
138.550, 13801.161
139.937, 14926.805
141.323, 16366.727
142.709, 16888.863
144.094, 17381.152
145.480, 17604.561
146.865, 17650.023
148.250, 17387.525
149.635, 17301.107
151.019, 16700.943
152.403, 15437.083
153.788, 13132.536
155.171, 10484.312
156.555, 8785.420
157.939, 7488.872
159.322, 6588.680
160.705, 6228.901
162.088, 5870.499
163.470, 5683.459
164.853, 5512.790
166.235, 5351.491
167.617, 5208.567
168.998, 5145.021
170.380, 5080.854
171.761, 5025.137
173.142, 4987.232
174.523, 4937.642
175.904, 4907.003
177.284, 4843.960
178.664, 4787.371
180.044, 4717.394
181.424, 4663.294
182.803, 4593.627
184.183, 4546.489
185.562, 4448.892
186.940, 4448.233
188.319, 4428.117
189.698, 4417.838
191.076, 4351.937
192.454, 4292.414
193.831, 4348.272
195.209, 4488.511
196.586, 4548.133
197.963, 4495.137
199.340, 4578.527
200.717, 4594.301
202.093, 4690.462
203.470, 4817.012
204.846, 4937.949
206.221, 5119.274
207.597, 5111.769
208.972, 5119.252
210.347, 5104.585
211.722, 4972.464
213.097, 4956.732
214.472, 4848.385
215.846, 4873.422
217.220, 4682.840
218.594, 4618.637
219.967, 4473.811
221.341, 4251.676
222.714, 3924.793
224.087, 3642.105
225.460, 3370.562
226.832, 3260.219
228.204, 3041.001
229.577, 2879.734
230.948, 2799.978
232.320, 2560.425
233.692, 2548.604
235.063, 2521.000
236.434, 2285.969
237.805, 2376.422
239.175, 2131.173
240.545, 2040.885
241.916, 2074.387
243.286, 1934.244
244.655, 1803.188
246.025, 1845.561
247.394, 1796.354
248.763, 1589.561
250.132, 1491.170
251.501, 1551.176
252.869, 1368.569
254.237, 1366.344
255.605, 1363.492
256.973, 1262.009
258.340, 1195.886
259.708, 1111.119
261.075, 1081.702
262.442, 991.238
263.808, 991.742
265.175, 911.933
266.541, 889.444
267.907, 791.697
269.273, 764.699
270.639, 728.901
272.004, 688.366
273.369, 665.882
274.734, 619.704
276.099, 565.831
277.463, 502.260
278.828, 496.126
280.192, 414.008
281.556, 435.322
282.919, 460.926
284.283, 329.816
285.646, 479.992
287.009, 275.448
288.372, 175.183
289.734, 454.192
291.097, 215.477
292.459, 134.030
293.821, 323.852
295.183, 167.939
296.544, 258.290
297.905, 94.900
299.266, 180.768
300.627, 127.890
301.988, 124.266
303.348, 249.893
304.709, 78.775
306.069, 40.936
307.428, 297.602
308.788, 235.834
310.147, 259.260
311.507, 460.782
312.865, 444.459
314.224, 465.300
315.583, 543.096
316.941, 655.812
318.299, 777.907
319.657, 957.308
321.015, 1084.470
322.372, 1173.893
323.729, 1415.597
325.086, 1516.585
326.443, 1915.853
327.800, 1944.376
329.156, 2453.188
330.512, 2610.283
331.868, 3113.649
333.224, 3545.311
334.579, 4195.258
335.935, 4947.497
337.290, 5600.978
338.645, 6248.816
339.999, 7336.900
341.354, 8572.261
342.708, 9922.915
344.062, 11554.863
345.416, 13204.112
346.769, 14823.657
348.123, 16555.488
349.476, 17688.598
350.829, 18778.961
352.182, 19470.613
353.534, 19528.541
354.887, 19157.756
356.239, 17830.232
357.591, 16323.970
358.942, 14656.974
360.294, 12794.228
361.645, 11153.737
362.996, 9431.503
364.347, 8272.522
365.698, 6898.791
367.048, 5969.293
368.398, 5222.031
369.748, 4549.972
371.098, 4109.127
372.448, 3788.488
373.797, 3742.062
375.146, 3309.853
376.495, 3436.844
377.844, 3658.034
379.192, 3650.419
380.540, 4047.998
381.889, 3925.759
383.236, 4101.697
384.584, 4199.847
385.932, 4014.203
387.279, 3783.775
388.626, 3585.571
389.973, 3307.587
391.319, 2653.834
392.666, 2384.312
394.012, 1837.019
395.358, 1536.958
396.704, 1206.132
398.049, 925.538
399.394, 895.189
400.740, 646.095
402.084, 617.244
403.429, 654.630
404.774, 739.258
406.118, 896.107
407.462, 983.163
408.806, 1053.422
410.150, 1228.884
411.493, 1160.544
412.836, 1259.403
414.179, 1034.458
415.522, 802.706
416.865, 835.146
418.207, 501.776
419.549, 253.593
420.891, 201.597
422.233, 105.783
423.575, 61.848
424.916, 216.306
426.257, 59.615
427.598, 58.755
428.939, 73.273
430.279, 194.476
431.619, 228.851
432.959, 361.395
434.299, 701.108
435.639, 1088.988
436.978, 1428.034
438.318, 2069.244
439.657, 2646.615
440.996, 3639.146
442.334, 4671.836
443.673, 5570.684
445.011, 6674.688
446.349, 7712.847
447.687, 8182.155
449.024, 8488.621
450.361, 8421.229
451.699, 7577.992
453.036, 6448.896
454.372, 5416.949
455.709, 4299.143
457.045, 3101.480
458.381, 2327.958
459.717, 1648.574
461.053, 1078.328
462.388, 788.219
463.724, 386.322
465.059, 235.170
466.394, 10.008
467.728, 141.485
469.063, 199.800
470.397, 275.769
471.731, 436.595
473.065, 259.597
474.398, 322.683
475.732, 197.032
477.065, 222.322
478.398, 143.190
479.731, 96.924
481.063, 134.578
482.396, 158.754
483.728, 390.965
485.060, 626.465
486.391, 836.916
487.723, 1182.725
489.054, 1481.298
490.385, 1861.947
491.716, 2421.683
493.047, 2949.625
494.377, 3559.377
495.708, 4331.018
497.038, 5149.404
498.368, 6067.563
499.697, 7203.180
501.027, 8737.323
502.356, 10370.130
503.685, 12033.229
505.014, 14145.876
506.342, 16145.944
507.671, 18718.000
508.999, 20514.787
510.327, 22698.947
511.655, 23901.391
512.982, 24649.283
514.310, 25187.074
515.637, 23909.443
516.964, 23100.525
518.291, 21006.533
519.617, 19228.822
520.944, 17057.678
522.270, 14470.945
523.596, 12922.547
524.921, 11050.637
526.247, 9979.800
527.572, 8214.464
528.897, 7222.150
530.222, 6486.971
531.547, 5501.312
532.871, 5020.675
534.196, 4314.576
535.520, 3740.971
536.844, 3605.544
538.167, 3134.258
539.491, 2893.718
540.814, 2706.427
542.137, 2460.215
543.460, 2310.092
544.783, 2195.730
546.105, 2293.462
547.427, 2108.526
548.749, 2265.172
550.071, 2313.340
551.393, 1797.582
552.714, 1907.087
554.035, 1719.469
555.356, 1905.455
556.677, 1972.783
557.998, 1851.420
559.318, 1913.107
560.638, 2099.737
561.958, 2132.158
563.278, 2170.371
564.597, 2310.637
565.917, 2437.769
567.236, 2523.059
568.555, 2771.436
569.874, 2732.613
571.192, 2996.837
572.511, 3413.085
573.829, 3508.138
575.147, 3700.438
576.464, 4236.454
577.782, 4659.448
579.099, 4936.500
580.416, 5340.449
581.733, 5802.372
583.050, 6441.661
584.366, 6304.295
585.683, 6603.549
586.999, 6352.779
588.315, 6066.564
589.630, 6101.396
590.946, 5669.116
592.261, 5399.802
593.576, 4820.455
594.891, 4450.070
596.206, 3925.648
597.520, 3680.188
598.834, 3466.689
600.148, 3098.149
601.462, 2645.567
602.776, 2449.941
604.089, 2136.271
605.402, 1876.558
606.715, 1636.796
608.028, 1389.987
609.341, 1186.167
610.653, 981.712
611.965, 832.267
613.277, 632.258
614.589, 533.197
615.901, 412.081
617.212, 285.911
618.523, 253.686
619.834, 201.403
621.145, 138.734
622.456, 111.838
623.766, 59.188
625.076, 74.611
626.386, 49.705
627.696, 95.400
629.006, 84.920
630.315, 19.800
631.624, 100.473
632.933, 45.777
634.242, 48.109
635.551, 0.240
636.859, 39.147
638.167, 102.092
639.475, 30.033
640.783, 52.952
642.090, 70.086
643.398, 47.382
644.705, 40.169
646.012, 91.393
647.318, 71.132
648.625, 34.042
649.931, 113.107
651.237, 97.368
652.543, 118.821
653.849, 62.479
655.155, 86.313
656.460, 89.340
657.765, 77.563
659.070, 115.978
660.375, 148.606
661.679, 169.467
662.984, 156.574
664.288, 120.922
665.592, 81.493
666.895, 36.269
668.199, 133.228
669.502, 121.422
670.805, 148.846
672.108, 43.516
673.411, 52.378
674.713, 96.439
676.016, 18.722
677.318, 73.188
678.620, 29.867
679.921, 80.736
681.223, 22.825
682.524, 6.102
683.825, 20.439
685.126, 138.812
686.427, 85.062
687.727, 126.167
689.028, 77.144
690.328, 44.973
691.628, 133.642
692.927, 131.181
694.227, 159.588
695.526, 139.872
696.825, 242.025
698.124, 241.073
699.423, 301.016
700.721, 323.860
702.020, 320.101
703.318, 240.264
704.616, 333.810
705.913, 241.260
707.211, 292.601
708.508, 357.841
709.805, 375.988
711.102, 320.043
712.399, 388.000
713.695, 280.866
714.992, 349.626
716.288, 358.292
717.584, 384.863
718.879, 417.474
720.175, 405.838
721.470, 452.025
722.765, 404.232
724.060, 394.347
725.355, 425.370
726.649, 413.303
727.944, 409.144
729.238, 527.894
730.532, 401.555
731.825, 471.123
733.119, 477.604
734.412, 437.995
735.705, 481.296
736.998, 508.509
738.291, 477.634
739.584, 500.674
740.876, 482.642
742.168, 492.524
743.460, 553.323
744.752, 448.034
746.043, 470.658
747.334, 602.193
748.626, 543.642
749.916, 529.004
751.207, 583.279
752.498, 574.469
753.788, 584.100
755.078, 587.591
756.368, 592.524
757.658, 619.372
758.947, 628.135
760.237, 663.813
761.526, 640.408
762.815, 737.919
764.104, 722.347
765.392, 744.692
766.680, 731.955
767.969, 713.136
769.257, 780.419
770.544, 793.266
771.832, 850.189
773.119, 917.045
774.406, 829.820
775.693, 945.515
776.980, 879.053
778.267, 979.900
779.553, 961.812
780.839, 987.109
782.125, 990.275
783.411, 1030.139
784.697, 1064.896
785.982, 1116.833
787.267, 1146.883
788.552, 1200.622
789.837, 1213.508
791.122, 1310.406
792.406, 1318.776
793.690, 1356.006
794.974, 1349.783
796.258, 1378.764
797.542, 1409.493
798.825, 1521.311
800.108, 1579.807
801.391, 1595.578
802.674, 1638.306
803.957, 1785.986
805.239, 1861.742
806.522, 2162.220
807.804, 2157.092
809.085, 2329.247
810.367, 2501.660
811.649, 2557.642
812.930, 2855.128
814.211, 2987.976
815.492, 3142.558
816.772, 3401.624
818.053, 3595.294
819.333, 3755.007
820.613, 3805.008
821.893, 4060.663
823.173, 4128.054
824.452, 4215.014
825.732, 4484.088
827.011, 4572.617
828.290, 4901.442
829.568, 5302.368
830.847, 5659.038
832.125, 6435.164
833.403, 7075.883
834.681, 7858.293
835.959, 8908.230
837.236, 10205.135
838.514, 11913.562
839.791, 13832.980
841.068, 15728.277
842.345, 17288.072
843.621, 18573.855
844.898, 18610.117
846.174, 17591.889
847.450, 16307.498
848.726, 13909.960
850.001, 11871.685
851.277, 10137.161
852.552, 8431.563
853.827, 7358.881
855.102, 6390.436
856.376, 5491.899
857.651, 5085.030
858.925, 4625.578
860.199, 4230.602
861.473, 3858.549
862.746, 3775.227
864.020, 3674.025
865.293, 3445.212
866.566, 3395.867
867.839, 3325.726
869.112, 3233.037
870.384, 3234.549
871.656, 3227.258
872.928, 3208.664
874.200, 3322.004
875.472, 3246.964
876.744, 3349.751
878.015, 3429.438
879.286, 3464.305
880.557, 3626.111
881.828, 3624.875
883.098, 3928.817
884.369, 4012.491
885.639, 4362.432
886.909, 4684.372
888.178, 4962.235
889.448, 5399.178
890.717, 6199.125
891.987, 6772.080
893.256, 7552.040
894.524, 8703.001
895.793, 9965.975
897.061, 11664.954
898.330, 13453.864
899.598, 15708.863
900.865, 19261.867
902.133, 23215.877
903.401, 27662.906
904.668, 32796.945
905.935, 38072.020
907.202, 40566.117
908.468, 41418.211
909.735, 39402.344
911.001, 34851.500
912.267, 29169.670
913.533, 24122.869
914.799, 19909.090
916.064, 16257.332
917.330, 13884.665
918.595, 11451.054
919.860, 9736.375
921.124, 8749.726
922.389, 7644.102
923.653, 6854.504
924.918, 6188.933
926.182, 5729.382
927.445, 5181.849
928.709, 4860.339
929.972, 4462.873
931.236, 4090.668
932.499, 3974.886
933.761, 3774.177
935.024, 3525.157
936.286, 3382.063
937.549, 3345.083
938.811, 3086.643
940.073, 3065.771
941.334, 2915.761
942.596, 2797.790
943.857, 2859.165
945.118, 2767.135
946.379, 2683.488
947.640, 2733.771
948.900, 2784.118
950.161, 2822.597
951.421, 2791.420
952.681, 2800.820
953.940, 2781.845
955.200, 2756.018
956.459, 2694.776
957.719, 2674.620
958.978, 2552.548
960.236, 2479.037
961.495, 2244.701
962.753, 2261.885
964.012, 2147.158
965.270, 2019.517
966.527, 2081.770
967.785, 2029.530
969.043, 2138.255
970.300, 2105.902
971.557, 2182.418
972.814, 2310.375
974.071, 2307.410
975.327, 2179.548
976.583, 1980.786
977.840, 1798.132
979.095, 1611.056
980.351, 1431.992
981.607, 1318.371
982.862, 1239.431
984.117, 1117.272
985.372, 1120.308
986.627, 1044.799
987.882, 1077.676
989.136, 979.000
990.390, 933.050
991.644, 982.351
992.898, 868.362
994.152, 892.176
995.405, 820.760
996.659, 871.683
997.912, 844.165
999.165, 867.692
1000.417, 976.266
1001.670, 811.885
1002.922, 942.539
1004.174, 900.227
1005.426, 827.945
1006.678, 818.694
1007.930, 831.473
1009.181, 862.289
1010.432, 773.133
1011.683, 798.013
1012.934, 715.925
1014.185, 758.864
1015.435, 723.831
1016.685, 682.828
1017.935, 594.852
1019.185, 626.909
1020.435, 566.994
1021.684, 516.106
1022.934, 533.247
1024.183, 512.413
1025.432, 454.606
1026.680, 444.824
1027.929, 413.838
1029.177, 349.338
1030.425, 367.633
1031.673, 364.029
1032.921, 338.479
1034.169, 292.847
1035.416, 236.285
1036.663, 217.052
1037.911, 214.424
1039.157, 162.072
1040.404, 215.909
1041.650, 191.725
1042.897, 201.497
1044.143, 167.166
1045.389, 164.104
1046.634, 150.737
1047.880, 108.696
1049.125, 134.440
1050.371, 116.368
1051.615, 137.590
1052.860, 111.928
1054.105, 105.549
1055.349, 103.027
1056.593, 34.382
1057.837, 46.112
1059.081, 88.077
1060.325, 28.100
1061.568, 63.895
1062.812, 34.905
1064.055, 80.979
1065.298, 70.534
1066.540, 6.563
1067.783, 8.965
1069.025, 40.238
1070.267, 18.402
1071.509, 23.104
1072.751, 10.654
1073.993, 22.160
1075.234, 32.469
1076.475, 28.053
1077.716, 18.496
1078.957, 3.228
1080.198, 22.861
1081.438, 44.892
1082.679, 84.830
1083.919, 104.197
1085.159, 99.867
1086.398, 68.546
1087.638, 46.495
1088.877, 18.904
1090.116, 5.290
1091.355, 16.762
1092.594, 66.639
1093.833, 49.105
1095.071, 58.625
1096.309, 22.753
1097.547, 27.508
1098.785, 4.244
1100.023, 24.023
1101.260, 48.688
1102.498, 32.877
1103.735, 41.451
1104.972, 30.763
1106.208, 18.463
1107.445, 51.225
1108.681, 0.478
1109.918, 121.305
1111.154, 16.047
1112.389, 35.715
1113.625, 28.502
1114.860, 38.726
1116.096, 51.095
1117.331, 3.155
1118.566, 39.466
1119.800, 31.157
1121.035, 132.196
1122.269, 116.661
1123.503, 196.903
1124.737, 150.241
1125.971, 55.764
1127.205, 22.754
1128.438, 72.510
1129.671, 36.136
1130.904, 43.028
1132.137, 1.823
1133.370, 40.558
1134.602, 48.177
1135.834, 105.958
1137.066, 78.685
1138.298, 29.466
1139.530, 33.596
1140.762, 47.595
1141.993, 16.713
1143.224, 33.959
1144.455, 14.881
1145.686, 43.887
1146.917, 17.534
1148.147, 50.421
1149.377, 75.183
1150.607, 65.836
1151.837, 96.531
1153.067, 107.169
1154.296, 117.482
1155.526, 142.233
1156.755, 128.162
1157.984, 133.881
1159.213, 208.428
1160.441, 229.009
1161.670, 200.598
1162.898, 244.287
1164.126, 193.056
1165.354, 165.592
1166.581, 116.106
1167.809, 120.793
1169.036, 122.018
1170.263, 164.565
1171.490, 109.169
1172.717, 181.701
1173.943, 99.095
1175.170, 105.410
1176.396, 83.727
1177.622, 103.940
1178.848, 56.176
1180.073, 52.286
1181.299, 98.356
1182.524, 72.479
1183.749, 78.499
1184.974, 28.596
1186.199, 47.638
1187.423, 22.578
1188.648, 2.489
1189.872, 42.362
1191.096, 75.206
1192.320, 5.023
1193.543, 7.799
1194.767, 85.537
1195.990, 13.247
1197.213, 52.918
1198.436, 28.604
1199.659, 7.212
1200.881, 12.224
1202.104, 8.600
1203.326, 21.256
1204.548, 6.177
1205.770, 12.473
1206.991, 12.146
1208.213, 9.153
1209.434, 9.506
1210.655, 9.306
1211.876, 17.849
1213.096, 36.124
1214.317, 30.231
1215.537, 29.570
1216.757, 11.410
1217.977, 12.800
1219.197, 6.926
1220.417, 8.774
1221.636, 34.522
1222.855, 63.098
1224.074, 29.638
1225.293, 3.868
1226.512, 25.638
1227.731, 25.781
1228.949, 5.493
1230.167, 33.116
1231.385, 0.955
1232.603, 113.180
1233.820, 45.791
1235.038, 73.554
1236.255, 0.364
1237.472, 36.324
1238.689, 12.368
1239.906, 4.064
1241.122, 51.123
1242.338, 15.473
1243.555, 66.124
1244.771, 19.730
1245.986, 47.241
1247.202, 33.425
1248.417, 49.909
1249.633, 80.330
1250.848, 49.959
1252.063, 78.363
1253.277, 74.662
1254.492, 22.922
1255.706, 75.110
1256.920, 79.286
1258.134, 40.423
1259.348, 77.519
1260.562, 79.574
1261.775, 92.787
1262.988, 66.558
1264.201, 84.436
1265.414, 140.463
1266.627, 127.681
1267.839, 108.507
1269.052, 153.296
1270.264, 130.046
1271.476, 101.755
1272.688, 106.427
1273.899, 147.564
1275.111, 112.732
1276.322, 166.343
1277.533, 137.653
1278.744, 121.061
1279.955, 102.313
1281.165, 119.166
1282.376, 100.671
1283.586, 99.767
1284.796, 167.164
1286.006, 129.318
1287.215, 149.777
1288.425, 175.444
1289.634, 112.359
1290.843, 138.959
1292.052, 186.010
1293.261, 125.024
1294.469, 152.000
1295.678, 173.937
1296.886, 143.837
1298.094, 186.699
1299.302, 65.523
1300.509, 135.308
1301.717, 100.056
1302.924, 134.766
1304.131, 171.438
1305.338, 159.075
1306.545, 152.676
1307.752, 124.240
1308.958, 106.768
1310.164, 151.258
1311.370, 151.713
1312.576, 179.133
1313.782, 137.518
1314.987, 128.870
1316.193, 112.188
1317.398, 122.057
1318.603, 149.720
1319.807, 162.937
1321.012, 157.120
1322.216, 176.271
1323.421, 165.388
1324.625, 189.398
1325.829, 211.347
1327.032, 174.369
1328.236, 194.315
1329.439, 168.244
1330.642, 174.918
1331.845, 192.631
1333.048, 205.145
1334.251, 218.675
1335.453, 226.300
1336.656, 224.529
1337.858, 236.280
1339.060, 209.727
1340.261, 210.308
1341.463, 201.862
1342.664, 176.227
1343.866, 189.292
1345.067, 199.233
1346.267, 242.883
1347.468, 180.672
1348.669, 167.577
1349.869, 217.100
1351.069, 163.384
1352.269, 153.604
1353.469, 130.046
1354.668, 147.266
1355.868, 141.073
1357.067, 168.083
1358.266, 168.397
1359.465, 160.009
1360.664, 205.012
1361.862, 175.049
1363.061, 151.545
1364.259, 99.190
1365.457, 107.876
1366.655, 194.757
1367.852, 148.361
1369.050, 176.913
1370.247, 111.583
1371.444, 182.365
1372.641, 170.581
1373.838, 189.705
1375.035, 165.254
1376.231, 85.098
1377.427, 90.949
1378.623, 126.101
1379.819, 173.612
1381.015, 169.948
1382.211, 80.094
1383.406, 158.458
1384.601, 153.432
1385.796, 95.191
1386.991, 129.523
1388.185, 130.344
1389.380, 90.131
1390.574, 162.283
1391.768, 84.644
1392.962, 164.612
1394.156, 131.398
1395.350, 69.065
1396.543, 158.249
1397.736, 193.526
1398.929, 191.974
1400.122, 166.839
1401.315, 128.013
1402.507, 126.394
1403.700, 162.257
1404.892, 159.120
1406.084, 163.262
1407.276, 123.488
1408.467, 162.725
1409.659, 145.103
1410.850, 168.162
1412.041, 140.360
1413.232, 96.822
1414.423, 151.373
1415.614, 126.288
1416.804, 99.164
1417.994, 141.489
1419.184, 154.172
1420.374, 104.863
1421.564, 151.042
1422.753, 74.333
1423.943, 120.832
1425.132, 104.391
1426.321, 89.132
1427.510, 93.723
1428.698, 123.110
1429.887, 143.697
1431.075, 105.246
1432.263, 174.748
1433.451, 125.218
1434.639, 90.577
1435.827, 104.966
1437.014, 81.366
1438.201, 129.731
1439.388, 145.020
1440.575, 145.112
1441.762, 130.458
1442.949, 124.008
1444.135, 146.578
1445.321, 136.880
1446.507, 123.276
1447.693, 183.881
1448.879, 191.358
1450.064, 156.007
1451.250, 182.171
1452.435, 183.850
1453.620, 169.585
1454.805, 131.092
1455.989, 115.986
1457.174, 155.950
1458.358, 132.907
1459.542, 165.879
1460.726, 170.758
1461.910, 114.774
1463.093, 155.777
1464.277, 84.771
1465.460, 127.761
1466.643, 132.744
1467.826, 173.710
1469.009, 177.663
1470.191, 110.625
1471.373, 199.590
1472.556, 164.570
1473.738, 131.566
1474.919, 176.592
1476.101, 131.635
