##NAMES=Atacamite
##RRUFFID=R050098
##IDEAL CHEMISTRY=Cu^2+^_2_Cl(OH)_3_
##LOCALITY=La Farola mine, Tierra Amarilla, Atacama, Chile
##OWNER=RRUFF
##SOURCE=Rock Currier
##DESCRIPTION=Green prismatic single crystals
##STATUS=The identification of this mineral has been confirmed by X-ray diffraction and chemical analysis
##URL=rruff.info/R050098
##MEASURED CHEMISTRY=Cu_2.00_Cl_1.00_(OH)_3_
##PIN_ID=M00220
##ORIENTATION=Laser parallel to -b* (0 -1 0). Fiducial mark perpendicular to laser is parallel to c [0 0 1]
54.966, 0.000
56.365, 176.340
57.765, 463.611
59.164, 858.593
60.563, 1248.520
61.962, 1334.416
63.360, 1339.397
64.758, 891.540
66.157, 783.520
67.554, 922.802
68.952, 876.254
70.349, 788.113
71.747, 643.032
73.144, 649.707
74.540, 256.863
75.937, 89.256
77.333, 170.331
78.729, 219.111
80.125, 82.289
81.521, 157.945
82.916, 436.427
84.311, 755.869
85.706, 1149.324
87.101, 1588.063
88.496, 2098.344
89.890, 2689.340
91.284, 3342.967
92.678, 3812.154
94.071, 4386.835
95.465, 4970.954
96.858, 5774.456
98.251, 6929.267
99.644, 7990.299
101.036, 8419.468
102.428, 8899.699
103.820, 9258.903
105.212, 9820.029
106.604, 10787.039
107.995, 11507.908
109.387, 11616.626
110.777, 11767.167
112.168, 13023.513
113.559, 14238.643
114.949, 15473.561
116.339, 16345.352
117.729, 16790.004
119.119, 16845.496
120.508, 16114.669
121.897, 14860.530
123.286, 13816.056
124.675, 12060.246
126.063, 10825.088
127.452, 10310.579
128.840, 10082.711
130.228, 10009.475
131.615, 10353.868
133.003, 10986.889
134.390, 11076.526
135.777, 11557.782
137.164, 12046.650
138.550, 13541.040
139.937, 15146.697
141.323, 16840.615
142.709, 17520.781
144.094, 17918.162
145.480, 17795.723
146.865, 18040.469
148.250, 18209.424
149.635, 18659.436
151.019, 18278.250
152.403, 16649.283
153.788, 13903.627
155.171, 11363.273
156.555, 9390.245
157.939, 7901.549
159.322, 6969.242
160.705, 6329.474
162.088, 6011.159
163.470, 5787.225
164.853, 5655.633
166.235, 5392.389
167.617, 5303.495
168.998, 5163.953
170.380, 5078.765
171.761, 5000.932
173.142, 4954.643
174.523, 5019.951
175.904, 4947.549
177.284, 4932.775
178.664, 4994.257
180.044, 4820.215
181.424, 4769.976
182.803, 4661.832
184.183, 4562.078
185.562, 4668.701
186.940, 4722.691
188.319, 4557.036
189.698, 4667.738
191.076, 4408.801
192.454, 4507.217
193.831, 4536.990
195.209, 4462.121
196.586, 4691.608
197.963, 4529.451
199.340, 4828.650
200.717, 4953.206
202.093, 5007.121
203.470, 5058.395
204.846, 5361.031
206.221, 5501.027
207.597, 5553.544
208.972, 5985.127
210.347, 5610.225
211.722, 5817.480
213.097, 5790.525
214.472, 5595.729
215.846, 5792.295
217.220, 5468.227
218.594, 5513.523
219.967, 5163.180
221.341, 4768.379
222.714, 4573.971
224.087, 4219.656
225.460, 3940.285
226.832, 3742.800
228.204, 3543.006
229.577, 3458.180
230.948, 3352.461
232.320, 3269.744
233.692, 3134.985
235.063, 3047.390
236.434, 2893.078
237.805, 2826.891
239.175, 2708.193
240.545, 2545.846
241.916, 2630.072
243.286, 2334.289
244.655, 2237.451
246.025, 2204.134
247.394, 1977.073
248.763, 1999.414
250.132, 1900.144
251.501, 1845.259
252.869, 1777.877
254.237, 1636.604
255.605, 1646.817
256.973, 1458.384
258.340, 1478.297
259.708, 1446.896
261.075, 1311.988
262.442, 1159.969
263.808, 1209.449
265.175, 1049.131
266.541, 992.817
267.907, 1048.505
269.273, 902.979
270.639, 873.751
272.004, 623.818
273.369, 672.180
274.734, 523.829
276.099, 472.766
277.463, 316.985
278.828, 469.484
280.192, 440.261
281.556, 234.311
282.919, 252.630
284.283, 146.217
285.646, 205.066
287.009, 72.178
288.372, 64.550
289.734, 219.177
291.097, 108.941
292.459, 25.186
293.821, 63.562
295.183, 142.815
296.544, 22.045
297.905, 156.854
299.266, 115.522
300.627, 67.959
301.988, 101.165
303.348, 28.143
304.709, 115.890
306.069, 152.411
307.428, 41.291
308.788, 21.224
310.147, 74.043
311.507, 163.225
312.865, 222.855
314.224, 192.141
315.583, 188.254
316.941, 512.603
318.299, 402.208
319.657, 626.063
321.015, 705.194
322.372, 742.568
323.729, 1024.188
325.086, 1170.059
326.443, 1419.150
327.800, 1514.468
329.156, 1986.026
330.512, 2148.820
331.868, 2381.834
333.224, 2829.084
334.579, 3484.573
335.935, 3765.298
337.290, 4770.274
338.645, 5319.486
339.999, 6216.954
341.354, 7060.672
342.708, 8366.674
344.062, 9652.947
345.416, 11024.471
346.769, 12302.294
348.123, 13785.407
349.476, 14660.806
350.829, 15800.512
352.182, 16320.529
353.534, 16618.850
354.887, 16369.469
356.239, 15592.386
357.591, 14417.590
358.942, 13102.079
360.294, 11524.840
361.645, 10048.868
362.996, 8637.146
364.347, 7511.691
365.698, 6276.496
367.048, 5492.553
368.398, 4742.881
369.748, 4228.436
371.098, 3775.199
372.448, 3386.189
373.797, 3258.387
375.146, 3061.807
376.495, 3099.421
377.844, 3327.230
379.192, 3116.225
380.540, 3586.422
381.889, 3398.803
383.236, 3526.367
384.584, 3774.154
385.932, 3612.167
387.279, 3485.392
388.626, 3173.831
389.973, 2951.154
391.319, 2520.361
392.666, 2340.459
394.012, 1887.763
395.358, 1509.282
396.704, 1386.029
398.049, 1084.994
399.394, 1181.181
400.740, 915.574
402.084, 1012.172
403.429, 1198.975
404.774, 1626.992
406.118, 1469.286
407.462, 1530.851
408.806, 1557.645
410.150, 1664.631
411.493, 1567.806
412.836, 1409.169
414.179, 1125.717
415.522, 795.446
416.865, 707.358
418.207, 384.448
419.549, 208.716
420.891, 26.843
422.233, 101.231
423.575, 217.466
424.916, 440.566
426.257, 177.589
427.598, 205.477
428.939, 272.233
430.279, 84.122
431.619, 467.640
432.959, 984.318
434.299, 503.155
435.639, 985.149
436.978, 1257.301
438.318, 1838.604
439.657, 2384.062
440.996, 3371.672
442.334, 4187.430
443.673, 5013.336
445.011, 5740.389
446.349, 6896.587
447.687, 7329.930
449.024, 7632.417
450.361, 7547.043
451.699, 6673.811
453.036, 5979.542
454.372, 4903.584
455.709, 4083.762
457.045, 2975.330
458.381, 2418.774
459.717, 1582.367
461.053, 1174.780
462.388, 707.958
463.724, 684.846
465.059, 492.682
466.394, 179.589
467.728, 116.005
469.063, 66.465
470.397, 96.953
471.731, 102.474
473.065, 48.331
474.398, 84.139
475.732, 149.527
477.065, 37.156
478.398, 195.641
479.731, 402.919
481.063, 566.484
482.396, 826.584
483.728, 1083.465
485.060, 1376.574
486.391, 1684.439
487.723, 1992.826
489.054, 2405.216
490.385, 2971.185
491.716, 3604.882
493.047, 4374.600
494.377, 5249.881
495.708, 6263.853
497.038, 7391.351
498.368, 8470.827
499.697, 9663.771
501.027, 11405.100
502.356, 13164.980
503.685, 14648.427
505.014, 16651.828
506.342, 18351.553
507.671, 20774.676
508.999, 22252.295
510.327, 24235.732
511.655, 25153.865
512.982, 25858.945
514.310, 26033.352
515.637, 24731.402
516.964, 23557.998
518.291, 21320.875
519.617, 19927.355
520.944, 17425.453
522.270, 14762.917
523.596, 13297.905
524.921, 11293.469
526.247, 9918.862
527.572, 8438.370
528.897, 7428.061
530.222, 6645.309
531.547, 5799.912
532.871, 5274.650
534.196, 4527.309
535.520, 3928.050
536.844, 3673.509
538.167, 3304.052
539.491, 2936.628
540.814, 2679.396
542.137, 2498.148
543.460, 2210.584
544.783, 2171.080
546.105, 1999.628
547.427, 1969.732
548.749, 1771.165
550.071, 1805.855
551.393, 1841.234
552.714, 1698.505
554.035, 1671.880
555.356, 1796.889
556.677, 1648.270
557.998, 1692.779
559.318, 1801.535
560.638, 1785.107
561.958, 1896.031
563.278, 1857.928
564.597, 2066.674
565.917, 2035.008
567.236, 2174.485
568.555, 2480.154
569.874, 2402.444
571.192, 2574.312
572.511, 2963.568
573.829, 3129.805
575.147, 3206.236
576.464, 3559.430
577.782, 3796.600
579.099, 4120.744
580.416, 4365.517
581.733, 4663.103
583.050, 5027.099
584.366, 5156.889
585.683, 5515.766
586.999, 5217.918
588.315, 5071.347
589.630, 5180.260
590.946, 4803.139
592.261, 4599.986
593.576, 4160.797
594.891, 3778.570
596.206, 3653.307
597.520, 3284.006
598.834, 3036.665
600.148, 2778.282
601.462, 2374.859
602.776, 2099.392
604.089, 1791.882
605.402, 1448.326
606.715, 1225.976
608.028, 997.617
609.341, 823.381
610.653, 654.637
611.965, 532.328
613.277, 423.664
614.589, 371.116
615.901, 300.181
617.212, 286.191
618.523, 317.158
619.834, 324.075
621.145, 253.939
622.456, 284.753
623.766, 222.509
625.076, 214.212
626.386, 185.865
627.696, 186.458
629.006, 83.332
630.315, 123.008
631.624, 93.713
632.933, 38.295
634.242, 103.518
635.551, 6.336
636.859, 19.692
638.167, 83.389
639.475, 51.368
640.783, 28.026
642.090, 6.573
643.398, 169.997
644.705, 137.348
646.012, 34.618
647.318, 58.771
648.625, 191.817
649.931, 45.789
651.237, 36.642
652.543, 48.371
653.849, 30.019
655.155, 8.432
656.460, 78.262
657.765, 80.144
659.070, 212.217
660.375, 137.556
661.679, 101.120
662.984, 229.894
664.288, 168.947
665.592, 189.249
666.895, 246.812
668.199, 270.668
669.502, 250.831
670.805, 237.292
672.108, 228.925
673.411, 203.237
674.713, 189.408
676.016, 148.998
677.318, 124.839
678.620, 80.919
679.921, 135.216
681.223, 126.759
682.524, 90.544
683.825, 170.554
685.126, 12.831
686.427, 70.708
687.727, 24.899
689.028, 63.301
690.328, 23.646
691.628, 116.212
692.927, 98.939
694.227, 155.529
695.526, 30.997
696.825, 152.300
698.124, 124.481
699.423, 167.529
700.721, 106.459
702.020, 252.251
703.318, 183.940
704.616, 212.515
705.913, 133.979
707.211, 178.312
708.508, 280.529
709.805, 273.646
711.102, 159.664
712.399, 275.558
713.695, 178.351
714.992, 334.025
716.288, 356.606
717.584, 315.097
718.879, 318.491
720.175, 258.791
721.470, 410.988
722.765, 368.096
724.060, 344.113
725.355, 417.036
726.649, 317.872
727.944, 451.613
729.238, 497.267
730.532, 364.831
731.825, 525.308
733.119, 545.695
734.412, 523.996
735.705, 498.209
736.998, 431.338
738.291, 490.389
739.584, 504.371
740.876, 567.313
742.168, 620.186
743.460, 546.988
744.752, 603.730
746.043, 531.390
747.334, 737.963
748.626, 586.451
749.916, 638.857
751.207, 698.179
752.498, 632.418
753.788, 626.573
755.078, 702.645
756.368, 727.636
757.658, 702.543
758.947, 657.370
760.237, 826.116
761.526, 764.781
762.815, 853.366
764.104, 909.870
765.392, 936.295
766.680, 950.644
767.969, 998.098
769.257, 1072.115
770.544, 1067.239
771.832, 1125.296
773.119, 1157.275
774.406, 1156.181
775.693, 1280.007
776.980, 1210.765
778.267, 1396.447
779.553, 1372.059
780.839, 1400.601
782.125, 1432.068
783.411, 1498.471
784.697, 1491.012
785.982, 1664.267
787.267, 1649.839
788.552, 1809.312
789.837, 1811.867
791.122, 2106.608
792.406, 2113.595
793.690, 2246.337
794.974, 2394.373
796.258, 2523.090
797.542, 2839.405
798.825, 2913.004
800.108, 3282.115
801.391, 3386.259
802.674, 3804.307
803.957, 4163.655
805.239, 4578.686
806.522, 5187.075
807.804, 5467.809
809.085, 6372.043
810.367, 7087.330
811.649, 7654.184
812.930, 8592.677
814.211, 9420.649
815.492, 10331.084
816.772, 10923.582
818.053, 11340.789
819.333, 11500.615
820.613, 11381.984
821.893, 11102.550
823.173, 10477.446
824.452, 9960.417
825.732, 9504.081
827.011, 8971.122
828.290, 8574.634
829.568, 8411.897
830.847, 8196.576
832.125, 8574.670
833.403, 8885.409
834.681, 9330.652
835.959, 10156.343
837.236, 11052.218
838.514, 12300.992
839.791, 13700.593
841.068, 15143.655
842.345, 16016.377
843.621, 17161.980
844.898, 16669.672
846.174, 15846.292
847.450, 14804.198
848.726, 12761.048
850.001, 10997.867
851.277, 9680.513
852.552, 8421.185
853.827, 7360.180
855.102, 6428.123
856.376, 5845.018
857.651, 5593.358
858.925, 5261.388
860.199, 4970.160
861.473, 4754.250
862.746, 4615.446
864.020, 4574.538
865.293, 4198.996
866.566, 4173.078
867.839, 4054.026
869.112, 3900.726
870.384, 3737.604
871.656, 3613.126
872.928, 3583.387
874.200, 3459.353
875.472, 3582.441
876.744, 3638.377
878.015, 3649.113
879.286, 3596.216
880.557, 3894.728
881.828, 3847.844
883.098, 4054.963
884.369, 4345.883
885.639, 4628.026
886.909, 5033.186
888.178, 5263.360
889.448, 5731.553
890.717, 6470.754
891.987, 6985.983
893.256, 7760.223
894.524, 8927.474
895.793, 10241.748
897.061, 11944.047
898.330, 13744.378
899.598, 16023.762
900.865, 19364.189
902.133, 22971.635
903.401, 27195.104
904.668, 31437.627
905.935, 35642.172
907.202, 37804.766
908.468, 37972.379
909.735, 36242.047
911.001, 32600.742
912.267, 27934.475
913.533, 23824.234
914.799, 20155.025
916.064, 16875.398
917.330, 14138.728
918.595, 11754.960
919.860, 10126.565
921.124, 8805.431
922.389, 7861.939
923.653, 7001.072
924.918, 6390.338
926.182, 5756.485
927.445, 5340.672
928.709, 4956.225
929.972, 4596.701
931.236, 4259.504
932.499, 4020.134
933.761, 3899.125
935.024, 3678.224
936.286, 3512.723
937.549, 3501.223
938.811, 3224.714
940.073, 3291.258
941.334, 3174.934
942.596, 2985.540
943.857, 3069.203
945.118, 2901.913
946.379, 2816.704
947.640, 2985.245
948.900, 3036.407
950.161, 3027.366
951.421, 3085.363
952.681, 3061.396
953.940, 3197.482
955.200, 3201.889
956.459, 3105.059
957.719, 3327.281
958.978, 3325.233
960.236, 3518.574
961.495, 3618.235
962.753, 3849.347
964.012, 4164.947
965.270, 4633.926
966.527, 5489.713
967.785, 6298.609
969.043, 7575.602
970.300, 8852.731
971.557, 10241.904
972.814, 11385.271
974.071, 11778.031
975.327, 11476.678
976.583, 10351.474
977.840, 8952.498
979.095, 7306.566
980.351, 5858.217
981.607, 4951.172
982.862, 4123.087
984.117, 3556.641
985.372, 3143.979
986.627, 2609.717
987.882, 2562.596
989.136, 2222.578
990.390, 1917.686
991.644, 1823.137
992.898, 1558.916
994.152, 1577.971
995.405, 1425.375
996.659, 1370.865
997.912, 1408.438
999.165, 1381.224
1000.417, 1449.878
1001.670, 1267.346
1002.922, 1492.709
1004.174, 1272.529
1005.426, 1202.408
1006.678, 977.415
1007.930, 953.391
1009.181, 994.194
1010.432, 1033.260
1011.683, 972.073
1012.934, 929.263
1014.185, 874.537
1015.435, 815.777
1016.685, 845.066
1017.935, 736.393
1019.185, 725.766
1020.435, 787.172
1021.684, 674.611
1022.934, 661.100
1024.183, 768.607
1025.432, 610.154
1026.680, 668.744
1027.929, 509.526
1029.177, 524.394
1030.425, 410.066
1031.673, 460.894
1032.921, 476.738
1034.169, 352.918
1035.416, 354.082
1036.663, 355.209
1037.911, 341.544
1039.157, 265.914
1040.404, 301.014
1041.650, 284.555
1042.897, 299.762
1044.143, 153.964
1045.389, 297.172
1046.634, 250.351
1047.880, 162.015
1049.125, 249.114
1050.371, 160.313
1051.615, 181.469
1052.860, 148.432
1054.105, 108.632
1055.349, 154.633
1056.593, 65.292
1057.837, 113.958
1059.081, 162.051
1060.325, 120.942
1061.568, 109.341
1062.812, 130.839
1064.055, 67.736
1065.298, 40.795
1066.540, 18.055
1067.783, 32.294
1069.025, 52.929
1070.267, 64.022
1071.509, 42.294
1072.751, 109.629
1073.993, 18.281
1075.234, 36.143
1076.475, 52.437
1077.716, 80.109
1078.957, 22.499
1080.198, 42.127
1081.438, 63.675
1082.679, 19.998
1083.919, 90.717
1085.159, 9.399
1086.398, 5.553
1087.638, 39.476
1088.877, 3.020
1090.116, 9.694
1091.355, 52.602
1092.594, 73.121
1093.833, 26.930
1095.071, 68.736
1096.309, 45.028
1097.547, 21.763
1098.785, 60.799
1100.023, 20.288
1101.260, 63.178
1102.498, 73.792
1103.735, 63.146
1104.972, 56.622
1106.208, 64.887
1107.445, 38.836
1108.681, 71.708
1109.918, 17.339
1111.154, 35.598
1112.389, 0.143
1113.625, 20.457
1114.860, 47.607
1116.096, 30.143
1117.331, 5.194
1118.566, 13.891
1119.800, 71.993
1121.035, 16.284
1122.269, 14.434
1123.503, 14.097
1124.737, 56.452
1125.971, 4.137
1127.205, 43.911
1128.438, 76.794
1129.671, 56.308
1130.904, 51.228
1132.137, 43.968
1133.370, 76.004
1134.602, 59.672
1135.834, 14.608
1137.066, 7.682
1138.298, 34.689
1139.530, 38.687
1140.762, 17.502
1141.993, 22.591
1143.224, 62.155
1144.455, 75.892
1145.686, 3.995
1146.917, 67.559
1148.147, 23.648
1149.377, 39.472
1150.607, 11.830
1151.837, 20.650
1153.067, 56.500
1154.296, 6.651
1155.526, 66.761
1156.755, 48.149
1157.984, 112.894
1159.213, 7.084
1160.441, 28.908
1161.670, 20.879
1162.898, 120.826
1164.126, 77.751
1165.354, 83.654
1166.581, 184.533
1167.809, 155.389
1169.036, 169.801
1170.263, 61.029
1171.490, 141.812
1172.717, 93.571
1173.943, 72.304
1175.170, 38.012
1176.396, 28.693
1177.622, 114.345
1178.848, 60.971
1180.073, 67.367
1181.299, 4.140
1182.524, 28.668
1183.749, 9.165
1184.974, 7.620
1186.199, 9.033
1187.423, 69.402
1188.648, 22.258
1189.872, 64.020
1191.096, 75.276
1192.320, 4.491
1193.543, 9.344
1194.767, 31.238
1195.990, 100.202
1197.213, 68.275
1198.436, 35.561
1199.659, 20.354
1200.881, 108.899
1202.104, 42.731
1203.326, 83.679
1204.548, 77.806
1205.770, 71.744
1206.991, 3.394
1208.213, 10.107
1209.434, 24.110
1210.655, 17.981
1211.876, 16.616
1213.096, 18.581
1214.317, 7.621
1215.537, 34.055
1216.757, 16.100
1217.977, 0.461
1219.197, 9.288
1220.417, 9.702
1221.636, 19.919
1222.855, 3.546
1224.074, 47.945
1225.293, 31.440
1226.512, 69.027
1227.731, 35.756
1228.949, 47.992
1230.167, 39.150
1231.385, 71.534
1232.603, 102.504
1233.820, 37.533
1235.038, 60.406
1236.255, 57.284
1237.472, 213.028
1238.689, 105.840
1239.906, 134.611
1241.122, 83.337
1242.338, 60.011
1243.555, 62.085
1244.771, 58.443
1245.986, 44.771
1247.202, 117.244
1248.417, 107.674
1249.633, 183.062
1250.848, 82.139
1252.063, 184.441
1253.277, 57.706
1254.492, 117.256
1255.706, 98.432
1256.920, 166.319
1258.134, 157.783
1259.348, 130.806
1260.562, 113.501
1261.775, 206.474
1262.988, 182.405
1264.201, 110.294
1265.414, 226.144
1266.627, 248.021
1267.839, 240.790
1269.052, 206.266
1270.264, 129.955
1271.476, 174.051
1272.688, 184.120
1273.899, 253.686
1275.111, 185.759
1276.322, 260.617
1277.533, 318.590
1278.744, 267.992
1279.955, 218.669
1281.165, 296.021
1282.376, 279.299
1283.586, 288.536
1284.796, 199.731
1286.006, 157.621
1287.215, 213.205
1288.425, 242.559
1289.634, 271.585
1290.843, 238.571
1292.052, 240.490
1293.261, 209.211
1294.469, 328.076
1295.678, 303.160
1296.886, 304.359
1298.094, 267.118
1299.302, 222.228
1300.509, 304.714
1301.717, 356.294
1302.924, 375.760
1304.131, 280.980
1305.338, 336.542
1306.545, 332.196
1307.752, 325.283
1308.958, 402.688
1310.164, 380.928
1311.370, 369.278
1312.576, 360.594
1313.782, 405.876
1314.987, 357.125
1316.193, 327.325
1317.398, 418.507
1318.603, 363.655
1319.807, 335.757
1321.012, 347.667
1322.216, 368.491
1323.421, 336.507
1324.625, 292.371
1325.829, 360.214
1327.032, 271.720
1328.236, 341.242
1329.439, 254.799
1330.642, 278.146
1331.845, 224.456
1333.048, 229.033
1334.251, 236.062
1335.453, 210.637
1336.656, 272.109
1337.858, 261.577
1339.060, 293.071
1340.261, 219.081
1341.463, 276.656
1342.664, 212.056
1343.866, 274.212
1345.067, 306.263
1346.267, 302.500
1347.468, 196.862
1348.669, 226.759
1349.869, 220.548
1351.069, 230.138
1352.269, 177.931
1353.469, 154.218
1354.668, 156.409
1355.868, 218.205
1357.067, 251.844
1358.266, 157.285
1359.465, 193.341
1360.664, 130.687
1361.862, 139.073
1363.061, 154.484
1364.259, 220.307
1365.457, 233.344
1366.655, 131.506
1367.852, 107.083
1369.050, 167.782
1370.247, 140.807
1371.444, 131.152
1372.641, 163.272
1373.838, 141.953
1375.035, 246.254
1376.231, 206.667
1377.427, 218.500
1378.623, 223.327
1379.819, 194.235
1381.015, 122.032
1382.211, 170.110
1383.406, 131.753
1384.601, 209.777
1385.796, 247.021
1386.991, 218.566
1388.185, 155.951
1389.380, 146.829
1390.574, 217.401
1391.768, 157.263
1392.962, 167.348
1394.156, 101.395
1395.350, 110.318
1396.543, 221.834
1397.736, 139.355
1398.929, 163.054
1400.122, 220.319
1401.315, 162.561
1402.507, 236.991
1403.700, 199.339
1404.892, 122.693
1406.084, 169.471
1407.276, 124.633
1408.467, 171.822
1409.659, 220.867
1410.850, 168.977
1412.041, 166.052
1413.232, 191.045
1414.423, 127.020
1415.614, 138.954
1416.804, 220.833
1417.994, 142.649
1419.184, 170.402
1420.374, 190.091
1421.564, 262.717
1422.753, 196.279
1423.943, 181.780
1425.132, 119.218
1426.321, 184.603
1427.510, 173.946
1428.698, 128.268
1429.887, 191.561
1431.075, 277.800
1432.263, 140.045
1433.451, 202.370
1434.639, 341.798
1435.827, 235.270
1437.014, 278.826
1438.201, 303.448
1439.388, 299.375
1440.575, 365.898
1441.762, 349.717
1442.949, 427.636
1444.135, 423.633
1445.321, 405.713
1446.507, 454.890
1447.693, 494.104
1448.879, 465.323
1450.064, 519.559
1451.250, 593.792
1452.435, 489.110
1453.620, 423.430
1454.805, 472.746
1455.989, 438.520
1457.174, 601.527
1458.358, 503.969
1459.542, 506.424
1460.726, 568.891
1461.910, 425.359
1463.093, 498.839
1464.277, 462.319
1465.460, 426.808
1466.643, 357.310
1467.826, 324.827
1469.009, 402.360
1470.191, 336.915
