##NAMES=Atacamite
##RRUFFID=R050098
##IDEAL CHEMISTRY=Cu^2+^_2_Cl(OH)_3_
##LOCALITY=La Farola mine, Tierra Amarilla, Atacama, Chile
##OWNER=RRUFF
##SOURCE=Rock Currier
##DESCRIPTION=Green prismatic single crystals
##STATUS=The identification of this mineral has been confirmed by X-ray diffraction and chemical analysis
##URL=rruff.info/R050098
##MEASURED CHEMISTRY=Cu_2.00_Cl_1.00_(OH)_3_
##PIN_ID=M00220
##ORIENTATION=Laser parallel to -b* (0 -1 0). Fiducial mark perpendicular to laser is parallel to c [0 0 1]
54.966, 0.000
56.365, 41.861
57.765, 202.334
59.164, 169.394
60.563, 494.088
61.962, 549.158
63.360, 385.000
64.758, 48.594
66.157, 184.824
67.554, 23.252
68.952, 10.553
70.349, 211.017
71.747, 305.764
73.144, 346.053
74.540, 340.256
75.937, 286.833
77.333, 205.309
78.729, 167.242
80.125, 596.238
81.521, 993.954
82.916, 1690.113
84.311, 2194.481
85.706, 2971.847
87.101, 4013.018
88.496, 4906.818
89.890, 6085.092
91.284, 7057.693
92.678, 8237.493
94.071, 9249.371
95.465, 10483.222
96.858, 12331.934
98.251, 15263.373
99.644, 17969.381
101.036, 19481.824
102.428, 20865.600
103.820, 22165.637
105.212, 24102.881
106.604, 27714.305
107.995, 29689.920
109.387, 26923.723
110.777, 24645.709
112.168, 26212.828
113.559, 29229.027
114.949, 32458.273
116.339, 35614.500
117.729, 38451.676
119.119, 41318.781
120.508, 42707.758
121.897, 40904.598
123.286, 37685.266
124.675, 32320.723
126.063, 28293.949
127.452, 25847.920
128.840, 24662.623
130.228, 25096.023
131.615, 25535.107
133.003, 27210.859
134.390, 27426.264
135.777, 28321.293
137.164, 28660.947
138.550, 31578.055
139.937, 33003.156
141.323, 34386.293
142.709, 34000.457
144.094, 34106.633
145.480, 34463.867
146.865, 35311.305
148.250, 35988.957
149.635, 36284.863
151.019, 34683.047
152.403, 29976.572
153.788, 24124.492
155.171, 19068.963
156.555, 15390.098
157.939, 12597.079
159.322, 10738.920
160.705, 9788.696
162.088, 8991.298
163.470, 8588.675
164.853, 8234.715
166.235, 8230.167
167.617, 7891.863
168.998, 7592.814
170.380, 7508.018
171.761, 7258.479
173.142, 7023.193
174.523, 7201.163
175.904, 6950.393
177.284, 6795.873
178.664, 6773.608
180.044, 6524.598
181.424, 6613.840
182.803, 6542.332
184.183, 6300.074
185.562, 6275.063
186.940, 6304.372
188.319, 6210.857
189.698, 6182.586
191.076, 6089.558
192.454, 5985.770
193.831, 6160.221
195.209, 6065.909
196.586, 6179.830
197.963, 5922.983
199.340, 5966.364
200.717, 6097.975
202.093, 6135.809
203.470, 6217.869
204.846, 6140.155
206.221, 6256.664
207.597, 6405.398
208.972, 6467.354
210.347, 5907.533
211.722, 5817.936
213.097, 5979.561
214.472, 5853.401
215.846, 5976.467
217.220, 6046.746
218.594, 6176.243
219.967, 6309.954
221.341, 6308.984
222.714, 6411.829
224.087, 6405.574
225.460, 6662.749
226.832, 6889.248
228.204, 7024.699
229.577, 7070.027
230.948, 7211.701
232.320, 7300.936
233.692, 7503.549
235.063, 7600.826
236.434, 7497.729
237.805, 7480.225
239.175, 7270.279
240.545, 6973.867
241.916, 6884.960
243.286, 6390.571
244.655, 5962.609
246.025, 5597.090
247.394, 5111.053
248.763, 4645.104
250.132, 4252.977
251.501, 3875.053
252.869, 3581.449
254.237, 3287.614
255.605, 3051.279
256.973, 2894.949
258.340, 2750.730
259.708, 2593.130
261.075, 2591.964
262.442, 2387.568
263.808, 2370.150
265.175, 2174.604
266.541, 2071.734
267.907, 2102.648
269.273, 1789.159
270.639, 1812.148
272.004, 1436.412
273.369, 1576.099
274.734, 1370.209
276.099, 1184.364
277.463, 1035.731
278.828, 889.508
280.192, 816.279
281.556, 678.068
282.919, 737.244
284.283, 703.608
285.646, 712.159
287.009, 653.064
288.372, 414.808
289.734, 529.895
291.097, 360.154
292.459, 359.582
293.821, 426.174
295.183, 291.928
296.544, 313.839
297.905, 186.905
299.266, 151.125
300.627, 151.492
301.988, 206.007
303.348, 248.666
304.709, 131.469
306.069, 89.417
307.428, 125.508
308.788, 181.745
310.147, 94.125
311.507, 154.648
312.865, 72.315
314.224, 85.123
315.583, 7.072
316.941, 37.158
318.299, 65.381
319.657, 44.737
321.015, 79.665
322.372, 101.840
323.729, 124.578
325.086, 182.435
326.443, 231.405
327.800, 132.488
329.156, 195.679
330.512, 208.975
331.868, 273.376
333.224, 376.881
334.579, 460.138
335.935, 577.050
337.290, 703.012
338.645, 822.924
339.999, 962.939
341.354, 1082.052
342.708, 1288.339
344.062, 1566.627
345.416, 1738.084
346.769, 2019.677
348.123, 2298.427
349.476, 2369.320
350.829, 2604.343
352.182, 2923.511
353.534, 2898.804
354.887, 2953.272
356.239, 2751.861
357.591, 2745.607
358.942, 2396.497
360.294, 2354.521
361.645, 2114.676
362.996, 1802.976
364.347, 1751.408
365.698, 1395.975
367.048, 1201.678
368.398, 994.516
369.748, 833.484
371.098, 802.581
372.448, 639.797
373.797, 783.123
375.146, 625.558
376.495, 737.086
377.844, 826.697
379.192, 748.407
380.540, 996.198
381.889, 1033.075
383.236, 1147.029
384.584, 1268.126
385.932, 1201.370
387.279, 1142.760
388.626, 1246.290
389.973, 1180.963
391.319, 977.789
392.666, 1003.771
394.012, 809.879
395.358, 785.161
396.704, 667.564
398.049, 471.081
399.394, 429.727
400.740, 199.475
402.084, 293.329
403.429, 55.282
404.774, 29.344
406.118, 164.511
407.462, 143.761
408.806, 23.905
410.150, 13.513
411.493, 45.063
412.836, 3.431
414.179, 139.018
415.522, 291.467
416.865, 129.981
418.207, 301.501
419.549, 371.101
420.891, 354.812
422.233, 390.634
423.575, 303.585
424.916, 497.631
426.257, 376.862
427.598, 326.228
428.939, 369.706
430.279, 281.321
431.619, 338.035
432.959, 242.877
434.299, 164.804
435.639, 45.786
436.978, 119.224
438.318, 296.277
439.657, 524.373
440.996, 912.511
442.334, 1211.688
443.673, 1522.904
445.011, 1862.158
446.349, 2357.449
447.687, 2455.773
449.024, 2724.135
450.361, 2751.527
451.699, 2444.952
453.036, 2269.408
454.372, 2004.894
455.709, 1917.407
457.045, 1432.949
458.381, 1330.517
459.717, 1135.110
461.053, 1157.729
462.388, 954.371
463.724, 1033.035
465.059, 1005.721
466.394, 826.428
467.728, 880.153
469.063, 1094.898
470.397, 1052.659
471.731, 1426.438
473.065, 1717.232
474.398, 1657.285
475.732, 1595.108
477.065, 1615.887
478.398, 1891.775
479.731, 2283.633
481.063, 2337.588
482.396, 2720.464
483.728, 3074.349
485.060, 3688.240
486.391, 4100.137
487.723, 4799.041
489.054, 5434.947
490.385, 6504.858
491.716, 7490.773
493.047, 8479.688
494.377, 10045.606
495.708, 11648.416
497.038, 13256.332
498.368, 14895.287
499.697, 16652.400
501.027, 18582.426
502.356, 20459.584
503.685, 21900.230
505.014, 23641.426
506.342, 24688.324
507.671, 26399.287
508.999, 27307.289
510.327, 28363.082
511.655, 28510.826
512.982, 28507.932
514.310, 28386.723
515.637, 26717.414
516.964, 25231.723
518.291, 22842.062
519.617, 20845.424
520.944, 18481.822
522.270, 15656.287
523.596, 14156.664
524.921, 12221.482
526.247, 10702.244
527.572, 9347.266
528.897, 8139.549
530.222, 7379.908
531.547, 6389.540
532.871, 5942.516
534.196, 5164.406
535.520, 4477.202
536.844, 4184.585
538.167, 3739.802
539.491, 3501.650
540.814, 3194.476
542.137, 2871.362
543.460, 2672.178
544.783, 2524.280
546.105, 2345.361
547.427, 2236.102
548.749, 2085.815
550.071, 1962.481
551.393, 1939.869
552.714, 1900.098
554.035, 1894.643
555.356, 1866.075
556.677, 1756.958
557.998, 1831.143
559.318, 1777.502
560.638, 1756.945
561.958, 1874.693
563.278, 1851.504
564.597, 1905.216
565.917, 1955.416
567.236, 1950.740
568.555, 2112.425
569.874, 2151.187
571.192, 2140.611
572.511, 2345.592
573.829, 2490.746
575.147, 2617.475
576.464, 2745.275
577.782, 2861.721
579.099, 2976.815
580.416, 3073.193
581.733, 3321.308
583.050, 3500.803
584.366, 3398.492
585.683, 3781.518
586.999, 3404.072
588.315, 3267.039
589.630, 3326.602
590.946, 3038.869
592.261, 2895.043
593.576, 2587.967
594.891, 2180.638
596.206, 2006.426
597.520, 1867.157
598.834, 1615.834
600.148, 1454.451
601.462, 1224.012
602.776, 1168.514
604.089, 947.959
605.402, 877.345
606.715, 705.672
608.028, 809.939
609.341, 552.147
610.653, 520.295
611.965, 473.383
613.277, 365.411
614.589, 304.377
615.901, 389.282
617.212, 338.127
618.523, 408.909
619.834, 504.631
621.145, 526.289
622.456, 513.886
623.766, 432.420
625.076, 630.891
626.386, 505.299
627.696, 494.644
629.006, 330.926
630.315, 416.144
631.624, 258.298
632.933, 362.384
634.242, 334.406
635.551, 281.366
636.859, 300.258
638.167, 276.794
639.475, 293.888
640.783, 290.544
642.090, 348.174
643.398, 395.739
644.705, 433.237
646.012, 441.338
647.318, 440.040
648.625, 434.343
649.931, 366.581
651.237, 359.753
652.543, 205.859
653.849, 352.890
655.155, 285.855
656.460, 184.752
657.765, 276.572
659.070, 72.323
660.375, 37.968
661.679, 96.492
662.984, 35.082
664.288, 116.813
665.592, 70.744
666.895, 36.849
668.199, 85.110
669.502, 28.553
670.805, 216.146
672.108, 8.987
673.411, 163.967
674.713, 118.166
676.016, 88.560
677.318, 75.132
678.620, 141.874
679.921, 94.820
681.223, 119.944
682.524, 121.259
683.825, 127.763
685.126, 118.460
686.427, 106.228
687.727, 97.281
689.028, 57.637
690.328, 59.021
691.628, 12.554
692.927, 25.790
694.227, 40.969
695.526, 9.699
696.825, 8.863
698.124, 21.021
699.423, 46.806
700.721, 32.504
702.020, 28.112
703.318, 33.629
704.616, 29.060
705.913, 28.597
707.211, 59.368
708.508, 72.731
709.805, 12.758
711.102, 17.698
712.399, 58.554
713.695, 41.662
714.992, 87.012
716.288, 21.619
717.584, 48.151
718.879, 18.387
720.175, 37.015
721.470, 175.261
722.765, 123.482
724.060, 70.647
725.355, 149.765
726.649, 32.841
727.944, 80.871
729.238, 205.854
730.532, 36.822
731.825, 95.801
733.119, 124.765
734.412, 45.751
735.705, 76.772
736.998, 87.830
738.291, 99.933
739.584, 175.065
740.876, 240.273
742.168, 247.528
743.460, 222.822
744.752, 256.476
746.043, 218.539
747.334, 264.958
748.626, 224.399
749.916, 217.850
751.207, 268.284
752.498, 269.676
753.788, 356.028
755.078, 363.339
756.368, 375.609
757.658, 394.840
758.947, 420.322
760.237, 451.187
761.526, 499.303
762.815, 540.382
764.104, 615.424
765.392, 634.430
766.680, 624.400
767.969, 630.336
769.257, 836.237
770.544, 787.105
771.832, 937.940
773.119, 833.743
774.406, 932.514
775.693, 1062.254
776.980, 1105.963
778.267, 1243.642
779.553, 1271.292
780.839, 1324.913
782.125, 1440.506
783.411, 1531.467
784.697, 1693.608
785.982, 1788.120
787.267, 1946.361
788.552, 2081.821
789.837, 2255.256
791.122, 2598.626
792.406, 2746.013
793.690, 3033.290
794.974, 3318.632
796.258, 3454.954
797.542, 4107.253
798.825, 4296.534
800.108, 5036.795
801.391, 5469.038
802.674, 6077.263
803.957, 7049.472
805.239, 7767.663
806.522, 9216.837
807.804, 10034.103
809.085, 11924.244
810.367, 13555.333
811.649, 15277.244
812.930, 17517.227
814.211, 19681.070
815.492, 21661.404
816.772, 23577.170
818.053, 24704.227
819.333, 24863.201
820.613, 23948.115
821.893, 22506.217
823.173, 20344.350
824.452, 17917.102
825.732, 15942.151
827.011, 13482.277
828.290, 11754.764
829.568, 10150.213
830.847, 8787.620
832.125, 7786.646
833.403, 7079.231
834.681, 6352.560
835.959, 6053.426
837.236, 5728.340
838.514, 5728.969
839.791, 5691.317
841.068, 5842.570
842.345, 5756.530
843.621, 6003.127
844.898, 5655.793
846.174, 5290.541
847.450, 4953.691
848.726, 4218.990
850.001, 3960.646
851.277, 3555.309
852.552, 3160.887
853.827, 2939.516
855.102, 3507.837
856.376, 3710.160
857.651, 3702.803
858.925, 4238.449
860.199, 4424.117
861.473, 3552.043
862.746, 3162.104
864.020, 3205.822
865.293, 2930.848
866.566, 2832.965
867.839, 2553.973
869.112, 2273.782
870.384, 2046.479
871.656, 1870.848
872.928, 1666.716
874.200, 1571.441
875.472, 1391.277
876.744, 1391.964
878.015, 1377.207
879.286, 1380.119
880.557, 1457.013
881.828, 1412.669
883.098, 1488.748
884.369, 1493.057
885.639, 1622.085
886.909, 1736.302
888.178, 1918.055
889.448, 1963.206
890.717, 2235.467
891.987, 2413.866
893.256, 2716.357
894.524, 3247.893
895.793, 3618.487
897.061, 4305.131
898.330, 4952.827
899.598, 5882.576
900.865, 7302.377
902.133, 8797.234
903.401, 10569.141
904.668, 12641.096
905.935, 14321.110
907.202, 15657.185
908.468, 16451.314
909.735, 16388.512
911.001, 15573.760
912.267, 14016.080
913.533, 12291.441
914.799, 10540.882
916.064, 8844.402
917.330, 7489.995
918.595, 6242.072
919.860, 4972.352
921.124, 4394.133
922.389, 3618.968
923.653, 3242.909
924.918, 2808.895
926.182, 2571.941
927.445, 2339.041
928.709, 2234.209
929.972, 2058.453
931.236, 1941.751
932.499, 1822.127
933.761, 1735.569
935.024, 1648.072
936.286, 1686.631
937.549, 1662.236
938.811, 1510.891
940.073, 1692.607
941.334, 1622.374
942.596, 1480.187
943.857, 1599.060
945.118, 1650.986
946.379, 1726.011
947.640, 1779.170
948.900, 2005.266
950.161, 1960.568
951.421, 2166.764
952.681, 2400.522
953.940, 2480.816
955.200, 2690.871
956.459, 2884.269
957.719, 3294.709
958.978, 3685.205
960.236, 4026.053
961.495, 4653.653
962.753, 5447.305
964.012, 6201.430
965.270, 7343.346
966.527, 9107.006
967.785, 11123.201
969.043, 13994.254
970.300, 17131.373
971.557, 20564.566
972.814, 23924.869
974.071, 25716.256
975.327, 25535.754
976.583, 23001.350
977.840, 19701.082
979.095, 15773.899
980.351, 12542.759
981.607, 10202.820
982.862, 8285.093
984.117, 6912.359
985.372, 6173.743
986.627, 5319.234
987.882, 4913.055
989.136, 4501.770
990.390, 3981.595
991.644, 3908.730
992.898, 3673.828
994.152, 3470.322
995.405, 3374.178
996.659, 3333.601
997.912, 3435.905
999.165, 3442.258
1000.417, 3491.143
1001.670, 3458.048
1002.922, 3379.599
1004.174, 3222.516
1005.426, 3175.529
1006.678, 3014.033
1007.930, 2941.982
1009.181, 2847.991
1010.432, 2795.059
1011.683, 2674.199
1012.934, 2626.421
1014.185, 2542.694
1015.435, 2467.027
1016.685, 2368.283
1017.935, 2315.677
1019.185, 2225.240
1020.435, 2229.802
1021.684, 2070.417
1022.934, 2074.082
1024.183, 2019.809
1025.432, 1756.601
1026.680, 1797.436
1027.929, 1553.734
1029.177, 1572.146
1030.425, 1527.142
1031.673, 1428.243
1032.921, 1379.600
1034.169, 1303.840
1035.416, 1174.727
1036.663, 1238.846
1037.911, 1048.450
1039.157, 1046.408
1040.404, 936.427
1041.650, 836.610
1042.897, 932.104
1044.143, 780.398
1045.389, 732.242
1046.634, 750.159
1047.880, 641.723
1049.125, 574.870
1050.371, 504.044
1051.615, 559.182
1052.860, 469.793
1054.105, 504.055
1055.349, 419.473
1056.593, 339.668
1057.837, 358.150
1059.081, 319.808
1060.325, 282.854
1061.568, 233.344
1062.812, 204.479
1064.055, 186.409
1065.298, 143.706
1066.540, 162.827
1067.783, 89.496
1069.025, 64.530
1070.267, 157.324
1071.509, 37.632
1072.751, 0.631
1073.993, 145.548
1075.234, 17.480
1076.475, 82.770
1077.716, 28.286
1078.957, 103.576
1080.198, 118.846
1081.438, 153.865
1082.679, 55.520
1083.919, 150.405
1085.159, 94.761
1086.398, 146.333
1087.638, 298.179
1088.877, 162.735
1090.116, 237.579
1091.355, 21.017
1092.594, 22.903
1093.833, 37.853
1095.071, 2.039
1096.309, 13.663
1097.547, 37.882
1098.785, 18.147
1100.023, 28.508
1101.260, 42.847
1102.498, 81.638
1103.735, 52.838
1104.972, 3.933
1106.208, 26.753
1107.445, 15.503
1108.681, 27.654
1109.918, 8.344
1111.154, 6.085
1112.389, 33.715
1113.625, 15.648
1114.860, 90.888
1116.096, 24.995
1117.331, 7.508
1118.566, 4.085
1119.800, 96.422
1121.035, 75.704
1122.269, 174.299
1123.503, 250.914
1124.737, 213.709
1125.971, 91.221
1127.205, 73.761
1128.438, 49.731
1129.671, 4.143
1130.904, 8.699
1132.137, 99.747
1133.370, 19.240
1134.602, 8.792
1135.834, 55.737
1137.066, 5.716
1138.298, 7.161
1139.530, 12.783
1140.762, 2.979
1141.993, 19.564
1143.224, 30.138
1144.455, 73.590
1145.686, 67.240
1146.917, 36.920
1148.147, 75.623
1149.377, 13.360
1150.607, 31.886
1151.837, 16.116
1153.067, 7.668
1154.296, 23.471
1155.526, 94.705
1156.755, 37.862
1157.984, 83.003
1159.213, 12.127
1160.441, 100.233
1161.670, 50.321
1162.898, 133.390
1164.126, 23.562
1165.354, 32.458
1166.581, 23.458
1167.809, 60.436
1169.036, 61.138
1170.263, 67.330
1171.490, 34.243
1172.717, 27.578
1173.943, 39.002
1175.170, 1.153
1176.396, 1.338
1177.622, 14.446
1178.848, 13.205
1180.073, 46.064
1181.299, 14.611
1182.524, 112.742
1183.749, 18.189
1184.974, 12.316
1186.199, 42.209
1187.423, 8.203
1188.648, 88.420
1189.872, 4.868
1191.096, 11.114
1192.320, 43.677
1193.543, 10.538
1194.767, 18.450
1195.990, 9.421
1197.213, 23.447
1198.436, 20.536
1199.659, 6.313
1200.881, 2.032
1202.104, 34.145
1203.326, 12.475
1204.548, 14.869
1205.770, 63.327
1206.991, 13.122
1208.213, 56.482
1209.434, 80.823
1210.655, 85.907
1211.876, 84.745
1213.096, 58.692
1214.317, 15.266
1215.537, 5.835
1216.757, 48.006
1217.977, 28.730
1219.197, 59.588
1220.417, 49.037
1221.636, 4.448
1222.855, 37.866
1224.074, 17.772
1225.293, 44.492
1226.512, 44.692
1227.731, 53.178
1228.949, 1.849
1230.167, 16.801
1231.385, 50.687
1232.603, 134.517
1233.820, 108.309
1235.038, 32.060
1236.255, 105.752
1237.472, 190.402
1238.689, 49.015
1239.906, 75.568
1241.122, 26.055
1242.338, 99.446
1243.555, 94.711
1244.771, 127.051
1245.986, 174.212
1247.202, 181.282
1248.417, 222.145
1249.633, 217.316
1250.848, 162.733
1252.063, 159.812
1253.277, 100.852
1254.492, 162.844
1255.706, 146.495
1256.920, 185.401
1258.134, 198.266
1259.348, 184.210
1260.562, 237.296
1261.775, 166.206
1262.988, 121.612
1264.201, 126.187
1265.414, 289.741
1266.627, 137.302
1267.839, 235.817
1269.052, 233.289
1270.264, 191.718
1271.476, 287.101
1272.688, 255.442
1273.899, 303.738
1275.111, 330.076
1276.322, 284.281
1277.533, 283.336
1278.744, 266.453
1279.955, 252.524
1281.165, 277.865
1282.376, 291.311
1283.586, 314.243
1284.796, 349.129
1286.006, 335.771
1287.215, 315.509
1288.425, 263.907
1289.634, 244.990
1290.843, 295.551
1292.052, 305.262
1293.261, 366.948
1294.469, 282.141
1295.678, 368.336
1296.886, 378.765
1298.094, 334.149
1299.302, 356.303
1300.509, 354.984
1301.717, 351.239
1302.924, 334.452
1304.131, 325.624
1305.338, 373.754
1306.545, 318.843
1307.752, 335.893
1308.958, 422.904
1310.164, 482.009
1311.370, 383.941
1312.576, 513.833
1313.782, 448.687
1314.987, 502.503
1316.193, 373.280
1317.398, 448.018
1318.603, 403.718
1319.807, 457.380
1321.012, 424.582
1322.216, 510.680
1323.421, 431.196
1324.625, 405.618
1325.829, 423.788
1327.032, 360.079
1328.236, 369.730
1329.439, 328.153
1330.642, 286.095
1331.845, 332.687
1333.048, 330.224
1334.251, 368.599
1335.453, 335.666
1336.656, 281.936
1337.858, 321.659
1339.060, 271.312
1340.261, 300.321
1341.463, 297.750
1342.664, 401.157
1343.866, 332.604
1345.067, 277.580
1346.267, 390.910
1347.468, 361.088
1348.669, 284.492
1349.869, 379.613
1351.069, 318.563
1352.269, 319.638
1353.469, 330.222
1354.668, 325.740
1355.868, 269.777
1357.067, 326.771
1358.266, 204.286
1359.465, 276.261
1360.664, 197.875
1361.862, 280.739
1363.061, 269.095
1364.259, 230.369
1365.457, 201.873
1366.655, 219.633
1367.852, 218.046
1369.050, 208.246
1370.247, 195.686
1371.444, 188.160
1372.641, 193.800
1373.838, 208.028
1375.035, 200.921
1376.231, 259.363
1377.427, 236.612
1378.623, 253.615
1379.819, 280.951
1381.015, 277.066
1382.211, 283.159
1383.406, 286.668
1384.601, 260.230
1385.796, 238.868
1386.991, 283.771
1388.185, 304.140
1389.380, 199.292
1390.574, 278.054
1391.768, 283.519
1392.962, 230.346
1394.156, 264.238
1395.350, 223.896
1396.543, 216.962
1397.736, 232.002
1398.929, 221.480
1400.122, 225.277
1401.315, 289.037
1402.507, 229.728
1403.700, 310.244
1404.892, 225.789
1406.084, 197.267
1407.276, 244.671
1408.467, 277.774
1409.659, 228.072
1410.850, 211.330
1412.041, 286.530
1413.232, 173.656
1414.423, 228.716
1415.614, 216.699
1416.804, 213.607
1417.994, 131.436
1419.184, 141.201
1420.374, 156.886
1421.564, 225.492
1422.753, 193.020
1423.943, 219.469
1425.132, 192.851
1426.321, 176.177
1427.510, 266.496
1428.698, 283.816
1429.887, 178.117
1431.075, 238.444
1432.263, 247.748
1433.451, 235.062
1434.639, 321.386
1435.827, 326.725
1437.014, 374.077
1438.201, 303.468
1439.388, 356.929
1440.575, 365.438
1441.762, 416.069
1442.949, 445.212
1444.135, 424.667
1445.321, 497.589
1446.507, 532.653
1447.693, 532.776
1448.879, 518.023
1450.064, 518.404
1451.250, 544.859
1452.435, 475.302
1453.620, 547.750
1454.805, 613.192
1455.989, 464.726
1457.174, 569.251
1458.358, 588.760
1459.542, 577.271
1460.726, 600.773
1461.910, 523.296
1463.093, 548.816
1464.277, 383.322
1465.460, 453.822
1466.643, 405.318
1467.826, 281.822
1469.009, 358.333
1470.191, 299.856
1471.373, 305.399
