##NAMES=Atacamite
##RRUFFID=R050098
##IDEAL CHEMISTRY=Cu^2+^_2_Cl(OH)_3_
##LOCALITY=La Farola mine, Tierra Amarilla, Atacama, Chile
##OWNER=RRUFF
##SOURCE=Rock Currier
##DESCRIPTION=Green prismatic single crystals
##STATUS=The identification of this mineral has been confirmed by X-ray diffraction and chemical analysis
##URL=rruff.info/R050098
##MEASURED CHEMISTRY=Cu_2.00_Cl_1.00_(OH)_3_
##PIN_ID=M00116
##ORIENTATION=Laser parallel to -a* (-1 0 0). Fiducial mark perpendicular to laser is parallel to b [0 1 0]
75.937, 0.000
77.333, 77.691
78.729, 34.353
80.125, 45.799
81.521, 37.747
82.916, 201.753
84.311, 335.422
85.706, 777.069
87.101, 1336.084
88.496, 1927.486
89.890, 2444.424
91.284, 3162.895
92.678, 3727.578
94.071, 3980.619
95.465, 4595.447
96.858, 4925.721
98.251, 5206.279
99.644, 5592.105
101.036, 5668.336
102.428, 5816.255
103.820, 6256.248
105.212, 6893.798
106.604, 7348.576
107.995, 8516.331
109.387, 10388.760
110.777, 13483.461
112.168, 18446.053
113.559, 23831.217
114.949, 28689.656
116.339, 32815.121
117.729, 34915.379
119.119, 35935.160
120.508, 35983.191
121.897, 34723.273
123.286, 32897.328
124.675, 27593.264
126.063, 22634.057
127.452, 18879.621
128.840, 16381.866
130.228, 15801.692
131.615, 16063.003
133.003, 17020.807
134.390, 17078.475
135.777, 17348.377
137.164, 16777.475
138.550, 17629.727
139.937, 18189.783
141.323, 19204.387
142.709, 19615.793
144.094, 20403.861
145.480, 21123.566
146.865, 21245.891
148.250, 20421.811
149.635, 19775.312
151.019, 18539.369
152.403, 16552.969
153.788, 13168.093
155.171, 9887.722
156.555, 7435.836
157.939, 5477.429
159.322, 4499.243
160.705, 3793.600
162.088, 3387.665
163.470, 3036.619
164.853, 2864.585
166.235, 2667.744
167.617, 2653.312
168.998, 2514.524
170.380, 2281.576
171.761, 2164.507
173.142, 2010.340
174.523, 2141.105
175.904, 2063.705
177.284, 2050.891
178.664, 2009.518
180.044, 1796.365
181.424, 1919.432
182.803, 1794.720
184.183, 1694.233
185.562, 1721.977
186.940, 1779.947
188.319, 1751.313
189.698, 1677.646
191.076, 1689.975
192.454, 1795.212
193.831, 1846.576
195.209, 1955.479
196.586, 2163.339
197.963, 1941.854
199.340, 2006.492
200.717, 2076.935
202.093, 2254.448
203.470, 2285.702
204.846, 2400.021
206.221, 2528.594
207.597, 2590.756
208.972, 2693.813
210.347, 2805.150
211.722, 2806.611
213.097, 2956.273
214.472, 2887.131
215.846, 3115.183
217.220, 3149.418
218.594, 3076.834
219.967, 2972.422
221.341, 2852.171
222.714, 2645.076
224.087, 2436.129
225.460, 2297.326
226.832, 2178.662
228.204, 2095.136
229.577, 2046.741
230.948, 2103.478
232.320, 1910.340
233.692, 1978.323
235.063, 2058.426
236.434, 2010.643
237.805, 2093.970
239.175, 2116.403
240.545, 2149.941
241.916, 2331.859
243.286, 2338.419
244.655, 2498.579
246.025, 2591.708
247.394, 2681.633
248.763, 2917.694
250.132, 3145.268
251.501, 3383.176
252.869, 3496.087
254.237, 3905.281
255.605, 4194.754
256.973, 4442.680
258.340, 4875.376
259.708, 5218.504
261.075, 5491.236
262.442, 5682.633
263.808, 5967.340
265.175, 5847.508
266.541, 5947.633
267.907, 5829.605
269.273, 5496.502
270.639, 5240.367
272.004, 4805.797
273.369, 4253.158
274.734, 3777.860
276.099, 3238.291
277.463, 2653.247
278.828, 2441.358
280.192, 2025.597
281.556, 1577.211
282.919, 1383.074
284.283, 1145.175
285.646, 1049.503
287.009, 824.045
288.372, 567.795
289.734, 637.741
291.097, 406.881
292.459, 247.202
293.821, 311.701
295.183, 122.371
296.544, 137.211
297.905, 42.217
299.266, 0.624
300.627, 48.322
301.988, 101.895
303.348, 89.354
304.709, 230.709
306.069, 133.987
307.428, 145.181
308.788, 203.295
310.147, 290.350
311.507, 170.350
312.865, 333.292
314.224, 180.204
315.583, 267.066
316.941, 260.896
318.299, 222.698
319.657, 253.461
321.015, 238.198
322.372, 297.911
323.729, 193.616
325.086, 219.293
326.443, 105.949
327.800, 274.563
329.156, 119.158
330.512, 183.708
331.868, 152.230
333.224, 71.726
334.579, 52.187
335.935, 8.403
337.290, 108.038
338.645, 160.713
339.999, 356.441
341.354, 354.205
342.708, 587.026
344.062, 770.883
345.416, 913.773
346.769, 1226.699
348.123, 1455.678
349.476, 1686.713
350.829, 2132.789
352.182, 2433.909
353.534, 2941.042
354.887, 3320.162
356.239, 3672.270
357.591, 4113.323
358.942, 4355.312
360.294, 4619.232
361.645, 4631.082
362.996, 4607.844
364.347, 4319.521
365.698, 3899.144
367.048, 3542.704
368.398, 2894.202
369.748, 2555.683
371.098, 2228.169
372.448, 1862.679
373.797, 1754.210
375.146, 1600.200
376.495, 1920.327
377.844, 1611.888
379.192, 1635.447
380.540, 1864.008
381.889, 1822.562
383.236, 2040.108
384.584, 2271.646
385.932, 2534.172
387.279, 2716.685
388.626, 2899.184
389.973, 3143.668
391.319, 3130.137
392.666, 3371.587
394.012, 3299.018
395.358, 3258.429
396.704, 3129.818
398.049, 2901.186
399.394, 2781.529
400.740, 2310.849
402.084, 2116.143
403.429, 1641.410
404.774, 1413.769
406.118, 1232.221
407.462, 1055.752
408.806, 771.353
410.150, 636.010
411.493, 482.712
412.836, 401.452
414.179, 262.222
415.522, 172.006
416.865, 111.777
418.207, 34.511
419.549, 39.171
420.891, 95.247
422.233, 89.814
423.575, 137.532
424.916, 265.430
426.257, 106.575
427.598, 212.895
428.939, 164.447
430.279, 186.210
431.619, 192.200
432.959, 234.424
434.299, 155.906
435.639, 24.612
436.978, 5.521
438.318, 60.502
439.657, 66.355
440.996, 355.079
442.334, 475.754
443.673, 702.389
445.011, 921.983
446.349, 1197.534
447.687, 1368.041
449.024, 1554.501
450.361, 1681.915
451.699, 1581.057
453.036, 1605.683
454.372, 1414.269
455.709, 1281.204
457.045, 1165.135
458.381, 1072.049
459.717, 979.749
461.053, 909.094
462.388, 851.823
463.724, 800.740
465.059, 791.301
466.394, 766.684
467.728, 762.637
469.063, 932.125
470.397, 869.944
471.731, 935.083
473.065, 1070.398
474.398, 1016.700
475.732, 1192.431
477.065, 1175.254
478.398, 1399.670
479.731, 1495.842
481.063, 1779.741
482.396, 1877.701
483.728, 2062.203
485.060, 2477.812
486.391, 2670.516
487.723, 3086.260
489.054, 3424.023
490.385, 3972.509
491.716, 4592.033
493.047, 5191.511
494.377, 6041.727
495.708, 6981.740
497.038, 7977.030
498.368, 8967.417
499.697, 10083.573
501.027, 11197.879
502.356, 12468.180
503.685, 13692.515
505.014, 15081.459
506.342, 16390.250
507.671, 17970.367
508.999, 19157.549
510.327, 20680.471
511.655, 21392.908
512.982, 21779.285
514.310, 21780.131
515.637, 20524.061
516.964, 19552.410
518.291, 17717.791
519.617, 16062.331
520.944, 14153.733
522.270, 12064.373
523.596, 10627.699
524.921, 9152.840
526.247, 8072.123
527.572, 6996.160
528.897, 5967.213
530.222, 5441.264
531.547, 4790.813
532.871, 4185.454
534.196, 3674.515
535.520, 3335.831
536.844, 3088.053
538.167, 2754.891
539.491, 2550.229
540.814, 2270.209
542.137, 2138.474
543.460, 1939.980
544.783, 1771.778
546.105, 1627.040
547.427, 1515.629
548.749, 1423.396
550.071, 1343.395
551.393, 1314.325
552.714, 1228.976
554.035, 1218.535
555.356, 1190.003
556.677, 1090.381
557.998, 1154.675
559.318, 1203.869
560.638, 1122.971
561.958, 1153.981
563.278, 1098.900
564.597, 1134.726
565.917, 1183.459
567.236, 1182.098
568.555, 1142.643
569.874, 1293.091
571.192, 1289.446
572.511, 1413.704
573.829, 1414.060
575.147, 1474.112
576.464, 1620.765
577.782, 1663.761
579.099, 1836.337
580.416, 1964.198
581.733, 2092.051
583.050, 2240.105
584.366, 2213.355
585.683, 2273.606
586.999, 2101.334
588.315, 2110.610
589.630, 2062.329
590.946, 1836.423
592.261, 1680.779
593.576, 1448.476
594.891, 1238.614
596.206, 1066.275
597.520, 911.640
598.834, 777.210
600.148, 641.562
601.462, 575.868
602.776, 518.094
604.089, 431.241
605.402, 352.310
606.715, 346.299
608.028, 309.209
609.341, 209.041
610.653, 244.786
611.965, 174.447
613.277, 151.017
614.589, 102.491
615.901, 63.862
617.212, 80.120
618.523, 73.270
619.834, 87.312
621.145, 50.256
622.456, 66.096
623.766, 42.838
625.076, 63.497
626.386, 59.066
627.696, 113.545
629.006, 9.958
630.315, 128.292
631.624, 39.559
632.933, 114.771
634.242, 69.918
635.551, 87.008
636.859, 32.046
638.167, 54.013
639.475, 66.921
640.783, 85.773
642.090, 102.585
643.398, 132.342
644.705, 104.054
646.012, 26.697
647.318, 23.289
648.625, 57.800
649.931, 67.254
651.237, 87.646
652.543, 14.032
653.849, 16.185
655.155, 62.306
656.460, 30.664
657.765, 46.243
659.070, 72.941
660.375, 3.730
661.679, 10.300
662.984, 9.228
664.288, 80.863
665.592, 100.641
666.895, 51.572
668.199, 78.627
669.502, 48.821
670.805, 91.136
672.108, 63.593
673.411, 121.177
674.713, 92.917
676.016, 50.795
677.318, 67.790
678.620, 42.908
679.921, 57.134
681.223, 41.475
682.524, 78.921
683.825, 46.490
685.126, 34.163
686.427, 15.066
687.727, 64.780
689.028, 53.737
690.328, 79.796
691.628, 26.030
692.927, 22.786
694.227, 42.470
695.526, 1.914
696.825, 105.630
698.124, 57.114
699.423, 136.533
700.721, 83.896
702.020, 145.198
703.318, 149.445
704.616, 125.638
705.913, 112.777
707.211, 123.861
708.508, 244.891
709.805, 195.265
711.102, 212.292
712.399, 220.679
713.695, 148.509
714.992, 247.289
716.288, 186.021
717.584, 150.707
718.879, 174.345
720.175, 147.936
721.470, 254.481
722.765, 213.980
724.060, 216.435
725.355, 231.845
726.649, 203.212
727.944, 203.536
729.238, 267.817
730.532, 155.061
731.825, 221.279
733.119, 211.482
734.412, 266.686
735.705, 205.891
736.998, 203.131
738.291, 214.407
739.584, 197.731
740.876, 225.137
742.168, 266.586
743.460, 154.106
744.752, 185.688
746.043, 187.336
747.334, 261.055
748.626, 182.855
749.916, 212.719
751.207, 217.615
752.498, 174.539
753.788, 235.476
755.078, 224.429
756.368, 294.355
757.658, 313.252
758.947, 347.119
760.237, 371.956
761.526, 375.367
762.815, 375.544
764.104, 379.297
765.392, 397.244
766.680, 403.632
767.969, 412.984
769.257, 438.117
770.544, 478.770
771.832, 491.578
773.119, 551.914
774.406, 595.087
775.693, 549.686
776.980, 518.230
778.267, 586.326
779.553, 577.739
780.839, 564.869
782.125, 555.922
783.411, 622.347
784.697, 621.659
785.982, 661.439
787.267, 656.142
788.552, 694.736
789.837, 642.388
791.122, 725.467
792.406, 720.163
793.690, 730.550
794.974, 831.310
796.258, 792.503
797.542, 921.049
798.825, 950.113
800.108, 1079.730
801.391, 1093.657
802.674, 1211.537
803.957, 1309.355
805.239, 1375.408
806.522, 1525.879
807.804, 1677.122
809.085, 1824.823
810.367, 2164.191
811.649, 2250.633
812.930, 2603.491
814.211, 2983.449
815.492, 3298.296
816.772, 3830.452
818.053, 4406.680
819.333, 5084.504
820.613, 5802.187
821.893, 6505.047
823.173, 7340.312
824.452, 7945.557
825.732, 8768.252
827.011, 8545.790
828.290, 8431.828
829.568, 7943.759
830.847, 7149.453
832.125, 6570.207
833.403, 5683.648
834.681, 4992.326
835.959, 4548.118
837.236, 4290.692
838.514, 4184.439
839.791, 4347.096
841.068, 4404.686
842.345, 4620.702
843.621, 4856.554
844.898, 4727.918
846.174, 4530.952
847.450, 4240.010
848.726, 3483.379
850.001, 2936.177
851.277, 2441.262
852.552, 2112.992
853.827, 1780.408
855.102, 1374.463
856.376, 1247.983
857.651, 1054.556
858.925, 1060.064
860.199, 907.554
861.473, 718.126
862.746, 724.909
864.020, 750.713
865.293, 689.539
866.566, 652.388
867.839, 654.252
869.112, 672.147
870.384, 695.066
871.656, 683.009
872.928, 649.976
874.200, 723.968
875.472, 765.984
876.744, 741.027
878.015, 825.095
879.286, 852.188
880.557, 1017.309
881.828, 1063.455
883.098, 1125.629
884.369, 1274.830
885.639, 1365.059
886.909, 1545.314
888.178, 1710.599
889.448, 1939.910
890.717, 2265.256
891.987, 2404.629
893.256, 2699.031
894.524, 3311.461
895.793, 3745.917
897.061, 4420.402
898.330, 5410.913
899.598, 6362.450
900.865, 7964.014
902.133, 9786.605
903.401, 12035.225
904.668, 15189.876
905.935, 18552.555
907.202, 21857.260
908.468, 25375.992
909.735, 28388.762
911.001, 30366.557
912.267, 31229.393
913.533, 30657.266
914.799, 28673.170
916.064, 24498.094
917.330, 20421.061
918.595, 15945.072
919.860, 12463.130
921.124, 9920.409
922.389, 7956.701
923.653, 6442.712
924.918, 5380.461
926.182, 4500.955
927.445, 3761.680
928.709, 3369.923
929.972, 2960.453
931.236, 2577.649
932.499, 2385.058
933.761, 2132.838
935.024, 1871.063
936.286, 1802.296
937.549, 1701.079
938.811, 1551.745
940.073, 1483.048
941.334, 1361.410
942.596, 1258.240
943.857, 1270.281
945.118, 1207.923
946.379, 1109.647
947.640, 997.253
948.900, 1058.474
950.161, 988.814
951.421, 973.445
952.681, 997.188
953.940, 944.065
955.200, 960.690
956.459, 899.688
957.719, 964.528
958.978, 974.593
960.236, 1015.990
961.495, 984.691
962.753, 1040.433
964.012, 1083.238
965.270, 1122.215
966.527, 1189.123
967.785, 1230.079
969.043, 1250.079
970.300, 1388.127
971.557, 1429.243
972.814, 1592.430
974.071, 1700.677
975.327, 1746.989
976.583, 1738.358
977.840, 1863.794
979.095, 1951.291
980.351, 2002.867
981.607, 2376.512
982.862, 2565.212
984.117, 2846.970
985.372, 3351.781
986.627, 3582.646
987.882, 3845.562
989.136, 3862.535
990.390, 3519.564
991.644, 3172.639
992.898, 2861.752
994.152, 2608.918
995.405, 2388.134
996.659, 2329.406
997.912, 2279.713
999.165, 2211.053
1000.417, 2219.426
1001.670, 2147.833
1002.922, 2281.269
1004.174, 2099.736
1005.426, 2190.232
1006.678, 2094.760
1007.930, 2103.313
1009.181, 2132.896
1010.432, 2006.508
1011.683, 1925.146
1012.934, 1821.812
1014.185, 1847.504
1015.435, 1836.220
1016.685, 1763.959
1017.935, 1633.723
1019.185, 1555.510
1020.435, 1509.322
1021.684, 1424.156
1022.934, 1403.017
1024.183, 1359.902
1025.432, 1305.815
1026.680, 1300.753
1027.929, 1184.715
1029.177, 1151.702
1030.425, 1133.710
1031.673, 1114.743
1032.921, 1034.805
1034.169, 948.889
1035.416, 933.996
1036.663, 919.125
1037.911, 864.276
1039.157, 822.103
1040.404, 726.947
1041.650, 726.165
1042.897, 622.588
1044.143, 620.924
1045.389, 558.202
1046.634, 498.465
1047.880, 466.815
1049.125, 395.156
1050.371, 398.510
1051.615, 369.123
1052.860, 326.747
1054.105, 301.513
1055.349, 260.117
1056.593, 212.771
1057.837, 158.998
1059.081, 132.545
1060.325, 100.670
1061.568, 89.817
1062.812, 85.902
1064.055, 94.931
1065.298, 82.750
1066.540, 65.450
1067.783, 5.314
1069.025, 1.562
1070.267, 12.009
1071.509, 78.883
1072.751, 68.515
1073.993, 58.245
1075.234, 47.889
1076.475, 52.688
1077.716, 35.480
1078.957, 70.726
1080.198, 85.288
1081.438, 112.214
1082.679, 70.025
1083.919, 125.294
1085.159, 123.156
1086.398, 63.315
1087.638, 58.473
1088.877, 16.036
1090.116, 46.612
1091.355, 28.870
1092.594, 60.301
1093.833, 19.340
1095.071, 48.432
1096.309, 14.190
1097.547, 15.254
1098.785, 0.141
1100.023, 38.788
1101.260, 10.770
1102.498, 13.245
1103.735, 32.658
1104.972, 12.491
1106.208, 5.881
1107.445, 37.995
1108.681, 18.499
1109.918, 19.686
1111.154, 29.459
1112.389, 0.934
1113.625, 26.431
1114.860, 11.978
1116.096, 13.830
1117.331, 65.461
1118.566, 77.598
1119.800, 94.434
1121.035, 159.924
1122.269, 247.746
1123.503, 309.321
1124.737, 181.787
1125.971, 134.293
1127.205, 96.980
1128.438, 52.568
1129.671, 67.761
1130.904, 75.188
1132.137, 69.639
1133.370, 75.111
1134.602, 58.746
1135.834, 65.187
1137.066, 32.593
1138.298, 33.805
1139.530, 44.344
1140.762, 30.325
1141.993, 66.672
1143.224, 67.152
1144.455, 86.792
1145.686, 102.953
1146.917, 32.398
1148.147, 122.684
1149.377, 78.824
1150.607, 69.131
1151.837, 101.449
1153.067, 111.141
1154.296, 118.627
1155.526, 136.827
1156.755, 120.624
1157.984, 144.519
1159.213, 159.698
1160.441, 133.028
1161.670, 189.327
1162.898, 166.304
1164.126, 153.264
1165.354, 162.208
1166.581, 107.135
1167.809, 74.044
1169.036, 93.149
1170.263, 122.441
1171.490, 76.874
1172.717, 101.766
1173.943, 64.312
1175.170, 54.419
1176.396, 57.336
1177.622, 44.576
1178.848, 55.866
1180.073, 53.348
1181.299, 59.446
1182.524, 74.320
1183.749, 100.329
1184.974, 104.645
1186.199, 96.989
1187.423, 11.989
1188.648, 72.739
1189.872, 43.684
1191.096, 51.251
1192.320, 72.806
1193.543, 95.320
1194.767, 91.121
1195.990, 76.336
1197.213, 88.847
1198.436, 49.232
1199.659, 50.783
1200.881, 22.116
1202.104, 56.506
1203.326, 55.776
1204.548, 39.020
1205.770, 28.344
1206.991, 50.586
1208.213, 3.743
1209.434, 5.841
1210.655, 52.891
1211.876, 61.910
1213.096, 23.901
1214.317, 6.963
1215.537, 52.926
1216.757, 24.929
1217.977, 32.561
1219.197, 9.700
1220.417, 7.380
1221.636, 10.743
1222.855, 43.709
1224.074, 13.921
1225.293, 15.618
1226.512, 13.959
1227.731, 35.797
1228.949, 3.644
1230.167, 8.637
1231.385, 1.514
1232.603, 0.235
1233.820, 18.450
1235.038, 4.786
1236.255, 28.495
1237.472, 16.754
1238.689, 23.436
1239.906, 41.450
1241.122, 43.852
1242.338, 5.185
1243.555, 24.644
1244.771, 5.205
1245.986, 39.254
1247.202, 23.321
1248.417, 22.994
1249.633, 75.185
1250.848, 26.351
1252.063, 66.750
1253.277, 5.980
1254.492, 22.077
1255.706, 31.828
1256.920, 50.294
1258.134, 95.730
1259.348, 22.988
1260.562, 79.359
1261.775, 48.701
1262.988, 66.014
1264.201, 106.294
1265.414, 83.544
1266.627, 94.172
1267.839, 52.956
1269.052, 75.119
1270.264, 99.253
1271.476, 89.354
1272.688, 63.423
1273.899, 24.458
1275.111, 38.457
1276.322, 105.424
1277.533, 98.365
1278.744, 92.275
1279.955, 70.150
1281.165, 91.986
1282.376, 103.789
1283.586, 38.557
1284.796, 77.281
1286.006, 47.970
1287.215, 110.618
1288.425, 82.233
1289.634, 65.814
1290.843, 131.363
1292.052, 94.881
1293.261, 113.537
1294.469, 181.821
1295.678, 103.244
1296.886, 97.635
1298.094, 59.995
1299.302, 73.321
1300.509, 66.615
1301.717, 75.876
1302.924, 48.104
1304.131, 112.296
1305.338, 83.470
1306.545, 85.594
1307.752, 154.688
1308.958, 327.776
1310.164, 244.041
1311.370, 242.685
1312.576, 166.819
1313.782, 100.766
1314.987, 75.683
1316.193, 64.637
1317.398, 41.494
1318.603, 56.324
1319.807, 88.252
1321.012, 74.021
1322.216, 101.755
1323.421, 70.512
1324.625, 17.188
1325.829, 78.846
1327.032, 107.602
1328.236, 84.184
1329.439, 59.736
1330.642, 53.258
1331.845, 86.749
1333.048, 107.913
1334.251, 77.347
1335.453, 140.567
1336.656, 137.867
1337.858, 142.218
1339.060, 128.542
1340.261, 141.839
1341.463, 126.104
1342.664, 164.350
1343.866, 104.327
1345.067, 184.286
1346.267, 126.096
1347.468, 175.060
1348.669, 147.966
1349.869, 120.292
1351.069, 130.096
1352.269, 142.700
1353.469, 147.078
1354.668, 149.509
1355.868, 139.988
1357.067, 185.666
1358.266, 110.845
1359.465, 120.068
1360.664, 98.291
1361.862, 148.324
1363.061, 102.651
1364.259, 84.717
1365.457, 35.865
1366.655, 114.911
1367.852, 150.048
1369.050, 140.581
1370.247, 134.187
1371.444, 121.091
1372.641, 114.686
1373.838, 87.448
1375.035, 83.997
1376.231, 108.112
1377.427, 109.477
1378.623, 145.822
1379.819, 102.555
1381.015, 74.290
1382.211, 121.692
1383.406, 86.259
1384.601, 116.427
1385.796, 112.659
1386.991, 128.507
1388.185, 76.998
1389.380, 114.760
1390.574, 140.205
1391.768, 93.838
1392.962, 119.218
1394.156, 86.032
1395.350, 100.933
1396.543, 87.361
1397.736, 92.275
1398.929, 132.751
1400.122, 153.451
1401.315, 169.905
1402.507, 122.475
1403.700, 153.099
1404.892, 148.394
1406.084, 138.846
1407.276, 147.162
1408.467, 152.856
1409.659, 140.681
1410.850, 162.010
1412.041, 142.448
1413.232, 113.525
1414.423, 182.789
1415.614, 132.137
1416.804, 171.243
1417.994, 134.773
1419.184, 148.060
1420.374, 140.302
1421.564, 163.218
1422.753, 128.027
1423.943, 115.688
1425.132, 113.665
1426.321, 137.636
1427.510, 107.498
1428.698, 84.553
1429.887, 142.190
1431.075, 136.148
1432.263, 90.141
1433.451, 139.602
1434.639, 55.952
1435.827, 99.292
1437.014, 105.446
1438.201, 106.721
1439.388, 69.924
1440.575, 82.158
1441.762, 48.527
1442.949, 64.878
1444.135, 80.933
1445.321, 45.019
1446.507, 82.863
1447.693, 24.972
1448.879, 30.371
1450.064, 31.807
1451.250, 68.111
1452.435, 43.439
1453.620, 61.969
1454.805, 10.327
1455.989, 31.845
1457.174, 43.399
1458.358, 3.878
1459.542, 20.524
1460.726, 30.209
1461.910, 4.129
1463.093, 15.502
1464.277, 24.091
1465.460, 2.658
1466.643, 66.204
1467.826, 8.723
1469.009, 5.766
1470.191, 23.711
1471.373, 39.165
1472.556, 27.623
1473.738, 54.071
1474.919, 27.483
1476.101, 35.921
1477.283, 53.394
1478.464, 17.939
1479.645, 38.543
1480.826, 33.170
1482.007, 27.807
1483.187, 38.463
1484.368, 51.140
1485.548, 79.834
1486.728, 30.557
1487.908, 57.271
1489.088, 26.089
1490.268, 9.933
1491.447, 7.592
1492.626, 42.472
1493.805, 49.088
1494.984, 64.374
1496.163, 65.242
1497.341, 47.911
1498.520, 48.039
1499.698, 27.962
1500.876, 47.919
1502.054, 40.919
