##NAMES=Atacamite
##RRUFFID=R050098
##IDEAL CHEMISTRY=Cu^2+^_2_Cl(OH)_3_
##LOCALITY=La Farola mine, Tierra Amarilla, Atacama, Chile
##OWNER=RRUFF
##SOURCE=Rock Currier
##DESCRIPTION=Green prismatic single crystals
##STATUS=The identification of this mineral has been confirmed by X-ray diffraction and chemical analysis
##URL=rruff.info/R050098
##MEASURED CHEMISTRY=Cu_2.00_Cl_1.00_(OH)_3_
##PIN_ID=M00436
##ORIENTATION=Laser parallel to c* (0 0 1). Fiducial mark perpendicular to laser is parallel to a [1 0 0]
54.966, 0.000
56.365, 99.875
57.765, 339.779
59.164, 438.452
60.563, 534.902
61.962, 563.114
63.360, 455.806
64.758, 635.314
66.157, 507.703
67.554, 458.021
68.952, 273.982
70.349, 69.344
71.747, 73.390
73.144, 43.980
74.540, 21.854
75.937, 50.679
77.333, 89.475
78.729, 12.594
80.125, 67.791
81.521, 142.030
82.916, 250.232
84.311, 378.329
85.706, 614.263
87.101, 857.995
88.496, 1064.516
89.890, 1420.842
91.284, 1750.957
92.678, 2049.804
94.071, 2362.330
95.465, 2634.562
96.858, 2869.258
98.251, 3169.596
99.644, 3449.474
101.036, 3735.845
102.428, 4315.654
103.820, 5036.855
105.212, 5394.425
106.604, 6331.348
107.995, 7751.610
109.387, 10168.196
110.777, 13473.100
112.168, 17801.309
113.559, 21641.818
114.949, 24712.619
116.339, 26957.715
117.729, 28029.195
119.119, 28605.105
120.508, 28920.480
121.897, 26836.475
123.286, 22855.117
124.675, 17204.400
126.063, 12876.946
127.452, 9815.644
128.840, 7666.505
130.228, 6476.528
131.615, 5619.717
133.003, 5142.076
134.390, 4824.603
135.777, 4847.305
137.164, 4781.182
138.550, 5219.272
139.937, 5857.637
141.323, 7347.198
142.709, 9036.875
144.094, 10630.587
145.480, 11833.273
146.865, 12924.877
148.250, 13468.313
149.635, 13955.646
151.019, 13918.932
152.403, 13552.272
153.788, 11904.704
155.171, 9808.243
156.555, 8156.887
157.939, 6721.646
159.322, 5775.519
160.705, 5151.509
162.088, 4657.624
163.470, 4332.860
164.853, 4174.223
166.235, 3973.711
167.617, 3800.328
168.998, 3496.075
170.380, 3391.953
171.761, 3406.962
173.142, 3287.104
174.523, 3352.377
175.904, 3302.783
177.284, 3251.928
178.664, 3249.396
180.044, 3181.303
181.424, 3208.982
182.803, 3293.973
184.183, 3228.931
185.562, 3301.180
186.940, 3368.548
188.319, 3397.211
189.698, 3498.240
191.076, 3672.643
192.454, 3683.976
193.831, 3825.003
195.209, 4016.097
196.586, 4221.704
197.963, 4343.454
199.340, 4735.346
200.717, 5048.384
202.093, 5372.566
203.470, 5913.895
204.846, 6531.367
206.221, 7333.984
207.597, 8238.744
208.972, 9123.652
210.347, 9749.706
211.722, 10657.904
213.097, 11555.250
214.472, 11880.082
215.846, 12514.385
217.220, 12384.174
218.594, 12264.109
219.967, 12096.191
221.341, 10540.197
222.714, 9305.198
224.087, 7991.114
225.460, 6857.928
226.832, 5868.562
228.204, 4833.196
229.577, 4170.531
230.948, 3599.747
232.320, 3109.391
233.692, 2944.850
235.063, 2519.438
236.434, 2563.765
237.805, 2008.984
239.175, 1943.625
240.545, 1771.584
241.916, 1854.358
243.286, 1547.802
244.655, 1584.056
246.025, 1517.461
247.394, 1409.791
248.763, 1400.846
250.132, 1370.668
251.501, 1314.645
252.869, 1189.772
254.237, 1103.047
255.605, 1028.465
256.973, 1052.024
258.340, 1060.719
259.708, 927.548
261.075, 855.509
262.442, 783.598
263.808, 776.814
265.175, 638.153
266.541, 654.614
267.907, 600.195
269.273, 581.895
270.639, 518.711
272.004, 470.806
273.369, 399.689
274.734, 356.849
276.099, 260.120
277.463, 196.502
278.828, 253.992
280.192, 299.591
281.556, 175.298
282.919, 226.109
284.283, 155.024
285.646, 174.041
287.009, 137.156
288.372, 55.368
289.734, 138.673
291.097, 93.071
292.459, 53.560
293.821, 81.141
295.183, 36.812
296.544, 77.573
297.905, 20.576
299.266, 48.362
300.627, 57.612
301.988, 70.505
303.348, 29.320
304.709, 72.052
306.069, 48.707
307.428, 13.283
308.788, 21.776
310.147, 67.186
311.507, 84.518
312.865, 131.773
314.224, 47.958
315.583, 182.060
316.941, 74.099
318.299, 130.059
319.657, 114.946
321.015, 87.760
322.372, 187.498
323.729, 196.168
325.086, 163.774
326.443, 132.316
327.800, 157.785
329.156, 108.177
330.512, 125.491
331.868, 18.729
333.224, 0.145
334.579, 154.147
335.935, 168.274
337.290, 474.504
338.645, 549.837
339.999, 824.284
341.354, 1144.840
342.708, 1530.517
344.062, 2052.314
345.416, 2614.216
346.769, 3188.234
348.123, 3840.369
349.476, 4382.609
350.829, 5109.941
352.182, 5613.381
353.534, 6040.916
354.887, 6164.529
356.239, 6111.223
357.591, 6065.019
358.942, 5730.955
360.294, 5258.007
361.645, 4917.189
362.996, 4371.490
364.347, 3979.899
365.698, 3624.430
367.048, 3297.082
368.398, 2856.851
369.748, 2515.738
371.098, 2303.728
372.448, 2128.815
373.797, 1916.983
375.146, 1571.234
376.495, 1554.564
377.844, 1468.968
379.192, 1338.449
380.540, 1494.007
381.889, 1263.641
383.236, 1381.345
384.584, 1449.100
385.932, 1406.909
387.279, 1445.775
388.626, 1561.706
389.973, 1602.704
391.319, 1506.774
392.666, 1542.921
394.012, 1436.151
395.358, 1455.469
396.704, 1477.875
398.049, 1564.375
399.394, 1647.977
400.740, 1616.677
402.084, 1772.496
403.429, 1857.422
404.774, 1920.440
406.118, 2078.404
407.462, 2264.803
408.806, 2332.114
410.150, 2437.504
411.493, 2524.972
412.836, 2530.513
414.179, 2387.127
415.522, 2055.814
416.865, 2032.571
418.207, 1753.399
419.549, 1569.297
420.891, 1315.265
422.233, 1153.301
423.575, 1094.405
424.916, 1058.298
426.257, 928.103
427.598, 887.298
428.939, 739.486
430.279, 757.919
431.619, 682.417
432.959, 633.978
434.299, 691.602
435.639, 771.289
436.978, 750.036
438.318, 999.846
439.657, 1052.715
440.996, 1378.645
442.334, 1627.634
443.673, 1944.682
445.011, 2403.788
446.349, 3057.951
447.687, 3403.172
449.024, 3817.448
450.361, 4160.781
451.699, 4085.171
453.036, 4139.615
454.372, 4045.114
455.709, 3869.665
457.045, 3551.271
458.381, 3235.930
459.717, 3075.192
461.053, 3027.955
462.388, 2809.418
463.724, 2783.552
465.059, 2673.828
466.394, 2532.012
467.728, 2557.896
469.063, 2646.655
470.397, 2575.282
471.731, 2568.794
473.065, 2724.843
474.398, 2657.415
475.732, 2905.597
477.065, 2824.517
478.398, 3083.051
479.731, 3252.877
481.063, 3438.306
482.396, 3578.571
483.728, 3939.704
485.060, 4172.919
486.391, 4435.812
487.723, 4846.592
489.054, 5299.983
490.385, 5853.072
491.716, 6522.706
493.047, 7132.332
494.377, 7748.946
495.708, 8642.009
497.038, 9668.817
498.368, 10701.400
499.697, 11864.326
501.027, 13476.150
502.356, 15497.211
503.685, 17085.432
505.014, 19427.367
506.342, 21371.023
507.671, 24011.434
508.999, 25506.008
510.327, 27483.695
511.655, 28412.828
512.982, 28682.016
514.310, 28554.705
515.637, 26879.830
516.964, 25392.732
518.291, 22692.219
519.617, 20635.451
520.944, 17973.037
522.270, 15182.201
523.596, 13506.831
524.921, 11505.385
526.247, 10126.357
527.572, 8786.368
528.897, 7563.556
530.222, 6714.719
531.547, 5829.622
532.871, 5390.744
534.196, 4571.968
535.520, 4058.946
536.844, 3808.286
538.167, 3356.623
539.491, 3233.897
540.814, 2750.912
542.137, 2567.032
543.460, 2368.986
544.783, 2174.697
546.105, 2036.412
547.427, 1871.153
548.749, 1682.877
550.071, 1523.621
551.393, 1461.352
552.714, 1385.083
554.035, 1132.817
555.356, 1096.553
556.677, 1137.288
557.998, 955.023
559.318, 945.759
560.638, 896.492
561.958, 784.225
563.278, 707.954
564.597, 726.680
565.917, 699.402
567.236, 687.121
568.555, 665.333
569.874, 565.541
571.192, 628.243
572.511, 625.938
573.829, 662.626
575.147, 535.308
576.464, 706.981
577.782, 691.646
579.099, 609.303
580.416, 693.950
581.733, 741.587
583.050, 765.215
584.366, 798.831
585.683, 932.437
586.999, 902.030
588.315, 984.612
589.630, 1150.181
590.946, 1133.738
592.261, 1323.281
593.576, 1446.811
594.891, 1498.326
596.206, 1576.827
597.520, 1648.313
598.834, 1737.783
600.148, 1711.238
601.462, 1586.677
602.776, 1611.098
604.089, 1354.503
605.402, 1268.891
606.715, 1102.261
608.028, 1014.612
609.341, 793.945
610.653, 761.259
611.965, 649.554
613.277, 461.829
614.589, 414.084
615.901, 400.320
617.212, 319.534
618.523, 296.130
619.834, 317.905
621.145, 212.065
622.456, 233.211
623.766, 179.339
625.076, 154.454
626.386, 178.551
627.696, 168.627
629.006, 96.683
630.315, 132.723
631.624, 102.749
632.933, 127.768
634.242, 170.768
635.551, 121.768
636.859, 79.751
638.167, 75.725
639.475, 110.684
640.783, 32.627
642.090, 55.557
643.398, 101.478
644.705, 51.393
646.012, 15.289
647.318, 41.153
648.625, 40.988
649.931, 53.204
651.237, 108.483
652.543, 88.883
653.849, 3.395
655.155, 13.974
656.460, 49.627
657.765, 46.375
659.070, 112.214
660.375, 145.182
661.679, 91.295
662.984, 85.528
664.288, 159.876
665.592, 129.380
666.895, 130.025
668.199, 183.811
669.502, 151.767
670.805, 142.876
672.108, 101.135
673.411, 144.522
674.713, 169.060
676.016, 68.763
677.318, 105.577
678.620, 82.522
679.921, 41.587
681.223, 87.751
682.524, 94.037
683.825, 78.449
685.126, 80.979
686.427, 32.628
687.727, 12.371
689.028, 76.803
690.328, 40.928
691.628, 83.996
692.927, 113.016
694.227, 70.995
695.526, 73.923
696.825, 84.802
698.124, 128.634
699.423, 139.427
700.721, 170.183
702.020, 175.905
703.318, 160.593
704.616, 244.246
705.913, 161.866
707.211, 243.451
708.508, 317.002
709.805, 318.520
711.102, 297.004
712.399, 336.455
713.695, 359.872
714.992, 384.256
716.288, 323.607
717.584, 375.924
718.879, 407.208
720.175, 367.458
721.470, 480.675
722.765, 433.858
724.060, 468.009
725.355, 507.127
726.649, 487.212
727.944, 404.264
729.238, 545.283
730.532, 409.268
731.825, 578.221
733.119, 550.142
734.412, 500.029
735.705, 505.884
736.998, 546.707
738.291, 546.497
739.584, 564.399
740.876, 591.981
742.168, 586.675
743.460, 585.336
744.752, 593.966
746.043, 599.564
747.334, 646.130
748.626, 630.832
749.916, 603.169
751.207, 607.641
752.498, 573.082
753.788, 525.492
755.078, 520.871
756.368, 507.617
757.658, 512.827
758.947, 507.831
760.237, 558.099
761.526, 551.337
762.815, 593.545
764.104, 578.724
765.392, 578.459
766.680, 623.010
767.969, 554.118
769.257, 576.199
770.544, 559.251
771.832, 661.275
773.119, 621.273
774.406, 610.244
775.693, 610.189
776.980, 601.108
778.267, 652.010
779.553, 622.891
780.839, 607.752
782.125, 589.595
783.411, 648.418
784.697, 635.223
785.982, 626.006
787.267, 725.771
788.552, 651.528
789.837, 685.260
791.122, 742.966
792.406, 651.629
793.690, 748.213
794.974, 713.858
796.258, 787.292
797.542, 784.333
798.825, 855.927
800.108, 820.710
801.391, 864.047
802.674, 900.365
803.957, 987.575
805.239, 934.339
806.522, 1000.536
807.804, 935.863
809.085, 1099.460
810.367, 1116.307
811.649, 1107.832
812.930, 1240.479
814.211, 1314.916
815.492, 1375.203
816.772, 1420.794
818.053, 1514.675
819.333, 1612.955
820.613, 1687.810
821.893, 1872.700
823.173, 1974.157
824.452, 2147.573
825.732, 2344.531
827.011, 2567.006
828.290, 2806.750
829.568, 3119.918
830.847, 3457.359
832.125, 4081.480
833.403, 4573.039
834.681, 5245.147
835.959, 6213.342
837.236, 7484.145
838.514, 8956.918
839.791, 10726.531
841.068, 12537.182
842.345, 14095.104
843.621, 15420.830
844.898, 15740.462
846.174, 15090.350
847.450, 14026.885
848.726, 11959.433
850.001, 10079.047
851.277, 8446.933
852.552, 6923.721
853.827, 5630.685
855.102, 4643.895
856.376, 3844.110
857.651, 3334.308
858.925, 2977.528
860.199, 2502.735
861.473, 2249.963
862.746, 2047.194
864.020, 1797.430
865.293, 1653.670
866.566, 1620.915
867.839, 1495.164
869.112, 1440.418
870.384, 1415.677
871.656, 1402.942
872.928, 1354.212
874.200, 1379.489
875.472, 1356.771
876.744, 1420.059
878.015, 1452.354
879.286, 1543.656
880.557, 1745.965
881.828, 1878.281
883.098, 1976.603
884.369, 2166.933
885.639, 2484.271
886.909, 2728.616
888.178, 3026.970
889.448, 3495.332
890.717, 4155.703
891.987, 4680.081
893.256, 5433.469
894.524, 6505.866
895.793, 7727.272
897.061, 9231.688
898.330, 10822.114
899.598, 12993.551
900.865, 15896.999
902.133, 19489.461
903.401, 23495.928
904.668, 28229.408
905.935, 32815.906
907.202, 35555.406
908.468, 36433.926
909.735, 34796.617
911.001, 30822.270
912.267, 25850.820
913.533, 21477.432
914.799, 17476.023
916.064, 14290.166
917.330, 11645.257
918.595, 9473.645
919.860, 7827.295
921.124, 6743.150
922.389, 5865.029
923.653, 5101.843
924.918, 4559.849
926.182, 4110.967
927.445, 3652.165
928.709, 3426.479
929.972, 3096.190
931.236, 2879.645
932.499, 2693.318
933.761, 2581.053
935.024, 2421.368
936.286, 2209.323
937.549, 2113.133
938.811, 1993.885
940.073, 2042.339
941.334, 1967.543
942.596, 1796.440
943.857, 1902.524
945.118, 1833.451
946.379, 1818.602
947.640, 1863.703
948.900, 2007.680
950.161, 1957.596
951.421, 2083.874
952.681, 2120.900
953.940, 2182.008
955.200, 2177.083
956.459, 2087.244
957.719, 2030.921
958.978, 1911.123
960.236, 1776.380
961.495, 1658.923
962.753, 1481.929
964.012, 1472.504
965.270, 1295.629
966.527, 1326.222
967.785, 1312.803
969.043, 1265.417
970.300, 1167.094
971.557, 1127.853
972.814, 1165.681
974.071, 1074.579
975.327, 1095.562
976.583, 941.620
977.840, 1016.751
979.095, 957.946
980.351, 940.214
981.607, 892.586
982.862, 886.055
984.117, 811.899
985.372, 925.433
986.627, 757.016
987.882, 809.854
989.136, 846.559
990.390, 737.326
991.644, 745.031
992.898, 731.903
994.152, 699.481
995.405, 719.421
996.659, 686.391
997.912, 692.381
999.165, 707.397
1000.417, 685.435
1001.670, 675.495
1002.922, 642.593
1004.174, 575.707
1005.426, 578.836
1006.678, 579.984
1007.930, 613.145
1009.181, 582.319
1010.432, 557.508
1011.683, 509.712
1012.934, 494.401
1014.185, 540.162
1015.435, 471.422
1016.685, 447.701
1017.935, 474.994
1019.185, 392.307
1020.435, 389.632
1021.684, 265.973
1022.934, 365.327
1024.183, 349.695
1025.432, 286.075
1026.680, 344.466
1027.929, 235.869
1029.177, 246.285
1030.425, 271.712
1031.673, 167.150
1032.921, 232.600
1034.169, 201.062
1035.416, 202.533
1036.663, 219.016
1037.911, 181.509
1039.157, 171.012
1040.404, 147.527
1041.650, 130.051
1042.897, 248.587
1044.143, 104.178
1045.389, 216.748
1046.634, 139.393
1047.880, 133.021
1049.125, 109.111
1050.371, 180.845
1051.615, 105.632
1052.860, 97.301
1054.105, 67.152
1055.349, 18.782
1056.593, 29.468
1057.837, 20.758
1059.081, 10.699
1060.325, 44.845
1061.568, 40.942
1062.812, 1.107
1064.055, 20.652
1065.298, 6.676
1066.540, 36.867
1067.783, 56.129
1069.025, 38.307
1070.267, 11.319
1071.509, 11.611
1072.751, 7.595
1073.993, 15.128
1075.234, 18.448
1076.475, 20.154
1077.716, 22.804
1078.957, 53.542
1080.198, 47.513
1081.438, 50.802
1082.679, 50.934
1083.919, 41.822
1085.159, 52.965
1086.398, 29.354
1087.638, 47.249
1088.877, 90.595
1090.116, 10.950
1091.355, 15.080
1092.594, 30.095
1093.833, 36.577
1095.071, 63.743
1096.309, 61.907
1097.547, 14.599
1098.785, 56.816
1100.023, 28.306
1101.260, 40.327
1102.498, 1.942
1103.735, 15.423
1104.972, 2.032
1106.208, 10.472
1107.445, 8.083
1108.681, 16.562
1109.918, 22.957
1111.154, 29.388
1112.389, 20.790
1113.625, 28.354
1114.860, 3.151
1116.096, 6.772
1117.331, 22.316
1118.566, 78.171
1119.800, 82.814
1121.035, 112.354
1122.269, 240.011
1123.503, 272.470
1124.737, 187.946
1125.971, 158.533
1127.205, 50.938
1128.438, 67.333
1129.671, 7.608
1130.904, 55.180
1132.137, 27.587
1133.370, 18.003
1134.602, 18.898
1135.834, 38.723
1137.066, 43.961
1138.298, 2.514
1139.530, 0.668
1140.762, 68.115
1141.993, 26.149
1143.224, 37.142
1144.455, 79.507
1145.686, 90.849
1146.917, 126.733
1148.147, 91.073
1149.377, 120.387
1150.607, 181.750
1151.837, 150.909
1153.067, 212.086
1154.296, 156.484
1155.526, 172.549
1156.755, 240.742
1157.984, 261.168
1159.213, 243.617
1160.441, 263.820
1161.670, 197.251
1162.898, 238.201
1164.126, 216.919
1165.354, 212.082
1166.581, 204.713
1167.809, 201.872
1169.036, 196.461
1170.263, 155.993
1171.490, 209.095
1172.717, 171.119
1173.943, 142.145
1175.170, 166.007
1176.396, 128.206
1177.622, 174.060
1178.848, 133.010
1180.073, 96.943
1181.299, 148.734
1182.524, 152.545
1183.749, 142.327
1184.974, 113.074
1186.199, 134.867
1187.423, 150.675
1188.648, 94.475
1189.872, 135.163
1191.096, 81.834
1192.320, 90.493
1193.543, 76.132
1194.767, 83.755
1195.990, 48.363
1197.213, 69.950
1198.436, 66.520
1199.659, 87.071
1200.881, 64.660
1202.104, 131.176
1203.326, 92.676
1204.548, 23.159
1205.770, 41.610
1206.991, 71.892
1208.213, 32.385
1209.434, 72.787
1210.655, 85.174
1211.876, 114.002
1213.096, 81.235
1214.317, 95.779
1215.537, 77.315
1216.757, 62.757
1217.977, 100.830
1219.197, 80.857
1220.417, 129.026
1221.636, 115.615
1222.855, 50.928
1224.074, 99.712
1225.293, 76.404
1226.512, 61.571
1227.731, 99.149
1228.949, 69.417
1230.167, 51.543
1231.385, 66.493
1232.603, 116.580
1233.820, 47.616
1235.038, 91.834
1236.255, 81.339
1237.472, 3.034
1238.689, 57.960
1239.906, 74.687
1241.122, 74.569
1242.338, 52.228
1243.555, 122.118
1244.771, 82.013
1245.986, 91.919
1247.202, 62.494
1248.417, 65.289
1249.633, 115.030
1250.848, 68.792
1252.063, 96.479
1253.277, 81.663
1254.492, 115.366
1255.706, 111.054
1256.920, 76.473
1258.134, 124.448
1259.348, 89.909
1260.562, 58.816
1261.775, 57.301
1262.988, 68.845
1264.201, 7.389
1265.414, 11.906
1266.627, 70.392
1267.839, 53.861
1269.052, 89.291
1270.264, 84.697
1271.476, 62.087
1272.688, 100.457
1273.899, 122.825
1275.111, 29.129
1276.322, 16.382
1277.533, 49.570
1278.744, 45.426
1279.955, 26.632
1281.165, 75.875
1282.376, 32.847
1283.586, 43.996
1284.796, 5.878
1286.006, 47.350
1287.215, 0.491
1288.425, 61.895
1289.634, 4.943
1290.843, 50.970
1292.052, 4.020
1293.261, 49.038
1294.469, 51.007
1295.678, 44.042
1296.886, 77.874
1298.094, 70.773
1299.302, 2.653
1300.509, 94.509
1301.717, 59.347
1302.924, 33.169
1304.131, 30.971
1305.338, 52.753
1306.545, 30.517
1307.752, 39.739
1308.958, 2.969
1310.164, 24.689
1311.370, 5.646
1312.576, 48.994
1313.782, 18.617
1314.987, 20.218
1316.193, 50.800
1317.398, 60.365
1318.603, 56.729
1319.807, 111.442
1321.012, 34.955
1322.216, 87.450
1323.421, 60.979
1324.625, 61.440
1325.829, 112.885
1327.032, 83.313
1328.236, 86.726
1329.439, 94.124
1330.642, 76.506
1331.845, 68.874
1333.048, 67.227
1334.251, 96.564
1335.453, 108.888
1336.656, 89.150
1337.858, 113.430
1339.060, 90.630
1340.261, 121.990
1341.463, 124.742
1342.664, 99.839
1343.866, 112.879
1345.067, 75.033
1346.267, 113.000
1347.468, 123.188
1348.669, 118.311
1349.869, 92.826
1351.069, 95.478
1352.269, 45.421
1353.469, 99.306
1354.668, 71.249
1355.868, 19.263
1357.067, 86.361
1358.266, 48.320
1359.465, 94.341
1360.664, 44.267
1361.862, 78.019
1363.061, 101.042
1364.259, 61.963
1365.457, 41.643
1366.655, 71.684
1367.852, 58.220
1369.050, 50.820
1370.247, 87.745
1371.444, 43.347
1372.641, 61.252
1373.838, 91.984
1375.035, 19.410
1376.231, 38.069
1377.427, 91.952
1378.623, 45.320
1379.819, 46.116
1381.015, 101.893
1382.211, 55.284
1383.406, 90.895
1384.601, 73.233
1385.796, 75.522
1386.991, 35.019
1388.185, 58.315
1389.380, 70.757
1390.574, 63.704
1391.768, 71.748
1392.962, 68.170
1394.156, 85.469
1395.350, 70.641
1396.543, 100.209
1397.736, 111.249
1398.929, 87.547
1400.122, 94.891
1401.315, 76.333
1402.507, 61.192
1403.700, 131.549
1404.892, 110.315
1406.084, 131.035
1407.276, 115.255
1408.467, 120.978
1409.659, 78.906
1410.850, 96.664
1412.041, 112.503
1413.232, 85.879
1414.423, 96.828
1415.614, 54.897
1416.804, 49.177
1417.994, 98.320
1419.184, 119.170
1420.374, 134.896
1421.564, 68.657
1422.753, 80.106
1423.943, 28.434
1425.132, 57.016
1426.321, 45.760
1427.510, 82.281
1428.698, 57.924
1429.887, 27.356
1431.075, 46.047
1432.263, 59.717
1433.451, 93.373
1434.639, 91.019
1435.827, 20.567
1437.014, 90.186
1438.201, 72.799
1439.388, 127.094
1440.575, 56.611
1441.762, 89.391
1442.949, 127.705
1444.135, 52.922
1445.321, 57.310
1446.507, 71.398
1447.693, 118.494
1448.879, 65.668
1450.064, 67.984
1451.250, 74.283
1452.435, 21.448
1453.620, 77.604
1454.805, 61.879
1455.989, 48.275
1457.174, 120.130
1458.358, 50.346
1459.542, 75.564
1460.726, 53.769
1461.910, 71.002
1463.093, 38.196
1464.277, 82.304
1465.460, 11.471
1466.643, 54.671
1467.826, 27.904
1469.009, 22.185
1470.191, 113.525
1471.373, 66.700
1472.556, 59.163
1473.738, 46.887
1474.919, 35.299
1476.101, 33.403
1477.283, 32.371
1478.464, 30.832
1479.645, 27.381
1480.826, 28.690
1482.007, 1.781
1483.187, 16.343
1484.368, 55.302
1485.548, 43.866
1486.728, 30.451
1487.908, 58.058
