##NAMES=Atacamite
##RRUFFID=R050098
##IDEAL CHEMISTRY=Cu^2+^_2_Cl(OH)_3_
##LOCALITY=La Farola mine, Tierra Amarilla, Atacama, Chile
##OWNER=RRUFF
##SOURCE=Rock Currier
##DESCRIPTION=Green prismatic single crystals
##STATUS=The identification of this mineral has been confirmed by X-ray diffraction and chemical analysis
##URL=rruff.info/R050098
##MEASURED CHEMISTRY=Cu_2.00_Cl_1.00_(OH)_3_
##PIN_ID=M00220
##ORIENTATION=Laser parallel to -b* (0 -1 0). Fiducial mark perpendicular to laser is parallel to c [0 0 1]
54.966, 0.000
56.365, 75.925
57.765, 230.599
59.164, 238.594
60.563, 301.071
61.962, 278.298
63.360, 56.914
64.758, 6.874
66.157, 27.665
67.554, 91.173
68.952, 1.093
70.349, 40.947
71.747, 16.601
73.144, 92.780
74.540, 125.669
75.937, 188.696
77.333, 289.525
78.729, 384.839
80.125, 745.348
81.521, 1068.806
82.916, 1562.013
84.311, 2140.791
85.706, 2748.979
87.101, 3571.430
88.496, 4369.012
89.890, 5278.594
91.284, 6118.073
92.678, 6899.342
94.071, 7750.309
95.465, 8465.887
96.858, 9236.996
98.251, 9982.527
99.644, 10711.268
101.036, 11607.348
102.428, 12188.447
103.820, 12828.600
105.212, 13586.789
106.604, 14591.003
107.995, 15764.230
109.387, 17977.996
110.777, 20453.988
112.168, 23461.832
113.559, 26905.881
114.949, 30713.781
116.339, 34616.512
117.729, 37983.031
119.119, 41603.297
120.508, 44047.312
121.897, 42706.027
123.286, 39216.438
124.675, 33575.504
126.063, 29488.207
127.452, 26995.543
128.840, 25733.480
130.228, 25985.006
131.615, 26510.109
133.003, 27865.766
134.390, 28430.969
135.777, 29627.695
137.164, 30424.947
138.550, 32951.590
139.937, 34043.277
141.323, 34346.000
142.709, 32807.730
144.094, 32168.449
145.480, 31864.211
146.865, 32510.125
148.250, 33305.223
149.635, 34046.609
151.019, 33331.395
152.403, 29535.684
153.788, 24044.562
155.171, 18359.070
156.555, 14696.182
157.939, 11773.895
159.322, 9978.214
160.705, 9058.200
162.088, 8230.754
163.470, 7771.769
164.853, 7438.166
166.235, 7181.830
167.617, 6971.701
168.998, 6948.784
170.380, 6784.078
171.761, 6571.584
173.142, 6353.307
174.523, 6490.242
175.904, 6298.392
177.284, 6159.757
178.664, 6049.340
180.044, 5861.133
181.424, 5777.141
182.803, 5685.431
184.183, 5516.792
185.562, 5526.435
186.940, 5503.288
188.319, 5373.351
189.698, 5274.621
191.076, 5240.917
192.454, 5183.778
193.831, 5115.664
195.209, 5033.750
196.586, 4895.036
197.963, 4815.519
199.340, 4811.198
200.717, 4790.073
202.093, 4753.138
203.470, 4693.395
204.846, 4712.843
206.221, 4758.477
207.597, 4734.300
208.972, 4670.311
210.347, 4293.507
211.722, 4167.888
213.097, 4174.454
214.472, 4003.204
215.846, 4120.136
217.220, 3935.249
218.594, 3957.544
219.967, 4024.017
221.341, 3946.297
222.714, 3940.354
224.087, 3935.752
225.460, 3902.698
226.832, 3911.058
228.204, 3866.899
229.577, 3765.559
230.948, 3770.426
232.320, 3667.082
233.692, 3584.594
235.063, 3553.244
236.434, 3465.435
237.805, 3344.975
239.175, 3272.120
240.545, 3148.705
241.916, 3154.440
243.286, 2932.935
244.655, 2919.554
246.025, 2746.723
247.394, 2716.627
248.763, 2585.278
250.132, 2453.602
251.501, 2492.411
252.869, 2327.780
254.237, 2349.443
255.605, 2300.883
256.973, 2083.101
258.340, 2184.824
259.708, 2100.363
261.075, 2142.290
262.442, 1944.658
263.808, 1923.336
265.175, 1877.407
266.541, 1954.746
267.907, 1905.792
269.273, 1823.278
270.639, 1835.070
272.004, 1747.076
273.369, 1691.260
274.734, 1587.522
276.099, 1548.333
277.463, 1407.327
278.828, 1550.500
280.192, 1361.847
281.556, 1194.366
282.919, 1315.052
284.283, 1211.902
285.646, 1220.913
287.009, 1149.082
288.372, 1047.404
289.734, 1045.308
291.097, 1085.498
292.459, 989.265
293.821, 1019.174
295.183, 1010.223
296.544, 968.409
297.905, 875.729
299.266, 895.182
300.627, 838.764
301.988, 859.474
303.348, 827.309
304.709, 781.270
306.069, 789.355
307.428, 762.344
308.788, 748.904
310.147, 736.367
311.507, 710.049
312.865, 722.667
314.224, 667.501
315.583, 615.456
316.941, 599.530
318.299, 606.720
319.657, 535.022
321.015, 590.436
322.372, 446.957
323.729, 531.583
325.086, 450.310
326.443, 482.137
327.800, 388.061
329.156, 455.080
330.512, 456.192
331.868, 350.399
333.224, 456.697
334.579, 458.086
335.935, 353.565
337.290, 505.133
338.645, 404.789
339.999, 449.532
341.354, 453.361
342.708, 536.275
344.062, 409.280
345.416, 360.370
346.769, 423.556
348.123, 491.859
349.476, 329.253
350.829, 357.748
352.182, 404.344
353.534, 395.034
354.887, 353.821
356.239, 261.701
357.591, 339.684
358.942, 229.770
360.294, 258.959
361.645, 257.258
362.996, 247.666
364.347, 258.190
365.698, 229.831
367.048, 231.579
368.398, 244.437
369.748, 225.241
371.098, 189.416
372.448, 218.554
373.797, 245.780
375.146, 264.131
376.495, 348.564
377.844, 476.082
379.192, 368.685
380.540, 531.396
381.889, 457.179
383.236, 622.036
384.584, 590.020
385.932, 617.124
387.279, 636.347
388.626, 603.147
389.973, 586.289
391.319, 525.751
392.666, 493.493
394.012, 391.370
395.358, 327.371
396.704, 241.513
398.049, 205.761
399.394, 140.567
400.740, 31.553
402.084, 39.103
403.429, 61.255
404.774, 113.538
406.118, 82.783
407.462, 149.983
408.806, 197.165
410.150, 202.353
411.493, 246.199
412.836, 246.785
414.179, 269.049
415.522, 266.365
416.865, 233.720
418.207, 261.117
419.549, 223.566
420.891, 272.055
422.233, 232.610
423.575, 254.213
424.916, 346.878
426.257, 234.649
427.598, 233.479
428.939, 201.368
430.279, 124.302
431.619, 144.254
432.959, 65.449
434.299, 77.208
435.639, 36.812
436.978, 81.876
438.318, 101.988
439.657, 262.149
440.996, 422.357
442.334, 652.610
443.673, 863.907
445.011, 1047.247
446.349, 1424.631
447.687, 1390.057
449.024, 1737.521
450.361, 1787.028
451.699, 1644.572
453.036, 1506.154
454.372, 1392.773
455.709, 1320.429
457.045, 1030.121
458.381, 983.846
459.717, 739.605
461.053, 682.398
462.388, 655.223
463.724, 641.079
465.059, 675.966
466.394, 615.882
467.728, 596.828
469.063, 664.802
470.397, 639.804
471.731, 637.833
473.065, 780.888
474.398, 720.968
475.732, 991.072
477.065, 927.200
478.398, 1039.352
479.731, 1228.525
481.063, 1390.720
482.396, 1488.936
483.728, 1776.172
485.060, 2013.427
486.391, 2204.701
487.723, 2560.994
489.054, 2947.304
490.385, 3345.631
491.716, 3865.975
493.047, 4471.832
494.377, 5067.706
495.708, 5919.093
497.038, 6699.496
498.368, 7612.911
499.697, 8720.336
501.027, 10117.775
502.356, 11546.226
503.685, 13008.080
505.014, 15143.886
506.342, 16677.199
507.671, 19006.982
508.999, 20659.703
510.327, 22594.672
511.655, 23523.271
512.982, 24294.260
514.310, 24589.365
515.637, 23623.621
516.964, 22539.500
518.291, 20581.553
519.617, 18845.773
520.944, 16745.234
522.270, 14380.376
523.596, 12972.895
524.921, 11037.160
526.247, 9677.666
527.572, 8426.059
528.897, 7373.251
530.222, 6689.143
531.547, 5867.627
532.871, 5293.865
534.196, 4605.723
535.520, 4140.128
536.844, 3781.750
538.167, 3436.093
539.491, 3100.056
540.814, 2883.585
542.137, 2597.655
543.460, 2377.518
544.783, 2282.238
546.105, 2014.048
547.427, 1990.978
548.749, 1867.080
550.071, 1721.224
551.393, 1809.330
552.714, 1756.662
554.035, 1570.012
555.356, 1602.721
556.677, 1515.222
557.998, 1546.615
559.318, 1593.160
560.638, 1644.867
561.958, 1615.796
563.278, 1608.478
564.597, 1689.610
565.917, 1652.250
567.236, 1727.587
568.555, 1743.001
569.874, 1728.963
571.192, 1916.048
572.511, 1999.437
573.829, 2042.704
575.147, 2074.938
576.464, 2265.872
577.782, 2393.617
579.099, 2565.340
580.416, 2631.880
581.733, 2759.601
583.050, 2913.822
584.366, 2927.942
585.683, 3119.754
586.999, 2926.594
588.315, 2848.236
589.630, 2959.497
590.946, 2607.408
592.261, 2441.108
593.576, 2199.871
594.891, 1955.805
596.206, 1692.961
597.520, 1540.560
598.834, 1361.795
600.148, 1217.002
601.462, 993.182
602.776, 865.333
604.089, 760.586
605.402, 654.679
606.715, 588.252
608.028, 528.499
609.341, 501.778
610.653, 445.751
611.965, 449.693
613.277, 404.604
614.589, 460.483
615.901, 343.332
617.212, 486.147
618.523, 385.931
619.834, 450.683
621.145, 489.401
622.456, 515.086
623.766, 615.738
625.076, 627.357
626.386, 609.942
627.696, 524.492
629.006, 418.009
630.315, 401.672
631.624, 334.938
632.933, 324.351
634.242, 352.728
635.551, 317.070
636.859, 327.376
638.167, 265.646
639.475, 305.904
640.783, 335.081
642.090, 376.243
643.398, 437.368
644.705, 485.458
646.012, 422.511
647.318, 407.526
648.625, 464.504
649.931, 411.445
651.237, 442.348
652.543, 371.215
653.849, 292.043
655.155, 285.833
656.460, 281.585
657.765, 253.300
659.070, 232.917
660.375, 87.614
661.679, 149.199
662.984, 38.742
664.288, 57.782
665.592, 54.582
666.895, 2.885
668.199, 7.894
669.502, 20.241
670.805, 0.696
672.108, 13.284
673.411, 29.811
674.713, 33.125
676.016, 36.295
677.318, 72.686
678.620, 68.197
679.921, 106.825
681.223, 103.589
682.524, 76.487
683.825, 91.504
685.126, 9.649
686.427, 21.876
687.727, 80.194
689.028, 29.631
690.328, 168.159
691.628, 18.853
692.927, 23.631
694.227, 36.497
695.526, 127.455
696.825, 5.447
698.124, 4.721
699.423, 2.963
700.721, 49.723
702.020, 42.357
703.318, 33.938
704.616, 25.465
705.913, 21.506
707.211, 64.649
708.508, 6.334
709.805, 7.913
711.102, 47.900
712.399, 30.200
713.695, 31.249
714.992, 87.249
716.288, 23.794
717.584, 46.093
718.879, 39.064
720.175, 21.715
721.470, 68.473
722.765, 9.209
724.060, 31.930
725.355, 30.650
726.649, 73.372
727.944, 9.889
729.238, 120.851
730.532, 31.382
731.825, 78.381
733.119, 38.163
734.412, 16.967
735.705, 72.783
736.998, 31.627
738.291, 59.504
739.584, 57.185
740.876, 69.314
742.168, 55.274
743.460, 18.258
744.752, 28.256
746.043, 53.254
747.334, 51.258
748.626, 108.253
749.916, 9.755
751.207, 82.202
752.498, 36.127
753.788, 104.019
755.078, 110.882
756.368, 137.715
757.658, 112.520
758.947, 57.295
760.237, 207.041
761.526, 126.759
762.815, 203.449
764.104, 242.111
765.392, 204.747
766.680, 233.355
767.969, 179.937
769.257, 345.493
770.544, 282.022
771.832, 281.526
773.119, 376.004
774.406, 336.458
775.693, 374.886
776.980, 334.290
778.267, 401.670
779.553, 387.027
780.839, 418.360
782.125, 444.670
783.411, 469.958
784.697, 437.222
785.982, 489.465
787.267, 547.687
788.552, 584.886
789.837, 546.064
791.122, 660.222
792.406, 639.359
793.690, 735.477
794.974, 762.574
796.258, 809.651
797.542, 916.709
798.825, 967.749
800.108, 1112.770
801.391, 1130.773
802.674, 1210.757
803.957, 1480.724
805.239, 1547.673
806.522, 1846.605
807.804, 1886.521
809.085, 2299.419
810.367, 2575.302
811.649, 2905.168
812.930, 3298.020
814.211, 3717.855
815.492, 4030.284
816.772, 4325.753
818.053, 4502.713
819.333, 4554.201
820.613, 4379.741
821.893, 4243.031
823.173, 3727.680
824.452, 3379.941
825.732, 3225.074
827.011, 2772.049
828.290, 2363.396
829.568, 2265.561
830.847, 1975.555
832.125, 1866.295
833.403, 1732.353
834.681, 1509.024
835.959, 1486.941
837.236, 1450.606
838.514, 1475.379
839.791, 1509.345
841.068, 1470.599
842.345, 1487.253
843.621, 1591.151
844.898, 1408.422
846.174, 1315.137
847.450, 1262.625
848.726, 1030.383
850.001, 892.511
851.277, 871.064
852.552, 791.064
853.827, 763.492
855.102, 664.592
856.376, 772.822
857.651, 767.919
858.925, 842.833
860.199, 755.692
861.473, 821.577
862.746, 800.221
864.020, 922.835
865.293, 688.075
866.566, 671.508
867.839, 686.035
869.112, 594.395
870.384, 567.577
871.656, 491.522
872.928, 442.970
874.200, 480.598
875.472, 529.963
876.744, 479.435
878.015, 528.437
879.286, 516.470
880.557, 561.023
881.828, 510.090
883.098, 587.017
884.369, 670.965
885.639, 688.709
886.909, 778.125
888.178, 753.318
889.448, 925.126
890.717, 993.606
891.987, 1133.377
893.256, 1192.165
894.524, 1448.095
895.793, 1585.942
897.061, 1916.487
898.330, 2300.173
899.598, 2765.102
900.865, 3414.055
902.133, 4146.311
903.401, 4966.545
904.668, 5953.791
905.935, 6779.798
907.202, 7243.185
908.468, 7304.590
909.735, 7104.040
911.001, 6426.510
912.267, 5550.875
913.533, 4823.395
914.799, 4142.958
916.064, 3379.562
917.330, 2986.208
918.595, 2377.884
919.860, 2020.584
921.124, 1709.305
922.389, 1600.062
923.653, 1301.855
924.918, 1179.672
926.182, 1094.530
927.445, 1015.428
928.709, 893.351
929.972, 862.322
931.236, 823.335
932.499, 862.389
933.761, 837.468
935.024, 732.582
936.286, 646.741
937.549, 732.924
938.811, 694.132
940.073, 760.380
941.334, 681.651
942.596, 669.946
943.857, 798.266
945.118, 696.609
946.379, 666.977
947.640, 763.374
948.900, 864.832
950.161, 834.307
951.421, 840.798
952.681, 865.314
953.940, 961.854
955.200, 1012.419
956.459, 1025.014
957.719, 1204.633
958.978, 1309.278
960.236, 1447.951
961.495, 1476.650
962.753, 1719.375
964.012, 1898.132
965.270, 2093.922
966.527, 2601.746
967.785, 3040.607
969.043, 3644.499
970.300, 4368.430
971.557, 5184.422
972.814, 5798.453
974.071, 6157.532
975.327, 6179.658
976.583, 5605.827
977.840, 4972.045
979.095, 4385.310
980.351, 3682.625
981.607, 3260.998
982.862, 2877.429
984.117, 2568.925
985.372, 2600.487
986.627, 2327.123
987.882, 2436.833
989.136, 2465.610
990.390, 2328.457
991.644, 2470.353
992.898, 2403.300
994.152, 2576.822
995.405, 2592.889
996.659, 2636.461
997.912, 2802.710
999.165, 2937.966
1000.417, 2986.274
1001.670, 3011.660
1002.922, 3002.792
1004.174, 2962.560
1005.426, 2918.073
1006.678, 2791.621
1007.930, 2791.202
1009.181, 2778.816
1010.432, 2539.466
1011.683, 2583.152
1012.934, 2479.893
1014.185, 2432.675
1015.435, 2385.495
1016.685, 2230.365
1017.935, 2175.268
1019.185, 2195.203
1020.435, 2126.164
1021.684, 1969.285
1022.934, 1912.319
1024.183, 1913.398
1025.432, 1794.510
1026.680, 1733.648
1027.929, 1634.819
1029.177, 1537.019
1030.425, 1487.247
1031.673, 1424.735
1032.921, 1318.147
1034.169, 1276.628
1035.416, 1207.980
1036.663, 1174.358
1037.911, 1097.104
1039.157, 983.581
1040.404, 932.707
1041.650, 878.634
1042.897, 900.410
1044.143, 783.777
1045.389, 783.592
1046.634, 792.189
1047.880, 602.803
1049.125, 670.494
1050.371, 562.954
1051.615, 625.212
1052.860, 529.827
1054.105, 544.938
1055.349, 442.644
1056.593, 420.672
1057.837, 436.500
1059.081, 333.630
1060.325, 310.046
1061.568, 238.701
1062.812, 253.658
1064.055, 210.939
1065.298, 215.837
1066.540, 105.612
1067.783, 101.305
1069.025, 127.496
1070.267, 198.683
1071.509, 161.078
1072.751, 79.342
1073.993, 103.616
1075.234, 88.457
1076.475, 25.242
1077.716, 117.883
1078.957, 62.444
1080.198, 106.134
1081.438, 169.711
1082.679, 119.808
1083.919, 138.723
1085.159, 143.291
1086.398, 141.792
1087.638, 76.430
1088.877, 24.617
1090.116, 110.069
1091.355, 55.415
1092.594, 146.016
1093.833, 64.358
1095.071, 42.869
1096.309, 16.436
1097.547, 4.525
1098.785, 0.130
1100.023, 29.624
1101.260, 35.929
1102.498, 126.217
1103.735, 29.695
1104.972, 122.242
1106.208, 53.554
1107.445, 87.117
1108.681, 53.318
1109.918, 119.813
1111.154, 55.359
1112.389, 88.352
1113.625, 94.771
1114.860, 50.455
1116.096, 111.392
1117.331, 79.092
1118.566, 103.583
1119.800, 88.163
1121.035, 71.550
1122.269, 152.942
1123.503, 206.338
1124.737, 173.737
1125.971, 154.231
1127.205, 143.691
1128.438, 43.100
1129.671, 74.512
1130.904, 74.932
1132.137, 138.347
1133.370, 64.764
1134.602, 62.181
1135.834, 41.599
1137.066, 40.016
1138.298, 70.434
1139.530, 31.851
1140.762, 81.268
1141.993, 66.303
1143.224, 70.094
1144.455, 27.510
1145.686, 4.122
1146.917, 75.358
1148.147, 9.739
1149.377, 26.116
1150.607, 38.489
1151.837, 115.856
1153.067, 44.219
1154.296, 55.576
1155.526, 42.928
1156.755, 22.273
1157.984, 32.372
1159.213, 18.947
1160.441, 56.274
1161.670, 79.593
1162.898, 62.623
1164.126, 78.181
1165.354, 42.507
1166.581, 48.796
1167.809, 49.076
1169.036, 6.652
1170.263, 25.609
1171.490, 70.860
1172.717, 55.103
1173.943, 43.334
1175.170, 60.557
1176.396, 15.769
1177.622, 31.970
1178.848, 8.839
1180.073, 30.663
1181.299, 5.508
1182.524, 34.633
1183.749, 4.762
1184.974, 30.122
1186.199, 0.969
1187.423, 14.918
1188.648, 8.861
1189.872, 3.606
1191.096, 31.712
1192.320, 1.720
1193.543, 13.256
1194.767, 18.217
1195.990, 8.289
1197.213, 24.903
1198.436, 36.002
1199.659, 40.101
1200.881, 62.280
1202.104, 6.511
1203.326, 89.769
1204.548, 31.905
1205.770, 88.437
1206.991, 4.150
1208.213, 14.286
1209.434, 1.753
1210.655, 69.249
1211.876, 61.807
1213.096, 74.426
1214.317, 8.111
1215.537, 1.170
1216.757, 27.422
1217.977, 34.344
1219.197, 41.160
1220.417, 28.972
1221.636, 50.849
1222.855, 48.794
1224.074, 22.201
1225.293, 74.826
1226.512, 43.927
1227.731, 41.086
1228.949, 17.698
1230.167, 12.546
1231.385, 53.832
1232.603, 38.816
1233.820, 35.443
1235.038, 28.954
1236.255, 50.596
1237.472, 66.124
1238.689, 43.633
1239.906, 72.119
1241.122, 54.585
1242.338, 21.025
1243.555, 92.428
1244.771, 9.235
1245.986, 6.091
1247.202, 103.399
1248.417, 136.683
1249.633, 75.947
1250.848, 29.173
1252.063, 117.360
1253.277, 72.526
1254.492, 41.669
1255.706, 84.789
1256.920, 80.888
1258.134, 24.964
1259.348, 17.013
1260.562, 34.020
1261.775, 28.905
1262.988, 72.985
1264.201, 100.924
1265.414, 89.841
1266.627, 189.735
1267.839, 169.606
1269.052, 207.456
1270.264, 166.282
1271.476, 113.085
1272.688, 122.865
1273.899, 146.622
1275.111, 144.354
1276.322, 137.063
1277.533, 185.748
1278.744, 173.409
1279.955, 171.045
1281.165, 178.657
1282.376, 166.177
1283.586, 148.805
1284.796, 154.341
1286.006, 145.852
1287.215, 143.337
1288.425, 182.286
1289.634, 149.719
1290.843, 221.710
1292.052, 125.046
1293.261, 172.400
1294.469, 190.729
1295.678, 208.031
1296.886, 238.308
1298.094, 260.560
1299.302, 199.786
1300.509, 191.987
1301.717, 196.164
1302.924, 226.316
1304.131, 221.444
1305.338, 240.548
1306.545, 207.628
1307.752, 229.685
1308.958, 250.719
1310.164, 277.730
1311.370, 260.719
1312.576, 276.686
1313.782, 261.865
1314.987, 230.437
1316.193, 230.337
1317.398, 260.215
1318.603, 254.072
1319.807, 281.907
1321.012, 270.075
1322.216, 268.512
1323.421, 249.283
1324.625, 240.798
1325.829, 236.403
1327.032, 244.942
1328.236, 238.627
1329.439, 193.290
1330.642, 179.591
1331.845, 151.167
1333.048, 211.098
1334.251, 138.233
1335.453, 168.522
1336.656, 244.227
1337.858, 201.485
1339.060, 168.967
1340.261, 241.438
1341.463, 180.836
1342.664, 182.471
1343.866, 144.312
1345.067, 191.799
1346.267, 172.801
1347.468, 176.210
1348.669, 153.302
1349.869, 177.886
1351.069, 165.596
1352.269, 219.311
1353.469, 193.791
1354.668, 205.973
1355.868, 179.835
1357.067, 171.777
1358.266, 151.202
1359.465, 157.923
1360.664, 134.892
1361.862, 139.869
1363.061, 183.461
1364.259, 135.554
1365.457, 90.943
1366.655, 141.289
1367.852, 185.696
1369.050, 136.364
1370.247, 113.009
1371.444, 165.534
1372.641, 149.178
1373.838, 169.313
1375.035, 109.644
1376.231, 123.293
1377.427, 127.006
1378.623, 124.780
1379.819, 131.621
1381.015, 159.389
1382.211, 153.271
1383.406, 187.908
1384.601, 204.827
1385.796, 211.691
1386.991, 159.885
1388.185, 137.938
1389.380, 114.053
1390.574, 149.017
1391.768, 179.050
1392.962, 209.821
1394.156, 168.961
1395.350, 183.822
1396.543, 177.358
1397.736, 151.063
1398.929, 158.941
1400.122, 152.469
1401.315, 148.406
1402.507, 156.146
1403.700, 170.850
1404.892, 173.291
1406.084, 165.127
1407.276, 156.699
1408.467, 179.218
1409.659, 157.723
1410.850, 136.067
1412.041, 179.485
1413.232, 163.858
1414.423, 150.186
1415.614, 106.469
1416.804, 174.707
1417.994, 132.899
1419.184, 211.044
1420.374, 156.143
1421.564, 179.195
1422.753, 127.201
1423.943, 185.159
1425.132, 147.067
1426.321, 210.929
1427.510, 184.759
1428.698, 104.542
1429.887, 189.244
1431.075, 184.832
1432.263, 141.517
1433.451, 90.168
1434.639, 109.770
1435.827, 178.304
1437.014, 177.934
1438.201, 227.604
1439.388, 253.312
1440.575, 258.042
1441.762, 256.796
1442.949, 317.659
1444.135, 340.561
1445.321, 318.460
1446.507, 435.291
1447.693, 369.307
1448.879, 405.380
1450.064, 415.577
1451.250, 348.818
1452.435, 372.145
1453.620, 405.488
1454.805, 406.844
1455.989, 349.182
1457.174, 444.539
1458.358, 361.929
1459.542, 431.321
1460.726, 459.737
1461.910, 410.229
1463.093, 372.708
1464.277, 323.172
1465.460, 327.619
1466.643, 401.054
1467.826, 276.478
1469.009, 282.895
1470.191, 195.309
1471.373, 179.721
1472.556, 224.138
1473.738, 261.562
1474.919, 252.001
1476.101, 195.459
1477.283, 161.941
1478.464, 170.456
1479.645, 124.011
1480.826, 189.610
1482.007, 179.260
1483.187, 248.960
