##NAMES=Atacamite
##RRUFFID=R050098
##IDEAL CHEMISTRY=Cu^2+^_2_Cl(OH)_3_
##LOCALITY=La Farola mine, Tierra Amarilla, Atacama, Chile
##OWNER=RRUFF
##SOURCE=Rock Currier
##DESCRIPTION=Green prismatic single crystals
##STATUS=The identification of this mineral has been confirmed by X-ray diffraction and chemical analysis
##URL=rruff.info/R050098
##MEASURED CHEMISTRY=Cu_2.00_Cl_1.00_(OH)_3_
##PIN_ID=M00116
##ORIENTATION=Laser parallel to -a* (-1 0 0). Fiducial mark perpendicular to laser is parallel to b [0 1 0]
54.966, 0.000
56.365, 53.775
57.765, 180.180
59.164, 251.088
60.563, 301.639
61.962, 483.903
63.360, 357.216
64.758, 172.409
66.157, 26.400
67.554, 46.251
68.952, 74.052
70.349, 18.492
71.747, 65.014
73.144, 97.980
74.540, 128.132
75.937, 334.122
77.333, 536.656
78.729, 855.450
80.125, 1393.239
81.521, 1880.799
82.916, 2558.945
84.311, 3159.521
85.706, 3950.379
87.101, 5010.386
88.496, 5946.417
89.890, 6830.360
91.284, 7597.112
92.678, 8512.574
94.071, 9074.660
95.465, 9863.290
96.858, 10183.388
98.251, 10605.851
99.644, 11176.556
101.036, 11375.396
102.428, 11727.289
103.820, 12122.182
105.212, 12748.047
106.604, 13359.883
107.995, 14833.686
109.387, 17239.455
110.777, 20841.176
112.168, 26483.816
113.559, 31512.320
114.949, 36331.672
116.339, 40107.824
117.729, 42074.746
119.119, 43189.414
120.508, 43825.773
121.897, 42135.836
123.286, 38798.559
124.675, 33067.918
126.063, 29223.908
127.452, 26854.498
128.840, 25553.668
130.228, 26171.410
131.615, 27438.703
133.003, 29683.537
134.390, 30244.889
135.777, 30981.744
137.164, 30438.107
138.550, 31219.854
139.937, 32157.680
141.323, 33638.578
142.709, 33928.504
144.094, 34654.461
145.480, 35313.371
146.865, 35304.367
148.250, 34131.527
149.635, 32726.887
151.019, 31030.520
152.403, 27686.564
153.788, 22657.143
155.171, 17383.324
156.555, 13828.105
157.939, 10943.557
159.322, 9279.667
160.705, 8177.406
162.088, 7389.717
163.470, 7100.570
164.853, 6762.950
166.235, 6616.677
167.617, 6512.642
168.998, 6224.798
170.380, 6105.147
171.761, 6017.689
173.142, 5813.428
174.523, 5858.363
175.904, 5627.492
177.284, 5550.818
178.664, 5463.341
180.044, 5290.061
181.424, 5191.976
182.803, 5165.083
184.183, 5121.384
185.562, 5032.668
186.940, 5013.565
188.319, 4881.446
189.698, 4781.514
191.076, 4718.774
192.454, 4554.221
193.831, 4597.855
195.209, 4492.674
196.586, 4512.675
197.963, 4251.857
199.340, 4415.218
200.717, 4400.758
202.093, 4218.477
203.470, 4330.368
204.846, 4253.435
206.221, 4236.675
207.597, 4218.090
208.972, 4143.677
210.347, 3818.434
211.722, 3747.360
213.097, 3689.456
214.472, 3508.721
215.846, 3483.151
217.220, 3465.747
218.594, 3375.507
219.967, 3353.430
221.341, 3315.011
222.714, 3261.910
224.087, 3213.798
225.460, 3162.802
226.832, 3108.777
228.204, 3075.542
229.577, 3076.733
230.948, 3082.931
232.320, 2916.125
233.692, 2913.826
235.063, 2930.513
236.434, 2721.057
237.805, 2716.999
239.175, 2598.815
240.545, 2590.053
241.916, 2662.921
243.286, 2453.134
244.655, 2340.833
246.025, 2384.926
247.394, 2213.934
248.763, 2233.176
250.132, 2131.444
251.501, 2180.412
252.869, 2081.729
254.237, 2176.726
255.605, 2079.234
256.973, 2074.623
258.340, 2084.185
259.708, 2082.193
261.075, 2077.404
262.442, 2057.218
263.808, 2031.977
265.175, 1959.479
266.541, 1928.092
267.907, 1945.190
269.273, 1896.673
270.639, 1807.453
272.004, 1784.340
273.369, 1650.724
274.734, 1642.401
276.099, 1523.973
277.463, 1405.252
278.828, 1409.698
280.192, 1300.307
281.556, 1159.075
282.919, 1205.999
284.283, 1110.075
285.646, 1183.299
287.009, 1044.669
288.372, 998.182
289.734, 1081.833
291.097, 921.622
292.459, 863.543
293.821, 952.596
295.183, 784.775
296.544, 825.082
297.905, 726.510
299.266, 695.059
300.627, 779.726
301.988, 693.508
303.348, 684.404
304.709, 604.414
306.069, 595.537
307.428, 622.773
308.788, 650.123
310.147, 534.587
311.507, 647.166
312.865, 511.856
314.224, 515.662
315.583, 427.578
316.941, 545.603
318.299, 553.732
319.657, 474.964
321.015, 451.301
322.372, 396.734
323.729, 438.264
325.086, 481.885
326.443, 383.594
327.800, 342.389
329.156, 388.267
330.512, 284.226
331.868, 301.266
333.224, 335.385
334.579, 400.583
335.935, 309.858
337.290, 355.209
338.645, 379.640
339.999, 380.165
341.354, 399.244
342.708, 367.454
344.062, 409.228
345.416, 419.087
346.769, 435.042
348.123, 463.088
349.476, 476.887
350.829, 419.459
352.182, 512.789
353.534, 467.214
354.887, 470.742
356.239, 539.364
357.591, 529.067
358.942, 526.853
360.294, 548.717
361.645, 452.674
362.996, 457.715
364.347, 497.847
365.698, 299.078
367.048, 403.400
368.398, 244.824
369.748, 302.341
371.098, 239.933
372.448, 222.610
373.797, 250.359
375.146, 224.182
376.495, 356.061
377.844, 390.993
379.192, 416.982
380.540, 517.044
381.889, 476.160
383.236, 639.335
384.584, 757.605
385.932, 768.976
387.279, 815.443
388.626, 825.006
389.973, 829.670
391.319, 734.439
392.666, 762.316
394.012, 634.299
395.358, 594.400
396.704, 506.823
398.049, 379.950
399.394, 375.371
400.740, 92.883
402.084, 166.478
403.429, 3.148
404.774, 26.117
406.118, 2.672
407.462, 75.479
408.806, 129.601
410.150, 166.718
411.493, 217.849
412.836, 203.016
414.179, 241.216
415.522, 320.470
416.865, 188.805
418.207, 275.177
419.549, 307.626
420.891, 290.167
422.233, 286.790
423.575, 291.042
424.916, 265.001
426.257, 272.178
427.598, 231.147
428.939, 197.190
430.279, 198.289
431.619, 271.450
432.959, 181.708
434.299, 192.022
435.639, 2.598
436.978, 93.765
438.318, 72.845
439.657, 166.488
440.996, 344.164
442.334, 607.873
443.673, 869.611
445.011, 985.380
446.349, 1337.178
447.687, 1545.004
449.024, 1719.856
450.361, 1801.735
451.699, 1712.640
453.036, 1614.569
454.372, 1440.522
455.709, 1247.499
457.045, 1000.497
458.381, 845.516
459.717, 749.556
461.053, 644.616
462.388, 566.695
463.724, 506.792
465.059, 460.135
466.394, 540.037
467.728, 444.185
469.063, 530.347
470.397, 613.674
471.731, 562.006
473.065, 663.209
474.398, 654.154
475.732, 721.187
477.065, 792.643
478.398, 915.890
479.731, 1059.147
481.063, 1269.304
482.396, 1460.577
483.728, 1595.282
485.060, 1837.793
486.391, 1978.085
487.723, 2401.383
489.054, 2619.685
490.385, 3072.990
491.716, 3591.298
493.047, 4123.636
494.377, 4769.090
495.708, 5431.405
497.038, 6331.749
498.368, 7315.788
499.697, 8378.466
501.027, 9865.412
502.356, 11460.421
503.685, 13125.963
505.014, 15229.628
506.342, 17173.438
507.671, 19701.930
508.999, 21577.211
510.327, 23802.748
511.655, 25211.469
512.982, 25918.604
514.310, 26220.916
515.637, 24991.275
516.964, 23838.930
518.291, 21561.711
519.617, 19821.053
520.944, 17442.158
522.270, 14801.258
523.596, 13124.189
524.921, 11391.079
526.247, 9807.793
527.572, 8458.724
528.897, 7406.325
530.222, 6701.160
531.547, 5857.164
532.871, 5279.065
534.196, 4583.444
535.520, 4061.269
536.844, 3687.408
538.167, 3354.906
539.491, 2998.594
540.814, 2768.844
542.137, 2590.750
543.460, 2357.589
544.783, 2155.932
546.105, 1998.450
547.427, 1879.689
548.749, 1734.548
550.071, 1709.905
551.393, 1669.054
552.714, 1565.314
554.035, 1535.186
555.356, 1526.487
556.677, 1518.003
557.998, 1509.609
559.318, 1536.442
560.638, 1492.394
561.958, 1525.080
563.278, 1485.287
564.597, 1583.704
565.917, 1601.758
567.236, 1593.655
568.555, 1686.886
569.874, 1669.169
571.192, 1802.904
572.511, 1902.297
573.829, 2049.298
575.147, 2090.130
576.464, 2280.430
577.782, 2394.145
579.099, 2591.436
580.416, 2799.354
581.733, 3023.109
583.050, 3194.217
584.366, 3304.198
585.683, 3323.949
586.999, 3234.254
588.315, 3171.649
589.630, 3051.328
590.946, 2795.126
592.261, 2615.688
593.576, 2218.404
594.891, 1938.567
596.206, 1633.646
597.520, 1508.141
598.834, 1280.437
600.148, 1080.698
601.462, 934.924
602.776, 790.115
604.089, 665.271
605.402, 600.390
606.715, 521.474
608.028, 437.521
609.341, 333.532
610.653, 294.506
611.965, 318.442
613.277, 241.341
614.589, 246.203
615.901, 230.026
617.212, 220.584
618.523, 208.193
619.834, 216.268
621.145, 194.937
622.456, 191.713
623.766, 178.159
625.076, 169.710
626.386, 152.223
627.696, 130.694
629.006, 132.124
630.315, 200.511
631.624, 97.857
632.933, 148.155
634.242, 237.412
635.551, 178.627
636.859, 181.801
638.167, 90.934
639.475, 175.017
640.783, 116.058
642.090, 131.052
643.398, 192.002
644.705, 157.910
646.012, 205.775
647.318, 195.598
648.625, 193.379
649.931, 154.117
651.237, 140.812
652.543, 167.462
653.849, 155.070
655.155, 98.634
656.460, 2.148
657.765, 103.577
659.070, 32.957
660.375, 21.268
661.679, 18.504
662.984, 17.334
664.288, 12.698
665.592, 25.716
666.895, 14.412
668.199, 49.625
669.502, 40.948
670.805, 76.377
672.108, 45.929
673.411, 3.588
674.713, 6.332
676.016, 0.269
677.318, 61.073
678.620, 30.098
679.921, 60.220
681.223, 92.455
682.524, 74.818
683.825, 111.301
685.126, 91.365
686.427, 16.668
687.727, 68.501
689.028, 20.448
690.328, 29.483
691.628, 34.391
692.927, 57.205
694.227, 12.964
695.526, 40.344
696.825, 14.254
698.124, 0.787
699.423, 57.249
700.721, 32.658
702.020, 68.011
703.318, 81.315
704.616, 43.573
705.913, 20.778
707.211, 0.926
708.508, 2.648
709.805, 1.699
711.102, 7.024
712.399, 38.862
713.695, 9.698
714.992, 42.477
716.288, 9.208
717.584, 75.884
718.879, 93.518
720.175, 72.115
721.470, 89.677
722.765, 101.204
724.060, 117.710
725.355, 131.208
726.649, 73.704
727.944, 63.210
729.238, 132.722
730.532, 19.748
731.825, 94.796
733.119, 79.349
734.412, 27.928
735.705, 11.461
736.998, 48.167
738.291, 24.174
739.584, 13.499
740.876, 48.196
742.168, 41.922
743.460, 2.331
744.752, 28.424
746.043, 6.641
747.334, 3.135
748.626, 11.795
749.916, 17.613
751.207, 48.405
752.498, 48.879
753.788, 93.946
755.078, 67.667
756.368, 106.355
757.658, 124.012
758.947, 138.636
760.237, 134.230
761.526, 145.792
762.815, 177.323
764.104, 157.823
765.392, 165.293
766.680, 205.733
767.969, 163.143
769.257, 255.523
770.544, 224.874
771.832, 291.196
773.119, 275.489
774.406, 287.754
775.693, 330.990
776.980, 255.199
778.267, 303.383
779.553, 337.542
780.839, 329.677
782.125, 308.786
783.411, 346.721
784.697, 315.640
785.982, 312.675
787.267, 353.955
788.552, 338.918
789.837, 368.880
791.122, 346.818
792.406, 392.733
793.690, 379.734
794.974, 370.602
796.258, 435.022
797.542, 505.621
798.825, 426.422
800.108, 488.201
801.391, 488.959
802.674, 555.695
803.957, 557.411
805.239, 545.081
806.522, 691.615
807.804, 680.270
809.085, 781.876
810.367, 878.771
811.649, 912.003
812.930, 1025.949
814.211, 1114.817
815.492, 1277.126
816.772, 1381.295
818.053, 1496.298
819.333, 1648.597
820.613, 1855.087
821.893, 2110.296
823.173, 2307.309
824.452, 2448.881
825.732, 2507.705
827.011, 2533.552
828.290, 2444.537
829.568, 2329.378
830.847, 2130.630
832.125, 1960.098
833.403, 1805.545
834.681, 1659.141
835.959, 1494.754
837.236, 1417.521
838.514, 1405.046
839.791, 1404.875
841.068, 1451.450
842.345, 1418.830
843.621, 1473.288
844.898, 1398.243
846.174, 1177.731
847.450, 1130.878
848.726, 952.641
850.001, 799.191
851.277, 688.152
852.552, 526.432
853.827, 473.755
855.102, 418.548
856.376, 283.138
857.651, 261.984
858.925, 305.181
860.199, 237.854
861.473, 250.708
862.746, 250.423
864.020, 289.499
865.293, 210.115
866.566, 207.488
867.839, 224.214
869.112, 203.740
870.384, 293.590
871.656, 225.674
872.928, 260.979
874.200, 348.082
875.472, 339.402
876.744, 289.808
878.015, 389.274
879.286, 393.750
880.557, 446.035
881.828, 475.237
883.098, 547.747
884.369, 623.997
885.639, 698.512
886.909, 717.969
888.178, 796.900
889.448, 841.977
890.717, 974.753
891.987, 1122.729
893.256, 1303.611
894.524, 1486.954
895.793, 1733.261
897.061, 2107.955
898.330, 2505.155
899.598, 3006.113
900.865, 3767.049
902.133, 4618.134
903.401, 5788.322
904.668, 7269.859
905.935, 8747.424
907.202, 10148.165
908.468, 11541.921
909.735, 12232.689
911.001, 12369.481
912.267, 12001.288
913.533, 11244.113
914.799, 10020.956
916.064, 8373.820
917.330, 7132.700
918.595, 5688.602
919.860, 4489.524
921.124, 3648.466
922.389, 3011.426
923.653, 2458.404
924.918, 2088.408
926.182, 1792.435
927.445, 1615.496
928.709, 1422.605
929.972, 1305.232
931.236, 1202.785
932.499, 1099.690
933.761, 1055.876
935.024, 954.662
936.286, 868.047
937.549, 858.358
938.811, 768.690
940.073, 847.316
941.334, 783.679
942.596, 726.211
943.857, 771.627
945.118, 675.095
946.379, 671.576
947.640, 698.079
948.900, 649.605
950.161, 682.151
951.421, 606.721
952.681, 666.316
953.940, 727.931
955.200, 697.568
956.459, 686.229
957.719, 761.913
958.978, 743.622
960.236, 748.361
961.495, 749.121
962.753, 769.337
964.012, 817.731
965.270, 824.585
966.527, 895.474
967.785, 923.399
969.043, 1041.361
970.300, 1037.369
971.557, 1169.421
972.814, 1252.522
974.071, 1350.670
975.327, 1415.873
976.583, 1501.127
977.840, 1563.442
979.095, 1508.816
980.351, 1576.239
981.607, 1770.704
982.862, 1802.210
984.117, 2014.772
985.372, 2268.385
986.627, 2270.053
987.882, 2544.786
989.136, 2596.579
990.390, 2468.440
991.644, 2555.366
992.898, 2560.336
994.152, 2538.362
995.405, 2541.434
996.659, 2588.553
997.912, 2704.705
999.165, 2739.884
1000.417, 2845.097
1001.670, 2775.357
1002.922, 2977.650
1004.174, 2850.978
1005.426, 2881.332
1006.678, 2872.714
1007.930, 2806.121
1009.181, 2825.552
1010.432, 2726.009
1011.683, 2710.497
1012.934, 2610.017
1014.185, 2583.576
1015.435, 2469.167
1016.685, 2334.792
1017.935, 2280.445
1019.185, 2164.212
1020.435, 2115.842
1021.684, 1992.583
1022.934, 1978.344
1024.183, 1921.128
1025.432, 1834.933
1026.680, 1831.760
1027.929, 1681.606
1029.177, 1635.472
1030.425, 1554.506
1031.673, 1562.419
1032.921, 1411.815
1034.169, 1362.761
1035.416, 1285.737
1036.663, 1267.732
1037.911, 1167.746
1039.157, 1101.782
1040.404, 1063.844
1041.650, 1028.429
1042.897, 925.742
1044.143, 910.873
1045.389, 797.438
1046.634, 803.991
1047.880, 665.204
1049.125, 669.952
1050.371, 577.229
1051.615, 647.199
1052.860, 527.695
1054.105, 559.055
1055.349, 454.068
1056.593, 378.469
1057.837, 340.900
1059.081, 344.183
1060.325, 250.467
1061.568, 236.379
1062.812, 219.298
1064.055, 173.057
1065.298, 155.270
1066.540, 146.624
1067.783, 79.494
1069.025, 83.822
1070.267, 53.044
1071.509, 7.722
1072.751, 71.235
1073.993, 24.028
1075.234, 23.783
1076.475, 31.635
1077.716, 1.489
1078.957, 41.837
1080.198, 35.911
1081.438, 52.670
1082.679, 7.638
1083.919, 44.144
1085.159, 17.135
1086.398, 6.466
1087.638, 5.250
1088.877, 26.929
1090.116, 17.252
1091.355, 16.099
1092.594, 39.981
1093.833, 2.644
1095.071, 39.534
1096.309, 21.958
1097.547, 30.473
1098.785, 35.457
1100.023, 13.353
1101.260, 46.796
1102.498, 70.896
1103.735, 72.453
1104.972, 53.280
1106.208, 69.162
1107.445, 63.008
1108.681, 13.573
1109.918, 70.495
1111.154, 54.756
1112.389, 20.978
1113.625, 52.931
1114.860, 36.241
1116.096, 64.436
1117.331, 17.585
1118.566, 109.566
1119.800, 82.577
1121.035, 129.509
1122.269, 170.259
1123.503, 242.406
1124.737, 207.198
1125.971, 156.307
1127.205, 120.590
1128.438, 120.384
1129.671, 112.370
1130.904, 102.415
1132.137, 65.524
1133.370, 118.695
1134.602, 94.896
1135.834, 56.033
1137.066, 113.173
1138.298, 116.291
1139.530, 56.397
1140.762, 58.479
1141.993, 20.627
1143.224, 71.829
1144.455, 68.276
1145.686, 133.716
1146.917, 67.816
1148.147, 61.850
1149.377, 56.703
1150.607, 67.616
1151.837, 91.414
1153.067, 97.248
1154.296, 104.754
1155.526, 112.242
1156.755, 102.942
1157.984, 111.860
1159.213, 93.929
1160.441, 81.759
1161.670, 98.566
1162.898, 80.196
1164.126, 100.496
1165.354, 77.869
1166.581, 90.376
1167.809, 115.739
1169.036, 78.615
1170.263, 128.359
1171.490, 35.235
1172.717, 72.939
1173.943, 53.781
1175.170, 26.401
1176.396, 3.183
1177.622, 4.634
1178.848, 2.159
1180.073, 13.748
1181.299, 30.759
1182.524, 39.275
1183.749, 38.801
1184.974, 38.226
1186.199, 28.986
1187.423, 7.479
1188.648, 10.015
1189.872, 24.652
1191.096, 15.725
1192.320, 5.890
1193.543, 4.506
1194.767, 15.786
1195.990, 6.860
1197.213, 14.340
1198.436, 9.389
1199.659, 2.770
1200.881, 31.091
1202.104, 6.988
1203.326, 18.092
1204.548, 17.153
1205.770, 8.804
1206.991, 23.789
1208.213, 16.694
1209.434, 1.140
1210.655, 11.936
1211.876, 2.002
1213.096, 19.135
1214.317, 10.305
1215.537, 16.507
1216.757, 2.255
1217.977, 3.984
1219.197, 0.305
1220.417, 19.629
1221.636, 17.994
1222.855, 50.391
1224.074, 33.852
1225.293, 29.339
1226.512, 1.391
1227.731, 5.893
1228.949, 6.760
1230.167, 4.424
1231.385, 16.700
1232.603, 10.590
1233.820, 34.418
1235.038, 35.289
1236.255, 32.546
1237.472, 9.600
1238.689, 29.516
1239.906, 17.537
1241.122, 29.625
1242.338, 18.257
1243.555, 17.144
1244.771, 35.971
1245.986, 10.765
1247.202, 1.530
1248.417, 33.259
1249.633, 20.949
1250.848, 15.613
1252.063, 15.244
1253.277, 16.846
1254.492, 12.580
1255.706, 64.959
1256.920, 35.471
1258.134, 37.959
1259.348, 18.406
1260.562, 36.824
1261.775, 42.215
1262.988, 45.577
1264.201, 64.913
1265.414, 62.221
1266.627, 79.502
1267.839, 28.752
1269.052, 51.226
1270.264, 117.162
1271.476, 56.329
1272.688, 18.469
1273.899, 8.575
1275.111, 74.645
1276.322, 67.680
1277.533, 60.684
1278.744, 56.652
1279.955, 55.590
1281.165, 60.497
1282.376, 60.926
1283.586, 63.222
1284.796, 64.694
1286.006, 67.551
1287.215, 62.214
1288.425, 59.310
1289.634, 49.006
1290.843, 49.670
1292.052, 67.303
1293.261, 73.906
1294.469, 104.479
1295.678, 89.024
1296.886, 115.540
1298.094, 106.027
1299.302, 105.555
1300.509, 77.001
1301.717, 94.400
1302.924, 85.816
1304.131, 70.242
1305.338, 98.553
1306.545, 40.836
1307.752, 65.086
1308.958, 106.339
1310.164, 55.532
1311.370, 50.693
1312.576, 55.928
1313.782, 85.026
1314.987, 103.097
1316.193, 83.141
1317.398, 107.939
1318.603, 85.206
1319.807, 123.319
1321.012, 90.288
1322.216, 93.195
1323.421, 103.003
1324.625, 103.849
1325.829, 134.263
1327.032, 129.062
1328.236, 123.835
1329.439, 144.631
1330.642, 82.351
1331.845, 122.043
1333.048, 115.709
1334.251, 144.855
1335.453, 134.267
1336.656, 128.855
1337.858, 124.005
1339.060, 141.158
1340.261, 122.650
1341.463, 161.600
1342.664, 133.017
1343.866, 163.735
1345.067, 193.923
1346.267, 166.240
1347.468, 155.911
1348.669, 169.170
1349.869, 206.393
1351.069, 151.755
1352.269, 171.108
1353.469, 205.823
1354.668, 162.521
1355.868, 136.368
1357.067, 178.752
1358.266, 149.987
1359.465, 150.697
1360.664, 178.940
1361.862, 173.279
1363.061, 176.688
1364.259, 178.187
1365.457, 155.932
1366.655, 132.706
1367.852, 130.209
1369.050, 117.187
1370.247, 120.859
1371.444, 122.425
1372.641, 127.667
1373.838, 152.831
1375.035, 165.077
1376.231, 165.677
1377.427, 189.301
1378.623, 154.525
1379.819, 130.640
1381.015, 102.901
1382.211, 145.688
1383.406, 141.031
1384.601, 129.076
1385.796, 137.411
1386.991, 86.307
1388.185, 120.910
1389.380, 123.608
1390.574, 154.963
1391.768, 117.190
1392.962, 108.579
1394.156, 127.271
1395.350, 142.871
1396.543, 133.129
1397.736, 88.744
1398.929, 131.516
1400.122, 132.195
1401.315, 116.911
1402.507, 146.014
1403.700, 146.445
1404.892, 132.529
1406.084, 134.475
1407.276, 133.997
1408.467, 135.426
1409.659, 142.093
1410.850, 138.046
1412.041, 148.804
1413.232, 134.916
1414.423, 125.104
1415.614, 108.955
1416.804, 128.760
1417.994, 139.315
1419.184, 116.384
1420.374, 100.367
1421.564, 152.267
1422.753, 97.677
1423.943, 126.015
1425.132, 111.384
1426.321, 151.524
1427.510, 91.814
1428.698, 111.377
1429.887, 110.908
1431.075, 94.860
1432.263, 89.216
1433.451, 78.558
1434.639, 85.865
1435.827, 82.194
1437.014, 99.542
1438.201, 90.995
1439.388, 63.419
1440.575, 74.798
1441.762, 28.169
1442.949, 69.447
1444.135, 65.776
1445.321, 34.102
1446.507, 23.409
1447.693, 63.707
1448.879, 67.021
1450.064, 42.302
1451.250, 30.689
1452.435, 37.091
1453.620, 52.514
1454.805, 10.996
1455.989, 42.516
1457.174, 64.098
1458.358, 45.660
1459.542, 27.276
1460.726, 20.892
1461.910, 1.541
1463.093, 21.174
1464.277, 47.771
1465.460, 9.343
1466.643, 40.941
1467.826, 12.515
1469.009, 37.071
1470.191, 58.625
1471.373, 11.172
1472.556, 35.694
1473.738, 38.203
1474.919, 57.748
1476.101, 17.337
1477.283, 46.934
1478.464, 34.546
1479.645, 35.162
1480.826, 51.798
1482.007, 45.446
1483.187, 60.111
1484.368, 68.786
1485.548, 52.197
1486.728, 72.899
1487.908, 79.174
1489.088, 6.906
1490.268, 12.537
1491.447, 17.300
1492.626, 39.673
