##NAMES=Augelite
##RRUFFID=R050060
##IDEAL CHEMISTRY=Al_2_PO_4_(OH)_3_
##LOCALITY=Machacamarca, Potosi Department, Bolivia
##OWNER=RRUFF
##SOURCE=Rock Currier
##DESCRIPTION=Colorless prismatic crystals
##STATUS=The identification of this mineral has been confirmed by X-ray diffraction and chemical analysis
##URL=rruff.info/R050060
##MEASURED CHEMISTRY=Al_2.00_(P_1.00_O_4_)(OH)_3_; OH estimated by difference
##PIN_ID=L01372
##ORIENTATION=Laser parallel to -a* (-1 0 0). Fiducial mark perpendicular to laser is parallel to -b [0 -1 0]
206.3820, 0.0000000E+00
207.6090, 0.6550290
208.8370, 45.14331
210.0640, 8.189697
211.2900, 224.7019
212.5170, 285.5444
213.7440, 548.7600
214.9700, 759.6162
216.1960, 1024.086
217.4220, 1300.793
218.6470, 1489.692
219.8730, 1657.438
221.0980, 1980.875
222.3230, 2190.143
223.5480, 2551.297
224.7730, 2690.603
225.9970, 2557.859
227.2220, 2492.991
228.4460, 2057.365
229.6700, 1603.968
230.8940, 1364.366
232.1170, 1014.431
233.3400, 930.4932
234.5640, 740.7329
235.7870, 797.4890
237.0100, 917.0122
238.2320, 1260.917
239.4550, 1493.764
240.6770, 2009.108
241.8990, 2564.775
243.1210, 2958.619
244.3420, 3373.734
245.5640, 3918.812
246.7850, 4391.409
248.0060, 4973.593
249.2270, 5285.101
250.4480, 5536.723
251.6690, 5369.437
252.8890, 5123.294
254.1090, 4470.932
255.3290, 4027.785
256.5490, 2878.166
257.7680, 2271.000
258.9880, 1933.638
260.2070, 1562.322
261.4260, 1167.869
262.6450, 850.7200
263.8640, 690.9480
265.0820, 495.9446
266.3000, 493.2014
267.5180, 397.0435
268.7360, 328.9473
269.9540, 287.9006
271.1720, 223.8943
272.3890, 201.9255
273.6060, 70.99609
274.8230, 122.1091
276.0400, 165.2666
277.2560, 129.4719
278.4730, 47.72705
279.6890, 40.06250
280.9050, 53.56226
282.1210, 17.23413
283.3370, 33.08008
284.5520, 9.3993999E-02
285.7670, 0.2673340
286.9820, 9.591553
288.1970, 11.04004
289.4120, 25.34741
290.6270, 3.630615
291.8410, 17.19629
293.0550, 77.12500
294.2690, 134.1450
295.4830, 95.24902
296.6970, 97.42822
297.9100, 59.67480
299.1230, 35.97925
300.3360, 2.668213
301.5490, 23.72363
302.7620, 83.84741
303.9740, 54.38477
305.1860, 19.89600
306.3990, 74.39185
307.6110, 156.8779
308.8220, 109.3552
310.0340, 41.82227
311.2450, 148.2773
312.4560, 110.7241
313.6670, 134.1926
314.8780, 25.65820
316.0890, 81.15479
317.2990, 94.68921
318.5090, 52.27173
319.7200, 44.91431
320.9290, 52.37720
322.1390, 37.62012
323.3490, 5.879150
324.5580, 29.17065
325.7670, 204.4878
326.9760, 194.8047
328.1850, 217.0508
329.3930, 184.2446
330.6020, 242.2935
331.8100, 192.2556
333.0180, 322.0903
334.2260, 358.8779
335.4340, 352.6094
336.6410, 462.3467
337.8480, 485.1394
339.0550, 511.9888
340.2620, 768.8984
341.4690, 786.8689
342.6760, 994.8989
343.8820, 1160.991
345.0880, 1215.144
346.2940, 1347.359
347.5000, 1486.635
348.7060, 1600.973
349.9110, 1629.374
351.1160, 1660.914
352.3210, 1726.659
353.5260, 1752.767
354.7310, 1897.138
355.9360, 1889.570
357.1400, 2108.219
358.3440, 2260.928
359.5480, 2536.668
360.7520, 2888.416
361.9550, 3139.153
363.1590, 3401.863
364.3620, 3689.536
365.5650, 3886.163
366.7680, 3927.736
367.9710, 3904.250
369.1730, 3619.702
370.3760, 3410.086
371.5780, 2908.392
372.7800, 2380.614
373.9810, 1806.747
375.1830, 1429.801
376.3840, 1150.776
377.5860, 879.6650
378.7870, 805.4600
379.9880, 566.1587
381.1880, 576.7686
382.3890, 437.2996
383.5890, 494.7583
384.7890, 392.1416
385.9890, 431.4021
387.1890, 432.5925
388.3880, 363.6445
389.5880, 376.5654
390.7870, 492.3467
391.9860, 381.9897
393.1850, 566.4719
394.3840, 562.8555
395.5820, 718.2271
396.7800, 825.5903
397.9790, 1030.935
399.1770, 1151.233
400.3740, 1363.373
401.5720, 1689.410
402.7690, 1951.224
403.9670, 2104.885
405.1640, 2539.384
406.3600, 2648.817
407.5570, 2880.169
408.7540, 2986.533
409.9500, 3211.956
411.1460, 3108.415
412.3420, 3050.942
413.5380, 3021.509
414.7330, 3068.059
415.9290, 2860.412
417.1240, 2944.753
418.3190, 2829.004
419.5140, 2646.736
420.7090, 2724.097
421.9030, 2443.220
423.0970, 2364.489
424.2920, 2212.674
425.4860, 1844.593
426.6790, 1867.118
427.8730, 1772.609
429.0660, 1586.551
430.2600, 1528.700
431.4530, 1374.604
432.6460, 1478.427
433.8380, 1443.539
435.0310, 1515.196
436.2230, 1544.235
437.4150, 1698.075
438.6070, 1855.349
439.7990, 1945.491
440.9910, 2147.714
442.1820, 2241.732
443.3730, 2329.371
444.5640, 2459.464
445.7550, 2548.063
446.9460, 2633.440
448.1370, 2647.722
449.3270, 2717.381
450.5170, 2678.780
451.7070, 2726.160
452.8970, 2624.681
454.0870, 2540.599
455.2760, 2493.992
456.4650, 2409.900
457.6550, 2413.492
458.8430, 2229.053
460.0320, 2087.284
461.2210, 2055.824
462.4090, 1943.140
463.5970, 2031.161
464.7850, 1848.194
465.9730, 1800.219
467.1610, 1768.164
468.3480, 1589.260
469.5360, 1571.591
470.7230, 1344.958
471.9100, 1203.362
473.0970, 1102.813
474.2830, 951.3745
475.4700, 816.8354
476.6560, 740.4238
477.8420, 601.0508
479.0280, 508.7441
480.2140, 438.4805
481.3990, 273.2681
482.5850, 244.0947
483.7700, 234.9580
484.9550, 108.8633
486.1400, 155.8159
487.3240, 93.80664
488.5090, 23.83984
489.6930, 29.92920
490.8770, 22.08643
492.0610, 10.71875
493.2450, 41.51123
494.4290, 66.77441
495.6120, 127.0591
496.7950, 67.37549
497.9780, 159.7217
499.1610, 213.1099
500.3440, 178.5283
501.5260, 270.9731
502.7090, 454.4360
503.8910, 389.9194
505.0730, 526.4204
506.2550, 638.9678
507.4360, 913.5425
508.6180, 876.1606
509.7990, 1143.800
510.9800, 1268.458
512.1610, 1401.138
513.3420, 1750.836
514.5230, 1970.562
515.7030, 2117.307
516.8830, 2313.068
518.0630, 2690.852
519.2430, 2819.654
520.4230, 3181.484
521.6020, 3348.335
522.7820, 3565.206
523.9610, 3751.097
525.1400, 3787.011
526.3190, 3808.950
527.4970, 3736.911
528.6760, 3790.895
529.8540, 3656.897
531.0320, 3692.924
532.2100, 3513.974
533.3880, 3341.047
534.5660, 3081.144
535.7430, 2967.266
536.9200, 2839.412
538.0970, 2752.584
539.2740, 2771.780
540.4510, 2595.001
541.6270, 2534.247
542.8040, 2662.770
543.9800, 2634.067
545.1560, 2674.392
546.3320, 2716.607
547.5080, 2772.063
548.6830, 2830.150
549.8580, 2846.402
551.0340, 2919.142
552.2090, 3093.637
553.3830, 3178.327
554.5580, 3393.984
555.7320, 3393.256
556.9070, 3474.135
558.0810, 3620.475
559.2550, 3849.237
560.4280, 3865.495
561.6020, 3880.986
562.7750, 3859.721
563.9490, 3844.760
565.1220, 3797.308
566.2950, 3690.975
567.4670, 3600.491
568.6400, 3378.811
569.8120, 3330.935
570.9840, 3168.061
572.1560, 2996.479
573.3280, 2870.120
574.5000, 2705.270
575.6710, 2528.423
576.8430, 2386.612
578.0140, 2184.833
579.1850, 2073.076
580.3560, 1949.340
581.5260, 1708.625
582.6970, 1528.930
583.8670, 1483.256
585.0370, 1253.607
586.2070, 1212.986
587.3770, 1071.390
588.5460, 913.8442
589.7160, 896.3398
590.8850, 747.8672
592.0540, 679.4404
593.2230, 703.0796
594.3920, 628.7720
595.5600, 611.4985
596.7290, 678.2871
597.8970, 651.9375
599.0650, 717.0225
600.2330, 705.9463
601.4000, 766.9111
602.5680, 815.9189
603.7350, 851.3472
604.9020, 875.4165
606.0690, 1020.595
607.2360, 1081.693
608.4030, 1245.999
609.5690, 1365.304
610.7360, 1516.574
611.9020, 1694.767
613.0680, 1878.556
614.2340, 1954.465
615.3990, 2124.101
616.5650, 2438.966
617.7300, 2781.562
618.8950, 3207.803
620.0600, 3490.309
621.2250, 4020.967
622.3890, 4696.800
623.5540, 5479.252
624.7180, 6397.905
625.8820, 7423.887
627.0460, 8604.650
628.2100, 9777.594
629.3730, 10880.96
630.5370, 12023.06
631.7000, 13369.10
632.8630, 14035.72
634.0260, 14617.19
635.1890, 14816.77
636.3510, 14495.23
637.5140, 13566.15
638.6760, 12328.41
639.8380, 10575.90
641.0000, 9116.611
642.1610, 7488.781
643.3230, 6087.240
644.4840, 5049.023
645.6450, 4031.666
646.8060, 3535.834
647.9670, 2961.676
649.1280, 2454.138
650.2880, 2220.140
651.4490, 1914.628
652.6090, 1630.491
653.7690, 1400.277
654.9290, 1375.759
656.0880, 1153.212
657.2480, 1085.389
658.4070, 945.9507
659.5660, 750.4092
660.7250, 716.1064
661.8840, 626.5625
663.0430, 620.8882
664.2010, 516.0308
665.3600, 401.5498
666.5180, 483.0615
667.6760, 343.5303
668.8330, 281.8350
669.9910, 356.1948
671.1480, 245.7026
672.3060, 279.0615
673.4630, 197.3462
674.6200, 240.6948
675.7770, 111.9692
676.9330, 125.2363
678.0900, 47.49658
679.2460, 171.7490
680.4020, 85.00000
681.5580, 37.75391
682.7140, 128.4707
683.8690, 75.71436
685.0250, 65.04346
686.1800, 0.1616210
687.3350, 19.63574
688.4900, 60.44043
689.6450, 114.2827
690.7990, 52.80957
691.9540, 126.1030
693.1080, 2.910156
694.2620, 132.0850
695.4160, 27.15332
696.5700, 66.24512
697.7230, 71.37500
698.8770, 77.55469
700.0300, 63.78809
701.1830, 82.06494
702.3360, 85.39941
703.4890, 123.7939
704.6410, 11.27002
705.7930, 14.77002
706.9460, 86.70605
708.0980, 14.16895
709.2500, 25.61572
710.4010, 79.04639
711.5530, 83.46240
712.7040, 173.8638
713.8560, 211.2485
715.0070, 221.6187
716.1580, 254.9717
717.3080, 263.3081
718.4590, 262.9385
719.6090, 268.0620
720.7590, 252.2158
721.9090, 256.4839
723.0590, 255.7339
724.2090, 254.9668
725.3590, 229.1807
726.5080, 217.0303
727.6570, 192.5532
728.8060, 174.7114
729.9550, 175.8506
731.1040, 163.9707
732.2530, 167.0698
733.4010, 168.5605
734.5490, 208.2075
735.6970, 175.2446
736.8450, 181.2607
737.9930, 180.2554
739.1400, 161.2271
740.2880, 166.1777
741.4350, 36.10547
742.5820, 144.0063
743.7290, 97.88379
744.8760, 161.7368
746.0220, 78.56689
747.1690, 18.37158
748.3150, 97.14062
749.4610, 23.88428
750.6070, 4.406738
751.7530, 35.25439
752.8980, 17.88330
754.0440, 34.52637
755.1890, 56.99756
756.3340, 70.50684
757.4790, 25.90283
758.6240, 11.72559
759.7680, 50.58984
760.9130, 99.87402
762.0570, 27.13135
763.2010, 2.349609
764.3450, 61.51709
765.4890, 23.65381
766.6320, 33.25146
767.7760, 76.22705
768.9190, 53.70312
770.0620, 74.60010
771.2050, 121.4678
772.3480, 96.30713
773.4900, 1.117188
774.6330, 10.87305
775.7750, 42.42236
776.9170, 2.203613
778.0590, 16.77344
779.2010, 58.29492
780.3420, 48.78174
781.4840, 81.22998
782.6250, 61.35254
783.7660, 10.97363
784.9070, 47.75244
786.0480, 52.43701
787.1890, 71.58838
788.3290, 52.70605
789.4690, 80.78564
790.6100, 20.84717
791.7490, 138.8511
792.8890, 145.8628
794.0290, 66.85254
795.1680, 119.7554
796.3080, 29.78809
797.4470, 97.87695
798.5860, 148.0146
799.7250, 196.7852
800.8630, 74.94092
802.0020, 60.64014
803.1400, 137.3008
804.2780, 146.9312
805.4160, 228.5308
806.5540, 171.1025
807.6920, 134.6450
808.8300, 169.1572
809.9670, 185.6401
811.1040, 169.0942
812.2410, 264.4937
813.3780, 187.8901
814.5150, 294.2573
815.6510, 254.5967
816.7880, 287.3647
817.9240, 259.0933
819.0600, 236.0947
820.1960, 276.5693
821.3320, 314.3027
822.4670, 395.6055
823.6030, 354.2803
824.7380, 450.9663
825.8730, 389.2314
827.0080, 503.0088
828.1430, 420.1089
829.2770, 481.9805
830.4120, 523.5713
831.5460, 612.2773
832.6800, 611.0176
833.8140, 620.8442
834.9480, 716.5952
836.0810, 711.8604
837.2150, 808.6987
838.3480, 923.4897
839.4810, 969.9785
840.6140, 1004.966
841.7470, 1086.846
842.8800, 1163.481
844.0120, 1231.476
845.1450, 1370.927
846.2770, 1425.394
847.4090, 1557.061
848.5410, 1755.611
849.6720, 1766.136
850.8040, 1973.636
851.9350, 2164.113
853.0660, 2175.565
854.1970, 2318.993
855.3280, 2374.397
856.4590, 2459.777
857.5900, 2350.133
858.7200, 2341.464
859.8500, 2319.773
860.9800, 2393.059
862.1100, 2319.318
863.2400, 2215.558
864.3700, 2122.771
865.4990, 2031.178
866.6280, 1956.130
867.7570, 1825.274
868.8860, 1727.396
870.0150, 1594.494
871.1440, 1487.570
872.2720, 1427.624
873.4010, 1279.653
874.5290, 1337.662
875.6570, 1226.647
876.7850, 1257.611
877.9120, 1127.165
879.0400, 1176.085
880.1670, 1056.889
881.2940, 1283.764
882.4210, 1089.428
883.5480, 1219.084
884.6750, 1162.767
885.8020, 1196.519
886.9280, 1329.664
888.0540, 1397.682
889.1800, 1388.962
890.3060, 1517.005
891.4320, 1669.308
892.5580, 1684.958
893.6830, 1805.332
894.8080, 1737.542
895.9330, 1606.569
897.0580, 1649.969
898.1830, 1535.156
899.3080, 1350.002
900.4320, 1156.060
901.5570, 1112.925
902.6810, 973.3608
903.8050, 755.0435
904.9290, 608.7827
906.0520, 627.8457
907.1760, 494.1318
908.2990, 517.2920
909.4230, 479.5679
910.5460, 415.3706
911.6690, 346.8164
912.7910, 425.0171
913.9140, 270.9951
915.0360, 260.4961
916.1590, 179.6982
917.2810, 246.5654
918.4030, 263.5610
919.5240, 254.0200
920.6460, 159.7920
921.7680, 194.9331
922.8890, 122.5215
924.0100, 77.61182
925.1310, 23.31592
926.2520, 22.08398
927.3730, 12.14502
928.4930, 9.222656
929.6130, 26.56250
930.7340, 1.167969
931.8540, 1.460449
932.9740, 20.68066
934.0930, 31.67773
935.2130, 5.567383
936.3320, 107.7124
937.4520, 61.60254
938.5710, 55.48730
939.6900, 103.4033
940.8090, 46.46875
941.9270, 110.4673
943.0460, 28.30469
944.1640, 45.27832
945.2820, 52.31299
946.4000, 19.72949
947.5180, 49.28467
948.6360, 48.29199
949.7530, 63.29395
950.8710, 29.70850
951.9880, 11.73096
953.1050, 48.23535
954.2220, 107.7944
955.3390, 32.88428
956.4550, 10.00635
957.5720, 35.09424
958.6880, 46.20654
959.8040, 11.65918
960.9200, 24.53418
962.0360, 27.56689
963.1520, 1.678223
964.2670, 21.76318
965.3820, 35.85791
966.4980, 4.936523
967.6130, 40.00391
968.7280, 25.92773
969.8420, 3.877441
970.9570, 25.15381
972.0710, 58.83887
973.1850, 16.85645
974.3000, 53.89600
975.4140, 105.9814
976.5270, 53.06982
977.6410, 14.83740
978.7540, 19.24951
979.8680, 111.3364
980.9810, 5.565918
982.0940, 107.5298
983.2070, 78.63184
984.3200, 80.73291
985.4320, 74.84277
986.5440, 69.95215
987.6570, 193.0615
988.7690, 148.1709
989.8810, 172.2803
990.9920, 133.3892
992.1040, 239.5000
993.2160, 78.61084
994.3270, 231.7222
995.4380, 284.8354
996.5490, 421.9487
997.6600, 257.0640
998.7710, 417.1802
999.8810, 433.2988
1000.991, 543.4229
1002.102, 604.5483
1003.212, 745.6768
1004.322, 861.8096
1005.431, 965.9453
1006.541, 989.0825
1007.651, 1140.223
1008.760, 1252.367
1009.869, 1306.513
1010.978, 1435.666
1012.087, 1427.824
1013.195, 1542.984
1014.304, 1351.154
1015.412, 1265.329
1016.521, 1224.509
1017.629, 1206.697
1018.737, 1135.892
1019.844, 927.0947
1020.952, 911.3145
1022.059, 870.5430
1023.167, 712.7827
1024.274, 729.0488
1025.381, 714.3394
1026.488, 590.6660
1027.594, 637.0039
1028.701, 491.3672
1029.807, 507.7393
1030.913, 506.1182
1032.019, 421.5088
1033.125, 528.9180
1034.231, 539.3359
1035.337, 459.7676
1036.442, 565.2285
1037.548, 540.7290
1038.653, 450.2397
1039.758, 525.7593
1040.863, 493.2866
1041.967, 585.8213
1043.072, 517.4106
1044.176, 612.0186
1045.280, 518.6602
1046.384, 681.3232
1047.488, 715.0044
1048.592, 659.6968
1049.696, 771.4028
1050.799, 855.1182
1051.903, 837.8726
1053.006, 1102.649
1054.109, 1212.461
1055.212, 1386.286
1056.314, 1650.123
1057.417, 1650.973
1058.519, 1713.836
1059.621, 1600.727
1060.724, 1825.590
1061.826, 1804.455
1062.927, 1750.384
1064.029, 1584.163
1065.130, 1619.856
1066.232, 1474.481
1067.333, 1466.453
1068.434, 1441.020
1069.535, 1269.020
1070.636, 1312.035
1071.736, 1296.061
1072.837, 1308.097
1073.937, 1296.143
1075.037, 1212.199
1076.137, 1287.267
1077.237, 1225.344
1078.337, 1394.431
1079.436, 1346.553
1080.535, 1552.661
1081.635, 1552.779
1082.734, 1649.113
1083.833, 1730.793
1084.931, 1767.494
1086.030, 1908.223
1087.128, 2037.514
1088.227, 2206.546
1089.325, 2386.737
1090.423, 2658.751
1091.521, 2859.707
1092.618, 3162.932
1093.716, 3442.167
1094.813, 3864.125
1095.911, 4320.536
1097.008, 4824.363
1098.105, 5440.688
1099.202, 6062.804
1100.298, 6790.453
1101.395, 7610.433
1102.491, 8556.755
1103.587, 9182.232
1104.683, 9884.596
1105.779, 10523.95
1106.875, 10587.52
1107.971, 10873.90
1109.066, 10602.29
1110.161, 10007.34
1111.256, 9479.739
1112.351, 8752.872
1113.446, 7921.208
1114.541, 6934.086
1115.636, 5842.537
1116.730, 5126.065
1117.824, 4618.535
1118.918, 4061.015
1120.012, 3667.504
1121.106, 3228.895
1122.200, 2797.545
1123.293, 2534.084
1124.387, 2254.633
1125.480, 2053.191
1126.573, 1929.761
1127.666, 1623.340
1128.759, 1566.930
1129.851, 1497.529
1130.944, 1370.139
1132.036, 1311.537
1133.128, 1232.292
1134.220, 1179.276
1135.312, 1122.003
1136.404, 1115.663
1137.495, 1116.333
1138.587, 1108.013
1139.678, 1108.703
1140.769, 1072.403
1141.860, 1156.595
1142.951, 1134.852
1144.041, 1036.045
1145.132, 1186.771
1146.222, 1215.594
1147.313, 1299.354
1148.403, 1271.121
1149.493, 1384.899
1150.582, 1558.687
1151.672, 1766.483
1152.761, 1889.290
1153.851, 1919.105
1154.940, 2151.931
1156.029, 2310.984
1157.118, 2532.838
1158.207, 2521.702
1159.295, 2653.561
1160.384, 2725.441
1161.472, 2479.331
1162.560, 2563.229
1163.648, 2447.135
1164.736, 2381.049
1165.824, 2209.971
1166.911, 2075.024
1167.999, 1881.870
1169.086, 1733.846
1170.173, 1544.830
1171.260, 1351.822
1172.347, 1271.821
1173.434, 1153.476
1174.520, 1089.491
1175.606, 979.5132
1176.693, 884.5415
1177.779, 847.5776
1178.865, 713.6201
1179.951, 617.6689
1181.036, 615.7241
1182.122, 502.7861
1183.207, 589.8545
1184.292, 352.9302
1185.377, 297.0112
1186.462, 413.0981
1187.547, 412.1909
1188.632, 361.4072
1189.716, 234.5112
1190.800, 287.6216
1191.885, 327.7373
1192.969, 195.8589
1194.052, 250.9854
1195.136, 149.1191
1196.220, 103.2593
1197.303, 183.4111
1198.387, 151.5776
1199.470, 121.7505
1200.553, 185.9292
1201.636, 158.1128
1202.718, 103.3008
1203.801, 101.6836
1204.883, 124.8809
1205.966, 114.0825
1207.048, 141.2935
1208.130, 146.5083
1209.211, 20.72998
1210.293, 72.96094
1211.375, 147.1958
1212.456, 8.564941
1213.537, 97.67529
1214.618, 18.92725
1215.699, 11.81250
1216.780, 121.4473
1217.861, 19.73877
1218.941, 125.0405
1220.022, 33.65381
1221.102, 113.6499
1222.182, 123.9697
1223.262, 25.29297
1224.342, 20.37988
1225.422, 5.947266
1226.501, 44.27832
1227.580, 49.61670
1228.660, 40.03467
1229.739, 71.29980
1230.818, 16.35547
1231.896, 11.98584
1232.975, 70.66992
1234.054, 22.35205
1235.132, 74.95947
1236.210, 57.72559
1237.288, 119.5630
1238.366, 63.85449
1239.444, 89.14746
1240.521, 75.44580
1241.599, 48.25439
1242.676, 152.5093
1243.753, 27.21045
1244.830, 25.10498
1245.907, 36.62500
1246.984, 73.62842
1248.061, 26.88379
1249.137, 51.14160
1250.214, 74.12988
1251.290, 135.3271
1252.366, 111.6006
1253.442, 25.87451
1254.517, 101.1504
1255.593, 42.43164
1256.668, 80.70801
1257.744, 48.98633
1258.819, 31.26562
1259.894, 87.85352
1260.969, 9.865234
1262.044, 16.42188
1263.118, 133.6953
1264.193, 5.030273
1265.267, 42.23730
1266.341, 117.5059
1267.415, 78.82324
1268.489, 104.0938
1269.563, 123.4482
1270.636, 2.257813
1271.710, 42.00684
1272.783, 79.27051
1273.856, 9.464844
1274.929, 6.789063
1276.002, 122.0449
1277.075, 29.29980
1278.147, 69.55469
1279.220, 39.80957
1280.292, 53.06250
1281.364, 71.31445
1282.436, 37.56543
1283.508, 47.81641
1284.580, 57.93457
1285.652, 98.97070
1286.723, 88.18164
1287.794, 4.609375
1288.865, 69.59180
1289.936, 90.79199
1291.007, 114.9893
1292.078, 75.18652
1293.149, 87.38086
1294.219, 92.57324
1295.289, 101.7637
1296.360, 109.8545
1297.430, 104.0410
1298.499, 116.2227
1299.569, 76.40332
1300.639, 90.19336
1301.708, 104.2441
1302.778, 113.0459
1303.847, 165.1484
1304.916, 226.2461
1305.985, 47.34082
1307.053, 157.4316
1308.122, 229.5186
1309.190, 54.60059
1310.259, 144.6787
1311.327, 98.75293
1312.395, 75.02637
1313.463, 114.0938
1314.531, 157.1592
1315.598, 63.20605
1316.666, 44.74902
1317.733, 144.2773
1318.800, 180.3008
1319.867, 88.42383
1320.934, 115.4434
1322.001, 136.4619
1323.067, 158.4775
1324.134, 128.4902
1325.200, 60.50098
1326.266, 67.50977
1327.333, 61.51660
1328.398, 170.5195
1329.464, 215.5215
1330.530, 139.5205
1331.595, 31.51562
1332.661, 137.5078
1333.726, 112.4971
1334.791, 76.37207
1335.856, 91.35547
1336.921, 121.8320
1337.985, 76.81055
1339.050, 70.78613
1340.114, 97.75977
1341.178, 142.5225
1342.242, 63.48730
1343.306, 184.8242
1344.370, 137.4502
1345.434, 268.3906
1346.497, 178.3164
1347.561, 213.2383
1348.624, 133.7334
1349.687, 141.2080
1350.750, 186.1172
1351.813, 241.0225
1352.876, 78.13477
1353.938, 107.0332
1355.000, 81.92773
1356.063, 86.81641
1357.125, 95.77148
1358.187, 91.65332
1359.249, 160.8652
1360.310, 138.8193
1361.372, 145.0410
1362.433, 76.24902
1363.495, 106.0928
1364.556, 172.7920
1365.617, 210.6289
1366.678, 115.4609
1367.738, 129.2891
1368.799, 93.12793
1369.859, 18.21777
1370.920, 139.9785
