##NAMES=Augelite
##RRUFFID=R050060
##IDEAL CHEMISTRY=Al_2_PO_4_(OH)_3_
##LOCALITY=Machacamarca, Potosi Department, Bolivia
##OWNER=RRUFF
##SOURCE=Rock Currier
##DESCRIPTION=Colorless prismatic crystals
##STATUS=The identification of this mineral has been confirmed by X-ray diffraction and chemical analysis
##URL=rruff.info/R050060
##MEASURED CHEMISTRY=Al_2.00_(P_1.00_O_4_)(OH)_3_; OH estimated by difference
##PIN_ID=L01787
##ORIENTATION=Laser parallel to (1 0 1). Fiducial mark perpendicular to laser is parallel to -b [0 -1 0]
136.3300, 0.0000000E+00
137.5700, 8.822266
138.8100, 48.87817
140.0490, 6.0547002E-02
141.2890, 5.246826
142.5280, 105.0281
143.7670, 81.60864
145.0050, 265.6311
146.2440, 448.7932
147.4820, 555.7148
148.7200, 773.9717
149.9580, 1050.178
151.1960, 1364.175
152.4340, 1713.148
153.6710, 2065.098
154.9080, 2497.125
156.1450, 2991.708
157.3820, 3392.757
158.6190, 3813.071
159.8550, 4110.442
161.0910, 4253.724
162.3270, 4466.818
163.5630, 4445.660
164.7980, 4271.233
166.0340, 3907.914
167.2690, 3409.313
168.5040, 2976.666
169.7390, 2449.140
170.9730, 2117.249
172.2080, 1719.315
173.4420, 1400.046
174.6760, 1112.531
175.9100, 874.6331
177.1440, 685.3652
178.3770, 652.6851
179.6100, 457.2405
180.8430, 341.9917
182.0760, 188.9683
183.3090, 176.2351
184.5410, 88.84937
185.7740, 185.8628
187.0060, 124.3208
188.2380, 152.2642
189.4690, 73.72876
190.7010, 163.7473
191.9320, 56.34741
193.1630, 59.55347
194.3940, 39.38892
195.6250, 64.87524
196.8550, 25.03101
198.0860, 87.87451
199.3160, 92.42310
200.5460, 58.05542
201.7750, 60.05298
203.0050, 36.39795
204.2340, 17.70752
205.4630, 64.18823
206.6920, 27.09644
207.9210, 34.86133
209.1500, 186.6885
210.3780, 280.6047
211.6060, 334.1731
212.8340, 483.8882
214.0620, 592.3232
215.2900, 717.6433
216.5170, 827.8442
217.7440, 1023.814
218.9710, 1169.089
220.1980, 1347.834
221.4250, 1397.913
222.6510, 1457.660
223.8770, 1425.222
225.1040, 1391.554
226.3290, 1389.758
227.5550, 1195.585
228.7810, 992.4531
230.0060, 788.3572
231.2310, 662.2920
232.4560, 592.2527
233.6810, 482.2363
234.9050, 491.2390
236.1290, 426.2583
237.3540, 435.2913
238.5770, 530.3335
239.8010, 668.3818
241.0250, 742.4331
242.2480, 927.4897
243.4710, 1154.544
244.6940, 1335.581
245.9170, 1552.577
247.1400, 1852.546
248.3620, 2186.496
249.5840, 2528.423
250.8060, 2680.325
252.0280, 2801.201
253.2500, 2651.054
254.4710, 2203.882
255.6920, 1813.687
256.9140, 1380.470
258.1340, 1013.232
259.3550, 951.9739
260.5760, 846.6970
261.7960, 471.4019
263.0160, 236.0894
264.2360, 107.7603
265.4560, 83.41577
266.6750, 4.056396
267.8940, 21.68237
269.1140, 5.294922
270.3330, 43.10474
271.5510, 24.51660
272.7700, 106.9395
273.9880, 35.37842
275.2070, 44.85938
276.4250, 16.40894
277.6420, 59.06348
278.8600, 106.8633
280.0770, 112.7659
281.2950, 132.7915
282.5120, 57.99243
283.7290, 84.36084
284.9450, 77.57812
286.1620, 38.73242
287.3780, 58.83374
288.5940, 91.98730
289.8100, 94.06592
291.0260, 89.16821
292.2410, 17.69507
293.4570, 43.54150
294.6720, 47.63403
295.8870, 62.14209
297.1010, 36.11304
298.3160, 77.57764
299.5300, 37.23096
300.7450, 34.15967
301.9590, 22.38281
303.1730, 67.86963
304.3860, 50.30225
305.6000, 121.6790
306.8130, 139.0010
308.0260, 147.2703
309.2390, 161.4871
310.4510, 153.6526
311.6640, 215.3267
312.8760, 259.8206
314.0880, 358.8245
315.3000, 482.7798
316.5120, 603.6780
317.7240, 698.3962
318.9350, 801.9155
320.1460, 891.8325
321.3570, 973.4009
322.5680, 1062.613
323.7790, 1127.332
324.9890, 1203.698
326.1990, 1267.003
327.4090, 1310.248
328.6190, 1312.439
329.8290, 1430.577
331.0380, 1423.666
332.2480, 1411.709
333.4570, 1301.707
334.6660, 1246.664
335.8740, 1213.581
337.0830, 1156.461
338.2910, 1149.204
339.5000, 1096.211
340.7080, 957.4871
341.9150, 994.1260
343.1230, 918.5317
344.3300, 826.1865
345.5380, 961.8240
346.7450, 967.2705
347.9520, 952.6152
349.1580, 983.6753
350.3650, 1008.512
351.5710, 1052.749
352.7770, 1107.298
353.9830, 1147.309
355.1890, 1237.732
356.3940, 1389.312
357.6000, 1575.779
358.8050, 1724.120
360.0100, 2151.323
361.2150, 2346.505
362.4190, 2617.637
363.6240, 3076.730
364.8280, 3426.780
366.0320, 3963.817
367.2360, 4184.848
368.4400, 4069.881
369.6430, 3822.916
370.8460, 3586.956
372.0500, 2883.001
373.2530, 2369.052
374.4550, 1840.108
375.6580, 1395.169
376.8600, 1081.235
378.0620, 878.3066
379.2650, 693.3831
380.4660, 656.4641
381.6680, 530.5508
382.8690, 439.6423
384.0710, 420.7393
385.2720, 337.8411
386.4730, 320.9485
387.6730, 304.0610
388.8740, 279.1785
390.0740, 331.3018
391.2740, 348.4309
392.4740, 332.5662
393.6740, 368.7075
394.8740, 340.8552
396.0730, 495.0093
397.2730, 530.1699
398.4720, 516.3374
399.6700, 693.5122
400.8690, 717.6941
402.0680, 947.8835
403.2660, 1116.081
404.4640, 1230.287
405.6620, 1398.502
406.8600, 1483.733
408.0570, 1565.161
409.2550, 1682.187
410.4520, 1652.268
411.6490, 1702.774
412.8460, 1687.281
414.0430, 1690.032
415.2390, 1674.838
416.4350, 1654.539
417.6310, 1634.644
418.8270, 1601.424
420.0230, 1571.481
421.2190, 1541.424
422.4140, 1471.512
423.6090, 1412.256
424.8040, 1256.460
425.9990, 1130.519
427.1940, 983.3843
428.3880, 962.6521
429.5820, 849.3862
430.7760, 800.0933
431.9700, 801.5955
433.1640, 702.5383
434.3580, 727.3745
435.5510, 677.5552
436.7440, 689.2559
437.9370, 755.6440
439.1300, 775.5212
440.3230, 812.1877
441.5150, 784.8474
442.7070, 824.6863
443.8990, 895.0273
445.0910, 856.8872
446.2830, 917.9673
447.4750, 998.7148
448.6660, 967.3169
449.8570, 973.5200
451.0480, 964.7996
452.2390, 984.1187
453.4290, 949.7627
454.6200, 974.8594
455.8100, 882.4805
457.0000, 833.1230
458.1900, 791.7698
459.3800, 778.4214
460.5690, 751.0776
461.7590, 755.7385
462.9480, 766.4053
464.1370, 630.0776
465.3260, 625.7561
466.5140, 526.4412
467.7030, 513.1338
468.8910, 394.8330
470.0790, 443.5400
471.2670, 385.2546
472.4550, 361.9775
473.6420, 286.7087
474.8300, 328.4485
476.0170, 222.1985
477.2040, 323.9617
478.3900, 178.7344
479.5770, 213.5212
480.7640, 154.3306
481.9500, 179.1624
483.1360, 133.0066
484.3220, 109.8621
485.5080, 163.7295
486.6930, 149.6182
487.8780, 80.52246
489.0640, 117.4380
490.2490, 99.37720
491.4330, 97.34131
492.6180, 102.3245
493.8030, 58.33496
494.9870, 86.68994
496.1710, 116.9026
497.3550, 108.5579
498.5390, 218.6860
499.7220, 217.8350
500.9060, 268.0156
502.0890, 279.2346
503.2720, 319.4797
504.4550, 422.7505
505.6370, 455.0398
506.8200, 528.3469
508.0020, 668.6746
509.1840, 759.0244
510.3660, 945.3926
511.5480, 1004.782
512.7290, 1129.193
513.9110, 1303.624
515.0920, 1456.073
516.2730, 1676.540
517.4540, 1792.027
518.6350, 1958.532
519.8150, 2073.055
520.9960, 2348.605
522.1760, 2475.172
523.3560, 2482.762
524.5350, 2618.369
525.7150, 2560.994
526.8950, 2652.638
528.0740, 2598.299
529.2530, 2561.980
530.4320, 2377.676
531.6100, 2132.392
532.7890, 2073.125
533.9670, 1946.875
535.1460, 1840.645
536.3240, 1748.430
537.5010, 1579.234
538.6790, 1413.055
539.8570, 1387.893
541.0340, 1309.749
542.2110, 1264.623
543.3880, 1198.513
544.5650, 1131.431
545.7410, 1128.785
546.9180, 1071.728
548.0940, 1057.347
549.2700, 1104.604
550.4460, 1029.886
551.6210, 1093.901
552.7970, 1015.139
553.9720, 1116.470
555.1480, 1127.569
556.3230, 1093.700
557.4970, 1179.876
558.6720, 1151.639
559.8460, 1140.641
561.0210, 1163.834
562.1950, 1174.649
563.3690, 1160.762
564.5420, 1040.508
565.7160, 1100.137
566.8890, 1028.600
568.0630, 931.3301
569.2360, 940.7026
570.4090, 874.9482
571.5810, 863.1450
572.7540, 627.7148
573.9260, 673.6855
575.0980, 555.5796
576.2700, 514.2505
577.4420, 458.2852
578.6140, 410.0554
579.7850, 377.9043
580.9560, 327.2253
582.1270, 310.5630
583.2980, 231.7485
584.4690, 179.8867
585.6400, 174.2544
586.8100, 133.4436
587.9800, 145.1409
589.1500, 130.3254
590.3200, 150.5654
591.4900, 165.8188
592.6590, 137.0854
593.8290, 78.36450
594.9980, 122.6562
596.1670, 140.9604
597.3360, 132.2756
598.5040, 233.6021
599.6730, 260.0068
600.8410, 228.3550
602.0090, 316.7144
603.1770, 397.0840
604.3450, 349.4644
605.5130, 472.8555
606.6800, 550.2568
607.8470, 568.7031
609.0140, 653.1250
610.1810, 710.5569
611.3480, 808.9988
612.5140, 949.4504
613.6810, 1007.918
614.8470, 1158.389
616.0130, 1342.071
617.1790, 1550.427
618.3440, 1745.052
619.5100, 2080.469
620.6750, 2356.829
621.8400, 2860.064
623.0050, 3331.990
624.1700, 3893.534
625.3350, 4718.327
626.4990, 5702.939
627.6640, 6844.375
628.8280, 8016.073
629.9920, 9268.325
631.1550, 10585.77
632.3190, 11875.49
633.4820, 12952.64
634.6460, 13843.11
635.8090, 14250.16
636.9710, 14016.60
638.1340, 12981.63
639.2970, 11399.43
640.4590, 9582.467
641.6210, 8032.220
642.7830, 6633.728
643.9450, 5302.196
645.1070, 4313.965
646.2680, 3471.685
647.4300, 2972.841
648.5910, 2367.283
649.7520, 1920.042
650.9130, 1709.346
652.0730, 1503.810
653.2340, 1253.697
654.3940, 1134.431
655.5540, 966.1057
656.7140, 820.0947
657.8740, 764.8062
659.0330, 725.4856
660.1930, 530.1106
661.3520, 514.7915
662.5110, 472.1821
663.6700, 387.9287
664.8290, 452.7498
665.9870, 335.4375
667.1460, 289.2207
668.3040, 231.9429
669.4620, 245.6338
670.6200, 166.3245
671.7770, 164.0400
672.9350, 91.73438
674.0920, 148.4280
675.2500, 54.12207
676.4070, 74.77759
677.5630, 91.80396
678.7200, 94.11377
679.8770, 82.62109
681.0330, 10.10034
682.1890, 20.91211
683.3450, 1.083008
684.5010, 18.11841
685.6560, 10.04224
686.8120, 43.48950
687.9670, 12.13916
689.1220, 11.93433
690.2770, 5.379639
691.4320, 8.144775
692.5870, 9.577393
693.7410, 23.76904
694.8950, 40.89941
696.0490, 31.42969
697.2030, 14.99170
698.3570, 18.30615
699.5110, 53.70483
700.6640, 46.09961
701.8170, 33.51904
702.9700, 57.96069
704.1230, 38.43774
705.2760, 49.94141
706.4290, 36.47852
707.5810, 93.04224
708.7330, 41.66309
709.8850, 55.31494
711.0370, 44.00562
712.1890, 2.270264
713.3400, 32.53564
714.4920, 41.20776
715.6430, 20.01489
716.7940, 58.77222
717.9450, 45.39673
719.0960, 9.444092
720.2460, 14.30420
721.3960, 20.81348
722.5470, 65.92017
723.6970, 5.016846
724.8460, 41.09961
725.9960, 30.82861
727.1460, 21.79004
728.2950, 70.21973
729.4440, 55.21777
730.5930, 66.20459
731.7420, 65.18066
732.8910, 71.14478
734.0390, 113.0977
735.1870, 148.0386
736.3360, 164.9680
737.4840, 35.88550
738.6310, 183.7905
739.7790, 124.6836
740.9260, 153.5645
742.0740, 202.4326
743.2210, 165.2888
744.3680, 134.1323
745.5150, 50.96362
746.6610, 83.78174
747.8080, 74.58716
748.9540, 110.3799
750.1000, 96.45166
751.2460, 62.92627
752.3920, 71.67944
753.5380, 27.41992
754.6830, 10.14429
755.8280, 37.84668
756.9730, 10.53491
758.1180, 20.79956
759.2630, 18.17310
760.4080, 25.41553
761.5520, 71.98608
762.6960, 32.54248
763.8410, 5.917236
764.9840, 15.59033
766.1280, 46.07520
767.2720, 14.45532
768.4150, 17.02368
769.5590, 12.36816
770.7020, 11.26514
771.8450, 15.93506
772.9870, 24.64551
774.1300, 14.40063
775.2720, 33.80469
776.4150, 13.99121
777.5570, 22.84766
778.6990, 49.73120
779.8400, 2.325928
780.9820, 3.351318
782.1230, 55.34546
783.2650, 68.32349
784.4060, 34.28589
785.5470, 26.22852
786.6870, 62.14868
787.8280, 31.21338
788.9680, 27.09668
790.1090, 47.95728
791.2490, 71.80005
792.3890, 126.6274
793.5280, 44.43945
794.6680, 79.23340
795.8070, 98.01147
796.9470, 4.774170
798.0860, 126.5044
799.2250, 32.21924
800.3630, 72.91211
801.5020, 57.61670
802.6410, 97.27661
803.7790, 66.92114
804.9170, 83.33984
806.0550, 146.9524
807.1930, 105.5496
808.3300, 87.28662
809.4680, 128.8525
810.6050, 92.40283
811.7420, 187.2026
812.8790, 179.7217
814.0160, 219.1523
815.1520, 302.6401
816.2890, 250.9209
817.4250, 245.5891
818.5610, 211.2200
819.6970, 231.6448
820.8330, 262.0437
821.9680, 250.0078
823.1040, 284.3857
824.2390, 313.5774
825.3740, 387.1545
826.5090, 401.1965
827.6440, 435.4956
828.7790, 499.5945
829.9130, 455.1519
831.0470, 471.4216
832.1810, 553.6763
833.3150, 594.9153
834.4490, 587.9238
835.5830, 572.4060
836.7160, 708.7224
837.8500, 741.1760
838.9830, 777.6221
840.1160, 880.4670
841.2480, 834.4714
842.3810, 992.6887
843.5140, 1026.687
844.6460, 1078.072
845.7780, 1180.621
846.9100, 1288.252
848.0420, 1365.535
849.1740, 1495.900
850.3050, 1702.472
851.4360, 1706.759
852.5680, 1837.719
853.6990, 1869.792
854.8290, 1998.769
855.9600, 2065.840
857.0910, 2168.543
858.2210, 2122.420
859.3510, 2193.350
860.4810, 2102.057
861.6110, 2155.962
862.7410, 2082.369
863.8700, 2064.293
865.0000, 1933.166
866.1290, 1784.028
867.2580, 1777.879
868.3870, 1713.720
869.5150, 1591.550
870.6440, 1440.369
871.7720, 1304.178
872.9000, 1241.977
874.0290, 1165.698
875.1560, 1096.477
876.2840, 1093.245
877.4120, 1010.002
878.5390, 930.7505
879.6660, 993.4885
880.7930, 885.2168
881.9200, 834.9004
883.0470, 830.6091
884.1740, 838.3086
885.3000, 755.9983
886.4260, 829.6782
887.5530, 885.3438
888.6780, 887.0054
889.8040, 838.4565
890.9300, 926.2349
892.0550, 1065.743
893.1810, 998.4607
894.3060, 985.2354
895.4310, 1070.824
896.5560, 965.9470
897.6800, 953.1357
898.8050, 855.2791
899.9290, 804.8018
901.0530, 775.5039
902.1770, 666.9424
903.3010, 566.8247
904.4250, 523.5132
905.5480, 510.9338
906.6720, 447.9202
907.7950, 381.5830
908.9180, 308.6702
910.0410, 363.3723
911.1630, 324.4802
912.2860, 305.8130
913.4080, 278.9067
914.5300, 256.2891
915.6530, 250.2773
916.7740, 213.1157
917.8960, 237.9441
919.0180, 172.3567
920.1390, 145.3323
921.2600, 169.0203
922.3820, 2.608398
923.5020, 74.21606
924.6230, 73.87939
925.7440, 3.118408
926.8640, 100.5088
927.9850, 140.9578
929.1050, 78.09106
930.2250, 113.5010
931.3450, 68.94189
932.4640, 37.43530
933.5840, 6.871338
934.7030, 79.59644
935.8220, 23.03564
936.9410, 41.25122
938.0600, 83.66943
939.1790, 19.00903
940.2970, 25.36792
941.4160, 73.77417
942.5340, 26.82080
943.6520, 141.5520
944.7700, 38.28296
945.8870, 8.665039
947.0050, 22.72217
948.1220, 73.89111
949.2400, 111.4624
950.3570, 0.1838380
951.4740, 101.1689
952.5900, 7.478516
953.7070, 10.87598
954.8240, 37.23633
955.9400, 32.60547
957.0560, 67.67139
958.1720, 15.37451
959.2880, 65.77490
960.4030, 77.17773
961.5190, 46.41699
962.6340, 51.97119
963.7490, 38.63818
964.8640, 46.74316
965.9790, 62.12500
967.0940, 58.50830
968.2080, 86.10693
969.3230, 73.24463
970.4370, 94.60205
971.5510, 24.01074
972.6650, 51.39453
973.7790, 29.80957
974.8920, 102.2417
976.0060, 56.68555
977.1190, 32.14453
978.2320, 55.61621
979.3450, 29.11426
980.4580, 57.63477
981.5710, 94.17285
982.6830, 94.72656
983.7950, 61.28418
984.9080, 90.86279
986.0200, 129.4565
987.1310, 36.05371
988.2430, 188.6802
989.3550, 0.3095700
990.4660, 171.9468
991.5770, 104.5933
992.6880, 124.2437
993.7990, 189.8975
994.9100, 158.5562
996.0200, 309.2188
997.1310, 228.8965
998.2410, 259.5996
999.3510, 401.3071
1000.461, 419.0205
1001.571, 481.7378
1002.681, 479.4595
1003.790, 578.1851
1004.899, 565.9150
1006.009, 752.6489
1007.118, 816.3877
1008.226, 906.1309
1009.335, 1113.879
1010.444, 1066.631
1011.552, 1161.389
1012.660, 1176.150
1013.768, 1166.917
1014.876, 1181.757
1015.984, 1120.466
1017.092, 1119.247
1018.199, 1102.034
1019.306, 1025.826
1020.413, 870.6240
1021.520, 899.4268
1022.627, 784.2354
1023.734, 829.0503
1024.840, 771.8755
1025.947, 699.7070
1027.053, 643.5483
1028.159, 665.4082
1029.265, 581.2861
1030.370, 587.6426
1031.476, 612.0796
1032.581, 546.9873
1033.687, 567.9102
1034.792, 500.8433
1035.897, 549.7827
1037.002, 529.7407
1038.106, 616.7173
1039.211, 527.7056
1040.315, 522.7119
1041.419, 507.7368
1042.523, 560.7832
1043.627, 464.8496
1044.731, 540.9233
1045.834, 484.0098
1046.938, 458.1172
1048.041, 572.2544
1049.144, 549.4062
1050.247, 490.5732
1051.349, 721.7471
1052.452, 689.9277
1053.555, 722.1187
1054.657, 765.3193
1055.759, 774.3672
1056.861, 800.5854
1057.963, 858.8145
1059.064, 965.0513
1060.166, 960.2954
1061.267, 936.5469
1062.368, 842.8066
1063.470, 779.0737
1064.570, 751.3486
1065.671, 667.6387
1066.772, 723.9360
1067.872, 683.2446
1068.972, 705.5371
1070.073, 638.8647
1071.173, 647.2104
1072.272, 686.7744
1073.372, 630.1367
1074.472, 734.5068
1075.571, 630.7295
1076.670, 777.1162
1077.769, 740.5098
1078.868, 762.6470
1079.967, 850.0571
1081.065, 1023.057
1082.164, 927.4829
1083.262, 1095.896
1084.360, 1070.338
1085.458, 1230.609
1086.556, 1310.344
1087.654, 1337.625
1088.751, 1424.990
1089.848, 1650.378
1090.946, 1836.492
1092.043, 2007.992
1093.139, 2204.499
1094.236, 2494.030
1095.333, 2678.551
1096.429, 3129.925
1097.525, 3484.462
1098.622, 3998.005
1099.718, 4413.556
1100.813, 5153.783
1101.909, 5681.507
1103.005, 6317.542
1104.100, 6834.115
1105.195, 7288.703
1106.290, 7941.299
1107.385, 8121.899
1108.480, 8212.509
1109.574, 8157.126
1110.669, 7753.749
1111.763, 7210.146
1112.857, 6693.783
1113.951, 5988.425
1115.045, 5284.075
1116.139, 4678.077
1117.232, 4209.738
1118.326, 3616.406
1119.419, 3254.096
1120.512, 2906.775
1121.605, 2592.450
1122.697, 2467.142
1123.790, 2180.839
1124.883, 1957.541
1125.975, 1966.249
1127.067, 1697.963
1128.159, 1711.683
1129.251, 1510.346
1130.342, 1483.180
1131.434, 1352.135
1132.525, 1332.876
1133.617, 1214.638
1134.708, 1175.390
1135.799, 1143.146
1136.889, 986.9092
1137.980, 922.6782
1139.071, 936.4521
1140.161, 900.2319
1141.251, 849.0161
1142.341, 857.8062
1143.431, 851.6006
1144.521, 805.4004
1145.610, 910.2129
1146.700, 748.0312
1147.789, 782.8540
1148.878, 772.8179
1149.967, 893.5142
1151.056, 798.3516
1152.144, 779.1934
1153.233, 875.0435
1154.321, 875.9448
1155.409, 950.8042
1156.498, 919.6689
1157.585, 996.5376
1158.673, 999.4121
1159.761, 1015.290
1160.848, 1034.055
1161.936, 1007.942
1163.023, 978.8496
1164.110, 892.7446
1165.197, 807.6436
1166.283, 874.5469
1167.370, 688.4541
1168.456, 715.3647
1169.542, 649.2793
1170.629, 490.1973
1171.714, 438.1187
1172.800, 427.0435
1173.886, 362.9722
1174.971, 333.9038
1176.057, 270.8384
1177.142, 288.7764
1178.227, 302.7168
1179.312, 181.6602
1180.397, 212.6069
1181.481, 174.5562
1182.566, 187.5078
1183.650, 159.4624
1184.734, 146.4189
1185.818, 82.37842
1186.902, 166.3408
1187.986, 101.3057
1189.069, 66.27246
1190.153, 101.2417
1191.236, 51.21338
1192.319, 72.19336
1193.402, 105.1748
1194.485, 10.15820
1195.567, 67.14307
1196.650, 38.18604
1197.732, 72.17480
1198.814, 97.12402
1199.896, 18.12109
1200.978, 57.45557
1202.060, 43.50537
1203.142, 21.94629
1204.223, 27.92676
1205.304, 2.087402
1206.386, 28.10107
1207.467, 19.12256
1208.547, 68.38477
1209.628, 12.46973
1210.709, 11.35498
1211.789, 16.67725
1212.869, 9.709473
1213.950, 5.743164
1215.030, 19.22217
1216.109, 23.21484
1217.189, 31.53418
1218.269, 32.21387
1219.348, 32.22559
1220.427, 11.49902
1221.506, 9.715332
1222.585, 1.683105
1223.664, 17.73486
1224.743, 1.711914
1225.821, 6.312500
1226.899, 74.66650
1227.978, 33.65283
1229.056, 34.08740
1230.134, 7.611816
1231.211, 1.385742
1232.289, 54.38428
1233.366, 42.41357
1234.444, 28.53613
1235.521, 9.485840
1236.598, 69.43555
1237.675, 50.38428
1238.751, 61.33301
1239.828, 19.28076
1240.904, 25.77197
1241.981, 48.15918
1243.057, 68.08887
1244.133, 15.01855
1245.209, 66.05273
1246.284, 48.84229
1247.360, 24.73633
1248.435, 28.36963
1249.510, 32.50537
1250.585, 36.37939
1251.660, 23.25293
1252.735, 38.12598
1253.810, 56.99707
1254.884, 24.87012
1255.959, 47.74170
1257.033, 48.61133
1258.107, 41.51904
1259.181, 4.323242
1260.255, 2.163086
1261.328, 65.02979
1262.402, 8.864258
1263.475, 26.69678
1264.548, 59.52783
1265.621, 27.44873
1266.694, 91.56494
1267.767, 64.42822
1268.840, 97.34473
1269.912, 63.17529
1270.984, 62.01270
1272.056, 85.83936
1273.129, 53.66455
1274.200, 52.36084
1275.272, 75.18164
1276.344, 48.00000
1277.415, 50.81592
1278.486, 32.63086
1279.558, 47.44531
1280.629, 66.25781
1281.699, 66.95166
1282.770, 14.58643
1283.841, 88.55566
1284.911, 93.35791
1285.981, 104.1572
1287.051, 35.01807
1288.121, 125.8120
1289.191, 19.39697
1290.261, 152.4653
1291.330, 24.23340
1292.400, 79.99902
1293.469, 111.7612
1294.538, 96.52002
1295.607, 133.2759
1296.676, 112.5205
1297.745, 46.77637
1298.813, 81.52100
1299.881, 64.26221
1300.950, 59.00000
1302.018, 62.76123
1303.086, 60.54834
1304.154, 69.18945
1305.221, 74.91113
1306.289, 120.6289
1307.356, 138.4512
1308.423, 131.1602
1309.490, 57.86670
1310.557, 78.56836
1311.624, 93.26562
