##NAMES=Augelite
##RRUFFID=R050060
##IDEAL CHEMISTRY=Al_2_PO_4_(OH)_3_
##LOCALITY=Machacamarca, Potosi Department, Bolivia
##OWNER=RRUFF
##SOURCE=Rock Currier
##DESCRIPTION=Colorless prismatic crystals
##STATUS=The identification of this mineral has been confirmed by X-ray diffraction and chemical analysis
##URL=rruff.info/R050060
##MEASURED CHEMISTRY=Al_2.00_(P_1.00_O_4_)(OH)_3_; OH estimated by difference
##PIN_ID=L01372
##ORIENTATION=Laser parallel to -a* (-1 0 0). Fiducial mark perpendicular to laser is parallel to -b [0 -1 0]
206.6920, 0.0000000E+00
207.9210, 0.8413090
209.1500, 48.00098
210.3780, 4.103027
211.6060, 173.3428
212.8340, 280.6440
214.0620, 426.7788
215.2900, 516.3135
216.5170, 693.6519
217.7440, 976.1758
218.9710, 1087.589
220.1980, 1388.037
221.4250, 1635.780
222.6510, 1989.725
223.8770, 2250.399
225.1040, 2500.197
226.3290, 2432.774
227.5550, 2505.119
228.7810, 2033.308
230.0060, 1617.447
231.2310, 1159.951
232.4560, 793.4116
233.6810, 591.9824
234.9050, 366.3027
236.1290, 334.1343
237.3540, 293.3315
238.5770, 199.1934
239.8010, 169.9771
241.0250, 197.1294
242.2480, 197.4771
243.4710, 225.2979
244.6940, 224.0347
245.9170, 236.2036
247.1400, 303.6685
248.3620, 228.9370
249.5840, 364.9639
250.8060, 351.3433
252.0280, 353.2769
253.2500, 428.6924
254.4710, 296.5464
255.6920, 291.7373
256.9140, 362.6333
258.1340, 235.8462
259.3550, 297.1890
260.5760, 422.9634
261.7960, 317.1250
263.0160, 161.9346
264.2360, 195.5210
265.4560, 230.8364
266.6750, 148.9839
267.8940, 172.6118
269.1140, 181.5283
270.3330, 133.9653
271.5510, 155.4585
272.7700, 159.2900
273.9880, 142.2275
275.2070, 141.8174
276.4250, 148.2710
277.6420, 178.7515
278.8600, 161.2427
280.0770, 172.9028
281.2950, 168.9282
282.5120, 162.6611
283.7290, 146.6294
284.9450, 161.9829
286.1620, 135.8413
287.3780, 108.9160
288.5940, 93.07715
289.8100, 53.31738
291.0260, 117.7153
292.2410, 158.0679
293.4570, 22.75488
294.6720, 152.3203
295.8870, 129.8569
297.1010, 118.4399
298.3160, 11.93506
299.5300, 42.72754
300.7450, 51.42578
301.9590, 59.84473
303.1730, 12.08643
304.3860, 57.30469
305.6000, 63.49561
306.8130, 35.69189
308.0260, 10.12598
309.2390, 89.05859
310.4510, 32.24805
311.6640, 69.44287
312.8760, 19.64502
314.0880, 23.85156
315.3000, 27.05859
316.5120, 25.26025
317.7240, 115.4551
318.9350, 112.6426
320.1460, 35.82520
321.3570, 33.99023
322.5680, 24.19141
323.7790, 90.61816
324.9890, 26.56104
326.1990, 70.23096
327.4090, 96.99512
328.6190, 6.679199
329.8290, 16.32764
331.0380, 59.08105
332.2480, 28.57422
333.4570, 18.11914
334.6660, 62.29932
335.8740, 67.60742
337.0830, 23.87158
338.2910, 50.14160
339.5000, 22.58057
340.7080, 52.72900
341.9150, 28.04932
343.1230, 85.35742
344.3300, 124.6943
345.5380, 104.0654
346.7450, 117.8550
347.9520, 125.8955
349.1580, 79.36816
350.3650, 58.87939
351.5710, 32.43066
352.7770, 25.05469
353.9830, 10.15771
355.1890, 10.19434
356.3940, 47.55322
357.6000, 15.01855
358.8050, 1.490723
360.0100, 26.00879
361.2150, 52.49316
362.4190, 12.98584
363.6240, 9.448730
364.8280, 42.89014
366.0320, 29.30566
367.2360, 65.68945
368.4400, 199.0356
369.6430, 109.3408
370.8460, 52.60400
372.0500, 159.8262
373.2530, 79.00830
374.4550, 3.849609
375.6580, 27.74707
376.8600, 28.30664
378.0620, 11.95264
379.2650, 38.25879
380.4660, 3.859375
381.6680, 108.9570
382.8690, 109.7031
384.0710, 104.3809
385.2720, 93.99805
386.4730, 140.5586
387.6730, 204.0742
388.8740, 261.5513
390.0740, 323.9956
391.2740, 490.4092
392.4740, 413.7905
393.6740, 603.1270
394.8740, 656.4419
396.0730, 887.7114
397.2730, 990.9648
398.4720, 1347.146
399.6700, 1647.229
400.8690, 1966.190
402.0680, 2502.092
403.2660, 3049.884
404.4640, 3632.562
405.6620, 4224.175
406.8600, 4982.725
408.0570, 5240.713
409.2550, 5265.835
410.4520, 5057.101
411.6490, 4719.912
412.8460, 4297.979
414.0430, 3891.041
415.2390, 3234.700
416.4350, 3139.634
417.6310, 2769.658
418.8270, 2630.597
420.0230, 2481.616
421.2190, 2328.769
422.4140, 2071.139
423.6090, 2065.482
424.8040, 1824.919
425.9990, 1807.376
427.1940, 1670.847
428.3880, 1596.289
429.5820, 1632.806
430.7760, 1525.251
431.9700, 1449.567
433.1640, 1432.804
434.3580, 1446.403
435.5510, 1430.919
436.7440, 1448.632
437.9370, 1469.137
439.1300, 1460.543
440.3230, 1487.846
441.5150, 1463.528
442.7070, 1378.795
443.8990, 1375.829
445.0910, 1333.124
446.2830, 1276.295
447.4750, 1223.464
448.6660, 1208.468
449.8570, 1184.116
451.0480, 1219.704
452.2390, 1258.232
453.4290, 1387.698
454.6200, 1460.843
455.8100, 1611.765
457.0000, 1573.926
458.1900, 1770.936
459.3800, 1909.856
460.5690, 2129.001
461.7590, 2296.598
462.9480, 2391.481
464.1370, 2557.296
465.3260, 2691.299
466.5140, 2681.065
467.7030, 2896.374
468.8910, 2900.209
470.0790, 2824.503
471.2670, 2684.893
472.4550, 2732.952
473.6420, 2413.126
474.8300, 2260.499
476.0170, 1909.928
477.2040, 1562.130
478.3900, 1469.691
479.5770, 1289.290
480.7640, 1120.781
481.9500, 997.7622
483.1360, 845.8306
484.3220, 703.7368
485.5080, 614.4624
486.6930, 530.5405
487.8780, 470.4512
489.0640, 428.0371
490.2490, 409.9946
491.4330, 373.9775
492.6180, 372.0000
493.8030, 301.0732
494.9870, 415.1704
496.1710, 596.2905
497.3550, 476.1699
498.5390, 586.3423
499.7220, 734.5352
500.9060, 683.7417
502.0890, 915.9243
503.2720, 928.2007
504.4550, 1177.713
505.6370, 1386.018
506.8200, 1639.349
508.0020, 1823.691
509.1840, 2020.050
510.3660, 2241.423
511.5480, 2677.810
512.7290, 2949.210
513.9110, 3513.624
515.0920, 3934.050
516.2730, 4419.488
517.4540, 4905.892
518.6350, 5399.305
519.8150, 5939.267
520.9960, 6413.608
522.1760, 6879.116
523.3560, 7339.590
524.5350, 7484.127
525.7150, 7518.682
526.8950, 7739.269
528.0740, 7313.882
529.2530, 7215.515
530.4320, 6804.164
531.6100, 6351.831
532.7890, 6030.512
533.9670, 5631.210
535.1460, 5036.926
536.3240, 4699.656
537.5010, 4169.405
538.6790, 3717.169
539.8570, 3485.951
541.0340, 3243.750
542.2110, 2863.567
543.3880, 2701.402
544.5650, 2397.255
545.7410, 2326.127
546.9180, 1959.018
548.0940, 1880.929
549.2700, 1717.859
550.4460, 1602.812
551.6210, 1523.048
552.7970, 1535.043
553.9720, 1411.909
555.1480, 1288.948
556.3230, 1225.284
557.4970, 1081.368
558.6720, 982.4844
559.8460, 995.5430
561.0210, 872.3408
562.1950, 818.0005
563.3690, 752.5591
564.5420, 670.4082
565.7160, 610.3828
566.8890, 577.6294
568.0630, 463.8940
569.2360, 505.1772
570.4090, 499.4785
571.5810, 261.7979
572.7540, 473.1357
573.9260, 280.4922
575.0980, 272.8677
576.2700, 137.2656
577.4420, 175.6816
578.6140, 209.1152
579.7850, 257.5737
580.9560, 243.2856
582.1270, 200.5430
583.2980, 228.0527
584.4690, 216.5952
585.6400, 247.1572
586.8100, 131.7383
587.9800, 229.3623
589.1500, 154.0161
590.3200, 218.7114
591.4900, 269.4238
592.6590, 255.1709
593.8290, 253.9395
594.9980, 274.7563
596.1670, 327.6050
597.3360, 371.4951
598.5040, 338.4131
599.6730, 434.3594
600.8410, 421.3340
602.0090, 629.3364
603.1770, 629.3896
604.3450, 677.4927
605.5130, 621.6245
606.6800, 725.7705
607.8470, 860.9419
609.0140, 954.1260
610.1810, 1064.336
611.3480, 1192.558
612.5140, 1265.791
613.6810, 1431.294
614.8470, 1551.417
616.0130, 1734.702
617.1790, 1876.099
618.3440, 2072.523
619.5100, 2322.035
620.6750, 2550.250
621.8400, 2838.728
623.0050, 3223.924
624.1700, 3643.189
625.3350, 4307.239
626.4990, 4897.970
627.6640, 5751.550
628.8280, 6704.089
629.9920, 7832.934
631.1550, 9042.616
632.3190, 10094.62
633.4820, 11423.29
634.6460, 12584.86
635.8090, 13464.95
636.9710, 13588.71
638.1340, 13230.58
639.2970, 12210.19
640.4590, 10727.19
641.6210, 9179.561
642.7830, 7841.011
643.9450, 6507.881
645.1070, 5532.521
646.2680, 4740.739
647.4300, 3955.702
648.5910, 3534.995
649.7520, 3013.289
650.9130, 2660.975
652.0730, 2328.770
653.2340, 2023.630
654.3940, 1655.152
655.5540, 1476.790
656.7140, 1464.365
657.8740, 1131.213
659.0330, 1082.055
660.1930, 917.6357
661.3520, 826.3667
662.5110, 741.9077
663.6700, 682.7002
664.8290, 539.5195
665.9870, 558.4004
667.1460, 399.7783
668.3040, 461.5962
669.4620, 319.8418
670.6200, 260.4966
671.7770, 398.0820
672.9350, 264.0640
674.0920, 92.35254
675.2500, 173.9346
676.4070, 167.7041
677.5630, 116.3052
678.7200, 132.9072
679.8770, 95.50732
681.0330, 147.1118
682.1890, 132.7134
683.3450, 32.31104
684.5010, 70.90674
685.6560, 37.49854
686.8120, 29.08643
687.9670, 30.66992
689.1220, 36.25000
690.2770, 37.17480
691.4320, 89.38330
692.5870, 95.06299
693.7410, 30.44238
694.8950, 84.05762
696.0490, 16.40137
697.2030, 5.854492
698.3570, 107.6982
699.5110, 102.3081
700.6640, 82.97461
701.8170, 96.12842
702.9700, 16.45508
704.1230, 18.23633
705.2760, 29.28076
706.4290, 58.13574
707.5810, 116.3535
708.7330, 122.5366
709.8850, 159.7109
711.0370, 228.9004
712.1890, 382.0811
713.3400, 420.2549
714.4920, 466.4297
715.6430, 494.6123
716.7940, 585.7930
717.9450, 479.9639
719.0960, 575.1270
720.2460, 532.2812
721.3960, 567.4248
722.5470, 522.5605
723.6970, 519.6855
724.8460, 396.8018
725.9960, 431.9062
727.1460, 297.0020
728.2950, 306.0859
729.4440, 367.1602
730.5930, 398.2227
731.7420, 278.2744
732.8910, 337.3145
734.0390, 267.3428
735.1870, 430.3594
736.3360, 258.3643
737.4840, 318.3555
738.6310, 286.3350
739.7790, 291.3008
740.9260, 136.2539
742.0740, 229.1934
743.2210, 218.1201
744.3680, 235.0322
745.5150, 346.9297
746.6610, 200.8135
747.8080, 86.68359
748.9540, 111.5381
750.1000, 131.3779
751.2460, 31.20312
752.3920, 36.99023
753.5380, 70.23242
754.6830, 76.45703
755.8280, 82.12891
756.9730, 51.78613
758.1180, 17.57520
759.2630, 75.02148
760.4080, 63.39941
761.5520, 0.1132810
762.6960, 59.40918
763.8410, 11.00293
764.9840, 2.615234
766.1280, 1.270508
767.2720, 116.9629
768.4150, 54.24707
769.5590, 22.56250
770.7020, 64.42090
771.8450, 89.64941
772.9870, 6.298828
774.1300, 52.71094
775.2720, 81.29883
776.4150, 88.60840
777.5570, 42.49805
778.6990, 87.63574
779.8400, 8.856445
780.9820, 51.87891
782.1230, 25.59277
783.2650, 3.721680
784.4060, 49.91992
785.5470, 37.53809
786.6870, 38.13281
787.8280, 88.70020
788.9680, 65.24805
790.1090, 59.77441
791.2490, 160.2783
792.3890, 104.7646
793.5280, 120.2314
794.6680, 63.67773
795.8070, 65.10352
796.9470, 122.5586
798.0860, 90.23145
799.2250, 166.5957
800.3630, 89.37402
801.5020, 89.97168
802.6410, 18.72656
803.7790, 5.622070
804.9170, 93.95898
806.0550, 60.13672
807.1930, 133.3613
808.3300, 212.4922
809.4680, 145.6035
810.6050, 130.6934
811.7420, 180.0215
812.8790, 111.6592
814.0160, 162.1270
815.1520, 160.7939
816.2890, 296.8691
817.4250, 179.3789
818.5610, 205.3252
819.6970, 343.2520
820.8330, 297.1562
821.9680, 343.2676
823.1040, 222.9053
824.2390, 336.7480
825.3740, 304.5713
826.5090, 268.3740
827.6440, 473.8926
828.7790, 313.6602
829.9130, 324.5527
831.0470, 391.2715
832.1810, 423.2490
833.3150, 500.9414
834.4490, 412.5918
835.5830, 510.4297
836.7160, 653.4014
837.8500, 819.5107
838.9830, 707.7236
840.1160, 708.6455
841.2480, 843.4424
842.3810, 826.9678
843.5140, 885.4746
844.6460, 1046.062
845.7780, 1190.531
846.9100, 1233.791
848.0420, 1190.224
849.1740, 1365.849
850.3050, 1398.103
851.4360, 1660.117
852.5680, 1790.839
853.6990, 1828.178
854.8290, 1902.496
855.9600, 2011.797
857.0910, 2062.077
858.2210, 2086.340
859.3510, 2056.583
860.4810, 2055.810
861.6110, 2005.896
862.7410, 1946.204
863.8700, 1873.373
865.0000, 1829.523
866.1290, 1736.656
867.2580, 1600.771
868.3870, 1544.865
869.5150, 1454.942
870.6440, 1487.002
871.7720, 1331.043
872.9000, 1244.065
874.0290, 1034.070
875.1560, 998.5566
876.2840, 985.0254
877.4120, 934.9766
878.5390, 873.9092
879.6660, 925.8242
880.7930, 739.7217
881.9200, 906.6035
883.0470, 713.4658
884.1740, 865.3125
885.3000, 852.1416
886.4260, 721.9531
887.5530, 844.4941
888.6780, 746.4102
889.8040, 867.1787
890.9300, 927.8408
892.0550, 858.5049
893.1810, 976.0195
894.3060, 893.8555
895.4310, 991.4229
896.5560, 913.7480
897.6800, 853.0430
898.8050, 755.0273
899.9290, 641.3271
901.0530, 540.7715
902.1770, 563.2500
903.3010, 315.4170
904.4250, 573.7393
905.5480, 376.7363
906.6720, 353.0625
907.7950, 430.4814
908.9180, 244.3672
910.0410, 438.5830
911.1630, 244.6797
912.2860, 260.0293
913.4080, 307.9824
914.5300, 210.5664
915.6530, 212.0586
916.7740, 116.1250
917.8960, 157.4219
919.0180, 159.1338
920.1390, 280.0967
921.2600, 223.7207
922.3820, 244.3359
923.5020, 184.5527
924.6230, 250.6543
925.7440, 67.68359
926.8640, 177.0420
927.9850, 69.27930
929.1050, 185.5703
930.2250, 129.5830
931.3450, 33.59766
932.4640, 13.13477
933.5840, 78.97070
934.7030, 95.74121
935.8220, 45.73926
936.9410, 149.2139
938.0600, 55.09668
939.1790, 16.52539
940.2970, 153.4004
941.4160, 14.89062
942.5340, 126.9629
943.6520, 83.09668
944.7700, 73.20508
945.8870, 0.7578130
947.0050, 40.64453
948.1220, 38.67285
949.2400, 9.684570
950.3570, 4.357422
951.4740, 25.60645
952.5900, 72.40918
953.7070, 26.41992
954.8240, 22.42480
955.9400, 58.13477
957.0560, 41.13086
958.1720, 64.41113
959.2880, 61.39648
960.4030, 18.37891
961.5190, 24.35547
962.6340, 13.19434
963.7490, 38.30859
964.8640, 18.30176
965.9790, 12.70996
967.0940, 8.289063
968.2080, 68.28320
969.3230, 2.725586
970.4370, 31.28711
971.5510, 21.12305
972.6650, 24.95508
973.7790, 12.48730
974.8920, 50.57910
976.0060, 62.67480
977.1190, 49.76660
978.2320, 3.144531
979.3450, 149.9414
980.4580, 87.97559
981.5710, 98.06348
982.6830, 7.899414
983.7950, 41.86816
984.9080, 70.85547
986.0200, 33.87695
987.1310, 41.08789
988.2430, 11.05371
989.3550, 4.026367
990.4660, 157.9990
991.5770, 97.98926
992.6880, 124.9795
993.7990, 142.9697
994.9100, 87.96680
996.0200, 130.9648
997.1310, 123.8232
998.2410, 91.95996
999.3510, 110.9561
1000.461, 268.9541
1001.571, 200.9502
1002.681, 306.9473
1003.790, 305.9443
1004.899, 321.9424
1006.009, 241.9404
1007.118, 251.9463
1008.226, 194.9570
1009.335, 240.9697
1010.444, 266.9844
1011.552, 260.0137
1012.660, 213.0459
1013.768, 307.1191
1014.876, 303.2002
1015.984, 385.3057
1017.092, 274.4121
1018.199, 322.5215
1019.306, 215.6299
1020.413, 362.7471
1021.520, 206.8662
1022.627, 236.0049
1023.734, 167.1729
1024.840, 175.3555
1025.947, 293.5430
1027.053, 124.7324
1028.159, 191.9375
1029.265, 325.1465
1030.370, 237.3828
1031.476, 287.6309
1032.581, 195.9062
1033.687, 269.1904
1034.792, 270.4883
1035.897, 170.7998
1037.002, 284.1543
1038.106, 353.5137
1039.211, 290.8916
1040.315, 249.2998
1041.419, 232.7129
1042.523, 370.1406
1043.627, 252.5723
1044.731, 208.0410
1045.834, 403.5137
1046.938, 491.9951
1048.041, 302.5146
1049.144, 352.0527
1050.247, 328.5947
1051.349, 439.1475
1052.452, 445.7158
1053.555, 403.3066
1054.657, 495.9053
1055.759, 425.5117
1056.861, 634.1240
1057.963, 529.7412
1059.064, 653.3633
1060.166, 593.9922
1061.267, 855.6309
1062.368, 666.2734
1063.470, 744.9219
1064.570, 828.5244
1065.671, 678.8936
1066.772, 728.5576
1067.872, 704.7920
1068.972, 852.1924
1070.073, 993.8760
1071.173, 866.6104
1072.272, 844.1221
1073.372, 994.8799
1074.472, 1039.573
1075.571, 1001.347
1076.670, 1179.124
1077.769, 1151.907
1078.868, 1313.438
1079.967, 1220.646
1081.065, 1417.026
1082.164, 1527.174
1083.262, 1696.898
1084.360, 1818.395
1085.458, 1890.001
1086.556, 2050.831
1087.654, 2148.669
1088.751, 2259.514
1089.848, 2566.361
1090.946, 2703.217
1092.043, 2949.077
1093.139, 3344.943
1094.236, 3624.816
1095.333, 4048.688
1096.429, 4456.572
1097.525, 4954.532
1098.622, 5568.877
1099.718, 6474.783
1100.813, 7338.709
1101.909, 7916.672
1103.005, 8779.671
1104.100, 9620.790
1105.195, 10317.60
1106.290, 10899.55
1107.385, 11022.64
1108.480, 11045.60
1109.574, 10711.57
1110.669, 10311.45
1111.763, 9515.447
1112.857, 8560.628
1113.951, 7710.619
1115.045, 6746.406
1116.139, 5731.549
1117.232, 4838.961
1118.326, 4366.813
1119.419, 3725.229
1120.512, 3193.207
1121.605, 2637.463
1122.697, 2348.865
1123.790, 2131.113
1124.883, 1927.320
1125.975, 1675.465
1127.067, 1659.519
1128.159, 1369.773
1129.251, 1415.840
1130.342, 1397.912
1131.434, 1111.213
1132.525, 1210.297
1133.617, 1285.410
1134.708, 1205.505
1135.799, 1237.790
1136.889, 1063.119
1137.980, 1130.555
1139.071, 1134.034
1140.161, 1183.307
1141.251, 1358.665
1142.341, 1301.600
1143.431, 1458.848
1144.521, 1426.043
1145.610, 1664.551
1146.700, 1690.109
1147.789, 1730.266
1148.878, 1937.426
1149.967, 1993.588
1151.056, 2147.962
1152.144, 2497.134
1153.233, 2726.318
1154.321, 3110.507
1155.409, 3178.941
1156.498, 3614.334
1157.585, 3885.628
1158.673, 4057.824
1159.761, 4458.022
1160.848, 4403.223
1161.936, 4598.501
1163.023, 4386.704
1164.110, 4451.909
1165.197, 4182.313
1166.283, 3924.521
1167.370, 3474.731
1168.456, 3174.330
1169.542, 2970.548
1170.629, 2819.760
1171.714, 2197.973
1172.800, 2080.188
1173.886, 1829.403
1174.971, 1741.834
1176.057, 1381.170
1177.142, 1438.802
1178.227, 1132.290
1179.312, 1078.777
1180.397, 907.0166
1181.481, 745.2549
1182.566, 805.4922
1183.650, 787.5732
1184.734, 748.8096
1185.818, 534.0459
1186.902, 614.4893
1187.986, 386.7236
1189.069, 536.9561
1190.153, 324.5391
1191.236, 390.0029
1192.319, 271.2812
1193.402, 399.5088
1194.485, 169.7354
1195.567, 346.9600
1196.650, 484.1895
1197.732, 260.4170
1198.814, 283.6709
1199.896, 171.7217
1200.978, 129.5430
1202.060, 256.8457
1203.142, 212.1104
1204.223, 272.3740
1205.304, 63.63477
1206.386, 93.89355
1207.467, 128.1494
1208.547, 123.4014
1209.628, 154.9922
1210.709, 19.27832
1211.789, 86.54492
1212.869, 97.81250
1213.950, 64.07812
1215.030, 137.5869
1216.109, 35.85449
1217.189, 73.11719
1218.269, 37.37793
1219.348, 111.6338
1220.427, 109.9014
1221.506, 153.1504
1222.585, 202.3955
1223.664, 63.74121
1224.743, 76.15234
1225.821, 135.3848
1226.899, 19.77734
1227.978, 130.1338
1229.056, 141.9951
1230.134, 148.3203
1231.211, 3.776367
1232.289, 35.01562
1233.366, 2.333984
1234.444, 31.14746
1235.521, 171.8691
1236.598, 17.02051
1237.675, 120.1650
1238.751, 123.3047
1239.828, 69.44531
1240.904, 44.74414
1241.981, 125.8740
1243.057, 132.1631
1244.133, 122.3037
1245.209, 75.43945
1246.284, 43.57812
1247.360, 5.727539
1248.435, 3.125977
1249.510, 27.98828
1250.585, 3.124023
1251.660, 65.77148
1252.735, 9.288086
1253.810, 21.39648
1254.884, 28.55957
1255.959, 223.4590
1257.033, 15.47266
1258.107, 115.8760
1259.181, 184.8740
1260.255, 10.86426
1261.328, 71.57422
1262.402, 60.54980
1263.475, 85.71289
1264.548, 23.67383
1265.621, 14.62598
1266.694, 11.75781
1267.767, 12.08398
1268.840, 39.06934
1269.912, 19.96680
1270.984, 34.14453
1272.056, 1.948242
1273.129, 138.1006
1274.200, 10.34180
1275.272, 74.60254
1276.344, 133.0830
1277.415, 94.75977
1278.486, 87.42871
1279.558, 6.802734
1280.629, 79.83887
1281.699, 162.5352
1282.770, 93.16016
1283.841, 37.22266
1284.911, 37.35840
1285.981, 61.93555
1287.051, 233.5020
1288.121, 146.0625
1289.191, 146.6143
1290.261, 70.15625
1291.330, 112.6904
1292.400, 200.2158
1293.469, 42.73242
1294.538, 98.23926
1295.607, 238.7363
1296.676, 17.22461
1297.745, 90.70117
1298.813, 131.1689
1299.881, 248.6279
1300.950, 196.1396
1302.018, 126.7559
1303.086, 47.92676
1304.154, 71.34668
1305.221, 21.75488
1306.289, 40.56934
1307.356, 40.95410
1308.423, 165.3301
1309.490, 228.6963
1310.557, 103.0518
1311.624, 39.60156
1312.691, 133.7002
1313.757, 133.9941
1314.823, 54.28125
1315.890, 153.5576
1316.956, 182.8203
1318.022, 33.07422
1319.087, 3.320313
1320.153, 94.55176
1321.219, 157.7422
1322.284, 281.9248
1323.349, 301.1377
1324.414, 286.1025
1325.479, 290.4180
1326.544, 170.5654
1327.608, 14.70312
1328.673, 80.17188
1329.737, 99.91504
1330.801, 110.9922
1331.865, 212.0625
1332.929, 297.1211
1333.993, 114.1689
1335.057, 149.1875
1336.120, 131.1953
1337.183, 41.19336
1338.247, 106.1787
1339.310, 157.1367
1340.373, 280.1035
1341.435, 209.0576
1342.498, 56.00195
1343.560, 181.0469
1344.623, 211.9707
1345.685, 161.8848
1346.747, 191.7871
1347.809, 110.6797
1348.871, 173.5635
1349.932, 232.4336
1350.994, 90.29102
1352.055, 74.13477
1353.116, 190.9688
1354.177, 76.77539
1355.238, 84.50391
1356.299, 30.71484
1357.359, 91.04199
1358.420, 58.79004
1359.480, 273.3652
1360.540, 76.03223
1361.600, 67.62598
1362.660, 188.5898
1363.720, 129.2666
1364.780, 225.8096
1365.839, 186.2080
1366.898, 186.6689
1367.958, 77.18848
1369.017, 189.7969
1370.076, 82.41699
1371.134, 133.0244
