##NAMES=Augelite
##RRUFFID=R050060
##IDEAL CHEMISTRY=Al_2_PO_4_(OH)_3_
##LOCALITY=Machacamarca, Potosi Department, Bolivia
##OWNER=RRUFF
##SOURCE=Rock Currier
##DESCRIPTION=Colorless prismatic crystals
##STATUS=The identification of this mineral has been confirmed by X-ray diffraction and chemical analysis
##URL=rruff.info/R050060
##MEASURED CHEMISTRY=Al_2.00_(P_1.00_O_4_)(OH)_3_; OH estimated by difference
##PIN_ID=L00872
##ORIENTATION=Laser parallel to -b* (0 -1 0). Fiducial mark perpendicular to laser is parallel to -c [0 0 -1]
90.31400, 0.0000000E+00
91.56100, 87.35852
92.80800, 16.99658
94.05500, 22.70972
95.30200, 14.90503
96.54800, 41.15198
97.79400, 43.82983
99.04000, 70.41846
100.2860, 171.9863
101.5320, 263.5132
102.7770, 326.4048
104.0230, 536.4209
105.2680, 745.6133
106.5130, 1031.262
107.7570, 1390.753
109.0020, 1661.525
110.2460, 1700.072
111.4900, 1826.948
112.7340, 2156.767
113.9780, 2660.199
115.2210, 3199.006
116.4650, 3657.005
117.7080, 4310.022
118.9500, 4938.022
120.1930, 5677.971
121.4360, 6540.786
122.6780, 7416.313
123.9200, 8227.347
125.1620, 8959.703
126.4040, 9795.227
127.6450, 10276.77
128.8860, 10361.22
130.1280, 10056.46
131.3680, 9269.394
132.6090, 8329.957
133.8500, 7043.095
135.0900, 5803.766
136.3300, 4981.922
137.5700, 4238.598
138.8100, 3872.844
140.0490, 3970.862
141.2890, 4250.533
142.5280, 4765.617
143.7670, 5301.158
145.0050, 6231.789
146.2440, 7038.891
147.4820, 8519.364
148.7200, 10034.84
149.9580, 11617.33
151.1960, 13643.54
152.4340, 15955.24
153.6710, 18309.20
154.9080, 21097.95
156.1450, 24258.51
157.3820, 27392.90
158.6190, 30419.12
159.8550, 33651.18
161.0910, 35926.09
162.3270, 37396.88
163.5630, 37943.51
164.7980, 36355.95
166.0340, 34529.11
167.2690, 31216.00
168.5040, 27579.71
169.7390, 24055.27
170.9730, 20667.76
172.2080, 17683.17
173.4420, 15096.00
174.6760, 12712.89
175.9100, 10913.22
177.1440, 9398.538
178.3770, 8227.871
179.6100, 7066.213
180.8430, 6282.573
182.0760, 5499.955
183.3090, 4828.497
184.5410, 4230.631
185.7740, 3883.351
187.0060, 3534.928
188.2380, 3119.824
189.4690, 2874.319
190.7010, 2685.516
191.9320, 2453.820
193.1630, 2256.517
194.3940, 2047.828
195.6250, 1855.982
196.8550, 1758.284
198.0860, 1621.935
199.3160, 1579.845
200.5460, 1481.008
201.7750, 1482.802
203.0050, 1370.341
204.2340, 1278.738
205.4630, 1252.614
206.6920, 1230.960
207.9210, 1284.042
209.1500, 1231.789
210.3780, 1293.885
211.6060, 1308.529
212.8340, 1389.663
214.0620, 1521.335
215.2900, 1750.462
216.5170, 1874.443
217.7440, 2142.826
218.9710, 2476.244
220.1980, 2781.691
221.4250, 3330.160
222.6510, 4055.647
223.8770, 4857.147
225.1040, 5534.656
226.3290, 5466.169
227.5550, 5100.689
228.7810, 4257.211
230.0060, 3212.737
231.2310, 2281.266
232.4560, 1686.799
233.6810, 1286.336
234.9050, 1061.877
236.1290, 1000.423
237.3540, 978.9731
238.5770, 1039.234
239.8010, 1231.890
241.0250, 1405.754
242.2480, 1708.887
243.4710, 2157.400
244.6940, 2512.242
245.9170, 2949.401
247.1400, 3586.052
248.3620, 4360.135
249.5840, 5179.605
250.8060, 5727.418
252.0280, 5934.539
253.2500, 5693.939
254.4710, 4989.593
255.6920, 4000.473
256.9140, 3121.560
258.1340, 2346.836
259.3550, 1787.284
260.5760, 1384.890
261.7960, 950.6406
263.0160, 729.5244
264.2360, 511.5305
265.4560, 355.6489
266.6750, 316.8701
267.8940, 307.1841
269.1140, 190.5820
270.3330, 159.0559
271.5510, 145.5981
272.7700, 32.20239
273.9880, 0.8627930
275.2070, 57.57300
276.4250, 16.66968
277.6420, 5.874756
278.8600, 4.4188999E-02
280.0770, 5.820313
281.2950, 3.103760
282.5120, 33.35815
283.7290, 23.41553
284.9450, 20.45557
286.1620, 66.48145
287.3780, 67.50830
288.5940, 9.460205
289.8100, 5.438721
291.0260, 59.57593
292.2410, 16.39600
293.4570, 26.36426
294.6720, 16.32446
295.8870, 70.27002
297.1010, 66.19922
298.3160, 13.10938
299.5300, 66.99268
300.7450, 15.14697
301.9590, 88.32104
303.1730, 63.54614
304.3860, 69.81592
305.6000, 147.1318
306.8130, 151.5122
308.0260, 117.9578
309.2390, 185.4600
310.4510, 140.0352
311.6640, 147.6719
312.8760, 192.3708
314.0880, 133.1418
315.3000, 103.9697
316.5120, 169.8474
317.7240, 82.79053
318.9350, 92.77783
320.1460, 74.81177
321.3570, 174.8882
322.5680, 141.0312
323.7790, 107.2334
324.9890, 156.4868
326.1990, 75.80347
327.4090, 69.16382
328.6190, 114.5669
329.8290, 39.02637
331.0380, 69.53638
332.2480, 57.09717
333.4570, 58.71899
334.6660, 47.40820
335.8740, 48.19434
337.0830, 63.02930
338.2910, 10.93701
339.5000, 71.12012
340.7080, 120.1650
341.9150, 121.1936
343.1230, 177.1553
344.3300, 213.0396
345.5380, 318.7917
346.7450, 410.4111
347.9520, 390.9041
349.1580, 499.2590
350.3650, 514.4941
351.5710, 537.6406
352.7770, 561.6763
353.9830, 546.6030
355.1890, 620.4263
356.3940, 656.1616
357.6000, 756.1755
358.8050, 786.4370
360.0100, 1017.981
361.2150, 1161.473
362.4190, 1345.968
363.6240, 1705.470
364.8280, 2104.978
366.0320, 2418.495
367.2360, 2770.018
368.4400, 2894.550
369.6430, 2988.088
370.8460, 2795.635
372.0500, 2267.188
373.2530, 1824.750
374.4550, 1504.319
375.6580, 1089.897
376.8600, 847.4836
378.0620, 721.0784
379.2650, 538.6814
380.4660, 419.2932
381.6680, 352.9136
382.8690, 309.5430
384.0710, 255.1150
385.2720, 236.5527
386.4730, 224.6382
387.6730, 232.3967
388.8740, 269.1807
390.0740, 312.9883
391.2740, 239.8132
392.4740, 390.6533
393.6740, 317.5063
394.8740, 496.3708
396.0730, 606.2446
397.2730, 748.1272
398.4720, 936.0166
399.6700, 1230.912
400.8690, 1454.812
402.0680, 1867.716
403.2660, 2392.624
404.4640, 2878.533
405.6620, 3291.445
406.8600, 3872.358
408.0570, 4197.272
409.2550, 4377.187
410.4520, 4345.104
411.6490, 4101.021
412.8460, 3768.939
414.0430, 3581.861
415.2390, 3253.798
416.4350, 2883.759
417.6310, 2633.727
418.8270, 2427.336
420.0230, 2270.570
421.2190, 2154.788
422.4140, 2109.422
423.6090, 2065.201
424.8040, 2009.191
425.9990, 1979.063
427.1940, 2055.102
428.3880, 1954.562
429.5820, 2100.094
430.7760, 2182.073
431.9700, 2223.904
433.1640, 2382.705
434.3580, 2498.230
435.5510, 2632.214
436.7440, 2761.032
437.9370, 2979.978
439.1300, 3094.669
440.3230, 3269.630
441.5150, 3376.591
442.7070, 3312.968
443.8990, 3362.929
445.0910, 3296.634
446.2830, 3330.205
447.4750, 3075.117
448.6660, 2921.581
449.8570, 2830.425
451.0480, 2645.922
452.2390, 2311.300
453.4290, 2190.640
454.6200, 1953.560
455.8100, 1726.956
457.0000, 1556.659
458.1900, 1414.759
459.3800, 1246.499
460.5690, 1138.314
461.7590, 1062.165
462.9480, 873.3689
464.1370, 757.5664
465.3260, 682.8447
466.5140, 613.0520
467.7030, 534.1882
468.8910, 496.3896
470.0790, 404.2812
471.2670, 439.5186
472.4550, 282.0537
473.6420, 320.9895
474.8300, 288.1030
476.0170, 317.9214
477.2040, 231.6211
478.3900, 187.9785
479.5770, 101.2646
480.7640, 140.6714
481.9500, 137.1362
483.1360, 127.9663
484.3220, 60.37158
485.5080, 91.80566
486.6930, 139.2783
487.8780, 41.78125
489.0640, 64.32910
490.2490, 83.92725
491.4330, 160.5635
492.6180, 125.2456
493.8030, 168.9629
494.9870, 172.7197
496.1710, 164.5200
497.3550, 158.3511
498.5390, 247.2153
499.7220, 268.1143
500.9060, 230.0635
502.0890, 260.0605
503.2720, 381.0913
504.4550, 459.1655
505.6370, 602.2788
506.8200, 549.4204
508.0020, 594.5942
509.1840, 788.8145
510.3660, 875.0610
511.5480, 1021.344
512.7290, 1260.654
513.9110, 1313.993
515.0920, 1494.365
516.2730, 1722.780
517.4540, 1934.236
518.6350, 2145.726
519.8150, 2350.249
520.9960, 2624.929
522.1760, 2901.245
523.3560, 3186.991
524.5350, 3546.629
525.7150, 3838.315
526.8950, 4218.033
528.0740, 4269.780
529.2530, 4414.553
530.4320, 4723.354
531.6100, 4747.182
532.7890, 5029.037
533.9670, 5209.918
535.1460, 5325.825
536.3240, 5462.758
537.5010, 5610.717
538.6790, 5863.701
539.8570, 6180.711
541.0340, 6490.749
542.2110, 6769.809
543.3880, 7209.897
544.5650, 7603.010
545.7410, 8007.150
546.9180, 8651.314
548.0940, 9262.524
549.2700, 9664.741
550.4460, 10342.35
551.6210, 10970.62
552.7970, 11878.30
553.9720, 12414.87
555.1480, 13297.30
556.3230, 13971.15
557.4970, 14779.22
558.6720, 15316.40
559.8460, 16117.90
561.0210, 16643.37
562.1950, 17137.11
563.3690, 17528.64
564.5420, 17576.91
565.7160, 17710.45
566.8890, 17531.06
568.0630, 17484.70
569.2360, 17140.38
570.4090, 16790.12
571.5810, 16345.80
572.7540, 15900.66
573.9260, 15137.49
575.0980, 14290.34
576.2700, 13466.23
577.4420, 12905.17
578.6140, 11974.13
579.7850, 11303.12
580.9560, 10467.94
582.1270, 9544.164
583.2980, 8771.230
584.4690, 7824.322
585.6400, 6975.439
586.8100, 6365.595
587.9800, 5479.802
589.1500, 4780.058
590.3200, 4194.366
591.4900, 3762.742
592.6590, 3295.191
593.8290, 2898.703
594.9980, 2587.295
596.1670, 2286.956
597.3360, 2151.688
598.5040, 1895.503
599.6730, 1952.387
600.8410, 1847.332
602.0090, 1759.354
603.1770, 1797.434
604.3450, 1872.572
605.5130, 1741.767
606.6800, 1954.133
607.8470, 1982.479
609.0140, 2100.888
610.1810, 2201.491
611.3480, 2257.122
612.5140, 2189.716
613.6810, 2468.775
614.8470, 2813.846
616.0130, 2780.857
617.1790, 3028.535
618.3440, 3212.837
619.5100, 3424.821
620.6750, 3995.577
621.8400, 4550.771
623.0050, 5018.760
624.1700, 5825.385
625.3350, 6664.842
626.4990, 7839.333
627.6640, 9016.030
628.8280, 10634.96
629.9920, 12268.05
631.1550, 14104.97
632.3190, 15994.82
633.4820, 17772.75
634.6460, 19035.91
635.8090, 19750.67
636.9710, 19652.26
638.1340, 18241.49
639.2970, 16319.93
640.4590, 13801.94
641.6210, 11673.26
642.7830, 9378.342
643.9450, 7643.492
645.1070, 6148.753
646.2680, 4952.429
647.4300, 4070.065
648.5910, 3405.065
649.7520, 2836.496
650.9130, 2403.058
652.0730, 2097.730
653.2340, 1875.547
654.3940, 1497.539
655.5540, 1470.579
656.7140, 1345.285
657.8740, 1199.222
659.0330, 1081.564
660.1930, 962.0908
661.3520, 788.5752
662.5110, 752.5000
663.6700, 644.3623
664.8290, 615.7588
665.9870, 548.7817
667.1460, 444.3691
668.3040, 466.4248
669.4620, 380.3267
670.6200, 319.9424
671.7770, 324.8467
672.9350, 310.5903
674.0920, 285.2271
675.2500, 260.8687
676.4070, 249.5542
677.5630, 240.1870
678.7200, 219.8525
679.8770, 185.5215
681.0330, 160.2310
682.1890, 108.9062
683.3450, 160.5845
684.5010, 132.2646
685.6560, 91.94775
686.8120, 0.6357420
687.9670, 14.32568
689.1220, 21.98291
690.2770, 21.70850
691.4320, 22.58887
692.5870, 15.89014
693.7410, 44.19336
694.8950, 85.50781
696.0490, 121.8545
697.2030, 54.25195
698.3570, 2.667480
699.5110, 16.91504
700.6640, 59.50244
701.8170, 17.05713
702.9700, 29.38428
704.1230, 68.83594
705.2760, 25.68359
706.4290, 19.20068
707.5810, 25.71631
708.7330, 0.7709960
709.8850, 39.73877
711.0370, 140.2451
712.1890, 205.7480
713.3400, 209.2480
714.4920, 285.7437
715.6430, 340.2358
716.7940, 258.7231
717.9450, 367.2065
719.0960, 337.6846
720.2460, 395.1577
721.3960, 424.6255
722.5470, 401.0879
723.6970, 426.5444
724.8460, 421.9951
725.9960, 341.4399
727.1460, 289.8779
728.2950, 230.3086
729.4440, 276.7324
730.5930, 194.1484
731.7420, 176.5566
732.8910, 188.9561
734.0390, 150.3472
735.1870, 92.72852
736.3360, 135.0996
737.4840, 154.4614
738.6310, 153.8120
739.7790, 77.15088
740.9260, 87.47900
742.0740, 97.79541
743.2210, 176.0996
744.3680, 32.39111
745.5150, 61.66846
746.6610, 214.9326
747.8080, 17.81738
748.9540, 40.39844
750.1000, 121.5981
751.2460, 35.21777
752.3920, 19.92090
753.5380, 14.96045
754.6830, 7.879883
755.8280, 63.83301
756.9730, 58.14844
758.1180, 19.88818
759.2630, 72.96729
760.4080, 12.88135
761.5520, 29.29785
762.6960, 9.526855
763.8410, 40.79688
764.9840, 11.12402
766.1280, 61.49414
767.2720, 78.93359
768.4150, 27.45166
769.5590, 57.24902
770.7020, 9.663086
771.8450, 28.34766
772.9870, 37.08691
774.1300, 16.11475
775.2720, 5.283203
776.4150, 2.413574
777.5570, 53.49658
778.6990, 41.82178
779.8400, 11.47949
780.9820, 21.60254
782.1230, 6.721680
783.2650, 63.09570
784.4060, 24.88916
785.5470, 32.35010
786.6870, 105.7041
787.8280, 8.382324
788.9680, 76.97607
790.1090, 68.57666
791.2490, 25.16504
792.3890, 10.35596
793.5280, 3.857422
794.6680, 30.59082
795.8070, 22.53662
796.9470, 124.4976
798.0860, 48.26172
799.2250, 76.58252
800.3630, 87.74219
801.5020, 23.98926
802.6410, 38.21436
803.7790, 166.3823
804.9170, 79.72705
806.0550, 91.84473
807.1930, 215.9810
808.3300, 95.04932
809.4680, 112.5815
810.6050, 152.5991
811.7420, 196.5947
812.8790, 210.0718
814.0160, 146.0781
815.1520, 228.0034
816.2890, 165.9043
817.4250, 133.7817
818.5610, 234.6348
819.6970, 145.4644
820.8330, 278.2705
821.9680, 242.0527
823.1040, 371.4688
824.2390, 312.1841
825.3740, 331.8950
826.5090, 339.8750
827.6440, 353.6528
828.7790, 407.8828
829.9130, 405.2476
831.0470, 471.7910
832.1810, 469.8789
833.3150, 630.7568
834.4490, 707.5146
835.5830, 651.9604
836.7160, 736.4346
837.8500, 718.6470
838.9830, 844.0752
840.1160, 912.7686
841.2480, 1017.199
842.3810, 1165.559
843.5140, 1167.896
844.6460, 1314.211
845.7780, 1323.464
846.9100, 1504.733
848.0420, 1568.981
849.1740, 1725.206
850.3050, 1868.409
851.4360, 2004.589
852.5680, 2082.747
853.6990, 2202.882
854.8290, 2313.522
855.9600, 2392.085
857.0910, 2516.155
858.2210, 2579.202
859.3510, 2635.227
860.4810, 2602.229
861.6110, 2567.210
862.7410, 2518.169
863.8700, 2426.903
865.0000, 2339.900
866.1290, 2192.915
867.2580, 2105.786
868.3870, 1935.636
869.5150, 1792.465
870.6440, 1745.271
871.7720, 1534.057
872.9000, 1529.821
874.0290, 1342.564
875.1560, 1220.286
876.2840, 1137.987
877.4120, 1087.667
878.5390, 1071.327
879.6660, 950.9648
880.7930, 791.4897
881.9200, 834.0869
883.0470, 793.6641
884.1740, 710.1011
885.3000, 855.5483
886.4260, 767.0654
887.5530, 693.1636
888.6780, 645.2788
889.8040, 626.4873
890.9300, 654.0610
892.0550, 656.0449
893.1810, 620.3755
894.3060, 609.9668
895.4310, 578.1514
896.5560, 553.5093
897.6800, 539.0249
898.8050, 485.3022
899.9290, 493.2256
901.0530, 427.9434
902.1770, 376.4346
903.3010, 254.7686
904.4250, 337.2715
905.5480, 156.8447
906.6720, 99.34717
907.7950, 219.6211
908.9180, 175.2915
910.0410, 107.1279
911.1630, 135.3447
912.2860, 148.3384
913.4080, 100.7729
914.5300, 143.8921
915.6530, 108.2588
916.7740, 15.55566
917.8960, 40.74316
919.0180, 68.51953
920.1390, 99.33496
921.2600, 2.210938
922.3820, 97.81348
923.5020, 46.29297
924.6230, 14.52148
925.7440, 39.10254
926.8640, 14.44824
927.9850, 17.05029
929.1050, 43.67773
930.2250, 15.82275
931.3450, 5.732910
932.4640, 8.826660
933.5840, 67.11963
934.7030, 68.37402
935.8220, 34.17920
936.9410, 17.19922
938.0600, 47.59277
939.1790, 27.57666
940.2970, 16.78027
941.4160, 25.70850
942.5340, 48.08496
943.6520, 34.41016
944.7700, 14.24902
945.8870, 57.01709
947.0050, 51.21826
948.1220, 6.479492
949.2400, 30.25293
950.3570, 153.9824
951.4740, 25.70898
952.5900, 52.39404
953.7070, 104.1143
954.8240, 118.8315
955.9400, 61.54688
957.0560, 21.74023
958.1720, 12.96338
959.2880, 11.66846
960.4030, 22.62793
961.5190, 52.93066
962.6340, 92.74658
963.7490, 71.42432
964.8640, 1.897461
965.9790, 70.78516
967.0940, 32.48340
968.2080, 147.2065
969.3230, 124.9385
970.4370, 25.67139
971.5510, 50.40430
972.6650, 37.14844
973.7790, 77.89307
974.8920, 38.64209
976.0060, 145.4062
977.1190, 45.18750
978.2320, 35.96973
979.3450, 38.75439
980.4580, 103.5449
981.5710, 113.3369
982.6830, 94.13184
983.7950, 120.1230
984.9080, 123.4927
986.0200, 100.5391
987.1310, 137.3525
988.2430, 93.16895
989.3550, 67.98779
990.4660, 78.81055
991.5770, 135.6362
992.6880, 132.4658
993.7990, 164.2993
994.9100, 153.1362
996.0200, 197.9771
997.1310, 236.8228
998.2410, 306.6724
999.3510, 271.5269
1000.461, 284.3862
1001.571, 356.2505
1002.681, 370.1226
1003.790, 418.0029
1004.899, 449.8975
1006.009, 440.7974
1007.118, 479.7075
1008.226, 535.6274
1009.335, 584.5581
1010.444, 719.5020
1011.552, 712.4531
1012.660, 796.4121
1013.768, 817.3774
1014.876, 793.3506
1015.984, 793.3418
1017.092, 771.6016
1018.199, 758.9229
1019.306, 723.3896
1020.413, 712.4268
1021.520, 704.4917
1022.627, 643.5664
1023.734, 573.6611
1024.840, 550.7729
1025.947, 512.9180
1027.053, 436.0815
1028.159, 402.2754
1029.265, 449.5146
1030.370, 496.7671
1031.476, 521.0459
1032.581, 379.3452
1033.687, 440.6743
1034.792, 434.0254
1035.897, 503.4121
1037.002, 529.8394
1038.106, 510.2939
1039.211, 455.7837
1040.315, 533.2964
1041.419, 605.8369
1042.523, 680.4092
1043.627, 702.0103
1044.731, 687.6323
1045.834, 856.2769
1046.938, 931.9570
1048.041, 1062.671
1049.144, 1224.587
1050.247, 1209.193
1051.349, 1538.003
1052.452, 1707.825
1053.555, 1841.665
1054.657, 2279.182
1055.759, 2517.067
1056.861, 2790.017
1057.963, 2944.950
1059.064, 3349.886
1060.166, 3426.914
1061.267, 3374.898
1062.368, 3278.910
1063.470, 3214.114
1064.570, 2930.874
1065.671, 2802.527
1066.772, 2607.612
1067.872, 2422.847
1068.972, 2280.962
1070.073, 2167.621
1071.173, 2086.284
1072.272, 2017.269
1073.372, 1946.471
1074.472, 1919.645
1075.571, 1958.876
1076.670, 1927.637
1077.769, 1920.326
1078.868, 1998.604
1079.967, 2029.510
1081.065, 2099.641
1082.164, 2142.964
1083.262, 2429.303
1084.360, 2490.656
1085.458, 2689.025
1086.556, 2742.408
1087.654, 2998.807
1088.751, 3227.222
1089.848, 3429.995
1090.946, 3892.099
1092.043, 4175.561
1093.139, 4522.381
1094.236, 5045.776
1095.333, 5685.286
1096.429, 6313.810
1097.525, 7198.313
1098.622, 8017.869
1099.718, 9026.439
1100.813, 10260.03
1101.909, 11602.64
1103.005, 12865.25
1104.100, 14482.89
1105.195, 16032.56
1106.290, 17254.23
1107.385, 18491.91
1108.480, 18906.24
1109.574, 19395.96
1110.669, 19026.89
1111.763, 18076.33
1112.857, 16642.09
1113.951, 15225.04
1115.045, 13637.83
1116.139, 11876.65
1117.232, 10618.46
1118.326, 9111.308
1119.419, 7921.170
1120.512, 7025.052
1121.605, 5891.948
1122.697, 5420.860
1123.790, 4823.791
1124.883, 4180.737
1125.975, 3770.697
1127.067, 3311.677
1128.159, 3105.672
1129.251, 2720.683
1130.342, 2490.709
1131.434, 2336.751
1132.525, 2168.808
1133.617, 2030.429
1134.708, 1795.112
1135.799, 1651.964
1136.889, 1532.104
1137.980, 1407.282
1139.071, 1329.075
1140.161, 1221.056
1141.251, 1175.947
1142.341, 1075.318
1143.431, 1051.546
1144.521, 1059.790
1145.610, 907.0488
1146.700, 939.7285
1147.789, 920.2817
1148.878, 835.9497
1149.967, 885.2676
1151.056, 867.8438
1152.144, 784.8901
1153.233, 936.2544
1154.321, 954.6338
1155.409, 931.0273
1156.498, 1079.511
1157.585, 1131.915
1158.673, 1240.279
1159.761, 1115.531
1160.848, 1095.010
1161.936, 1176.503
1163.023, 1198.009
1164.110, 1132.528
1165.197, 1075.141
1166.283, 1085.686
1167.370, 1086.245
1168.456, 979.8154
1169.542, 929.4004
1170.629, 873.9971
1171.714, 848.6060
1172.800, 783.4702
1173.886, 762.5488
1174.971, 702.1943
1176.057, 606.0376
1177.142, 624.7070
1178.227, 547.3867
1179.312, 602.0317
1180.397, 549.7368
1181.481, 482.4521
1182.566, 458.1782
1183.650, 345.9146
1184.734, 463.6616
1185.818, 353.4214
1186.902, 358.1909
1187.986, 400.9844
1189.069, 297.7920
1190.153, 262.6104
1191.236, 230.4438
1192.319, 217.2910
1193.402, 187.5474
1194.485, 292.0195
1195.567, 174.9019
1196.650, 149.7964
1197.732, 207.7002
1198.814, 135.6304
1199.896, 140.5693
1200.978, 196.5176
1202.060, 182.4746
1203.142, 185.4463
1204.223, 111.4263
1205.304, 78.42090
1206.386, 107.4233
1207.467, 19.55859
1208.547, 16.62402
1209.628, 126.4946
1210.709, 15.54492
1211.789, 28.60400
1212.869, 26.67139
1213.950, 93.74707
1215.030, 59.83057
1216.109, 28.92188
1217.189, 91.02100
1218.269, 73.12842
1219.348, 19.24219
1220.427, 23.62354
1221.506, 58.51123
1222.585, 101.6528
1223.664, 47.80566
1224.743, 67.97510
1225.821, 40.15186
1226.899, 6.335449
1227.978, 43.70605
1229.056, 22.90283
1230.134, 38.10693
1231.211, 58.31738
1232.289, 30.12695
1233.366, 12.75732
1234.444, 1.3184000E-02
1235.521, 3.220703
1236.598, 10.46191
1237.675, 76.29199
1238.751, 54.92822
1239.828, 7.845703
1240.904, 19.61670
1241.981, 35.61035
1243.057, 6.156250
1244.133, 26.08057
1245.209, 20.41455
1246.284, 43.33887
1247.360, 78.89453
1248.435, 25.13330
1249.510, 4.581055
1250.585, 4.829102
1251.660, 24.08154
1252.735, 20.96729
1253.810, 34.17920
1254.884, 76.44482
1255.959, 38.32764
1257.033, 138.6016
1258.107, 18.87988
1259.181, 22.16309
1260.255, 115.4502
1261.328, 31.74072
1262.402, 10.96533
1263.475, 11.66553
1264.548, 33.38037
1265.621, 1.916504
1266.694, 19.79639
1267.767, 11.51465
1268.840, 18.69775
1269.912, 26.71094
1270.984, 0.4462890
