##NAMES=Augelite
##RRUFFID=R050060
##IDEAL CHEMISTRY=Al_2_PO_4_(OH)_3_
##LOCALITY=Machacamarca, Potosi Department, Bolivia
##OWNER=RRUFF
##SOURCE=Rock Currier
##DESCRIPTION=Colorless prismatic crystals
##STATUS=The identification of this mineral has been confirmed by X-ray diffraction and chemical analysis
##URL=rruff.info/R050060
##MEASURED CHEMISTRY=Al_2.00_(P_1.00_O_4_)(OH)_3_; OH estimated by difference
##PIN_ID=L01372
##ORIENTATION=Laser parallel to -a* (-1 0 0). Fiducial mark perpendicular to laser is parallel to -b [0 -1 0]
195.6250, 0.0000000E+00
196.8550, 107.4517
198.0860, 18.36523
199.3160, 57.32812
200.5460, 188.6694
201.7750, 190.6836
203.0050, 133.9551
204.2340, 59.05078
205.4630, 75.52637
206.6920, 50.19531
207.9210, 33.51514
209.1500, 138.2881
210.3780, 153.2866
211.6060, 352.3765
212.8340, 508.4834
214.0620, 691.7236
215.2900, 881.2485
216.5170, 1102.884
217.7440, 1281.628
218.9710, 1752.711
220.1980, 2102.830
221.4250, 2677.923
222.6510, 3304.812
223.8770, 3884.700
225.1040, 4472.555
226.3290, 4605.628
227.5550, 4208.514
228.7810, 3309.914
230.0060, 2432.585
231.2310, 1644.620
232.4560, 1312.081
233.6810, 919.3291
234.9050, 903.8413
236.1290, 915.9907
237.3540, 1064.271
238.5770, 1228.981
239.8010, 1619.000
241.0250, 2171.775
242.2480, 2652.093
243.4710, 3293.404
244.6940, 4013.938
245.9170, 4839.505
247.1400, 5813.373
248.3620, 6831.651
249.5840, 8069.359
250.8060, 8772.418
252.0280, 9060.779
253.2500, 8742.629
254.4710, 7506.855
255.6920, 6401.740
256.9140, 4894.597
258.1340, 3850.069
259.3550, 3258.124
260.5760, 2499.826
261.7960, 1809.719
263.0160, 1270.192
264.2360, 1110.218
265.4560, 769.1934
266.6750, 732.0522
267.8940, 663.4028
269.1140, 601.7622
270.3330, 523.2461
271.5510, 426.9209
272.7700, 390.0796
273.9880, 356.7451
275.2070, 320.8364
276.4250, 237.0303
277.6420, 238.3389
278.8600, 224.7656
280.0770, 238.2891
281.2950, 179.8984
282.5120, 238.5869
283.7290, 124.3452
284.9450, 137.1641
286.1620, 66.03516
287.3780, 126.9531
288.5940, 133.9097
289.8100, 138.9009
291.0260, 50.08105
292.2410, 94.95947
293.4570, 36.01465
294.6720, 101.0776
295.8870, 115.1450
297.1010, 20.20850
298.3160, 21.25928
299.5300, 43.28760
300.7450, 40.70752
301.9590, 2.187500
303.1730, 6.229980
304.3860, 10.83594
305.6000, 17.07715
306.8130, 73.03076
308.0260, 124.1675
309.2390, 85.33740
310.4510, 60.54639
311.6640, 124.7935
312.8760, 29.08105
314.0880, 79.42432
315.3000, 162.8193
316.5120, 63.70947
317.7240, 15.84912
318.9350, 7.545410
320.1460, 108.8730
321.3570, 32.88135
322.5680, 2.734863
323.7790, 115.3311
324.9890, 79.24609
326.1990, 155.9893
327.4090, 139.5737
328.6190, 128.0049
329.8290, 181.3579
331.0380, 153.6821
332.2480, 174.4688
333.4570, 209.2412
334.6660, 209.5322
335.8740, 176.8394
337.0830, 230.1655
338.2910, 360.6084
339.5000, 273.6006
340.7080, 273.9951
341.9150, 358.9541
343.1230, 536.8496
344.3300, 415.6060
345.5380, 531.3652
346.7450, 657.3535
347.9520, 694.5786
349.1580, 754.5605
350.3650, 806.3564
351.5710, 948.1553
352.7770, 769.7725
353.9830, 1217.645
355.1890, 1203.303
356.3940, 1571.883
357.6000, 1734.380
358.8050, 2048.792
360.0100, 2494.795
361.2150, 3254.034
362.4190, 3655.188
363.6240, 4389.256
364.8280, 5151.235
366.0320, 5744.122
367.2360, 6083.915
368.4400, 6147.522
369.6430, 6186.208
370.8460, 5569.695
372.0500, 4806.067
373.2530, 3885.331
374.4550, 3063.489
375.6580, 2495.554
376.8600, 1819.529
378.0620, 1475.422
379.2650, 1211.235
380.4660, 922.9614
381.6680, 847.5957
382.8690, 625.1367
384.0710, 513.5864
385.2720, 385.9453
386.4730, 461.1909
387.6730, 476.3481
388.8740, 338.3340
390.0740, 358.2168
391.2740, 336.0273
392.4740, 402.7188
393.6740, 441.2681
394.8740, 414.6987
396.0730, 376.0181
397.2730, 400.0981
398.4720, 325.9878
399.6700, 486.6943
400.8690, 401.1729
402.0680, 525.5972
403.2660, 691.9912
404.4640, 797.3120
405.6620, 901.6240
406.8600, 883.9355
408.0570, 967.2490
409.2550, 1010.566
410.4520, 922.8906
411.6490, 756.2241
412.8460, 816.5732
414.0430, 756.9370
415.2390, 877.3159
416.4350, 733.3867
417.6310, 759.3364
418.8270, 751.1802
420.0230, 694.9038
421.2190, 682.3525
422.4140, 547.5181
423.6090, 587.7920
424.8040, 484.2407
425.9990, 409.2505
427.1940, 496.8174
428.3880, 440.3110
429.5820, 522.0254
430.7760, 400.5254
431.9700, 531.2402
433.1640, 600.0967
434.3580, 536.0703
435.5510, 549.0449
436.7440, 495.5400
437.9370, 643.6758
439.1300, 581.3867
440.3230, 679.3281
441.5150, 616.1064
442.7070, 657.0381
443.8990, 629.8906
445.0910, 660.3262
446.2830, 800.5615
447.4750, 698.1475
448.6660, 792.7832
449.8570, 689.1504
451.0480, 743.0996
452.2390, 598.9463
453.4290, 733.3369
454.6200, 554.3926
455.8100, 506.5244
457.0000, 485.7715
458.1900, 412.7959
459.3800, 382.0371
460.5690, 357.2529
461.7590, 374.7666
462.9480, 333.8359
464.1370, 268.6621
465.3260, 313.4736
466.5140, 69.28906
467.7030, 58.31348
468.8910, 130.1230
470.0790, 198.4990
471.2670, 161.8457
472.4550, 36.18164
473.6420, 41.78125
474.8300, 40.30859
476.0170, 96.96680
477.2040, 95.81152
478.3900, 11.30273
479.5770, 49.51465
480.7640, 4.542969
481.9500, 27.91309
483.1360, 12.24805
484.3220, 42.62988
485.5080, 21.04492
486.6930, 103.4727
487.8780, 22.10254
489.0640, 47.66309
490.2490, 22.21973
491.4330, 73.21875
492.6180, 59.66309
493.8030, 70.10742
494.9870, 101.5693
496.1710, 105.0312
497.3550, 133.1992
498.5390, 147.0176
499.7220, 168.5127
500.9060, 201.0098
502.0890, 54.07715
503.2720, 306.7402
504.4550, 538.9688
505.6370, 649.6777
506.8200, 262.0869
508.0020, 528.0117
509.1840, 538.1738
510.3660, 542.0498
511.5480, 912.5195
512.7290, 619.8359
513.9110, 993.3213
515.0920, 1106.992
516.2730, 1345.919
517.4540, 1327.452
518.6350, 1394.222
519.8150, 1727.125
520.9960, 1919.506
522.1760, 1888.314
523.3560, 2161.095
524.5350, 1902.842
525.7150, 1932.428
526.8950, 2249.202
528.0740, 2389.991
529.2530, 2415.812
530.4320, 2455.646
531.6100, 2388.489
532.7890, 2590.344
533.9670, 2625.212
535.1460, 2650.091
536.3240, 2785.984
537.5010, 2795.891
538.6790, 3005.812
539.8570, 3216.748
541.0340, 3546.697
542.2110, 3439.665
543.3880, 3667.650
544.5650, 3895.651
545.7410, 4339.668
546.9180, 4253.705
548.0940, 4496.757
549.2700, 4956.826
550.4460, 5497.916
551.6210, 5754.021
552.7970, 5942.266
553.9720, 6450.432
555.1480, 6671.715
556.3230, 7283.017
557.4970, 7499.409
558.6720, 8109.814
559.8460, 8331.289
561.0210, 8678.535
562.1950, 8828.067
563.3690, 9008.829
564.5420, 9071.485
565.7160, 8978.451
566.8890, 8976.091
568.0630, 8795.334
569.2360, 8529.959
570.4090, 8174.889
571.5810, 7996.324
572.7540, 7777.873
573.9260, 7434.402
575.0980, 7081.912
576.2700, 6628.443
577.4420, 6239.025
578.6140, 5958.632
579.7850, 5610.266
580.9560, 5089.923
582.1270, 4755.602
583.2980, 4302.311
584.4690, 3922.049
585.6400, 3595.812
586.8100, 3183.623
587.9800, 2856.465
589.1500, 2611.340
590.3200, 2307.249
591.4900, 2085.186
592.6590, 1833.174
593.8290, 1623.225
594.9980, 1505.359
596.1670, 1314.509
597.3360, 1157.932
598.5040, 1121.180
599.6730, 1331.478
600.8410, 1160.845
602.0090, 1197.452
603.1770, 1216.869
604.3450, 1164.081
605.5130, 1319.788
606.6800, 1182.322
607.8470, 1381.089
609.0140, 1528.155
610.1810, 1568.338
611.3480, 1683.240
612.5140, 1785.808
613.6810, 2011.819
614.8470, 2232.333
616.0130, 2312.600
617.1790, 2722.714
618.3440, 2926.681
619.5100, 3336.730
620.6750, 3891.578
621.8400, 4363.944
623.0050, 5135.996
624.1700, 5747.322
625.3350, 6705.547
626.4990, 7726.361
627.6640, 9074.524
628.8280, 10097.19
629.9920, 11542.25
631.1550, 12965.15
632.3190, 14491.34
633.4820, 15714.35
634.6460, 16522.17
635.8090, 17004.40
636.9710, 16375.07
638.1340, 15303.88
639.2970, 13324.47
640.4590, 11522.58
641.6210, 9697.829
642.7830, 7720.204
643.9450, 6402.401
645.1070, 5213.458
646.2680, 4119.192
647.4300, 3481.529
648.5910, 2874.176
649.7520, 2509.217
650.9130, 2050.308
652.0730, 2000.365
653.2340, 1830.006
654.3940, 1520.455
655.5540, 1384.199
656.7140, 1324.261
657.8740, 1125.006
659.0330, 963.0508
660.1930, 902.9238
661.3520, 944.0732
662.5110, 698.2012
663.6700, 717.0498
664.8290, 758.8184
665.9870, 618.9316
667.1460, 609.7988
668.3040, 520.0068
669.4620, 477.0615
670.6200, 334.0537
671.7770, 433.9980
672.9350, 469.0557
674.0920, 281.0498
675.2500, 187.0762
676.4070, 266.1035
677.5630, 320.0303
678.7200, 210.0078
679.8770, 144.8799
681.0330, 233.6641
682.1890, 85.66602
683.3450, 83.44141
684.5010, 233.2158
685.6560, 146.9854
686.8120, 90.75000
687.9670, 51.51074
689.1220, 62.29688
690.2770, 59.38965
691.4320, 23.32422
692.5870, 48.62109
693.7410, 26.37891
694.8950, 27.56348
696.0490, 11.87988
697.2030, 15.61621
698.3570, 4.461914
699.5110, 72.64648
700.6640, 3.762695
701.8170, 29.53418
702.9700, 5.145508
704.1230, 69.17773
705.2760, 23.54492
706.4290, 85.93359
707.5810, 23.62305
708.7330, 2.832031
709.8850, 121.6963
711.0370, 69.78320
712.1890, 76.69043
713.3400, 144.1572
714.4920, 120.6123
715.6430, 345.0566
716.7940, 110.4873
717.9450, 157.9062
719.0960, 149.3125
720.2460, 334.7061
721.3960, 194.0869
722.5470, 314.4531
723.6970, 319.8066
724.8460, 397.1455
725.9960, 371.4707
727.1460, 335.7822
728.2950, 380.0781
729.4440, 217.3594
730.5930, 158.6250
731.7420, 120.8760
732.8910, 112.1104
734.0390, 198.3281
735.1870, 72.52832
736.3360, 191.7100
737.4840, 129.8740
738.6310, 192.0215
739.7790, 77.14941
740.9260, 158.2578
742.0740, 105.6533
743.2210, 75.35059
744.3680, 126.3330
745.5150, 78.29590
746.6610, 114.7627
747.8080, 51.91602
748.9540, 60.87109
750.1000, 149.6338
751.2460, 43.37695
752.3920, 11.09570
753.5380, 18.78516
754.6830, 31.44727
755.8280, 70.08398
756.9730, 31.69629
758.1180, 0.7148440
759.2630, 62.16309
760.4080, 63.31641
761.5520, 3.772461
762.6960, 31.19043
763.8410, 34.41895
764.9840, 47.91309
766.1280, 49.78027
767.2720, 13.54102
768.4150, 70.65137
769.5590, 11.81934
770.7020, 95.95020
771.8450, 29.94434
772.9870, 3.898438
774.1300, 27.10254
775.2720, 24.07031
776.4150, 31.00391
777.5570, 84.90625
778.6990, 33.21777
779.8400, 61.40527
780.9820, 15.32715
782.1230, 104.4287
783.2650, 281.0840
784.4060, 17.98145
785.5470, 68.38379
786.6870, 115.0215
787.8280, 104.5049
788.9680, 26.96094
790.1090, 39.37988
791.2490, 78.96973
792.3890, 229.3252
793.5280, 116.0137
794.6680, 218.4619
795.8070, 23.31934
796.9470, 162.8369
798.0860, 97.14258
799.2250, 39.64258
800.3630, 183.8008
801.5020, 202.8076
802.6410, 123.7061
803.7790, 45.65527
804.9170, 33.32520
806.0550, 148.2568
807.1930, 163.0693
808.3300, 178.3506
809.4680, 151.1719
810.6050, 165.9951
811.7420, 157.9229
812.8790, 156.8047
814.0160, 183.3945
815.1520, 176.9541
816.2890, 201.7393
817.4250, 233.5781
818.5610, 169.2500
819.6970, 229.8691
820.8330, 373.7471
821.9680, 365.4199
823.1040, 337.2686
824.2390, 441.0967
825.3740, 358.3311
826.5090, 421.1133
827.6440, 374.4258
828.7790, 392.5879
829.9130, 463.8203
831.0470, 465.8701
832.1810, 512.1885
833.3150, 609.1992
834.4490, 552.1699
835.5830, 708.0684
836.7160, 676.4854
837.8500, 698.7578
838.9830, 752.5186
840.1160, 828.4375
841.2480, 852.4189
842.3810, 857.3750
843.5140, 949.4258
844.6460, 1012.091
845.7780, 1103.518
846.9100, 1160.891
848.0420, 1280.018
849.1740, 1253.579
850.3050, 1377.482
851.4360, 1662.324
852.5680, 1720.034
853.6990, 1934.719
854.8290, 1805.377
855.9600, 1974.008
857.0910, 1932.612
858.2210, 1851.190
859.3510, 1881.743
860.4810, 1942.270
861.6110, 1902.770
862.7410, 1797.244
863.8700, 1643.692
865.0000, 1693.114
866.1290, 1612.510
867.2580, 1430.881
868.3870, 1509.225
869.5150, 1335.513
870.6440, 1294.805
871.7720, 1199.860
872.9000, 1020.102
874.0290, 1130.316
875.1560, 981.5059
876.2840, 835.4492
877.4120, 878.5879
878.5390, 886.9316
879.6660, 736.7686
880.7930, 636.7881
881.9200, 814.5752
883.0470, 850.0527
884.1740, 809.4043
885.3000, 707.0244
886.4260, 561.9668
887.5530, 679.4541
888.6780, 842.4268
889.8040, 708.6338
890.9300, 710.9824
892.0550, 716.4629
893.1810, 668.7520
894.3060, 821.7109
895.4310, 831.7461
896.5560, 607.0830
897.6800, 731.1289
898.8050, 738.2617
899.9290, 546.7881
901.0530, 390.9482
902.1770, 606.3906
903.3010, 554.0479
904.4250, 355.2227
905.5480, 436.2979
906.6720, 314.5264
907.7950, 331.9268
908.9180, 318.9072
910.0410, 219.4395
911.1630, 366.8037
912.2860, 239.3770
913.4080, 276.4102
914.5300, 354.2871
915.6530, 81.34277
916.7740, 142.2412
917.8960, 160.2598
919.0180, 95.58691
920.1390, 147.2939
921.2600, 12.67285
922.3820, 162.6406
923.5020, 247.5439
924.6230, 245.4658
925.7440, 84.78613
926.8640, 143.2793
927.9850, 40.46094
929.1050, 90.30859
930.2250, 190.4531
931.3450, 225.2822
932.4640, 92.26562
933.5840, 106.9551
934.7030, 103.3506
935.8220, 127.5742
936.9410, 16.43066
938.0600, 265.1943
939.1790, 51.93457
940.2970, 16.43848
941.4160, 126.1855
942.5340, 29.14551
943.6520, 103.5410
944.7700, 95.09766
945.8870, 62.69824
947.0050, 149.2510
948.1220, 16.21680
949.2400, 47.60547
950.3570, 66.92871
951.4740, 46.55957
952.5900, 79.25977
953.7070, 84.30566
954.8240, 15.60059
955.9400, 57.04883
957.0560, 7.687500
958.1720, 5.310547
959.2880, 120.0830
960.4030, 2.444336
961.5190, 186.9551
962.6340, 155.4541
963.7490, 112.9727
964.8640, 11.52246
965.9790, 34.96289
967.0940, 104.4570
968.2080, 96.93945
969.3230, 93.41211
970.4370, 21.87402
971.5510, 22.67383
972.6650, 50.76172
973.7790, 34.79199
974.8920, 123.6377
976.0060, 181.0723
977.1190, 205.5059
978.2320, 166.9502
979.3450, 76.38672
980.4580, 6.185547
981.5710, 1.079102
982.6830, 14.22754
983.7950, 57.08496
984.9080, 64.52148
986.0200, 189.9629
987.1310, 281.4219
988.2430, 249.8730
989.3550, 206.3174
990.4660, 278.7529
991.5770, 132.1973
992.6880, 276.6338
993.7990, 183.0596
994.9100, 340.5000
996.0200, 492.9336
997.1310, 355.3584
998.2410, 558.7754
999.3510, 530.1836
1000.461, 683.5850
1001.571, 796.9766
1002.681, 1137.362
1003.790, 1117.740
1004.899, 1202.111
1006.009, 1213.478
1007.118, 1246.838
1008.226, 1402.191
1009.335, 1429.539
1010.444, 1514.131
1011.552, 1587.249
1012.660, 1623.623
1013.768, 1619.800
1014.876, 1692.354
1015.984, 1551.712
1017.092, 1491.123
1018.199, 1441.550
1019.306, 1247.973
1020.413, 1033.391
1021.520, 1037.804
1022.627, 985.2168
1023.734, 895.6260
1024.840, 871.0332
1025.947, 728.4355
1027.053, 806.8369
1028.159, 615.2402
1029.265, 689.6631
1030.370, 892.0830
1031.476, 786.5059
1032.581, 638.9268
1033.687, 691.3623
1034.792, 596.7939
1035.897, 585.2949
1037.002, 653.7041
1038.106, 558.1611
1039.211, 572.6201
1040.315, 534.0771
1041.419, 597.5459
1042.523, 692.0225
1043.627, 718.4990
1044.731, 774.9766
1045.834, 720.4541
1046.938, 900.9287
1048.041, 973.4189
1049.144, 1053.650
1050.247, 1224.104
1051.349, 1476.628
1052.452, 1533.884
1053.555, 1675.364
1054.657, 2146.264
1055.759, 2367.811
1056.861, 2573.635
1057.963, 2830.182
1059.064, 2992.466
1060.166, 3118.043
1061.267, 3130.284
1062.368, 2859.649
1063.470, 2824.283
1064.570, 2713.867
1065.671, 2356.470
1066.772, 2160.937
1067.872, 2049.121
1068.972, 1735.854
1070.073, 1853.563
1071.173, 1612.107
1072.272, 1554.777
1073.372, 1529.652
1074.472, 1432.349
1075.571, 1498.466
1076.670, 1501.016
1077.769, 1484.533
1078.868, 1324.234
1079.967, 1431.000
1081.065, 1472.621
1082.164, 1284.059
1083.262, 1581.772
1084.360, 1587.394
1085.458, 1554.300
1086.556, 1772.786
1087.654, 1855.449
1088.751, 1887.180
1089.848, 2082.641
1090.946, 2178.801
1092.043, 2412.525
1093.139, 2697.770
1094.236, 2896.358
1095.333, 3288.627
1096.429, 3682.319
1097.525, 3990.959
1098.622, 4588.939
1099.718, 4929.522
1100.813, 5791.086
1101.909, 6485.709
1103.005, 7234.369
1104.100, 7942.176
1105.195, 8497.287
1106.290, 8819.078
1107.385, 9126.836
1108.480, 9342.746
1109.574, 9077.312
1110.669, 8740.876
1111.763, 7958.367
1112.857, 7246.578
1113.951, 6628.111
1115.045, 5770.242
1116.139, 5067.921
1117.232, 4357.090
1118.326, 3718.892
1119.419, 3306.793
1120.512, 2906.706
1121.605, 2625.389
1122.697, 2281.812
1123.790, 2115.344
1124.883, 1881.863
1125.975, 1783.398
1127.067, 1641.122
1128.159, 1474.647
1129.251, 1392.390
1130.342, 1197.757
1131.434, 1208.270
1132.525, 1160.807
1133.617, 1092.317
1134.708, 1202.975
1135.799, 983.6875
1136.889, 851.2646
1137.980, 641.1484
1139.071, 626.3594
1140.161, 764.6865
1141.251, 605.4072
1142.341, 554.3184
1143.431, 488.7949
1144.521, 487.2744
1145.610, 436.0576
1146.700, 452.5303
1147.789, 474.2500
1148.878, 508.7139
1149.967, 461.4258
1151.056, 441.2754
1152.144, 576.7246
1153.233, 408.1699
1154.321, 395.6113
1155.409, 577.2412
1156.498, 467.6709
1157.585, 617.2412
1158.673, 673.6611
1159.761, 519.0762
1160.848, 649.6113
1161.936, 622.0156
1163.023, 528.4141
1164.110, 528.0273
1165.197, 586.4150
1166.283, 591.0557
1167.370, 469.5342
1168.456, 456.9033
1169.542, 403.2676
1170.629, 352.6270
1171.714, 371.9795
1172.800, 291.3262
1173.886, 215.6670
1174.971, 325.0000
1176.057, 129.3281
1177.142, 255.6494
1178.227, 242.9639
1179.312, 87.47754
1180.397, 191.7793
1181.481, 222.0762
1182.566, 222.3643
1183.650, 179.6465
1184.734, 17.07812
1185.818, 260.1826
1186.902, 37.43652
1187.986, 136.6807
1189.069, 232.9170
1190.153, 249.1475
1191.236, 85.37012
1192.319, 248.5859
1193.402, 90.79492
1194.485, 179.9961
1195.567, 60.19043
1196.650, 193.3740
1197.732, 155.5518
1198.814, 28.74805
1199.896, 101.4248
1200.978, 57.19629
1202.060, 67.93457
1203.142, 186.0752
1204.223, 92.21387
1205.304, 136.3447
1206.386, 210.4785
1207.467, 134.7148
1208.547, 36.90234
1209.628, 76.00781
1210.709, 0.8925780
1211.789, 13.80469
1212.869, 28.71680
1213.950, 44.33789
1215.030, 9.808594
1216.109, 144.8125
1217.189, 5.837891
1218.269, 31.85742
1219.348, 47.89453
1220.427, 126.8926
1221.506, 235.8848
1222.585, 95.90430
1223.664, 174.9121
1224.743, 96.00195
1225.821, 95.44727
1226.899, 207.5547
1227.978, 63.51953
1229.056, 158.3555
1230.134, 349.2227
1231.211, 105.0781
1232.289, 24.92773
1233.366, 15.20508
1234.444, 47.32422
1235.521, 25.98242
1236.598, 79.21094
1237.675, 42.97656
1238.751, 184.7285
1239.828, 180.4727
1240.904, 177.3203
1241.981, 83.04688
1243.057, 39.99609
1244.133, 8.320313
1245.209, 69.90820
1246.284, 45.19531
1247.360, 85.38867
1248.435, 43.19336
1249.510, 39.82812
1250.585, 94.30469
1251.660, 47.23242
1252.735, 164.4824
1253.810, 191.1895
1254.884, 64.23828
1255.959, 84.56445
1257.033, 211.9043
1258.107, 114.2383
1259.181, 249.5605
1260.255, 209.3809
1261.328, 125.2617
1262.402, 171.7852
1263.475, 97.32031
1264.548, 83.59180
1265.621, 114.8672
1266.694, 41.13477
1267.767, 50.38867
1268.840, 18.37109
1269.912, 77.84375
1270.984, 31.05078
1272.056, 200.2402
1273.129, 229.4238
1274.200, 62.76758
1275.272, 168.2930
1276.344, 65.55078
1277.415, 248.5488
1278.486, 76.65430
1279.558, 42.73438
1280.629, 188.9648
1281.699, 178.2168
1282.770, 261.5137
1283.841, 91.56641
1284.911, 246.6094
1285.981, 103.6367
1287.051, 194.6562
1288.121, 387.6621
1289.191, 108.6621
1290.261, 148.6465
1291.330, 462.6230
1292.400, 86.58594
1293.469, 199.5371
1294.538, 77.47852
1295.607, 115.4043
1296.676, 259.3184
1297.745, 303.4336
1298.813, 208.3242
1299.881, 206.2031
1300.950, 243.0703
1302.018, 305.9258
1303.086, 296.7676
1304.154, 211.5957
1305.221, 343.4102
1306.289, 225.2148
1307.356, 92.00586
1308.423, 230.7285
1309.490, 167.4922
1310.557, 258.2422
1311.624, 238.9785
1312.691, 202.6992
1313.757, 392.1660
1314.823, 292.8672
1315.890, 166.2793
1316.956, 305.9609
1318.022, 190.6328
1319.087, 179.2969
1320.153, 162.8613
1321.219, 283.5000
1322.284, 211.0645
1323.349, 287.6875
1324.414, 284.0996
1325.479, 216.6992
1326.544, 31.29102
1327.608, 170.7305
1328.673, 92.26562
1329.737, 322.8750
1330.801, 385.2461
1331.865, 203.7871
1332.929, 182.2363
1333.993, 209.7520
1335.057, 95.25781
1336.120, 289.7539
1337.183, 233.9238
1338.247, 355.2461
1339.310, 203.1270
1340.373, 250.2285
1341.435, 272.0938
1342.498, 41.51562
1343.560, 286.5020
1344.623, 272.9258
1345.685, 182.8730
1346.747, 129.9180
1347.809, 178.0098
1348.871, 212.3867
1349.932, 194.8574
1350.994, 194.1211
1352.055, 116.4629
1353.116, 20.66602
1354.177, 89.56836
1355.238, 136.8848
1356.299, 256.5117
1357.359, 255.7969
1358.420, 170.0723
1359.480, 278.2676
1360.540, 121.1523
1361.600, 118.7559
1362.660, 121.2637
