##NAMES=Augelite
##RRUFFID=R050060
##IDEAL CHEMISTRY=Al_2_PO_4_(OH)_3_
##LOCALITY=Machacamarca, Potosi Department, Bolivia
##OWNER=RRUFF
##SOURCE=Rock Currier
##DESCRIPTION=Colorless prismatic crystals
##STATUS=The identification of this mineral has been confirmed by X-ray diffraction and chemical analysis
##URL=rruff.info/R050060
##MEASURED CHEMISTRY=Al_2.00_(P_1.00_O_4_)(OH)_3_; OH estimated by difference
##PIN_ID=L00994
##ORIENTATION=Laser parallel to -c* (0 0 -1). Fiducial mark perpendicular to laser is parallel to -a [-1 0 0]
140.0490, 0.0000000E+00
141.2890, 22.84546
142.5280, 2.419678
143.7670, 1.4404000E-02
145.0050, 13.03003
146.2440, 122.6221
147.4820, 239.6458
148.7200, 321.9585
149.9580, 597.5640
151.1960, 784.3245
152.4340, 1109.465
153.6710, 1393.775
154.9080, 1772.147
156.1450, 2079.172
157.3820, 2428.387
158.6190, 2887.535
159.8550, 3340.983
161.0910, 3594.870
162.3270, 4078.301
163.5630, 4135.324
164.7980, 3900.959
166.0340, 3734.264
167.2690, 3294.271
168.5040, 2819.000
169.7390, 2493.399
170.9730, 1966.445
172.2080, 1643.671
173.4420, 1389.849
174.6760, 1134.754
175.9100, 971.6572
177.1440, 739.1396
178.3770, 640.1919
179.6100, 571.6326
180.8430, 471.9724
182.0760, 406.3220
183.3090, 346.1248
184.5410, 286.6094
185.7740, 233.9385
187.0060, 205.0715
188.2380, 193.4951
189.4690, 286.7004
190.7010, 227.3506
191.9320, 254.0566
193.1630, 324.9495
194.3940, 236.7151
195.6250, 257.9995
196.8550, 160.1287
198.0860, 184.3552
199.3160, 278.2756
200.5460, 252.7644
201.7750, 199.1948
203.0050, 148.0247
204.2340, 44.15771
205.4630, 35.46777
206.6920, 49.62549
207.9210, 20.64893
209.1500, 95.96436
210.3780, 28.92065
211.6060, 13.28516
212.8340, 29.78394
214.0620, 99.62476
215.2900, 164.2634
216.5170, 231.7461
217.7440, 270.9905
218.9710, 434.6492
220.1980, 470.7166
221.4250, 668.8381
222.6510, 942.5989
223.8770, 1190.003
225.1040, 1577.288
226.3290, 1798.978
227.5550, 1533.045
228.7810, 1270.170
230.0060, 912.6284
231.2310, 663.2949
232.4560, 541.9077
233.6810, 344.0015
234.9050, 273.7791
236.1290, 174.0129
237.3540, 154.4277
238.5770, 219.5869
239.8010, 141.9290
241.0250, 168.0813
242.2480, 126.7446
243.4710, 85.37939
244.6940, 104.4963
245.9170, 127.0381
247.1400, 139.5483
248.3620, 174.9563
249.5840, 120.1160
250.8060, 70.38013
252.0280, 81.57080
253.2500, 205.7188
254.4710, 148.2739
255.6920, 132.2769
256.9140, 65.08765
258.1340, 157.8826
259.3550, 159.4680
260.5760, 142.8264
261.7960, 221.1689
263.0160, 125.8977
264.2360, 51.60913
265.4560, 48.30078
266.6750, 22.97192
267.8940, 17.62622
269.1140, 45.26147
270.3330, 4.875732
271.5510, 11.47485
272.7700, 50.05493
273.9880, 88.62207
275.2070, 74.07275
276.4250, 67.71069
277.6420, 36.21094
278.8600, 48.67920
280.0770, 3.887939
281.2950, 21.46753
282.5120, 31.93921
283.7290, 33.67627
284.9450, 21.66113
286.1620, 58.04639
287.3780, 65.35693
288.5940, 21.37524
289.8100, 66.23438
291.0260, 37.95972
292.2410, 61.61768
293.4570, 55.24902
294.6720, 4.873535
295.8870, 35.50562
297.1010, 10.87988
298.3160, 9.235107
299.5300, 23.56470
300.7450, 16.13428
301.9590, 14.87354
303.1730, 39.65479
304.3860, 26.50391
305.6000, 33.42627
306.8130, 3.579834
308.0260, 13.47461
309.2390, 50.40796
310.4510, 32.23877
311.6640, 17.01807
312.8760, 22.25366
314.0880, 20.58447
315.3000, 3.026611
316.5120, 50.58740
317.7240, 52.10425
318.9350, 11.42383
320.1460, 81.84570
321.3570, 27.10107
322.5680, 33.83643
323.7790, 4.264893
324.9890, 67.59180
326.1990, 59.41162
327.4090, 40.19458
328.6190, 19.93896
329.8290, 45.64453
331.0380, 50.31226
332.2480, 28.94336
333.4570, 47.53735
334.6660, 37.72607
335.8740, 62.62061
337.0830, 34.11108
338.2910, 36.56226
339.5000, 36.97876
340.7080, 48.36499
341.9150, 69.71484
343.1230, 87.03369
344.3300, 12.32568
345.5380, 19.58667
346.7450, 53.82275
347.9520, 23.03540
349.1580, 80.21289
350.3650, 77.27246
351.5710, 39.88037
352.7770, 104.5244
353.9830, 68.97168
355.1890, 13.32715
356.3940, 46.52466
357.6000, 13.63354
358.8050, 40.16626
360.0100, 46.88037
361.2150, 92.53442
362.4190, 17.10205
363.6240, 54.60400
364.8280, 37.08667
366.0320, 0.4519040
367.2360, 11.96094
368.4400, 67.31079
369.6430, 32.61621
370.8460, 66.89624
372.0500, 68.16235
373.2530, 88.38208
374.4550, 75.58569
375.6580, 104.7683
376.8600, 93.43140
378.0620, 86.06250
379.2650, 88.19482
380.4660, 112.3184
381.6680, 129.4346
382.8690, 146.4670
384.0710, 162.1689
385.2720, 166.5486
386.4730, 179.6345
387.6730, 205.5493
388.8740, 196.2046
390.0740, 287.0220
391.2740, 276.9355
392.4740, 296.9045
393.6740, 388.9653
394.8740, 402.8220
396.0730, 486.3152
397.2730, 621.9492
398.4720, 719.9873
399.6700, 913.9800
400.8690, 1230.912
402.0680, 1446.426
403.2660, 1846.466
404.4640, 2135.508
405.6620, 2645.526
406.8600, 3027.582
408.0570, 3258.545
409.2550, 3251.014
410.4520, 3045.457
411.6490, 2892.230
412.8460, 2533.844
414.0430, 2234.346
415.2390, 1900.440
416.4350, 1724.951
417.6310, 1508.619
418.8270, 1311.574
420.0230, 1197.476
421.2190, 1121.359
422.4140, 1040.932
423.6090, 979.6868
424.8040, 927.6919
425.9990, 898.6482
427.1940, 890.2595
428.3880, 830.5576
429.5820, 877.0134
430.7760, 799.8936
431.9700, 842.3286
433.1640, 819.5317
434.3580, 769.9246
435.5510, 792.0913
436.7440, 786.7708
437.9370, 759.8462
439.1300, 750.0793
440.3230, 749.7607
441.5150, 687.8682
442.7070, 657.8987
443.8990, 655.3782
445.0910, 584.8801
446.2830, 533.4570
447.4750, 583.4761
448.6660, 476.3188
449.8570, 527.7271
451.0480, 481.4561
452.2390, 468.1208
453.4290, 577.8398
454.6200, 650.3906
455.8100, 733.6753
457.0000, 794.8115
458.1900, 894.0610
459.3800, 1013.800
460.5690, 1167.501
461.7590, 1290.213
462.9480, 1416.080
464.1370, 1510.926
465.3260, 1597.939
466.5140, 1664.410
467.7030, 1718.819
468.8910, 1775.605
470.0790, 1778.361
471.2670, 1710.007
472.4550, 1606.460
473.6420, 1470.165
474.8300, 1338.899
476.0170, 1233.480
477.2040, 948.2124
478.3900, 857.8840
479.5770, 732.6934
480.7640, 574.3596
481.9500, 543.0654
483.1360, 498.8025
484.3220, 416.6272
485.5080, 338.5510
486.6930, 257.5625
487.8780, 230.1550
489.0640, 149.8408
490.2490, 247.7515
491.4330, 137.5110
492.6180, 288.5625
493.8030, 215.6177
494.9870, 234.5698
496.1710, 233.7964
497.3550, 253.9685
498.5390, 288.3679
499.7220, 402.8137
500.9060, 488.8716
502.0890, 553.3237
503.2720, 601.2729
504.4550, 710.6277
505.6370, 791.7554
506.8200, 892.0603
508.0020, 1030.315
509.1840, 1182.406
510.3660, 1294.587
511.5480, 1554.013
512.7290, 1720.308
513.9110, 2082.758
515.0920, 2368.217
516.2730, 2636.689
517.4540, 2863.170
518.6350, 3234.661
519.8150, 3658.163
520.9960, 3945.684
522.1760, 4233.221
523.3560, 4397.773
524.5350, 4603.334
525.7150, 4676.905
526.8950, 4739.485
528.0740, 4672.076
529.2530, 4395.675
530.4320, 4172.284
531.6100, 4052.903
532.7890, 3763.533
533.9670, 3474.173
535.1460, 3197.822
536.3240, 2910.480
537.5010, 2627.149
538.6790, 2448.828
539.8570, 2197.520
541.0340, 2005.220
542.2110, 1830.966
543.3880, 1676.685
544.5650, 1546.434
545.7410, 1460.035
546.9180, 1322.842
548.0940, 1268.851
549.2700, 1155.618
550.4460, 1076.395
551.6210, 1053.903
552.7970, 895.2397
553.9720, 869.3323
555.1480, 860.4585
556.3230, 825.9189
557.4970, 758.7554
558.6720, 670.7881
559.8460, 596.1167
561.0210, 554.5369
562.1950, 523.9097
563.3690, 468.8198
564.5420, 429.7402
565.7160, 362.6704
566.8890, 341.6182
568.0630, 425.5876
569.2360, 340.5676
570.4090, 303.5745
571.5810, 284.5903
572.7540, 202.6365
573.9260, 299.7151
575.0980, 123.8149
576.2700, 164.9473
577.4420, 188.1045
578.6140, 129.2932
579.7850, 157.5115
580.9560, 104.7466
582.1270, 128.9912
583.2980, 185.2485
584.4690, 132.5188
585.6400, 133.7996
586.8100, 109.0996
587.9800, 185.4192
589.1500, 197.7639
590.3200, 202.1309
591.4900, 241.0000
592.6590, 218.9270
593.8290, 251.3506
594.9980, 268.7834
596.1670, 219.2261
597.3360, 213.6804
598.5040, 326.1555
599.6730, 310.6504
600.8410, 364.1594
602.0090, 343.6777
603.1770, 378.2046
604.3450, 387.7495
605.5130, 446.3025
606.6800, 538.8772
607.8470, 463.4614
609.0140, 592.0603
610.1810, 600.7688
611.3480, 680.7156
612.5140, 795.4126
613.6810, 815.0479
614.8470, 922.9827
616.0130, 1024.344
617.1790, 1106.140
618.3440, 1177.843
619.5100, 1302.975
620.6750, 1487.765
621.8400, 1641.678
623.0050, 1881.482
624.1700, 2122.984
625.3350, 2463.424
626.4990, 2807.059
627.6640, 3292.201
628.8280, 3752.735
629.9920, 4384.968
631.1550, 5133.345
632.3190, 5921.104
633.4820, 6951.566
634.6460, 7778.299
635.8090, 8323.102
636.9710, 8514.688
638.1340, 8285.500
639.2970, 7792.327
640.4590, 6682.138
641.6210, 5613.954
642.7830, 4784.822
643.9450, 3986.384
645.1070, 3395.241
646.2680, 2914.724
647.4300, 2501.917
648.5910, 2169.827
649.7520, 1846.644
650.9130, 1657.489
652.0730, 1546.415
653.2340, 1313.093
654.3940, 1175.948
655.5540, 978.8149
656.7140, 859.6414
657.8740, 771.7539
659.0330, 683.4355
660.1930, 594.5657
661.3520, 586.8564
662.5110, 510.0989
663.6700, 393.9995
664.8290, 415.0454
665.9870, 342.9150
667.1460, 314.7856
668.3040, 265.6567
669.4620, 239.5288
670.6200, 220.4309
671.7770, 150.3035
672.9350, 126.1765
674.0920, 123.0496
675.2500, 86.98608
676.4070, 27.79639
677.5630, 56.66992
678.7200, 77.54321
679.8770, 62.41602
681.0330, 2.711182
682.1890, 23.16064
683.3450, 21.96802
684.5010, 18.32935
685.6560, 50.24170
686.8120, 13.39600
687.9670, 23.44629
689.1220, 18.28760
690.2770, 24.87256
691.4320, 55.04102
692.5870, 82.23340
693.7410, 13.45117
694.8950, 70.67358
696.0490, 59.92944
697.2030, 8.213867
698.3570, 34.49097
699.5110, 24.22266
700.6640, 6.936523
701.8170, 22.65039
702.9700, 6.363770
704.1230, 34.07495
705.2760, 16.78589
706.4290, 17.49487
707.5810, 62.20117
708.7330, 1.910156
709.8850, 169.6160
711.0370, 140.3193
712.1890, 222.0190
713.3400, 194.7161
714.4920, 250.4094
715.6430, 260.0991
716.7940, 355.7852
717.9450, 409.4675
719.0960, 351.1460
720.2460, 365.8254
721.3960, 310.5005
722.5470, 272.1714
723.6970, 336.8374
724.8460, 232.4990
725.9960, 228.1562
727.1460, 196.8083
728.2950, 150.4556
729.4440, 99.09766
730.5930, 158.7346
731.7420, 142.3665
732.8910, 203.9927
734.0390, 131.6133
735.1870, 93.22852
736.3360, 152.8381
737.4840, 119.4414
738.6310, 100.0388
739.7790, 133.6306
740.9260, 77.21606
742.0740, 110.7949
743.2210, 112.3677
744.3680, 131.9341
745.5150, 87.49414
746.6610, 125.0474
747.8080, 10.59375
748.9540, 5.132324
750.1000, 13.65967
751.2460, 59.17896
752.3920, 36.82617
753.5380, 43.47217
754.6830, 13.69385
755.8280, 26.18286
756.9730, 0.6640630
758.1180, 1.130127
759.2630, 21.41943
760.4080, 50.99609
761.5520, 61.61597
762.6960, 3.715088
763.8410, 14.96875
764.9840, 6.677734
766.1280, 3.592529
767.2720, 7.153320
768.4150, 40.92041
769.5590, 54.27246
770.7020, 9.542480
771.8450, 45.38110
772.9870, 36.73755
774.1300, 74.15186
775.2720, 36.90039
776.4150, 35.94458
777.5570, 67.97949
778.6990, 48.00610
779.8400, 33.02417
780.9820, 9.033447
782.1230, 3.792969
783.2650, 5.997803
784.4060, 17.04639
785.5470, 31.87549
786.6870, 5.787842
787.8280, 72.68237
788.9680, 32.56812
790.1090, 7.555664
791.2490, 54.60620
792.3890, 6.448486
793.5280, 38.27197
794.6680, 29.08643
795.8070, 10.88989
796.9470, 13.32300
798.0860, 0.2248540
799.2250, 1.170654
800.3630, 40.88501
801.5020, 30.59009
802.6410, 83.28418
803.7790, 83.96924
804.9170, 97.64551
806.0550, 114.8987
807.1930, 41.97070
808.3300, 122.6196
809.4680, 99.25977
810.6050, 87.89087
811.7420, 149.5129
812.8790, 53.12598
814.0160, 167.7300
815.1520, 99.32520
816.2890, 173.9114
817.4250, 159.5168
818.5610, 114.0486
819.6970, 176.6079
820.8330, 104.6594
821.9680, 210.8201
823.1040, 161.3694
824.2390, 188.6426
825.3740, 149.1577
826.5090, 174.6646
827.6440, 202.4412
828.7790, 199.4824
829.9130, 212.7617
831.0470, 244.9375
832.1810, 311.7820
833.3150, 355.2810
834.4490, 314.0266
835.5830, 307.5029
836.7160, 320.3767
837.8500, 325.1038
838.9830, 416.8599
840.1160, 473.2690
841.2480, 472.1335
842.3810, 565.5269
843.5140, 599.0142
844.6460, 675.4832
845.7780, 717.8503
846.9100, 757.2119
848.0420, 836.5652
849.1740, 871.9114
850.3050, 927.2493
851.4360, 953.5796
852.5680, 1137.902
853.6990, 1161.217
854.8290, 1294.523
855.9600, 1318.977
857.0910, 1344.269
858.2210, 1385.553
859.3510, 1403.061
860.4810, 1407.098
861.6110, 1395.395
862.7410, 1365.967
863.8700, 1325.723
865.0000, 1260.244
866.1290, 1194.330
867.2580, 1101.554
868.3870, 990.7715
869.5150, 895.9812
870.6440, 881.1836
871.7720, 858.3789
872.9000, 866.5674
874.0290, 802.0454
875.1560, 694.9229
876.2840, 683.0898
877.4120, 635.2500
878.5390, 583.4031
879.6660, 610.5498
880.7930, 481.6895
881.9200, 519.8220
883.0470, 527.9482
884.1740, 445.9670
885.3000, 522.7495
886.4260, 478.7839
887.5530, 325.8840
888.6780, 375.9778
889.8040, 442.0649
890.9300, 405.0105
892.0550, 455.0527
893.1810, 490.3416
894.3060, 547.6272
895.4310, 468.4651
896.5560, 406.4158
897.6800, 482.6699
898.8050, 396.9890
899.9290, 345.1150
901.0530, 334.7341
902.1770, 329.9648
903.3010, 305.5020
904.4250, 317.8943
905.5480, 252.9075
906.6720, 255.2214
907.7950, 259.2632
908.9180, 250.2400
910.0410, 265.4331
911.1630, 174.4009
912.2860, 175.3599
913.4080, 185.3484
914.5300, 126.3340
915.6530, 175.2678
916.7740, 88.50928
917.8960, 120.4565
919.0180, 123.7798
920.1390, 170.3931
921.2600, 162.2915
922.3820, 34.28491
923.5020, 116.2510
924.6230, 115.1377
925.7440, 3.727295
926.8640, 58.22998
927.9850, 131.1755
929.1050, 32.08911
930.2250, 148.8635
931.3450, 60.99609
932.4640, 37.68018
933.5840, 48.20410
934.7030, 47.77734
935.8220, 72.69214
936.9410, 18.46265
938.0600, 55.40918
939.1790, 6.355225
940.2970, 59.30127
941.4160, 94.24707
942.5340, 8.162598
943.6520, 50.10815
944.7700, 17.05322
945.8870, 34.99829
947.0050, 69.94385
948.1220, 37.88916
949.2400, 14.83667
950.3570, 26.78442
951.4740, 0.3471680
952.5900, 62.68042
953.7070, 5.645264
954.8240, 18.61865
955.9400, 86.59521
957.0560, 23.42456
958.1720, 15.55615
959.2880, 35.53906
960.4030, 7.522949
961.5190, 28.51685
962.6340, 5.518555
963.7490, 60.46631
964.8640, 43.54053
965.9790, 31.55078
967.0940, 0.4216310
968.2080, 49.37573
969.3230, 32.33911
970.4370, 12.30786
971.5510, 9.277344
972.6650, 10.24854
973.7790, 62.78223
974.8920, 13.18555
976.0060, 13.84424
977.1190, 21.87598
978.2320, 28.09033
979.3450, 45.93433
980.4580, 9.961670
981.5710, 78.99121
982.6830, 47.83618
983.7950, 44.99414
984.9080, 29.09399
986.0200, 2.133545
987.1310, 74.17896
988.2430, 28.22705
989.3550, 28.70752
990.4660, 52.35010
991.5770, 37.41040
992.6880, 101.4739
993.7990, 34.54028
994.9100, 39.60986
996.0200, 117.6826
997.1310, 97.75854
998.2410, 86.83789
999.3510, 166.9207
1000.461, 130.0071
1001.571, 319.0967
1002.681, 237.1899
1003.790, 263.2886
1004.899, 199.3911
1006.009, 111.5007
1007.118, 163.6143
1008.226, 142.7314
1009.335, 178.8530
1010.444, 118.9783
1011.552, 158.1077
1012.660, 109.2412
1013.768, 95.37866
1014.876, 61.52075
1015.984, 120.6672
1017.092, 167.8176
1018.199, 142.9741
1019.306, 128.1370
1020.413, 209.3047
1021.520, 207.4773
1022.627, 216.6543
1023.734, 193.8362
1024.840, 98.02368
1025.947, 94.21631
1027.053, 103.4175
1028.159, 95.62793
1029.265, 170.8528
1030.370, 218.1011
1031.476, 149.3745
1032.581, 103.6587
1033.687, 128.9568
1034.792, 166.2666
1035.897, 46.58521
1037.002, 88.91650
1038.106, 20.26880
1039.211, 64.62671
1040.315, 87.99805
1041.419, 35.39185
1042.523, 150.7915
1043.627, 95.22168
1044.731, 150.6577
1045.834, 220.0996
1046.938, 172.5471
1048.041, 216.0010
1049.144, 209.4604
1050.247, 206.9294
1051.349, 169.4094
1052.452, 155.9028
1053.555, 209.4126
1054.657, 260.9287
1055.759, 268.4556
1056.861, 277.9885
1057.963, 318.5278
1059.064, 303.7705
1060.166, 362.3306
1061.267, 362.9016
1062.368, 378.4790
1063.470, 396.0635
1064.570, 427.6587
1065.671, 442.0850
1066.772, 474.8940
1067.872, 470.5308
1068.972, 451.1743
1070.073, 437.8252
1071.173, 489.4827
1072.272, 525.1460
1073.372, 540.8162
1074.472, 540.4927
1075.571, 688.1760
1076.670, 626.8657
1077.769, 731.5620
1078.868, 875.2646
1079.967, 800.9741
1081.065, 861.0146
1082.164, 972.7388
1083.262, 1029.469
1084.360, 1114.178
1085.458, 1136.657
1086.556, 1174.180
1087.654, 1247.936
1088.751, 1378.824
1089.848, 1510.519
1090.946, 1652.294
1092.043, 1708.076
1093.139, 1833.947
1094.236, 2192.350
1095.333, 2251.229
1096.429, 2649.871
1097.525, 3059.686
1098.622, 3297.506
1099.718, 3758.207
1100.813, 4159.771
1101.909, 4656.130
1103.005, 5221.879
1104.100, 5572.433
1105.195, 6102.729
1106.290, 6595.597
1107.385, 6733.007
1108.480, 6904.887
1109.574, 6766.785
1110.669, 6294.493
1111.763, 5876.403
1112.857, 5301.324
1113.951, 4596.250
1115.045, 4036.184
1116.139, 3476.123
1117.232, 3030.070
1118.326, 2693.826
1119.419, 2347.787
1120.512, 1963.056
1121.605, 1770.874
1122.697, 1532.852
1123.790, 1347.843
1124.883, 1223.840
1125.975, 1064.884
1127.067, 974.0444
1128.159, 882.8706
1129.251, 820.9067
1130.342, 838.9355
1131.434, 781.9707
1132.525, 760.0122
1133.617, 710.0596
1134.708, 760.4492
1135.799, 658.5098
1136.889, 781.3413
1137.980, 805.4160
1139.071, 753.4980
1140.161, 800.5864
1141.251, 853.6812
1142.341, 863.5874
1143.431, 932.0947
1144.521, 947.0000
1145.610, 1034.118
1146.700, 1085.243
1147.789, 1112.374
1148.878, 1318.570
1149.967, 1344.712
1151.056, 1436.861
1152.144, 1538.015
1153.233, 1774.176
1154.321, 1889.342
1155.409, 2033.514
1156.498, 2278.691
1157.585, 2348.875
1158.673, 2608.065
1159.761, 2735.260
1160.848, 2818.460
1161.936, 2865.667
1163.023, 2748.158
1164.110, 2752.375
1165.197, 2524.599
1166.283, 2461.832
1167.370, 2247.079
1168.456, 1991.331
1169.542, 1810.589
1170.629, 1585.852
1171.714, 1456.119
1172.800, 1322.391
1173.886, 1085.669
1174.971, 961.9512
1176.057, 868.2383
1177.142, 761.5303
1178.227, 730.8267
1179.312, 673.1279
1180.397, 599.6191
1181.481, 593.7437
1182.566, 464.0591
1183.650, 425.3784
1184.734, 341.7021
1185.818, 312.0303
1186.902, 332.3628
1187.986, 314.6997
1189.069, 239.0410
1190.153, 267.3887
1191.236, 261.7397
1192.319, 144.0952
1193.402, 198.4551
1194.485, 195.8188
1195.567, 126.1865
1196.650, 88.55859
1197.732, 145.9336
1198.814, 135.3135
1199.896, 111.6968
1200.978, 55.08398
1202.060, 81.47461
1203.142, 36.86914
1204.223, 36.26709
1205.304, 106.6694
1206.386, 79.07520
1207.467, 40.48389
1208.547, 38.89746
1209.628, 88.31348
1210.709, 8.266602
1211.789, 136.3901
1212.869, 23.82422
1213.950, 34.24023
1215.030, 67.32959
1216.109, 34.92822
1217.189, 50.46094
1218.269, 3.147461
1219.348, 63.24658
1220.427, 6.647949
1221.506, 28.05322
1222.585, 39.53955
1223.664, 12.98535
1224.743, 1.595703
1225.821, 99.79590
1226.899, 39.20410
1227.978, 10.61475
1229.056, 17.97070
1230.134, 40.56201
1231.211, 15.84131
1232.289, 6.810547
1233.366, 86.60352
1234.444, 14.97803
1235.521, 66.43750
1236.598, 11.85596
1237.675, 45.27881
1238.751, 13.97412
1239.828, 110.4028
1240.904, 108.8384
1241.981, 33.47559
1243.057, 80.02197
1244.133, 27.38086
1245.209, 34.82617
1246.284, 69.27734
1247.360, 13.17578
1248.435, 26.28076
1249.510, 54.25977
1250.585, 86.17285
1251.660, 20.61230
1252.735, 40.60449
1253.810, 102.0488
1254.884, 100.4985
1255.959, 18.95020
1257.033, 94.40430
1258.107, 3.884766
1259.181, 10.34180
1260.255, 58.85596
1261.328, 61.31592
1262.402, 44.77783
1263.475, 2.758301
1264.548, 33.70410
1265.621, 10.34766
1266.694, 20.11182
1267.767, 58.89062
1268.840, 112.3530
1269.912, 114.8169
1270.984, 136.3066
1272.056, 16.77344
1273.129, 76.24170
1274.200, 108.7114
1275.272, 69.18262
1276.344, 135.6543
1277.415, 4.128906
1278.486, 46.60400
1279.558, 56.08105
1280.629, 36.55859
1281.699, 81.03760
1282.770, 60.51807
1283.841, 27.99902
1284.911, 36.48047
1285.981, 21.96240
1287.051, 37.44531
1288.121, 40.92871
1289.191, 14.41309
1290.261, 94.89795
1291.330, 0.3837890
1292.400, 93.86719
1293.469, 68.35059
1294.538, 56.21094
1295.607, 109.4961
1296.676, 131.9814
1297.745, 121.4697
1298.813, 133.9575
1299.881, 125.6289
1300.950, 90.94238
1302.018, 97.42969
1303.086, 108.9175
1304.154, 81.40430
1305.221, 48.89111
1306.289, 185.3770
1307.356, 44.86230
1308.423, 154.3477
1309.490, 131.8345
1310.557, 159.3193
1311.624, 197.8027
1312.691, 65.28223
1313.757, 150.7632
