##NAMES=Augelite
##RRUFFID=R050060
##IDEAL CHEMISTRY=Al_2_PO_4_(OH)_3_
##LOCALITY=Machacamarca, Potosi Department, Bolivia
##OWNER=RRUFF
##SOURCE=Rock Currier
##DESCRIPTION=Colorless prismatic crystals
##STATUS=The identification of this mineral has been confirmed by X-ray diffraction and chemical analysis
##URL=rruff.info/R050060
##MEASURED CHEMISTRY=Al_2.00_(P_1.00_O_4_)(OH)_3_; OH estimated by difference
##PIN_ID=L01787
##ORIENTATION=Laser parallel to (1 0 1). Fiducial mark perpendicular to laser is parallel to -b [0 -1 0]
142.5280, 0.0000000E+00
143.7670, 13.68604
145.0050, 125.0210
146.2440, 360.1982
147.4820, 644.1777
148.7200, 1142.999
149.9580, 1746.225
151.1960, 2555.461
152.4340, 3305.112
153.6710, 4392.629
154.9080, 5445.737
156.1450, 6673.182
157.3820, 8323.930
158.6190, 9643.292
159.8550, 11259.06
161.0910, 12600.31
162.3270, 13496.17
163.5630, 13924.98
164.7980, 13846.38
166.0340, 13154.30
167.2690, 11724.76
168.5040, 10484.86
169.7390, 8907.165
170.9730, 7466.152
172.2080, 6138.326
173.4420, 4946.184
174.6760, 3955.159
175.9100, 2983.523
177.1440, 2536.517
178.3770, 2033.452
179.6100, 1484.443
180.8430, 1202.259
182.0760, 876.9351
183.3090, 606.1777
184.5410, 495.2832
185.7740, 348.4402
187.0060, 259.3164
188.2380, 183.8035
189.4690, 150.6279
190.7010, 70.41504
191.9320, 31.49170
193.1630, 22.01855
194.3940, 48.51025
195.6250, 66.38916
196.8550, 58.05542
198.0860, 85.92773
199.3160, 41.93311
200.5460, 4.004395
201.7750, 67.29395
203.0050, 122.0203
204.2340, 107.9377
205.4630, 188.0925
206.6920, 371.6013
207.9210, 641.1301
209.1500, 952.9072
210.3780, 1376.403
211.6060, 1799.098
212.8340, 2361.359
214.0620, 2977.666
215.2900, 3702.629
216.5170, 4552.083
217.7440, 5492.873
218.9710, 6359.463
220.1980, 7447.228
221.4250, 8253.911
222.6510, 9047.476
223.8770, 9646.592
225.1040, 9949.749
226.3290, 9779.805
227.5550, 8936.730
228.7810, 7704.475
230.0060, 6468.089
231.2310, 5040.902
232.4560, 3993.868
233.6810, 3125.974
234.9050, 2507.202
236.1290, 2127.538
237.3540, 1821.965
238.5770, 1798.472
239.8010, 1734.046
241.0250, 1730.662
242.2480, 1808.255
243.4710, 1983.751
244.6940, 2165.128
245.9170, 2366.470
247.1400, 2768.820
248.3620, 3116.169
249.5840, 3493.513
250.8060, 3843.836
252.0280, 3851.118
253.2500, 3532.341
254.4710, 2956.499
255.6920, 2272.593
256.9140, 1691.625
258.1340, 1274.593
259.3550, 895.4417
260.5760, 601.9229
261.7960, 433.1267
263.0160, 235.8555
264.2360, 127.5315
265.4560, 65.15674
266.6750, 11.26611
267.8940, 21.73413
269.1140, 138.2458
270.3330, 156.7983
271.5510, 162.3896
272.7700, 234.0176
273.9880, 154.6802
275.2070, 179.3792
276.4250, 234.1484
277.6420, 202.0618
278.8600, 149.2141
280.0770, 218.7197
281.2950, 225.6304
282.5120, 241.9277
283.7290, 249.6250
284.9450, 278.6670
286.1620, 269.0852
287.3780, 255.2859
288.5940, 215.1897
289.8100, 153.6719
291.0260, 60.55347
292.2410, 79.93237
293.4570, 190.8362
294.6720, 424.9856
295.8870, 529.2710
297.1010, 613.6074
298.3160, 605.9314
299.5300, 456.2007
300.7450, 393.3826
301.9590, 238.4539
303.1730, 75.36401
304.3860, 32.93555
305.6000, 30.46606
306.8130, 38.22388
308.0260, 12.78687
309.2390, 21.57739
310.4510, 114.1501
311.6640, 137.5176
312.8760, 228.6770
314.0880, 314.6033
315.3000, 438.1633
316.5120, 514.2856
317.7240, 662.9795
318.9350, 746.4539
320.1460, 942.7568
321.3570, 1109.888
322.5680, 1221.852
323.7790, 1382.626
324.9890, 1627.193
326.1990, 1773.542
327.4090, 1976.676
328.6190, 2010.608
329.8290, 2129.350
331.0380, 1997.906
332.2480, 2080.284
333.4570, 2064.493
334.6660, 1865.544
335.8740, 1828.232
337.0830, 1782.376
338.2910, 1707.074
339.5000, 1553.266
340.7080, 1593.426
341.9150, 1473.126
343.1230, 1509.040
344.3300, 1538.921
345.5380, 1630.306
346.7450, 1620.835
347.9520, 1647.380
349.1580, 1668.149
350.3650, 1662.375
351.5710, 1721.596
352.7770, 1686.754
353.9830, 1611.873
355.1890, 1671.561
356.3940, 1674.784
357.6000, 1842.605
358.8050, 1870.995
360.0100, 2141.945
361.2150, 2404.481
362.4190, 2666.709
363.6240, 3272.827
364.8280, 3748.938
366.0320, 4363.064
367.2360, 4795.201
368.4400, 4948.330
369.6430, 4835.376
370.8460, 4487.304
372.0500, 3716.161
373.2530, 3071.994
374.4550, 2330.822
375.6580, 1830.659
376.8600, 1353.514
378.0620, 1092.385
379.2650, 905.2737
380.4660, 654.1787
381.6680, 656.0999
382.8690, 518.0371
384.0710, 433.9907
385.2720, 396.9602
386.4730, 381.9453
387.6730, 392.9473
388.8740, 448.9663
390.0740, 430.0032
391.2740, 451.0586
392.4740, 452.1323
393.6740, 510.2249
394.8740, 665.3364
396.0730, 735.4678
397.2730, 884.6189
398.4720, 1102.790
399.6700, 1257.982
400.8690, 1488.195
402.0680, 1866.430
403.2660, 2091.688
404.4640, 2555.980
405.6620, 3005.333
406.8600, 3357.866
408.0570, 3877.367
409.2550, 4329.636
410.4520, 4575.827
411.6490, 4809.076
412.8460, 5052.956
414.0430, 5239.804
415.2390, 5530.782
416.4350, 5717.711
417.6310, 5986.439
418.8270, 6183.430
420.0230, 6416.162
421.2190, 6519.756
422.4140, 6323.662
423.6090, 6090.184
424.8040, 5600.640
425.9990, 5182.969
427.1940, 4609.575
428.3880, 4100.009
429.5820, 3756.935
430.7760, 3411.782
431.9700, 3055.824
433.1640, 2797.724
434.3580, 2616.603
435.5510, 2534.467
436.7440, 2432.290
437.9370, 2342.576
439.1300, 2376.268
440.3230, 2366.391
441.5150, 2416.861
442.7070, 2365.293
443.8990, 2508.093
445.0910, 2586.625
446.2830, 2826.317
447.4750, 2815.222
448.6660, 2880.391
449.8570, 3100.764
451.0480, 3232.702
452.2390, 3266.895
453.4290, 3374.604
454.6200, 3459.187
455.8100, 3543.332
457.0000, 3632.794
458.1900, 3756.036
459.3800, 3850.810
460.5690, 3997.922
461.7590, 4041.463
462.9480, 4297.020
464.1370, 4324.588
465.3260, 4357.173
466.5140, 4363.774
467.7030, 4517.391
468.8910, 4348.027
470.0790, 4333.681
471.2670, 4168.355
472.4550, 3827.051
473.6420, 3620.767
474.8300, 3251.508
476.0170, 2924.273
477.2040, 2587.062
478.3900, 2296.879
479.5770, 2051.728
480.7640, 1884.613
481.9500, 1636.538
483.1360, 1539.515
484.3220, 1337.564
485.5080, 1192.698
486.6930, 1142.911
487.8780, 1027.207
489.0640, 958.5745
490.2490, 886.0159
491.4330, 849.5325
492.6180, 889.1169
493.8030, 914.7705
494.9870, 922.4961
496.1710, 922.2917
497.3550, 919.1582
498.5390, 1048.102
499.7220, 1083.123
500.9060, 1178.228
502.0890, 1274.389
503.2720, 1450.635
504.4550, 1619.735
505.6370, 1837.328
506.8200, 2062.796
508.0020, 2431.344
509.1840, 2722.965
510.3660, 3134.651
511.5480, 3663.405
512.7290, 4133.231
513.9110, 4587.129
515.0920, 5165.093
516.2730, 5826.129
517.4540, 6555.226
518.6350, 7241.381
519.8150, 7808.607
520.9960, 8475.896
522.1760, 9056.253
523.3560, 9698.672
524.5350, 9878.150
525.7150, 10321.69
526.8950, 10254.29
528.0740, 10128.96
529.2530, 10098.67
530.4320, 9722.451
531.6100, 9146.285
532.7890, 8731.176
533.9670, 8143.124
535.1460, 7523.127
536.3240, 6893.187
537.5010, 6233.299
538.6790, 5863.467
539.8570, 5360.687
541.0340, 4877.962
542.2110, 4639.289
543.3880, 4319.670
544.5650, 3922.172
545.7410, 3664.848
546.9180, 3385.672
548.0940, 3216.857
549.2700, 3147.360
550.4460, 3005.446
551.6210, 2799.649
552.7970, 2730.281
553.9720, 2570.084
555.1480, 2410.413
556.3230, 2257.100
557.4970, 2378.290
558.6720, 2126.215
559.8460, 2142.576
561.0210, 2124.132
562.1950, 1977.013
563.3690, 1868.966
564.5420, 1710.051
565.7160, 1629.127
566.8890, 1545.005
568.0630, 1353.194
569.2360, 1306.875
570.4090, 1166.948
571.5810, 1080.044
572.7540, 921.2888
573.9260, 828.6763
575.0980, 710.1953
576.2700, 595.5352
577.4420, 467.5503
578.6140, 394.3296
579.7850, 320.1592
580.9560, 241.0327
582.1270, 190.9478
583.2980, 134.5837
584.4690, 100.8542
585.6400, 68.93921
586.8100, 65.02222
587.9800, 85.15210
589.1500, 98.33789
590.3200, 118.6018
591.4900, 103.9429
592.6590, 161.4160
593.8290, 253.8467
594.9980, 271.3933
596.1670, 360.9910
597.3360, 433.6387
598.5040, 438.3320
599.6730, 541.0688
600.8410, 666.8467
602.0090, 743.6631
603.1770, 885.5171
604.3450, 972.4082
605.5130, 1169.335
606.6800, 1249.300
607.8470, 1412.299
609.0140, 1731.335
610.1810, 1920.406
611.3480, 2076.512
612.5140, 2381.654
613.6810, 2584.830
614.8470, 2954.041
616.0130, 3135.286
617.1790, 3535.701
618.3440, 4052.223
619.5100, 4333.571
620.6750, 4942.835
621.8400, 5495.121
623.0050, 6329.547
624.1700, 7195.734
625.3350, 8574.149
626.4990, 9866.523
627.6640, 11791.18
628.8280, 13917.93
629.9920, 16438.92
631.1550, 19304.09
632.3190, 22644.47
633.4820, 26057.04
634.6460, 29138.88
635.8090, 31233.54
636.9710, 31912.08
638.1340, 31273.88
639.2970, 28771.31
640.4590, 25344.60
641.6210, 21464.34
642.7830, 18114.98
643.9450, 14784.07
645.1070, 12137.25
646.2680, 10083.68
647.4300, 8370.762
648.5910, 7066.792
649.7520, 6003.001
650.9130, 5186.021
652.0730, 4518.484
653.2340, 3841.904
654.3940, 3357.157
655.5540, 2928.006
656.7140, 2518.623
657.8740, 2202.878
659.0330, 2019.422
660.1930, 1753.028
661.3520, 1608.120
662.5110, 1438.044
663.6700, 1134.463
664.8290, 960.7158
665.9870, 892.4333
667.1460, 796.7307
668.3040, 697.2512
669.4620, 624.7900
670.6200, 529.1196
671.7770, 435.1953
672.9350, 372.3120
674.0920, 305.1196
675.2500, 243.5579
676.4070, 231.4854
677.5630, 149.6101
678.7200, 142.7356
679.8770, 123.8618
681.0330, 54.98950
682.1890, 67.11572
683.3450, 1.759277
684.5010, 83.62744
685.6560, 16.51929
686.8120, 112.4146
687.9670, 70.34814
689.1220, 82.29907
690.2770, 81.25952
691.4320, 107.2498
692.5870, 159.2742
693.7410, 112.3677
694.8950, 164.5088
696.0490, 199.7271
697.2030, 159.0427
698.3570, 112.4363
699.5110, 143.8857
700.6640, 176.4097
701.8170, 157.0266
702.9700, 138.7280
704.1230, 118.5063
705.2760, 94.69727
706.4290, 39.25854
707.5810, 45.19702
708.7330, 0.8269040
709.8850, 26.82910
711.0370, 99.81226
712.1890, 142.9434
713.3400, 159.7178
714.4920, 247.6384
715.6430, 282.5369
716.7940, 317.4121
717.9450, 350.7834
719.0960, 372.0581
720.2460, 389.1785
721.3960, 400.6772
722.5470, 401.4324
723.6970, 394.1626
724.8460, 381.8669
725.9960, 379.8328
727.1460, 371.9080
728.2950, 363.8232
729.4440, 376.4219
730.5930, 360.9924
731.7420, 394.5347
732.8910, 440.0481
734.0390, 538.5325
735.1870, 620.7791
736.3360, 732.4119
737.4840, 840.8066
738.6310, 979.1709
739.7790, 1089.503
740.9260, 1278.805
742.0740, 1243.075
743.2210, 1228.313
744.3680, 1215.518
745.5150, 1078.691
746.6610, 884.8308
747.8080, 680.9373
748.9540, 562.0103
750.1000, 385.0496
751.2460, 320.0547
752.3920, 267.0251
753.5380, 150.9607
754.6830, 104.8616
755.8280, 90.72534
756.9730, 52.55151
758.1180, 58.33081
759.2630, 36.06348
760.4080, 35.74072
761.5520, 10.63843
762.6960, 44.09839
763.8410, 9.657471
764.9840, 3.701660
766.1280, 3.985107
767.2720, 29.80884
768.4150, 62.69775
769.5590, 32.70068
770.7020, 33.80225
771.8450, 36.47803
772.9870, 32.24829
774.1300, 28.71362
775.2720, 47.21875
776.4150, 39.83447
777.5570, 52.37134
778.6990, 66.60522
779.8400, 39.29077
780.9820, 38.70435
782.1230, 38.62891
783.2650, 32.51782
784.4060, 9.771484
785.5470, 25.87891
786.6870, 66.45093
787.8280, 48.96045
788.9680, 21.40039
790.1090, 42.75854
791.2490, 71.04346
792.3890, 36.26587
793.5280, 128.4114
794.6680, 104.5090
795.8070, 45.55249
796.9470, 95.52222
798.0860, 82.43506
799.2250, 88.40552
800.3630, 105.1970
801.5020, 111.9333
802.6410, 97.74316
803.7790, 165.9712
804.9170, 106.5510
806.0550, 147.0750
807.1930, 162.5513
808.3300, 124.9824
809.4680, 240.6833
810.6050, 138.7734
811.7420, 199.1350
812.8790, 206.3777
814.0160, 246.5764
815.1520, 277.1399
816.2890, 275.2366
817.4250, 324.8655
818.5610, 330.8928
819.6970, 334.0522
820.8330, 313.2952
821.9680, 411.2102
823.1040, 404.7725
824.2390, 464.9966
825.3740, 522.2119
826.5090, 530.0176
827.6440, 487.3157
828.7790, 567.9663
829.9130, 538.9900
831.0470, 558.3389
832.1810, 604.4111
833.3150, 635.0791
834.4490, 689.2056
835.5830, 752.1672
836.7160, 805.4336
837.8500, 876.8220
838.9830, 917.3396
840.1160, 959.7629
841.2480, 1146.280
842.3810, 1142.081
843.5140, 1272.679
844.6460, 1395.894
845.7780, 1462.827
846.9100, 1667.853
848.0420, 1780.845
849.1740, 1945.801
850.3050, 2075.723
851.4360, 2222.609
852.5680, 2354.830
853.6990, 2562.279
854.8290, 2632.062
855.9600, 2792.811
857.0910, 2983.526
858.2210, 3067.207
859.3510, 3071.855
860.4810, 3120.470
861.6110, 3120.052
862.7410, 3084.600
863.8700, 3024.220
865.0000, 2966.599
866.1290, 2838.050
867.2580, 2711.469
868.3870, 2633.856
869.5150, 2458.211
870.6440, 2257.534
871.7720, 2246.826
872.9000, 2071.088
874.0290, 1940.318
875.1560, 1952.518
876.2840, 1797.687
877.4120, 1758.825
878.5390, 1744.934
879.6660, 1606.013
880.7930, 1688.062
881.9200, 1618.082
883.0470, 1625.073
884.1740, 1738.035
885.3000, 1787.968
886.4260, 1723.873
887.5530, 1890.750
888.6780, 2028.599
889.8040, 2383.420
890.9300, 2432.763
892.0550, 2542.635
893.1810, 2646.372
894.3060, 2810.200
895.4310, 2914.013
896.5560, 2934.692
897.6800, 2839.614
898.8050, 2667.316
899.9290, 2436.065
901.0530, 2248.538
902.1770, 1864.917
903.3010, 1644.065
904.4250, 1466.043
905.5480, 1191.800
906.6720, 1121.389
907.7950, 960.7119
908.9180, 837.2065
910.0410, 728.8320
911.1630, 585.2078
912.2860, 570.9624
913.4080, 408.8484
914.5300, 438.2925
915.6530, 356.8450
916.7740, 287.9414
917.8960, 264.9636
919.0180, 237.7273
920.1390, 187.8518
921.2600, 197.0254
922.3820, 121.0249
923.5020, 144.2175
924.6230, 72.96899
925.7440, 114.7664
926.8640, 90.73364
927.9850, 102.1050
929.1050, 47.71338
930.2250, 103.6836
931.3450, 28.36719
932.4640, 114.9907
933.5840, 3.869873
934.7030, 52.43701
935.8220, 38.25049
936.9410, 4.768799
938.0600, 21.25317
939.1790, 35.68066
940.2970, 61.39160
941.4160, 43.08447
942.5340, 15.98682
943.6520, 13.85669
944.7700, 27.74341
945.8870, 3.324707
947.0050, 6.703125
948.1220, 4.759033
949.2400, 9.141602
950.3570, 11.04541
951.4740, 23.95190
952.5900, 14.13599
953.7070, 9.775635
954.8240, 70.68896
955.9400, 11.62183
957.0560, 38.54517
958.1720, 7.525635
959.2880, 47.38379
960.4030, 116.2942
961.5190, 23.77100
962.6340, 60.14697
963.7490, 14.06006
964.8640, 1.059814
965.9790, 15.20288
967.0940, 55.38623
968.2080, 51.87183
969.3230, 12.89307
970.4370, 48.19580
971.5510, 20.53516
972.6650, 7.078857
973.7790, 0.6513670
974.8920, 0.1862790
976.0060, 99.31250
977.1190, 52.83887
978.2320, 81.38110
979.3450, 55.94287
980.4580, 78.52368
981.5710, 11.11230
982.6830, 117.7139
983.7950, 33.32373
984.9080, 121.9426
986.0200, 76.57080
987.1310, 152.2166
988.2430, 100.8838
989.3550, 162.5669
990.4660, 255.2690
991.5770, 185.0022
992.6880, 160.7461
993.7990, 254.5012
994.9100, 314.2676
996.0200, 347.0520
997.1310, 448.8481
998.2410, 507.6763
999.3510, 562.2295
1000.461, 524.3696
1001.571, 692.2356
1002.681, 735.1140
1003.790, 839.0083
1004.899, 969.9194
1006.009, 1109.845
1007.118, 1120.791
1008.226, 1284.752
1009.335, 1327.727
1010.444, 1409.717
1011.552, 1488.724
1012.660, 1546.750
1013.768, 1682.790
1014.876, 1752.846
1015.984, 1773.918
1017.092, 1680.020
1018.199, 1661.137
1019.306, 1677.272
1020.413, 1446.431
1021.520, 1418.608
1022.627, 1363.810
1023.734, 1275.030
1024.840, 1153.269
1025.947, 1065.525
1027.053, 1019.823
1028.159, 958.1555
1029.265, 945.5164
1030.370, 870.9058
1031.476, 859.2432
1032.581, 845.4517
1033.687, 830.3574
1034.792, 828.9275
1035.897, 831.5488
1037.002, 803.2207
1038.106, 732.9504
1039.211, 744.7312
1040.315, 875.5632
1041.419, 811.4473
1042.523, 831.3843
1043.627, 884.3723
1044.731, 871.4172
1045.834, 877.5237
1046.938, 942.6887
1048.041, 991.8845
1049.144, 1036.139
1050.247, 1127.430
1051.349, 1175.759
1052.452, 1276.160
1053.555, 1398.612
1054.657, 1587.105
1055.759, 1647.632
1056.861, 1727.195
1057.963, 1703.801
1059.064, 1886.452
1060.166, 1793.137
1061.267, 1844.862
1062.368, 1917.614
1063.470, 1900.395
1064.570, 1695.215
1065.671, 1749.066
1066.772, 1628.834
1067.872, 1652.753
1068.972, 1611.704
1070.073, 1715.566
1071.173, 1731.985
1072.272, 1697.033
1073.372, 1750.111
1074.472, 1768.224
1075.571, 1936.363
1076.670, 2040.208
1077.769, 2082.645
1078.868, 2260.793
1079.967, 2317.041
1081.065, 2539.312
1082.164, 2612.431
1083.262, 2834.538
1084.360, 3082.327
1085.458, 3162.702
1086.556, 3454.927
1087.654, 3600.982
1088.751, 4009.226
1089.848, 4460.710
1090.946, 4932.208
1092.043, 5351.443
1093.139, 5729.541
1094.236, 6465.421
1095.333, 7088.273
1096.429, 7951.668
1097.525, 8968.304
1098.622, 9831.171
1099.718, 11080.87
1100.813, 12471.49
1101.909, 14001.24
1103.005, 15833.01
1104.100, 17793.80
1105.195, 19587.68
1106.290, 21273.57
1107.385, 22799.42
1108.480, 23732.32
1109.574, 24233.23
1110.669, 24010.48
1111.763, 23004.60
1112.857, 21737.58
1113.951, 19875.41
1115.045, 17886.45
1116.139, 15919.50
1117.232, 13968.59
1118.326, 12330.42
1119.419, 11056.26
1120.512, 9671.639
1121.605, 8698.676
1122.697, 8084.565
1123.790, 7643.777
1124.883, 6776.011
1125.975, 6278.269
1127.067, 6008.991
1128.159, 5750.292
1129.251, 5456.110
1130.342, 5317.454
1131.434, 5085.819
1132.525, 5023.206
1133.617, 4891.613
1134.708, 4684.413
1135.799, 4586.444
1136.889, 4457.934
1137.980, 4327.364
1139.071, 4245.377
1140.161, 4126.905
1141.251, 4004.453
1142.341, 3949.539
1143.431, 4043.556
1144.521, 3942.162
1145.610, 3955.791
1146.700, 4056.442
1147.789, 4004.004
1148.878, 4043.698
1149.967, 4251.533
1151.056, 4288.727
1152.144, 4634.575
1153.233, 4832.151
1154.321, 5050.945
1155.409, 5316.757
1156.498, 5614.587
1157.585, 5673.157
1158.673, 5924.692
1159.761, 6142.575
1160.848, 6020.475
1161.936, 5914.394
1163.023, 5776.440
1164.110, 5461.391
1165.197, 5037.362
1166.283, 4683.083
1167.370, 4345.458
1168.456, 4058.493
1169.542, 3709.644
1170.629, 3357.710
1171.714, 3003.793
1172.800, 2728.007
1173.886, 2465.142
1174.971, 2277.265
1176.057, 2009.880
1177.142, 1927.030
1178.227, 1687.194
1179.312, 1565.890
1180.397, 1443.081
1181.481, 1273.285
1182.566, 1196.704
1183.650, 1160.020
1184.734, 957.2588
1185.818, 1010.543
1186.902, 903.8042
1187.986, 823.1543
1189.069, 731.8069
1190.153, 673.3455
1191.236, 603.5664
1192.319, 556.8850
1193.402, 579.2163
1194.485, 497.5474
1195.567, 497.9988
1196.650, 421.9424
1197.732, 400.3008
1198.814, 358.8125
1199.896, 349.6787
1200.978, 273.0623
1202.060, 255.6167
1203.142, 220.0186
1204.223, 239.4883
1205.304, 226.9053
1206.386, 228.3289
1207.467, 153.7615
1208.547, 198.0811
1209.628, 134.5310
1210.709, 176.9868
1211.789, 90.44922
1212.869, 88.91895
1213.950, 51.83984
1215.030, 75.24854
1216.109, 30.73901
1217.189, 78.23560
1218.269, 34.74780
1219.348, 34.26636
1220.427, 45.79395
1221.506, 21.32593
1222.585, 86.88428
1223.664, 11.53979
1224.743, 19.02710
1225.821, 62.60620
1226.899, 13.18994
1227.978, 7.222656
1229.056, 5.365234
1230.134, 23.97437
1231.211, 4.611084
1232.289, 22.19897
1233.366, 47.78931
1234.444, 4.593018
1235.521, 1.792236
1236.598, 19.55933
1237.675, 47.81348
1238.751, 38.57422
1239.828, 7.395264
1240.904, 43.60352
1241.981, 30.99780
1243.057, 17.36890
1244.133, 65.31836
1245.209, 16.90747
1246.284, 19.48047
1247.360, 32.94629
1248.435, 50.36621
1249.510, 22.83350
1250.585, 34.19849
1251.660, 81.78662
1252.735, 14.82104
1253.810, 9.282715
1254.884, 61.25098
1255.959, 24.25049
1257.033, 11.19824
1258.107, 75.07861
1259.181, 81.50708
1260.255, 36.05200
1261.328, 94.46851
1262.402, 16.88110
1263.475, 1.724121
1264.548, 5.336426
1265.621, 4.042480
1266.694, 18.58325
1267.767, 50.77539
1268.840, 37.13110
1269.912, 20.48340
1270.984, 1.166992
1272.056, 0.8261720
1273.129, 33.50562
1274.200, 56.59546
1275.272, 48.84668
1276.344, 40.18896
1277.415, 30.10303
1278.486, 9.845703
1279.558, 15.44678
1280.629, 11.81616
1281.699, 20.42310
1282.770, 89.86523
1283.841, 67.18481
1284.911, 68.40942
1285.981, 49.16064
1287.051, 31.97974
1288.121, 23.17212
1289.191, 63.31763
1290.261, 73.04980
1291.330, 21.40039
1292.400, 57.70801
1293.469, 58.57690
1294.538, 30.02881
1295.607, 11.13916
1296.676, 82.92017
1297.745, 22.07471
1298.813, 53.42114
1299.881, 42.58276
1300.950, 22.62012
1302.018, 29.63599
1303.086, 72.64453
1304.154, 5.328125
1305.221, 41.67383
1306.289, 37.93677
1307.356, 13.35254
1308.423, 45.30737
1309.490, 69.42847
1310.557, 46.63086
1311.624, 30.26440
1312.691, 149.2463
1313.757, 35.27808
1314.823, 53.36035
1315.890, 33.39453
1316.956, 0.4528810
