##NAMES=Augelite
##RRUFFID=R050060
##IDEAL CHEMISTRY=Al_2_PO_4_(OH)_3_
##LOCALITY=Machacamarca, Potosi Department, Bolivia
##OWNER=RRUFF
##SOURCE=Rock Currier
##DESCRIPTION=Colorless prismatic crystals
##STATUS=The identification of this mineral has been confirmed by X-ray diffraction and chemical analysis
##URL=rruff.info/R050060
##MEASURED CHEMISTRY=Al_2.00_(P_1.00_O_4_)(OH)_3_; OH estimated by difference
##PIN_ID=L00872
##ORIENTATION=Laser parallel to -b* (0 -1 0). Fiducial mark perpendicular to laser is parallel to -c [0 0 -1]
140.0490, 0.0000000E+00
141.2890, 10.93311
142.5280, 84.22168
143.7670, 54.67139
145.0050, 359.7593
146.2440, 759.0576
147.4820, 1357.945
148.7200, 2052.442
149.9580, 2920.128
151.1960, 3884.671
152.4340, 5003.417
153.6710, 5967.173
154.9080, 7430.032
156.1450, 8846.212
157.3820, 10228.07
158.6190, 11484.74
159.8550, 12800.27
161.0910, 13908.71
162.3270, 14453.09
163.5630, 14447.57
164.7980, 13760.95
166.0340, 12661.20
167.2690, 11475.55
168.5040, 9838.445
169.7390, 8545.917
170.9730, 7014.229
172.2080, 5724.318
173.4420, 4687.523
174.6760, 3891.390
175.9100, 3094.630
177.1440, 2605.598
178.3770, 2011.267
179.6100, 1729.403
180.8430, 1278.102
182.0760, 1051.839
183.3090, 806.5244
184.5410, 666.0410
185.7740, 444.5125
187.0060, 335.1104
188.2380, 203.9863
189.4690, 127.2739
190.7010, 29.91724
191.9320, 42.49707
193.1630, 4.601074
194.3940, 86.51978
195.6250, 112.7859
196.8550, 139.1260
198.0860, 12.47681
199.3160, 63.46704
200.5460, 32.76514
201.7750, 101.4417
203.0050, 192.3491
204.2340, 361.7805
205.4630, 607.9043
206.6920, 803.9753
207.9210, 1176.458
209.1500, 1585.041
210.3780, 2088.273
211.6060, 2536.199
212.8340, 3239.453
214.0620, 3944.482
215.2900, 4806.825
216.5170, 5669.373
217.7440, 6518.287
218.9710, 7249.644
220.1980, 8148.157
221.4250, 8886.177
222.6510, 9349.294
223.8770, 9775.600
225.1040, 9744.165
226.3290, 9194.813
227.5550, 8079.007
228.7810, 6988.663
230.0060, 5584.450
231.2310, 4392.351
232.4560, 3503.349
233.6810, 2781.433
234.9050, 2426.590
236.1290, 2058.808
237.3540, 1846.063
238.5770, 1686.312
239.8010, 1636.446
241.0250, 1720.428
242.2480, 1806.102
243.4710, 1948.595
244.6940, 2100.011
245.9170, 2252.394
247.1400, 2467.760
248.3620, 2759.112
249.5840, 2962.433
250.8060, 3102.709
252.0280, 3044.930
253.2500, 2707.095
254.4710, 2208.208
255.6920, 1667.268
256.9140, 1275.277
258.1340, 959.2368
259.3550, 712.1511
260.5760, 487.3950
261.7960, 245.8523
263.0160, 185.6436
264.2360, 75.39868
265.4560, 21.88013
266.6750, 102.1909
267.8940, 134.5315
269.1140, 95.89990
270.3330, 182.2937
271.5510, 196.7107
272.7700, 168.1499
273.9880, 232.6287
275.2070, 217.1968
276.4250, 178.9358
277.6420, 189.9941
278.8600, 220.3928
280.0770, 288.1765
281.2950, 286.3521
282.5120, 305.8752
283.7290, 240.7664
284.9450, 205.0698
286.1620, 169.7168
287.3780, 104.4131
288.5940, 122.2297
289.8100, 69.15649
291.0260, 2.909912
292.2410, 180.3694
293.4570, 227.6038
294.6720, 321.7168
295.8870, 405.6497
297.1010, 430.3723
298.3160, 311.8687
299.5300, 271.1204
300.7450, 162.0745
301.9590, 172.6636
303.1730, 135.8931
304.3860, 69.78491
305.6000, 116.3535
306.8130, 178.6145
308.0260, 247.5835
309.2390, 334.3738
310.4510, 450.6631
311.6640, 529.6863
312.8760, 620.1714
314.0880, 717.0273
315.3000, 888.0671
316.5120, 971.7126
317.7240, 1189.052
318.9350, 1430.173
320.1460, 1606.119
321.3570, 1898.893
322.5680, 2049.479
323.7790, 2287.864
324.9890, 2434.047
326.1990, 2618.042
327.4090, 2770.857
328.6190, 2799.502
329.8290, 2834.987
331.0380, 2781.319
332.2480, 2780.938
333.4570, 2612.913
334.6660, 2497.892
335.8740, 2391.939
337.0830, 2166.584
338.2910, 2026.739
339.5000, 1846.086
340.7080, 1735.521
341.9150, 1555.139
343.1230, 1515.956
344.3300, 1419.594
345.5380, 1398.417
346.7450, 1341.260
347.9520, 1357.465
349.1580, 1281.276
350.3650, 1267.600
351.5710, 1316.337
352.7770, 1288.155
353.9830, 1261.945
355.1890, 1251.345
356.3940, 1406.301
357.6000, 1549.867
358.8050, 1752.395
360.0100, 2070.821
361.2150, 2344.516
362.4190, 2741.153
363.6240, 3204.780
364.8280, 3648.408
366.0320, 4162.029
367.2360, 4457.628
368.4400, 4526.193
369.6430, 4353.736
370.8460, 3906.271
372.0500, 3260.812
373.2530, 2675.370
374.4550, 2060.947
375.6580, 1522.543
376.8600, 1168.157
378.0620, 913.7905
379.2650, 710.4417
380.4660, 554.1116
381.6680, 437.4036
382.8690, 420.5054
384.0710, 331.2302
385.2720, 279.9741
386.4730, 306.7383
387.6730, 239.5242
388.8740, 308.3325
390.0740, 329.1643
391.2740, 446.0198
392.4740, 452.8992
393.6740, 467.8030
394.8740, 662.7312
396.0730, 720.6841
397.2730, 1010.663
398.4720, 1175.667
399.6700, 1457.698
400.8690, 1810.756
402.0680, 2222.841
403.2660, 2699.853
404.4640, 3364.903
405.6620, 3803.069
406.8600, 4296.065
408.0570, 4871.303
409.2550, 5287.885
410.4520, 5482.546
411.6490, 5639.478
412.8460, 5830.686
414.0430, 6026.638
415.2390, 5968.491
416.4350, 6286.767
417.6310, 6345.154
418.8270, 6532.824
420.0230, 6460.787
421.2190, 6409.481
422.4140, 6092.824
423.6090, 5812.591
424.8040, 5422.442
425.9990, 4842.762
427.1940, 4412.228
428.3880, 3928.156
429.5820, 3544.688
430.7760, 3210.825
431.9700, 2938.197
433.1640, 2732.597
434.3580, 2622.439
435.5510, 2540.526
436.7440, 2451.191
437.9370, 2371.255
439.1300, 2515.957
440.3230, 2508.006
441.5150, 2576.156
442.7070, 2455.808
443.8990, 2581.263
445.0910, 2590.813
446.2830, 2645.461
447.4750, 2684.814
448.6660, 2729.533
449.8570, 2812.682
451.0480, 2820.447
452.2390, 2817.811
453.4290, 2823.593
454.6200, 2815.131
455.8100, 2782.781
457.0000, 2786.537
458.1900, 2690.986
459.3800, 2649.337
460.5690, 2575.910
461.7590, 2536.429
462.9480, 2456.945
464.1370, 2392.481
465.3260, 2329.037
466.5140, 2183.615
467.7030, 2092.215
468.8910, 2087.838
470.0790, 1844.485
471.2670, 1833.157
472.4550, 1621.855
473.6420, 1570.580
474.8300, 1370.333
476.0170, 1328.117
477.2040, 1244.938
478.3900, 1116.796
479.5770, 1088.720
480.7640, 968.7246
481.9500, 1007.795
483.1360, 1025.946
484.3220, 908.1948
485.5080, 789.5557
486.6930, 901.0425
487.8780, 814.6296
489.0640, 838.2776
490.2490, 896.9961
491.4330, 868.7798
492.6180, 903.6377
493.8030, 939.5708
494.9870, 1045.578
496.1710, 1084.653
497.3550, 1149.802
498.5390, 1230.028
499.7220, 1406.335
500.9060, 1468.717
502.0890, 1716.172
503.2720, 1944.700
504.4550, 2142.306
505.6370, 2289.975
506.8200, 2734.709
508.0020, 3187.507
509.1840, 3409.371
510.3660, 3839.292
511.5480, 4360.273
512.7290, 4857.318
513.9110, 5526.416
515.0920, 6149.577
516.2730, 6731.801
517.4540, 7379.088
518.6350, 8071.427
519.8150, 8645.826
520.9960, 9280.279
522.1760, 9677.788
523.3560, 9986.351
524.5350, 10323.97
525.7150, 10292.64
526.8950, 10199.36
528.0740, 9812.135
529.2530, 9614.965
530.4320, 9133.850
531.6100, 8598.784
532.7890, 7887.775
533.9670, 7254.814
535.1460, 6771.910
536.3240, 6109.055
537.5010, 5612.253
538.6790, 5186.504
539.8570, 4688.806
541.0340, 4337.160
542.2110, 3929.564
543.3880, 3751.021
544.5650, 3399.527
545.7410, 3188.652
546.9180, 3047.650
548.0940, 2762.441
549.2700, 2660.930
550.4460, 2558.005
551.6210, 2398.951
552.7970, 2292.150
553.9720, 2214.514
555.1480, 2167.250
556.3230, 2043.490
557.4970, 1988.834
558.6720, 1846.501
559.8460, 1843.549
561.0210, 1769.519
562.1950, 1710.481
563.3690, 1621.240
564.5420, 1560.964
565.7160, 1361.428
566.8890, 1308.966
568.0630, 1198.650
569.2360, 1156.785
570.4090, 1031.900
571.5810, 915.6372
572.7540, 837.9104
573.9260, 727.7649
575.0980, 661.3259
576.2700, 558.3638
577.4420, 490.2795
578.6140, 439.4819
579.7850, 380.8523
580.9560, 331.6582
582.1270, 300.3315
583.2980, 256.2197
584.4690, 158.8105
585.6400, 191.9221
586.8100, 143.0117
587.9800, 118.0872
589.1500, 214.3083
590.3200, 144.4810
591.4900, 217.7017
592.6590, 244.9673
593.8290, 269.2756
594.9980, 339.6245
596.1670, 327.0115
597.3360, 425.4348
598.5040, 434.8928
599.6730, 538.3840
600.8410, 629.0146
602.0090, 693.4622
603.1770, 856.0491
604.3450, 975.6670
605.5130, 1122.316
606.6800, 1327.998
607.8470, 1400.708
609.0140, 1569.450
610.1810, 1904.222
611.3480, 2100.023
612.5140, 2215.854
613.6810, 2686.714
614.8470, 2853.603
616.0130, 3344.975
617.1790, 3596.085
618.3440, 3967.151
619.5100, 4700.314
620.6750, 5388.188
621.8400, 6314.415
623.0050, 7318.924
624.1700, 8778.883
625.3350, 10435.12
626.4990, 12343.07
627.6640, 14871.61
628.8280, 18132.45
629.9920, 20920.35
631.1550, 24546.74
632.3190, 27910.76
633.4820, 31220.52
634.6460, 33723.62
635.8090, 34855.34
636.9710, 34626.28
638.1340, 32663.64
639.2970, 29281.31
640.4590, 25162.46
641.6210, 21318.38
642.7830, 17629.65
643.9450, 14317.10
645.1070, 11977.65
646.2680, 9620.478
647.4300, 8125.991
648.5910, 6924.935
649.7520, 5669.428
650.9130, 4936.458
652.0730, 4284.789
653.2340, 3743.499
654.3940, 3316.552
655.5540, 2758.173
656.7140, 2459.906
657.8740, 2165.501
659.0330, 1886.924
660.1930, 1694.678
661.3520, 1455.707
662.5110, 1297.672
663.6700, 1103.375
664.8290, 1000.879
665.9870, 920.4646
667.1460, 749.9702
668.3040, 738.5161
669.4620, 599.2427
670.6200, 624.7566
671.7770, 457.2600
672.9350, 350.7615
674.0920, 382.2610
675.2500, 294.7573
676.4070, 236.2510
677.5630, 244.7412
678.7200, 123.2273
679.8770, 182.7087
681.0330, 123.1853
682.1890, 103.6567
683.3450, 89.12524
684.5010, 30.41211
685.6560, 56.96313
686.8120, 73.53613
687.9670, 63.12866
689.1220, 72.86475
690.2770, 66.39624
691.4320, 88.06860
692.5870, 66.78223
693.7410, 124.5276
694.8950, 144.3359
696.0490, 144.9099
697.2030, 122.1750
698.3570, 159.2007
699.5110, 137.3083
700.6640, 148.4961
701.8170, 172.7710
702.9700, 104.1479
704.1230, 95.59302
705.2760, 108.1018
706.4290, 153.6843
707.5810, 124.4268
708.7330, 37.13525
709.8850, 93.94653
711.0370, 66.82983
712.1890, 50.77441
713.3400, 69.77319
714.4920, 17.83789
715.6430, 47.94336
716.7940, 3.893799
717.9450, 2.697754
719.0960, 3.532959
720.2460, 1.197510
721.3960, 8.083984
722.5470, 36.54883
723.6970, 32.17822
724.8460, 51.77856
725.9960, 69.34985
727.1460, 48.89282
728.2950, 161.4055
729.4440, 250.8892
730.5930, 214.3430
731.7420, 325.7668
732.8910, 406.1609
734.0390, 448.5244
735.1870, 649.8572
736.3360, 743.1587
737.4840, 880.4290
738.6310, 1006.667
739.7790, 984.8740
740.9260, 1026.049
742.0740, 1087.191
743.2210, 1048.300
744.3680, 992.3762
745.5150, 863.4194
746.6610, 676.4292
747.8080, 610.4050
748.9540, 456.3472
750.1000, 351.2549
751.2460, 302.1284
752.3920, 150.9668
753.5380, 70.77026
754.6830, 99.53369
755.8280, 119.2598
756.9730, 20.05078
758.1180, 19.55591
759.2630, 15.09961
760.4080, 4.422607
761.5520, 23.97778
762.6960, 3.315186
763.8410, 22.42285
764.9840, 46.24976
766.1280, 56.82129
767.2720, 34.83862
768.4150, 26.79321
769.5590, 16.31934
770.7020, 26.52173
771.8450, 30.81934
772.9870, 7.215576
774.1300, 25.69873
775.2720, 31.27856
776.4150, 34.95923
777.5570, 9.743164
778.6990, 11.38257
779.8400, 6.428223
780.9820, 4.391113
782.1230, 63.26978
783.2650, 58.08911
784.4060, 66.84668
785.5470, 57.54517
786.6870, 99.18140
787.8280, 117.7673
788.9680, 76.30762
790.1090, 137.7905
791.2490, 86.23096
792.3890, 71.61646
793.5280, 97.99658
794.6680, 162.2705
795.8070, 110.5063
796.9470, 141.6902
798.0860, 171.8311
799.2250, 160.9309
800.3630, 188.9895
801.5020, 201.5791
802.6410, 170.9863
803.7790, 217.9241
804.9170, 180.8213
806.0550, 149.6780
807.1930, 188.4922
808.3300, 292.2659
809.4680, 194.9995
810.6050, 282.7007
811.7420, 291.3542
812.8790, 322.9678
814.0160, 356.2175
815.1520, 366.2441
816.2890, 394.5691
817.4250, 406.0229
818.5610, 427.4375
819.6970, 466.9919
820.8330, 537.7661
821.9680, 509.4951
823.1040, 568.3657
824.2390, 577.5422
825.3740, 609.9712
826.5090, 643.1650
827.6440, 685.6597
828.7790, 718.5488
829.9130, 771.7480
831.0470, 807.0259
832.1810, 892.6055
833.3150, 974.4639
834.4490, 1078.560
835.5830, 1023.555
836.7160, 1158.332
837.8500, 1225.228
838.9830, 1385.422
840.1160, 1491.759
841.2480, 1633.685
842.3810, 1745.427
843.5140, 1827.143
844.6460, 1961.533
845.7780, 2152.049
846.9100, 2287.363
848.0420, 2490.262
849.1740, 2687.256
850.3050, 2908.304
851.4360, 3070.270
852.5680, 3303.394
853.6990, 3528.254
854.8290, 3642.963
855.9600, 3832.253
857.0910, 3988.689
858.2210, 3911.370
859.3510, 4031.473
860.4810, 4060.519
861.6110, 3971.607
862.7410, 3906.730
863.8700, 3777.727
865.0000, 3650.348
866.1290, 3491.847
867.2580, 3351.869
868.3870, 3173.867
869.5150, 3029.838
870.6440, 2885.788
871.7720, 2616.711
872.9000, 2572.611
874.0290, 2327.487
875.1560, 2257.338
876.2840, 2110.168
877.4120, 2020.974
878.5390, 2005.757
879.6660, 1920.517
880.7930, 1807.254
881.9200, 1902.970
883.0470, 1781.664
884.1740, 1820.335
885.3000, 1955.986
886.4260, 1968.615
887.5530, 2091.223
888.6780, 2281.810
889.8040, 2266.922
890.9300, 2466.303
892.0550, 2572.736
893.1810, 2694.081
894.3060, 2786.722
895.4310, 2753.018
896.5560, 2743.035
897.6800, 2541.614
898.8050, 2337.922
899.9290, 2138.521
901.0530, 1888.532
902.1770, 1690.248
903.3010, 1476.919
904.4250, 1331.104
905.5480, 1128.650
906.6720, 1037.475
907.7950, 936.9531
908.9180, 843.8379
910.0410, 676.4902
911.1630, 689.7236
912.2860, 512.6597
913.4080, 490.1157
914.5300, 481.8079
915.6530, 345.1521
916.7740, 293.3210
917.8960, 254.3857
919.0180, 266.1858
920.1390, 207.2996
921.2600, 238.9858
922.3820, 172.1257
923.5020, 222.7319
924.6230, 137.0398
925.7440, 92.96948
926.8640, 76.55908
927.9850, 2.417236
929.1050, 18.41284
930.2250, 2.872070
931.3450, 39.77344
932.4640, 25.66846
933.5840, 24.74829
934.7030, 51.77954
935.8220, 22.92578
936.9410, 25.07446
938.0600, 36.14209
939.1790, 77.28979
940.2970, 51.39722
941.4160, 34.32397
942.5340, 14.46509
943.6520, 9.616455
944.7700, 1.768799
945.8870, 17.92261
947.0050, 14.07910
948.1220, 44.24829
949.2400, 66.75757
950.3570, 39.59399
951.4740, 93.77393
952.5900, 40.96313
953.7070, 30.83179
954.8240, 1.371094
955.9400, 9.577637
957.0560, 18.79248
958.1720, 72.96460
959.2880, 52.27490
960.4030, 20.45752
961.5190, 58.16943
962.6340, 3.122070
963.7490, 15.55273
964.8640, 8.790771
965.9790, 28.82910
967.0940, 41.58643
968.2080, 33.05054
969.3230, 59.43604
970.4370, 29.11792
971.5510, 54.72070
972.6650, 16.36719
973.7790, 33.06738
974.8920, 18.19873
976.0060, 39.56519
977.1190, 84.36597
978.2320, 57.22705
979.3450, 66.13037
980.4580, 22.94604
981.5710, 59.01025
982.6830, 61.99561
983.7950, 48.00684
984.9080, 110.0496
986.0200, 158.1118
987.1310, 74.20093
988.2430, 71.30664
989.3550, 173.4312
990.4660, 215.5784
991.5770, 221.7432
992.6880, 177.9272
993.7990, 307.1243
994.9100, 260.3357
996.0200, 381.5603
997.1310, 455.7988
998.2410, 542.0518
999.3510, 606.9197
1000.461, 673.6597
1001.571, 713.9124
1002.681, 807.2336
1003.790, 868.5691
1004.899, 962.9189
1006.009, 1079.283
1007.118, 1133.663
1008.226, 1198.057
1009.335, 1422.466
1010.444, 1452.891
1011.552, 1566.332
1012.660, 1635.788
1013.768, 1659.261
1014.876, 1678.749
1015.984, 1720.253
1017.092, 1618.776
1018.199, 1656.315
1019.306, 1591.871
1020.413, 1467.444
1021.520, 1461.033
1022.627, 1349.708
1023.734, 1240.267
1024.840, 1180.913
1025.947, 1157.577
1027.053, 1085.291
1028.159, 1043.035
1029.265, 1015.813
1030.370, 1088.630
1031.476, 978.4783
1032.581, 1044.364
1033.687, 1036.296
1034.792, 961.2788
1035.897, 1046.292
1037.002, 1037.338
1038.106, 968.4167
1039.211, 1102.545
1040.315, 1033.726
1041.419, 1181.958
1042.523, 1173.233
1043.627, 1038.558
1044.731, 1145.934
1045.834, 1327.361
1046.938, 1372.834
1048.041, 1636.348
1049.144, 1672.803
1050.247, 1657.506
1051.349, 1814.138
1052.452, 1992.801
1053.555, 2072.495
1054.657, 2339.221
1055.759, 2569.974
1056.861, 2612.752
1057.963, 2705.559
1059.064, 2792.392
1060.166, 2810.256
1061.267, 2849.097
1062.368, 2651.021
1063.470, 2529.968
1064.570, 2355.947
1065.671, 2183.949
1066.772, 2113.973
1067.872, 2185.018
1068.972, 1985.083
1070.073, 1973.170
1071.173, 2001.279
1072.272, 1894.408
1073.372, 1964.560
1074.472, 2053.062
1075.571, 2119.259
1076.670, 2126.486
1077.769, 2282.727
1078.868, 2367.150
1079.967, 2571.775
1081.065, 2659.087
1082.164, 2768.420
1083.262, 3054.308
1084.360, 3366.980
1085.458, 3451.159
1086.556, 3680.977
1087.654, 4091.418
1088.751, 4464.888
1089.848, 4820.087
1090.946, 5211.520
1092.043, 5884.015
1093.139, 6491.891
1094.236, 7190.020
1095.333, 7904.397
1096.429, 8877.415
1097.525, 9927.843
1098.622, 11170.47
1099.718, 12573.14
1100.813, 14502.17
1101.909, 15953.49
1103.005, 17848.11
1104.100, 20085.86
1105.195, 21909.11
1106.290, 23434.90
1107.385, 24392.53
1108.480, 25261.34
1109.574, 25119.70
1110.669, 24592.57
1111.763, 23221.45
1112.857, 21582.02
1113.951, 19762.93
1115.045, 17498.86
1116.139, 15687.81
1117.232, 13927.80
1118.326, 12213.78
1119.419, 10860.00
1120.512, 9750.580
1121.605, 8776.545
1122.697, 7921.594
1123.790, 7249.277
1124.883, 6889.360
1125.975, 6315.584
1127.067, 5919.696
1128.159, 5664.973
1129.251, 5339.114
1130.342, 5120.079
1131.434, 4782.249
1132.525, 4535.618
1133.617, 4388.817
1134.708, 4128.031
1135.799, 3867.259
1136.889, 3904.500
1137.980, 3602.756
1139.071, 3467.033
1140.161, 3323.325
1141.251, 3071.634
1142.341, 2962.081
1143.431, 2898.417
1144.521, 2809.767
1145.610, 2502.131
1146.700, 2308.507
1147.789, 2312.187
1148.878, 2297.590
1149.967, 2068.005
1151.056, 1932.434
1152.144, 1841.876
1153.233, 1695.334
1154.321, 1547.806
1155.409, 1546.290
1156.498, 1466.520
1157.585, 1523.229
1158.673, 1425.750
1159.761, 1463.284
1160.848, 1431.832
1161.936, 1405.394
1163.023, 1313.982
1164.110, 1256.739
1165.197, 1111.338
1166.283, 1079.703
1167.370, 990.3240
1168.456, 1000.956
1169.542, 924.5273
1170.629, 883.1077
1171.714, 811.8616
1172.800, 737.6467
1173.886, 699.3269
1174.971, 629.0154
1176.057, 582.7119
1177.142, 562.4170
1178.227, 451.1294
1179.312, 416.8525
1180.397, 398.1233
1181.481, 427.8611
1182.566, 369.6060
1183.650, 320.3857
1184.734, 405.1433
1185.818, 307.2349
1186.902, 327.2122
1187.986, 276.9875
1189.069, 174.5137
1190.153, 178.9841
1191.236, 189.7756
1192.319, 169.9333
1193.402, 168.1580
1194.485, 79.41846
1195.567, 126.2314
1196.650, 123.0474
1197.732, 70.86743
1198.814, 116.6914
1199.896, 124.5195
1200.978, 62.35107
1202.060, 16.18628
1203.142, 48.02490
1204.223, 9.133057
1205.304, 72.10254
1206.386, 46.91113
1207.467, 45.75830
1208.547, 3.392090
1209.628, 47.54199
1210.709, 20.28979
1211.789, 95.47998
1212.869, 11.68408
1213.950, 26.85181
1215.030, 53.61914
1216.109, 47.04980
1217.189, 16.20630
1218.269, 5.010986
1219.348, 67.18335
1220.427, 17.59082
1221.506, 53.62451
1222.585, 29.86523
1223.664, 17.88086
1224.743, 49.36548
1225.821, 9.636475
1226.899, 12.91235
1227.978, 6.196045
1229.056, 34.36914
1230.134, 56.67407
1231.211, 33.98145
1232.289, 31.32837
1233.366, 38.30640
1234.444, 5.059570
1235.521, 49.56836
1236.598, 4.195068
1237.675, 32.82031
1238.751, 39.30420
1239.828, 37.29590
1240.904, 19.18994
1241.981, 39.91748
1243.057, 47.55225
1244.133, 33.40698
1245.209, 15.73730
1246.284, 9.326416
1247.360, 21.55762
1248.435, 4.140625
1249.510, 1.658203
1250.585, 8.089600
1251.660, 53.46704
1252.735, 1.969482
1253.810, 80.57422
1254.884, 9.235840
1255.959, 24.77124
1257.033, 9.302490
1258.107, 43.82837
1259.181, 3.647217
1260.255, 45.86548
1261.328, 25.62573
1262.402, 46.85889
1263.475, 24.37964
1264.548, 28.85547
1265.621, 22.32739
1266.694, 49.79443
1267.767, 47.18823
1268.840, 45.67017
1269.912, 25.80054
1270.984, 16.24878
1272.056, 50.69043
1273.129, 109.4138
1274.200, 81.84521
1275.272, 40.27124
1276.344, 12.72900
1277.415, 101.1406
1278.486, 60.57275
1279.558, 51.04956
1280.629, 110.4436
1281.699, 67.83887
1282.770, 59.30713
1283.841, 84.68335
1284.911, 18.05298
1285.981, 9.549072
1287.051, 42.06934
1288.121, 133.6436
1289.191, 85.59839
1290.261, 51.57764
1291.330, 34.38135
1292.400, 24.87793
1293.469, 51.47900
1294.538, 8.983154
1295.607, 71.49536
1296.676, 107.9666
1297.745, 6.430664
1298.813, 6.791260
1299.881, 33.03052
1300.950, 32.51343
1302.018, 52.58203
1303.086, 98.98486
1304.154, 76.18921
1305.221, 92.44214
1306.289, 77.62915
1307.356, 72.53613
1308.423, 19.70459
1309.490, 74.03247
1310.557, 93.17920
1311.624, 45.31470
1312.691, 95.44873
1313.757, 29.56396
1314.823, 35.66968
