##NAMES=Augite
##RRUFFID=R061108
##IDEAL CHEMISTRY=(Ca,Mg,Fe^2+^,Fe^3+^)_2_(Si,Al)_2_O_6_
##LOCALITY=Monti Rossi, near Mt. Etna, Sicily, Italy
##OWNER=RRUFF
##SOURCE=Michael Scott
##DESCRIPTION=Euhedral, short prismatic, black crystals in vesicular basalt.
##STATUS=The identification of this mineral is confirmed by single-crystal X-ray diffraction and chemical analysis.
##URL=rruff.info/R061108
##MEASURED CHEMISTRY=(Ca_0.86_Mg_0.74_Fe^2+^_0.18_Fe^3+^_0.08_Al_0.05_Ti_0.04_Na_0.04_Mn_0.01_)_Σ=2_(Si_1.83_Al_0.17_)_Σ=2_O_6_
##PIN_ID=L00942
##ORIENTATION=Laser parallel to -a* (-1 0 0). Fiducial mark perpendicular to laser is parallel to b [0 1 0]
159.8810, 0.0000000E+00
161.1070, 8.849609
162.3340, 174.0566
163.5600, 197.1973
164.7860, 411.5469
166.0120, 269.1875
167.2380, 535.8906
168.4640, 573.3359
169.6890, 868.9512
170.9150, 1122.348
172.1400, 1065.877
173.3650, 1031.463
174.5900, 1298.926
175.8150, 1386.297
177.0400, 1509.488
178.2640, 1916.057
179.4880, 2026.082
180.7130, 2099.979
181.9370, 2092.400
183.1600, 2042.668
184.3840, 2203.766
185.6080, 2119.865
186.8310, 2257.559
188.0540, 2526.018
189.2770, 2504.613
190.5000, 2516.555
191.7230, 2623.322
192.9460, 2519.098
194.1680, 2602.301
195.3910, 2587.303
196.6130, 2510.523
197.8350, 2150.000
199.0570, 2313.281
200.2780, 2101.518
201.5000, 1869.914
202.7210, 1856.666
203.9420, 1419.480
205.1640, 794.3516
206.3840, 586.6152
207.6050, 353.9551
208.8260, 400.7070
210.0460, 261.1191
211.2670, 110.6543
212.4870, 656.4023
213.7070, 1022.504
214.9270, 911.5566
216.1460, 939.3691
217.3660, 1146.736
218.5850, 1290.105
219.8050, 1319.066
221.0240, 1363.248
222.2430, 1538.270
223.4610, 1402.402
224.6800, 1622.287
225.8980, 1582.205
227.1170, 1685.152
228.3350, 1612.125
229.5530, 1707.125
230.7710, 1780.199
231.9880, 1565.412
233.2060, 1554.826
234.4230, 1516.531
235.6400, 1323.545
236.8570, 1338.869
238.0740, 1047.492
239.2910, 1038.404
240.5080, 776.6035
241.7240, 956.0703
242.9400, 936.7891
244.1570, 1004.750
245.3730, 786.9375
246.5880, 982.3379
247.8040, 652.9316
249.0190, 656.7012
250.2350, 645.6250
251.4500, 584.6934
252.6650, 128.8906
253.8800, 122.2070
255.0950, 436.6328
256.3090, 204.1543
257.5240, 471.7637
258.7380, 403.3281
259.9520, 188.0254
261.1660, 322.9121
262.3800, 212.3652
263.5930, 273.6641
264.8070, 313.9863
266.0200, 247.3281
267.2330, 466.6875
268.4460, 287.0645
269.6590, 440.4590
270.8720, 304.8652
272.0850, 283.2871
273.2970, 284.7168
274.5090, 44.83984
275.7210, 32.61719
276.9330, 68.91602
278.1450, 182.4355
279.3570, 1.091797
280.5680, 281.2812
281.7790, 357.6055
282.9910, 409.8906
284.2020, 362.0117
285.4120, 566.5957
286.6230, 616.5977
287.8340, 908.9785
289.0440, 840.8027
290.2540, 984.2480
291.4640, 1176.564
292.6740, 1485.830
293.8840, 1643.082
295.0940, 1817.361
296.3030, 2043.684
297.5120, 2390.049
298.7210, 2633.922
299.9300, 2755.475
301.1390, 3243.736
302.3480, 3529.145
303.5560, 3968.766
304.7650, 4158.844
305.9730, 4945.811
307.1810, 5600.760
308.3890, 6059.598
309.5970, 6921.744
310.8040, 7261.869
312.0120, 8119.523
313.2190, 8899.102
314.4260, 9764.414
315.6330, 10641.01
316.8400, 11622.54
318.0460, 12262.12
319.2530, 13141.02
320.4590, 13694.49
321.6650, 14312.38
322.8710, 14614.92
324.0770, 14868.38
325.2830, 15063.83
326.4880, 14788.20
327.6940, 14614.51
328.8990, 14272.72
330.1040, 13736.90
331.3090, 13119.94
332.5140, 12716.85
333.7180, 12091.41
334.9230, 11683.08
336.1270, 11101.39
337.3310, 10439.50
338.5350, 10277.41
339.7390, 9800.164
340.9430, 9306.750
342.1460, 8805.189
343.3500, 8427.492
344.5530, 8157.664
345.7560, 8214.719
346.9590, 7622.660
348.1620, 7659.494
349.3640, 7294.230
350.5670, 7202.867
351.7690, 7112.334
352.9710, 6937.633
354.1730, 6685.803
355.3750, 6546.844
356.5760, 6481.223
357.7780, 6278.160
358.9790, 6346.312
360.1800, 6177.715
361.3810, 5932.498
362.5820, 5971.918
363.7830, 5818.170
364.9830, 5789.312
366.1840, 5983.447
367.3840, 5881.586
368.5840, 5818.738
369.7840, 5975.914
370.9840, 5946.105
372.1830, 6080.316
373.3830, 6183.545
374.5820, 6427.787
375.7810, 6622.557
376.9800, 6779.324
378.1790, 7160.615
379.3780, 7531.918
380.5760, 7900.434
381.7750, 8411.559
382.9730, 8675.893
384.1710, 9240.234
385.3690, 9662.582
386.5660, 9985.934
387.7640, 10366.29
388.9610, 10332.64
390.1590, 10416.00
391.3560, 10220.36
392.5530, 9773.539
393.7500, 9266.754
394.9460, 8565.932
396.1430, 7628.867
397.3390, 6920.936
398.5350, 6244.887
399.7310, 5324.227
400.9270, 4550.236
402.1230, 4229.734
403.3180, 4214.932
404.5140, 4228.812
405.7090, 2902.373
406.9040, 2190.035
408.0990, 1910.959
409.2930, 1730.463
410.4880, 1479.260
411.6820, 1160.398
412.8770, 1109.920
414.0710, 1208.926
415.2650, 925.5469
416.4590, 885.6328
417.6520, 746.7344
418.8460, 823.3164
420.0390, 639.4551
421.2320, 737.2461
422.4250, 648.6523
423.6180, 616.0781
424.8110, 670.5781
426.0030, 574.6914
427.1960, 560.0254
428.3880, 560.1680
429.5800, 479.1738
430.7720, 459.3203
431.9640, 427.4180
433.1550, 484.6211
434.3470, 375.7754
435.5380, 121.9375
436.7290, 97.10156
437.9200, 100.2715
439.1110, 41.56055
440.3020, 183.6055
441.4920, 111.7812
442.6820, 33.04102
443.8730, 144.8750
445.0630, 25.71875
446.2530, 43.54102
447.4420, 2.460938
448.6320, 19.00977
449.8210, 101.3203
451.0100, 71.76758
452.2000, 92.29297
453.3880, 160.9590
454.5770, 80.14062
455.7660, 128.3496
456.9540, 251.6016
458.1430, 191.2598
459.3310, 341.4551
460.5190, 555.9844
461.7070, 224.0645
462.8940, 273.1914
464.0820, 668.9258
465.2690, 563.3496
466.4560, 452.2617
467.6430, 651.4629
468.8300, 753.8711
470.0170, 498.9844
471.2040, 550.8770
472.3900, 364.8477
473.5760, 537.5527
474.7620, 1004.518
475.9480, 677.7188
477.1340, 628.0176
478.3200, 1031.785
479.5050, 879.8613
480.6900, 843.5859
481.8750, 1002.617
483.0600, 901.1992
484.2450, 1185.730
485.4300, 1067.209
486.6140, 1158.633
487.7990, 1110.004
488.9830, 1244.322
490.1670, 1289.299
491.3510, 1378.988
492.5350, 1501.955
493.7180, 1695.062
494.9020, 1933.115
496.0850, 2299.115
497.2680, 2504.062
498.4510, 2794.959
499.6340, 3378.807
500.8160, 3665.607
501.9990, 3937.361
503.1810, 4457.074
504.3630, 4781.744
505.5450, 4799.377
506.7270, 4889.975
507.9090, 5255.529
509.0900, 5247.051
510.2720, 5297.531
511.4530, 5283.971
512.6340, 5234.211
513.8150, 5191.734
514.9950, 5144.053
516.1760, 5168.332
517.3560, 5222.566
518.5370, 5348.764
519.7170, 5485.916
520.8970, 5714.027
522.0770, 6068.092
523.2560, 6072.117
524.4360, 6413.098
525.6150, 6500.031
526.7940, 6684.922
527.9730, 6912.764
529.1520, 6925.566
530.3310, 7300.318
531.5090, 7507.025
532.6870, 7639.713
533.8660, 7661.377
535.0440, 7800.863
536.2210, 7562.383
537.3990, 7266.857
538.5770, 7352.283
539.7540, 7493.686
540.9310, 7158.062
542.1080, 7030.395
543.2850, 6863.691
544.4620, 6698.939
545.6390, 6579.145
546.8150, 6746.312
547.9920, 6523.443
549.1680, 6389.621
550.3440, 6417.867
551.5190, 6170.188
552.6950, 6281.566
553.8710, 6247.064
555.0460, 6178.625
556.2210, 6114.293
557.3960, 6123.029
558.5710, 6002.832
559.7460, 5960.697
560.9200, 6125.539
562.0950, 6210.375
563.2690, 6048.184
564.4430, 6152.949
565.6170, 5852.701
566.7910, 5903.402
567.9640, 5854.057
569.1380, 5976.654
570.3110, 5953.203
571.4840, 5788.699
572.6570, 5385.133
573.8300, 5148.514
575.0030, 4745.838
576.1750, 4601.102
577.3470, 4347.867
578.5200, 4037.473
579.6920, 3547.041
580.8630, 3338.506
582.0350, 3010.291
583.2070, 2365.742
584.3780, 2193.195
585.5490, 1906.477
586.7200, 1719.877
587.8910, 1444.762
589.0620, 1429.613
590.2330, 988.9062
591.4030, 659.1191
592.5730, 534.9043
593.7430, 464.5469
594.9130, 130.4980
596.0830, 249.8477
597.2530, 6.410156
598.4220, 99.14453
599.5920, 271.0703
600.7610, 94.74414
601.9300, 140.6543
603.0990, 69.33008
604.2670, 2.896484
605.4360, 44.35156
606.6040, 133.7129
607.7720, 134.2227
608.9400, 139.8965
610.1080, 43.72266
611.2760, 232.4844
612.4440, 72.40234
613.6110, 240.1523
614.7780, 90.77539
615.9450, 253.7344
617.1120, 125.5469
618.2790, 313.2168
619.4460, 623.7773
620.6120, 467.2480
621.7780, 600.6230
622.9450, 737.9082
624.1110, 719.1113
625.2760, 710.2305
626.4420, 851.2637
627.6080, 1106.213
628.7730, 1234.080
629.9380, 1489.863
631.1030, 1707.562
632.2680, 2033.180
633.4330, 2271.713
634.5970, 2477.164
635.7620, 2655.533
636.9260, 3161.820
638.0900, 3466.025
639.2540, 4128.148
640.4180, 4416.188
641.5810, 5071.148
642.7450, 5508.029
643.9080, 6405.828
645.0710, 7365.547
646.2340, 8140.188
647.3970, 9390.748
648.5590, 10725.23
649.7220, 11880.62
650.8840, 13818.95
652.0460, 15556.19
653.2080, 17976.35
654.3700, 20489.44
655.5320, 23365.45
656.6930, 26680.37
657.8550, 30242.23
659.0160, 33608.00
660.1770, 37226.70
661.3380, 40388.32
662.4990, 42413.86
663.6590, 43889.34
664.8200, 43668.73
665.9800, 42453.04
667.1400, 40232.30
668.3000, 37107.47
669.4600, 33145.57
670.6190, 29870.58
671.7790, 26002.54
672.9380, 22867.42
674.0970, 20139.22
675.2560, 17197.95
676.4150, 15091.61
677.5740, 13446.20
678.7320, 11662.72
679.8900, 10320.17
681.0490, 8804.547
682.2070, 7739.855
683.3640, 6805.094
684.5220, 6213.266
685.6800, 5733.367
686.8370, 5057.402
687.9940, 4363.367
689.1510, 4119.266
690.3080, 3662.098
691.4650, 3302.289
692.6220, 3127.557
693.7780, 2707.186
694.9340, 2574.742
696.0900, 2316.234
697.2460, 2417.660
698.4020, 2219.016
699.5580, 1659.305
700.7130, 1979.523
701.8680, 1956.676
703.0240, 2126.762
704.1790, 1450.785
705.3330, 1725.738
706.4880, 1196.627
707.6430, 1216.451
708.7970, 1136.211
709.9510, 1083.906
711.1050, 1033.518
712.2590, 894.1074
713.4130, 891.6152
714.5660, 728.0605
715.7200, 643.4453
716.8730, 707.7734
718.0260, 318.0430
719.1790, 429.2559
720.3320, 79.41992
721.4840, 206.5098
722.6370, 171.5430
723.7890, 21.52930
724.9410, 40.55859
726.0930, 327.7617
727.2450, 83.23242
728.3960, 256.8438
729.5480, 503.6797
730.6990, 375.8730
731.8500, 265.3535
733.0010, 350.1543
734.1520, 526.6680
735.3030, 484.4648
736.4530, 341.5371
737.6040, 335.2090
738.7540, 180.6094
739.9040, 317.4902
741.0540, 261.0977
742.2030, 384.9180
743.3530, 247.5332
744.5020, 242.9883
745.6520, 177.0801
746.8010, 311.5898
747.9490, 212.9512
749.0980, 143.1641
750.2470, 131.7598
751.3950, 8.544922
752.5440, 9.144531
753.6920, 129.9141
754.8400, 30.34180
755.9870, 71.22461
757.1350, 136.2559
758.2820, 139.9062
759.4300, 255.8379
760.5770, 167.3984
761.7240, 323.3398
762.8710, 351.2676
764.0170, 419.1895
765.1640, 363.1035
766.3100, 409.6680
767.4560, 446.4004
768.6020, 426.8047
769.7480, 533.7012
770.8940, 538.5918
772.0400, 572.4824
773.1850, 409.3770
774.3300, 461.2715
775.4750, 440.1680
776.6200, 690.0723
777.7650, 673.9805
778.9090, 719.8945
780.0540, 767.8184
781.1980, 733.7520
782.3420, 694.6953
783.4860, 682.6504
784.6300, 705.6191
785.7740, 806.6016
786.9170, 774.5996
788.0600, 937.6172
789.2030, 783.6484
790.3460, 851.7012
791.4890, 910.7715
792.6320, 963.8652
793.7740, 1025.980
794.9170, 1253.117
796.0590, 1056.279
797.2010, 1257.467
798.3430, 1427.680
799.4850, 1388.920
800.6260, 1479.189
801.7670, 1438.486
802.9090, 1450.814
804.0500, 1753.176
805.1910, 1609.570
806.3310, 1670.996
807.4720, 2116.459
808.6120, 1903.957
809.7530, 1911.494
810.8930, 1584.066
812.0330, 2135.680
813.1720, 2230.330
814.3120, 2299.023
815.4510, 2259.756
816.5910, 2321.533
817.7300, 2379.354
818.8690, 2475.223
820.0080, 2343.135
821.1460, 2416.092
822.2850, 2427.102
823.4230, 2167.160
824.5610, 2582.266
825.6990, 2249.422
826.8370, 2454.633
827.9750, 2420.895
829.1120, 2282.049
830.2500, 2288.584
831.3870, 2134.012
832.5240, 2124.496
833.6610, 2132.039
834.7980, 1920.639
835.9340, 2096.299
837.0700, 1990.021
838.2070, 1809.805
839.3430, 2046.652
840.4790, 1880.562
841.6140, 1989.537
842.7500, 1936.576
843.8850, 2074.686
845.0210, 2064.859
846.1560, 2360.102
847.2910, 2453.414
848.4260, 2427.797
849.5600, 2803.250
850.6950, 2870.777
851.8290, 3126.375
852.9630, 3459.047
854.0970, 3563.797
855.2310, 3931.617
856.3650, 4027.518
857.4980, 4345.520
858.6310, 4152.576
859.7650, 4180.711
860.8980, 3841.678
862.0310, 4048.035
863.1630, 4145.643
864.2960, 3730.879
865.4280, 3743.508
866.5600, 3518.941
867.6920, 3654.705
868.8240, 3278.729
869.9560, 3158.758
871.0880, 2697.062
872.2190, 2491.379
873.3500, 2385.172
874.4810, 2419.113
875.6120, 2305.898
876.7430, 2245.875
877.8740, 2155.293
879.0040, 1919.713
880.1340, 1814.414
881.2650, 1811.029
882.3950, 1691.947
883.5240, 1662.787
884.6540, 1520.971
885.7830, 1481.254
886.9130, 1327.457
888.0420, 1420.842
889.1710, 1562.459
890.3000, 1551.801
891.4280, 1443.330
892.5570, 1458.850
893.6850, 2142.885
894.8130, 1285.971
895.9420, 1908.211
897.0690, 1800.623
898.1970, 1475.164
899.3250, 1376.852
900.4520, 1100.725
901.5790, 1253.803
902.7060, 1297.025
903.8330, 1248.432
904.9600, 1363.008
906.0870, 1344.775
907.2130, 1507.721
908.3390, 1496.916
909.4650, 1699.301
910.5910, 1426.820
911.7170, 1535.494
912.8430, 1623.361
913.9680, 1731.416
915.0930, 1840.854
916.2180, 1998.109
917.3430, 2040.736
918.4680, 2091.543
919.5930, 2131.525
920.7170, 2327.660
921.8420, 2401.957
922.9660, 2428.434
924.0900, 2314.074
925.2140, 2576.877
926.3370, 2335.863
927.4610, 2351.002
928.5840, 2404.287
929.7070, 2289.707
930.8310, 2154.270
931.9530, 2278.973
933.0760, 2467.859
934.1990, 2300.895
935.3210, 2380.074
936.4430, 2214.420
937.5650, 2207.908
938.6870, 2090.555
939.8090, 1964.350
940.9310, 2033.307
942.0520, 2006.408
943.1730, 2021.656
944.2940, 2019.057
945.4150, 1910.598
946.5360, 1967.281
947.6570, 1923.104
948.7770, 2219.104
949.8970, 2102.258
951.0180, 2201.553
952.1370, 2237.002
953.2570, 2172.590
954.3770, 2132.340
955.4960, 2182.125
956.6160, 2250.270
957.7350, 2271.445
958.8540, 2280.756
959.9730, 2343.209
961.0910, 2427.803
962.2100, 2477.697
963.3280, 2573.436
964.4460, 2580.471
965.5640, 2639.656
966.6820, 2591.980
967.8000, 2870.438
968.9180, 2826.037
970.0350, 2990.785
971.1520, 3158.674
972.2690, 3056.703
973.3860, 3030.867
974.5030, 3070.172
975.6190, 3206.615
976.7360, 3465.209
977.8520, 3566.945
978.9680, 3467.820
980.0840, 3749.832
981.2000, 3670.980
982.3160, 4050.266
983.4310, 4182.689
984.5460, 4429.246
985.6610, 4512.939
986.7760, 4733.768
987.8910, 4796.734
989.0060, 5175.977
990.1200, 5510.990
991.2350, 5964.449
992.3490, 6501.971
993.4630, 6941.637
994.5760, 7701.430
995.6900, 8265.379
996.8040, 8926.486
997.9170, 9968.836
999.0300, 10484.36
1000.143, 11217.10
1001.256, 12454.12
1002.369, 13222.40
1003.481, 13990.89
1004.594, 14972.62
1005.706, 15415.64
1006.818, 15861.83
1007.930, 16053.34
1009.042, 15898.08
1010.153, 14939.00
1011.264, 14211.14
1012.376, 13188.47
1013.487, 11870.02
1014.598, 10810.18
1015.708, 9927.145
1016.819, 9000.191
1017.929, 7982.102
1019.040, 7175.506
1020.150, 6874.895
1021.260, 6392.938
1022.370, 6260.350
1023.479, 6036.162
1024.589, 5644.531
1025.698, 5443.875
1026.807, 5412.619
1027.916, 5250.406
1029.025, 5372.809
1030.133, 5452.434
1031.242, 5399.078
1032.350, 5318.217
1033.458, 5442.514
1034.566, 5401.500
1035.674, 5382.547
1036.782, 5516.230
1037.890, 5380.086
1038.997, 5516.576
1040.104, 5496.125
1041.211, 5522.301
1042.318, 5404.705
1043.425, 5071.303
1044.531, 4891.197
1045.638, 4845.158
1046.744, 4917.580
1047.850, 4482.289
1048.956, 4275.229
1050.061, 4234.506
1051.167, 3971.832
1052.272, 4078.953
1053.378, 3484.398
1054.483, 3629.037
1055.588, 3452.033
1056.692, 3486.637
1057.797, 3407.445
1058.901, 3171.150
1060.006, 3014.605
1061.110, 2949.250
1062.214, 2859.105
1063.318, 3077.744
1064.421, 2804.547
1065.525, 2837.271
1066.628, 2673.145
1067.731, 2588.600
1068.834, 2576.234
1069.937, 2442.627
1071.040, 2467.662
1072.142, 2375.881
1073.244, 2325.588
1074.347, 2404.666
1075.449, 2279.762
1076.550, 2294.730
1077.652, 2172.627
1078.754, 2289.189
1079.855, 2179.385
1080.956, 1947.396
1082.057, 2187.080
1083.158, 2090.576
1084.259, 1971.176
1085.359, 1949.912
1086.460, 2023.049
1087.560, 2038.848
1088.660, 1853.836
1089.760, 1979.496
1090.860, 1714.180
1091.959, 1734.885
1093.059, 1662.922
1094.158, 1468.289
1095.257, 1686.922
1096.356, 1262.461
1097.455, 1557.244
1098.553, 1551.059
1099.652, 1578.891
1100.750, 1751.945
1101.848, 1614.234
1102.946, 1453.436
1104.044, 1406.408
1105.141, 1413.291
1106.239, 1351.186
1107.336, 1366.389
1108.433, 1319.312
1109.530, 1330.029
1110.627, 1327.025
1111.724, 1314.908
1112.820, 1297.914
1113.917, 1206.527
1115.013, 1105.934
1116.109, 1108.223
1117.205, 1081.354
1118.300, 1200.916
1119.396, 1087.375
1120.491, 1128.506
1121.586, 1076.572
1122.681, 1048.781
1123.776, 982.2715
1124.871, 894.2402
1125.965, 779.0898
1127.060, 644.2676
1128.154, 492.0898
1129.248, 432.5137
1130.342, 369.7246
1131.436, 344.6543
1132.529, 266.7285
1133.623, 302.8262
1134.716, 136.5996
1135.809, 181.7988
1136.902, 79.45703
1137.995, 50.67773
1139.087, 41.29492
1140.180, 69.93750
1141.272, 55.33789
1142.364, 81.71094
1143.456, 78.49414
1144.548, 55.91797
1145.639, 206.1973
1146.731, 4.099609
1147.822, 189.2715
1148.913, 230.2031
1150.004, 230.2305
1151.095, 254.4062
1152.186, 209.7578
1153.276, 256.2383
1154.366, 271.8398
1155.457, 93.66992
1156.546, 48.13672
1157.636, 139.6211
1158.726, 341.1133
1159.815, 71.66992
1160.905, 134.9082
1161.994, 99.89648
1163.083, 50.71875
1164.172, 175.4336
1165.261, 244.3086
1166.349, 32.38281
1167.437, 148.3906
1168.526, 113.6172
1169.614, 166.0742
1170.702, 129.7031
1171.789, 373.3359
1172.877, 164.6699
1173.964, 89.15820
1175.051, 3.035156
1176.138, 158.4375
1177.225, 129.0234
1178.312, 144.7734
1179.399, 159.7051
1180.485, 80.82617
1181.571, 93.09570
1182.657, 53.52539
1183.743, 26.90234
1184.829, 10.59961
1185.915, 70.55273
1187.000, 3.503906
1188.085, 4.443359
1189.171, 53.74023
1190.255, 36.92188
1191.340, 217.4766
1192.425, 170.2969
1193.509, 130.6719
1194.594, 251.6836
1195.678, 31.06836
1196.762, 80.02539
1197.846, 194.0156
1198.929, 25.92773
1200.013, 196.7090
1201.096, 72.41016
1202.179, 126.9961
1203.262, 66.48438
1204.345, 186.8555
1205.428, 149.1367
1206.510, 160.3223
1207.593, 222.4141
1208.675, 272.4160
1209.757, 218.3418
1210.839, 28.17578
1211.920, 129.8594
1213.002, 408.4355
1214.083, 141.9297
1215.164, 316.3105
1216.245, 107.6133
1217.326, 230.7891
1218.407, 300.8691
1219.488, 492.8652
1220.568, 418.7852
1221.648, 457.5996
1222.728, 329.3438
1223.808, 191.9961
1224.888, 227.5430
1225.967, 236.9863
1227.047, 230.3281
1228.126, 436.5664
1229.205, 552.7168
1230.284, 392.7832
1231.363, 187.7578
1232.441, 374.6172
1233.520, 436.3848
1234.598, 315.0664
1235.676, 497.6504
1236.754, 402.1445
1237.832, 186.5488
1238.910, 338.8320
1239.987, 368.0156
1241.064, 316.1055
1242.141, 477.0938
1243.218, 372.9922
1244.295, 401.7969
1245.372, 422.5059
1246.448, 464.1250
1247.525, 393.6484
1248.601, 325.0801
1249.677, 472.4043
1250.753, 490.6406
1251.828, 246.7832
1252.904, 396.8066
1253.979, 266.7305
1255.054, 618.5469
1256.129, 470.2715
1257.204, 558.7324
1258.279, 566.5703
1259.353, 552.8887
1260.428, 527.2578
1261.502, 375.5352
1262.576, 483.7129
1263.650, 400.7930
1264.724, 462.7793
1265.797, 613.6680
1266.871, 527.4668
1267.944, 384.2637
1269.017, 568.8691
1270.090, 466.3906
1271.162, 407.8145
1272.235, 519.1406
1273.307, 601.3730
1274.380, 485.5117
1275.452, 588.1309
1276.524, 502.0312
1277.595, 419.9160
1278.667, 644.0312
1279.738, 606.7266
1280.810, 316.4902
1281.881, 641.6289
1282.952, 293.4473
1284.022, 599.8672
1285.093, 421.7539
1286.164, 409.6895
1287.234, 390.2441
1288.304, 352.9062
1289.374, 454.6797
1290.444, 407.3945
1291.513, 496.0977
1292.583, 518.3262
1293.652, 503.4023
1294.721, 491.2949
1295.790, 433.1602
1296.859, 439.8848
1297.928, 508.4531
1298.996, 536.3926
1300.064, 400.2832
1301.133, 267.5566
1302.201, 384.6035
1303.268, 375.4668
1304.336, 523.0352
1305.404, 509.5469
1306.471, 515.8594
1307.538, 400.6309
1308.605, 484.1777
1309.672, 457.6895
1310.739, 545.6621
1311.805, 468.2031
1312.872, 461.9785
1313.938, 413.0449
1315.004, 382.1797
1316.070, 408.2090
1317.135, 384.8887
1318.201, 373.6602
1319.266, 477.6797
1320.332, 301.5039
1321.397, 622.1113
1322.462, 437.9277
1323.526, 388.5723
1324.591, 395.2871
1325.655, 542.9902
