##NAMES=Augite
##RRUFFID=R061108
##IDEAL CHEMISTRY=(Ca,Mg,Fe^2+^,Fe^3+^)_2_(Si,Al)_2_O_6_
##LOCALITY=Monti Rossi, near Mt. Etna, Sicily, Italy
##OWNER=RRUFF
##SOURCE=Michael Scott
##DESCRIPTION=Euhedral, short prismatic, black crystals in vesicular basalt.
##STATUS=The identification of this mineral is confirmed by single-crystal X-ray diffraction and chemical analysis.
##URL=rruff.info/R061108
##MEASURED CHEMISTRY=(Ca_0.86_Mg_0.74_Fe^2+^_0.18_Fe^3+^_0.08_Al_0.05_Ti_0.04_Na_0.04_Mn_0.01_)_Σ=2_(Si_1.83_Al_0.17_)_Σ=2_O_6_
##PIN_ID=L01364
##ORIENTATION=Laser parallel to b* (0 1 0). Fiducial mark perpendicular to laser is parallel to c [0 0 1]
159.8810, 0.0000000E+00
161.1070, 3.726563
162.3340, 254.5410
163.5600, 406.1445
164.7860, 417.9004
166.0120, 473.4727
167.2380, 427.1523
168.4640, 563.7051
169.6890, 830.6914
170.9150, 1068.061
172.1400, 952.0273
173.3650, 1027.613
174.5900, 917.1250
175.8150, 1081.730
177.0400, 1282.604
178.2640, 1524.414
179.4880, 1448.984
180.7130, 1365.225
181.9370, 1323.430
183.1600, 1266.592
184.3840, 1548.029
185.6080, 1589.277
186.8310, 1657.689
188.0540, 1578.027
189.2770, 1664.396
190.5000, 1735.516
191.7230, 1648.088
192.9460, 1550.088
194.1680, 1662.498
195.3910, 1562.303
196.6130, 1356.283
197.8350, 1393.645
199.0570, 1343.369
200.2780, 1358.432
201.5000, 1502.826
202.7210, 1274.535
203.9420, 894.5566
205.1640, 583.8789
206.3840, 26.49414
207.6050, 124.6016
208.8260, 244.4238
210.0460, 114.9883
211.2670, 12.30469
212.4870, 186.6191
213.7070, 38.09570
214.9270, 77.46094
216.1460, 64.94336
217.3660, 44.12305
218.5850, 4.080078
219.8050, 60.81836
221.0240, 4.658203
222.2430, 6.343750
223.4610, 56.23438
224.6800, 135.3242
225.8980, 208.6133
227.1170, 387.0918
228.3350, 343.5371
229.5530, 56.60742
230.7710, 237.6367
231.9880, 176.8438
233.2060, 14.79688
234.4230, 10.64258
235.6400, 61.81836
236.8570, 39.83594
238.0740, 9.615234
239.2910, 106.5254
240.5080, 125.0488
241.7240, 116.7754
242.9400, 142.1191
244.1570, 146.7344
245.3730, 116.2676
246.5880, 178.0762
247.8040, 188.9844
249.0190, 230.0508
250.2350, 149.2598
251.4500, 162.6074
252.6650, 41.09375
253.8800, 341.7188
255.0950, 259.4805
256.3090, 83.37500
257.5240, 667.2031
258.7380, 455.5371
259.9520, 400.7832
261.1660, 473.9062
262.3800, 151.0195
263.5930, 24.23047
264.8070, 124.5742
266.0200, 83.04688
267.2330, 47.35547
268.4460, 13.36914
269.6590, 127.2129
270.8720, 10.16602
272.0850, 52.22852
273.2970, 130.4062
274.5090, 189.6953
275.7210, 327.0977
276.9330, 403.6055
278.1450, 432.2168
279.3570, 366.9336
280.5680, 569.7480
281.7790, 725.6621
282.9910, 646.6699
284.2020, 826.7715
285.4120, 980.9629
286.6230, 1197.242
287.8340, 1169.602
289.0440, 1402.047
290.2540, 1509.570
291.4640, 1736.176
292.6740, 2094.855
293.8840, 2223.609
295.0940, 2502.436
296.3030, 2809.330
297.5120, 2947.293
298.7210, 3377.320
299.9300, 3709.410
301.1390, 3922.561
302.3480, 4382.768
303.5560, 4898.277
304.7650, 5224.605
305.9730, 5930.889
307.1810, 6326.590
308.3890, 7201.113
309.5970, 7604.912
310.8040, 8097.975
312.0120, 8673.270
313.2190, 9396.797
314.4260, 9942.539
315.6330, 10464.51
316.8400, 11214.71
318.0460, 11637.12
319.2530, 12364.69
320.4590, 12852.43
321.6650, 12974.32
322.8710, 13349.42
324.0770, 13420.70
325.2830, 13467.19
326.4880, 13271.83
327.6940, 13048.63
328.8990, 13035.60
330.1040, 12555.14
331.3090, 12373.63
332.5140, 12172.30
333.7180, 11773.08
334.9230, 11337.94
336.1270, 11291.89
337.3310, 10773.99
338.5350, 10518.20
339.7390, 10213.50
340.9430, 10065.91
342.1460, 9781.395
343.3500, 9734.690
344.5530, 9957.544
345.7560, 9646.227
346.9590, 9666.975
348.1620, 9575.792
349.3640, 9485.670
350.5670, 9406.643
351.7690, 9218.495
352.9710, 9125.787
354.1730, 8951.914
355.3750, 8710.514
356.5760, 8640.738
357.7780, 8324.026
358.9790, 7994.360
360.1800, 7968.746
361.3810, 7727.318
362.5820, 7269.021
363.7830, 7060.316
364.9830, 6847.642
366.1840, 6742.251
367.3840, 6684.911
368.5840, 6566.611
369.7840, 6687.352
370.9840, 6580.128
372.1830, 6680.941
373.3830, 6807.792
374.5820, 6797.675
375.7810, 7078.592
376.9800, 7274.541
378.1790, 7574.317
379.3780, 7928.155
380.5760, 8319.289
381.7750, 8747.153
382.9730, 9203.247
384.1710, 9731.364
385.3690, 10107.51
386.5660, 10166.67
387.7640, 10572.86
388.9610, 10477.07
390.1590, 10192.30
391.3560, 10151.54
392.5530, 9192.806
393.7500, 8762.086
394.9460, 7938.382
396.1430, 7328.691
397.3390, 6413.014
398.5350, 5729.347
399.7310, 5068.691
400.9270, 4336.043
402.1230, 3491.405
403.3180, 3291.778
404.5140, 2605.157
405.7090, 2299.543
406.9040, 1897.934
408.0990, 1463.328
409.2930, 1321.237
410.4880, 1288.130
411.6820, 1023.044
412.8770, 1113.447
414.0710, 1004.850
415.2650, 817.2490
416.4590, 1028.647
417.6520, 782.0410
418.8460, 857.4287
420.0390, 733.8105
421.2320, 655.1846
422.4250, 791.5498
423.6180, 512.9062
424.8110, 619.2510
426.0030, 535.5850
427.1960, 413.9082
428.3880, 503.2158
429.5800, 410.5098
430.7720, 541.7871
431.9640, 556.0498
433.1550, 170.2949
434.3470, 304.5225
435.5380, 176.7285
436.7290, 190.9150
437.9200, 118.0811
439.1110, 268.2246
440.3020, 179.3447
441.4920, 171.4404
442.6820, 190.5117
443.8730, 36.55957
445.0630, 4.578125
446.2530, 202.6133
447.4420, 187.1982
448.6320, 80.71289
449.8210, 297.3467
451.0100, 391.2266
452.2000, 368.5693
453.3880, 444.6768
454.5770, 408.5537
455.7660, 499.4258
456.9540, 627.6670
458.1430, 612.3027
459.3310, 729.0703
460.5190, 831.3076
461.7070, 923.0400
462.8940, 887.1025
464.0820, 968.2988
465.2690, 975.4111
466.4560, 1063.291
467.6430, 1150.045
468.8300, 1278.724
470.0170, 1249.698
471.2040, 1386.752
472.3900, 1317.424
473.5760, 1439.546
474.7620, 1253.856
475.9480, 1363.779
477.1340, 1344.182
478.3200, 1509.145
479.5050, 1578.048
480.6900, 1475.474
481.8750, 1494.030
483.0600, 1719.819
484.2450, 1791.831
485.4300, 1777.819
486.6140, 1780.078
487.7990, 1959.248
488.9830, 1868.328
490.1670, 2094.320
491.3510, 2107.220
492.5350, 2367.027
493.7180, 2622.742
494.9020, 2816.365
496.0850, 3055.929
497.2680, 3291.459
498.4510, 3523.924
499.6340, 3620.295
500.8160, 3941.100
501.9990, 4447.746
503.1810, 4487.822
504.3630, 4643.811
505.5450, 4875.707
506.7270, 4771.503
507.9090, 4644.207
509.0900, 4645.807
510.2720, 4476.303
511.4530, 4519.693
512.6340, 4510.979
513.8150, 4410.577
514.9950, 4600.227
516.1760, 4454.188
517.3560, 4482.043
518.5370, 4891.785
519.7170, 4573.420
520.8970, 5076.943
522.0770, 5169.354
523.2560, 5346.662
524.4360, 5576.854
525.6150, 5718.934
526.7940, 5813.899
527.9730, 5905.750
529.1520, 6150.484
530.3310, 6274.104
531.5090, 6406.605
532.6870, 6137.992
533.8660, 6322.258
535.0440, 6147.407
536.2210, 6226.436
537.3990, 5962.345
538.5770, 5855.135
539.7540, 5570.805
540.9310, 5581.354
542.1080, 5557.779
543.2850, 5353.082
544.4620, 5191.264
545.6390, 5094.322
546.8150, 5147.257
547.9920, 5028.886
549.1680, 4948.751
550.3440, 4876.313
551.5190, 4715.749
552.6950, 4491.307
553.8710, 4653.243
555.0460, 4540.302
556.2210, 4565.234
557.3960, 4407.039
558.5710, 4455.717
559.7460, 4453.265
560.9200, 4245.685
562.0950, 4332.976
563.2690, 4382.139
564.4430, 4111.170
565.6170, 4109.072
566.7910, 3907.845
567.9640, 3965.486
569.1380, 3764.996
570.3110, 3823.375
571.4840, 3677.623
572.6570, 3405.741
573.8300, 3211.727
575.0030, 2816.578
576.1750, 2841.301
577.3470, 2346.888
578.5200, 2229.344
579.6920, 2044.666
580.8630, 1788.856
582.0350, 1567.913
583.2070, 1526.838
584.3780, 1132.627
585.5490, 1050.258
586.7200, 919.5605
587.8910, 523.0635
589.0620, 635.1777
590.2330, 345.9971
591.4030, 362.5283
592.5730, 73.89062
593.7430, 79.32617
594.9130, 96.05664
596.0830, 194.6035
597.2530, 201.8955
598.4220, 262.1680
599.5920, 253.6660
600.7610, 349.0146
601.9300, 204.1494
603.0990, 202.9512
604.2670, 168.2861
605.4360, 257.1211
606.6040, 163.2090
607.7720, 267.2852
608.9400, 14.93848
610.1080, 6.910156
611.2760, 59.25879
612.4440, 76.99023
613.6110, 122.9102
614.7780, 114.5234
615.9450, 59.82422
617.1120, 241.7920
618.2790, 220.5000
619.4460, 241.9434
620.6120, 412.1309
621.7780, 483.1104
622.9450, 565.8984
624.1110, 600.5117
625.2760, 787.9541
626.4420, 1046.247
627.6080, 1220.397
628.7730, 1309.406
629.9380, 1403.273
631.1030, 1674.002
632.2680, 1973.590
633.4330, 2149.039
634.5970, 2505.350
635.7620, 2908.523
636.9260, 3240.258
638.0900, 3449.457
639.2540, 4116.221
640.4180, 4601.851
641.5810, 5182.344
642.7450, 5977.703
643.9080, 6621.930
645.0710, 7505.026
646.2340, 8642.991
647.3970, 10005.82
648.5590, 11430.53
649.7220, 13206.19
650.8840, 15063.54
652.0460, 17321.87
653.2080, 19445.05
654.3700, 22085.12
655.5320, 25231.06
656.6930, 28502.88
657.8550, 31619.58
659.0160, 34604.14
660.1770, 37804.59
661.3380, 39914.93
662.4990, 41431.16
663.6590, 42120.24
664.8200, 41620.22
665.9800, 40151.08
667.1400, 37647.82
668.3000, 34686.46
669.4600, 31170.98
670.6190, 27500.38
671.7790, 24085.68
672.9380, 21162.87
674.0970, 18249.95
675.2560, 15626.91
676.4150, 13578.78
677.5740, 11737.53
678.7320, 10050.19
679.8900, 9063.735
681.0490, 7662.182
682.2070, 6751.527
683.3640, 6093.773
684.5220, 5340.919
685.6800, 4649.970
686.8370, 4261.922
687.9940, 3836.779
689.1510, 3381.542
690.3080, 3179.211
691.4650, 2993.788
692.6220, 2817.274
693.7780, 2501.673
694.9340, 2483.982
696.0900, 2218.205
697.2460, 2030.340
698.4020, 2237.393
699.5580, 2097.361
700.7130, 1966.249
701.8680, 2165.055
703.0240, 2031.782
704.1790, 2123.432
705.3330, 2282.002
706.4880, 1952.498
707.6430, 1798.920
708.7970, 1549.269
709.9510, 1465.546
711.1050, 1576.753
712.2590, 1578.891
713.4130, 1483.002
714.5660, 1138.967
715.7200, 1331.904
716.8730, 1002.780
718.0260, 1001.593
719.1790, 968.3457
720.3320, 597.0381
721.4840, 271.6729
722.6370, 257.3213
723.7890, 352.7744
724.9410, 140.2432
726.0930, 32.38281
727.2450, 75.65918
728.3960, 295.9668
729.5480, 493.5381
730.6990, 465.5391
731.8500, 378.1807
733.0010, 366.7441
734.1520, 424.2266
735.3030, 486.8672
736.4530, 354.0488
737.6040, 397.7617
738.7540, 321.7520
739.9040, 393.3350
741.0540, 313.5508
742.2030, 275.2129
743.3530, 307.1123
744.5020, 66.03906
745.6520, 18.93848
746.8010, 162.5010
747.9490, 21.13086
749.0980, 31.70605
750.2470, 184.5566
751.3950, 132.6934
752.5440, 377.3311
753.6920, 336.7285
754.8400, 554.4688
755.9870, 918.6787
757.1350, 624.2861
758.2820, 1027.906
759.4300, 1193.961
760.5770, 1186.842
761.7240, 1372.450
762.8710, 1558.795
764.0170, 1525.125
765.1640, 1460.145
766.3100, 1552.217
767.4560, 1459.340
768.6020, 1868.520
769.7480, 1719.756
770.8940, 1836.050
772.0400, 1562.405
773.1850, 1645.823
774.3300, 1623.305
775.4750, 1586.854
776.6200, 1428.471
777.7650, 1347.158
778.9090, 1524.918
780.0540, 1046.752
781.1980, 1189.661
782.3420, 1060.649
783.4860, 863.7168
784.6300, 897.8633
785.7740, 735.0957
786.9170, 840.4121
788.0600, 651.8145
789.2030, 625.3066
790.3460, 615.8867
791.4890, 564.5605
792.6320, 597.3281
793.7740, 486.1895
794.9170, 484.1484
796.0590, 611.2051
797.2010, 361.3652
798.3430, 267.6230
799.4850, 463.9863
800.6260, 472.4551
801.7670, 410.0293
802.9090, 540.7148
804.0500, 458.5078
805.1910, 577.4121
806.3310, 585.4316
807.4720, 732.5645
808.6120, 656.8125
809.7530, 634.1816
810.8930, 754.6660
812.0330, 892.2754
813.1720, 781.0039
814.3120, 929.8574
815.4510, 978.8359
816.5910, 996.9414
817.7300, 967.1777
818.8690, 862.5430
820.0080, 865.0371
821.1460, 979.6660
822.2850, 774.4277
823.4230, 656.3262
824.5610, 799.3633
825.6990, 705.5352
826.8370, 671.8477
827.9750, 539.3047
829.1120, 566.9004
830.2500, 335.6426
831.3870, 558.5312
832.5240, 300.5625
833.6610, 114.7441
834.7980, 244.0762
835.9340, 120.5566
837.0700, 103.1895
838.2070, 151.9766
839.3430, 142.9199
840.4790, 313.0176
841.6140, 301.2207
842.7500, 134.6855
843.8850, 358.2578
845.0210, 483.9922
846.1560, 492.8887
847.2910, 953.9473
848.4260, 840.1719
849.5600, 1322.562
850.6950, 1383.119
851.8290, 1988.846
852.9630, 2164.740
854.0970, 2244.805
855.2310, 2671.043
856.3650, 2988.451
857.4980, 3074.035
858.6310, 2939.793
859.7650, 3042.729
860.8980, 3059.842
862.0310, 2977.133
863.1630, 2882.488
864.2960, 2726.266
865.4280, 2501.377
866.5600, 2391.320
867.6920, 2399.416
868.8240, 2129.590
869.9560, 1957.221
871.0880, 1855.602
872.2190, 1481.637
873.3500, 1679.723
874.4810, 1496.662
875.6120, 1290.346
876.7430, 1243.756
877.8740, 1137.732
879.0040, 1228.148
880.1340, 1274.971
881.2650, 1185.490
882.3950, 1220.863
883.5240, 1031.262
884.6540, 1084.008
885.7830, 965.1191
886.9130, 978.6250
888.0420, 975.5176
889.1710, 1099.793
890.3000, 1066.461
891.4280, 1127.535
892.5570, 895.9844
893.6850, 999.8008
894.8130, 1008.979
895.9420, 1139.492
897.0690, 1046.328
898.1970, 1302.475
899.3250, 1176.898
900.4520, 1187.609
901.5790, 1113.604
902.7060, 1018.910
903.8330, 1076.934
904.9600, 1209.412
906.0870, 1192.592
907.2130, 1179.059
908.3390, 1313.822
909.4650, 1377.883
910.5910, 1533.215
911.7170, 1603.857
912.8430, 1683.510
913.9680, 1705.979
915.0930, 1837.461
916.2180, 1893.770
917.3430, 2003.246
918.4680, 2127.512
919.5930, 2202.027
920.7170, 2380.812
921.8420, 2384.875
922.9660, 2533.207
924.0900, 2709.799
925.2140, 2694.660
926.3370, 2842.760
927.4610, 2725.094
928.5840, 2913.676
929.7070, 2824.492
930.8310, 2831.557
931.9530, 2857.863
933.0760, 2737.426
934.1990, 2850.223
935.3210, 2895.262
936.4430, 2793.551
937.5650, 2812.074
938.6870, 2734.830
939.8090, 2791.812
940.9310, 2674.018
942.0520, 2787.449
943.1730, 2808.105
944.2940, 2958.000
945.4150, 2799.125
946.5360, 2778.469
947.6570, 2685.057
948.7770, 2938.867
949.8970, 2873.902
951.0180, 2924.156
952.1370, 2843.625
953.2570, 2852.320
954.3770, 2967.236
955.4960, 2980.369
956.6160, 2909.711
957.7350, 3221.270
958.8540, 3288.037
959.9730, 3331.018
961.0910, 3297.217
962.2100, 3366.631
963.3280, 3463.262
964.4460, 3415.104
965.5640, 3356.154
966.6820, 3624.418
967.8000, 3714.887
968.9180, 4004.562
970.0350, 4129.443
971.1520, 4292.527
972.2690, 4340.820
973.3860, 4661.312
974.5030, 4894.010
975.6190, 4890.908
976.7360, 5225.006
977.8520, 5462.305
978.9680, 5656.799
980.0840, 6256.492
981.2000, 6518.379
982.3160, 6834.465
983.4310, 7364.742
984.5460, 7820.215
985.6610, 8273.883
986.7760, 8980.742
987.8910, 9792.789
989.0060, 10712.03
990.1200, 11363.46
991.2350, 12497.07
992.3490, 13546.88
993.4630, 15153.87
994.5760, 16159.05
995.6900, 17942.42
996.8040, 19787.96
997.9170, 21216.71
999.0300, 23373.66
1000.143, 25593.87
1001.256, 27534.37
1002.369, 29526.16
1003.481, 31431.21
1004.594, 33060.52
1005.706, 34243.11
1006.818, 34791.95
1007.930, 35105.04
1009.042, 34301.38
1010.153, 33500.95
1011.264, 31193.76
1012.376, 29132.85
1013.487, 26433.06
1014.598, 23656.60
1015.708, 21218.56
1016.819, 18692.63
1017.929, 16445.54
1019.040, 14849.13
1020.150, 13377.24
1021.260, 12309.93
1022.370, 11085.67
1023.479, 10408.84
1024.589, 9558.612
1025.698, 9054.505
1026.807, 9017.317
1027.916, 8415.211
1029.025, 8309.661
1030.133, 7823.922
1031.242, 7819.891
1032.350, 7726.164
1033.458, 7553.432
1034.566, 7616.113
1035.674, 7288.935
1036.782, 7597.453
1037.890, 7360.174
1038.997, 7331.048
1040.104, 7218.846
1041.211, 6849.270
1042.318, 6874.754
1043.425, 6415.598
1044.531, 6360.496
1045.638, 6068.563
1046.744, 5785.580
1047.850, 5573.633
1048.956, 5229.891
1050.061, 4935.379
1051.167, 4624.492
1052.272, 4515.445
1053.378, 4236.378
1054.483, 4048.906
1055.588, 3797.445
1056.692, 3735.652
1057.797, 3542.514
1058.901, 3514.158
1060.006, 3383.937
1061.110, 3220.895
1062.214, 2991.556
1063.318, 2863.724
1064.421, 2770.255
1065.525, 2738.670
1066.628, 2913.006
1067.731, 2869.399
1068.834, 2789.616
1069.937, 2545.440
1071.040, 2588.385
1072.142, 2560.814
1073.244, 2581.841
1074.347, 2555.165
1075.449, 2453.758
1076.550, 2472.978
1077.652, 2553.084
1078.754, 2616.818
1079.855, 2527.015
1080.956, 2564.358
1082.057, 2314.754
1083.158, 2308.585
1084.259, 2357.169
1085.359, 2491.525
1086.460, 2371.810
1087.560, 2455.131
1088.660, 2402.019
1089.760, 2455.928
1090.860, 2296.845
1091.959, 2266.461
1093.059, 2312.471
1094.158, 2338.200
1095.257, 2491.016
1096.356, 2209.438
1097.455, 2313.297
1098.553, 2104.779
1099.652, 2273.262
1100.750, 2126.072
1101.848, 2161.840
1102.946, 2158.945
1104.044, 2164.938
1105.141, 2148.989
1106.239, 2013.709
1107.336, 2131.639
1108.433, 2206.356
1109.530, 2054.869
1110.627, 1905.289
1111.724, 1863.732
1112.820, 2009.195
1113.917, 1930.638
1115.013, 2136.189
1116.109, 1908.595
1117.205, 2031.294
1118.300, 2072.619
1119.396, 2037.839
1120.491, 1927.332
1121.586, 2003.169
1122.681, 1798.230
1123.776, 1810.548
1124.871, 1706.612
1125.965, 1584.973
1127.060, 1082.789
1128.154, 1313.697
1129.248, 1061.224
1130.342, 1152.843
1131.436, 909.6299
1132.529, 689.2119
1133.623, 497.1182
1134.716, 528.4111
1135.809, 495.9590
1136.902, 375.8223
1137.995, 374.5479
1139.087, 294.8076
1140.180, 230.2148
1141.272, 177.1250
1142.364, 12.55273
1143.456, 48.99609
1144.548, 57.24707
1145.639, 141.1963
1146.731, 64.97949
1147.822, 134.5586
1148.913, 299.7520
1150.004, 131.1074
1151.095, 184.7949
1152.186, 285.4219
1153.276, 293.2686
1154.366, 323.4443
1155.457, 324.5713
1156.546, 334.1279
1157.636, 277.0010
1158.726, 286.3418
1159.815, 255.4639
1160.905, 228.8945
1161.994, 200.8379
1163.083, 102.7363
1164.172, 143.2256
1165.261, 142.6738
1166.349, 249.4492
1167.437, 190.0254
1168.526, 170.6045
1169.614, 118.7002
1170.702, 127.0273
1171.789, 162.5332
1172.877, 157.3652
1173.964, 61.46191
1175.051, 199.7734
1176.138, 117.0488
1177.225, 17.22559
1178.312, 121.4971
1179.399, 55.58496
1180.485, 22.03027
1181.571, 133.2256
1182.657, 48.79395
1183.743, 2.257813
1184.829, 50.02832
1185.915, 2.446289
1187.000, 29.70508
1188.085, 6.760742
1189.171, 145.5996
1190.255, 219.2754
1191.340, 98.80371
1192.425, 202.1475
1193.509, 106.3389
1194.594, 156.3438
1195.678, 89.17773
1196.762, 209.8145
1197.846, 151.2910
1198.929, 110.5879
1200.013, 253.6904
1201.096, 256.6357
1202.179, 288.4238
1203.262, 383.0605
1204.345, 309.5547
1205.428, 360.4160
1206.510, 207.0908
1207.593, 295.1064
1208.675, 376.9619
1209.757, 193.6699
1210.839, 356.1943
1211.920, 360.5654
1213.002, 401.7842
1214.083, 537.8496
1215.164, 330.7861
1216.245, 395.5576
1217.326, 473.1729
1218.407, 528.6426
1219.488, 533.9678
1220.568, 540.1504
1221.648, 595.1885
1222.728, 389.0850
1223.808, 479.8184
1224.888, 411.3984
1225.967, 515.8174
1227.047, 585.0859
1228.126, 446.2090
1229.205, 667.1719
1230.284, 605.9922
1231.363, 615.6680
1232.441, 579.1963
1233.520, 596.5762
1234.598, 593.0381
1235.676, 635.9512
1236.754, 613.8867
1237.832, 641.7227
1238.910, 676.3594
1239.987, 697.8516
1241.064, 691.1982
1242.141, 684.3984
1243.218, 687.4521
1244.295, 671.2871
1245.372, 690.5361
1246.448, 654.7275
1247.525, 702.1875
1248.601, 722.5010
1249.677, 678.6670
1250.753, 803.6846
1251.828, 743.5566
1252.904, 696.2822
1253.979, 729.8584
1255.054, 586.2871
1256.129, 773.5566
1257.204, 743.6797
1258.279, 825.6553
1259.353, 794.4873
1260.428, 744.1738
1261.502, 782.7119
1262.576, 720.1055
1263.650, 829.3486
1264.724, 756.4473
1265.797, 907.3984
1266.871, 831.2070
1267.944, 775.8721
1269.017, 841.3906
1270.090, 839.7646
1271.162, 1022.995
1272.235, 723.0635
1273.307, 942.9160
1274.380, 850.7178
1275.452, 891.2471
1276.524, 812.3711
1277.595, 916.3945
1278.667, 880.6240
1279.738, 960.8730
1280.810, 843.1924
1281.881, 819.6416
1282.952, 657.0488
1284.022, 672.0176
1285.093, 745.3799
1286.164, 717.6221
1287.234, 746.9355
1288.304, 609.1602
1289.374, 600.8242
1290.444, 645.6680
1291.513, 561.0322
1292.583, 644.6094
1293.652, 545.4209
1294.721, 603.8037
1295.790, 683.0322
1296.859, 605.5508
1297.928, 686.8525
1298.996, 716.9863
1300.064, 613.1787
1301.133, 675.5283
1302.201, 600.5254
1303.268, 699.3027
1304.336, 491.3262
1305.404, 525.1543
1306.471, 474.0107
1307.538, 484.8047
1308.605, 504.2373
1309.672, 567.6719
1310.739, 547.3213
1311.805, 523.0996
1312.872, 501.8682
1313.938, 540.0107
1315.004, 558.1045
1316.070, 614.6221
1317.135, 499.3203
1318.201, 590.1953
1319.266, 470.9004
1320.332, 560.3838
1321.397, 562.1230
1322.462, 577.3145
1323.526, 550.0996
1324.591, 518.1338
1325.655, 469.0244
