##NAMES=Augite
##RRUFFID=R070231
##IDEAL CHEMISTRY=(Ca,Mg,Fe^2+^,Fe^3+^)_2_(Si,Al)_2_O_6_
##LOCALITY=Old Goose Creek Quarry, Leesburg, Loudoun County, Virginia, USA
##OWNER=RRUFF
##SOURCE=Michael Scott
##DESCRIPTION=Very dark grey-green prismatic crystals frozen in quartz
##STATUS=The identification of this mineral is confirmed by single-crystal X-ray diffraction and chemical analysis.
##URL=rruff.info/R070231
##MEASURED CHEMISTRY=(Mg_0.44_Fe_0.37_Ca_0.17_Ti_0.01_Mn_0.01_)_Σ=1_(Si_0.98_Al_0.02_)_Σ=1_O_3_
##PIN_ID=M00062
##ORIENTATION=Laser parallel to -c* (0 0 -1). Fiducial mark perpendicular to laser is parallel to a [1 0 0]
157.2280, 0.0000000E+00
158.4600, 7.513672
159.6920, 153.7598
160.9250, 406.9902
162.1560, 707.8574
163.3880, 904.5684
164.6200, 609.1562
165.8510, 756.0039
167.0820, 418.9766
168.3130, 21.46484
169.5440, 80.47656
170.7750, 69.83008
172.0050, 18.80469
173.2350, 61.77930
174.4650, 5.404297
175.6950, 12.39844
176.9250, 374.4355
178.1550, 986.1855
179.3840, 587.3457
180.6130, 907.6445
181.8420, 889.8359
183.0710, 1018.713
184.3000, 1176.078
185.5280, 1534.773
186.7570, 1717.650
187.9850, 1544.656
189.2130, 1755.170
190.4400, 1360.525
191.6680, 1036.506
192.8960, 1192.850
194.1230, 1265.340
195.3500, 1052.805
196.5770, 1075.092
197.8030, 1029.074
199.0300, 1168.656
200.2560, 1631.756
201.4830, 1602.297
202.7090, 1360.219
203.9340, 1217.477
205.1600, 800.0156
206.3860, 725.8027
207.6110, 724.8027
208.8360, 938.9805
210.0610, 740.3047
211.2860, 1015.758
212.5100, 1192.316
213.7350, 1096.959
214.9590, 1165.664
216.1830, 1190.418
217.4070, 1231.504
218.6310, 1272.658
219.8540, 1263.082
221.0780, 1383.930
222.3010, 1429.229
223.5240, 1552.986
224.7470, 1682.182
225.9690, 1952.998
227.1920, 1970.730
228.4140, 2250.926
229.6360, 2415.562
230.8580, 2405.637
232.0800, 2734.176
233.3020, 2492.240
234.5230, 2807.854
235.7440, 2564.055
236.9650, 2194.883
238.1860, 2358.367
239.4070, 2157.527
240.6280, 1936.393
241.8480, 2013.979
243.0680, 2214.299
244.2880, 2344.365
245.5080, 2713.191
246.7280, 2870.791
247.9470, 3136.756
249.1660, 3673.332
250.3860, 3718.289
251.6040, 3997.053
252.8230, 4445.617
254.0420, 4434.990
255.2600, 4398.176
256.4790, 4408.180
257.6970, 4903.004
258.9150, 5217.654
260.1320, 4674.129
261.3500, 3303.438
262.5670, 3245.576
263.7840, 2829.543
265.0010, 2433.344
266.2180, 2232.975
267.4350, 1917.439
268.6510, 1572.734
269.8680, 1174.861
271.0840, 1038.822
272.3000, 875.6191
273.5160, 714.2520
274.7310, 412.8281
275.9470, 431.7617
277.1620, 298.7598
278.3770, 581.9922
279.5920, 446.5605
280.8070, 338.6074
282.0210, 613.8613
283.2360, 683.9023
284.4500, 1126.051
285.6640, 1129.387
286.8780, 1394.234
288.0920, 1436.076
289.3050, 1229.258
290.5180, 1354.189
291.7320, 1447.043
292.9450, 1320.807
294.1570, 1322.453
295.3700, 1294.566
296.5830, 1410.387
297.7950, 1579.008
299.0070, 1842.771
300.2190, 2045.834
301.4310, 2479.586
302.6420, 2728.369
303.8540, 2932.656
305.0650, 3148.387
306.2760, 3400.307
307.4870, 3758.660
308.6980, 3858.244
309.9080, 4088.225
311.1190, 4233.551
312.3290, 4348.170
313.5390, 4756.041
314.7490, 4875.623
315.9580, 5264.268
317.1680, 5303.703
318.3770, 5323.277
319.5860, 5500.973
320.7950, 5319.770
322.0040, 5038.652
323.2130, 5060.613
324.4210, 4578.631
325.6290, 4771.697
326.8380, 4542.803
328.0460, 4441.938
329.2530, 4402.094
330.4610, 4401.264
331.6680, 4511.441
332.8760, 4824.619
334.0830, 4233.795
335.2890, 4536.959
336.4960, 4161.105
337.7030, 4566.223
338.9090, 4327.307
340.1150, 4109.352
341.3210, 4068.428
342.5270, 3893.381
343.7330, 4072.281
344.9380, 3701.129
346.1440, 3789.920
347.3490, 3624.648
348.5540, 3759.320
349.7590, 3584.924
350.9630, 3785.467
352.1680, 3437.939
353.3720, 3395.346
354.5760, 2877.682
355.7800, 2742.949
356.9840, 2336.145
358.1870, 2324.270
359.3910, 2071.324
360.5940, 2042.305
361.7970, 1896.211
363.0000, 1826.047
364.2030, 1649.793
365.4050, 1594.436
366.6080, 1581.951
367.8100, 1492.357
369.0120, 1760.570
370.2140, 1463.680
371.4150, 1447.660
372.6170, 1535.512
373.8180, 1224.242
375.0190, 1562.852
376.2200, 1126.342
377.4210, 1324.717
378.6220, 1404.979
379.8220, 1277.127
381.0230, 1433.166
382.2230, 1393.197
383.4230, 1284.924
384.6220, 1366.645
385.8220, 1314.260
387.0220, 1209.777
388.2210, 938.1895
389.4200, 971.5059
390.6190, 749.7227
391.8180, 586.8418
393.0160, 455.8594
394.2150, 96.77734
395.4130, 36.56641
396.6110, 231.7891
397.8090, 372.3555
399.0060, 4.171875
400.2040, 610.1367
401.4010, 467.4160
402.5980, 605.9668
403.7950, 856.8223
404.9920, 727.0547
406.1890, 933.6250
407.3860, 659.5918
408.5820, 609.8555
409.7780, 593.4648
410.9740, 267.3594
412.1700, 479.4648
413.3650, 238.8418
414.5610, 0.4257810
415.7560, 128.8457
416.9510, 448.0078
418.1460, 801.0781
419.3410, 1044.068
420.5360, 1043.965
421.7300, 1026.680
422.9240, 1281.986
424.1180, 1220.887
425.3120, 1349.242
426.5060, 1139.910
427.7000, 1131.898
428.8930, 904.3340
430.0860, 894.3672
431.2790, 473.1543
432.4720, 703.8477
433.6650, 504.5020
434.8580, 164.1074
436.0500, 348.6543
437.2420, 217.1504
438.4340, 333.5957
439.6260, 340.9844
440.8180, 355.3164
442.0090, 399.4199
443.2010, 502.7559
444.3920, 413.8809
445.5830, 273.9512
446.7740, 234.9570
447.9640, 538.9023
449.1550, 566.7891
450.3450, 374.6211
451.5350, 810.3867
452.7250, 836.1016
453.9150, 1143.760
455.1050, 1031.361
456.2940, 1589.906
457.4830, 1906.393
458.6720, 2162.818
459.8610, 2713.186
461.0500, 2972.490
462.2390, 3070.732
463.4270, 3496.914
464.6150, 4015.029
465.8040, 4786.082
466.9910, 4869.072
468.1790, 4732.994
469.3670, 4707.855
470.5540, 4338.652
471.7410, 3961.383
472.9280, 3668.051
474.1150, 2974.652
475.3020, 2537.191
476.4890, 2227.666
477.6750, 1992.074
478.8610, 1518.418
480.0470, 1403.699
481.2330, 1293.916
482.4190, 1177.068
483.6040, 694.1562
484.7900, 949.1777
485.9750, 828.1387
487.1600, 910.0371
488.3450, 1047.875
489.5290, 865.6504
490.7140, 975.3691
491.8980, 869.0293
493.0820, 1022.625
494.2660, 1027.168
495.4500, 1082.648
496.6340, 932.0781
497.8170, 972.4531
499.0010, 988.7793
500.1840, 867.0469
501.3670, 974.2852
502.5500, 1202.492
503.7320, 1251.648
504.9150, 996.7520
506.0970, 1434.855
507.2790, 1312.936
508.4610, 1454.996
509.6430, 1806.006
510.8250, 1572.031
512.0060, 1671.055
513.1870, 1699.133
514.3680, 1812.209
515.5490, 1822.340
516.7300, 1854.527
517.9110, 2145.752
519.0910, 2153.010
520.2710, 2344.260
521.4510, 2624.564
522.6310, 2902.879
523.8110, 2734.260
524.9910, 2974.688
526.1700, 2913.127
527.3490, 3264.559
528.5280, 3516.984
529.7070, 3446.430
530.8860, 3813.928
532.0650, 3754.438
533.2430, 4063.914
534.4210, 4302.660
535.5990, 4570.832
536.7770, 4852.336
537.9550, 5098.746
539.1320, 5381.287
540.3100, 5193.938
541.4870, 5435.611
542.6640, 5786.184
543.8410, 5551.643
545.0170, 5742.340
546.1940, 5593.234
547.3700, 5409.225
548.5470, 5599.213
549.7230, 5620.379
550.8980, 5252.648
552.0740, 5122.939
553.2500, 5458.701
554.4250, 5043.904
555.6000, 5210.725
556.7750, 4744.281
557.9500, 4254.289
559.1250, 4248.828
560.2990, 3877.828
561.4730, 3757.980
562.6480, 3606.125
563.8220, 3460.254
564.9950, 3012.377
566.1690, 3242.494
567.3430, 3241.602
568.5160, 2642.707
569.6890, 2352.814
570.8620, 2652.922
572.0350, 3132.031
573.2070, 3484.635
574.3800, 2690.217
575.5520, 2642.977
576.7240, 2561.676
577.8960, 2794.668
579.0680, 2715.402
580.2400, 3000.332
581.4110, 3033.832
582.5830, 3180.520
583.7540, 3219.957
584.9250, 3360.840
586.0950, 3521.373
587.2660, 3755.988
588.4370, 4234.305
589.6070, 4495.414
590.7770, 4842.816
591.9470, 5413.109
593.1170, 5553.334
594.2860, 5910.564
595.4560, 6372.799
596.6250, 6500.047
597.7940, 6917.297
598.9630, 7713.559
600.1320, 7584.826
601.3000, 8087.104
602.4690, 8779.387
603.6370, 9072.678
604.8050, 9387.979
605.9730, 9484.289
607.1410, 9774.602
608.3090, 10011.93
609.4760, 9727.262
610.6430, 9990.607
611.8100, 10323.96
612.9770, 10137.32
614.1440, 10396.68
615.3110, 10152.06
616.4770, 10047.45
617.6430, 10198.85
618.8090, 9940.250
619.9750, 9870.664
621.1410, 9671.090
622.3070, 9563.520
623.4720, 9315.961
624.6370, 8967.340
625.8020, 8977.844
626.9670, 8920.395
628.1320, 8459.898
629.2970, 8532.676
630.4610, 8491.871
631.6250, 7974.918
632.7890, 7865.684
633.9530, 7572.160
635.1170, 7406.277
636.2810, 7229.727
637.4440, 7231.086
638.6070, 7370.516
639.7700, 7374.152
640.9330, 7227.590
642.0960, 7186.359
643.2590, 7121.852
644.4210, 6906.996
645.5830, 6995.289
646.7450, 6937.930
647.9070, 6863.152
649.0690, 6920.328
650.2310, 6616.359
651.3920, 7140.156
652.5530, 7296.227
653.7140, 7146.398
654.8750, 7812.426
656.0360, 8037.453
657.1970, 8615.949
658.3570, 8617.543
659.5170, 9191.984
660.6770, 9792.203
661.8370, 9893.469
662.9970, 10196.76
664.1570, 10118.50
665.3160, 10178.45
666.4750, 10136.44
667.6340, 10080.59
668.7930, 9385.109
669.9520, 9057.500
671.1110, 8665.875
672.2690, 7980.574
673.4270, 7884.664
674.5850, 7581.062
675.7430, 6790.320
676.9010, 6500.199
678.0590, 6156.492
679.2160, 5786.152
680.3730, 5286.520
681.5300, 4980.551
682.6870, 5090.336
683.8440, 4514.051
685.0010, 4306.387
686.1570, 3903.973
687.3130, 3605.773
688.4690, 3683.105
689.6250, 3288.926
690.7810, 3246.871
691.9370, 3017.684
693.0920, 2730.730
694.2470, 2759.609
695.4020, 2828.098
696.5570, 2634.984
697.7120, 2533.375
698.8670, 2261.715
700.0210, 2160.621
701.1750, 2068.910
702.3290, 1912.180
703.4830, 1984.426
704.6370, 1776.645
705.7910, 1762.840
706.9440, 1928.004
708.0970, 1914.148
709.2510, 1852.254
710.4030, 1686.355
711.5560, 1663.422
712.7090, 1477.465
713.8610, 1387.484
715.0140, 1443.480
716.1660, 1680.473
717.3180, 1475.445
718.4690, 1486.402
719.6210, 1455.352
720.7730, 1264.266
721.9240, 1077.145
723.0750, 1259.285
724.2260, 1351.848
725.3770, 1359.625
726.5270, 1028.824
727.6780, 1135.203
728.8280, 1066.344
729.9780, 990.2695
731.1280, 1158.090
732.2780, 876.4023
733.4280, 1040.297
734.5770, 1026.289
735.7260, 1093.648
736.8760, 984.6875
738.0250, 930.1367
739.1730, 1051.902
740.3220, 1075.996
741.4700, 946.6016
742.6190, 1018.926
743.7670, 730.7305
744.9150, 758.8398
746.0630, 923.3867
747.2100, 802.6758
748.3580, 878.0469
749.5050, 878.6836
750.6520, 539.8359
751.7990, 791.2852
752.9460, 787.3906
754.0930, 521.3203
755.2390, 752.4297
756.3860, 522.4102
757.5320, 456.9375
758.6780, 515.2773
759.8240, 444.4570
760.9690, 577.1719
762.1150, 513.7305
763.2600, 432.7227
764.4060, 428.1406
765.5510, 206.8359
766.6950, 387.4570
767.8400, 293.4453
768.9850, 335.8711
770.1290, 409.2031
771.2730, 245.5859
772.4170, 332.6992
773.5610, 30.87109
774.7050, 54.37109
775.8480, 42.78516
776.9920, 239.1328
778.1350, 61.05859
779.2780, 46.86719
780.4210, 101.1133
781.5640, 80.40625
782.7060, 159.9844
783.8490, 67.53516
784.9910, 74.21094
786.1330, 157.9961
787.2750, 209.8594
788.4170, 123.9141
789.5580, 349.1211
790.7000, 125.6016
791.8410, 328.2344
792.9820, 342.1406
794.1230, 268.0859
795.2640, 236.0000
796.4040, 88.44531
797.5450, 306.2188
798.6850, 146.1758
799.8250, 352.3828
800.9650, 278.2461
802.1050, 152.9805
803.2450, 56.90234
804.3840, 58.32422
805.5230, 166.4258
806.6630, 274.6094
807.8020, 111.1094
808.9400, 273.4531
810.0790, 46.04688
811.2170, 44.10156
812.3560, 200.3906
813.4940, 33.90234
814.6320, 75.60938
815.7700, 5.390625
816.9070, 253.3633
818.0450, 40.04688
819.1820, 214.0820
820.3190, 245.0000
821.4560, 432.8516
822.5930, 411.6328
823.7300, 416.3438
824.8670, 357.9883
826.0030, 291.5586
827.1390, 550.0469
828.2750, 387.4688
829.4110, 604.8203
830.5470, 438.0977
831.6820, 316.3008
832.8180, 469.4258
833.9530, 589.4766
835.0880, 813.4531
836.2230, 457.3633
837.3580, 661.1992
838.4920, 819.9648
839.6270, 750.6562
840.7610, 1159.281
841.8950, 1011.836
843.0290, 1331.316
844.1630, 1307.730
845.2960, 1588.078
846.4300, 1657.348
847.5630, 1814.551
848.6960, 2094.688
849.8290, 2036.750
850.9620, 2106.746
852.0940, 2544.672
853.2270, 2640.527
854.3590, 2701.312
855.4910, 2560.031
856.6230, 2654.676
857.7550, 2705.254
858.8870, 2701.172
860.0180, 2425.199
861.1500, 2666.566
862.2810, 2482.863
863.4120, 2176.098
864.5430, 2556.254
865.6730, 2436.344
866.8040, 2360.367
867.9340, 2213.320
869.0640, 2454.207
870.1940, 2147.023
871.3240, 2354.770
872.4540, 2015.441
873.5830, 2084.051
874.7130, 2007.590
875.8420, 1972.062
876.9710, 1763.461
878.1000, 1805.801
879.2290, 1600.062
880.3570, 1539.262
881.4860, 1489.395
882.6140, 1399.461
883.7420, 1167.461
884.8700, 1188.391
885.9980, 1011.254
887.1250, 988.0469
888.2530, 1003.777
889.3800, 872.4375
890.5070, 844.0352
891.6340, 807.5625
892.7610, 926.0273
893.8880, 849.8477
895.0140, 559.7617
896.1400, 799.0352
897.2670, 780.2383
898.3930, 760.3828
899.5180, 883.4180
900.6440, 812.3438
901.7700, 858.6875
902.8950, 1033.863
904.0200, 906.9844
905.1450, 895.2148
906.2700, 964.6641
907.3950, 1129.359
908.5190, 1179.328
909.6440, 1379.961
910.7680, 1400.609
911.8920, 1171.129
913.0160, 1349.395
914.1400, 1130.805
915.2630, 998.8906
916.3870, 826.3477
917.5100, 760.1914
918.6330, 1270.000
919.7560, 784.9492
920.8790, 681.2734
922.0010, 981.5938
923.1240, 518.0273
924.2460, 855.6602
925.3680, 455.9609
926.4900, 489.1094
927.6120, 681.3555
928.7340, 323.5586
929.8550, 239.2383
930.9760, 297.7852
932.0980, 444.4453
933.2190, 290.2852
934.3390, 309.0234
935.4600, 119.6836
936.5810, 327.8984
937.7010, 277.8477
938.8210, 76.71094
939.9410, 256.6367
941.0610, 9.460938
942.1810, 109.2070
943.3010, 55.00781
944.4200, 13.81250
945.5390, 174.2031
946.6580, 290.2344
947.7770, 314.3672
948.8960, 72.87109
950.0150, 3.5156000E-02
951.1330, 19.22266
952.2510, 8.484375
953.3690, 84.53516
954.4870, 180.5078
955.6050, 268.5898
956.7230, 361.4336
957.8400, 205.1641
958.9580, 337.8906
960.0750, 339.3516
961.1920, 400.5156
962.3090, 670.7422
963.4250, 357.2656
964.5420, 651.6484
965.6580, 644.3438
966.7740, 366.5117
967.8900, 491.3008
969.0060, 562.5742
970.1220, 500.8672
971.2380, 637.5547
972.3530, 670.1406
973.4680, 711.0547
974.5830, 798.2969
975.6980, 826.9141
976.8130, 983.7383
977.9280, 936.9414
979.0420, 1018.125
980.1560, 1110.293
981.2710, 1304.504
982.3850, 1355.703
983.4980, 1469.887
984.6120, 1504.062
985.7260, 1414.223
986.8390, 1569.371
987.9520, 1853.508
989.0650, 1500.633
990.1780, 2246.750
991.2910, 2154.855
992.4030, 2068.945
993.5160, 2370.031
994.6280, 2641.109
995.7400, 3132.180
996.8520, 3012.242
997.9640, 3239.293
999.0750, 3623.336
1000.187, 3453.387
1001.298, 4046.434
1002.409, 4414.469
1003.520, 4923.496
1004.631, 5284.520
1005.741, 6328.531
1006.852, 6576.535
1007.962, 7497.535
1009.072, 8341.531
1010.182, 8820.523
1011.292, 9034.508
1012.402, 8714.480
1013.511, 7970.449
1014.621, 7381.410
1015.730, 6094.363
1016.839, 5388.309
1017.948, 4673.242
1019.056, 4016.176
1020.165, 3433.102
1021.273, 2898.020
1022.382, 2552.930
1023.490, 2509.836
1024.598, 2120.742
1025.706, 2189.645
1026.813, 1780.301
1027.921, 2003.863
1029.028, 1707.770
1030.135, 1840.680
1031.242, 1610.590
1032.349, 1781.648
1033.456, 1347.566
1034.562, 1609.488
1035.668, 1356.418
1036.775, 1309.355
1037.881, 1559.699
1038.987, 1572.648
1040.092, 1744.609
1041.198, 1740.551
1042.303, 1712.562
1043.408, 1653.559
1044.514, 1317.570
1045.618, 1171.602
1046.723, 1208.641
1047.828, 1358.723
1048.932, 1212.910
1050.037, 1225.098
1051.141, 1235.258
1052.245, 1303.480
1053.349, 1409.754
1054.452, 1004.078
1055.556, 1151.699
1056.659, 948.8281
1057.762, 1025.355
1058.865, 950.9766
1059.968, 1033.668
1061.071, 1018.074
1062.174, 1078.473
1063.276, 989.0547
1064.378, 934.2656
1065.480, 844.1523
1066.582, 881.7266
1067.684, 796.1289
1068.786, 715.7578
1069.887, 867.4141
1070.988, 809.8164
1072.090, 706.6680
1073.191, 858.4375
1074.291, 698.0820
1075.392, 702.0078
1076.493, 574.6875
1077.593, 401.3828
1078.693, 389.6836
1079.793, 321.4180
1080.893, 387.9883
1081.993, 316.9375
1083.092, 597.0352
1084.192, 657.8281
1085.291, 738.8711
1086.390, 730.0742
1087.489, 711.9219
1088.588, 609.9688
1089.686, 545.7461
1090.785, 586.5352
1091.883, 402.7109
1092.981, 414.5547
1094.079, 447.8086
1095.177, 488.7148
1096.275, 473.6250
1097.373, 549.5664
1098.470, 471.5352
1099.567, 530.5508
1100.664, 780.5742
1101.761, 435.6250
1102.858, 612.7031
1103.954, 244.8164
1105.051, 131.8984
1106.147, 362.4297
1107.243, 168.9492
1108.339, 370.9141
1109.435, 483.4727
1110.531, 510.8945
1111.626, 199.8359
1112.722, 338.6367
1113.817, 289.4023
1114.912, 233.2578
1116.007, 420.8086
1117.101, 158.8594
1118.196, 342.9180
1119.290, 348.7578
1120.385, 436.0586
1121.479, 347.0664
1122.573, 312.7227
1123.666, 454.5469
1124.760, 499.2422
1125.853, 390.0000
1126.947, 482.5742
1128.040, 214.6523
1129.133, 263.3789
1130.226, 448.2344
1131.318, 351.1562
1132.411, 447.0312
1133.503, 467.7539
1134.596, 149.6992
1135.688, 421.2891
1136.780, 437.5703
1137.871, 191.8867
1138.963, 443.2070
1140.054, 233.7812
1141.146, 188.5391
1142.237, 267.0703
1143.328, 216.4609
1144.419, 369.1484
1145.509, 325.6562
1146.600, 289.4883
1147.690, 129.5625
1148.780, 130.8164
1149.870, 153.9219
1150.960, 19.94531
1152.050, 160.5977
1153.139, 170.7695
1154.229, 298.0859
1155.318, 80.45703
1156.407, 162.9102
1157.496, 37.66016
1158.585, 33.82031
1159.674, 165.8672
1160.762, 276.0430
1161.850, 301.4883
1162.939, 11.53906
1164.027, 112.6602
1165.114, 61.69922
1166.202, 3.644531
1167.290, 189.5625
1168.377, 73.97266
1169.464, 108.1914
1170.551, 112.4688
1171.638, 198.2266
1172.725, 107.7344
1173.812, 71.74609
1174.898, 212.1055
1175.984, 254.8789
1177.071, 144.1797
1178.157, 235.2656
1179.242, 33.93359
1180.328, 13.33203
1181.414, 197.1484
1182.499, 95.75000
1183.584, 190.5234
1184.669, 210.6523
1185.754, 108.6211
1186.839, 17.46484
1187.924, 38.53125
1189.008, 290.5625
1190.092, 473.6211
1191.177, 0.2773440
1192.260, 100.8555
1193.344, 92.97266
1194.428, 8.234375
1195.512, 81.43750
1196.595, 236.6680
1197.678, 304.9414
1198.761, 142.9141
1199.844, 82.26562
1200.927, 5.480469
1202.009, 96.73047
1203.092, 113.0195
1204.174, 5.656250
1205.256, 196.7031
1206.338, 230.0977
1207.420, 181.5117
1208.502, 226.9453
1209.583, 168.3047
1210.665, 290.9531
1211.746, 106.5430
1212.827, 118.1953
1213.908, 184.9141
1214.988, 212.7227
1216.069, 177.6250
1217.149, 341.6289
1218.230, 211.7422
1219.310, 220.2539
1220.390, 314.6641
1221.470, 74.60547
1222.549, 209.9922
1223.629, 78.12500
1224.708, 300.6484
1225.787, 298.7812
1226.866, 345.3516
1227.945, 428.4844
1229.024, 479.6875
1230.103, 513.4609
1231.181, 522.9922
1232.259, 339.3320
1233.337, 403.2461
1234.415, 282.0430
1235.493, 2.269531
1236.571, 275.4336
1237.648, 158.3516
1238.726, 102.5469
1239.803, 283.9648
1240.880, 140.2891
1241.957, 159.0625
1243.034, 226.6406
1244.110, 136.2852
1245.187, 444.8555
1246.263, 216.3828
1247.339, 134.5938
1248.415, 245.8438
1249.491, 416.1719
1250.566, 332.3984
1251.642, 186.5312
1252.717, 503.0742
1253.793, 131.2578
1254.868, 450.1133
1255.943, 575.7500
1257.017, 436.1992
1258.092, 182.4375
1259.166, 548.0273
1260.241, 14.26562
1261.315, 220.5938
1262.389, 452.4219
1263.462, 58.74609
1264.536, 239.1523
1265.610, 270.1797
1266.683, 129.5312
1267.756, 395.1055
1268.829, 86.28906
1269.902, 319.7500
1270.975, 366.4297
1272.048, 78.42578
1273.120, 251.7617
1274.192, 232.9961
1275.264, 253.4414
1276.336, 281.6328
1277.408, 69.58203
1278.480, 284.9648
1279.551, 91.82812
1280.623, 1.046875
1281.694, 0.0000000E+00
##END=



