##NAMES=Augite
##RRUFFID=R070231
##IDEAL CHEMISTRY=(Ca,Mg,Fe^2+^,Fe^3+^)_2_(Si,Al)_2_O_6_
##LOCALITY=Old Goose Creek Quarry, Leesburg, Loudoun County, Virginia, USA
##OWNER=RRUFF
##SOURCE=Michael Scott
##DESCRIPTION=Very dark grey-green prismatic crystals frozen in quartz
##STATUS=The identification of this mineral is confirmed by single-crystal X-ray diffraction and chemical analysis.
##URL=rruff.info/R070231
##MEASURED CHEMISTRY=(Mg_0.44_Fe_0.37_Ca_0.17_Ti_0.01_Mn_0.01_)_Σ=1_(Si_0.98_Al_0.02_)_Σ=1_O_3_
##PIN_ID=M00250
##ORIENTATION=Laser parallel to (-1 0 -1). Fiducial mark perpendicular to laser is parallel to b [0 1 0]
144.8940, 0.0000000E+00
146.1280, 60.23730
147.3620, 349.8262
148.5960, 241.9863
149.8300, 113.8330
151.0630, 505.3623
152.2960, 690.8379
153.5300, 491.4844
154.7620, 436.4316
155.9950, 155.4229
157.2280, 98.26660
158.4600, 31.19922
159.6920, 31.88477
160.9250, 40.71484
162.1560, 135.3154
163.3880, 251.3838
164.6200, 301.8809
165.8510, 176.7988
167.0820, 131.2715
168.3130, 374.4014
169.5440, 386.2646
170.7750, 483.9189
172.0050, 435.4082
173.2350, 563.7666
174.4650, 443.0205
175.6950, 629.5527
176.9250, 712.3516
178.1550, 920.6055
179.3840, 862.7637
180.6130, 1023.142
181.8420, 1085.488
183.0710, 1131.172
184.3000, 1258.123
185.5280, 1329.171
186.7570, 1399.315
187.9850, 1514.161
189.2130, 1498.818
190.4400, 1548.607
191.6680, 1511.513
192.8960, 1236.525
194.1230, 1192.639
195.3500, 1126.844
196.5770, 1118.131
197.8030, 864.4922
199.0300, 866.9189
200.2560, 1031.401
201.4830, 1083.935
202.7090, 887.5146
203.9340, 589.1377
205.1600, 208.8018
206.3860, 13.42090
207.6110, 20.62207
208.8360, 25.61719
210.0610, 31.73535
211.2860, 80.30664
212.5100, 71.22363
213.7350, 211.6016
214.9590, 149.6182
216.1830, 179.0088
217.4070, 328.6748
218.6310, 386.5586
219.8540, 407.8604
221.0780, 467.5439
222.3010, 760.3359
223.5240, 763.2402
224.7470, 965.1494
225.9690, 1118.946
227.1920, 1170.589
228.4140, 1154.160
229.6360, 1302.658
230.8580, 1522.091
232.0800, 1343.483
233.3020, 1464.872
234.5230, 1356.237
235.7440, 1236.582
236.9650, 1306.908
238.1860, 1311.221
239.4070, 1284.519
240.6280, 1306.807
241.8480, 1295.090
243.0680, 1221.365
244.2880, 1378.625
245.5080, 1318.867
246.7280, 1347.089
247.9470, 1268.296
249.1660, 1431.454
250.3860, 1359.539
251.6040, 1298.557
252.8230, 1218.528
254.0420, 1072.460
255.2600, 931.3662
256.4790, 1083.259
257.6970, 1157.141
258.9150, 1046.473
260.1320, 1395.876
261.3500, 929.7295
262.5670, 553.5713
263.7840, 541.4043
265.0010, 585.2256
266.2180, 464.0566
267.4350, 385.8389
268.6510, 511.6289
269.8680, 358.4102
271.0840, 440.1797
272.3000, 402.9375
273.5160, 213.6846
274.7310, 281.4219
275.9470, 455.1484
277.1620, 414.8623
278.3770, 395.5664
279.5920, 330.6416
280.8070, 513.9033
282.0210, 415.6270
283.2360, 530.2637
284.4500, 523.7422
285.6640, 600.2715
286.8780, 611.6455
288.0920, 670.2939
289.3050, 670.8848
290.5180, 727.0674
291.7320, 943.0215
292.9450, 1213.202
294.1570, 1372.997
295.3700, 1287.418
296.5830, 1502.333
297.7950, 1812.059
299.0070, 1844.039
300.2190, 2238.043
301.4310, 2423.974
302.6420, 2838.047
303.8540, 3174.267
305.0650, 3589.238
306.2760, 3986.970
307.4870, 4469.508
308.6980, 4980.227
309.9080, 5420.756
311.1190, 6087.815
312.3290, 6782.164
313.5390, 7359.454
314.7490, 8055.205
315.9580, 8794.019
317.1680, 9610.288
318.3770, 10291.90
319.5860, 11104.14
320.7950, 11787.31
322.0040, 12323.23
323.2130, 12402.94
324.4210, 12662.84
325.6290, 12571.44
326.8380, 11900.53
328.0460, 11472.34
329.2530, 10734.30
330.4610, 9831.261
331.6680, 8655.173
332.8760, 7991.137
334.0830, 6998.186
335.2890, 6197.312
336.4960, 5779.746
337.7030, 5277.832
338.9090, 4744.031
340.1150, 4501.860
341.3210, 4140.816
342.5270, 3697.435
343.7330, 3724.055
344.9380, 3479.676
346.1440, 3544.297
347.3490, 3375.919
348.5540, 3401.542
349.7590, 3391.164
350.9630, 3351.556
352.1680, 3282.488
353.3720, 3265.843
354.5760, 3319.540
355.7800, 3026.023
356.9840, 2930.930
358.1870, 3018.785
359.3910, 2856.262
360.5940, 2772.489
361.7970, 2597.846
363.0000, 2405.833
364.2030, 2242.064
365.4050, 2310.388
366.6080, 2100.945
367.8100, 2318.492
369.0120, 2093.027
370.2140, 2088.551
371.4150, 2080.062
372.6170, 1997.562
373.8180, 2041.203
375.0190, 2062.591
376.2200, 2127.000
377.4210, 2207.458
378.6220, 2250.637
379.8220, 2338.794
381.0230, 2404.770
382.2230, 2484.186
383.4230, 2632.592
384.6220, 2676.755
385.8220, 2995.370
387.0220, 2951.742
388.2210, 3045.104
389.4200, 3248.454
390.6190, 3118.793
391.8180, 2978.121
393.0160, 3073.438
394.2150, 2942.744
395.4130, 2737.038
396.6110, 2428.322
397.8090, 2345.596
399.0060, 2039.857
400.2040, 1770.109
401.4010, 1639.352
402.5980, 1305.582
403.7950, 1165.801
404.9920, 986.0088
406.1890, 868.2061
407.3860, 632.3926
408.5820, 567.5664
409.7780, 499.7285
410.9740, 280.8799
412.1700, 218.9873
413.3650, 144.7637
414.5610, 83.09277
415.7560, 80.18750
416.9510, 32.26855
418.1460, 67.61328
419.3410, 49.23340
420.5360, 69.73438
421.7300, 26.73828
422.9240, 121.7646
424.1180, 4.0038999E-02
425.3120, 149.1445
426.5060, 6.313477
427.7000, 76.51074
428.8930, 127.2178
430.0860, 87.11328
431.2790, 38.46289
432.4720, 3.995117
433.6650, 73.47852
434.8580, 45.06152
436.0500, 41.70215
437.2420, 13.57031
438.4340, 189.2148
439.6260, 52.85352
440.8180, 101.3330
442.0090, 63.06445
443.2010, 89.12988
444.3920, 64.49414
445.5830, 54.32812
446.7740, 84.19434
447.9640, 71.90723
449.1550, 53.50391
450.3450, 10.39941
451.5350, 48.01660
452.7250, 188.5293
453.9150, 82.47363
455.1050, 74.62988
456.2940, 256.0576
457.4830, 260.1084
458.6720, 294.4092
459.8610, 258.6611
461.0500, 133.6582
462.2390, 6.310547
463.4270, 348.7178
464.6150, 232.7734
465.8040, 338.8340
466.9910, 200.9199
468.1790, 286.0264
469.3670, 133.1348
470.5540, 199.2598
471.7410, 163.4092
472.9280, 166.5547
474.1150, 178.2275
475.3020, 166.9189
476.4890, 148.0928
477.6750, 130.2500
478.8610, 57.43359
480.0470, 141.6738
481.2330, 114.8984
482.4190, 204.1113
483.6040, 174.3145
484.7900, 414.4980
485.9750, 280.6768
487.1600, 282.8350
488.3450, 273.0010
489.5290, 519.1445
490.7140, 425.2754
491.8980, 595.7246
493.0820, 818.4736
494.2660, 792.5469
495.4500, 1039.609
496.6340, 1054.660
497.8170, 1383.703
499.0010, 1659.731
500.1840, 1891.747
501.3670, 2333.747
502.5500, 2609.730
503.7320, 2774.695
504.9150, 3285.645
506.0970, 3308.574
507.2790, 3475.480
508.4610, 3481.575
509.6430, 3341.229
510.8250, 3152.067
512.0060, 3018.884
513.1870, 2597.676
514.3680, 2362.444
515.5490, 2280.189
516.7300, 1923.911
517.9110, 1847.608
519.0910, 1838.281
520.2710, 1752.930
521.4510, 1596.557
522.6310, 1556.158
523.8110, 1524.756
524.9910, 1628.288
526.1700, 1527.815
527.3490, 1615.317
528.5280, 1614.795
529.7070, 1773.246
530.8860, 1661.673
532.0650, 1826.074
533.2430, 1862.450
534.4210, 1563.801
535.5990, 1682.126
536.7770, 1613.425
537.9550, 1591.697
539.1320, 1345.944
540.3100, 1255.164
541.4870, 1335.358
542.6640, 1259.525
543.8410, 1251.686
545.0170, 1189.780
546.1940, 1242.868
547.3700, 1315.930
548.5470, 1384.963
549.7230, 1524.969
550.8980, 1604.438
552.0740, 1684.900
553.2500, 1810.777
554.4250, 1874.369
555.6000, 1962.625
556.7750, 2146.600
557.9500, 2083.538
559.1250, 2251.250
560.2990, 1726.088
561.4730, 1601.825
562.6480, 1636.433
563.8220, 1239.646
564.9950, 1257.905
566.1690, 1197.232
567.3430, 1208.690
568.5160, 843.7285
569.6890, 720.6670
570.8620, 839.5352
572.0350, 747.7314
573.2070, 721.1816
574.3800, 511.4434
575.5520, 511.9951
576.7240, 446.6963
577.8960, 522.5771
579.0680, 375.8105
580.2400, 205.3711
581.4110, 84.72656
582.5830, 47.15234
583.7540, 217.6484
584.9250, 15.16992
586.0950, 103.6250
587.2660, 100.4688
588.4370, 55.12109
589.6070, 34.23047
590.7770, 171.9443
591.9470, 25.13672
593.1170, 51.41309
594.2860, 188.5840
595.4560, 16.73535
596.6250, 3.557617
597.7940, 27.79785
598.9630, 132.3770
600.1320, 160.3516
601.3000, 238.9785
602.4690, 313.4785
603.6370, 305.7617
604.8050, 437.2207
605.9730, 308.4033
607.1410, 327.7725
608.3090, 355.8838
609.4760, 443.7119
610.6430, 480.8418
611.8100, 712.3193
612.9770, 628.7461
614.1440, 876.0537
615.3110, 902.3086
616.4770, 1032.714
617.6430, 979.6436
618.8090, 1155.115
619.9750, 1332.740
621.1410, 1443.981
622.3070, 1739.680
623.4720, 1882.484
624.6370, 2054.727
625.8020, 2025.562
626.9670, 2299.552
628.1320, 2421.026
629.2970, 2437.938
630.4610, 2785.848
631.6250, 3066.686
632.7890, 3088.486
633.9530, 3242.249
635.1170, 3490.973
636.2810, 3715.539
637.4440, 4125.311
638.6070, 4388.922
639.7700, 4783.496
640.9330, 5230.032
642.0960, 5536.533
643.2590, 6464.994
644.4210, 7037.418
645.5830, 7725.807
646.7450, 8809.155
647.9070, 9779.470
649.0690, 11492.75
650.2310, 12796.99
651.3920, 14593.18
652.5530, 16909.35
653.7140, 19157.48
654.8750, 21663.57
656.0360, 24712.62
657.1970, 27960.65
658.3570, 31552.63
659.5170, 34741.57
660.6770, 38081.67
661.8370, 41188.54
662.9970, 43791.38
664.1570, 44813.18
665.3160, 45131.96
666.4750, 44222.70
667.6340, 42037.38
668.7930, 39544.04
669.9520, 36517.66
671.1110, 32607.25
672.2690, 29275.80
673.4270, 26366.32
674.5850, 23029.81
675.7430, 20286.26
676.9010, 17972.67
678.0590, 15326.05
679.2160, 13361.40
680.3730, 11500.72
681.5300, 9940.995
682.6870, 8523.243
683.8440, 7383.456
685.0010, 6285.636
686.1570, 5627.783
687.3130, 4687.896
688.4690, 4188.978
689.6250, 3892.025
690.7810, 3283.043
691.9370, 2841.025
693.0920, 2656.979
694.2470, 2338.900
695.4020, 2113.793
696.5570, 2067.657
697.7120, 1878.495
698.8670, 1648.306
700.0210, 1493.090
701.1750, 1415.849
702.3290, 1329.598
703.4830, 1268.329
704.6370, 1150.067
705.7910, 1009.781
706.9440, 1108.510
708.0970, 834.2158
709.2510, 940.9180
710.4030, 838.5938
711.5560, 564.2686
712.7090, 618.9189
713.8610, 539.5469
715.0140, 377.1494
716.1660, 517.7402
717.3180, 395.3213
718.4690, 314.8799
719.6210, 322.4639
720.7730, 185.5781
721.9240, 182.5137
723.0750, 63.04688
724.2260, 122.8193
725.3770, 194.9971
726.5270, 18.83203
727.6780, 110.8867
728.8280, 50.14062
729.9780, 93.92090
731.1280, 62.48926
732.2780, 10.98242
733.4280, 6.026367
734.5770, 17.67969
735.7260, 74.31348
736.8760, 63.59668
738.0250, 119.1982
739.1730, 69.08008
740.3220, 158.2754
741.4700, 55.85059
742.6190, 118.4932
743.7670, 38.24512
744.9150, 121.0615
746.0630, 106.9873
747.2100, 37.00977
748.3580, 100.0928
749.5050, 135.2686
750.6520, 27.55273
751.7990, 218.8887
752.9460, 28.62500
754.0930, 49.88379
755.2390, 3.548828
756.3860, 159.0479
757.5320, 281.7568
758.6780, 13.64160
759.8240, 21.55859
760.9690, 19.51074
762.1150, 3.500000
763.2600, 38.50977
764.4060, 86.43750
765.5510, 86.62695
766.6950, 81.24121
767.8400, 14.90234
768.9850, 177.9277
770.1290, 168.7451
771.2730, 139.5527
772.4170, 233.3486
773.5610, 133.1348
774.7050, 381.9102
775.8480, 107.6768
776.9920, 107.4355
778.1350, 109.1855
779.2780, 360.9287
780.4210, 211.6650
781.5640, 157.3945
782.7060, 324.1172
783.8490, 254.8340
784.9910, 345.5449
786.1330, 221.2520
787.2750, 243.9541
788.4170, 164.6523
789.5580, 285.3467
790.7000, 317.0391
791.8410, 42.72754
792.9820, 251.4141
794.1230, 146.0986
795.2640, 103.7812
796.4040, 112.4629
797.5450, 12.85547
798.6850, 265.8242
799.8250, 156.5049
800.9650, 19.18652
802.1050, 272.8701
803.2450, 126.5566
804.3840, 203.2441
805.5230, 200.9355
806.6630, 134.6309
807.8020, 140.3301
808.9400, 68.03320
810.0790, 272.7412
811.2170, 423.4551
812.3560, 351.1738
813.4940, 504.9004
814.6320, 591.6318
815.7700, 751.3711
816.9070, 621.1201
818.0450, 721.8750
819.1820, 821.6377
820.3190, 962.4111
821.4560, 1004.911
822.5930, 1091.983
823.7300, 1086.785
824.8670, 1174.597
826.0030, 1179.420
827.1390, 1410.255
828.2750, 1285.102
829.4110, 1183.959
830.5470, 1302.829
831.6820, 1098.713
832.8180, 1349.609
833.9530, 1231.520
835.0880, 1056.445
836.2230, 918.3848
837.3580, 1030.339
838.4920, 877.3086
839.6270, 778.2920
840.7610, 615.2939
841.8950, 512.3096
843.0290, 462.0029
844.1630, 395.3926
845.2960, 404.4590
846.4300, 387.5439
847.5630, 387.6445
848.6960, 286.7637
849.8290, 410.9014
850.9620, 271.0586
852.0940, 209.2324
853.2270, 462.4268
854.3590, 378.6396
855.4910, 233.8730
856.6230, 510.1260
857.7550, 382.4014
858.8870, 401.6992
860.0180, 291.2178
861.1500, 298.4141
862.2810, 118.7822
863.4120, 179.4619
864.5430, 357.4512
865.6730, 172.3447
866.8040, 332.5840
867.9340, 251.8945
869.0640, 64.89746
870.1940, 192.9531
871.3240, 59.54297
872.4540, 249.5225
873.5830, 198.3760
874.7130, 54.85254
875.8420, 244.5889
876.9710, 296.8438
878.1000, 242.6475
879.2290, 190.6436
880.3570, 233.8037
881.4860, 455.9092
882.6140, 241.0312
883.7420, 391.6826
884.8700, 348.5137
885.9980, 209.2783
887.1250, 362.9492
888.2530, 265.7588
889.3800, 334.6875
890.5070, 442.4502
891.6340, 249.6572
892.7610, 293.9482
893.8880, 307.7529
895.0140, 429.5205
896.1400, 465.0166
897.2670, 347.7842
898.3930, 425.0000
899.5180, 405.9678
900.6440, 398.7920
901.7700, 422.1475
902.8950, 419.0820
904.0200, 658.0430
905.1450, 611.1084
906.2700, 925.2510
907.3950, 666.4727
908.5190, 842.7764
909.6440, 795.1641
910.7680, 866.6240
911.8920, 776.1641
913.0160, 935.7744
914.1400, 1008.468
915.2630, 1370.223
916.3870, 1270.040
917.5100, 1453.699
918.6330, 1601.835
919.7560, 1573.815
920.8790, 1439.854
922.0010, 1367.946
923.1240, 1491.092
924.2460, 1606.289
925.3680, 1407.542
926.4900, 1373.846
927.6120, 1269.199
928.7340, 1314.632
929.8550, 1283.133
930.9760, 1320.742
932.0980, 1433.412
933.2190, 1380.963
934.3390, 1424.797
935.4600, 1316.703
936.5810, 1266.668
937.7010, 1146.683
938.8210, 1187.757
939.9410, 1189.884
941.0610, 1108.076
942.1810, 1020.321
943.3010, 1364.619
944.4200, 1171.003
945.5390, 1240.461
946.6580, 1371.976
947.7770, 1321.545
948.8960, 1347.174
950.0150, 1448.868
951.1330, 1302.619
952.2510, 1562.419
953.3690, 1522.272
954.4870, 1395.177
955.6050, 1811.133
956.7230, 1667.141
957.8400, 1755.201
958.9580, 2069.353
960.0750, 1979.557
961.1920, 2084.812
962.3090, 2134.118
963.4250, 2368.477
964.5420, 2547.883
965.6580, 2878.343
966.7740, 2833.854
967.8900, 2892.414
969.0060, 3125.028
970.1220, 3468.692
971.2380, 3784.409
972.3530, 3943.176
973.4680, 4274.994
974.5830, 4712.886
975.6980, 5072.826
976.8130, 5557.818
977.9280, 6198.858
979.0420, 6817.949
980.1560, 7511.088
981.2710, 8427.281
982.3850, 9416.522
983.4980, 10272.81
984.6120, 11752.16
985.7260, 13006.55
986.8390, 14688.99
987.9520, 16164.48
989.0650, 18409.02
990.1780, 20358.61
991.2910, 22069.25
992.4030, 23611.93
993.5160, 24870.66
994.6280, 26013.28
995.7400, 27116.28
996.8520, 27749.17
997.9640, 28583.12
999.0750, 29173.16
1000.187, 30352.29
1001.298, 31490.49
1002.409, 32984.79
1003.520, 35205.14
1004.631, 37339.54
1005.741, 40325.44
1006.852, 43511.00
1007.962, 45821.63
1009.072, 48421.35
1010.182, 49733.16
1011.292, 49727.07
1012.402, 48841.27
1013.511, 47465.11
1014.621, 43436.19
1015.730, 39257.42
1016.839, 33707.72
1017.948, 28982.09
1019.056, 24388.53
1020.165, 20464.07
1021.273, 17329.66
1022.382, 14417.59
1023.490, 12587.52
1024.598, 11180.97
1025.706, 9870.497
1026.813, 8712.799
1027.921, 7896.754
1029.028, 7181.537
1030.135, 6804.693
1031.242, 6368.898
1032.349, 6016.407
1033.456, 5707.967
1034.562, 5504.685
1035.668, 5140.145
1036.775, 5044.620
1037.881, 4948.721
1038.987, 4805.668
1040.092, 4933.906
1041.198, 4884.127
1042.303, 4649.197
1043.408, 4663.486
1044.514, 4512.581
1045.618, 4008.140
1046.723, 3941.777
1047.828, 3700.322
1048.932, 3396.365
1050.037, 3191.025
1051.141, 2894.768
1052.245, 2699.141
1053.349, 2234.479
1054.452, 2106.733
1055.556, 2128.298
1056.659, 2081.326
1057.762, 1727.220
1058.865, 1606.308
1059.968, 1383.560
1061.071, 1302.295
1062.174, 1311.099
1063.276, 1209.963
1064.378, 1149.039
1065.480, 1042.173
1066.582, 1025.037
1067.684, 1088.168
1068.786, 900.8701
1069.887, 1140.016
1070.988, 756.3174
1072.090, 984.8164
1073.191, 882.6436
1074.291, 803.2441
1075.392, 766.8926
1076.493, 731.4258
1077.593, 866.0381
1078.693, 773.3525
1079.793, 958.7168
1080.893, 1133.815
1081.993, 1177.268
1083.092, 1072.710
1084.192, 1143.197
1085.291, 872.8135
1086.390, 805.1387
1087.489, 691.5215
1088.588, 759.8232
1089.686, 653.2422
1090.785, 703.9668
1091.883, 538.9004
1092.981, 609.2275
1094.079, 645.7314
1095.177, 698.3203
1096.275, 639.6543
1097.373, 506.2646
1098.470, 535.0752
1099.567, 480.4141
1100.664, 475.2598
1101.761, 456.7168
1102.858, 578.8809
1103.954, 435.2158
1105.051, 518.8936
1106.147, 575.0000
1107.243, 535.9600
1108.339, 455.3809
1109.435, 595.7031
1110.531, 421.0273
1111.626, 400.3408
1112.722, 484.5420
1113.817, 483.1172
1114.912, 414.7012
1116.007, 427.2100
1117.101, 360.4951
1118.196, 688.7734
1119.290, 637.7637
1120.385, 657.2744
1121.479, 676.7686
1122.573, 608.0146
1123.666, 676.2520
1124.760, 575.4775
1125.853, 580.6943
1126.947, 429.9824
1128.040, 391.1777
1129.133, 290.5664
1130.226, 328.9219
1131.318, 339.3789
1132.411, 320.7432
1133.503, 302.8770
1134.596, 300.9961
1135.688, 244.7607
1136.780, 151.1904
1137.871, 185.4082
1138.963, 146.4717
1140.054, 225.8174
1141.146, 224.0801
1142.237, 77.23438
1143.328, 129.6221
1144.419, 121.8701
1145.509, 72.95020
1146.600, 55.31152
1147.690, 177.1943
1148.780, 120.0547
1149.870, 119.8936
1150.960, 58.48145
1152.050, 46.60547
1153.139, 46.62500
1154.229, 107.8994
1155.318, 145.0547
1156.407, 95.71191
1157.496, 200.2461
1158.585, 190.8877
1159.674, 137.6875
1160.762, 73.41016
1161.850, 128.4785
1162.939, 8.519531
1164.027, 12.52832
1165.114, 12.49512
1166.202, 21.56250
1167.290, 35.44043
1168.377, 74.85742
1169.464, 86.11621
1170.551, 104.4531
1171.638, 102.0303
1172.725, 113.4570
1173.812, 67.10938
1174.898, 93.84668
1175.984, 51.49219
1177.071, 98.59375
1178.157, 15.60938
1179.242, 21.68457
1180.328, 21.17578
1181.414, 21.77148
1182.499, 10.78320
1183.584, 13.48535
1184.669, 17.38379
1185.754, 40.00391
1186.839, 133.5850
1187.924, 11.12793
1189.008, 136.6152
1190.092, 106.0674
1191.177, 61.52051
1192.260, 13.20312
1193.344, 171.9580
1194.428, 19.13184
1195.512, 45.83398
1196.595, 87.89062
1197.678, 27.06250
1198.761, 35.68262
1199.844, 255.3750
1200.927, 25.03027
1202.009, 124.6260
1203.092, 0.1816410
1204.174, 111.6641
1205.256, 107.1055
1206.338, 71.49805
1207.420, 23.21094
1208.502, 67.98828
1209.583, 68.13867
1210.665, 45.23828
1211.746, 16.28125
1212.827, 70.98633
1213.908, 182.1816
1214.988, 155.0625
1216.069, 228.9023
1217.149, 218.7012
1218.230, 87.45898
1219.310, 217.1660
1220.390, 77.16797
1221.470, 119.3770
1222.549, 310.8730
1223.629, 208.3320
1224.708, 190.7441
1225.787, 258.1152
1226.866, 190.4453
1227.945, 146.7324
1229.024, 357.9727
1230.103, 146.1719
1231.181, 232.3262
1232.259, 119.4355
1233.337, 305.4980
1234.415, 186.5195
1235.493, 6.494141
1236.571, 141.3848
1237.648, 251.2285
1238.726, 332.0293
1239.803, 275.7891
1240.880, 332.5059
1241.957, 126.1797
1243.034, 216.8047
1244.110, 214.3848
1245.187, 232.9355
1246.263, 347.4434
1247.339, 353.9082
1248.415, 147.3320
1249.491, 230.7070
1250.566, 234.0371
1251.642, 312.3242
1252.717, 327.3672
1253.793, 296.7676
1254.868, 382.9277
1255.943, 278.0449
1257.017, 339.2559
1258.092, 251.2891
1259.166, 256.8711
1260.241, 231.2305
1261.315, 251.1328
1262.389, 363.0020
1263.462, 362.8281
1264.536, 442.6094
1265.610, 368.3516
1266.683, 274.3281
1267.756, 374.2324
1268.829, 237.8457
1269.902, 254.4121
1270.975, 276.9355
1272.048, 217.4180
1273.120, 246.8516
1274.192, 259.4629
1275.264, 225.6250
1276.336, 390.9258
1277.408, 360.2051
1278.480, 593.4043
1279.551, 289.5801
1280.623, 493.7363
1281.694, 376.8477
1282.765, 386.3945
1283.836, 498.6094
1284.907, 363.3867
1285.977, 682.8594
1287.048, 279.4082
1288.118, 372.3828
1289.188, 467.5430
1290.258, 371.3711
1291.328, 287.1992
1292.398, 353.6543
1293.467, 284.3008
1294.537, 337.6836
1295.606, 327.2227
1296.675, 351.9238
1297.744, 380.8203
1298.813, 382.8672
1299.882, 409.8203
1300.950, 415.8887
1302.018, 452.7207
1303.086, 504.9883
1304.155, 538.8672
1305.222, 514.2734
1306.290, 512.4395
1307.358, 494.0078
1308.425, 435.9141
1309.492, 358.1934
1310.559, 280.3848
1311.626, 331.9395
1312.693, 149.5215
