##NAMES=Augite
##RRUFFID=R061108
##IDEAL CHEMISTRY=(Ca,Mg,Fe^2+^,Fe^3+^)_2_(Si,Al)_2_O_6_
##LOCALITY=Monti Rossi, near Mt. Etna, Sicily, Italy
##OWNER=RRUFF
##SOURCE=Michael Scott
##DESCRIPTION=Euhedral, short prismatic, black crystals in vesicular basalt.
##STATUS=The identification of this mineral is confirmed by single-crystal X-ray diffraction and chemical analysis.
##URL=rruff.info/R061108
##MEASURED CHEMISTRY=(Ca_0.86_Mg_0.74_Fe^2+^_0.18_Fe^3+^_0.08_Al_0.05_Ti_0.04_Na_0.04_Mn_0.01_)_Σ=2_(Si_1.83_Al_0.17_)_Σ=2_O_6_
##PIN_ID=L01364
##ORIENTATION=Laser parallel to b* (0 1 0). Fiducial mark perpendicular to laser is parallel to c [0 0 1]
161.1070, 0.0000000E+00
162.3340, 4.830078
163.5600, 210.3564
164.7860, 341.8457
166.0120, 388.7676
167.2380, 445.0996
168.4640, 526.3174
169.6890, 844.6865
170.9150, 743.9854
172.1400, 881.1670
173.3650, 778.6680
174.5900, 924.6260
175.8150, 975.7344
177.0400, 1026.356
178.2640, 1197.973
179.4880, 1091.921
180.7130, 1020.450
181.9370, 942.7480
183.1600, 673.9502
184.3840, 871.6895
185.6080, 786.5459
186.8310, 681.6787
188.0540, 797.5586
189.2770, 725.4160
190.5000, 718.9346
191.7230, 717.0664
192.9460, 745.8965
194.1680, 795.9092
195.3910, 869.7275
196.6130, 866.9229
197.8350, 945.5830
199.0570, 836.7148
200.2780, 882.2988
201.5000, 1003.312
202.7210, 826.7314
203.9420, 612.5332
205.1640, 384.6992
206.3840, 93.20605
207.6050, 99.96875
208.8260, 114.8418
210.0460, 184.4336
211.2670, 145.7744
212.4870, 93.87891
213.7070, 38.75684
214.9270, 51.57715
216.1460, 61.11426
217.3660, 26.84668
218.5850, 171.7646
219.8050, 316.8604
221.0240, 507.1230
222.2430, 579.5459
223.4610, 823.1221
224.6800, 780.8428
225.8980, 1091.702
227.1170, 1189.692
228.3350, 1277.807
229.5530, 1428.048
230.7710, 1580.433
231.9880, 1716.080
233.2060, 1838.921
234.4230, 1961.389
235.6400, 2112.125
236.8570, 2093.037
238.0740, 2209.079
239.2910, 2152.268
240.5080, 2363.577
241.7240, 2448.005
242.9400, 2565.548
244.1570, 2678.191
245.3730, 2743.937
246.5880, 2771.771
247.8040, 2882.681
249.0190, 2980.666
250.2350, 2952.716
251.4500, 2923.813
252.6650, 2972.954
253.8800, 3328.136
255.0950, 3054.359
256.3090, 2681.625
257.5240, 2793.906
258.7380, 3060.094
259.9520, 2645.620
261.1660, 2965.277
262.3800, 2095.421
263.5930, 1969.612
264.8070, 1651.848
266.0200, 1632.127
267.2330, 1488.447
268.4460, 1278.809
269.6590, 1478.207
270.8720, 1386.646
272.0850, 1558.122
273.2970, 1340.629
274.5090, 1555.169
275.7210, 1570.739
276.9330, 1610.339
278.1450, 1629.965
279.3570, 1649.615
280.5680, 1754.287
281.7790, 1821.982
282.9910, 1965.695
284.2020, 2072.429
285.4120, 2100.178
286.6230, 2303.939
287.8340, 2346.714
289.0440, 2573.502
290.2540, 2873.296
291.4640, 2963.100
292.6740, 3169.908
293.8840, 3276.721
295.0940, 3660.536
296.3030, 3782.354
297.5120, 4016.785
298.7210, 4356.541
299.9300, 4812.967
301.1390, 5275.158
302.3480, 5748.104
303.5560, 6050.076
304.7650, 6661.793
305.9730, 7130.646
307.1810, 7712.111
308.3890, 8544.230
309.5970, 9037.426
310.8040, 9874.549
312.0120, 10567.51
313.2190, 11723.52
314.4260, 12593.76
315.6330, 13346.66
316.8400, 14162.66
318.0460, 14977.87
319.2530, 15769.07
320.4590, 16511.81
321.6650, 17057.27
322.8710, 17310.23
324.0770, 17768.18
325.2830, 17476.63
326.4880, 17622.74
327.6940, 17418.91
328.8990, 16957.40
330.1040, 16712.17
331.3090, 16159.42
332.5140, 15767.55
333.7180, 15237.52
334.9230, 14526.17
336.1270, 14264.05
337.3310, 13716.94
338.5350, 13421.13
339.7390, 13038.33
340.9430, 12481.25
342.1460, 12260.21
343.3500, 11870.21
344.5530, 11701.25
345.7560, 11637.32
346.9590, 11431.42
348.1620, 11182.55
349.3640, 11115.70
350.5670, 10782.89
351.7690, 10473.09
352.9710, 10111.47
354.1730, 9729.108
355.3750, 9330.107
356.5760, 8872.466
357.7780, 8495.570
358.9790, 7967.842
360.1800, 7572.156
361.3810, 7093.480
362.5820, 6860.812
363.7830, 6355.502
364.9830, 6148.498
366.1840, 5494.848
367.3840, 5068.202
368.5840, 4703.559
369.7840, 4578.917
370.9840, 4363.276
372.1830, 4221.635
373.3830, 3921.992
374.5820, 3889.346
375.7810, 3598.695
376.9800, 3495.040
378.1790, 3408.378
379.3780, 3444.705
380.5760, 3327.019
381.7750, 3115.320
382.9730, 3164.607
384.1710, 3078.879
385.3690, 3159.133
386.5660, 2870.370
387.7640, 2716.588
388.9610, 2666.788
390.1590, 2525.967
391.3560, 2411.123
392.5530, 2205.260
393.7500, 2029.371
394.9460, 2057.461
396.1430, 1859.526
397.3390, 1617.566
398.5350, 1478.580
399.7310, 1154.568
400.9270, 1204.529
402.1230, 1261.465
403.3180, 998.3701
404.5140, 850.2500
405.7090, 894.1006
406.9040, 586.9229
408.0990, 589.7168
409.2930, 557.4785
410.4880, 513.2109
411.6820, 636.9111
412.8770, 572.5801
414.0710, 560.2148
415.2650, 589.8174
416.4590, 402.3857
417.6520, 508.9199
418.8460, 491.4170
420.0390, 527.8809
421.2320, 290.3057
422.4250, 312.6943
423.6180, 285.0459
424.8110, 413.3584
426.0030, 274.6328
427.1960, 389.8672
428.3880, 394.0605
429.5800, 318.2148
430.7720, 152.3281
431.9640, 54.39941
433.1550, 53.22559
434.3470, 95.40625
435.5380, 84.34180
436.7290, 124.2305
437.9200, 145.0752
439.1110, 27.12598
440.3020, 32.61719
441.4920, 23.30566
442.6820, 61.06152
443.8730, 33.50195
445.0630, 112.7412
446.2530, 94.01953
447.4420, 166.1357
448.6320, 54.87988
449.8210, 131.2305
451.0100, 106.8984
452.2000, 107.2998
453.3880, 26.20410
454.5770, 2.649414
455.7660, 32.94629
456.9540, 16.36816
458.1430, 72.65918
459.3310, 103.1025
460.5190, 189.7217
461.7070, 231.0898
462.8940, 220.8896
464.0820, 265.7598
465.2690, 243.9062
466.4560, 337.1719
467.6430, 314.6543
468.8300, 370.9062
470.0170, 383.7695
471.2040, 282.9463
472.3900, 452.3916
473.5760, 491.0381
474.7620, 374.4619
475.9480, 400.2969
477.1340, 450.4092
478.3200, 435.6553
479.5050, 443.8330
480.6900, 551.9189
481.8750, 565.9180
483.0600, 653.0928
484.2450, 739.4131
485.4300, 861.4102
486.6140, 979.0723
487.7990, 1176.647
488.9830, 1428.138
490.1670, 1510.541
491.3510, 1742.857
492.5350, 2284.085
493.7180, 2470.226
494.9020, 2818.275
496.0850, 3456.254
497.2680, 4081.163
498.4510, 4860.017
499.6340, 5454.802
500.8160, 5999.512
501.9990, 6725.135
503.1810, 7224.666
504.3630, 7402.103
505.5450, 7621.447
506.7270, 7276.697
507.9090, 7068.854
509.0900, 6844.916
510.2720, 6226.881
511.4530, 5751.752
512.6340, 5066.526
513.8150, 4625.205
514.9950, 4305.786
516.1760, 3858.270
517.3560, 3818.656
518.5370, 3426.946
519.7170, 3369.137
520.8970, 3140.229
522.0770, 3251.224
523.2560, 3153.117
524.4360, 3027.912
525.6150, 3150.608
526.7940, 3035.204
527.9730, 3015.699
529.1520, 2914.096
530.3310, 3135.391
531.5090, 3246.585
532.6870, 2981.676
533.8660, 2983.666
535.0440, 2873.556
536.2210, 2687.344
537.3990, 2923.030
538.5770, 2664.613
539.7540, 2712.095
540.9310, 2807.475
542.1080, 2659.751
543.2850, 2658.925
544.4620, 2471.995
545.6390, 2513.963
546.8150, 2532.828
547.9920, 2451.590
549.1680, 2410.248
550.3440, 2414.803
551.5190, 2318.254
552.6950, 2411.601
553.8710, 2485.845
555.0460, 2438.784
556.2210, 2255.021
557.3960, 2378.953
558.5710, 2203.781
559.7460, 2068.504
560.9200, 2231.125
562.0950, 2266.640
563.2690, 2220.052
564.4430, 2209.358
565.6170, 2208.282
566.7910, 2162.242
567.9640, 2148.657
569.1380, 2080.549
570.3110, 1958.336
571.4840, 1885.019
572.6570, 1795.583
573.8300, 1740.494
575.0030, 1627.263
576.1750, 1425.233
577.3470, 1427.998
578.5200, 1358.855
579.6920, 1136.680
580.8630, 1078.341
582.0350, 947.1045
583.2070, 873.6074
584.3780, 614.0957
585.5490, 548.4424
586.7200, 336.2959
587.8910, 318.0811
589.0620, 331.0977
590.2330, 110.8652
591.4030, 87.46680
592.5730, 19.19824
593.7430, 137.6035
594.9130, 178.1426
596.0830, 318.7979
597.2530, 290.9844
598.4220, 343.0664
599.5920, 238.1250
600.7610, 179.6943
601.9300, 181.5586
603.0990, 110.2002
604.2670, 67.02734
605.4360, 164.2832
606.6040, 417.5254
607.7720, 167.0693
608.9400, 154.5400
610.1080, 296.5576
611.2760, 320.0332
612.4440, 376.1260
613.6110, 481.0879
614.7780, 533.2129
615.9450, 558.8408
617.1120, 644.7441
618.2790, 569.0332
619.4460, 758.6738
620.6120, 846.2539
621.7780, 1040.471
622.9450, 1047.632
624.1110, 1204.009
625.2760, 1346.281
626.4420, 1430.454
627.6080, 1681.525
628.7730, 1872.497
629.9380, 2124.369
631.1030, 2370.142
632.2680, 2654.065
633.4330, 2948.394
634.5970, 3318.874
635.7620, 3707.259
636.9260, 4159.549
638.0900, 4769.744
639.2540, 5236.845
640.4180, 6004.854
641.5810, 6647.767
642.7450, 7538.590
643.9080, 8661.323
645.0710, 10095.96
646.2340, 11332.52
647.3970, 12400.98
648.5590, 14346.36
649.7220, 16319.65
650.8840, 18389.85
652.0460, 21286.97
653.2080, 24339.01
654.3700, 27551.96
655.5320, 31347.83
656.6930, 35625.61
657.8550, 39822.33
659.0160, 43842.95
660.1770, 47556.50
661.3380, 50985.97
662.4990, 53190.37
663.6590, 54077.69
664.8200, 54168.93
665.9800, 53257.11
667.1400, 51032.20
668.3000, 47317.22
669.4600, 43283.18
670.6190, 38732.06
671.7790, 34204.88
672.9380, 29592.63
674.0970, 25577.31
675.2560, 22313.93
676.4150, 19080.48
677.5740, 16630.97
678.7320, 14126.39
679.8900, 12758.76
681.0490, 10993.06
682.2070, 9708.306
683.3640, 8739.490
684.5220, 7763.620
685.6800, 6955.691
686.8370, 6463.709
687.9940, 5808.674
689.1510, 5586.584
690.3080, 5165.444
691.4650, 4876.254
692.6220, 4703.012
693.7780, 4525.725
694.9340, 4470.388
696.0900, 4397.006
697.2460, 4297.578
698.4020, 4318.106
699.5580, 4310.594
700.7130, 4459.039
701.8680, 4491.445
703.0240, 4459.812
704.1790, 4473.140
705.3330, 4458.434
706.4880, 4430.689
707.6430, 4672.912
708.7970, 4770.102
709.9510, 4687.260
711.1050, 4597.385
712.2590, 4482.483
713.4130, 4329.955
714.5660, 4214.604
715.7200, 3962.628
716.8730, 3735.630
718.0260, 3497.609
719.1790, 2965.566
720.3320, 2754.516
721.4840, 2454.450
722.6370, 2049.371
723.7890, 1865.295
724.9410, 1503.950
726.0930, 1150.568
727.2450, 969.9355
728.3960, 681.8066
729.5480, 580.1562
730.6990, 379.7344
731.8500, 174.9639
733.0010, 31.61426
734.1520, 117.6592
735.3030, 307.3164
736.4530, 344.3262
737.6040, 423.3564
738.7540, 487.3545
739.9040, 390.4023
741.0540, 538.9941
742.2030, 543.1934
743.3530, 640.6357
744.5020, 566.5479
745.6520, 407.7529
746.8010, 304.2354
747.9490, 357.7393
749.0980, 225.9004
750.2470, 253.4648
751.3950, 265.3936
752.5440, 224.6133
753.6920, 173.0000
754.8400, 38.24609
755.9870, 3.125000
757.1350, 56.82129
758.2820, 146.8018
759.4300, 221.8398
760.5770, 187.9365
761.7240, 225.0898
762.8710, 291.3027
764.0170, 242.5762
765.1640, 394.9102
766.3100, 565.3086
767.4560, 420.7725
768.6020, 478.3027
769.7480, 619.9033
770.8940, 615.5723
772.0400, 679.6855
773.1850, 690.4629
774.3300, 694.0254
775.4750, 728.9941
776.6200, 754.2930
777.7650, 787.1738
778.9090, 812.3857
780.0540, 820.6826
781.1980, 812.0635
782.3420, 794.5322
783.4860, 709.0908
784.6300, 650.7402
785.7740, 671.4814
786.9170, 613.3164
788.0600, 719.2480
789.2030, 693.2754
790.3460, 712.4014
791.4890, 664.6270
792.6320, 680.9531
793.7740, 805.3838
794.9170, 862.9189
796.0590, 796.5586
797.2010, 688.3066
798.3430, 799.1621
799.4850, 833.1279
800.6260, 676.2041
801.7670, 839.3945
802.9090, 929.6973
804.0500, 901.1152
805.1910, 985.6504
806.3310, 1000.304
807.4720, 1045.616
808.6120, 1132.969
809.7530, 1155.984
810.8930, 1295.121
812.0330, 1370.385
813.1720, 1424.773
814.3120, 1528.290
815.4510, 1496.934
816.5910, 1444.708
817.7300, 1667.611
818.8690, 1647.839
820.0080, 1757.930
821.1460, 1658.123
822.2850, 1957.563
823.4230, 1664.142
824.5610, 1739.857
825.6990, 2134.712
826.8370, 2355.707
827.9750, 1768.844
829.1120, 1728.124
830.2500, 1677.548
831.3870, 1447.115
832.5240, 1523.830
833.6610, 1528.691
834.7980, 1453.700
835.9340, 1182.860
837.0700, 1191.170
838.2070, 1107.631
839.3430, 906.2451
840.4790, 906.0117
841.6140, 791.9336
842.7500, 764.0117
843.8850, 695.2461
845.0210, 612.6387
846.1560, 821.1895
847.2910, 638.9004
848.4260, 762.7715
849.5600, 574.8047
850.6950, 545.0000
851.8290, 721.3584
852.9630, 560.8818
854.0970, 833.5703
855.2310, 634.4248
856.3650, 782.4473
857.4980, 809.6367
858.6310, 700.9951
859.7650, 693.5244
860.8980, 730.2227
862.0310, 688.0947
863.1630, 670.1553
864.2960, 737.4043
865.4280, 669.8418
866.5600, 683.4961
867.6920, 854.3740
868.8240, 798.0596
869.9560, 722.7832
871.0880, 823.6562
872.2190, 672.6602
873.3500, 650.7549
874.4810, 664.7588
875.6120, 627.3174
876.7430, 696.8936
877.8740, 707.9336
879.0040, 817.3896
880.1340, 937.2305
881.2650, 985.7539
882.3950, 968.1387
883.5240, 1225.279
884.6540, 953.4346
885.7830, 1087.278
886.9130, 1079.366
888.0420, 1317.399
889.1710, 1235.721
890.3000, 1452.637
891.4280, 1464.630
892.5570, 1519.814
893.6850, 1519.642
894.8130, 1590.764
895.9420, 1451.191
897.0690, 1773.887
898.1970, 1517.868
899.3250, 1775.097
900.4520, 1547.608
901.5790, 1628.391
902.7060, 1816.487
903.8330, 1920.847
904.9600, 1766.518
906.0870, 2038.457
907.2130, 1966.661
908.3390, 1927.164
909.4650, 2163.933
910.5910, 1981.957
911.7170, 2049.237
912.8430, 2092.829
913.9680, 2229.340
915.0930, 2265.785
916.2180, 2425.316
917.3430, 2448.771
918.4680, 2704.667
919.5930, 2938.831
920.7170, 3013.271
921.8420, 3132.947
922.9660, 3221.904
924.0900, 3295.318
925.2140, 3361.549
926.3370, 3447.218
927.4610, 3536.120
928.5840, 3633.652
929.7070, 3634.621
930.8310, 3655.198
931.9530, 3644.747
933.0760, 3922.011
934.1990, 3509.263
935.3210, 3743.744
936.4430, 3566.439
937.5650, 3529.354
938.6870, 3560.480
939.8090, 3560.827
940.9310, 3640.389
942.0520, 3630.328
943.1730, 3668.162
944.2940, 3635.371
945.4150, 3621.798
946.5360, 3600.441
947.6570, 3643.301
948.7770, 3608.373
949.8970, 3679.658
951.0180, 3649.148
952.1370, 3669.849
953.2570, 3561.759
954.3770, 3795.871
955.4960, 3752.184
956.6160, 3791.697
957.7350, 3913.410
958.8540, 4045.321
959.9730, 4092.829
961.0910, 4226.755
962.2100, 4255.237
963.3280, 4415.938
964.4460, 4555.835
965.5640, 4602.926
966.6820, 4619.211
967.8000, 4968.688
968.9180, 4954.355
970.0350, 5369.217
971.1520, 5522.266
972.2690, 5874.500
973.3860, 5970.922
974.5030, 6493.529
975.6190, 7126.324
976.7360, 7255.299
977.8520, 7523.463
978.9680, 7968.812
980.0840, 8310.340
981.2000, 8969.052
982.3160, 9579.942
983.4310, 10100.01
984.5460, 10892.26
985.6610, 11679.69
986.7760, 12743.29
987.8910, 13789.07
989.0060, 15020.91
990.1200, 16069.15
991.2350, 17815.44
992.3490, 19392.92
993.4630, 21061.55
994.5760, 23241.36
995.6900, 25714.32
996.8040, 27791.03
997.9170, 30283.77
999.0300, 32839.25
1000.143, 35585.89
1001.256, 38921.67
1002.369, 41362.63
1003.481, 44440.74
1004.594, 46888.02
1005.706, 48460.50
1006.818, 49445.22
1007.930, 50228.17
1009.042, 49912.38
1010.153, 48057.85
1011.264, 46111.54
1012.376, 42813.80
1013.487, 38788.61
1014.598, 35047.75
1015.708, 30757.69
1016.819, 27303.84
1017.929, 23695.27
1019.040, 20840.28
1020.150, 18316.04
1021.260, 16241.23
1022.370, 14267.72
1023.479, 13114.96
1024.589, 11929.90
1025.698, 10917.97
1026.807, 10380.63
1027.916, 9593.317
1029.025, 8952.398
1030.133, 8681.332
1031.242, 8319.212
1032.350, 7940.584
1033.458, 7754.150
1034.566, 7350.687
1035.674, 7137.072
1036.782, 6892.593
1037.890, 6764.535
1038.997, 6700.432
1040.104, 6397.475
1041.211, 6095.827
1042.318, 6151.350
1043.425, 5920.033
1044.531, 5815.643
1045.638, 5538.203
1046.744, 5506.945
1047.850, 4947.865
1048.956, 4970.983
1050.061, 4863.900
1051.167, 4517.399
1052.272, 4441.290
1053.378, 4366.899
1054.483, 4110.781
1055.588, 4068.137
1056.692, 3773.691
1057.797, 3767.456
1058.901, 3465.352
1060.006, 3427.229
1061.110, 3503.719
1062.214, 3313.568
1063.318, 3080.607
1064.421, 3076.229
1065.525, 3012.275
1066.628, 2839.644
1067.731, 2856.283
1068.834, 2972.445
1069.937, 2786.876
1071.040, 2858.051
1072.142, 2690.626
1073.244, 2677.705
1074.347, 2575.213
1075.449, 2551.390
1076.550, 2658.554
1077.652, 2537.851
1078.754, 2572.614
1079.855, 2567.516
1080.956, 2533.905
1082.057, 2519.113
1083.158, 2489.539
1084.259, 2422.828
1085.359, 2388.328
1086.460, 2369.217
1087.560, 2294.569
1088.660, 2297.638
1089.760, 2240.135
1090.860, 2107.686
1091.959, 2268.573
1093.059, 2109.204
1094.158, 2014.562
1095.257, 2247.215
1096.356, 2063.752
1097.455, 2073.365
1098.553, 1980.273
1099.652, 2001.642
1100.750, 1952.434
1101.848, 1882.062
1102.946, 2009.412
1104.044, 1886.192
1105.141, 1910.470
1106.239, 1826.119
1107.336, 1707.583
1108.433, 1816.980
1109.530, 1735.590
1110.627, 1624.279
1111.724, 1599.897
1112.820, 1535.469
1113.917, 1513.750
1115.013, 1501.074
1116.109, 1476.301
1117.205, 1483.025
1118.300, 1534.346
1119.396, 1627.551
1120.491, 1485.136
1121.586, 1391.322
1122.681, 1192.336
1123.776, 1403.908
1124.871, 1119.744
1125.965, 1142.274
1127.060, 1158.856
1128.154, 893.7588
1129.248, 753.3213
1130.342, 714.0791
1131.436, 728.1396
1132.529, 466.5439
1133.623, 401.4717
1134.716, 453.3369
1135.809, 369.2568
1136.902, 258.2305
1137.995, 148.0518
1139.087, 32.66895
1140.180, 43.23340
1141.272, 165.6875
1142.364, 52.06152
1143.456, 39.64355
1144.548, 86.39258
1145.639, 197.3135
1146.731, 135.3760
1147.822, 192.6367
1148.913, 314.7744
1150.004, 250.9893
1151.095, 237.7793
1152.186, 187.9521
1153.276, 343.3291
1154.366, 171.4043
1155.457, 206.1162
1156.546, 296.0049
1157.636, 186.3037
1158.726, 274.9189
1159.815, 305.8145
1160.905, 153.0098
1161.994, 224.8223
1163.083, 66.50098
1164.172, 190.2930
1165.261, 151.4072
1166.349, 301.7578
1167.437, 106.4258
1168.526, 282.2070
1169.614, 116.0635
1170.702, 96.49512
1171.789, 223.0732
1172.877, 92.57520
1173.964, 41.75098
1175.051, 51.01758
1176.138, 251.9639
1177.225, 90.33789
1178.312, 7.579102
1179.399, 45.13867
1180.485, 157.6289
1181.571, 50.56641
1182.657, 68.01074
1183.743, 90.79004
1184.829, 59.33105
1185.915, 109.6895
1187.000, 37.10742
1188.085, 57.53418
1189.171, 135.5186
1190.255, 88.29980
1191.340, 79.52051
1192.425, 195.6426
1193.509, 242.3535
1194.594, 180.1348
1195.678, 260.8096
1196.762, 85.64258
1197.846, 134.6592
1198.929, 280.3066
1200.013, 223.4902
1201.096, 296.2744
1202.179, 230.9736
1203.262, 261.5117
1204.345, 247.8936
1205.428, 270.1143
1206.510, 278.1777
1207.593, 233.0840
1208.675, 261.8223
1209.757, 261.3965
1210.839, 291.8076
1211.920, 307.0566
1213.002, 360.1465
1214.083, 377.7734
1215.164, 308.8711
1216.245, 452.4951
1217.326, 444.9727
1218.407, 524.3047
1219.488, 479.4941
1220.568, 478.5381
1221.648, 569.4346
1222.728, 480.1895
1223.808, 517.7988
1224.888, 487.2607
1225.967, 505.5742
1227.047, 500.7407
1228.126, 588.7573
1229.205, 537.6313
1230.284, 620.3564
1231.363, 512.9409
1232.441, 728.3740
1233.520, 625.6675
1234.598, 745.8174
1235.676, 656.8315
1236.754, 699.7026
1237.832, 714.4326
1238.910, 529.0195
1239.987, 640.4541
1241.064, 654.7437
1242.141, 662.8882
1243.218, 727.8882
1244.295, 713.7451
1245.372, 732.4604
1246.448, 635.0317
1247.525, 699.4561
1248.601, 720.7363
1249.677, 872.8730
1250.753, 711.8711
1251.828, 745.7246
1252.904, 843.4346
1253.979, 772.0059
1255.054, 836.4341
1256.129, 814.7222
1257.204, 728.8696
1258.279, 799.8721
1259.353, 742.7334
1260.428, 898.4512
1261.502, 805.0308
1262.576, 961.4697
1263.650, 948.7705
1264.724, 883.9336
1265.797, 857.9580
1266.871, 880.8442
1267.944, 915.5903
1269.017, 913.2012
1270.090, 924.6738
1271.162, 931.1250
1272.235, 948.2119
1273.307, 918.9849
1274.380, 949.3345
1275.452, 911.4834
1276.524, 920.9717
1277.595, 833.3237
1278.667, 772.4707
1279.738, 842.0889
1280.810, 881.0132
1281.881, 893.5488
1282.952, 692.8433
1284.022, 785.4238
1285.093, 760.3296
1286.164, 773.1050
1287.234, 782.2871
1288.304, 796.4351
1289.374, 784.8730
1290.444, 590.0620
1291.513, 799.9824
1292.583, 694.3984
1293.652, 748.6079
1294.721, 873.8301
1295.790, 663.1929
1296.859, 627.4019
1297.928, 549.1699
1298.996, 627.9648
1300.064, 590.5947
1301.133, 483.8936
1302.201, 595.9985
1303.268, 543.9219
1304.336, 558.8940
1305.404, 586.8921
1306.471, 513.6797
1307.538, 632.2666
1308.605, 520.6279
1309.672, 589.1631
1310.739, 512.0859
1311.805, 505.5859
1312.872, 429.3262
1313.938, 570.7412
1315.004, 638.1211
1316.070, 654.1494
1317.135, 430.7715
1318.201, 520.3379
1319.266, 483.5977
1320.332, 441.1084
1321.397, 575.2373
1322.462, 391.3008
1323.526, 521.8223
1324.591, 527.7021
1325.655, 585.9551
1326.720, 520.8447
