##NAMES=Augite
##RRUFFID=R061108
##IDEAL CHEMISTRY=(Ca,Mg,Fe^2+^,Fe^3+^)_2_(Si,Al)_2_O_6_
##LOCALITY=Monti Rossi, near Mt. Etna, Sicily, Italy
##OWNER=RRUFF
##SOURCE=Michael Scott
##DESCRIPTION=Euhedral, short prismatic, black crystals in vesicular basalt.
##STATUS=The identification of this mineral is confirmed by single-crystal X-ray diffraction and chemical analysis.
##URL=rruff.info/R061108
##MEASURED CHEMISTRY=(Ca_0.86_Mg_0.74_Fe^2+^_0.18_Fe^3+^_0.08_Al_0.05_Ti_0.04_Na_0.04_Mn_0.01_)_Σ=2_(Si_1.83_Al_0.17_)_Σ=2_O_6_
##PIN_ID=L01364
##ORIENTATION=Laser parallel to b* (0 1 0). Fiducial mark perpendicular to laser is parallel to c [0 0 1]
163.5600, 0.0000000E+00
164.7860, 220.8398
166.0120, 325.4688
167.2380, 330.6914
168.4640, 330.7168
169.6890, 474.8789
170.9150, 831.3086
172.1400, 804.8164
173.3650, 784.4316
174.5900, 759.5586
175.8150, 768.8867
177.0400, 973.6582
178.2640, 1287.574
179.4880, 1253.203
180.7130, 1308.023
181.9370, 1293.111
183.1600, 1284.278
184.3840, 1205.139
185.6080, 1300.618
186.8310, 1532.973
188.0540, 1588.958
189.2770, 1493.957
190.5000, 1650.691
191.7230, 1655.276
192.9460, 1485.771
194.1680, 1402.875
195.3910, 1540.555
196.6130, 1491.784
197.8350, 1391.530
199.0570, 1482.771
200.2780, 1307.503
201.5000, 1344.704
202.7210, 1239.354
203.9420, 1300.434
205.1640, 601.9268
206.3840, 246.8145
207.6050, 59.91895
208.8260, 295.2891
210.0460, 204.3115
211.2670, 80.00098
212.4870, 38.38574
213.7070, 29.49512
214.9270, 8.340820
216.1460, 144.9316
217.3660, 10.27246
218.5850, 100.3701
219.8050, 112.7695
221.0240, 253.1396
222.2430, 132.7363
223.4610, 375.5527
224.6800, 338.5840
225.8980, 388.8193
227.1170, 358.2588
228.3350, 357.8926
229.5530, 521.7168
230.7710, 409.7246
231.9880, 319.9111
233.2060, 331.2939
234.4230, 451.9600
235.6400, 350.9277
236.8570, 268.1328
238.0740, 513.4883
239.2910, 549.9971
240.5080, 469.6719
241.7240, 498.5117
242.9400, 510.5400
244.1570, 593.6914
245.3730, 577.0273
246.5880, 659.5205
247.8040, 732.1719
249.0190, 774.9590
250.2350, 783.1670
251.4500, 750.8877
252.6650, 800.0273
253.8800, 733.2852
255.0950, 834.6572
256.3090, 701.5381
257.5240, 805.7402
258.7380, 846.5410
259.9520, 826.9668
261.1660, 567.1729
262.3800, 617.5566
263.5930, 543.7051
264.8070, 464.7715
266.0200, 292.1299
267.2330, 441.8467
268.4460, 331.6807
269.6590, 435.6270
270.8720, 455.5039
272.0850, 480.7578
273.2970, 531.1172
274.5090, 580.4873
275.7210, 657.9570
276.9330, 685.3115
278.1450, 860.1816
279.3570, 960.9307
280.5680, 976.5869
281.7790, 1292.688
282.9910, 1084.690
284.2020, 1178.771
285.4120, 1396.928
286.6230, 1492.159
287.8340, 1776.459
289.0440, 1741.830
290.2540, 1878.264
291.4640, 2202.762
292.6740, 2051.320
293.8840, 2496.936
295.0940, 2783.605
296.3030, 3034.328
297.5120, 3547.100
298.7210, 3544.920
299.9300, 4064.791
301.1390, 4435.150
302.3480, 5057.434
303.5560, 5384.373
304.7650, 5769.566
305.9730, 6142.593
307.1810, 6749.730
308.3890, 7203.383
309.5970, 7955.215
310.8040, 8734.330
312.0120, 9919.304
313.2190, 10467.61
314.4260, 11061.02
315.6330, 11768.07
316.8400, 11938.70
318.0460, 12424.42
319.2530, 12955.34
320.4590, 13549.43
321.6650, 13850.58
322.8710, 14123.40
324.0770, 14625.98
325.2830, 14365.35
326.4880, 14469.72
327.6940, 14485.20
328.8990, 14111.79
330.1040, 13780.48
331.3090, 13797.13
332.5140, 13204.02
333.7180, 12947.83
334.9230, 12604.71
336.1270, 12226.50
337.3310, 11803.30
338.5350, 11624.21
339.7390, 11351.22
340.9430, 11027.31
342.1460, 10876.49
343.3500, 10731.74
344.5530, 10621.06
345.7560, 10537.44
346.9590, 10438.89
348.1620, 10164.39
349.3640, 10078.96
350.5670, 9902.574
351.7690, 9949.244
352.9710, 9956.783
354.1730, 9627.927
355.3750, 9311.151
356.5760, 8953.536
357.7780, 8633.770
358.9790, 8308.616
360.1800, 7979.383
361.3810, 7673.022
362.5820, 7388.574
363.7830, 7115.625
364.9830, 6827.744
366.1840, 6582.244
367.3840, 6347.072
368.5840, 6136.279
369.7840, 5953.514
370.9840, 5828.770
372.1830, 5970.051
373.3830, 5819.354
374.5820, 6063.676
375.7810, 6136.338
376.9800, 6246.978
378.1790, 6462.750
379.3780, 6586.140
380.5760, 6804.541
381.7750, 7011.951
382.9730, 7269.372
384.1710, 7502.799
385.3690, 7947.232
386.5660, 7938.672
387.7640, 8140.115
388.9610, 8317.561
390.1590, 8140.006
391.3560, 7919.453
392.5530, 7407.896
393.7500, 7094.338
394.9460, 6576.775
396.1430, 5842.206
397.3390, 5534.631
398.5350, 4695.051
399.7310, 4168.460
400.9270, 3581.859
402.1230, 3080.250
403.3180, 2676.106
404.5140, 2273.982
405.7090, 1989.347
406.9040, 1684.689
408.0990, 1459.017
409.2930, 1303.332
410.4880, 947.6309
411.6820, 910.0137
412.8770, 948.1797
414.0710, 861.4268
415.2650, 614.6523
416.4590, 785.8584
417.6520, 854.0420
418.8460, 604.2021
420.0390, 690.3379
421.2320, 583.4482
422.4250, 458.5322
423.6180, 578.5879
424.8110, 555.6162
426.0030, 278.6143
427.1960, 350.5820
428.3880, 1024.519
429.5800, 1051.422
430.7720, 820.2910
431.9640, 401.1260
433.1550, 186.9238
434.3470, 309.6875
435.5380, 111.4131
436.7290, 187.0967
437.9200, 93.74121
439.1110, 20.34375
440.3020, 5.899414
441.4920, 3.410156
442.6820, 51.12891
443.8730, 117.7217
445.0630, 6.900391
446.2530, 31.99512
447.4420, 127.9619
448.6320, 148.7432
449.8210, 74.42871
451.0100, 14.07129
452.2000, 68.98242
453.3880, 43.90234
454.5770, 181.5488
455.7660, 356.6641
456.9540, 374.1045
458.1430, 365.2695
459.3310, 478.2363
460.5190, 567.4189
461.7070, 625.2549
462.8940, 971.6191
464.0820, 763.1514
465.2690, 968.9717
466.4560, 803.9658
467.6430, 730.6699
468.8300, 876.9824
470.0170, 984.1025
471.2040, 1043.274
472.3900, 889.2314
473.5760, 976.0713
474.7620, 1145.602
475.9480, 1050.019
477.1340, 1262.016
478.3200, 1191.801
479.5050, 1245.732
480.6900, 1325.128
481.8750, 1120.144
483.0600, 1414.151
484.2450, 1509.175
485.4300, 1596.057
486.6140, 1473.905
487.7990, 1644.359
488.9830, 1585.703
490.1670, 1936.938
491.3510, 2023.060
492.5350, 2199.070
493.7180, 2530.969
494.9020, 2599.752
496.0850, 2752.445
497.2680, 3331.105
498.4510, 3504.709
499.6340, 3907.222
500.8160, 4231.629
501.9990, 4640.927
503.1810, 4949.108
504.3630, 5165.207
505.5450, 5176.188
506.7270, 5157.069
507.9090, 5240.828
509.0900, 5112.464
510.2720, 5014.975
511.4530, 4743.361
512.6340, 4665.622
513.8150, 4415.754
514.9950, 4329.762
516.1760, 4219.641
517.3560, 4297.392
518.5370, 4300.012
519.7170, 4355.504
520.8970, 4535.863
522.0770, 4535.094
523.2560, 4753.191
524.4360, 4718.156
525.6150, 4896.989
526.7940, 5047.689
527.9730, 5182.254
529.1520, 5062.684
530.3310, 5344.980
531.5090, 5203.140
532.6870, 5312.164
533.8660, 5274.053
535.0440, 5282.805
536.2210, 5199.416
537.3990, 5316.893
538.5770, 4968.229
539.7540, 4831.424
540.9310, 4902.482
542.1080, 4750.400
543.2850, 4514.180
544.4620, 4652.816
545.6390, 4398.312
546.8150, 4332.668
547.9920, 4181.883
549.1680, 4164.953
550.3440, 4106.883
551.5190, 4111.669
552.6950, 3871.311
553.8710, 3846.811
555.0460, 3770.166
556.2210, 3875.377
557.3960, 3839.443
558.5710, 3723.366
559.7460, 3666.144
560.9200, 3617.776
562.0950, 3611.263
563.2690, 3618.604
564.4430, 3458.803
565.6170, 3418.856
566.7910, 3429.764
567.9640, 3311.523
569.1380, 3142.137
570.3110, 3039.602
571.4840, 3038.922
572.6570, 2767.094
573.8300, 2564.119
575.0030, 2644.990
576.1750, 2342.720
577.3470, 2368.938
578.5200, 2075.305
579.6920, 1961.113
580.8630, 1619.447
582.0350, 1352.461
583.2070, 1455.260
584.3780, 1183.975
585.5490, 961.5654
586.7200, 676.8516
587.8910, 573.1758
589.0620, 252.6533
590.2330, 341.0977
591.4030, 232.8232
592.5730, 26.70605
593.7430, 3.507813
594.9130, 63.40723
596.0830, 297.0869
597.2530, 290.7969
598.4220, 225.7969
599.5920, 336.2793
600.7610, 199.5977
601.9300, 340.6357
603.0990, 259.2646
604.2670, 158.2109
605.4360, 94.09473
606.6040, 61.78711
607.7720, 57.63379
608.9400, 20.72070
610.1080, 34.21777
611.2760, 38.99121
612.4440, 41.81641
613.6110, 39.25293
614.7780, 57.31836
615.9450, 152.0254
617.1120, 133.4170
618.2790, 362.4863
619.4460, 318.3154
620.6120, 465.8936
621.7780, 622.2588
622.9450, 676.4424
624.1110, 656.4521
625.2760, 925.2891
626.4420, 893.9727
627.6080, 1127.502
628.7730, 1303.883
629.9380, 1476.117
631.1030, 1641.204
632.2680, 1867.145
633.4330, 2243.939
634.5970, 2489.590
635.7620, 2811.098
636.9260, 3021.461
638.0900, 3314.684
639.2540, 3929.762
640.4180, 4596.701
641.5810, 5089.500
642.7450, 5613.160
643.9080, 6579.681
645.0710, 7482.064
646.2340, 8392.311
647.3970, 9536.421
648.5590, 11035.40
649.7220, 12527.24
650.8840, 14397.95
652.0460, 16824.53
653.2080, 18876.98
654.3700, 21637.30
655.5320, 24860.48
656.6930, 27998.54
657.8550, 31390.48
659.0160, 34990.28
660.1770, 38044.97
661.3380, 40456.52
662.4990, 42573.96
663.6590, 43949.28
664.8200, 44013.49
665.9800, 43058.56
667.1400, 41157.54
668.3000, 38462.38
669.4600, 34921.11
670.6190, 31544.72
671.7790, 27675.22
672.9380, 24343.62
674.0970, 21154.90
675.2560, 18594.07
676.4150, 15876.14
677.5740, 13869.09
678.7320, 11777.95
679.8900, 10224.69
681.0490, 8874.341
682.2070, 7827.884
683.3640, 6794.328
684.5220, 6017.672
685.6800, 5434.920
686.8370, 4836.070
687.9940, 4412.125
689.1510, 3802.088
690.3080, 3692.956
691.4650, 3385.734
692.6220, 3223.424
693.7780, 2922.024
694.9340, 2807.537
696.0900, 2759.966
697.2460, 2622.309
698.4020, 2543.570
699.5580, 2645.749
700.7130, 2506.849
701.8680, 2347.869
703.0240, 2609.488
704.1790, 2494.355
705.3330, 2335.150
706.4880, 2446.870
707.6430, 2394.521
708.7970, 2436.102
709.9510, 2362.784
711.1050, 2326.139
712.2590, 2217.438
713.4130, 2162.752
714.5660, 2193.006
715.7200, 2016.198
716.8730, 1766.333
718.0260, 1513.409
719.1790, 1222.431
720.3320, 1193.402
721.4840, 957.3262
722.6370, 840.2021
723.7890, 664.0381
724.9410, 458.5645
726.0930, 333.5195
727.2450, 184.4209
728.3960, 96.45703
729.5480, 161.4492
730.6990, 271.4131
731.8500, 248.0957
733.0010, 293.7881
734.1520, 436.3662
735.3030, 411.5977
736.4530, 471.3281
737.6040, 518.9668
738.7540, 499.6006
739.9040, 517.6328
741.0540, 453.4980
742.2030, 405.2861
743.3530, 313.9307
744.5020, 264.2246
745.6520, 137.8086
746.8010, 117.1973
747.9490, 152.2842
749.0980, 19.72559
750.2470, 60.61523
751.3950, 376.6465
752.5440, 424.7295
753.6920, 456.0576
754.8400, 472.4365
755.9870, 623.1777
757.1350, 824.0742
758.2820, 929.7676
759.4300, 1059.944
760.5770, 1125.452
761.7240, 1224.914
762.8710, 1401.312
764.0170, 1472.803
765.1640, 1355.279
766.3100, 1682.106
767.4560, 1504.998
768.6020, 1630.954
769.7480, 1665.979
770.8940, 1727.075
772.0400, 1700.244
773.1850, 1696.487
774.3300, 1672.438
775.4750, 1590.674
776.6200, 1538.682
777.7650, 1429.242
778.9090, 1260.886
780.0540, 1219.617
781.1980, 1276.437
782.3420, 1051.347
783.4860, 937.3477
784.6300, 714.4424
785.7740, 650.6338
786.9170, 856.9219
788.0600, 700.3096
789.2030, 865.7979
790.3460, 531.3906
791.4890, 667.0879
792.6320, 502.8926
793.7740, 449.8047
794.9170, 457.8271
796.0590, 397.8311
797.2010, 456.2109
798.3430, 419.5752
799.4850, 418.0566
800.6260, 480.6572
801.7670, 572.3799
802.9090, 438.2236
804.0500, 467.9805
805.1910, 650.2852
806.3310, 435.5059
807.4720, 629.8555
808.6120, 787.3369
809.7530, 870.9492
810.8930, 730.6953
812.0330, 809.5781
813.1720, 668.5977
814.3120, 823.7559
815.4510, 822.0537
816.5910, 901.4932
817.7300, 1041.076
818.8690, 760.8037
820.0080, 961.6787
821.1460, 767.7012
822.2850, 1034.873
823.4230, 843.1953
824.5610, 933.6699
825.6990, 1003.298
826.8370, 746.0811
827.9750, 812.0215
829.1120, 662.1201
830.2500, 693.3779
831.3870, 697.7959
832.5240, 511.3770
833.6610, 554.1221
834.7980, 556.0322
835.9340, 307.1094
837.0700, 459.3535
838.2070, 68.76758
839.3430, 82.64844
840.4790, 193.0996
841.6140, 71.02051
842.7500, 109.1182
843.8850, 107.3887
845.0210, 244.8389
846.1560, 359.4648
847.2910, 419.2715
848.4260, 571.2598
849.5600, 720.4287
850.6950, 905.7822
851.8290, 1197.320
852.9630, 1394.043
854.0970, 1562.953
855.2310, 1809.053
856.3650, 1941.340
857.4980, 2101.816
858.6310, 2067.488
859.7650, 2249.350
860.8980, 2148.404
862.0310, 2206.658
863.1630, 2084.113
864.2960, 1941.781
865.4280, 1880.621
866.5600, 1858.857
867.6920, 1785.074
868.8240, 1715.033
869.9560, 1625.312
871.0880, 1495.992
872.2190, 1339.154
873.3500, 1048.398
874.4810, 1058.246
875.6120, 1267.270
876.7430, 894.3965
877.8740, 1075.979
879.0040, 919.7656
880.1340, 931.4043
881.2650, 977.8105
882.3950, 919.3340
883.5240, 1079.006
884.6540, 982.1875
885.7830, 1009.666
886.9130, 920.6094
888.0420, 995.9766
889.1710, 1075.762
890.3000, 1019.953
891.4280, 1006.576
892.5570, 1164.615
893.6850, 1140.057
894.8130, 1162.848
895.9420, 1126.012
897.0690, 1261.535
898.1970, 1346.383
899.3250, 1355.326
900.4520, 1295.092
901.5790, 1380.898
902.7060, 1332.010
903.8330, 1257.449
904.9600, 1468.191
906.0870, 1454.252
907.2130, 1664.617
908.3390, 1624.270
909.4650, 1809.217
910.5910, 1784.438
911.7170, 1720.949
912.8430, 1888.758
913.9680, 1971.865
915.0930, 2006.258
916.2180, 2076.922
917.3430, 2273.865
918.4680, 2398.084
919.5930, 2533.582
920.7170, 2588.367
921.8420, 2758.418
922.9660, 2974.740
924.0900, 3019.322
925.2140, 2836.182
926.3370, 3268.322
927.4610, 3022.713
928.5840, 3159.389
929.7070, 3269.332
930.8310, 3348.527
931.9530, 3273.977
933.0760, 3294.695
934.1990, 3228.686
935.3210, 3218.088
936.4430, 3173.408
937.5650, 3187.137
938.6870, 3244.115
939.8090, 3232.336
940.9310, 3340.797
942.0520, 3142.504
943.1730, 3208.455
944.2940, 3110.643
945.4150, 3282.062
946.5360, 3137.719
947.6570, 3225.633
948.7770, 3054.793
949.8970, 3208.189
951.0180, 3241.820
952.1370, 3327.676
953.2570, 3359.646
954.3770, 3062.088
955.4960, 3336.637
956.6160, 3414.412
957.7350, 3311.422
958.8540, 3536.660
959.9730, 3578.129
961.0910, 3536.820
962.2100, 3661.742
963.3280, 3939.887
964.4460, 3747.260
965.5640, 3969.852
966.6820, 4168.666
967.8000, 4169.705
968.9180, 4476.969
970.0350, 4547.449
971.1520, 4523.148
972.2690, 4765.062
973.3860, 5194.191
974.5030, 5361.858
975.6190, 5772.412
976.7360, 6008.178
977.8520, 6259.155
978.9680, 6606.346
980.0840, 6893.744
981.2000, 7223.347
982.3160, 7750.155
983.4310, 8001.170
984.5460, 8741.388
985.6610, 9257.807
986.7760, 10118.43
987.8910, 10809.25
989.0060, 11627.28
990.1200, 12762.50
991.2350, 13760.92
992.3490, 15249.54
993.4630, 16502.35
994.5760, 18191.36
995.6900, 20025.56
996.8040, 21761.95
997.9170, 23569.53
999.0300, 25986.29
1000.143, 28185.28
1001.256, 30954.49
1002.369, 32921.95
1003.481, 35213.64
1004.594, 37333.60
1005.706, 39256.81
1006.818, 40529.31
1007.930, 40729.07
1009.042, 40822.11
1010.153, 39841.43
1011.264, 38030.00
1012.376, 35766.54
1013.487, 32951.35
1014.598, 29480.85
1015.708, 26692.66
1016.819, 23525.46
1017.929, 20681.29
1019.040, 18315.69
1020.150, 16220.17
1021.260, 14758.27
1022.370, 13199.69
1023.479, 12212.44
1024.589, 11341.38
1025.698, 10358.29
1026.807, 9969.916
1027.916, 9506.068
1029.025, 9249.972
1030.133, 8824.129
1031.242, 8806.194
1032.350, 8307.261
1033.458, 8652.673
1034.566, 8426.731
1035.674, 7958.498
1036.782, 8027.801
1037.890, 7877.557
1038.997, 7651.750
1040.104, 7733.298
1041.211, 7324.465
1042.318, 7306.383
1043.425, 7154.559
1044.531, 6746.070
1045.638, 6439.877
1046.744, 6347.986
1047.850, 5935.004
1048.956, 5662.987
1050.061, 5450.465
1051.167, 5163.074
1052.272, 4950.692
1053.378, 4705.330
1054.483, 4442.490
1055.588, 4245.344
1056.692, 3983.492
1057.797, 3802.829
1058.901, 3703.426
1060.006, 3550.336
1061.110, 3547.821
1062.214, 3187.613
1063.318, 3170.549
1064.421, 3130.454
1065.525, 2929.970
1066.628, 3037.571
1067.731, 2788.129
1068.834, 2848.084
1069.937, 2792.729
1071.040, 2797.404
1072.142, 2660.476
1073.244, 2739.421
1074.347, 2673.809
1075.449, 2743.565
1076.550, 2630.210
1077.652, 2626.167
1078.754, 2538.835
1079.855, 2560.241
1080.956, 2464.572
1082.057, 2459.592
1083.158, 2579.818
1084.259, 2318.906
1085.359, 2447.021
1086.460, 2621.739
1087.560, 2489.360
1088.660, 2360.982
1089.760, 2388.071
1090.860, 2419.186
1091.959, 2341.207
1093.059, 2269.975
1094.158, 2158.273
1095.257, 2284.978
1096.356, 2273.167
1097.455, 2477.290
1098.553, 2245.891
1099.652, 2221.124
1100.750, 2123.617
1101.848, 2177.775
1102.946, 2298.016
1104.044, 2210.297
1105.141, 2325.560
1106.239, 2222.715
1107.336, 2251.124
1108.433, 2143.310
1109.530, 2265.523
1110.627, 1962.526
1111.724, 1955.989
1112.820, 2054.254
1113.917, 1929.560
1115.013, 1941.789
1116.109, 1959.196
1117.205, 1771.730
1118.300, 1799.166
1119.396, 1937.022
1120.491, 1741.505
1121.586, 1757.466
1122.681, 1688.706
1123.776, 1551.802
1124.871, 1477.922
1125.965, 1384.552
1127.060, 1316.104
1128.154, 1176.396
1129.248, 1122.678
1130.342, 922.2100
1131.436, 797.3291
1132.529, 740.3711
1133.623, 483.1094
1134.716, 656.0381
1135.809, 588.8213
1136.902, 358.4355
1137.995, 375.8438
1139.087, 179.6631
1140.180, 248.2812
1141.272, 212.5537
1142.364, 281.3076
1143.456, 12.80859
1144.548, 11.02734
1145.639, 140.0137
1146.731, 118.0576
1147.822, 160.3428
1148.913, 294.1084
1150.004, 277.5605
1151.095, 349.3389
1152.186, 301.9863
1153.276, 266.4736
1154.366, 230.8594
1155.457, 400.5293
1156.546, 327.8389
1157.636, 410.6768
1158.726, 187.8555
1159.815, 335.1943
1160.905, 331.4834
1161.994, 226.8457
1163.083, 314.9336
1164.172, 153.8398
1165.261, 141.0615
1166.349, 161.2920
1167.437, 226.5957
1168.526, 147.4883
1169.614, 179.6777
1170.702, 131.0859
1171.789, 70.87988
1172.877, 76.60938
1173.964, 10.90625
1175.051, 58.02539
1176.138, 72.76074
1177.225, 87.74219
1178.312, 16.87305
1179.399, 21.66797
1180.485, 2.744141
1181.571, 22.58691
1182.657, 11.15527
1183.743, 10.15527
1184.829, 69.30078
1185.915, 53.55957
1187.000, 132.6113
1188.085, 25.48438
1189.171, 26.13184
1190.255, 197.5518
1191.340, 20.80273
1192.425, 77.81738
1193.509, 223.6201
1194.594, 164.2539
1195.678, 101.7021
1196.762, 82.93945
1197.846, 232.9580
1198.929, 313.7998
1200.013, 245.4814
1201.096, 251.9854
1202.179, 285.3154
1203.262, 352.4717
1204.345, 286.4668
1205.428, 278.2871
1206.510, 397.9287
1207.593, 465.4092
1208.675, 414.7363
1209.757, 177.9043
1210.839, 288.8594
1211.920, 355.6309
1213.002, 484.2285
1214.083, 508.6680
1215.164, 429.9502
1216.245, 468.0664
1217.326, 483.0186
1218.407, 606.8096
1219.488, 397.4756
1220.568, 463.9355
1221.648, 413.2295
1222.728, 607.3457
1223.808, 467.3057
1224.888, 520.0957
1225.967, 486.7197
1227.047, 587.1738
1228.126, 543.4658
1229.205, 497.5928
1230.284, 483.5479
1231.363, 600.3281
1232.441, 593.9463
1233.520, 592.4004
1234.598, 754.6885
1235.676, 612.8252
1236.754, 637.7988
1237.832, 686.6074
1238.910, 606.2559
1239.987, 638.7383
1241.064, 704.0557
1242.141, 743.2129
1243.218, 729.2109
1244.295, 743.0488
1245.372, 711.7266
1246.448, 696.2432
1247.525, 706.9766
1248.601, 809.7861
1249.677, 698.8193
1250.753, 769.6875
1251.828, 724.1270
1252.904, 738.9424
1253.979, 733.3271
1255.054, 814.5479
1256.129, 822.6113
1257.204, 874.5156
1258.279, 866.2627
1259.353, 794.8770
1260.428, 881.3086
1261.502, 887.5811
1262.576, 946.6982
1263.650, 887.6621
1264.724, 908.4678
1265.797, 934.1191
1266.871, 967.6162
1267.944, 853.9600
1269.017, 885.1455
1270.090, 951.1758
1271.162, 818.0508
1272.235, 1036.769
1273.307, 1052.623
1274.380, 931.2930
1275.452, 901.3223
1276.524, 917.0869
1277.595, 980.8799
1278.667, 828.6768
1279.738, 830.9170
1280.810, 961.0645
1281.881, 825.6094
1282.952, 722.8164
1284.022, 716.6943
1285.093, 763.3662
1286.164, 795.0664
1287.234, 765.0381
1288.304, 731.4756
1289.374, 619.1514
1290.444, 897.5537
1291.513, 626.0342
1292.583, 721.4990
1293.652, 811.6016
1294.721, 655.0391
1295.790, 596.7480
1296.859, 647.9014
1297.928, 642.5762
1298.996, 611.7930
1300.064, 628.6299
1301.133, 547.8223
1302.201, 635.2373
1303.268, 516.3643
1304.336, 614.1270
1305.404, 612.5654
1306.471, 547.6699
1307.538, 639.8359
1308.605, 587.4424
1309.672, 518.6396
1310.739, 652.1104
1311.805, 724.5352
1312.872, 653.9004
1313.938, 703.2568
1315.004, 586.7803
1316.070, 619.5137
1317.135, 650.0107
1318.201, 540.2021
1319.266, 670.0352
1320.332, 665.2412
1321.397, 631.0928
1322.462, 635.7480
1323.526, 537.3818
1324.591, 544.3525
1325.655, 690.1836
1326.720, 606.0020
1327.784, 579.3643
1328.848, 610.9814
