##NAMES=Augite
##RRUFFID=R070231
##IDEAL CHEMISTRY=(Ca,Mg,Fe^2+^,Fe^3+^)_2_(Si,Al)_2_O_6_
##LOCALITY=Old Goose Creek Quarry, Leesburg, Loudoun County, Virginia, USA
##OWNER=RRUFF
##SOURCE=Michael Scott
##DESCRIPTION=Very dark grey-green prismatic crystals frozen in quartz
##STATUS=The identification of this mineral is confirmed by single-crystal X-ray diffraction and chemical analysis.
##URL=rruff.info/R070231
##MEASURED CHEMISTRY=(Mg_0.44_Fe_0.37_Ca_0.17_Ti_0.01_Mn_0.01_)_Σ=1_(Si_0.98_Al_0.02_)_Σ=1_O_3_
##PIN_ID=M00357
##ORIENTATION=Laser parallel to b* (0 1 0). Fiducial mark perpendicular to laser is parallel to c [0 0 1]
132.5420, 0.0000000E+00
133.7780, 5.998047
135.0140, 66.20312
136.2500, 21.69531
137.4850, 182.5117
138.7200, 264.3066
139.9550, 1139.342
141.1900, 472.6270
142.4250, 375.6348
143.6600, 194.6797
144.8940, 1445.762
146.1280, 911.9453
147.3620, 1471.889
148.5960, 1375.699
149.8300, 1359.104
151.0630, 1323.252
152.2960, 1317.207
153.5300, 851.4854
154.7620, 781.7295
155.9950, 483.7002
157.2280, 128.2402
158.4600, 45.74805
159.6920, 117.9316
160.9250, 55.73047
162.1560, 337.5908
163.3880, 413.4658
164.6200, 897.4658
165.8510, 945.9746
167.0820, 906.1445
168.3130, 1228.848
169.5440, 1407.763
170.7750, 1715.519
172.0050, 1803.786
173.2350, 1571.955
174.4650, 1781.241
175.6950, 1909.869
176.9250, 1962.176
178.1550, 1713.422
179.3840, 1850.905
180.6130, 1832.232
181.8420, 1806.322
183.0710, 1995.700
184.3000, 1786.186
185.5280, 1956.822
186.7570, 1992.510
187.9850, 2036.684
189.2130, 1985.930
190.4400, 2061.286
191.6680, 2004.553
192.8960, 1909.998
194.1230, 2090.801
195.3500, 2206.487
196.5770, 2241.588
197.8030, 1971.232
199.0300, 2094.994
200.2560, 2034.143
201.4830, 1968.011
202.7090, 2108.371
203.9340, 1845.637
205.1600, 1979.958
206.3860, 1952.618
207.6110, 1992.907
208.8360, 1839.459
210.0610, 1990.896
211.2860, 2334.190
212.5100, 2519.378
213.7350, 2789.718
214.9590, 2951.818
216.1830, 3186.770
217.4070, 3175.423
218.6310, 3234.058
219.8540, 3223.372
221.0780, 3203.383
222.3010, 3334.421
223.5240, 3095.546
224.7470, 3118.785
225.9690, 3091.176
227.1920, 2870.714
228.4140, 2678.403
229.6360, 2327.249
230.8580, 2061.256
232.0800, 2070.396
233.3020, 1833.658
234.5230, 1661.014
235.7440, 1581.434
236.9650, 1374.890
238.1860, 1075.344
239.4070, 1045.771
240.6280, 670.1406
241.8480, 787.4375
243.0680, 857.6523
244.2880, 919.7832
245.5080, 330.8291
246.7280, 438.7910
247.9470, 162.6709
249.1660, 266.4688
250.3860, 47.18066
251.6040, 118.8105
252.8230, 263.6641
254.0420, 75.70996
255.2600, 32.84180
256.4790, 66.22168
257.6970, 200.3818
258.9150, 79.79492
260.1320, 114.5225
261.3500, 155.7490
262.5670, 18.98633
263.7840, 204.6133
265.0010, 33.66895
266.2180, 20.56152
267.4350, 64.33398
268.6510, 7.171875
269.8680, 30.76270
271.0840, 101.5596
272.3000, 147.0947
273.5160, 116.2598
274.7310, 374.5303
275.9470, 8.642578
277.1620, 289.6152
278.3770, 138.4473
279.5920, 339.7031
280.8070, 373.8398
282.0210, 503.5332
283.2360, 642.7930
284.4500, 803.3467
285.6640, 875.2549
286.8780, 944.9541
288.0920, 954.3262
289.3050, 1157.068
290.5180, 1378.181
291.7320, 1456.528
292.9450, 1649.567
294.1570, 2030.156
295.3700, 1964.686
296.5830, 2328.104
297.7950, 2580.173
299.0070, 2771.183
300.2190, 3248.520
301.4310, 3467.832
302.6420, 3761.857
303.8540, 4359.339
305.0650, 4802.303
306.2760, 5373.527
307.4870, 5999.621
308.6980, 6643.832
309.9080, 7215.061
311.1190, 7985.040
312.3290, 8705.722
313.5390, 9120.309
314.7490, 9800.326
315.9580, 10301.14
317.1680, 10426.99
318.3770, 10737.70
319.5860, 10846.13
320.7950, 10570.41
322.0040, 10389.83
323.2130, 10072.98
324.4210, 9432.477
325.6290, 8943.721
326.8380, 8253.404
328.0460, 7952.033
329.2530, 7635.869
330.4610, 7067.988
331.6680, 6924.164
332.8760, 6533.479
334.0830, 6415.277
335.2890, 6219.725
336.4960, 6245.598
337.7030, 6190.342
338.9090, 6062.396
340.1150, 6068.304
341.3210, 6003.145
342.5270, 6015.718
343.7330, 6096.321
344.9380, 6105.707
346.1440, 6258.843
347.3490, 6369.202
348.5540, 6355.701
349.7590, 6229.072
350.9630, 6268.306
352.1680, 6236.419
353.3720, 6323.429
354.5760, 6259.355
355.7800, 5965.209
356.9840, 6022.000
358.1870, 5781.643
359.3910, 5842.410
360.5940, 5485.029
361.7970, 5417.591
363.0000, 5416.092
364.2030, 5371.533
365.4050, 4911.918
366.6080, 5036.241
367.8100, 4892.508
369.0120, 4894.715
370.2140, 4985.860
371.4150, 5107.945
372.6170, 5266.969
373.8180, 5328.928
375.0190, 5490.822
376.2200, 5883.650
377.4210, 6241.412
378.6220, 6415.104
379.8220, 6582.729
381.0230, 6979.283
382.2230, 7062.770
383.4230, 7154.022
384.6220, 7203.104
385.8220, 7311.563
387.0220, 7210.465
388.2210, 6913.609
389.4200, 6520.963
390.6190, 5949.387
391.8180, 5617.627
393.0160, 5045.579
394.2150, 4533.370
395.4130, 4131.904
396.6110, 3654.322
397.8090, 3078.761
399.0060, 2684.051
400.2040, 2249.335
401.4010, 1973.190
402.5980, 1724.465
403.7950, 1569.885
404.9920, 1366.994
406.1890, 1287.561
407.3860, 1098.554
408.5820, 1043.143
409.7780, 957.7803
410.9740, 994.8848
412.1700, 983.3701
413.3650, 949.3086
414.5610, 897.5986
415.7560, 911.4336
416.9510, 934.6270
418.1460, 927.5391
419.3410, 933.7471
420.5360, 879.1143
421.7300, 904.4102
422.9240, 901.4180
424.1180, 851.8438
425.3120, 957.2451
426.5060, 949.0400
427.7000, 922.2803
428.8930, 939.2295
430.0860, 898.6973
431.2790, 857.1455
432.4720, 807.2031
433.6650, 695.0078
434.8580, 586.8955
436.0500, 463.6689
437.2420, 454.3438
438.4340, 298.9131
439.6260, 252.3945
440.8180, 270.7490
442.0090, 255.2861
443.2010, 165.5039
444.3920, 97.69531
445.5830, 110.8848
446.7740, 45.02930
447.9640, 14.48047
449.1550, 85.01172
450.3450, 161.6943
451.5350, 98.86426
452.7250, 101.8281
453.9150, 156.6279
455.1050, 283.8945
456.2940, 132.9531
457.4830, 272.4375
458.6720, 281.2881
459.8610, 167.1455
461.0500, 187.4482
462.2390, 221.0469
463.4270, 143.8447
464.6150, 226.1035
465.8040, 86.75391
466.9910, 222.8770
468.1790, 82.53027
469.3670, 109.4043
470.5540, 106.0049
471.7410, 154.1152
472.9280, 202.1279
474.1150, 113.1357
475.3020, 163.9863
476.4890, 192.6855
477.6750, 325.2373
478.8610, 249.6543
480.0470, 237.9297
481.2330, 430.0625
482.4190, 399.0684
483.6040, 572.9434
484.7900, 643.6982
485.9750, 583.3350
487.1600, 750.8535
488.3450, 948.2607
489.5290, 845.5615
490.7140, 1168.757
491.8980, 1395.852
493.0820, 1460.846
494.2660, 1710.738
495.4500, 1972.533
496.6340, 2175.228
497.8170, 2337.823
499.0010, 2723.318
500.1840, 2835.715
501.3670, 3086.013
502.5500, 3143.211
503.7320, 3333.309
504.9150, 3517.309
506.0970, 3428.209
507.2790, 3548.011
508.4610, 3415.713
509.6430, 3381.314
510.8250, 3487.819
512.0060, 3361.223
513.1870, 3346.528
514.3680, 3344.735
515.5490, 3391.844
516.7300, 3567.853
517.9110, 3568.764
519.0910, 3941.574
520.2710, 3969.288
521.4510, 4308.903
522.6310, 4187.420
523.8110, 4343.840
524.9910, 4358.160
526.1700, 4538.388
527.3490, 4611.523
528.5280, 4696.574
529.7070, 4621.534
530.8860, 4754.408
532.0650, 4711.191
533.2430, 4742.896
534.4210, 4728.522
535.5990, 4662.086
536.7770, 4601.555
537.9550, 4528.966
539.1320, 4436.307
540.3100, 4386.652
541.4870, 4185.948
542.6640, 4233.182
543.8410, 4176.348
545.0170, 4346.503
546.1940, 4261.607
547.3700, 4200.697
548.5470, 4226.762
549.7230, 4245.758
550.8980, 4325.745
552.0740, 4367.674
553.2500, 4287.555
554.4250, 4403.395
555.6000, 4502.197
556.7750, 4106.967
557.9500, 4257.688
559.1250, 4044.396
560.2990, 3855.070
561.4730, 3666.718
562.6480, 3491.609
563.8220, 3279.909
564.9950, 3188.467
566.1690, 2993.200
567.3430, 2896.482
568.5160, 2552.984
569.6890, 2397.445
570.8620, 1986.850
572.0350, 2060.173
573.2070, 1663.411
574.3800, 1564.564
575.5520, 1319.269
576.7240, 1202.442
577.8960, 1088.022
579.0680, 773.4863
580.2400, 712.5723
581.4110, 774.6895
582.5830, 401.1562
583.7540, 247.4707
584.9250, 32.68555
586.0950, 105.6514
587.2660, 81.09082
588.4370, 9.657227
589.6070, 233.4902
590.7770, 220.1885
591.9470, 355.9326
593.1170, 274.5371
594.2860, 289.6152
595.4560, 378.7480
596.6250, 329.7725
597.7940, 275.2549
598.9630, 379.1865
600.1320, 254.5664
601.3000, 105.3320
602.4690, 81.25098
603.6370, 167.1855
604.8050, 30.72754
605.9730, 107.7324
607.1410, 55.20898
608.3090, 97.72070
609.4760, 258.6855
610.6430, 277.0195
611.8100, 346.2188
612.9770, 324.0293
614.1440, 521.3750
615.3110, 703.4795
616.4770, 647.2285
617.6430, 815.2803
618.8090, 927.4512
619.9750, 1022.940
621.1410, 1130.279
622.3070, 1317.853
623.4720, 1425.247
624.6370, 1593.320
625.8020, 1834.640
626.9670, 1980.710
628.1320, 2212.605
629.2970, 2336.791
630.4610, 2706.771
631.6250, 2843.409
632.7890, 3197.990
633.9530, 3536.516
635.1170, 3779.986
636.2810, 4352.401
637.4440, 4858.764
638.6070, 5262.074
639.7700, 6042.330
640.9330, 6488.535
642.0960, 7228.688
643.2590, 8069.789
644.4210, 8852.841
645.5830, 9786.845
646.7450, 11104.80
647.9070, 12155.71
649.0690, 13831.57
650.2310, 15467.38
651.3920, 17242.15
652.5530, 19611.87
653.7140, 22322.55
654.8750, 25112.19
656.0360, 28306.78
657.1970, 31797.33
658.3570, 35213.83
659.5170, 38552.30
660.6770, 41491.73
661.8370, 43433.12
662.9970, 44378.47
664.1570, 44207.88
665.3160, 43512.06
666.4750, 41101.30
667.6340, 37902.49
668.7930, 34401.66
669.9520, 30824.79
671.1110, 26966.90
672.2690, 23420.97
673.4270, 20332.00
674.5850, 17728.00
675.7430, 15501.98
676.9010, 13390.92
678.0590, 11944.83
679.2160, 10594.71
680.3730, 9513.570
681.5300, 8677.396
682.6870, 7783.195
683.8440, 7252.248
685.0010, 6719.994
686.1570, 6373.115
687.3130, 5840.809
688.4690, 5723.479
689.6250, 5638.805
690.7810, 5435.426
691.9370, 5282.338
693.0920, 5208.262
694.2470, 5384.162
695.4020, 5183.955
696.5570, 5390.304
697.7120, 5493.154
698.8670, 5560.750
700.0210, 5693.007
701.1750, 5846.084
702.3290, 6035.249
703.4830, 6194.455
704.6370, 6371.822
705.7910, 6550.963
706.9440, 6753.549
708.0970, 6925.650
709.2510, 7136.002
710.4030, 7219.476
711.5560, 7207.697
712.7090, 7613.901
713.8610, 7465.087
715.0140, 7705.254
716.1660, 7717.410
717.3180, 7857.557
718.4690, 7866.689
719.6210, 7738.796
720.7730, 7741.918
721.9240, 7861.748
723.0750, 7671.785
724.2260, 7602.748
725.3770, 7659.609
726.5270, 7278.482
727.6780, 7218.856
728.8280, 7056.168
729.9780, 6830.307
731.1280, 6679.930
732.2780, 6447.553
733.4280, 6223.490
734.5770, 5964.744
735.7260, 5718.110
736.8760, 5415.952
738.0250, 5101.329
739.1730, 4812.596
740.3220, 4571.312
741.4700, 4215.631
742.6190, 4068.646
743.7670, 3606.096
744.9150, 3645.055
746.0630, 3392.432
747.2100, 3025.184
748.3580, 2727.604
749.5050, 2580.198
750.6520, 2688.180
751.7990, 2508.160
752.9460, 2378.171
754.0930, 2123.001
755.2390, 2014.008
756.3860, 1914.419
757.5320, 1991.183
758.6780, 1766.353
759.8240, 1866.578
760.9690, 1778.854
762.1150, 1658.186
763.2600, 1738.566
764.4060, 1718.998
765.5510, 1666.481
766.6950, 1542.016
767.8400, 1707.598
768.9850, 1448.230
770.1290, 1483.910
771.2730, 1471.641
772.4170, 1620.420
773.5610, 1378.249
774.7050, 1632.131
775.8480, 1727.066
776.9920, 1569.055
778.1350, 1534.098
779.2780, 1513.195
780.4210, 1456.348
781.5640, 1473.559
782.7060, 1450.827
783.8490, 1390.153
784.9910, 1321.540
786.1330, 1346.986
787.2750, 1297.491
788.4170, 1189.061
789.5580, 1191.690
790.7000, 1148.384
791.8410, 1015.141
792.9820, 955.9609
794.1230, 829.8477
795.2640, 915.7998
796.4040, 724.8174
797.5450, 723.9023
798.6850, 532.0547
799.8250, 674.2773
800.9650, 641.5674
802.1050, 477.5479
803.2450, 572.3584
804.3840, 267.8604
805.5230, 215.4336
806.6630, 339.0791
807.8020, 312.7988
808.9400, 25.58984
810.0790, 225.4541
811.2170, 127.3936
812.3560, 29.40820
813.4940, 133.4971
814.6320, 105.6631
815.7700, 99.90527
816.9070, 75.22559
818.0450, 26.62305
819.1820, 123.0986
820.3190, 1.654297
821.4560, 86.28320
822.5930, 119.0088
823.7300, 108.7363
824.8670, 57.56348
826.0030, 15.52832
827.1390, 33.45117
828.2750, 67.48535
829.4110, 146.3643
830.5470, 147.2119
831.6820, 146.0264
832.8180, 136.8066
833.9530, 309.5488
835.0880, 217.3174
836.2230, 278.0742
837.3580, 231.8428
838.4920, 139.6045
839.6270, 331.3242
840.7610, 195.0732
841.8950, 365.7998
843.0290, 425.5664
844.1630, 242.3965
845.2960, 154.2178
846.4300, 3.998047
847.5630, 147.3076
848.6960, 330.7061
849.8290, 510.1982
850.9620, 566.7822
852.0940, 836.4600
853.2270, 943.2314
854.3590, 1250.098
855.4910, 1345.060
856.6230, 1474.116
857.7550, 1410.270
858.8870, 1379.523
860.0180, 1346.885
861.1500, 1113.399
862.2810, 1250.035
863.4120, 1215.837
864.5430, 901.7871
865.6730, 974.9434
866.8040, 721.3047
867.9340, 799.9043
869.0640, 741.7256
870.1940, 612.7676
871.3240, 505.0576
872.4540, 488.5820
873.5830, 733.3252
874.7130, 570.3154
875.8420, 755.5215
876.9710, 682.9111
878.1000, 694.4873
879.2290, 713.2686
880.3570, 803.2119
881.4860, 903.3672
882.6140, 944.7070
883.7420, 928.1709
884.8700, 1107.777
885.9980, 1108.506
887.1250, 1300.341
888.2530, 1214.315
889.3800, 1354.436
890.5070, 1360.688
891.6340, 1381.069
892.7610, 1387.623
893.8880, 1457.293
895.0140, 1541.105
896.1400, 1457.038
897.2670, 1523.118
898.3930, 1606.335
899.5180, 1681.700
900.6440, 1612.210
901.7700, 1664.865
902.8950, 1709.682
904.0200, 1850.641
905.1450, 1914.733
906.2700, 1839.952
907.3950, 1928.312
908.5190, 1939.806
909.6440, 2176.483
910.7680, 2351.326
911.8920, 2171.305
913.0160, 2328.439
914.1400, 2366.364
915.2630, 2523.074
916.3870, 2569.609
917.5100, 2562.273
918.6330, 2784.064
919.7560, 2753.608
920.8790, 2721.984
922.0010, 2782.130
923.1240, 2842.381
924.2460, 2776.739
925.3680, 2808.215
926.4900, 2624.794
927.6120, 2779.488
928.7340, 2552.317
929.8550, 2611.274
930.9760, 2391.352
932.0980, 2400.537
933.2190, 2368.827
934.3390, 2528.223
935.4600, 2331.736
936.5810, 2240.357
937.7010, 2341.091
938.8210, 2223.923
939.9410, 2138.852
941.0610, 2135.888
942.1810, 2118.023
943.3010, 2026.268
944.4200, 2125.609
945.5390, 2188.047
946.6580, 2133.582
947.7770, 2073.217
948.8960, 2190.951
950.0150, 2189.335
951.1330, 2282.706
952.2510, 2331.744
953.3690, 2399.867
954.4870, 2477.084
955.6050, 2332.115
956.7230, 2516.526
957.8400, 2346.627
958.9580, 2482.225
960.0750, 2656.916
961.1920, 2514.018
962.3090, 2754.896
963.4250, 2686.547
964.5420, 2909.258
965.6580, 2962.059
966.7740, 3208.032
967.8900, 3145.521
969.0060, 3547.581
970.1220, 3546.959
971.2380, 3639.748
972.3530, 3938.781
973.4680, 4313.797
974.5830, 4667.570
975.6980, 5084.545
976.8130, 5393.035
977.9280, 5745.908
979.0420, 6396.332
980.1560, 7266.576
981.2710, 8033.770
982.3850, 9006.279
983.4980, 9985.039
984.6120, 10755.57
985.7260, 12049.34
986.8390, 13032.21
987.9520, 14002.16
989.0650, 14803.20
990.1780, 15334.33
991.2910, 15510.54
992.4030, 15437.84
993.5160, 15736.22
994.6280, 15466.69
995.7400, 15775.24
996.8520, 16096.87
997.9640, 16452.58
999.0750, 17433.37
1000.187, 18235.24
1001.298, 19805.19
1002.409, 21405.22
1003.520, 23135.33
1004.631, 25330.50
1005.741, 27776.76
1006.852, 30518.08
1007.962, 32879.47
1009.072, 35082.94
1010.182, 36241.61
1011.292, 36701.89
1012.402, 35812.94
1013.511, 33732.25
1014.621, 30400.87
1015.730, 26988.42
1016.839, 23452.34
1017.948, 20277.59
1019.056, 17352.72
1020.165, 15026.06
1021.273, 13285.54
1022.382, 11931.49
1023.490, 10805.45
1024.598, 10202.25
1025.706, 9570.678
1026.813, 8985.341
1027.921, 8756.633
1029.028, 8436.135
1030.135, 8239.260
1031.242, 7995.213
1032.349, 7982.604
1033.456, 7746.966
1034.562, 7816.488
1035.668, 7634.818
1036.775, 7362.020
1037.881, 7454.227
1038.987, 7377.126
1040.092, 7054.260
1041.198, 6947.774
1042.303, 6763.801
1043.408, 6625.199
1044.514, 6356.094
1045.618, 6254.691
1046.723, 5939.854
1047.828, 5798.939
1048.932, 5541.471
1050.037, 5467.176
1051.141, 5120.643
1052.245, 5097.307
1053.349, 4958.785
1054.452, 4835.582
1055.556, 4616.697
1056.659, 4306.430
1057.762, 4276.596
1058.865, 3973.336
1059.968, 3878.068
1061.071, 3772.552
1062.174, 3658.588
1063.276, 3440.938
1064.378, 3216.656
1065.480, 3061.758
1066.582, 2831.174
1067.684, 2768.038
1068.786, 2662.002
1069.887, 2708.889
1070.988, 2514.914
1072.090, 2475.488
1073.191, 2221.933
1074.291, 2295.235
1075.392, 2166.888
1076.493, 2053.738
1077.593, 2134.951
1078.693, 1914.159
1079.793, 1838.950
1080.893, 1882.747
1081.993, 1686.066
1083.092, 1665.502
1084.192, 1627.074
1085.291, 1544.151
1086.390, 1607.166
1087.489, 1632.706
1088.588, 1495.467
1089.686, 1428.371
1090.785, 1294.910
1091.883, 1173.666
1092.981, 1337.527
1094.079, 1335.268
1095.177, 1250.938
1096.275, 1254.185
1097.373, 1351.331
1098.470, 1179.930
1099.567, 1238.117
1100.664, 1054.120
1101.761, 988.6455
1102.858, 1032.939
1103.954, 1066.400
1105.051, 1088.268
1106.147, 992.8115
1107.243, 970.7148
1108.339, 888.6494
1109.435, 826.2842
1110.531, 906.9736
1111.626, 873.4941
1112.722, 894.3047
1113.817, 717.9883
1114.912, 757.8789
1116.007, 703.5107
1117.101, 719.2891
1118.196, 741.3594
1119.290, 657.0225
1120.385, 672.5898
1121.479, 765.5107
1122.573, 574.5596
1123.666, 703.4170
1124.760, 684.2559
1125.853, 495.6113
1126.947, 595.9326
1128.040, 466.2197
1129.133, 484.4717
1130.226, 337.8096
1131.318, 296.0312
1132.411, 326.5410
1133.503, 176.7295
1134.596, 262.7920
1135.688, 254.8145
1136.780, 189.9297
1137.871, 153.8701
1138.963, 38.77246
1140.054, 28.97949
1141.146, 12.20898
1142.237, 50.75488
1143.328, 27.59961
1144.419, 60.00293
1145.509, 109.4023
1146.600, 57.01465
1147.690, 85.28125
1148.780, 93.46973
1149.870, 24.33301
1150.960, 42.74902
1152.050, 87.25000
1153.139, 123.3652
1154.229, 72.61914
1155.318, 50.98633
1156.407, 217.4580
1157.496, 11.12012
1158.585, 97.91406
1159.674, 18.74805
1160.762, 121.5518
1161.850, 68.23340
1162.939, 120.3447
1164.027, 101.3398
1165.114, 101.3496
1166.202, 159.5596
1167.290, 91.41699
1168.377, 57.29980
1169.464, 18.29102
1170.551, 83.51855
1171.638, 39.63281
1172.725, 249.1191
1173.812, 164.8369
1174.898, 55.60059
1175.984, 128.6348
1177.071, 59.16016
1178.157, 85.11816
1179.242, 90.55176
1180.328, 27.91797
1181.414, 6.625000
1182.499, 27.55566
1183.584, 68.06152
1184.669, 23.35156
1185.754, 90.54004
1186.839, 113.3428
1187.924, 26.06836
1189.008, 120.8916
1190.092, 41.44238
1191.177, 42.10254
1192.260, 17.78320
1193.344, 10.41113
1194.428, 87.49414
1195.512, 120.4912
1196.595, 107.4072
1197.678, 25.24023
1198.761, 86.96680
1199.844, 54.60547
1200.927, 215.1465
1202.009, 243.6162
1203.092, 86.01465
1204.174, 199.3213
1205.256, 71.55566
1206.338, 254.6924
1207.420, 214.7578
1208.502, 217.7490
1209.583, 173.6660
1210.665, 175.6211
1211.746, 145.3770
1212.827, 223.0498
1213.908, 185.6455
1214.988, 248.1631
1216.069, 257.6055
1217.149, 207.9746
1218.230, 192.2637
1219.310, 276.4736
1220.390, 214.6094
1221.470, 198.6650
1222.549, 288.6406
1223.629, 202.5420
1224.708, 335.3633
1225.787, 247.1113
1226.866, 262.7822
1227.945, 366.3770
1229.024, 264.8994
1230.103, 195.3438
1231.181, 404.7051
1232.259, 321.9951
1233.337, 344.2109
1234.415, 347.3525
1235.493, 433.4199
1236.571, 353.4141
1237.648, 225.3350
1238.726, 512.1709
1239.803, 515.9766
1240.880, 280.6680
1241.957, 416.2803
1243.034, 504.8164
1244.110, 389.2812
1245.187, 458.1064
1246.263, 407.4229
1247.339, 332.6641
1248.415, 424.8281
1249.491, 441.9180
1250.566, 351.9355
1251.642, 321.8760
1252.717, 354.7393
1253.793, 353.5244
1254.868, 480.2344
1255.943, 480.8721
1257.017, 487.6182
1258.092, 513.5771
1259.166, 437.3486
1260.241, 457.6953
1261.315, 380.9697
1262.389, 273.1689
1263.462, 510.2871
1264.536, 544.3330
1265.610, 441.3066
1266.683, 495.2100
1267.756, 474.0400
1268.829, 391.7998
1269.902, 487.4854
1270.975, 520.9512
1272.048, 428.8154
1273.120, 486.9023
1274.192, 445.7305
1275.264, 534.2314
1276.336, 497.7988
1277.408, 499.9951
1278.480, 587.7266
1279.551, 443.6914
1280.623, 477.4307
1281.694, 529.0195
1282.765, 546.1328
1283.836, 521.2246
1284.907, 894.4717
1285.977, 667.0684
1287.048, 740.4209
1288.118, 398.1348
1289.188, 354.6250
1290.258, 280.4863
1291.328, 347.5039
1292.398, 274.0703
1293.467, 384.6504
1294.537, 356.0566
1295.606, 343.6396
1296.675, 303.3330
1297.744, 293.0059
1298.813, 379.9658
1299.882, 250.6758
1300.950, 481.9844
1302.018, 376.4824
1303.086, 240.1504
