##NAMES=Augite
##RRUFFID=R070231
##IDEAL CHEMISTRY=(Ca,Mg,Fe^2+^,Fe^3+^)_2_(Si,Al)_2_O_6_
##LOCALITY=Old Goose Creek Quarry, Leesburg, Loudoun County, Virginia, USA
##OWNER=RRUFF
##SOURCE=Michael Scott
##DESCRIPTION=Very dark grey-green prismatic crystals frozen in quartz
##STATUS=The identification of this mineral is confirmed by single-crystal X-ray diffraction and chemical analysis.
##URL=rruff.info/R070231
##MEASURED CHEMISTRY=(Mg_0.44_Fe_0.37_Ca_0.17_Ti_0.01_Mn_0.01_)_Σ=1_(Si_0.98_Al_0.02_)_Σ=1_O_3_
##PIN_ID=M00062
##ORIENTATION=Laser parallel to -c* (0 0 -1). Fiducial mark perpendicular to laser is parallel to a [1 0 0]
149.8300, 0.0000000E+00
151.0630, 40.65430
152.2960, 193.6348
153.5300, 42.30469
154.7620, 337.2793
155.9950, 35.95117
157.2280, 405.5156
158.4600, 407.8359
159.6920, 503.3848
160.9250, 286.6797
162.1560, 555.3457
163.3880, 695.0664
164.6200, 928.5918
165.8510, 629.6992
167.0820, 436.2227
168.3130, 469.0234
169.5440, 420.9922
170.7750, 597.0234
172.0050, 258.0332
173.2350, 473.9355
174.4650, 395.6465
175.6950, 341.0957
176.9250, 580.2227
178.1550, 563.9629
179.3840, 662.2695
180.6130, 676.0918
181.8420, 911.3906
183.0710, 878.1973
184.3000, 1259.514
185.5280, 1280.285
186.7570, 1257.562
187.9850, 688.1211
189.2130, 1086.158
190.4400, 845.5840
191.6680, 674.3691
192.8960, 935.4727
194.1230, 840.8652
195.3500, 907.5195
196.5770, 880.4141
197.8030, 1049.525
199.0300, 1020.840
200.2560, 972.3398
201.4830, 1025.010
202.7090, 823.8379
203.9340, 687.8145
205.1600, 645.9297
206.3860, 478.1699
207.6110, 564.5312
208.8360, 534.0039
210.0610, 460.5762
211.2860, 372.2480
212.5100, 517.0137
213.7350, 321.0488
214.9590, 561.9219
216.1830, 235.3438
217.4070, 353.8496
218.6310, 390.3418
219.8540, 446.8262
221.0780, 713.3008
222.3010, 393.9004
223.5240, 850.1074
224.7470, 401.6719
225.9690, 782.2129
227.1920, 576.6992
228.4140, 692.2832
229.6360, 807.2676
230.8580, 811.2441
232.0800, 866.1504
233.3020, 863.0020
234.5230, 826.7969
235.7440, 686.5508
236.9650, 756.2598
238.1860, 630.9375
239.4070, 838.5801
240.6280, 646.1953
241.8480, 648.7852
243.0680, 502.3516
244.2880, 668.8965
245.5080, 802.4258
246.7280, 1060.934
247.9470, 999.4297
249.1660, 1064.910
250.3860, 1220.377
251.6040, 1238.834
252.8230, 1205.277
254.0420, 1269.711
255.2600, 1342.135
256.4790, 1043.553
257.6970, 1221.957
258.9150, 1009.775
260.1320, 1447.742
261.3500, 752.1230
262.5670, 833.4941
263.7840, 807.8574
265.0010, 416.2129
266.2180, 689.5605
267.4350, 548.8984
268.6510, 577.2305
269.8680, 232.5508
271.0840, 425.8652
272.3000, 322.1719
273.5160, 94.47070
274.7310, 114.7598
275.9470, 142.8574
277.1620, 278.2422
278.3770, 263.3027
279.5920, 342.7266
280.8070, 234.1992
282.0210, 286.6504
283.2360, 330.1836
284.4500, 537.7168
285.6640, 397.2520
286.8780, 536.7852
288.0920, 458.3145
289.3050, 722.8418
290.5180, 478.3594
291.7320, 573.8730
292.9450, 621.7090
294.1570, 598.6055
295.3700, 670.2871
296.5830, 579.8438
297.7950, 539.1758
299.0070, 737.5801
300.2190, 600.0879
301.4310, 686.0098
302.6420, 852.9844
303.8540, 799.2773
305.0650, 1189.914
306.2760, 1141.033
307.4870, 1287.061
308.6980, 1184.711
309.9080, 1317.146
311.1190, 1572.182
312.3290, 1739.303
313.5390, 1844.357
314.7490, 1813.791
315.9580, 1988.143
317.1680, 2114.559
318.3770, 2091.955
319.5860, 1820.570
320.7950, 1949.158
322.0040, 1718.793
323.2130, 1627.475
324.4210, 1706.197
325.6290, 1705.963
326.8380, 1440.766
328.0460, 1419.604
329.2530, 1262.473
330.4610, 1316.377
331.6680, 1038.307
332.8760, 1038.266
334.0830, 1114.248
335.2890, 1292.254
336.4960, 1011.279
337.7030, 949.3203
338.9090, 949.3848
340.1150, 870.4629
341.3210, 850.5566
342.5270, 804.6641
343.7330, 899.7871
344.9380, 891.9199
346.1440, 741.0645
347.3490, 843.2188
348.5540, 1009.387
349.7590, 766.5586
350.9630, 818.7402
352.1680, 813.9297
353.3720, 737.1289
354.5760, 721.3320
355.7800, 694.5410
356.9840, 639.7559
358.1870, 417.9785
359.3910, 677.2031
360.5940, 498.4297
361.7970, 379.6543
363.0000, 505.8750
364.2030, 521.0957
365.4050, 584.3125
366.6080, 415.5273
367.8100, 565.7402
369.0120, 597.9453
370.2140, 857.1465
371.4150, 504.3398
372.6170, 704.5254
373.8180, 733.7051
375.0190, 781.8750
376.2200, 901.0391
377.4210, 937.1953
378.6220, 1099.346
379.8220, 1013.488
381.0230, 1217.625
382.2230, 1054.756
383.4230, 1197.881
384.6220, 1201.529
385.8220, 1187.113
387.0220, 1149.223
388.2210, 1108.328
389.4200, 898.4297
390.6190, 938.5254
391.8180, 675.6172
393.0160, 584.7070
394.2150, 479.7930
395.4130, 513.8750
396.6110, 355.0840
397.8090, 138.0273
399.0060, 171.1035
400.2040, 52.82812
401.4010, 38.77539
402.5980, 87.73633
403.7950, 161.7266
404.9920, 131.7656
406.1890, 197.8418
407.3860, 161.9766
408.5820, 92.15820
409.7780, 28.36914
410.9740, 3.892578
412.1700, 113.8203
413.3650, 59.91797
414.5610, 57.65039
415.7560, 104.3867
416.9510, 224.1211
418.1460, 327.8535
419.3410, 324.5859
420.5360, 306.3008
421.7300, 144.9668
422.9240, 533.5430
424.1180, 311.0059
425.3120, 501.4277
426.5060, 161.8105
427.7000, 420.1953
428.8930, 288.5840
430.0860, 205.9746
431.2790, 56.36914
432.4720, 5.767578
433.6650, 52.16211
434.8580, 207.4395
436.0500, 349.9043
437.2420, 228.7539
438.4340, 54.52930
439.6260, 373.4043
440.8180, 146.4707
442.0090, 164.6113
443.2010, 57.16602
444.3920, 62.67578
445.5830, 58.24414
446.7740, 41.53711
447.9640, 64.66992
449.1550, 197.9121
450.3450, 322.2559
451.5350, 91.76758
452.7250, 1.330078
453.9150, 49.10938
455.1050, 53.55273
456.2940, 127.0000
457.4830, 188.4531
458.6720, 537.9102
459.8610, 443.3750
461.0500, 588.8398
462.2390, 365.3105
463.4270, 601.7852
464.6150, 824.2617
465.8040, 872.7402
466.9910, 940.2227
468.1790, 1114.707
469.3670, 771.1953
470.5540, 874.6836
471.7410, 746.1738
472.9280, 1003.668
474.1150, 539.1602
475.3020, 560.6582
476.4890, 615.1582
477.6750, 450.6602
478.8610, 310.1660
480.0470, 292.6738
481.2330, 381.1836
482.4190, 458.7051
483.6040, 285.2305
484.7900, 473.7559
485.9750, 404.2891
487.1600, 440.8262
488.3450, 211.3652
489.5290, 369.9043
490.7140, 547.4473
491.8980, 455.9941
493.0820, 637.5430
494.2660, 489.0918
495.4500, 571.6406
496.6340, 691.1934
497.8170, 543.7441
499.0010, 720.3008
500.1840, 734.8691
501.3670, 742.4453
502.5500, 837.0312
503.7320, 775.6270
504.9150, 881.5234
506.0970, 916.9043
507.2790, 1087.549
508.4610, 1037.201
509.6430, 1233.861
510.8250, 1025.549
512.0060, 1301.248
513.1870, 1228.947
514.3680, 1266.656
515.5490, 1151.428
516.7300, 1222.215
517.9110, 1570.115
519.0910, 1667.020
520.2710, 1636.982
521.4510, 1639.986
522.6310, 1727.533
523.8110, 1846.080
524.9910, 1876.215
526.1700, 1967.408
527.3490, 2051.609
528.5280, 2098.811
529.7070, 2183.363
530.8860, 2141.240
532.0650, 2309.510
533.2430, 2329.803
534.4210, 2365.129
535.5990, 2496.500
536.7770, 2398.936
537.9550, 2317.404
539.1320, 2680.881
540.3100, 2500.389
541.4870, 2630.959
542.6640, 2708.234
543.8410, 2508.355
545.0170, 2455.496
546.1940, 2605.984
547.3700, 2590.332
548.5470, 2442.539
549.7230, 2519.057
550.8980, 2267.941
552.0740, 2381.689
553.2500, 2213.721
554.4250, 2158.227
555.6000, 2146.023
556.7750, 2352.850
557.9500, 2052.680
559.1250, 2355.514
560.2990, 2328.354
561.4730, 1934.197
562.6480, 1884.051
563.8220, 2142.906
564.9950, 1801.770
566.1690, 1958.635
567.3430, 2047.504
568.5160, 1510.375
569.6890, 1458.244
570.8620, 1722.115
572.0350, 1699.988
573.2070, 1499.859
574.3800, 1774.406
575.5520, 1661.275
576.7240, 1439.855
577.8960, 1641.723
579.0680, 1723.965
580.2400, 1518.146
581.4110, 1509.324
582.5830, 1715.758
583.7540, 1490.068
584.9250, 1615.934
586.0950, 1490.801
587.2660, 1930.846
588.4370, 1823.715
589.6070, 1929.580
590.7770, 2003.920
591.9470, 1974.482
593.1170, 2233.539
594.2860, 2502.049
595.4560, 2411.926
596.6250, 2387.807
597.7940, 2807.684
598.9630, 2665.570
600.1320, 2572.539
601.3000, 3156.426
602.4690, 2834.311
603.6370, 3114.199
604.8050, 2996.086
605.9730, 3135.973
607.1410, 3165.885
608.3090, 3078.771
609.4760, 3166.656
610.6430, 3342.539
611.8100, 3284.424
612.9770, 3281.309
614.1440, 3120.188
615.3110, 2943.531
616.4770, 2898.662
617.6430, 2800.539
618.8090, 2885.908
619.9750, 2965.779
621.1410, 2857.113
622.3070, 2798.570
623.4720, 2735.141
624.6370, 2893.248
625.8020, 3051.404
626.9670, 2430.793
628.1320, 2537.184
629.2970, 2676.074
630.4610, 2583.057
631.6250, 2625.545
632.7890, 2396.678
633.9530, 2614.494
635.1170, 2733.305
636.2810, 2430.545
637.4440, 2236.088
638.6070, 2452.266
639.7700, 2108.967
640.9330, 2498.914
642.0960, 2347.633
643.2590, 2226.363
644.4210, 2440.350
645.5830, 2350.264
646.7450, 2485.553
647.9070, 2411.346
649.0690, 2765.654
650.2310, 2430.277
651.3920, 2453.770
652.5530, 2714.408
653.7140, 2619.504
654.8750, 2571.496
656.0360, 3027.301
657.1970, 3191.619
658.3570, 2945.938
659.5170, 3420.766
660.6770, 3592.699
661.8370, 3553.441
662.9970, 3795.023
664.1570, 3689.168
665.3160, 3944.363
666.4750, 3824.293
667.6340, 3667.746
668.7930, 3519.570
669.9520, 3354.875
671.1110, 3380.156
672.2690, 3085.889
673.4270, 2917.750
674.5850, 2927.797
675.7430, 2905.730
676.9010, 2484.320
678.0590, 2127.670
679.2160, 2099.170
680.3730, 1991.713
681.5300, 1812.822
682.6870, 1987.729
683.8440, 1509.270
685.0010, 1702.775
686.1570, 1654.307
687.3130, 1454.086
688.4690, 1367.961
689.6250, 1504.918
690.7810, 1201.965
691.9370, 1238.068
693.0920, 1236.506
694.2470, 1020.865
695.4020, 1136.600
696.5570, 1056.520
697.7120, 1003.508
698.8670, 806.7148
700.0210, 924.5215
701.1750, 611.0781
702.3290, 756.6660
703.4830, 777.0742
704.6370, 873.6562
705.7910, 611.3711
706.9440, 764.1484
708.0970, 808.2285
709.2510, 716.6973
710.4030, 829.3535
711.5560, 663.9707
712.7090, 667.5430
713.8610, 784.0801
715.0140, 585.5742
716.1660, 525.0820
717.3180, 649.5508
718.4690, 632.0391
719.6210, 872.5039
720.7730, 542.0293
721.9240, 523.5508
723.0750, 748.0762
724.2260, 526.5566
725.3770, 451.9961
726.5270, 787.4082
727.6780, 293.7754
728.8280, 561.1172
729.9780, 604.4668
731.1280, 438.8594
732.2780, 316.2344
733.4280, 472.5664
734.5770, 570.8496
735.7260, 613.0840
736.8760, 697.2754
738.0250, 339.4219
739.1730, 482.5156
740.3220, 430.5625
741.4700, 370.5625
742.6190, 404.5137
743.7670, 423.4180
744.9150, 368.2695
746.0630, 667.0742
747.2100, 412.8301
748.3580, 537.5352
749.5050, 577.1914
750.6520, 410.7969
751.7990, 413.3477
752.9460, 279.8516
754.0930, 333.3008
755.2390, 562.6992
756.3860, 279.0430
757.5320, 454.3320
758.6780, 76.57031
759.8240, 63.74219
760.9690, 236.8477
762.1150, 348.8945
763.2600, 103.8867
764.4060, 284.8164
765.5510, 284.6875
766.6950, 404.4961
767.8400, 145.2578
768.9850, 263.9492
770.1290, 349.5859
771.2730, 490.1641
772.4170, 452.3086
773.5610, 326.1602
774.7050, 253.5703
775.8480, 340.9219
776.9920, 16.66797
778.1350, 157.8750
779.2780, 18.01953
780.4210, 59.07812
781.5640, 82.93750
782.7060, 164.9102
783.8490, 314.2539
784.9910, 57.97266
786.1330, 103.6211
787.2750, 42.21094
788.4170, 82.30859
789.5580, 227.6016
790.7000, 130.0117
791.8410, 173.3594
792.9820, 25.03516
794.1230, 352.9961
795.2640, 101.9492
796.4040, 137.4375
797.5450, 75.17578
798.6850, 186.1211
799.8250, 212.6484
800.9650, 108.1836
802.1050, 140.8555
803.2450, 142.8203
804.3840, 241.4258
805.5230, 60.22656
806.6630, 145.5664
807.8020, 117.9180
808.9400, 5.222656
810.0790, 38.94141
811.2170, 89.95703
812.3560, 168.0664
813.4940, 35.43359
814.6320, 80.41016
815.7700, 50.15234
816.9070, 146.8516
818.0450, 92.26953
819.1820, 105.6914
820.3190, 62.47656
821.4560, 32.45312
822.5930, 155.2070
823.7300, 7.859375
824.8670, 216.3320
826.0030, 298.9727
827.1390, 95.21484
828.2750, 254.3711
829.4110, 12.46484
830.5470, 184.4922
831.6820, 41.58203
832.8180, 270.2188
833.9530, 243.9453
835.0880, 187.5664
836.2230, 92.15234
837.3580, 116.6641
838.4920, 108.3633
839.6270, 124.1367
840.7610, 286.4258
841.8950, 252.5703
843.0290, 569.7227
844.1630, 381.8164
845.2960, 278.8516
846.4300, 624.8164
847.5630, 632.7188
848.6960, 826.5664
849.8290, 802.3516
850.9620, 726.0781
852.0940, 1191.742
853.2270, 1101.352
854.3590, 1160.902
855.4910, 1107.387
856.6230, 1468.820
857.7550, 1528.195
858.8870, 1201.508
860.0180, 1366.762
861.1500, 1006.953
862.2810, 1317.090
863.4120, 1438.164
864.5430, 1535.996
865.6730, 1393.953
866.8040, 1589.852
867.9340, 1423.695
869.0640, 1354.340
870.1940, 1486.066
871.3240, 1376.730
872.4540, 1145.332
873.5830, 1369.879
874.7130, 1564.289
875.8420, 1188.719
876.9710, 1311.090
878.1000, 1215.406
879.2290, 1139.668
880.3570, 1218.871
881.4860, 1094.992
882.6140, 998.0820
883.7420, 1060.113
884.8700, 931.1406
885.9980, 943.9180
887.1250, 747.8750
888.2530, 866.6836
889.3800, 676.9727
890.5070, 505.4258
891.6340, 440.0703
892.7610, 781.1562
893.8880, 903.6953
895.0140, 666.7109
896.1400, 835.9219
897.2670, 730.2461
898.3930, 753.2812
899.5180, 647.2383
900.6440, 546.9180
901.7700, 573.5352
902.8950, 624.5938
904.0200, 472.5039
905.1450, 537.7227
906.2700, 415.4961
907.3950, 568.4023
908.5190, 594.2578
909.6440, 673.6289
910.7680, 834.6367
911.8920, 246.9453
913.0160, 806.6836
914.1400, 425.1172
915.2630, 597.7188
916.3870, 651.2539
917.5100, 345.4766
918.6330, 196.7109
919.7560, 522.5156
920.8790, 526.7578
922.0010, 181.4336
923.1240, 301.7305
924.2460, 95.10156
925.3680, 289.2695
926.4900, 216.9219
927.6120, 212.6250
928.7340, 349.4492
929.8550, 199.7070
930.9760, 268.9062
932.0980, 49.54688
933.2190, 358.0117
934.3390, 252.6250
935.4600, 61.66406
936.5810, 91.41797
937.7010, 300.3945
938.8210, 327.5742
939.9410, 123.1797
941.0610, 180.3555
942.1810, 193.4453
943.3010, 54.39844
944.4200, 18.30469
945.5390, 259.5977
946.6580, 128.2539
947.7770, 338.9727
948.8960, 34.01562
950.0150, 175.1680
951.1330, 230.1484
952.2510, 167.0430
953.3690, 104.3047
954.4870, 8.734375
955.6050, 31.49219
956.7230, 35.75000
957.8400, 0.9687500
958.9580, 70.42578
960.0750, 230.7852
961.1920, 243.0547
962.3090, 323.2148
963.4250, 265.2695
964.5420, 20.94531
965.6580, 24.67969
966.7740, 15.98047
967.8900, 155.0508
969.0060, 106.0039
970.1220, 231.6562
971.2380, 223.6641
972.3530, 36.12891
973.4680, 128.0000
974.5830, 143.2461
975.6980, 133.7305
976.8130, 362.0938
977.9280, 204.7969
979.0420, 59.15234
980.1560, 215.0664
981.2710, 92.74219
982.3850, 393.4062
983.4980, 159.0664
984.6120, 110.7188
985.7260, 294.3867
986.8390, 605.0547
987.9520, 580.7070
989.0650, 520.3555
990.1780, 602.9961
991.2910, 779.6367
992.4030, 801.4297
993.5160, 871.8945
994.6280, 937.5547
995.7400, 971.1914
996.8520, 911.8281
997.9640, 1033.457
999.0750, 1016.086
1000.187, 1328.707
1001.298, 1545.336
1002.409, 1475.961
1003.520, 1990.582
1004.631, 2264.207
1005.741, 2598.824
1006.852, 2938.441
1007.962, 3579.062
1009.072, 3851.676
1010.182, 4085.301
1011.292, 4078.922
1012.402, 4112.547
1013.511, 3857.180
1014.621, 3300.820
1015.730, 2898.453
1016.839, 2162.086
1017.948, 1910.703
1019.056, 1467.324
1020.165, 1423.941
1021.273, 1183.559
1022.382, 999.1680
1023.490, 808.7812
1024.598, 691.3945
1025.706, 923.0078
1026.813, 660.6250
1027.921, 825.2383
1029.028, 622.8633
1030.135, 614.5000
1031.242, 428.1367
1032.349, 662.7773
1033.456, 373.4258
1034.562, 342.0820
1035.668, 522.7461
1036.775, 332.4102
1037.881, 231.0859
1038.987, 400.7695
1040.092, 492.4648
1041.198, 570.1602
1042.303, 354.8672
1043.408, 256.5781
1044.514, 188.3008
1045.618, 343.5781
1046.723, 106.3359
1047.828, 186.1094
1048.932, 332.9062
1050.037, 13.72266
1051.141, 452.5938
1052.245, 167.9102
1053.349, 270.8086
1054.452, 483.7266
1055.556, 498.0742
1056.659, 182.9961
1057.762, 121.0859
1058.865, 60.01953
1059.968, 228.6797
1061.071, 371.4727
1062.174, 450.6250
1063.276, 273.6406
1064.378, 288.9570
1065.480, 733.5117
1066.582, 462.5703
1067.684, 561.0391
1068.786, 305.1484
1069.887, 346.3047
1070.988, 193.0117
1072.090, 438.7461
1073.191, 316.2383
1074.291, 258.0156
1075.392, 359.8281
1076.493, 333.2422
1077.593, 726.0000
1078.693, 432.9883
1079.793, 485.9844
1080.893, 156.1250
1081.993, 351.9922
1083.092, 284.2227
1084.192, 417.5078
1085.291, 254.8750
1086.390, 441.2773
1087.489, 440.4648
1088.588, 396.8008
1089.686, 523.3086
1090.785, 449.5938
1091.883, 527.2656
1092.981, 489.9727
1094.079, 641.7461
1095.177, 463.4648
1096.275, 573.5820
1097.373, 631.4492
1098.470, 639.9141
1099.567, 450.8828
1100.664, 516.9922
1101.761, 477.9570
1102.858, 437.7109
1103.954, 539.8086
1105.051, 379.0391
1106.147, 478.9688
1107.243, 475.1445
1108.339, 514.9336
1109.435, 455.8281
1110.531, 428.5156
1111.626, 504.1211
1112.722, 522.9805
1113.817, 452.1523
1114.912, 499.1719
1116.007, 336.1445
1117.101, 364.3164
1118.196, 465.2461
1119.290, 399.7734
1120.385, 448.7930
1121.479, 454.2734
1122.573, 262.1562
1123.666, 414.0781
1124.760, 421.2227
1125.853, 271.3281
1126.947, 411.6250
1128.040, 282.9219
1129.133, 250.2930
1130.226, 290.0469
1131.318, 254.6680
1132.411, 337.9102
1133.503, 306.5195
1134.596, 264.9609
1135.688, 268.0391
1136.780, 144.7852
1137.871, 255.8125
1138.963, 182.6367
1140.054, 238.1445
1141.146, 103.6445
1142.237, 125.6445
1143.328, 230.3008
1144.419, 282.7695
1145.509, 63.63281
1146.600, 258.3164
1147.690, 84.03125
1148.780, 325.7695
1149.870, 321.8750
1150.960, 367.0273
1152.050, 483.0234
1153.139, 186.4609
1154.229, 502.7422
1155.318, 360.0742
1156.407, 107.4492
1157.496, 246.8711
1158.585, 164.3398
1159.674, 386.8633
1160.762, 46.43359
1161.850, 359.0547
1162.939, 6.734375
1164.027, 149.4688
1165.114, 113.2578
1166.202, 561.1094
1167.290, 350.0156
1168.377, 488.9844
1169.464, 208.0156
1170.551, 329.1133
1171.638, 128.2773
1172.725, 252.4961
1173.812, 483.7617
1174.898, 206.1289
1175.984, 141.5508
1177.071, 285.0312
1178.157, 360.5820
1179.242, 600.2109
1180.328, 574.7070
1181.414, 250.6523
1182.499, 612.4570
1183.584, 284.3164
1184.669, 357.2344
1185.754, 246.2109
1186.839, 172.2383
1187.924, 241.3086
1189.008, 257.4297
1190.092, 290.6016
1191.177, 198.8555
1192.260, 120.1602
1193.344, 80.39062
1194.428, 363.9766
1195.512, 90.48438
1196.595, 45.96484
1197.678, 274.6289
1198.761, 240.1719
1199.844, 216.7539
1200.927, 359.3750
1202.009, 217.0039
1203.092, 375.6445
1204.174, 573.3164
1205.256, 447.0156
1206.338, 421.7500
1207.420, 272.5195
1208.502, 239.3320
1209.583, 181.1797
1210.665, 193.5234
1211.746, 243.9609
1212.827, 222.8945
1213.908, 299.8789
1214.988, 271.1289
1216.069, 385.2500
1217.149, 230.5547
1218.230, 151.9570
1219.310, 113.4531
1220.390, 388.0508
1221.470, 430.7461
1222.549, 507.5430
1223.629, 549.3789
1224.708, 578.2344
1225.787, 602.5117
1226.866, 604.7539
1227.945, 556.6328
1229.024, 529.9961
1230.103, 480.0312
1231.181, 369.6250
1232.259, 351.3555
1233.337, 316.1953
1234.415, 231.1484
1235.493, 225.2656
1236.571, 164.3828
1237.648, 172.7461
1238.726, 131.1133
1239.803, 108.6016
1240.880, 221.2383
1241.957, 74.01562
1243.034, 304.9414
1244.110, 106.0391
1245.187, 54.31641
1246.263, 107.2227
1247.339, 506.4336
1248.415, 252.2891
1249.491, 189.3594
1250.566, 209.6406
1251.642, 72.14844
1252.717, 259.8867
1253.793, 38.12500
1254.868, 346.1211
1255.943, 247.6328
1257.017, 395.4375
1258.092, 381.6055
1259.166, 224.1719
1260.241, 191.9297
1261.315, 479.5664
1262.389, 291.3672
1263.462, 524.0469
1264.536, 313.4961
1265.610, 229.0547
1266.683, 341.3438
1267.756, 500.5234
1268.829, 109.2305
1269.902, 106.1602
1270.975, 281.0938
1272.048, 87.69141
1273.120, 2.328125
1274.192, 471.8438
1275.264, 613.9297
1276.336, 205.8867
1277.408, 0.0000000E+00
##END=



