##NAMES=Augite
##RRUFFID=R061108
##IDEAL CHEMISTRY=(Ca,Mg,Fe^2+^,Fe^3+^)_2_(Si,Al)_2_O_6_
##LOCALITY=Monti Rossi, near Mt. Etna, Sicily, Italy
##OWNER=RRUFF
##SOURCE=Michael Scott
##DESCRIPTION=Euhedral, short prismatic, black crystals in vesicular basalt.
##STATUS=The identification of this mineral is confirmed by single-crystal X-ray diffraction and chemical analysis.
##URL=rruff.info/R061108
##MEASURED CHEMISTRY=(Ca_0.86_Mg_0.74_Fe^2+^_0.18_Fe^3+^_0.08_Al_0.05_Ti_0.04_Na_0.04_Mn_0.01_)_Σ=2_(Si_1.83_Al_0.17_)_Σ=2_O_6_
##PIN_ID=L00942
##ORIENTATION=Laser parallel to -a* (-1 0 0). Fiducial mark perpendicular to laser is parallel to b [0 1 0]
154.9720, 0.0000000E+00
156.2000, 31.85156
157.4270, 87.01172
158.6540, 149.9238
159.8810, 35.47461
161.1070, 116.2266
162.3340, 468.0859
163.5600, 1188.543
164.7860, 1569.113
166.0120, 1603.348
167.2380, 1635.072
168.4640, 1974.422
169.6890, 2196.947
170.9150, 2524.801
172.1400, 2235.840
173.3650, 2386.209
174.5900, 2328.322
175.8150, 2408.764
177.0400, 2798.236
178.2640, 2697.523
179.4880, 3008.477
180.7130, 3494.980
181.9370, 2994.773
183.1600, 3024.809
184.3840, 3505.930
185.6080, 3371.793
186.8310, 3708.357
188.0540, 4048.811
189.2770, 3959.305
190.5000, 4247.969
191.7230, 4295.918
192.9460, 4630.246
194.1680, 4376.031
195.3910, 4342.342
196.6130, 4133.238
197.8350, 4010.252
199.0570, 3905.023
200.2780, 3786.016
201.5000, 3625.799
202.7210, 3568.410
203.9420, 3150.887
205.1640, 2461.250
206.3840, 2101.529
207.6050, 1898.748
208.8260, 2050.811
210.0460, 2082.730
211.2670, 2086.691
212.4870, 2547.570
213.7070, 2890.256
214.9270, 2768.877
216.1460, 2627.059
217.3660, 2987.537
218.5850, 3077.303
219.8050, 3063.334
221.0240, 3285.598
222.2430, 3122.068
223.4610, 3111.752
224.6800, 3202.639
225.8980, 3294.727
227.1170, 3009.027
228.3350, 2860.580
229.5530, 2833.277
230.7710, 2716.088
231.9880, 2252.035
233.2060, 2216.131
234.4230, 2017.393
235.6400, 1886.828
236.8570, 1830.443
238.0740, 1520.250
239.2910, 1383.252
240.5080, 1408.455
241.7240, 1100.863
242.9400, 1154.477
244.1570, 835.2949
245.3730, 953.3125
246.5880, 715.5312
247.8040, 598.9473
249.0190, 749.5586
250.2350, 424.3574
251.4500, 199.3438
252.6650, 370.5098
253.8800, 146.8574
255.0950, 266.3770
256.3090, 151.0527
257.5240, 531.8594
258.7380, 316.7070
259.9520, 163.9805
261.1660, 81.00781
262.3800, 261.7031
263.5930, 378.2988
264.8070, 309.7793
266.0200, 432.1445
267.2330, 262.3965
268.4460, 342.5371
269.6590, 293.5703
270.8720, 300.4980
272.0850, 239.3164
273.2970, 136.0332
274.5090, 26.64844
275.7210, 73.18750
276.9330, 194.4258
278.1450, 243.1074
279.3570, 424.8828
280.5680, 383.7559
281.7790, 548.6484
282.9910, 618.2930
284.2020, 697.6641
285.4120, 1111.832
286.6230, 1209.838
287.8340, 1532.830
289.0440, 1520.922
290.2540, 1718.115
291.4640, 1946.406
292.6740, 2146.791
293.8840, 2401.023
295.0940, 2752.846
296.3030, 2987.506
297.5120, 3124.252
298.7210, 3561.695
299.9300, 3919.318
301.1390, 4306.537
302.3480, 4773.789
303.5560, 5237.658
304.7650, 5727.689
305.9730, 6298.633
307.1810, 6835.855
308.3890, 7440.496
309.5970, 8154.416
310.8040, 8630.586
312.0120, 9514.984
313.2190, 10661.61
314.4260, 11068.47
315.6330, 12220.62
316.8400, 12967.03
318.0460, 13738.68
319.2530, 14799.53
320.4590, 14991.62
321.6650, 15916.96
322.8710, 16205.47
324.0770, 16486.23
325.2830, 16476.19
326.4880, 16636.33
327.6940, 16255.65
328.8990, 15917.10
330.1040, 15638.65
331.3090, 15164.30
332.5140, 14652.05
333.7180, 13956.91
334.9230, 13793.85
336.1270, 13343.88
337.3310, 12680.98
338.5350, 12307.20
339.7390, 11997.50
340.9430, 11687.89
342.1460, 11465.37
343.3500, 11609.89
344.5530, 11204.48
345.7560, 11194.12
346.9590, 10889.81
348.1620, 11045.54
349.3640, 10666.30
350.5670, 10913.10
351.7690, 10537.93
352.9710, 10651.79
354.1730, 10361.54
355.3750, 10147.26
356.5760, 10087.91
357.7780, 9651.619
358.9790, 9390.113
360.1800, 9118.588
361.3810, 9065.123
362.5820, 8625.719
363.7830, 8957.375
364.9830, 8650.086
366.1840, 8456.855
367.3840, 8222.676
368.5840, 8499.549
369.7840, 8100.477
370.9840, 8578.451
372.1830, 8428.473
373.3830, 8640.545
374.5820, 8588.658
375.7810, 8960.820
376.9800, 9269.023
378.1790, 9802.271
379.3780, 10311.56
380.5760, 10675.89
381.7750, 11558.26
382.9730, 12291.66
384.1710, 13111.11
385.3690, 13705.24
386.5660, 14364.09
387.7640, 14660.64
388.9610, 15135.21
390.1590, 15258.81
391.3560, 15218.45
392.5530, 14461.10
393.7500, 13742.79
394.9460, 12703.50
396.1430, 11382.22
397.3390, 10138.98
398.5350, 8787.746
399.7310, 7605.537
400.9270, 6583.076
402.1230, 5749.168
403.3180, 4756.012
404.5140, 4131.865
405.7090, 3420.734
406.9040, 2875.992
408.0990, 2271.062
409.2930, 2210.559
410.4880, 1840.492
411.6820, 1683.158
412.8770, 1372.945
414.0710, 1219.918
415.2650, 1246.562
416.4590, 1097.857
417.6520, 1038.422
418.8460, 1007.561
420.0390, 879.3613
421.2320, 937.3340
422.4250, 876.3066
423.6180, 881.0605
424.8110, 801.4570
426.0030, 781.2324
427.1960, 594.2070
428.3880, 613.1836
429.5800, 492.1602
430.7720, 340.1387
431.9640, 538.1152
433.1550, 154.0957
434.3470, 188.0742
435.5380, 432.0488
436.7290, 224.0215
437.9200, 36.99219
439.1110, 90.95508
440.3020, 112.0566
441.4920, 109.5020
442.6820, 60.97461
443.8730, 109.9102
445.0630, 111.7637
446.2530, 31.52539
447.4420, 56.19531
448.6320, 124.2617
449.8210, 50.11523
451.0100, 201.5977
452.2000, 120.5820
453.3880, 409.1738
454.5770, 109.0527
455.7660, 449.3301
456.9540, 334.7969
458.1430, 336.0254
459.3310, 625.6172
460.5190, 777.8945
461.7070, 801.0547
462.8940, 700.5879
464.0820, 681.1797
465.2690, 717.7168
466.4560, 690.9766
467.6430, 954.0430
468.8300, 740.9102
470.0170, 830.5625
471.2040, 710.7578
472.3900, 976.5957
473.5760, 1041.494
474.7620, 1100.090
475.9480, 1225.564
477.1340, 1132.107
478.3200, 1163.434
479.5050, 1067.266
480.6900, 1225.990
481.8750, 1354.684
483.0600, 1624.262
484.2450, 1560.664
485.4300, 1823.559
486.6140, 1852.617
487.7990, 1777.533
488.9830, 1905.785
490.1670, 1922.492
491.3510, 2096.559
492.5350, 2271.545
493.7180, 2387.449
494.9020, 2597.939
496.0850, 2772.012
497.2680, 3070.668
498.4510, 3291.244
499.6340, 3713.738
500.8160, 3913.154
501.9990, 4328.488
503.1810, 4585.742
504.3630, 4967.916
505.5450, 5248.455
506.7270, 5603.434
507.9090, 5894.797
509.0900, 6125.795
510.2720, 6116.729
511.4530, 6417.516
512.6340, 6593.924
513.8150, 6765.164
514.9950, 7109.164
516.1760, 7366.975
517.3560, 7074.195
518.5370, 7599.322
519.7170, 7207.357
520.8970, 7509.297
522.0770, 7378.146
523.2560, 7770.898
524.4360, 7680.553
525.6150, 8032.113
526.7940, 8062.574
527.9730, 8352.938
529.1520, 8066.203
530.3310, 7977.371
531.5090, 7958.260
532.6870, 8106.402
533.8660, 7752.266
535.0440, 8037.027
536.2210, 7972.684
537.3990, 7662.238
538.5770, 7777.688
539.7540, 7743.031
540.9310, 7805.271
542.1080, 7586.402
543.2850, 7367.430
544.4620, 7346.348
545.6390, 7261.156
546.8150, 7176.188
547.9920, 7098.449
549.1680, 7086.988
550.3440, 7148.504
551.5190, 7139.979
552.6950, 7033.439
553.8710, 7281.846
555.0460, 7391.217
556.2210, 7324.537
557.3960, 7250.809
558.5710, 7079.014
559.7460, 7080.029
560.9200, 7032.135
562.0950, 6989.027
563.2690, 6881.805
564.4430, 6812.250
565.6170, 6701.451
566.7910, 6608.426
567.9640, 6508.734
569.1380, 6376.920
570.3110, 6374.984
571.4840, 6232.934
572.6570, 6049.762
573.8300, 5867.473
575.0030, 5460.057
576.1750, 5232.523
577.3470, 4666.869
578.5200, 4382.090
579.6920, 4178.189
580.8630, 3608.381
582.0350, 3156.311
583.2070, 2954.330
584.3780, 2437.980
585.5490, 2274.203
586.7200, 1619.406
587.8910, 1567.383
589.0620, 1363.652
590.2330, 1029.357
591.4030, 931.6172
592.5730, 525.2715
593.7430, 598.6367
594.9130, 511.2402
596.0830, 288.4922
597.2530, 50.75000
598.4220, 158.4785
599.5920, 103.7344
600.7610, 103.8477
601.9300, 27.64258
603.0990, 155.0957
604.2670, 168.6348
605.4360, 8.697266
606.6040, 242.9473
607.7720, 80.18164
608.9400, 15.14648
610.1080, 61.23047
611.2760, 25.69141
612.4440, 46.64258
613.6110, 22.73438
614.7780, 45.41406
615.9450, 27.45312
617.1120, 97.04688
618.2790, 140.3438
619.4460, 196.3457
620.6120, 11.10742
621.7780, 216.5195
622.9450, 139.6816
624.1110, 213.5625
625.2760, 397.1992
626.4420, 340.6289
627.6080, 480.8496
628.7730, 509.8887
629.9380, 630.7461
631.1030, 968.4414
632.2680, 997.9863
633.4330, 1248.383
634.5970, 1501.633
635.7620, 1589.732
636.9260, 1732.689
638.0900, 2031.496
639.2540, 2127.162
640.4180, 2540.680
641.5810, 3080.053
642.7450, 3749.281
643.9080, 3878.369
645.0710, 4267.311
646.2340, 5059.111
647.3970, 5617.770
648.5590, 6968.289
649.7220, 7352.664
650.8840, 8674.896
652.0460, 9895.992
653.2080, 11705.95
654.3700, 13105.77
655.5320, 15171.45
656.6930, 17216.00
657.8550, 19449.40
659.0160, 21766.68
660.1770, 23936.81
661.3380, 26095.82
662.4990, 27648.69
663.6590, 28552.44
664.8200, 28295.04
665.9800, 27679.51
667.1400, 25908.86
668.3000, 23944.07
669.4600, 21445.16
670.6190, 19085.12
671.7790, 16922.95
672.9380, 14851.80
674.0970, 12895.24
675.2560, 11217.70
676.4150, 9854.031
677.5740, 8503.234
678.7320, 7227.324
679.8900, 6344.291
681.0490, 5823.137
682.2070, 4931.863
683.3640, 4150.475
684.5220, 3990.965
685.6800, 3427.340
686.8370, 3071.598
687.9940, 2772.746
689.1510, 2431.107
690.3080, 2228.955
691.4650, 1892.502
692.6220, 1888.195
693.7780, 1554.779
694.9340, 1442.252
696.0900, 1454.615
697.2460, 1286.871
698.4020, 1383.018
699.5580, 1191.057
700.7130, 1187.990
701.8680, 1217.816
703.0240, 1024.541
704.1790, 1125.162
705.3330, 915.6816
706.4880, 899.1016
707.6430, 874.4180
708.7970, 526.6387
709.9510, 607.7344
711.1050, 782.7891
712.2590, 537.7207
713.4130, 495.5605
714.5660, 428.3047
715.7200, 327.9629
716.8730, 360.5254
718.0260, 136.0000
719.1790, 67.60938
720.3320, 0.6308590
721.4840, 298.2266
722.6370, 291.3379
723.7890, 189.6992
724.9410, 373.2441
726.0930, 357.0664
727.2450, 518.1562
728.3960, 619.5996
729.5480, 406.4434
730.6990, 556.5664
731.8500, 354.1895
733.0010, 574.5879
734.1520, 403.5078
735.3030, 351.0078
736.4530, 437.8613
737.6040, 428.6641
738.7540, 382.6016
739.9040, 389.2090
741.0540, 253.4512
742.2030, 179.1934
743.3530, 113.4180
744.5020, 16.09961
745.6520, 99.84180
746.8010, 67.48438
747.9490, 7.070313
749.0980, 83.49023
750.2470, 99.45117
751.3950, 148.6758
752.5440, 408.7578
753.6920, 459.0684
754.8400, 362.4199
755.9870, 696.6348
757.1350, 726.9941
758.2820, 589.7676
759.4300, 808.5840
760.5770, 917.3613
761.7240, 1158.182
762.8710, 1141.113
764.0170, 1176.486
765.1640, 1392.631
766.3100, 1262.850
767.4560, 1430.674
768.6020, 1397.229
769.7480, 1472.865
770.8940, 1413.770
772.0400, 1486.699
773.1850, 1651.652
774.3300, 1499.631
775.4750, 1694.637
776.6200, 1575.674
777.7650, 1336.742
778.9090, 1339.844
780.0540, 1284.982
781.1980, 1394.158
782.3420, 1318.375
783.4860, 1104.631
784.6300, 1232.930
785.7740, 1101.275
786.9170, 1172.670
788.0600, 1152.111
789.2030, 1164.604
790.3460, 1028.146
791.4890, 1186.744
792.6320, 898.3984
793.7740, 1032.107
794.9170, 1200.877
796.0590, 1115.707
797.2010, 1104.600
798.3430, 1377.555
799.4850, 1368.580
800.6260, 1530.668
801.7670, 1582.828
802.9090, 1631.061
804.0500, 1549.365
805.1910, 1677.744
806.3310, 1897.197
807.4720, 1919.729
808.6120, 2229.342
809.7530, 2144.031
810.8930, 1991.807
812.0330, 2261.664
813.1720, 2165.609
814.3120, 2268.641
815.4510, 2232.764
816.5910, 2539.975
817.7300, 2424.277
818.8690, 2484.676
820.0080, 2615.172
821.1460, 2604.760
822.2850, 2368.449
823.4230, 2430.238
824.5610, 2388.760
825.6990, 2376.123
826.8370, 2415.221
827.9750, 2355.426
829.1120, 2340.738
830.2500, 2275.158
831.3870, 2576.689
832.5240, 2470.334
833.6610, 2220.090
834.7980, 1894.965
835.9340, 1819.951
837.0700, 1804.059
838.2070, 1916.283
839.3430, 1703.629
840.4790, 1992.100
841.6140, 1852.693
842.7500, 1743.410
843.8850, 1848.256
845.0210, 1977.227
846.1560, 1827.328
847.2910, 2073.561
848.4260, 2032.926
849.5600, 2129.424
850.6950, 2509.057
851.8290, 2665.824
852.9630, 2682.732
854.0970, 2807.773
855.2310, 2801.961
856.3650, 2867.070
857.4980, 2914.867
858.6310, 2825.643
859.7650, 2940.361
860.8980, 2928.971
862.0310, 2686.582
863.1630, 2810.742
864.2960, 2644.336
865.4280, 2366.119
866.5600, 2549.850
867.6920, 2432.740
868.8240, 2182.941
869.9560, 2126.922
871.0880, 2031.275
872.2190, 1931.621
873.3500, 1831.602
874.4810, 1693.033
875.6120, 1575.707
876.7430, 1606.848
877.8740, 1452.576
879.0040, 1512.271
880.1340, 1491.115
881.2650, 1530.854
882.3950, 1478.070
883.5240, 1331.947
884.6540, 1440.947
885.7830, 1467.920
886.9130, 1576.887
888.0420, 1641.186
889.1710, 1473.824
890.3000, 1587.807
891.4280, 1409.121
892.5570, 1441.785
893.6850, 1380.791
894.8130, 1529.119
895.9420, 1764.822
897.0690, 1519.896
898.1970, 1719.295
899.3250, 1574.035
900.4520, 1595.082
901.5790, 1626.410
902.7060, 1763.973
903.8330, 1725.797
904.9600, 1593.953
906.0870, 1809.375
907.2130, 1612.025
908.3390, 1600.012
909.4650, 1746.344
910.5910, 1970.889
911.7170, 2054.707
912.8430, 1941.795
913.9680, 2155.162
915.0930, 2148.789
916.2180, 2518.686
917.3430, 2691.871
918.4680, 2619.332
919.5930, 2820.598
920.7170, 2773.998
921.8420, 2931.203
922.9660, 2902.645
924.0900, 2981.311
925.2140, 2788.209
926.3370, 2984.338
927.4610, 2808.723
928.5840, 2908.326
929.7070, 2853.186
930.8310, 2892.291
931.9530, 2796.682
933.0760, 2617.301
934.1990, 2436.150
935.3210, 2801.221
936.4430, 2494.512
937.5650, 2515.027
938.6870, 2472.760
939.8090, 2281.727
940.9310, 2461.914
942.0520, 2358.346
943.1730, 2302.012
944.2940, 2314.918
945.4150, 2150.066
946.5360, 2228.438
947.6570, 2162.041
948.7770, 2692.902
949.8970, 2584.979
951.0180, 2675.287
952.1370, 2421.814
953.2570, 2567.557
954.3770, 2550.512
955.4960, 2505.680
956.6160, 2636.061
957.7350, 2695.658
958.8540, 2992.475
959.9730, 2880.516
961.0910, 2822.764
962.2100, 3076.223
963.3280, 3395.895
964.4460, 3272.785
965.5640, 3439.889
966.6820, 3999.201
967.8000, 3785.199
968.9180, 4066.432
970.0350, 3827.393
971.1520, 4207.539
972.2690, 4439.898
973.3860, 4436.475
974.5030, 4504.254
975.6190, 4935.240
976.7360, 5111.441
977.8520, 5459.844
978.9680, 5491.451
980.0840, 5597.260
981.2000, 6125.270
982.3160, 6246.482
983.4310, 6669.895
984.5460, 6728.520
985.6610, 7370.342
986.7760, 7827.367
987.8910, 8615.594
989.0060, 9011.020
990.1200, 9578.637
991.2350, 10370.49
992.3490, 11369.56
993.4630, 12161.92
994.5760, 13264.56
995.6900, 14621.45
996.8040, 15637.64
997.9170, 17122.14
999.0300, 18283.97
1000.143, 19976.14
1001.256, 21740.62
1002.369, 22609.43
1003.481, 24186.51
1004.594, 25349.92
1005.706, 26105.61
1006.818, 26817.58
1007.930, 26748.49
1009.042, 26262.47
1010.153, 24854.25
1011.264, 23296.28
1012.376, 21772.34
1013.487, 19503.93
1014.598, 17602.88
1015.708, 15609.34
1016.819, 13734.53
1017.929, 12002.51
1019.040, 11034.10
1020.150, 9962.219
1021.260, 9116.797
1022.370, 8235.164
1023.479, 7905.389
1024.589, 7660.201
1025.698, 7352.883
1026.807, 7408.186
1027.916, 6878.652
1029.025, 6619.219
1030.133, 6762.576
1031.242, 6783.080
1032.350, 6762.748
1033.458, 6690.521
1034.566, 7098.398
1035.674, 6814.453
1036.782, 7085.527
1037.890, 6855.412
1038.997, 6421.604
1040.104, 6712.344
1041.211, 6411.732
1042.318, 6354.949
1043.425, 6143.400
1044.531, 6192.893
1045.638, 5611.152
1046.744, 5495.193
1047.850, 5945.371
1048.956, 5251.420
1050.061, 5007.043
1051.167, 4569.521
1052.272, 4363.957
1053.378, 4348.125
1054.483, 4142.219
1055.588, 4013.174
1056.692, 3896.365
1057.797, 3701.402
1058.901, 3612.893
1060.006, 3450.242
1061.110, 3271.057
1062.214, 3158.178
1063.318, 3008.412
1064.421, 2814.299
1065.525, 2858.447
1066.628, 2849.910
1067.731, 2999.418
1068.834, 2882.742
1069.937, 2747.918
1071.040, 2821.676
1072.142, 2475.016
1073.244, 2779.807
1074.347, 2796.838
1075.449, 2555.740
1076.550, 3173.869
1077.652, 2421.121
1078.754, 2640.143
1079.855, 3173.197
1080.956, 3104.996
1082.057, 2411.059
1083.158, 2583.275
1084.259, 2314.842
1085.359, 2367.676
1086.460, 2022.742
1087.560, 2272.207
1088.660, 1969.391
1089.760, 2302.910
1090.860, 2209.305
1091.959, 1968.961
1093.059, 2215.020
1094.158, 2231.766
1095.257, 2099.037
1096.356, 1927.775
1097.455, 2079.686
1098.553, 1673.818
1099.652, 1777.191
1100.750, 1791.807
1101.848, 1677.076
1102.946, 1727.262
1104.044, 1650.324
1105.141, 1721.369
1106.239, 1533.561
1107.336, 1587.756
1108.433, 1694.684
1109.530, 1481.877
1110.627, 1617.912
1111.724, 1344.271
1112.820, 1486.617
1113.917, 1540.928
1115.013, 1590.381
1116.109, 1284.783
1117.205, 1305.693
1118.300, 1286.703
1119.396, 1392.312
1120.491, 1145.406
1121.586, 1277.947
1122.681, 1222.572
1123.776, 820.9141
1124.871, 1260.367
1125.965, 1051.838
1127.060, 1013.260
1128.154, 1343.467
1129.248, 1347.062
1130.342, 578.7910
1131.436, 261.6211
1132.529, 280.4219
1133.623, 454.6270
1134.716, 259.3359
1135.809, 158.1270
1136.902, 101.9473
1137.995, 15.47656
1139.087, 179.5215
1140.180, 121.7031
1141.272, 84.14258
1142.364, 261.6953
1143.456, 66.09766
1144.548, 318.2480
1145.639, 45.31250
1146.731, 52.45508
1147.822, 63.34375
1148.913, 268.5996
1150.004, 252.4492
1151.095, 285.6543
1152.186, 199.3438
1153.276, 150.2266
1154.366, 209.5664
1155.457, 159.6230
1156.546, 262.6094
1157.636, 295.1660
1158.726, 209.0293
1159.815, 265.4160
1160.905, 428.4902
1161.994, 167.2578
1163.083, 288.8574
1164.172, 234.3867
1165.261, 100.3359
1166.349, 22.08398
1167.437, 87.50391
1168.526, 363.3594
1169.614, 137.5371
1170.702, 21.08594
1171.789, 396.4160
1172.877, 418.2656
1173.964, 111.5254
1175.051, 137.4961
1176.138, 95.02734
1177.225, 164.3320
1178.312, 48.30859
1179.399, 87.47461
1180.485, 169.8477
1181.571, 97.46680
1182.657, 58.68164
1183.743, 80.17188
1184.829, 60.61328
1185.915, 65.51367
1187.000, 172.9941
1188.085, 100.3984
1189.171, 105.8750
1190.255, 15.94922
1191.340, 266.8379
1192.425, 14.62695
1193.509, 54.67188
1194.594, 66.91016
1195.678, 167.2637
1196.762, 166.4727
1197.846, 247.3652
1198.929, 267.3398
1200.013, 286.7695
1201.096, 268.2852
1202.179, 181.6699
1203.262, 287.9062
1204.345, 128.0098
1205.428, 179.9414
1206.510, 163.7129
1207.593, 138.3184
1208.675, 327.7461
1209.757, 213.0430
1210.839, 77.17773
1211.920, 437.1074
1213.002, 229.9121
1214.083, 354.5566
1215.164, 504.0645
1216.245, 501.4512
1217.326, 453.7148
1218.407, 506.8496
1219.488, 393.8613
1220.568, 409.7383
1221.648, 349.4805
1222.728, 597.0703
1223.808, 487.5391
1224.888, 573.8750
1225.967, 374.0859
1227.047, 499.1445
1228.126, 659.0684
1229.205, 597.8711
1230.284, 466.5410
1231.363, 644.0723
1232.441, 818.4746
1233.520, 457.7480
1234.598, 408.8789
1235.676, 730.8574
1236.754, 778.7070
1237.832, 430.4258
1238.910, 759.9941
1239.987, 576.4316
1241.064, 694.7305
1242.141, 703.9004
1243.218, 716.9414
1244.295, 687.8496
1245.372, 495.6465
1246.448, 622.2910
1247.525, 614.7988
1248.601, 564.1680
1249.677, 841.3926
1250.753, 684.4863
1251.828, 573.4453
1252.904, 418.2559
1253.979, 707.8984
1255.054, 702.4062
1256.129, 527.7773
1257.204, 762.9941
1258.279, 378.0762
1259.353, 673.9766
1260.428, 901.7363
1261.502, 665.3652
1262.576, 625.8535
1263.650, 976.1973
1264.724, 834.4102
1265.797, 659.4863
1266.871, 692.4199
1267.944, 641.3652
1269.017, 779.1973
1270.090, 751.2598
1271.162, 812.6348
1272.235, 998.8809
1273.307, 731.1875
1274.380, 879.0273
1275.452, 920.5625
1276.524, 799.6270
1277.595, 684.0195
1278.667, 722.6445
1279.738, 711.6914
1280.810, 850.2402
1281.881, 804.2832
1282.952, 632.7246
1284.022, 820.2461
1285.093, 695.2051
1286.164, 767.3164
1287.234, 768.8281
1288.304, 619.2012
1289.374, 540.4902
1290.444, 561.0000
1291.513, 663.3730
1292.583, 573.5977
1293.652, 598.7285
1294.721, 724.7695
1295.790, 679.6328
1296.859, 817.5020
1297.928, 775.1133
1298.996, 806.6660
1300.064, 766.8867
1301.133, 670.4688
1302.201, 659.2227
1303.268, 384.7461
1304.336, 734.2227
1305.404, 485.9355
1306.471, 741.8672
1307.538, 649.6582
1308.605, 600.5742
1309.672, 537.9141
1310.739, 719.3945
1311.805, 492.1953
1312.872, 583.9688
1313.938, 446.8105
1315.004, 520.5176
1316.070, 496.8340
1317.135, 442.3555
1318.201, 668.7461
1319.266, 675.4824
1320.332, 553.8789
1321.397, 378.5957
