##NAMES=Augite
##RRUFFID=R061086
##IDEAL CHEMISTRY=(Ca,Mg,Fe^2+^,Fe^3+^)_2_(Si,Al)_2_O_6_
##LOCALITY=Boreslav, Teplitz, Bohemia, Czech Republic
##OWNER=RRUFF
##SOURCE=Michael Scott
##DESCRIPTION=Black to dark green tabular euhedral crystal
##STATUS=The identification of this mineral has been confirmed by X-ray diffraction and chemical analysis
##URL=rruff.info/R061086
##MEASURED CHEMISTRY=(Ca_0.88_Mg_0.83_Fe_0.13_Al_0.08_Na_0.04_Ti_0.03_Cr_0.01_)_Σ=2_(Si_1.89_Al_0.11_)_Σ=2_O_6_
##PIN_ID=M00179
##ORIENTATION=Laser parallel to a* (1 0 0). Fiducial mark perpendicular to laser is parallel to b [0 1 0]
157.5600, 0.0000000E+00
158.7920, 1.822754
160.0240, 132.4058
161.2560, 36.32812
162.4870, 35.68555
163.7180, 66.15820
164.9490, 152.9819
166.1800, 115.6646
167.4110, 192.7969
168.6410, 213.0581
169.8720, 170.2090
171.1020, 197.3774
172.3320, 244.3076
173.5620, 229.9253
174.7910, 172.0522
176.0210, 212.5640
177.2500, 293.3784
178.4790, 404.4336
179.7080, 410.6870
180.9370, 451.1060
182.1650, 289.6641
183.3940, 334.1768
184.6220, 383.5376
185.8500, 280.8115
187.0780, 325.7817
188.3050, 345.5791
189.5330, 326.2300
190.7600, 346.7568
191.9870, 402.1753
193.2140, 428.5020
194.4410, 407.7559
195.6680, 324.9590
196.8940, 258.1230
198.1200, 312.2515
199.3470, 299.3506
200.5720, 219.4243
201.7980, 158.4775
203.0240, 267.5166
204.2490, 109.5435
205.4740, 165.5625
206.6990, 36.57422
207.9240, 95.58203
209.1490, 26.41504
210.3740, 108.7256
211.5980, 91.31934
212.8220, 190.5601
214.0460, 144.0771
215.2700, 343.2427
216.4930, 404.1680
217.7170, 438.1353
218.9400, 385.1421
220.1630, 433.1875
221.3860, 458.6719
222.6090, 482.3774
223.8320, 539.5122
225.0540, 598.6704
226.2760, 625.8511
227.4980, 559.0776
228.7200, 541.3516
229.9420, 450.6675
231.1630, 485.1680
232.3850, 409.7607
233.6060, 305.4263
234.8270, 394.1055
236.0480, 329.7959
237.2690, 316.4971
238.4890, 240.2129
239.7090, 182.9434
240.9290, 158.6880
242.1490, 261.4478
243.3690, 216.2241
244.5890, 225.0176
245.8080, 222.8794
247.0270, 241.7559
248.2470, 168.6479
249.4650, 112.5596
250.6840, 336.4873
251.9030, 221.4346
253.1210, 197.4009
254.3390, 105.3770
255.5570, 104.3628
256.7750, 42.35400
257.9930, 165.3501
259.2100, 312.3506
260.4280, 307.3540
261.6450, 74.35986
262.8620, 47.63184
264.0790, 46.62061
265.2950, 82.60645
266.5120, 18.58984
267.7280, 4.429199
268.9440, 77.54932
270.1600, 64.52539
271.3760, 66.49902
272.5920, 5.470703
273.8070, 30.56006
275.0220, 123.5923
276.2370, 26.62646
277.4520, 87.66162
278.6670, 57.69922
279.8820, 42.73730
281.0960, 156.7759
282.3100, 140.8169
283.5240, 140.8457
284.7380, 133.8193
285.9520, 217.7651
287.1650, 253.6562
288.3780, 271.4990
289.5920, 280.3442
290.8050, 296.1919
292.0170, 431.0430
293.2300, 465.8965
294.4430, 447.7959
295.6550, 628.7280
296.8670, 668.9507
298.0790, 671.0640
299.2910, 745.0728
300.5020, 811.1055
301.7140, 906.1870
302.9250, 970.6792
304.1360, 966.3862
305.3470, 1190.015
306.5580, 1198.405
307.7680, 1416.919
308.9780, 1521.917
310.1890, 1640.147
311.3990, 1763.173
312.6090, 1839.322
313.8180, 2091.484
315.0280, 2284.555
316.2370, 2589.856
317.4460, 2692.072
318.6550, 3020.246
319.8640, 3099.637
321.0730, 3259.859
322.2810, 3362.105
323.4890, 3420.390
324.6980, 3440.755
325.9060, 3482.074
327.1130, 3352.408
328.3210, 3202.001
329.5280, 3084.353
330.7360, 3002.708
331.9430, 2738.775
333.1500, 2768.140
334.3560, 2660.634
335.5630, 2722.007
336.7690, 2430.604
337.9760, 2245.051
339.1820, 2137.674
340.3870, 2109.573
341.5930, 2122.954
342.7990, 2060.334
344.0040, 1992.713
345.2090, 1920.333
346.4140, 1989.711
347.6190, 1923.088
348.8240, 1966.466
350.0280, 1980.842
351.2330, 2047.217
352.4370, 1943.592
353.6410, 2043.965
354.8440, 1973.828
356.0480, 2014.172
357.2520, 2003.437
358.4550, 1820.694
359.6580, 1954.870
360.8610, 1848.008
362.0640, 1818.148
363.2660, 1890.292
364.4690, 1783.438
365.6710, 1794.587
366.8730, 1804.739
368.0750, 1772.893
369.2770, 1663.048
370.4780, 1647.206
371.6800, 1697.365
372.8810, 1644.525
374.0820, 1679.687
375.2830, 1689.849
376.4830, 1665.011
377.6840, 1844.172
378.8840, 1816.333
380.0840, 1986.492
381.2840, 2073.650
382.4840, 2257.807
383.6840, 2331.962
384.8830, 2450.115
386.0830, 2607.430
387.2820, 2724.425
388.4810, 2910.564
389.6800, 2974.710
390.8780, 3006.230
392.0770, 2985.355
393.2750, 2919.129
394.4730, 2740.263
395.6710, 2539.394
396.8690, 2243.521
398.0660, 1909.645
399.2640, 1658.765
400.4610, 1530.881
401.6580, 1277.992
402.8550, 1085.101
404.0520, 994.2046
405.2490, 760.3042
406.4450, 676.3999
407.6410, 567.2554
408.8370, 431.1694
410.0330, 413.8198
411.2290, 348.2241
412.4240, 293.2969
413.6200, 246.2485
414.8150, 206.0117
416.0100, 143.6450
417.2050, 164.5112
418.4000, 183.5601
419.5940, 142.6040
420.7880, 84.64307
421.9830, 149.6768
423.1770, 98.35645
424.3700, 80.72900
425.5640, 79.74658
426.7580, 64.75879
427.9510, 60.76514
429.1440, 39.76611
430.3370, 123.7617
431.5300, 33.75244
432.7220, 33.26270
433.9150, 65.70654
435.1070, 22.67188
436.2990, 19.63086
437.4910, 70.58398
438.6830, 14.53271
439.8750, 56.47559
441.0660, 9.417480
442.2570, 16.35205
443.4480, 28.70605
444.6390, 46.77686
445.8300, 50.84766
447.0210, 55.26611
448.2110, 54.98730
449.4010, 7.166016
450.5910, 55.15674
451.7810, 17.89844
452.9710, 3.7108999E-02
454.1610, 43.18506
455.3500, 25.37793
456.5390, 32.69043
457.7280, 102.3125
458.9170, 20.36035
460.1060, 48.17090
461.2940, 183.8618
462.4830, 24.21729
463.6710, 77.71582
464.8590, 114.8687
466.0470, 149.2749
467.2350, 69.86768
468.4220, 131.5723
469.6090, 103.9824
470.7970, 35.32617
471.9840, 106.5869
473.1700, 143.6191
474.3570, 43.47900
475.5440, 122.2373
476.7300, 69.89551
477.9160, 137.0454
479.1020, 46.56787
480.2880, 83.74316
481.4740, 42.06836
482.6590, 17.21582
483.8440, 139.6255
485.0300, 134.4272
486.2140, 207.2153
487.3990, 1.009766
488.5840, 164.7393
489.7680, 133.4746
490.9530, 159.1968
492.1370, 230.9043
493.3210, 185.5977
494.5040, 354.2769
495.6880, 288.9419
496.8720, 255.5928
498.0550, 341.2310
499.2380, 409.8545
500.4210, 449.4644
501.6040, 524.0596
502.7860, 633.6411
503.9690, 649.2085
505.1510, 649.7612
506.3330, 764.3008
507.5150, 814.8252
508.6970, 902.3359
509.8780, 871.8311
511.0600, 914.3120
512.2410, 948.1489
513.4220, 817.2295
514.6030, 970.6655
515.7840, 952.0869
516.9640, 880.4927
518.1440, 926.8833
519.3250, 828.2583
520.5050, 977.6177
521.6850, 895.9619
522.8640, 811.2900
524.0440, 986.6025
525.2230, 996.8989
526.4020, 975.1792
527.5820, 1144.444
528.7600, 1034.692
529.9390, 1122.925
531.1180, 1105.141
532.2960, 1147.340
533.4740, 1073.522
534.6520, 1118.688
535.8300, 1054.838
537.0080, 974.9712
538.1850, 1014.087
539.3630, 1025.186
540.5400, 1065.269
541.7170, 1067.333
542.8940, 837.3809
544.0700, 918.4121
545.2470, 806.4253
546.4230, 831.4219
547.5990, 795.4014
548.7750, 832.3623
549.9510, 806.3164
551.1270, 844.2627
552.3020, 687.2104
553.4780, 826.1440
554.6530, 783.0601
555.8280, 863.9756
557.0030, 770.8882
558.1770, 835.7974
559.3520, 879.6899
560.5260, 732.5649
561.7000, 732.4209
562.8740, 699.2593
564.0480, 788.0791
565.2220, 750.8809
566.3950, 719.6641
567.5680, 700.4287
568.7420, 675.0176
569.9150, 656.8418
571.0870, 650.5698
572.2600, 632.2603
573.4320, 645.8608
574.6050, 651.2544
575.7770, 564.9497
576.9490, 532.5000
578.1210, 538.0420
579.2920, 485.7227
580.4640, 496.2783
581.6350, 443.2817
582.8060, 380.6680
583.9770, 322.2295
585.1480, 284.1821
586.3190, 305.4502
587.4890, 240.2881
588.6590, 226.4165
589.8290, 194.7144
590.9990, 112.2681
592.1690, 89.18115
593.3390, 83.62305
594.5080, 25.56592
595.6770, 92.72949
596.8470, 83.28174
598.0160, 64.98779
599.1840, 18.57080
600.3530, 60.10010
601.5210, 7.115234
602.6900, 99.19287
603.8580, 1.4648000E-02
605.0260, 28.72754
606.1930, 40.37744
607.3610, 50.04443
608.5280, 49.18652
609.6960, 57.98584
610.8630, 10.74902
612.0300, 126.1284
613.1970, 176.8110
614.3630, 41.46777
615.5300, 79.38037
616.6960, 21.04834
617.8620, 125.4629
619.0280, 87.97217
620.1940, 116.2271
621.3590, 98.60742
622.5250, 56.78271
623.6900, 88.65234
624.8550, 192.0122
626.0200, 233.3486
627.1850, 212.6602
628.3490, 239.7095
629.5140, 238.9746
630.6780, 228.2158
631.8420, 286.4336
633.0060, 358.6279
634.1700, 443.7998
635.3330, 456.9473
636.4970, 453.0723
637.6600, 592.1733
638.8230, 755.2520
639.9860, 630.3071
641.1490, 753.3394
642.3110, 814.3491
643.4740, 995.3354
644.6360, 1015.299
645.7980, 1247.241
646.9600, 1415.062
648.1220, 1675.055
649.2840, 1907.928
650.4450, 2118.778
651.6060, 2515.607
652.7670, 2662.412
653.9280, 3126.196
655.0890, 3629.958
656.2500, 4175.698
657.4100, 4799.417
658.5700, 5406.112
659.7300, 6166.786
660.8900, 6880.438
662.0500, 7510.070
663.2100, 7980.679
664.3690, 8192.268
665.5280, 8238.833
666.6880, 7893.377
667.8460, 7368.903
669.0050, 6576.406
670.1640, 6031.888
671.3220, 5151.349
672.4810, 4573.791
673.6390, 3804.210
674.7970, 3351.610
675.9540, 2856.989
677.1120, 2467.904
678.2690, 2274.688
679.4270, 1865.007
680.5840, 1654.306
681.7410, 1314.585
682.8980, 1189.845
684.0540, 1017.084
685.2110, 892.3047
686.3670, 840.5059
687.5230, 759.6875
688.6790, 678.2026
689.8350, 603.9937
690.9900, 551.1187
692.1460, 490.2246
693.3010, 462.3120
694.4560, 400.3711
695.6110, 401.4297
696.7660, 284.4614
697.9210, 328.4741
699.0750, 255.4688
700.2290, 304.4458
701.3840, 259.4043
702.5370, 290.3447
703.6910, 260.5288
704.8450, 209.1724
705.9980, 193.0601
707.1520, 159.9302
708.3050, 114.7832
709.4580, 182.6191
710.6110, 145.4385
711.7630, 142.2412
712.9160, 72.02734
714.0680, 56.80713
715.2200, 55.24414
716.3720, 47.31689
717.5240, 41.04736
718.6760, 24.76123
719.8270, 36.54199
720.9780, 46.10742
722.1300, 34.25781
723.2810, 8.332520
724.4310, 96.08936
725.5820, 94.57324
726.7330, 57.11670
727.8830, 92.69775
729.0330, 34.33545
730.1830, 6.864746
731.3330, 123.0200
732.4830, 52.04541
733.6320, 150.1196
734.7810, 63.30322
735.9310, 82.64648
737.0800, 32.34668
738.2290, 52.50342
739.3770, 40.42676
740.5260, 82.33398
741.6740, 46.91455
742.8220, 77.67334
743.9700, 114.1284
745.1180, 30.88867
746.2660, 61.86328
747.4130, 67.01465
748.5610, 39.16699
749.7080, 23.63477
750.8550, 62.62109
752.0020, 8.084961
753.1490, 60.66064
754.2950, 30.61377
755.4420, 150.1450
756.5880, 55.39209
757.7340, 32.24854
758.8800, 148.4326
760.0250, 45.44873
761.1710, 139.6230
762.3160, 178.5142
763.4620, 194.9961
764.6070, 157.4741
765.7520, 217.9478
766.8960, 185.4233
768.0410, 149.8970
769.1850, 230.3667
770.3300, 222.8345
771.4740, 171.2993
772.6180, 278.7627
773.7610, 199.2241
774.9050, 185.6841
776.0480, 200.1421
777.1920, 162.6001
778.3350, 244.0562
779.4780, 238.5127
780.6200, 235.9683
781.7630, 261.4243
782.9060, 239.8804
784.0480, 316.3374
785.1900, 293.7949
786.3320, 172.2539
787.4740, 331.7134
788.6150, 240.1753
789.7570, 291.6392
790.8980, 365.1050
792.0390, 175.5737
793.1800, 276.0444
794.3210, 146.5186
795.4620, 306.9961
796.6020, 305.4775
797.7420, 279.9624
798.8830, 260.4512
800.0230, 351.9443
801.1620, 325.4419
802.3020, 228.9438
803.4420, 306.4517
804.5810, 393.9644
805.7200, 536.4814
806.8590, 332.0059
807.9980, 454.5356
809.1370, 485.0713
810.2750, 560.6138
811.4140, 555.1621
812.5520, 475.7183
813.6900, 642.2808
814.8280, 495.8511
815.9650, 474.4287
817.1030, 557.0142
818.2400, 639.6074
819.3780, 642.2095
820.5150, 618.8193
821.6520, 536.4380
822.7880, 665.0654
823.9250, 675.7021
825.0610, 577.3481
826.1980, 662.0034
827.3340, 678.6685
828.4700, 597.3442
829.6050, 568.0288
830.7410, 660.7246
831.8760, 617.4316
833.0120, 610.1489
834.1470, 658.8770
835.2820, 544.6167
836.4160, 571.3677
837.5510, 549.1304
838.6860, 575.9053
839.8200, 584.6919
840.9540, 562.3081
842.0880, 542.3032
843.2220, 518.1274
844.3550, 528.9648
845.4890, 495.8154
846.6220, 651.6792
847.7550, 646.5566
848.8880, 627.4478
850.0210, 783.3477
851.1540, 952.2051
852.2860, 816.0791
853.4190, 791.9424
854.5510, 936.8027
855.6830, 904.6177
856.8150, 1011.147
857.9460, 1021.099
859.0780, 1053.898
860.2090, 991.4082
861.3410, 1026.456
862.4720, 923.6660
863.6020, 898.2964
864.7330, 788.7637
865.8640, 781.9663
866.9940, 791.7866
868.1240, 654.5718
869.2540, 672.8901
870.3840, 571.1440
871.5140, 505.9302
872.6440, 522.5879
873.7730, 509.4927
874.9020, 502.2490
876.0320, 504.8589
877.1600, 463.0098
878.2890, 335.4868
879.4180, 437.2168
880.5460, 450.7842
881.6750, 509.8042
882.8030, 314.0347
883.9310, 364.6885
885.0590, 269.3730
886.1860, 362.2393
887.3140, 318.0454
888.4410, 305.8970
889.5680, 326.7881
890.6950, 304.6616
891.8220, 323.9248
892.9490, 347.6846
894.0750, 335.7476
895.2020, 375.8516
896.3280, 347.0132
897.4540, 282.2075
898.5800, 286.4551
899.7050, 212.7402
900.8310, 231.0879
901.9560, 261.4707
903.0820, 239.8799
904.2070, 331.3330
905.3320, 297.8330
906.4560, 234.3633
907.5810, 293.9238
908.7050, 267.5112
909.8300, 280.1260
910.9540, 339.7832
912.0780, 308.4873
913.2010, 323.2202
914.3250, 316.9902
915.4480, 321.8022
916.5720, 342.6426
917.6950, 382.5107
918.8180, 369.4355
919.9410, 425.3872
921.0630, 446.6982
922.1860, 462.3804
923.3080, 493.4233
924.4300, 472.5142
925.5520, 447.6333
926.6740, 389.7881
927.7960, 434.0073
928.9170, 368.2612
930.0390, 397.5435
931.1600, 387.8550
932.2810, 457.1938
933.4020, 385.5630
934.5230, 447.9644
935.6430, 466.3965
936.7640, 389.8589
937.8840, 396.3516
939.0040, 363.8726
940.1240, 357.8604
941.2440, 332.0015
942.3630, 356.6196
943.4830, 341.2656
944.6020, 311.9404
945.7210, 268.6436
946.8400, 382.3750
947.9590, 336.1348
949.0770, 390.9219
950.1960, 307.7383
951.3140, 442.5830
952.4320, 432.4565
953.5500, 348.3574
954.6680, 427.2915
955.7860, 446.2544
956.9030, 368.2446
958.0210, 369.2686
959.1380, 362.3911
960.2550, 390.4009
961.3720, 394.5093
962.4890, 396.6455
963.6050, 485.8086
964.7220, 508.9995
965.8380, 543.2188
966.9540, 511.4683
968.0700, 651.7451
969.1860, 543.0488
970.3010, 568.3804
971.4170, 687.7402
972.5320, 620.1265
973.6470, 705.5405
974.7620, 764.9810
975.8770, 776.4512
976.9910, 746.9468
978.1060, 873.4697
979.2200, 829.0200
980.3340, 850.5962
981.4480, 954.1992
982.5620, 854.8301
983.6760, 1074.487
984.7890, 1106.172
985.9030, 1027.884
987.0160, 1141.622
988.1290, 1323.389
989.2420, 1276.184
990.3550, 1467.005
991.4670, 1538.871
992.5800, 1716.762
993.6920, 1978.693
994.8040, 2102.653
995.9160, 2441.670
997.0280, 2735.745
998.1390, 2898.865
999.2510, 3276.039
1000.362, 3550.252
1001.473, 4029.491
1002.584, 4343.793
1003.695, 4647.136
1004.805, 5239.547
1005.916, 5455.002
1007.026, 5629.506
1008.136, 5795.047
1009.246, 5729.626
1010.356, 5601.606
1011.466, 5331.310
1012.576, 4747.487
1013.685, 4377.241
1014.794, 3697.485
1015.903, 3100.321
1017.012, 2807.704
1018.121, 2347.598
1019.229, 2042.598
1020.338, 1661.835
1021.446, 1667.109
1022.554, 1396.208
1023.662, 1339.426
1024.770, 1319.449
1025.878, 1247.511
1026.985, 1150.913
1028.092, 1154.789
1029.200, 1147.650
1030.307, 1163.762
1031.413, 1121.226
1032.520, 1117.776
1033.627, 1058.200
1034.733, 1171.137
1035.839, 1114.326
1036.945, 1161.165
1038.051, 1103.863
1039.157, 1129.798
1040.262, 1071.318
1041.368, 1096.575
1042.473, 1084.845
1043.578, 1008.328
1044.683, 995.1147
1045.788, 915.7080
1046.893, 837.8965
1047.997, 857.5176
1049.101, 786.8843
1050.205, 767.1831
1051.309, 735.0874
1052.413, 712.4575
1053.517, 704.8438
1054.621, 651.3926
1055.724, 660.0190
1056.827, 523.0347
1057.930, 608.4946
1059.033, 546.3843
1060.136, 450.4150
1061.238, 504.1006
1062.341, 481.7598
1063.443, 408.2124
1064.545, 559.6714
1065.647, 402.4922
1066.749, 440.8140
1067.850, 442.8047
1068.952, 379.7168
1070.053, 443.5439
1071.154, 320.0679
1072.255, 425.7930
1073.356, 312.3120
1074.457, 254.4082
1075.557, 366.9165
1076.658, 289.4292
1077.758, 310.9448
1078.858, 288.5049
1079.958, 423.0269
1081.057, 292.6318
1082.157, 462.2871
1083.256, 371.8945
1084.356, 206.4585
1085.455, 224.9912
1086.554, 411.6763
1087.653, 241.2690
1088.751, 343.8418
1089.850, 247.5894
1090.948, 247.1279
1092.046, 229.8027
1093.144, 133.3413
1094.242, 304.8799
1095.340, 203.4175
1096.437, 191.9551
1097.534, 242.6670
1098.632, 192.7119
1099.729, 220.2466
1100.826, 163.7876
1101.922, 190.3604
1103.019, 324.9990
1104.115, 319.5259
1105.212, 234.0503
1106.308, 216.5723
1107.404, 64.39062
1108.499, 169.9062
1109.595, 227.4194
1110.691, 103.9282
1111.786, 211.4331
1112.881, 215.9346
1113.976, 198.5884
1115.071, 174.2554
1116.166, 237.8716
1117.260, 145.4131
1118.355, 200.9741
1119.449, 173.9658
1120.543, 176.5269
1121.637, 124.2480
1122.731, 162.0142
1123.824, 182.4639
1124.918, 101.9067
1126.011, 153.3428
1127.104, 141.7725
1128.197, 100.8276
1129.290, 143.2417
1130.382, 147.6787
1131.475, 99.07666
1132.567, 95.46582
1133.659, 52.84570
1134.751, 97.21729
1135.843, 44.57861
1136.935, 45.93066
1138.027, 5.436523
1139.118, 55.80762
1140.209, 52.24023
1141.300, 9.245117
1142.391, 38.21680
1143.482, 75.88379
1144.573, 89.43457
1145.663, 25.36768
1146.754, 33.80273
1147.844, 88.03955
1148.934, 72.05713
1150.024, 174.6787
1151.113, 17.70361
1152.203, 64.75488
1153.292, 12.85889
1154.381, 124.9888
1155.470, 59.79639
1156.559, 8.432129
1157.648, 12.59375
1158.737, 34.87646
1159.825, 97.20020
1160.913, 91.79688
1162.001, 72.61475
1163.089, 25.08936
1164.177, 117.6011
1165.265, 13.20020
1166.352, 124.1680
1167.440, 41.47998
1168.527, 54.17529
1169.614, 7.073242
1170.701, 18.29834
1171.788, 135.5049
1172.874, 96.69434
1173.961, 30.13281
1175.047, 50.00537
1176.133, 24.06592
1177.219, 6.883301
1178.305, 28.86816
1179.390, 75.10107
1180.476, 45.05176
1181.561, 76.01562
1182.646, 115.8442
1183.731, 81.68604
1184.816, 9.509277
1185.901, 38.30469
1186.985, 44.91992
1188.070, 78.79590
1189.154, 6.493164
1190.238, 106.8413
1191.322, 11.88965
1192.406, 47.43164
1193.489, 110.9536
1194.573, 121.4565
1195.656, 40.94092
1196.739, 24.40234
1197.822, 35.87598
1198.905, 40.24805
1199.988, 45.63525
1201.070, 98.06396
1202.153, 56.40918
1203.235, 103.7334
1204.317, 4.962402
1205.399, 120.2988
1206.481, 180.5410
1207.562, 141.7637
1208.644, 103.9668
1209.725, 141.1499
1210.806, 96.79688
1211.887, 86.45654
1212.968, 99.57910
1214.049, 111.6802
1215.129, 194.7617
1216.209, 27.82275
1217.290, 108.8535
1218.370, 114.8638
1219.450, 27.85352
1220.529, 195.8125
1221.609, 93.75098
1222.688, 182.6685
1223.768, 151.5649
1224.847, 172.4414
1225.926, 189.2983
1227.005, 89.13428
1228.083, 56.94824
1229.162, 203.7383
1230.240, 131.5063
1231.318, 124.2549
1232.396, 108.9893
1233.474, 240.7017
1234.552, 176.3936
1235.629, 287.0654
1236.707, 76.71729
1237.784, 196.3457
1238.861, 168.9541
1239.938, 208.5415
1241.015, 143.1094
1242.092, 192.6567
1243.168, 105.1841
1244.244, 101.6895
1245.321, 113.1733
1246.397, 130.6353
1247.473, 125.3169
1248.548, 66.49658
1249.624, 123.8916
1250.699, 89.26660
1251.775, 83.61865
1252.850, 156.9473
1253.925, 297.2559
1254.999, 255.5508
1256.074, 160.8252
1257.148, 63.07910
1258.223, 211.3071
1259.297, 143.5146
1260.371, 201.7021
1261.445, 171.8726
1262.519, 247.0225
1263.592, 201.1519
1264.666, 185.2612
1265.739, 187.3501
1266.812, 114.4194
1267.885, 144.4780
1268.958, 127.5156
1270.030, 105.5376
1271.103, 28.17529
1272.175, 136.1079
1273.247, 123.5845
1274.319, 199.5088
1275.391, 155.9746
1276.463, 184.8599
1277.535, 233.3521
1278.606, 101.2827
1279.677, 161.0254
1280.748, 204.5664
1281.819, 130.0430
1282.890, 153.6973
1283.961, 180.2354
1285.031, 179.9736
1286.102, 98.67383
1287.172, 181.0361
1288.242, 141.9248
1289.312, 39.88428
1290.381, 196.5371
1291.451, 186.8384
1292.520, 233.0527
1293.590, 235.3926
1294.659, 177.2202
1295.728, 195.7944
1296.797, 196.9390
1297.865, 191.6436
1298.934, 195.1597
1300.002, 210.4199
1301.070, 156.9204
1302.138, 131.4062
1303.206, 146.4893
1304.274, 121.1836
1305.341, 169.8013
1306.409, 132.3638
1307.476, 135.4917
1308.543, 148.0259
1309.610, 134.6035
1310.677, 138.7168
1311.744, 144.5234
1312.810, 137.8696
1313.877, 177.2563
1314.943, 166.3564
1316.009, 193.0645
1317.075, 243.3242
1318.140, 297.1519
1319.206, 18.83496
1320.272, 105.8589
1321.337, 121.9058
1322.402, 84.15527
1323.467, 223.3950
1324.532, 199.2686
1325.596, 166.6372
