##NAMES=Augite
##RRUFFID=R070231
##IDEAL CHEMISTRY=(Ca,Mg,Fe^2+^,Fe^3+^)_2_(Si,Al)_2_O_6_
##LOCALITY=Old Goose Creek Quarry, Leesburg, Loudoun County, Virginia, USA
##OWNER=RRUFF
##SOURCE=Michael Scott
##DESCRIPTION=Very dark grey-green prismatic crystals frozen in quartz
##STATUS=The identification of this mineral is confirmed by single-crystal X-ray diffraction and chemical analysis.
##URL=rruff.info/R070231
##MEASURED CHEMISTRY=(Mg_0.44_Fe_0.37_Ca_0.17_Ti_0.01_Mn_0.01_)_Σ=1_(Si_0.98_Al_0.02_)_Σ=1_O_3_
##PIN_ID=M00357
##ORIENTATION=Laser parallel to b* (0 1 0). Fiducial mark perpendicular to laser is parallel to c [0 0 1]
139.9550, 0.0000000E+00
141.1900, 184.0820
142.4250, 1.271484
143.6600, 147.3379
144.8940, 213.2363
146.1280, 489.6992
147.3620, 549.5791
148.5960, 237.7383
149.8300, 857.6367
151.0630, 920.6074
152.2960, 485.6357
153.5300, 433.9805
154.7620, 621.8008
155.9950, 177.3770
157.2280, 48.75977
158.4600, 33.46484
159.6920, 48.69043
160.9250, 316.6699
162.1560, 545.6846
163.3880, 906.0703
164.6200, 969.8867
165.8510, 1203.039
167.0820, 1081.639
168.3130, 1487.768
169.5440, 1726.023
170.7750, 1834.845
172.0050, 1590.347
173.2350, 1716.760
174.4650, 1733.084
175.6950, 1929.211
176.9250, 2099.311
178.1550, 2280.924
179.3840, 2130.785
180.6130, 2109.255
181.8420, 2013.398
183.0710, 2153.186
184.3000, 2196.582
185.5280, 2279.255
186.7570, 2308.473
187.9850, 2213.389
189.2130, 2182.109
190.4400, 2316.260
191.6680, 2580.532
192.8960, 2538.824
194.1230, 2464.361
195.3500, 2308.339
196.5770, 2385.968
197.8030, 2473.910
199.0300, 2702.821
200.2560, 2914.442
201.4830, 2732.002
202.7090, 2331.240
203.9340, 1637.797
205.1600, 1058.296
206.3860, 725.7715
207.6110, 648.4570
208.8360, 862.0781
210.0610, 755.4814
211.2860, 924.1475
212.5100, 1017.551
213.7350, 937.5996
214.9590, 955.2109
216.1830, 1009.275
217.4070, 1061.617
218.6310, 1007.150
219.8540, 887.8359
221.0780, 1017.634
222.3010, 1014.479
223.5240, 927.2031
224.7470, 741.9346
225.9690, 825.7930
227.1920, 885.7881
228.4140, 873.9277
229.6360, 880.2178
230.8580, 899.6689
232.0800, 763.3086
233.3020, 797.9434
234.5230, 757.8818
235.7440, 803.4121
236.9650, 701.7793
238.1860, 780.1885
239.4070, 710.6367
240.6280, 327.0859
241.8480, 422.5068
243.0680, 322.8750
244.2880, 400.1543
245.5080, 381.3359
246.7280, 200.3955
247.9470, 64.26465
249.1660, 113.6172
250.3860, 208.3896
251.6040, 224.5703
252.8230, 72.99707
254.0420, 34.28516
255.2600, 20.81934
256.4790, 82.73633
257.6970, 81.20410
258.9150, 171.3467
260.1320, 11.21387
261.3500, 16.00684
262.5670, 54.50195
263.7840, 38.42676
265.0010, 81.06445
266.2180, 3.224609
267.4350, 74.46875
268.6510, 70.92090
269.8680, 96.57520
271.0840, 82.45703
272.3000, 43.79785
273.5160, 0.5175780
274.7310, 77.36426
275.9470, 110.6367
277.1620, 207.9385
278.3770, 199.2695
279.5920, 198.3857
280.8070, 133.7598
282.0210, 375.2637
283.2360, 433.1963
284.4500, 727.9980
285.6640, 656.7578
286.8780, 767.8340
288.0920, 833.9297
289.3050, 1018.802
290.5180, 1147.246
291.7320, 1325.010
292.9450, 1492.742
294.1570, 1725.762
295.3700, 1928.047
296.5830, 2141.747
297.7950, 2457.204
299.0070, 2853.023
300.2190, 3151.658
301.4310, 3502.401
302.6420, 3954.194
303.8540, 4554.681
305.0650, 4903.446
306.2760, 5658.699
307.4870, 6358.925
308.6980, 7003.240
309.9080, 7840.605
311.1190, 8561.491
312.3290, 9509.445
313.5390, 10273.33
314.7490, 10668.84
315.9580, 10969.60
317.1680, 11231.69
318.3770, 11530.09
319.5860, 11203.59
320.7950, 10913.67
322.0040, 10330.43
323.2130, 9952.746
324.4210, 8866.488
325.6290, 8369.248
326.8380, 7699.930
328.0460, 7189.705
329.2530, 6584.203
330.4610, 6215.047
331.6680, 5762.128
332.8760, 5622.090
334.0830, 5240.059
335.2890, 5237.707
336.4960, 4927.475
337.7030, 4888.563
338.9090, 4729.241
340.1150, 4679.543
341.3210, 4725.225
342.5270, 4753.268
343.7330, 4892.070
344.9380, 4857.879
346.1440, 4890.107
347.3490, 5009.480
348.5540, 4883.932
349.7590, 4836.162
350.9630, 4849.928
352.1680, 4867.012
353.3720, 4825.614
354.5760, 4616.994
355.7800, 4490.820
356.9840, 4343.586
358.1870, 4164.199
359.3910, 4023.394
360.5940, 3850.798
361.7970, 3709.384
363.0000, 3599.144
364.2030, 3705.629
365.4050, 3561.568
366.6080, 3605.000
367.8100, 3395.369
369.0120, 3584.322
370.2140, 3782.454
371.4150, 3828.884
372.6170, 4024.513
373.8180, 4039.040
375.0190, 4225.539
376.2200, 4591.062
377.4210, 4846.957
378.6220, 4974.938
379.8220, 5132.689
381.0230, 5567.567
382.2230, 5549.956
383.4230, 5737.605
384.6220, 5783.900
385.8220, 5522.449
387.0220, 5401.402
388.2210, 5185.522
389.4200, 4876.756
390.6190, 4611.105
391.8180, 4187.311
393.0160, 3762.385
394.2150, 3308.751
395.4130, 3008.854
396.6110, 2579.036
397.8090, 2351.560
399.0060, 2065.740
400.2040, 1638.473
401.4010, 1716.377
402.5980, 1326.004
403.7950, 1344.338
404.9920, 1082.381
406.1890, 1083.202
407.3860, 1121.308
408.5820, 760.9609
409.7780, 849.9307
410.9740, 720.0635
412.1700, 740.4326
413.3650, 625.0166
414.5610, 738.9844
415.7560, 706.8320
416.9510, 618.0967
418.1460, 580.0947
419.3410, 626.0391
420.5360, 646.2148
421.7300, 713.1602
422.9240, 726.9883
424.1180, 729.7686
425.3120, 797.9639
426.5060, 798.6865
427.7000, 710.6045
428.8930, 707.7090
430.0860, 575.4707
431.2790, 561.5312
432.4720, 446.7246
433.6650, 424.2422
434.8580, 493.6348
436.0500, 398.9102
437.2420, 358.0654
438.4340, 246.1025
439.6260, 228.0420
440.8180, 266.8623
442.0090, 164.2148
443.2010, 142.9961
444.3920, 77.61426
445.5830, 53.18066
446.7740, 68.20703
447.9640, 38.96387
449.1550, 122.6787
450.3450, 195.5303
451.5350, 240.9023
452.7250, 154.3467
453.9150, 229.4316
455.1050, 222.0840
456.2940, 119.3809
457.4830, 168.9365
458.6720, 144.6729
459.8610, 116.6904
461.0500, 93.23633
462.2390, 85.45312
463.4270, 55.59863
464.6150, 30.06250
465.8040, 7.592773
466.9910, 58.43555
468.1790, 13.61035
469.3670, 85.11621
470.5540, 82.86621
471.7410, 41.39648
472.9280, 79.22461
474.1150, 93.94531
475.3020, 90.97461
476.4890, 237.8633
477.6750, 256.6279
478.8610, 132.2715
480.0470, 170.7822
481.2330, 305.1650
482.4190, 321.4326
483.6040, 420.5850
484.7900, 509.9277
485.9750, 510.5645
487.1600, 684.3945
488.3450, 855.1299
489.5290, 937.7715
490.7140, 1174.324
491.8980, 1355.786
493.0820, 1479.158
494.2660, 1789.444
495.4500, 2056.651
496.6340, 2231.777
497.8170, 2521.823
499.0010, 2977.790
500.1840, 3075.674
501.3670, 3519.474
502.5500, 3517.193
503.7320, 3490.828
504.9150, 3690.381
506.0970, 3442.849
507.2790, 3368.234
508.4610, 3367.537
509.6430, 3387.759
510.8250, 3227.896
512.0060, 3267.953
513.1870, 3116.931
514.3680, 3594.830
515.5490, 3405.689
516.7300, 3788.387
517.9110, 3374.047
519.0910, 3625.625
520.2710, 3672.125
521.4510, 3590.549
522.6310, 3748.895
523.8110, 3978.163
524.9910, 4052.354
526.1700, 4324.471
527.3490, 4211.510
528.5280, 4273.481
529.7070, 4379.383
530.8860, 4151.217
532.0650, 4230.981
533.2430, 4409.678
534.4210, 4358.311
535.5990, 4320.807
536.7770, 4289.705
537.9550, 4076.919
539.1320, 4059.332
540.3100, 3924.709
541.4870, 3911.933
542.6640, 3977.308
543.8410, 3952.553
545.0170, 4068.740
546.1940, 4143.919
547.3700, 4329.049
548.5470, 4282.132
549.7230, 4520.157
550.8980, 4862.030
552.0740, 4779.983
553.2500, 5038.649
554.4250, 4998.399
555.6000, 4909.662
556.7750, 4633.416
557.9500, 4554.037
559.1250, 4291.325
560.2990, 3875.388
561.4730, 3878.667
562.6480, 3464.060
563.8220, 3434.746
564.9950, 3235.486
566.1690, 2867.231
567.3430, 2731.975
568.5160, 2486.715
569.6890, 2293.428
570.8620, 2203.126
572.0350, 1816.245
573.2070, 1806.281
574.3800, 1448.790
575.5520, 1349.156
576.7240, 1157.754
577.8960, 1078.896
579.0680, 875.8105
580.2400, 629.1992
581.4110, 475.4551
582.5830, 319.8174
583.7540, 187.5498
584.9250, 47.69727
586.0950, 23.58887
587.2660, 115.5605
588.4370, 125.8486
589.6070, 159.8555
590.7770, 227.0693
591.9470, 205.3760
593.1170, 240.4365
594.2860, 237.0488
595.4560, 247.1387
596.6250, 230.6094
597.7940, 204.3135
598.9630, 209.9502
600.1320, 102.1416
601.3000, 120.9570
602.4690, 83.37988
603.6370, 165.2139
604.8050, 142.0010
605.9730, 83.20605
607.1410, 183.6094
608.3090, 119.3555
609.4760, 67.87207
610.6430, 228.2383
611.8100, 294.3125
612.9770, 469.4473
614.1440, 447.0381
615.3110, 453.2041
616.4770, 622.2920
617.6430, 600.1816
618.8090, 844.2051
619.9750, 859.9004
621.1410, 980.0596
622.3070, 1136.423
623.4720, 1171.857
624.6370, 1255.684
625.8020, 1375.858
626.9670, 1560.015
628.1320, 1815.874
629.2970, 1889.297
630.4610, 2218.683
631.6250, 2353.033
632.7890, 2709.349
633.9530, 2885.632
635.1170, 3297.881
636.2810, 3661.097
637.4440, 3870.280
638.6070, 4450.434
639.7700, 4893.555
640.9330, 5450.646
642.0960, 5981.707
643.2590, 6753.738
644.4210, 7491.741
645.5830, 8356.717
646.7450, 9390.662
647.9070, 10537.58
649.0690, 12012.48
650.2310, 13640.35
651.3920, 15749.19
652.5530, 17947.01
653.7140, 20622.80
654.8750, 23434.58
656.0360, 27121.32
657.1970, 30363.05
658.3570, 33943.75
659.5170, 37175.44
660.6770, 40047.10
661.8370, 42368.74
662.9970, 42030.38
664.1570, 41259.98
665.3160, 38952.57
666.4750, 36287.14
667.6340, 32481.70
668.7930, 28589.24
669.9520, 25043.76
671.1110, 21786.27
672.2690, 18817.77
673.4270, 16155.25
674.5850, 13963.84
675.7430, 12098.18
676.9010, 10539.62
678.0590, 9327.055
679.2160, 8405.480
680.3730, 7466.893
681.5300, 6721.295
682.6870, 6265.689
683.8440, 5756.074
685.0010, 5337.451
686.1570, 5118.820
687.3130, 4985.182
688.4690, 4802.537
689.6250, 4566.887
690.7810, 4475.229
691.9370, 4407.568
693.0920, 4339.290
694.2470, 4516.382
695.4020, 4421.808
696.5570, 4562.134
697.7120, 4830.689
698.8670, 4995.324
700.0210, 5139.761
701.1750, 5192.014
702.3290, 5407.773
703.4830, 5567.365
704.6370, 5688.123
705.7910, 6052.283
706.9440, 6036.529
708.0970, 6171.099
709.2510, 6521.742
710.4030, 6345.823
711.5560, 6591.845
712.7090, 6706.545
713.8610, 6867.613
715.0140, 6926.241
716.1660, 6962.619
717.3180, 6982.510
718.4690, 7019.816
719.6210, 7054.131
720.7730, 7211.441
721.9240, 7146.129
723.0750, 7076.223
724.2260, 6817.527
725.3770, 6791.717
726.5270, 6702.272
727.6780, 6559.205
728.8280, 6319.032
729.9780, 5990.672
731.1280, 5972.709
732.2780, 5757.586
733.4280, 5514.727
734.5770, 5402.290
735.7260, 5255.954
736.8760, 4992.348
738.0250, 4704.466
739.1730, 4544.441
740.3220, 4275.334
741.4700, 3906.693
742.6190, 3791.027
743.7670, 3413.946
744.9150, 3262.703
746.0630, 2961.044
747.2100, 2878.960
748.3580, 2558.678
749.5050, 2548.564
750.6520, 2323.816
751.7990, 2224.127
752.9460, 2099.530
754.0930, 1954.991
755.2390, 1971.510
756.3860, 1873.079
757.5320, 1795.700
758.6780, 1614.377
759.8240, 1717.109
760.9690, 1745.894
762.1150, 1538.728
763.2600, 1556.612
764.4060, 1551.543
765.5510, 1428.525
766.6950, 1534.555
767.8400, 1369.628
768.9850, 1490.748
770.1290, 1428.914
771.2730, 1441.127
772.4170, 1483.387
773.5610, 1378.234
774.7050, 1298.052
775.8480, 1229.459
776.9920, 1143.916
778.1350, 1111.425
779.2780, 1090.555
780.4210, 1248.597
781.5640, 1077.263
782.7060, 1142.982
783.8490, 1107.757
784.9910, 1079.916
786.1330, 1240.473
787.2750, 1018.414
788.4170, 1103.412
789.5580, 939.4688
790.7000, 720.5830
791.8410, 804.7559
792.9820, 680.0684
794.1230, 803.2803
795.2640, 662.6328
796.4040, 626.0459
797.5450, 659.5186
798.6850, 598.0547
799.8250, 679.6533
800.9650, 505.3135
802.1050, 424.0361
803.2450, 459.8242
804.3840, 429.6758
805.5230, 390.5928
806.6630, 388.1641
807.8020, 300.6201
808.9400, 325.7344
810.0790, 295.9141
811.2170, 234.1611
812.3560, 231.4746
813.4940, 328.8564
814.6320, 168.3066
815.7700, 311.8252
816.9070, 283.4131
818.0450, 161.0703
819.1820, 156.7979
820.3190, 139.5947
821.4560, 203.4619
822.5930, 168.0000
823.7300, 170.1787
824.8670, 121.4912
826.0030, 137.6455
827.1390, 68.87012
828.2750, 44.16895
829.4110, 68.54102
830.5470, 5.985352
831.6820, 28.16992
832.8180, 21.07324
833.9530, 136.2803
835.0880, 162.6084
836.2230, 199.9219
837.3580, 370.2354
838.4920, 318.6133
839.6270, 252.0371
840.7610, 320.4775
841.8950, 287.9619
843.0290, 312.4756
844.1630, 340.0283
845.2960, 301.6309
846.4300, 181.2676
847.5630, 180.8887
848.6960, 74.49414
849.8290, 57.04688
850.9620, 58.45996
852.0940, 239.0459
853.2270, 407.7129
854.3590, 328.4609
855.4910, 463.2881
856.6230, 637.1973
857.7550, 691.1875
858.8870, 568.2637
860.0180, 482.4248
861.1500, 586.6895
862.2810, 540.0605
863.4120, 496.5781
864.5430, 503.5723
865.6730, 280.0615
866.8040, 424.0557
867.9340, 259.2188
869.0640, 189.5586
870.1940, 233.0781
871.3240, 229.7754
872.4540, 240.6494
873.5830, 252.6904
874.7130, 277.0342
875.8420, 311.7266
876.9710, 348.9277
878.1000, 385.4023
879.2290, 442.2061
880.3570, 505.1797
881.4860, 587.2529
882.6140, 658.4219
883.7420, 749.6807
884.8700, 773.8779
885.9980, 812.5215
887.1250, 818.0830
888.2530, 849.7725
889.3800, 872.9238
890.5070, 945.7090
891.6340, 1007.556
892.7610, 1053.688
893.8880, 1157.903
895.0140, 1087.211
896.1400, 1019.621
897.2670, 1048.175
898.3930, 1225.836
899.5180, 1160.604
900.6440, 1390.508
901.7700, 1285.521
902.8950, 1248.646
904.0200, 1451.861
905.1450, 1381.167
906.2700, 1525.599
907.3950, 1515.121
908.5190, 1512.783
909.6440, 1506.602
910.7680, 1633.513
911.8920, 1712.555
913.0160, 1801.708
914.1400, 1886.998
915.2630, 1949.434
916.3870, 1830.006
917.5100, 1833.705
918.6330, 2049.537
919.7560, 1970.474
920.8790, 2078.523
922.0010, 1959.690
923.1240, 2121.959
924.2460, 1963.315
925.3680, 1899.764
926.4900, 1911.302
927.6120, 1816.928
928.7340, 1936.639
929.8550, 1812.438
930.9760, 1659.347
932.0980, 1881.356
933.2190, 1699.475
934.3390, 1695.677
935.4600, 1657.967
936.5810, 1464.350
937.7010, 1540.816
938.8210, 1453.373
939.9410, 1512.021
941.0610, 1533.767
942.1810, 1607.596
943.3010, 1551.517
944.4200, 1746.522
945.5390, 1633.608
946.6580, 1554.776
947.7770, 1794.027
948.8960, 1910.363
950.0150, 1766.779
951.1330, 1906.270
952.2510, 1911.838
953.3690, 2051.480
954.4870, 2185.202
955.6050, 2185.999
956.7230, 2188.869
957.8400, 2279.815
958.9580, 2497.838
960.0750, 2573.936
961.1920, 2655.730
962.3090, 2533.356
963.4250, 2819.676
964.5420, 2962.065
965.6580, 3169.377
966.7740, 4813.815
967.8900, 4941.426
969.0060, 5390.486
970.1220, 5129.315
971.2380, 5662.164
972.3530, 5106.988
973.4680, 4837.514
974.5830, 5217.277
975.6980, 5644.941
976.8130, 6400.273
977.9280, 6785.583
979.0420, 7324.644
980.1560, 8308.701
981.2710, 9067.391
982.3850, 10022.21
983.4980, 11060.42
984.6120, 11984.34
985.7260, 13278.11
986.8390, 14249.95
987.9520, 15099.86
989.0650, 15783.85
990.1780, 16445.90
991.2910, 16582.03
992.4030, 16546.22
993.5160, 16787.50
994.6280, 17174.83
995.7400, 17786.23
996.8520, 18323.70
997.9640, 19268.23
999.0750, 20508.84
1000.187, 22101.52
1001.298, 23893.23
1002.409, 26391.02
1003.520, 29075.87
1004.631, 32247.78
1005.741, 36094.75
1006.852, 38652.79
1007.962, 41502.86
1009.072, 44115.02
1010.182, 45068.23
1011.292, 44403.75
1012.402, 42680.07
1013.511, 39213.44
1014.621, 34432.20
1015.730, 29577.58
1016.839, 25045.09
1017.948, 21113.22
1019.056, 17760.84
1020.165, 15874.25
1021.273, 13178.30
1022.382, 11862.89
1023.490, 10607.56
1024.598, 9596.941
1025.706, 8833.087
1026.813, 8340.030
1027.921, 8057.402
1029.028, 7478.090
1030.135, 7180.087
1031.242, 7121.191
1032.349, 6743.373
1033.456, 6646.229
1034.562, 6529.760
1035.668, 6402.557
1036.775, 6234.536
1037.881, 6277.268
1038.987, 5859.155
1040.092, 5894.192
1041.198, 5447.422
1042.303, 5350.594
1043.408, 5132.543
1044.514, 4957.631
1045.618, 4800.166
1046.723, 4585.357
1047.828, 4425.654
1048.932, 4249.665
1050.037, 3967.639
1051.141, 3925.450
1052.245, 3770.656
1053.349, 3428.201
1054.452, 3445.924
1055.556, 3369.979
1056.659, 3230.245
1057.762, 3159.190
1058.865, 3060.656
1059.968, 2938.266
1061.071, 2759.102
1062.174, 2670.967
1063.276, 2649.903
1064.378, 2453.730
1065.480, 2393.623
1066.582, 2393.838
1067.684, 2288.414
1068.786, 2165.151
1069.887, 2272.378
1070.988, 2004.199
1072.090, 2106.712
1073.191, 1976.660
1074.291, 1813.745
1075.392, 1793.188
1076.493, 1955.312
1077.593, 1927.764
1078.693, 1860.236
1079.793, 1583.299
1080.893, 1679.568
1081.993, 1518.056
1083.092, 1523.106
1084.192, 1689.530
1085.291, 1772.456
1086.390, 1777.337
1087.489, 1468.402
1088.588, 1564.332
1089.686, 1497.702
1090.785, 1425.626
1091.883, 1332.119
1092.981, 1266.999
1094.079, 1246.121
1095.177, 1223.567
1096.275, 1110.940
1097.373, 1199.002
1098.470, 1192.137
1099.567, 1209.549
1100.664, 1019.803
1101.761, 1319.678
1102.858, 1407.615
1103.954, 1127.133
1105.051, 1173.282
1106.147, 887.2988
1107.243, 971.1934
1108.339, 973.3330
1109.435, 1037.641
1110.531, 847.5850
1111.626, 888.3145
1112.722, 931.5752
1113.817, 791.7461
1114.912, 812.0029
1116.007, 1030.104
1117.101, 944.5234
1118.196, 1032.587
1119.290, 1244.693
1120.385, 1037.163
1121.479, 934.1504
1122.573, 957.5068
1123.666, 933.4111
1124.760, 849.3330
1125.853, 657.4307
1126.947, 673.2793
1128.040, 603.2354
1129.133, 454.0254
1130.226, 517.7842
1131.318, 258.5107
1132.411, 199.2061
1133.503, 350.8682
1134.596, 353.4990
1135.688, 393.3193
1136.780, 298.9004
1137.871, 171.5088
1138.963, 113.0020
1140.054, 25.78711
1141.146, 34.41016
1142.237, 16.97559
1143.328, 22.51367
1144.419, 56.19531
1145.509, 5.019531
1146.600, 2.813477
1147.690, 47.30176
1148.780, 56.62402
1149.870, 71.36719
1150.960, 23.68359
1152.050, 126.7334
1153.139, 84.66699
1154.229, 179.0176
1155.318, 3.474609
1156.407, 6.092773
1157.496, 97.30273
1158.585, 12.31445
1159.674, 23.11621
1160.762, 184.9072
1161.850, 40.82520
1162.939, 39.69434
1164.027, 143.6816
1165.114, 56.61230
1166.202, 42.68262
1167.290, 26.04004
1168.377, 38.69727
1169.464, 101.4082
1170.551, 35.99121
1171.638, 150.5459
1172.725, 211.3965
1173.812, 19.39258
1174.898, 110.7725
1175.984, 43.96094
1177.071, 136.1016
1178.157, 169.8008
1179.242, 134.6758
1180.328, 100.7139
1181.414, 112.6094
1182.499, 21.93945
1183.584, 41.88965
1184.669, 59.39746
1185.754, 0.2773440
1186.839, 80.27930
1187.924, 53.44238
1189.008, 76.53223
1190.092, 71.55176
1191.177, 118.5000
1192.260, 66.38281
1193.344, 21.80859
1194.428, 3.110352
1195.512, 19.06543
1196.595, 109.4209
1197.678, 91.83887
1198.761, 46.18457
1199.844, 116.5205
1200.927, 46.71484
1202.009, 58.82520
1203.092, 19.85547
1204.174, 79.79102
1205.256, 66.64844
1206.338, 81.42578
1207.420, 194.1250
1208.502, 118.7617
1209.583, 146.3262
1210.665, 80.82227
1211.746, 199.2373
1212.827, 279.5908
1213.908, 186.8809
1214.988, 270.1074
1216.069, 201.2715
1217.149, 226.3711
1218.230, 240.4072
1219.310, 311.3818
1220.390, 153.2949
1221.470, 262.1865
1222.549, 178.9658
1223.629, 264.6768
1224.708, 280.3232
1225.787, 372.9092
1226.866, 278.4355
1227.945, 162.8984
1229.024, 228.2910
1230.103, 247.6172
1231.181, 327.8779
1232.259, 318.0771
1233.337, 227.2148
1234.415, 290.2861
1235.493, 334.2920
1236.571, 460.2363
1237.648, 326.1191
1238.726, 295.9375
1239.803, 215.8252
1240.880, 247.7695
1241.957, 341.1240
1243.034, 366.6748
1244.110, 350.1621
1245.187, 418.8867
1246.263, 191.2461
1247.339, 477.5303
1248.415, 375.7510
1249.491, 284.9082
1250.566, 404.9990
1251.642, 302.0254
1252.717, 226.9854
1253.793, 342.8750
1254.868, 428.7002
1255.943, 507.5410
1257.017, 370.2402
1258.092, 502.8740
1259.166, 472.4463
1260.241, 458.9551
1261.315, 509.4014
1262.389, 440.7852
1263.462, 436.5430
1264.536, 356.5430
1265.610, 406.7383
1266.683, 393.2031
1267.756, 462.2734
1268.829, 335.2812
1269.902, 366.2266
1270.975, 463.1084
1272.048, 321.6562
1273.120, 433.4131
1274.192, 450.2148
1275.264, 449.5303
1276.336, 477.2158
1277.408, 453.7441
1278.480, 463.6621
1279.551, 420.0693
1280.623, 389.6777
1281.694, 323.6328
1282.765, 478.0420
1283.836, 440.3516
1284.907, 421.2598
1285.977, 371.0723
1287.048, 418.0742
1288.118, 378.5508
1289.188, 367.5088
1290.258, 344.8828
1291.328, 306.6650
1292.398, 308.3545
1293.467, 248.3545
1294.537, 250.6592
1295.606, 271.6836
1296.675, 275.5059
1297.744, 204.5576
1298.813, 275.4326
1299.882, 243.1416
1300.950, 267.6455
1302.018, 319.1875
1303.086, 260.9326
1304.155, 222.5186
1305.222, 179.1641
1306.290, 294.8975
1307.358, 279.3916
1308.425, 238.9697
1309.492, 160.5654
