##NAMES=Augite
##RRUFFID=R061108
##IDEAL CHEMISTRY=(Ca,Mg,Fe^2+^,Fe^3+^)_2_(Si,Al)_2_O_6_
##LOCALITY=Monti Rossi, near Mt. Etna, Sicily, Italy
##OWNER=RRUFF
##SOURCE=Michael Scott
##DESCRIPTION=Euhedral, short prismatic, black crystals in vesicular basalt.
##STATUS=The identification of this mineral is confirmed by single-crystal X-ray diffraction and chemical analysis.
##URL=rruff.info/R061108
##MEASURED CHEMISTRY=(Ca_0.86_Mg_0.74_Fe^2+^_0.18_Fe^3+^_0.08_Al_0.05_Ti_0.04_Na_0.04_Mn_0.01_)_Σ=2_(Si_1.83_Al_0.17_)_Σ=2_O_6_
##PIN_ID=L00942
##ORIENTATION=Laser parallel to -a* (-1 0 0). Fiducial mark perpendicular to laser is parallel to b [0 1 0]
137.7750, 0.0000000E+00
139.0040, 56.31543
140.2330, 180.5117
141.4620, 272.1025
142.6910, 242.7832
143.9200, 131.3105
145.1490, 20.13379
146.3770, 249.2363
147.6060, 196.4570
148.8340, 347.4424
150.0620, 242.2344
151.2900, 241.3486
152.5170, 451.0674
153.7450, 171.7480
154.9720, 272.7266
156.2000, 66.86719
157.4270, 86.95410
158.6540, 63.86621
159.8810, 156.9980
161.1070, 43.53418
162.3340, 229.6240
163.5600, 532.1816
164.7860, 698.1309
166.0120, 450.4023
167.2380, 671.9404
168.4640, 765.6914
169.6890, 850.6113
170.9150, 991.9102
172.1400, 1140.799
173.3650, 1192.992
174.5900, 1180.209
175.8150, 1267.393
177.0400, 1561.469
178.2640, 1535.379
179.4880, 1874.064
180.7130, 1661.477
181.9370, 1524.582
183.1600, 1612.352
184.3840, 1532.764
185.6080, 1638.805
186.8310, 1712.461
188.0540, 1703.723
189.2770, 1767.584
190.5000, 1926.037
191.7230, 2033.076
192.9460, 2128.926
194.1680, 2232.031
195.3910, 2319.652
196.6130, 2422.977
197.8350, 2496.859
199.0570, 2652.287
200.2780, 2583.262
201.5000, 2828.770
202.7210, 2652.811
203.9420, 2693.373
205.1640, 2458.453
206.3840, 2540.045
207.6050, 2488.918
208.8260, 2733.730
210.0460, 2500.812
211.2670, 2778.303
212.4870, 2843.965
213.7070, 3083.762
214.9270, 3189.645
216.1460, 3485.643
217.3660, 3544.773
218.5850, 3889.061
219.8050, 3904.512
221.0240, 3910.109
222.2430, 4060.771
223.4610, 4169.594
224.6800, 4033.643
225.8980, 3896.928
227.1170, 3746.463
228.3350, 3895.262
229.5530, 3744.336
230.7710, 3729.701
231.9880, 3293.365
233.2060, 2885.336
234.4230, 2677.623
235.6400, 2570.236
236.8570, 2338.184
238.0740, 2392.463
239.2910, 2137.086
240.5080, 2111.049
241.7240, 2250.355
242.9400, 2058.008
244.1570, 1832.000
245.3730, 1939.332
246.5880, 1826.996
247.8040, 1897.994
249.0190, 1663.318
250.2350, 1566.969
251.4500, 1530.939
252.6650, 1293.227
253.8800, 1367.832
255.0950, 1401.748
256.3090, 1136.973
257.5240, 1291.502
258.7380, 1074.652
259.9520, 914.6602
261.1660, 779.8867
262.3800, 565.6035
263.5930, 446.6094
264.8070, 376.9004
266.0200, 418.4727
267.2330, 425.3242
268.4460, 236.4512
269.6590, 216.8496
270.8720, 175.5156
272.0850, 118.4473
273.2970, 230.6367
274.5090, 203.0840
275.7210, 281.7852
276.9330, 483.7363
278.1450, 564.9316
279.3570, 487.3711
280.5680, 785.0488
281.7790, 780.9609
282.9910, 1017.104
284.2020, 954.8359
285.4120, 1215.137
286.6230, 1398.057
287.8340, 1613.213
289.0440, 1790.551
290.2540, 1952.209
291.4640, 2148.080
292.6740, 2403.580
293.8840, 2580.967
295.0940, 3023.719
296.3030, 3391.852
297.5120, 3857.355
298.7210, 4093.221
299.9300, 4352.432
301.1390, 5084.980
302.3480, 5410.863
303.5560, 6072.211
304.7650, 6765.855
305.9730, 7587.918
307.1810, 8318.402
308.3890, 9097.568
309.5970, 9905.340
310.8040, 10786.45
312.0120, 11585.91
313.2190, 12471.77
314.4260, 13602.01
315.6330, 14852.66
316.8400, 15665.70
318.0460, 16900.16
319.2530, 17798.92
320.4590, 18765.29
321.6650, 19466.96
322.8710, 19800.02
324.0770, 20217.44
325.2830, 19821.24
326.4880, 20127.43
327.6940, 19295.00
328.8990, 18775.93
330.1040, 18147.24
331.3090, 17319.90
332.5140, 16278.90
333.7180, 15544.23
334.9230, 14768.89
336.1270, 13977.87
337.3310, 13181.15
338.5350, 12558.75
339.7390, 11767.62
340.9430, 11098.75
342.1460, 10520.15
343.3500, 10038.85
344.5530, 9884.637
345.7560, 9331.711
346.9590, 9140.984
348.1620, 8931.441
349.3640, 8653.066
350.5670, 8496.439
351.7690, 8395.809
352.9710, 8161.922
354.1730, 8027.184
355.3750, 7925.605
356.5760, 7791.854
357.7780, 7725.893
358.9790, 7510.758
360.1800, 7842.777
361.3810, 7513.939
362.5820, 7661.250
363.7830, 7917.703
364.9830, 7863.301
366.1840, 8085.043
367.3840, 8157.930
368.5840, 8542.957
369.7840, 8792.125
370.9840, 9239.428
372.1830, 9819.871
373.3830, 10179.45
374.5820, 10885.16
375.7810, 11745.01
376.9800, 12674.98
378.1790, 13825.34
379.3780, 15043.32
380.5760, 16464.68
381.7750, 17960.15
382.9730, 19535.76
384.1710, 20878.47
385.3690, 22947.31
386.5660, 24602.26
387.7640, 25918.33
388.9610, 26830.50
390.1590, 27197.79
391.3560, 27262.18
392.5530, 26242.68
393.7500, 24811.28
394.9460, 23135.98
396.1430, 21204.78
397.3390, 18607.68
398.5350, 16380.67
399.7310, 14316.76
400.9270, 12392.94
402.1230, 10628.20
403.3180, 9068.559
404.5140, 7556.000
405.7090, 6382.523
406.9040, 5618.131
408.0990, 4698.818
409.2930, 4023.582
410.4880, 3646.424
411.6820, 3134.340
412.8770, 2743.328
414.0710, 2611.389
415.2650, 2237.518
416.4590, 2130.715
417.6520, 1921.975
418.8460, 1924.301
420.0390, 1670.689
421.2320, 1510.137
422.4250, 1468.645
423.6180, 1389.207
424.8110, 1221.828
426.0030, 1165.498
427.1960, 1078.223
428.3880, 1054.033
429.5800, 927.9336
430.7720, 710.9219
431.9640, 464.0020
433.1550, 749.1738
434.3470, 467.8047
435.5380, 546.8555
436.7290, 271.4141
437.9200, 370.1172
439.1110, 290.9668
440.3020, 151.9785
441.4920, 135.1367
442.6820, 146.4785
443.8730, 162.9785
445.0630, 46.63867
446.2530, 37.46094
447.4420, 40.47070
448.6320, 14.33984
449.8210, 0.6679690
451.0100, 15.70508
452.2000, 35.73828
453.3880, 119.7246
454.5770, 205.6289
455.7660, 349.1562
456.9540, 291.3457
458.1430, 327.4707
459.3310, 489.7266
460.5190, 488.9434
461.7070, 619.2559
462.8940, 549.8281
464.0820, 777.2129
465.2690, 633.4043
466.4560, 663.5078
467.6430, 760.8398
468.8300, 791.6357
470.0170, 855.9326
471.2040, 826.1562
472.3900, 998.8691
473.5760, 884.7236
474.7620, 1102.540
475.9480, 1050.468
477.1340, 1118.164
478.3200, 1198.704
479.5050, 1423.464
480.6900, 1508.357
481.8750, 1482.422
483.0600, 1463.559
484.2450, 1735.311
485.4300, 1773.628
486.6140, 1787.188
487.7990, 1673.618
488.9830, 1552.408
490.1670, 1898.609
491.3510, 1731.225
492.5350, 1940.128
493.7180, 1866.852
494.9020, 1850.521
496.0850, 1918.131
497.2680, 1745.681
498.4510, 1934.170
499.6340, 2213.596
500.8160, 2096.957
501.9990, 2374.254
503.1810, 2371.482
504.3630, 2471.643
505.5450, 2734.731
506.7270, 2824.750
507.9090, 2985.695
509.0900, 3164.565
510.2720, 3335.358
511.4530, 3573.075
512.6340, 3594.713
513.8150, 3749.268
514.9950, 4152.744
516.1760, 4494.135
517.3560, 4443.442
518.5370, 4593.662
519.7170, 4616.795
520.8970, 4987.840
522.0770, 5055.794
523.2560, 5497.656
524.4360, 5560.426
525.6150, 5677.102
526.7940, 5588.682
527.9730, 5842.165
529.1520, 5780.550
530.3310, 5828.835
531.5090, 5788.021
532.6870, 5741.105
533.8660, 5657.084
535.0440, 5551.961
536.2210, 5489.730
537.3990, 5566.395
538.5770, 5380.951
539.7540, 5333.397
540.9310, 5033.084
542.1080, 5112.078
543.2850, 5129.771
544.4620, 5089.453
545.6390, 4817.695
546.8150, 4844.584
547.9920, 4751.588
549.1680, 4653.631
550.3440, 4722.206
551.5190, 4483.631
552.6950, 4549.323
553.8710, 4493.366
555.0460, 4492.956
556.2210, 4278.581
557.3960, 4206.262
558.5710, 4325.816
559.7460, 4094.244
560.9200, 4165.545
562.0950, 4156.717
563.2690, 3955.758
564.4430, 3943.669
565.6170, 3925.450
566.7910, 3850.098
567.9640, 3735.613
569.1380, 3688.996
570.3110, 3666.243
571.4840, 3437.354
572.6570, 3336.327
573.8300, 3180.162
575.0030, 2965.816
576.1750, 2809.400
577.3470, 2625.431
578.5200, 2468.005
579.6920, 2240.274
580.8630, 2080.480
582.0350, 1848.230
583.2070, 1591.852
584.3780, 1465.376
585.5490, 1172.646
586.7200, 1097.232
587.8910, 957.1436
589.0620, 655.1318
590.2330, 507.5986
591.4030, 270.2656
592.5730, 160.2109
593.7430, 85.25781
594.9130, 27.32422
596.0830, 134.9512
597.2530, 138.1357
598.4220, 211.4053
599.5920, 222.0801
600.7610, 246.3672
601.9300, 252.2783
603.0990, 345.2207
604.2670, 228.7432
605.4360, 256.1016
606.6040, 157.9629
607.7720, 256.2734
608.9400, 231.0898
610.1080, 286.3965
611.2760, 237.2227
612.4440, 229.0752
613.6110, 199.7275
614.7780, 183.6455
615.9450, 122.3994
617.1120, 119.5898
618.2790, 118.2129
619.4460, 59.26660
620.6120, 94.72070
621.7780, 12.40625
622.9450, 61.17285
624.1110, 13.60254
625.2760, 226.6719
626.4420, 144.4756
627.6080, 272.9814
628.7730, 288.2344
629.9380, 479.2422
631.1030, 591.0479
632.2680, 683.6621
633.4330, 880.0947
634.5970, 1026.349
635.7620, 1129.426
636.9260, 1253.324
638.0900, 1478.046
639.2540, 1578.591
640.4180, 1918.958
641.5810, 2293.150
642.7450, 2385.168
643.9080, 2765.008
645.0710, 3198.676
646.2340, 3748.168
647.3970, 4415.488
648.5590, 5077.635
649.7220, 5905.048
650.8840, 6730.412
652.0460, 7762.043
653.2080, 8892.505
654.3700, 10194.86
655.5320, 11729.91
656.6930, 13259.87
657.8550, 14872.65
659.0160, 16807.27
660.1770, 18842.72
661.3380, 20557.01
662.4990, 21916.12
663.6590, 22538.07
664.8200, 22650.87
665.9800, 21964.50
667.1400, 20746.97
668.3000, 19182.27
669.4600, 17400.42
670.6190, 15317.40
671.7790, 13577.23
672.9380, 11929.89
674.0970, 10537.41
675.2560, 9117.764
676.4150, 7918.965
677.5740, 6902.012
678.7320, 5992.904
679.8900, 5138.645
681.0490, 4475.925
682.2070, 3939.674
683.3640, 3424.965
684.5220, 3030.105
685.6800, 2733.100
686.8370, 2383.947
687.9940, 1950.650
689.1510, 2032.208
690.3080, 1805.625
691.4650, 1295.897
692.6220, 1370.030
693.7780, 1313.022
694.9340, 1065.877
696.0900, 944.5928
697.2460, 929.1729
698.4020, 808.6172
699.5580, 856.9287
700.7130, 725.1064
701.8680, 453.1523
703.0240, 561.0684
704.1790, 393.8555
705.3330, 475.5146
706.4880, 331.5459
707.6430, 142.4512
708.7970, 130.7344
709.9510, 110.8936
711.1050, 192.9297
712.2590, 150.8457
713.4130, 36.64258
714.5660, 66.69727
715.7200, 194.2197
716.8730, 191.9844
718.0260, 187.9863
719.1790, 277.1387
720.3320, 229.7236
721.4840, 381.4717
722.6370, 309.5361
723.7890, 330.8779
724.9410, 345.4980
726.0930, 376.4033
727.2450, 387.6016
728.3960, 358.1006
729.5480, 284.8887
730.6990, 299.3896
731.8500, 312.6934
733.0010, 289.3936
734.1520, 158.1133
735.3030, 157.2734
736.4530, 99.16504
737.6040, 185.7939
738.7540, 45.12500
739.9040, 44.23047
741.0540, 68.93848
742.2030, 19.72266
743.3530, 94.23047
744.5020, 307.1611
745.6520, 440.7305
746.8010, 616.0332
747.9490, 701.0664
749.0980, 817.0996
750.2470, 857.4023
751.3950, 953.1777
752.5440, 1086.236
753.6920, 1429.377
754.8400, 1439.830
755.9870, 1746.482
757.1350, 1840.254
758.2820, 1913.771
759.4300, 2094.125
760.5770, 2283.270
761.7240, 2463.314
762.8710, 2676.709
764.0170, 2746.506
765.1640, 2887.791
766.3100, 3009.652
767.4560, 2969.887
768.6020, 3015.680
769.7480, 3045.912
770.8940, 2969.064
772.0400, 3040.250
773.1850, 3046.465
774.3300, 2966.711
775.4750, 2825.992
776.6200, 2744.309
777.7650, 2607.664
778.9090, 2510.010
780.0540, 2395.500
781.1980, 2349.982
782.3420, 2233.514
783.4860, 2239.094
784.6300, 2262.725
785.7740, 2054.406
786.9170, 2099.146
788.0600, 1979.939
789.2030, 1837.793
790.3460, 1629.709
791.4890, 1730.688
792.6320, 1872.730
793.7740, 1613.840
794.9170, 1550.020
796.0590, 1652.268
797.2010, 1643.590
798.3430, 1594.986
799.4850, 1723.459
800.6260, 1790.012
801.7670, 1812.645
802.9090, 1867.361
804.0500, 1859.160
805.1910, 1959.477
806.3310, 1993.230
807.4720, 2164.086
808.6120, 2130.242
809.7530, 2259.492
810.8930, 2377.836
812.0330, 2384.281
813.1720, 2343.824
814.3120, 2562.469
815.4510, 2610.215
816.5910, 2387.068
817.7300, 2530.027
818.8690, 2434.094
820.0080, 2208.271
821.1460, 2302.561
822.2850, 2334.965
823.4230, 2121.482
824.5610, 2037.117
825.6990, 1892.873
826.8370, 1796.748
827.9750, 1746.416
829.1120, 1845.867
830.2500, 1712.113
831.3870, 1544.488
832.5240, 1616.992
833.6610, 1474.625
834.7980, 1543.393
835.9340, 1477.113
837.0700, 1428.641
838.2070, 1350.504
839.3430, 1337.816
840.4790, 1221.270
841.6140, 1158.863
842.7500, 1307.605
843.8850, 1241.488
845.0210, 1290.652
846.1560, 1626.701
847.2910, 1379.031
848.4260, 1486.516
849.5600, 1609.152
850.6950, 1876.986
851.8290, 1837.908
852.9630, 1772.799
854.0970, 1777.363
855.2310, 1729.932
856.3650, 1891.025
857.4980, 1731.871
858.6310, 1758.867
859.7650, 1892.979
860.8980, 1808.365
862.0310, 1646.461
863.1630, 1681.254
864.2960, 1594.988
865.4280, 1268.135
866.5600, 1596.158
867.6920, 1593.969
868.8240, 1370.668
869.9560, 1376.312
871.0880, 1487.246
872.2190, 1338.992
873.3500, 1373.729
874.4810, 1393.756
875.6120, 1286.316
876.7430, 1218.387
877.8740, 1345.363
879.0040, 1361.811
880.1340, 1476.027
881.2650, 1290.676
882.3950, 1409.717
883.5240, 1471.182
884.6540, 1399.086
885.7830, 1541.453
886.9130, 1425.252
888.0420, 1526.480
889.1710, 1453.145
890.3000, 1477.258
891.4280, 1481.797
892.5570, 1533.717
893.6850, 1608.062
894.8130, 1631.824
895.9420, 1591.025
897.0690, 1351.582
898.1970, 1478.500
899.3250, 1490.822
900.4520, 1378.469
901.5790, 1451.486
902.7060, 1466.855
903.8330, 1707.561
904.9600, 1411.576
906.0870, 1574.883
907.2130, 1487.518
908.3390, 1803.463
909.4650, 1552.699
910.5910, 1547.258
911.7170, 1735.098
912.8430, 1813.227
913.9680, 1933.631
915.0930, 1845.307
916.2180, 2085.264
917.3430, 1973.484
918.4680, 2128.977
919.5930, 2187.748
920.7170, 2264.373
921.8420, 2335.146
922.9660, 2395.627
924.0900, 2481.434
925.2140, 2311.504
926.3370, 2479.863
927.4610, 2301.486
928.5840, 2457.363
929.7070, 2655.504
930.8310, 2415.900
931.9530, 2282.551
933.0760, 2286.459
934.1990, 2256.623
935.3210, 2189.051
936.4430, 2177.736
937.5650, 2086.678
938.6870, 2002.875
939.8090, 1970.322
940.9310, 2061.018
942.0520, 2005.963
943.1730, 1913.145
944.2940, 2080.586
945.4150, 2070.268
946.5360, 1862.188
947.6570, 2120.354
948.7770, 2100.305
949.8970, 2179.240
951.0180, 2318.268
952.1370, 2361.379
953.2570, 2458.725
954.3770, 2473.309
955.4960, 2662.119
956.6160, 2631.158
957.7350, 2778.432
958.8540, 2816.930
959.9730, 2936.656
961.0910, 3106.033
962.2100, 3291.584
963.3280, 3470.207
964.4460, 3657.896
965.5640, 3928.717
966.6820, 4057.816
967.8000, 4312.145
968.9180, 4556.697
970.0350, 4730.684
971.1520, 5019.971
972.2690, 5187.693
973.3860, 5549.139
974.5030, 5904.801
975.6190, 6172.684
976.7360, 6510.785
977.8520, 6883.105
978.9680, 7202.648
980.0840, 7544.406
981.2000, 8112.385
982.3160, 8287.574
983.4310, 8949.980
984.5460, 9675.598
985.6610, 10271.44
986.7760, 11122.52
987.8910, 12085.89
989.0060, 12906.52
990.1200, 14253.43
991.2350, 15433.63
992.3490, 16799.11
993.4630, 18457.90
994.5760, 20211.97
995.6900, 21933.34
996.8040, 23976.89
997.9170, 26110.97
999.0300, 28332.23
1000.143, 30798.78
1001.256, 33340.59
1002.369, 35335.67
1003.481, 37906.03
1004.594, 39517.64
1005.706, 40668.47
1006.818, 41389.51
1007.930, 40988.38
1009.042, 40195.20
1010.153, 38734.03
1011.264, 36166.27
1012.376, 33058.77
1013.487, 29840.71
1014.598, 26310.53
1015.708, 23115.45
1016.819, 20246.27
1017.929, 17832.49
1019.040, 15869.68
1020.150, 14053.08
1021.260, 12471.39
1022.370, 11286.41
1023.479, 10769.30
1024.589, 10048.55
1025.698, 9178.471
1026.807, 9260.559
1027.916, 8794.160
1029.025, 8389.289
1030.133, 8317.562
1031.242, 8031.422
1032.350, 7944.016
1033.458, 7955.258
1034.566, 7582.010
1035.674, 7889.025
1036.782, 7681.441
1037.890, 7374.809
1038.997, 7391.879
1040.104, 7232.141
1041.211, 7102.551
1042.318, 7014.684
1043.425, 6731.641
1044.531, 6387.756
1045.638, 6111.623
1046.744, 5829.869
1047.850, 5405.752
1048.956, 5438.359
1050.061, 5010.434
1051.167, 4673.227
1052.272, 4691.930
1053.378, 4185.801
1054.483, 4071.980
1055.588, 3850.875
1056.692, 3531.562
1057.797, 3426.887
1058.901, 3350.389
1060.006, 3158.357
1061.110, 3058.803
1062.214, 3144.258
1063.318, 2929.307
1064.421, 2544.871
1065.525, 2494.828
1066.628, 2530.516
1067.731, 2424.914
1068.834, 2494.496
1069.937, 2437.889
1071.040, 2410.188
1072.142, 2367.076
1073.244, 2169.736
1074.347, 2109.154
1075.449, 2146.609
1076.550, 2032.480
1077.652, 2184.168
1078.754, 1959.545
1079.855, 2076.510
1080.956, 2081.759
1082.057, 1993.931
1083.158, 1966.948
1084.259, 1980.975
1085.359, 1977.130
1086.460, 1941.645
1087.560, 1773.395
1088.660, 1858.935
1089.760, 1778.284
1090.860, 1709.899
1091.959, 1856.660
1093.059, 1818.661
1094.158, 1699.479
1095.257, 1663.973
1096.356, 1647.186
1097.455, 1817.194
1098.553, 1759.946
1099.652, 1621.676
1100.750, 1737.808
1101.848, 1625.762
1102.946, 1595.315
1104.044, 1585.878
1105.141, 1477.740
1106.239, 1431.377
1107.336, 1559.139
1108.433, 1517.666
1109.530, 1535.738
1110.627, 1427.177
1111.724, 1603.428
1112.820, 1601.295
1113.917, 1440.595
1115.013, 1466.030
1116.109, 1281.346
1117.205, 1506.284
1118.300, 1391.091
1119.396, 1283.370
1120.491, 1344.383
1121.586, 1162.379
1122.681, 1299.202
1123.776, 1064.552
1124.871, 929.6943
1125.965, 707.7744
1127.060, 761.1172
1128.154, 603.1670
1129.248, 604.6797
1130.342, 497.6348
1131.436, 443.7705
1132.529, 497.5488
1133.623, 327.7109
1134.716, 291.3369
1135.809, 79.03125
1136.902, 132.6504
1137.995, 135.8896
1139.087, 26.01074
1140.180, 217.4502
1141.272, 73.54297
1142.364, 10.14941
1143.456, 220.4541
1144.548, 255.7461
1145.639, 260.3828
1146.731, 199.2109
1147.822, 206.2266
1148.913, 285.9219
1150.004, 291.0918
1151.095, 236.4219
1152.186, 208.7393
1153.276, 258.0693
1154.366, 309.7354
1155.457, 274.1553
1156.546, 98.99023
1157.636, 252.5420
1158.726, 283.3887
1159.815, 314.6172
1160.905, 100.8701
1161.994, 165.1289
1163.083, 263.8008
1164.172, 138.2168
1165.261, 233.5596
1166.349, 261.4570
1167.437, 180.1289
1168.526, 171.4961
1169.614, 127.1543
1170.702, 250.0635
1171.789, 181.2715
1172.877, 121.7441
1173.964, 224.4541
1175.051, 58.37988
1176.138, 80.52539
1177.225, 31.95996
1178.312, 3.598633
1179.399, 40.42578
1180.485, 40.79785
1181.571, 17.57520
1182.657, 22.83984
1183.743, 111.5850
1184.829, 2.205078
1185.915, 157.0469
1187.000, 117.8945
1188.085, 67.75293
1189.171, 15.75195
1190.255, 89.56055
1191.340, 158.7197
1192.425, 93.64258
1193.509, 159.3770
1194.594, 153.9463
1195.678, 151.5137
1196.762, 166.5635
1197.846, 130.6074
1198.929, 158.2031
1200.013, 190.1338
1201.096, 189.6357
1202.179, 231.9609
1203.262, 248.1182
1204.345, 265.1084
1205.428, 364.9346
1206.510, 186.6133
1207.593, 346.1016
1208.675, 400.4375
1209.757, 285.6260
1210.839, 429.6465
1211.920, 446.5205
1213.002, 349.2471
1214.083, 478.8125
1215.164, 410.2324
1216.245, 437.4990
1217.326, 595.6143
1218.407, 580.5977
1219.488, 500.4463
1220.568, 588.3027
1221.648, 579.8584
1222.728, 560.2686
1223.808, 591.5361
1224.888, 530.6562
1225.967, 561.6250
1227.047, 504.4443
1228.126, 532.1875
1229.205, 540.6289
1230.284, 601.9824
1231.363, 630.1855
1232.441, 706.2441
1233.520, 579.1582
1234.598, 659.9170
1235.676, 703.5273
1236.754, 682.9902
1237.832, 738.3047
1238.910, 655.4717
1239.987, 619.4873
1241.064, 642.3457
1242.141, 692.0508
1243.218, 805.6035
1244.295, 774.0430
1245.372, 803.2998
1246.448, 695.4092
1247.525, 713.3643
1248.601, 659.1670
1249.677, 871.8135
1250.753, 606.3105
1251.828, 716.6445
1252.904, 782.2217
1253.979, 679.2490
1255.054, 838.1172
1256.129, 774.2295
1257.204, 757.7969
1258.279, 817.2109
1259.353, 842.4727
1260.428, 792.5850
1261.502, 868.5439
1262.576, 784.3555
1263.650, 886.0107
1264.724, 859.5859
1265.797, 866.9424
1266.871, 946.1992
1267.944, 979.2578
1269.017, 842.5615
1270.090, 957.9824
1271.162, 820.4248
1272.235, 1021.508
1273.307, 922.5801
1274.380, 952.6348
1275.452, 747.4219
1276.524, 1003.952
1277.595, 815.6055
1278.667, 863.8838
1279.738, 834.4814
1280.810, 771.7441
1281.881, 724.2969
1282.952, 732.2197
1284.022, 712.4531
1285.093, 743.2344
1286.164, 749.9521
1287.234, 747.5049
1288.304, 758.5156
1289.374, 677.0029
1290.444, 571.3496
1291.513, 830.1064
1292.583, 761.2324
1293.652, 680.7002
1294.721, 809.7402
1295.790, 592.5293
1296.859, 685.9512
1297.928, 682.2471
1298.996, 721.7959
1300.064, 704.1250
1301.133, 657.4902
1302.201, 653.9736
1303.268, 591.9883
1304.336, 584.4922
1305.404, 604.6455
1306.471, 593.3535
