##NAMES=Augite
##RRUFFID=R061086
##IDEAL CHEMISTRY=(Ca,Mg,Fe^2+^,Fe^3+^)_2_(Si,Al)_2_O_6_
##LOCALITY=Boreslav, Teplitz, Bohemia, Czech Republic
##OWNER=RRUFF
##SOURCE=Michael Scott
##DESCRIPTION=Black to dark green tabular euhedral crystal
##STATUS=The identification of this mineral has been confirmed by X-ray diffraction and chemical analysis
##URL=rruff.info/R061086
##MEASURED CHEMISTRY=(Ca_0.88_Mg_0.83_Fe_0.13_Al_0.08_Na_0.04_Ti_0.03_Cr_0.01_)_Σ=2_(Si_1.89_Al_0.11_)_Σ=2_O_6_
##PIN_ID=M00179
##ORIENTATION=Laser parallel to a* (1 0 0). Fiducial mark perpendicular to laser is parallel to b [0 1 0]
157.5600, 0.0000000E+00
158.7920, 133.2739
160.0240, 4.441895
161.2560, 127.3198
162.4870, 39.29248
163.7180, 87.00098
164.9490, 190.0244
166.1800, 192.0283
167.4110, 296.3687
168.6410, 395.5981
169.8720, 319.3667
171.1020, 458.4229
172.3320, 418.7632
173.5620, 524.3291
174.7910, 450.8589
176.0210, 551.1611
177.2500, 564.0977
178.4790, 519.5669
179.7080, 595.4897
180.9370, 633.8042
182.1650, 731.4609
183.3940, 633.4199
184.6220, 636.0054
185.8500, 678.7095
187.0780, 742.7974
188.3050, 667.9893
189.5330, 734.1016
190.7600, 706.1553
191.9870, 697.1660
193.2140, 706.1494
194.4410, 608.1230
195.6680, 555.1064
196.8940, 639.1030
198.1200, 475.1162
199.3470, 533.1484
200.5720, 364.2026
201.7980, 457.2808
203.0240, 379.3867
204.2490, 327.5234
205.4740, 186.6914
206.6990, 179.8926
207.9240, 151.1289
209.1490, 212.4014
210.3740, 183.7095
211.5980, 241.0044
212.8220, 326.0562
214.0460, 454.3604
215.2700, 326.9717
216.4930, 526.0879
217.7170, 505.3911
218.9400, 580.7773
220.1630, 664.2432
221.3860, 720.7856
222.6090, 646.3984
223.8320, 644.0757
225.0540, 692.8135
226.2760, 722.6094
227.4980, 722.4927
228.7200, 673.4302
229.9420, 699.4746
231.1630, 572.7725
232.3850, 673.1123
233.6060, 544.5093
234.8270, 578.9189
236.0480, 544.3457
237.2690, 465.8247
238.4890, 504.3306
239.7090, 528.8682
240.9290, 459.4395
242.1490, 554.0469
243.3690, 359.6943
244.5890, 433.3809
245.8080, 374.1094
247.0270, 446.8784
248.2470, 402.2178
249.4650, 432.5386
250.6840, 332.4258
251.9030, 287.3496
253.1210, 266.3096
254.3390, 345.3047
255.5570, 198.3345
256.7750, 207.3989
257.9930, 235.4961
259.2100, 178.0938
260.4280, 312.7769
261.6450, 110.9551
262.8620, 40.15771
264.0790, 113.6152
265.2950, 38.36328
266.5120, 11.91211
267.7280, 11.21094
268.9440, 147.4668
270.1600, 101.1226
271.3760, 55.75586
272.5920, 92.36621
273.8070, 33.95605
275.0220, 75.52490
276.2370, 41.92773
277.4520, 53.10986
278.6670, 69.37402
279.8820, 139.4053
281.0960, 151.9360
282.3100, 191.4854
283.5240, 338.0522
284.7380, 272.5864
285.9520, 393.1318
287.1650, 407.6133
288.3780, 421.0605
289.5920, 617.4873
290.8050, 707.9199
292.0170, 664.3726
293.2300, 679.8423
294.4430, 774.3306
295.6550, 926.3638
296.8670, 987.8726
298.0790, 1094.398
299.2910, 1149.939
300.5020, 1154.526
301.7140, 1656.833
302.9250, 1596.252
304.1360, 1776.401
305.3470, 1844.267
306.5580, 1997.076
307.7680, 2393.917
308.9780, 2555.954
310.1890, 2835.861
311.3990, 3112.878
312.6090, 3329.001
313.8180, 3757.232
315.0280, 4031.220
316.2370, 4317.429
317.4460, 4551.136
318.6550, 4857.729
319.8640, 5116.401
321.0730, 5337.130
322.2810, 5454.581
323.4890, 5419.781
324.6980, 5532.704
325.9060, 5608.706
327.1130, 5517.828
328.3210, 5236.913
329.5280, 5100.037
330.7360, 4903.190
331.9430, 4630.418
333.1500, 4477.618
334.3560, 4317.971
335.5630, 4038.207
336.7690, 3904.993
337.9760, 3725.971
339.1820, 3534.255
340.3870, 3404.553
341.5930, 3257.267
342.7990, 3024.192
344.0040, 3033.530
345.2090, 2899.881
346.4140, 2834.243
347.6190, 2907.618
348.8240, 2827.003
350.0280, 2756.400
351.2330, 2723.809
352.4370, 2657.768
353.6410, 2590.657
354.8440, 2571.096
356.0480, 2494.456
357.2520, 2468.867
358.4550, 2371.341
359.6580, 2484.639
360.8610, 2512.891
362.0640, 2540.116
363.2660, 2398.355
364.4690, 2529.607
365.6710, 2351.874
366.8730, 2299.151
368.0750, 2394.441
369.2770, 2349.742
370.4780, 2380.056
371.6800, 2421.379
372.8810, 2469.713
374.0820, 2430.058
375.2830, 2532.411
376.4830, 2716.773
377.6840, 2729.142
378.8840, 2957.520
380.0840, 2986.904
381.2840, 3285.296
382.4840, 3387.694
383.6840, 3490.101
384.8830, 3892.513
386.0830, 4158.930
387.2820, 4377.356
388.4810, 4319.785
389.6800, 4226.221
390.8780, 4292.660
392.0770, 4293.106
393.2750, 4105.554
394.4730, 3912.008
395.6710, 3751.466
396.8690, 3233.927
398.0660, 2999.392
399.2640, 2541.858
400.4610, 2318.330
401.6580, 1901.803
402.8550, 1533.279
404.0520, 1399.756
405.2490, 1111.236
406.4450, 980.7173
407.6410, 849.2002
408.8370, 705.1982
410.0330, 509.6016
411.2290, 546.0869
412.4240, 496.5732
413.6200, 329.7178
414.8150, 205.3511
416.0100, 284.0791
417.2050, 218.1528
418.4000, 203.7246
419.5940, 223.5898
420.7880, 130.0767
421.9830, 106.5620
423.1770, 201.0469
424.3700, 195.5312
425.5640, 147.0142
426.7580, 192.3940
427.9510, 169.9746
429.1440, 160.4521
430.3370, 66.92773
431.5300, 36.59814
432.7220, 38.86670
433.9150, 42.33057
435.1070, 91.79248
436.2990, 50.25244
437.4910, 61.71094
438.6830, 48.75830
439.8750, 1.099609
441.0660, 34.05420
442.2570, 76.50684
443.4480, 37.08105
444.6390, 35.66553
445.8300, 127.2515
447.0210, 12.87549
448.2110, 16.50195
449.4010, 74.10010
450.5910, 27.39551
451.7810, 6.990723
452.9710, 16.25635
454.1610, 74.13086
455.3500, 36.90283
456.5390, 21.25098
457.7280, 30.40967
458.9170, 72.16992
460.1060, 43.05566
461.2940, 111.3394
462.4830, 61.27979
463.6710, 71.72314
464.8590, 134.0557
466.0470, 116.9116
467.2350, 168.8848
468.4220, 132.4180
469.6090, 57.34326
470.7970, 222.1553
471.9840, 192.3330
473.1700, 101.0410
474.3570, 73.96875
475.5440, 95.37939
476.7300, 55.92334
477.9160, 113.5298
479.1020, 196.0156
480.2880, 40.05322
481.4740, 163.0854
482.6590, 170.9312
483.8440, 117.8306
485.0300, 135.5317
486.2140, 203.0957
487.3990, 313.6299
488.5840, 232.2236
489.7680, 332.7261
490.9530, 282.2114
492.1370, 230.6812
493.3210, 337.1338
494.5040, 398.5693
495.6880, 478.9878
496.8720, 502.3896
498.0550, 449.7729
499.2380, 640.1387
500.4210, 651.2363
501.6040, 832.8179
502.7860, 826.1309
503.9690, 909.4258
505.1510, 1012.704
506.3330, 1131.964
507.5150, 1188.205
508.6970, 1244.429
509.8780, 1242.635
511.0600, 1280.595
512.2410, 1290.556
513.4220, 1311.138
514.6030, 1315.267
515.7840, 1334.378
516.9640, 1371.469
518.1440, 1316.539
519.3250, 1227.590
520.5050, 1271.620
521.6850, 1379.631
522.8640, 1222.621
524.0440, 1453.589
525.2230, 1421.538
526.4020, 1380.464
527.5820, 1362.370
528.7600, 1354.254
529.9390, 1436.116
531.1180, 1345.958
532.2960, 1397.776
533.4740, 1290.573
534.6520, 1410.348
535.8300, 1421.100
537.0080, 1431.829
538.1850, 1364.537
539.3630, 1365.221
540.5400, 1232.881
541.7170, 1233.519
542.8940, 1138.134
544.0700, 1249.724
545.2470, 1206.291
546.4230, 1249.834
547.5990, 1036.354
548.7750, 1171.850
549.9510, 1174.321
551.1270, 1138.787
552.3020, 1199.234
553.4780, 1212.657
554.6530, 1141.056
555.8280, 1084.456
557.0030, 1078.849
558.1770, 1084.225
559.3520, 967.5903
560.5260, 1004.936
561.7000, 1057.268
562.8740, 1124.573
564.0480, 1042.853
565.2220, 1045.106
566.3950, 1017.335
567.5680, 975.5371
568.7420, 998.7129
569.9150, 902.8623
571.0870, 879.9854
572.2600, 817.0815
573.4320, 793.7012
574.6050, 722.7432
575.7770, 817.7603
576.9490, 831.8706
578.1210, 767.8335
579.2920, 709.7686
580.4640, 626.6772
581.6350, 601.5278
582.8060, 628.3916
583.9770, 537.8081
585.1480, 495.1514
586.3190, 343.6948
587.4890, 292.5410
588.6590, 266.1895
589.8290, 259.5469
590.9990, 132.7886
592.1690, 211.8638
593.3390, 89.32812
594.5080, 142.1421
595.6770, 41.53125
596.8470, 24.87939
598.0160, 3.831543
599.1840, 22.30078
600.3530, 30.42041
601.5210, 71.04688
602.6900, 30.28906
603.8580, 59.78564
605.0260, 14.48389
606.1930, 54.93164
607.3610, 37.41748
608.5280, 76.59229
609.6960, 38.22754
610.8630, 140.7012
612.0300, 83.09082
613.1970, 144.4219
614.3630, 89.70898
615.5300, 161.8945
616.6960, 150.2109
617.8620, 99.86963
619.0280, 152.9619
620.1940, 194.0103
621.3590, 191.7803
622.5250, 223.9087
623.6900, 206.6812
624.8550, 249.5742
626.0200, 277.4307
627.1850, 299.2510
628.3490, 261.0356
629.5140, 521.7842
630.6780, 541.4971
631.8420, 488.1748
633.0060, 614.8174
634.1700, 580.4248
635.3330, 619.9976
636.4970, 745.5347
637.6600, 873.0366
638.8230, 893.5039
639.9860, 1064.936
641.1490, 1228.333
642.3110, 1464.696
643.4740, 1647.024
644.6360, 1743.317
645.7980, 2188.018
646.9600, 2900.661
648.1220, 3511.912
649.2840, 4027.246
650.4450, 4159.068
651.6060, 4785.517
652.7670, 5213.690
653.9280, 5633.672
655.0890, 6329.638
656.2500, 6517.010
657.4100, 7602.287
658.5700, 8510.173
659.7300, 9191.025
660.8900, 9837.845
662.0500, 10562.63
663.2100, 10946.38
664.3690, 11177.10
665.5280, 11072.93
666.6880, 10865.44
667.8460, 10196.07
669.0050, 9382.655
670.1640, 8466.213
671.3220, 7641.738
672.4810, 6622.232
673.6390, 5882.693
674.7970, 4844.125
675.9540, 4294.521
677.1120, 3813.891
678.2690, 3295.227
679.4270, 2925.531
680.5840, 2448.805
681.7410, 2170.048
682.8980, 1889.261
684.0540, 1786.442
685.2110, 1556.594
686.3670, 1379.717
687.5230, 1166.809
688.6790, 1082.869
689.8350, 1002.902
690.9900, 829.9043
692.1460, 778.8789
693.3010, 678.8223
694.4560, 695.7373
695.6110, 704.6240
696.7660, 600.4814
697.9210, 600.3105
699.0750, 482.1104
700.2290, 607.8828
701.3840, 632.6270
702.5370, 482.3418
703.6910, 483.0293
704.8450, 454.6885
705.9980, 420.3213
707.1520, 428.9268
708.3050, 283.5059
709.4580, 244.0557
710.6110, 269.5801
711.7630, 172.0781
712.9160, 146.5576
714.0680, 228.0107
715.2200, 105.4385
716.3720, 237.8389
717.5240, 137.2139
718.6760, 149.5635
719.8270, 127.8877
720.9780, 118.1895
722.1300, 8.464844
723.2810, 69.71680
724.4310, 101.0479
725.5820, 102.9033
726.7330, 32.17676
727.8830, 87.77051
729.0330, 109.8018
730.1830, 0.2099610
731.3330, 136.3555
732.4830, 203.4141
733.6320, 8.818359
734.7810, 55.12109
735.9310, 136.1758
737.0800, 62.52930
738.2290, 155.1797
739.3770, 139.2070
740.5260, 101.6953
741.6740, 143.8975
742.8220, 45.66602
743.9700, 93.36328
745.1180, 17.63184
746.2660, 61.04883
747.4130, 148.0654
748.5610, 30.53711
749.7080, 92.07617
750.8550, 36.29785
752.0020, 10.96582
753.1490, 121.3896
754.2950, 1.694336
755.4420, 50.93457
756.5880, 61.72949
757.7340, 58.48926
758.8800, 114.6748
760.0250, 280.8398
761.1710, 254.1699
762.3160, 156.4238
763.4620, 276.8525
764.6070, 102.3955
765.7520, 269.9473
766.8960, 266.4170
768.0410, 370.9561
769.1850, 494.4893
770.3300, 361.0176
771.4740, 355.5410
772.6180, 388.0605
773.7610, 244.5762
774.9050, 332.0879
776.0480, 241.5967
777.1920, 180.1016
778.3350, 378.6055
779.4780, 402.1064
780.6200, 266.6064
781.7630, 425.1055
782.9060, 328.6035
784.0480, 430.1006
785.1900, 387.5977
786.3320, 373.0957
787.4740, 274.5947
788.6150, 403.0947
789.7570, 395.5947
790.8980, 394.0977
792.0390, 373.6016
793.1800, 498.1094
794.3210, 386.6191
795.4620, 408.1318
796.6020, 370.6484
797.7420, 603.1699
798.8830, 621.6953
800.0230, 502.2256
801.1620, 553.7588
802.3020, 509.2988
803.4420, 527.8447
804.5810, 567.3965
805.7200, 562.9541
806.8590, 653.5186
807.9980, 664.9902
809.1370, 715.6592
810.2750, 742.2549
811.4140, 788.8496
812.5520, 848.4512
813.6900, 837.0625
814.8280, 867.6826
815.9650, 796.3135
817.1030, 800.9521
818.2400, 855.6016
819.3780, 933.2617
820.5150, 938.1641
821.6520, 966.6865
822.7880, 958.3096
823.9250, 963.0156
825.0610, 912.7344
826.1980, 885.4648
827.3340, 965.2080
828.4700, 975.9648
829.6050, 1017.735
830.7410, 915.5176
831.8760, 1036.316
833.0120, 898.1279
834.1470, 844.9561
835.2820, 892.7979
836.4160, 809.6553
837.5510, 821.5283
838.6860, 900.4170
839.8200, 810.3223
840.9540, 831.2441
842.0880, 775.1826
843.2220, 876.1387
844.3550, 808.1113
845.4890, 917.1025
846.6220, 878.1123
847.7550, 913.1396
848.8880, 967.1855
850.0210, 1042.250
851.1540, 1131.335
852.2860, 1027.316
853.4190, 1055.440
854.5510, 1015.584
855.6830, 1217.748
856.8150, 1201.933
857.9460, 1309.128
859.0780, 1164.722
860.2090, 1072.781
861.3410, 1055.694
862.4720, 946.5859
863.6020, 927.5010
864.7330, 888.5342
865.8640, 966.2842
866.9940, 1022.015
868.1240, 831.3037
869.2540, 782.4941
870.3840, 719.1045
871.5140, 569.5010
872.6440, 755.4160
873.7730, 598.1680
874.9020, 596.3672
876.0320, 603.7832
877.1600, 456.9355
878.2890, 394.7754
879.4180, 442.9443
880.5460, 452.4141
881.6750, 442.6602
882.8030, 411.7119
883.9310, 367.7197
885.0590, 344.9893
886.1860, 451.4121
887.3140, 395.0957
888.4410, 402.4307
889.5680, 377.0508
890.6950, 362.6299
891.8220, 349.6357
892.9490, 351.3848
894.0750, 347.8242
895.2020, 347.6758
896.3280, 347.9150
897.4540, 360.8623
898.5800, 347.8457
899.7050, 372.8994
900.8310, 492.9990
901.9560, 545.1445
903.0820, 401.3350
904.2070, 343.5869
905.3320, 490.8877
906.4560, 258.2305
907.5810, 475.6387
908.7050, 433.0830
909.8300, 383.5674
910.9540, 476.1113
912.0780, 439.6934
913.2010, 427.3486
914.3250, 425.0430
915.4480, 510.7979
916.5720, 531.5908
917.6950, 535.4434
918.8180, 522.3535
919.9410, 568.3027
921.0630, 563.5234
922.1860, 541.3311
923.3080, 587.4082
924.4300, 558.5244
925.5520, 564.6807
926.6740, 538.8770
927.7960, 534.1191
928.9170, 716.4199
930.0390, 653.7725
931.1600, 727.1660
932.2810, 646.5996
933.4020, 562.0742
934.5230, 526.5879
935.6430, 530.1416
936.7640, 482.7354
937.8840, 510.7041
939.0040, 466.0713
940.1240, 567.8008
941.2440, 498.5693
942.3630, 533.3779
943.4830, 475.2266
944.6020, 443.1133
945.7210, 504.0400
946.8400, 469.0059
947.9590, 467.7031
949.0770, 555.1045
950.1960, 478.2295
951.3140, 522.4062
952.4320, 613.6250
953.5500, 521.8945
954.6680, 535.2051
955.7860, 526.5723
956.9030, 574.9795
958.0210, 632.4248
959.1380, 750.9092
960.2550, 601.4336
961.3720, 723.9961
962.4890, 741.5986
963.6050, 642.2402
964.7220, 815.9199
965.8380, 774.6377
966.9540, 819.3945
968.0700, 887.1885
969.1860, 766.0225
970.3010, 880.8936
971.4170, 980.8037
972.5320, 1112.753
973.6470, 997.7451
974.7620, 1008.772
975.8770, 1087.841
976.9910, 1133.945
978.1060, 1181.988
979.2200, 1264.629
980.3340, 1296.488
981.4480, 1406.745
982.5620, 1480.038
983.6760, 1525.370
984.7890, 1702.743
985.9030, 1777.153
987.0160, 2036.604
988.1290, 2015.093
989.2420, 2389.619
990.3550, 2447.182
991.4670, 2699.780
992.5800, 2961.416
993.6920, 3371.096
994.8040, 3662.813
995.9160, 4092.605
997.0280, 4454.469
998.1390, 4950.369
999.2510, 5393.341
1000.362, 6064.383
1001.473, 6553.471
1002.584, 7152.635
1003.695, 7520.896
1004.805, 8134.199
1005.916, 8565.911
1007.026, 8785.863
1008.136, 8725.047
1009.246, 8580.897
1010.356, 8299.562
1011.466, 7863.164
1012.576, 7336.918
1013.685, 6307.436
1014.794, 5660.340
1015.903, 5025.774
1017.012, 4322.707
1018.121, 3792.918
1019.229, 3235.590
1020.338, 2834.400
1021.446, 2666.903
1022.554, 2435.869
1023.662, 2187.011
1024.770, 2001.924
1025.878, 1890.125
1026.985, 1822.428
1028.092, 1782.425
1029.200, 1719.763
1030.307, 1808.100
1031.413, 1696.421
1032.520, 1850.192
1033.627, 1808.308
1034.733, 1756.230
1035.839, 1808.525
1036.945, 1729.331
1038.051, 1723.312
1039.157, 1697.629
1040.262, 1707.064
1041.368, 1607.631
1042.473, 1616.201
1043.578, 1521.897
1044.683, 1419.461
1045.788, 1439.302
1046.893, 1321.900
1047.997, 1323.375
1049.101, 1136.105
1050.205, 1143.922
1051.309, 1055.624
1052.413, 1137.438
1053.517, 904.4658
1054.621, 886.0986
1055.724, 886.8145
1056.827, 819.7383
1057.930, 768.7197
1059.033, 724.5645
1060.136, 734.2217
1061.238, 705.2607
1062.341, 723.9902
1063.443, 689.8730
1064.545, 597.1758
1065.647, 581.9951
1066.749, 643.9590
1067.850, 412.0234
1068.952, 501.2324
1070.053, 583.3262
1071.154, 508.2998
1072.255, 424.6680
1073.356, 419.6875
1074.457, 371.4258
1075.557, 488.4990
1076.658, 359.4023
1077.758, 364.3369
1078.858, 409.3047
1079.958, 353.2754
1081.057, 466.4004
1082.157, 357.4062
1083.256, 491.4619
1084.356, 354.8809
1085.455, 259.4785
1086.554, 413.9209
1087.653, 246.6846
1088.751, 268.8691
1089.850, 404.8223
1090.948, 264.8047
1092.046, 271.8799
1093.144, 316.8369
1094.242, 327.1250
1095.340, 344.0820
1096.437, 357.0400
1097.534, 316.9971
1098.632, 308.6240
1099.729, 268.9102
1100.826, 246.8652
1101.922, 298.0264
1103.019, 278.9775
1104.115, 300.0752
1105.212, 355.9365
1106.308, 303.0332
1107.404, 207.0557
1108.499, 313.9932
1109.595, 119.9268
1110.691, 216.9014
1111.786, 236.0752
1112.881, 140.1035
1113.976, 218.0547
1115.071, 291.1260
1116.166, 240.1855
1117.260, 190.1494
1118.355, 94.88965
1119.449, 114.9629
1120.543, 165.9766
1121.637, 86.84863
1122.731, 239.8691
1123.824, 235.9453
1124.918, 188.7920
1126.011, 88.63281
1127.104, 24.82227
1128.197, 211.6426
1129.290, 12.45508
1130.382, 122.4863
1131.475, 23.27832
1132.567, 64.05957
1133.659, 49.82910
1134.751, 116.6846
1135.843, 79.38574
1136.935, 38.70215
1138.027, 18.97461
1139.118, 42.28809
1140.209, 178.6338
1141.300, 27.05078
1142.391, 153.5254
1143.482, 31.94824
1144.573, 67.63477
1145.663, 103.2676
1146.754, 61.97070
1147.844, 40.27734
1148.934, 21.49121
1150.024, 9.903320
1151.113, 10.72754
1152.203, 116.5078
1153.292, 106.1807
1154.381, 75.05176
1155.470, 5.978516
1156.559, 97.96289
1157.648, 17.12207
1158.737, 81.97559
1159.825, 26.85449
1160.913, 52.24316
1162.001, 57.51074
1163.089, 103.7549
1164.177, 12.10645
1165.265, 7.496094
1166.352, 11.91895
1167.440, 66.37305
1168.527, 19.90527
1169.614, 8.518555
1170.701, 72.08887
1171.788, 60.22949
1172.874, 66.52539
1173.961, 56.20117
1175.047, 119.1475
1176.133, 103.6689
1177.219, 135.4199
1178.305, 47.51367
1179.390, 68.48633
1180.476, 50.53906
1181.561, 31.63184
1182.646, 66.21484
1183.731, 44.03711
1184.816, 4.832031
1185.901, 148.5859
1186.985, 62.31445
1188.070, 58.01855
1189.154, 91.69629
1190.238, 10.34766
1191.322, 20.04199
1192.406, 12.49121
1193.489, 102.0020
1194.573, 53.47168
1195.656, 142.9102
1196.739, 96.32324
1197.822, 77.58008
1198.905, 67.06836
1199.988, 4.602539
1201.070, 110.6709
1202.153, 63.91895
1203.235, 107.1348
1204.317, 194.3232
1205.399, 137.4854
1206.481, 155.6201
1207.562, 141.7295
1208.644, 136.8115
1209.725, 27.13281
1210.806, 46.85059
1211.887, 5.796875
1212.968, 5.688477
1214.049, 80.52539
1215.129, 15.43066
1216.209, 82.08398
1217.290, 3.193359
1218.370, 108.4678
1219.450, 208.0986
1220.529, 160.7031
1221.609, 140.2783
1222.688, 199.9062
1223.768, 103.3457
1224.847, 246.8340
1225.926, 230.2949
1227.005, 203.7285
1228.083, 232.1328
1229.162, 228.5107
1230.240, 207.8604
1231.318, 131.1807
1232.396, 189.4707
1233.474, 147.9443
1234.552, 77.96680
1235.629, 149.1641
1236.707, 167.3311
1237.784, 197.4697
1238.861, 191.5791
1239.938, 179.6602
1241.015, 131.7119
1242.092, 166.7520
1243.168, 184.7627
1244.244, 155.7451
1245.321, 75.69629
1246.397, 180.6104
1247.473, 90.49512
1248.548, 153.3418
1249.624, 167.1602
1250.699, 325.9482
1251.775, 163.7080
1252.850, 149.4375
1253.925, 285.1426
1254.999, 247.8184
1256.074, 130.4658
1257.148, 312.0801
1258.223, 284.6670
1259.297, 152.2275
1260.371, 253.7598
1261.445, 268.2627
1262.519, 307.7393
1263.592, 186.1855
1264.666, 177.6035
1265.739, 237.9941
1266.812, 204.9824
1267.885, 265.7764
1268.958, 370.3662
1270.030, 192.3428
1271.103, 220.5498
1272.175, 181.8516
1273.247, 273.0479
1274.319, 196.4961
1275.391, 284.7051
1276.463, 200.2734
1277.535, 360.3652
1278.606, 103.2178
1279.677, 229.6133
1280.748, 163.8760
1281.819, 111.4473
1282.890, 109.5537
1283.961, 202.4873
1285.031, 233.6484
1286.102, 111.5342
1287.172, 346.3164
1288.242, 237.4062
1289.312, 142.1553
1290.381, 184.9053
1291.451, 192.6689
1292.520, 200.9834
1293.590, 262.9521
1294.659, 216.6182
1295.728, 148.4062
1296.797, 280.6797
1297.865, 204.7783
1298.934, 229.5391
1300.002, 148.1787
1301.070, 196.6855
1302.138, 209.4502
1303.206, 99.82031
1304.274, 182.3213
1305.341, 201.5410
1306.409, 219.9990
1307.476, 230.5811
1308.543, 210.9023
1309.610, 254.1338
1310.677, 166.4746
1311.744, 252.9229
1312.810, 153.9268
1313.877, 205.4648
1314.943, 192.7705
1316.009, 212.0938
1317.075, 276.1240
1318.140, 281.4375
1319.206, 296.3789
1320.272, 295.8047
1321.337, 288.9941
1322.402, 266.0918
1323.467, 245.7646
1324.532, 228.9141
1325.596, 344.9102
