##NAMES=Augite
##RRUFFID=R061086
##IDEAL CHEMISTRY=(Ca,Mg,Fe^2+^,Fe^3+^)_2_(Si,Al)_2_O_6_
##LOCALITY=Boreslav, Teplitz, Bohemia, Czech Republic
##OWNER=RRUFF
##SOURCE=Michael Scott
##DESCRIPTION=Black to dark green tabular euhedral crystal
##STATUS=The identification of this mineral has been confirmed by X-ray diffraction and chemical analysis
##URL=rruff.info/R061086
##MEASURED CHEMISTRY=(Ca_0.88_Mg_0.83_Fe_0.13_Al_0.08_Na_0.04_Ti_0.03_Cr_0.01_)_Σ=2_(Si_1.89_Al_0.11_)_Σ=2_O_6_
##PIN_ID=M00162
##ORIENTATION=Laser parallel to c* (0 0 1). Fiducial mark perpendicular to laser is parallel to a [1 0 0]
126.7050, 0.0000000E+00
127.9410, 56.61792
129.1780, 70.38599
130.4140, 114.9326
131.6490, 95.72974
132.8850, 56.21436
134.1200, 66.79785
135.3560, 69.07812
136.5910, 153.7532
137.8260, 143.8652
139.0610, 188.6912
140.2950, 176.3811
141.5290, 66.87036
142.7640, 72.21582
143.9980, 48.45557
145.2320, 21.56665
146.4650, 62.97803
147.6990, 44.66162
148.9320, 49.64697
150.1650, 28.90161
151.3980, 47.35303
152.6310, 74.98779
153.8640, 17.79492
155.0960, 22.76318
156.3280, 8.115723
157.5600, 17.84985
158.7920, 8.554199
160.0240, 24.91064
161.2560, 23.24951
162.4870, 125.5320
163.7180, 45.44019
164.9490, 117.4661
166.1800, 82.58936
167.4110, 117.8044
168.6410, 133.1055
169.8720, 145.4895
171.1020, 114.7441
172.3320, 135.2400
173.5620, 234.8115
174.7910, 111.4551
176.0210, 161.1692
177.2500, 209.9512
178.4790, 155.7996
179.7080, 251.7124
180.9370, 237.6887
182.1650, 354.7273
183.3940, 254.8276
184.6220, 329.9880
185.8500, 315.2075
187.0780, 339.4849
188.3050, 464.8184
189.5330, 504.2075
190.7600, 584.6514
191.9870, 656.1487
193.2140, 751.6990
194.4410, 712.3008
195.6680, 642.9531
196.8940, 542.6558
198.1200, 491.2708
199.3470, 377.2075
200.5720, 357.6465
201.7980, 314.4812
203.0240, 264.3306
204.2490, 124.1965
205.4740, 60.08081
206.6990, 62.98462
207.9240, 31.90869
209.1490, 80.85205
210.3740, 80.81470
211.5980, 74.82690
212.8220, 69.88110
214.0460, 55.99902
215.2700, 26.85889
216.4930, 35.28979
217.7170, 92.43994
218.9400, 37.60767
220.1630, 146.8000
221.3860, 172.0183
222.6090, 71.26392
223.8320, 166.5371
225.0540, 230.8391
226.2760, 186.1699
227.4980, 195.5303
228.7200, 120.9199
229.9420, 165.3394
231.1630, 108.7883
232.3850, 163.2681
233.6060, 43.77759
234.8270, 152.3179
236.0480, 157.9019
237.2690, 95.51514
238.4890, 82.15771
239.7090, 47.82886
240.9290, 138.5283
242.1490, 166.2563
243.3690, 156.0125
244.5890, 168.7932
245.8080, 191.1902
247.0270, 281.4324
248.2470, 242.2927
249.4650, 310.1797
250.6840, 353.0935
251.9030, 349.0342
253.1210, 378.0007
254.3390, 331.9932
255.5570, 253.0112
256.7750, 262.0544
257.9930, 353.1228
259.2100, 278.9822
260.4280, 258.4065
261.6450, 212.4753
262.8620, 162.6409
264.0790, 91.82983
265.2950, 132.0420
266.5120, 43.27686
267.7280, 92.53491
268.9440, 65.81494
270.1600, 47.11719
271.3760, 47.44067
272.5920, 21.21411
273.8070, 15.98169
275.0220, 41.31470
276.2370, 81.73706
277.4520, 51.22583
278.6670, 11.76611
279.8820, 56.34937
281.0960, 47.97119
282.3100, 14.61890
283.5240, 48.29053
284.7380, 77.98901
285.9520, 139.7148
287.1650, 201.4692
288.3780, 74.23389
289.5920, 189.9976
290.8050, 165.7205
292.0170, 273.4785
293.2300, 264.2705
294.4430, 311.0264
295.6550, 377.8821
296.8670, 449.7676
298.0790, 454.5720
299.2910, 528.8083
300.5020, 525.0127
301.7140, 594.3113
302.9250, 572.9348
304.1360, 653.1987
305.3470, 728.2744
306.5580, 754.3374
307.7680, 818.5979
308.9780, 859.7603
310.1890, 967.9507
311.3990, 1129.189
312.6090, 1239.472
313.8180, 1396.284
315.0280, 1522.146
316.2370, 1715.537
317.4460, 1870.958
318.6550, 2050.149
319.8640, 2162.899
321.0730, 2364.417
322.2810, 2480.965
323.4890, 2655.543
324.6980, 2753.153
325.9060, 2645.788
327.1130, 2749.443
328.3210, 2678.122
329.5280, 2539.826
330.7360, 2465.549
331.9430, 2348.225
333.1500, 2180.069
334.3560, 2136.863
335.5630, 1964.688
336.7690, 1886.680
337.9760, 1708.400
339.1820, 1649.288
340.3870, 1532.192
341.5930, 1446.222
342.7990, 1457.166
344.0040, 1348.122
345.2090, 1292.093
346.4140, 1262.274
347.6190, 1292.636
348.8240, 1302.675
350.0280, 1293.498
351.2330, 1207.442
352.4370, 1220.689
353.6410, 1194.167
354.8440, 1166.038
356.0480, 1193.302
357.2520, 1118.514
358.4550, 1144.939
359.6580, 1130.986
360.8610, 1134.986
362.0640, 1099.516
363.2660, 974.8569
364.4690, 999.0562
365.6710, 1022.269
366.8730, 905.4946
368.0750, 918.7336
369.2770, 981.9851
370.4780, 1042.249
371.6800, 914.5254
372.8810, 1001.814
374.0820, 991.1152
375.2830, 1127.428
376.4830, 1233.752
377.6840, 1170.088
378.8840, 1325.436
380.0840, 1351.795
381.2840, 1569.164
382.4840, 1688.545
383.6840, 1845.936
384.8830, 1931.337
386.0830, 2121.749
387.2820, 2381.171
388.4810, 2503.603
389.6800, 2525.044
390.8780, 2574.495
392.0770, 2648.956
393.2750, 2657.426
394.4730, 2499.905
395.6710, 2406.393
396.8690, 2125.889
398.0660, 1956.395
399.2640, 1619.908
400.4610, 1434.430
401.6580, 1186.960
402.8550, 1042.498
404.0520, 871.0435
405.2490, 656.5967
406.4450, 631.1575
407.6410, 476.7251
408.8370, 473.3003
410.0330, 295.8821
411.2290, 307.4709
412.4240, 238.0662
413.6200, 173.6680
414.8150, 185.2759
416.0100, 161.8899
417.2050, 91.20557
418.4000, 45.83716
419.5940, 167.4790
420.7880, 127.1313
421.9830, 117.4309
423.1770, 112.3596
424.3700, 81.14502
425.5640, 78.51636
426.7580, 66.53296
427.9510, 48.23950
429.1440, 48.95459
430.3370, 14.67798
431.5300, 29.40942
432.7220, 66.14844
433.9150, 11.89551
435.1070, 55.65039
436.2990, 9.412842
437.4910, 66.81738
438.6830, 8.950928
439.8750, 3.726074
441.0660, 87.47900
442.2570, 50.50537
443.4480, 15.53638
444.6390, 18.70142
445.8300, 8.652832
447.0210, 4.918213
448.2110, 22.75098
449.4010, 9.389893
450.5910, 5.296631
451.7810, 27.51953
452.9710, 20.50000
454.1610, 48.38232
455.3500, 66.36865
456.5390, 107.6665
457.7280, 161.8201
458.9170, 116.2642
460.1060, 162.3267
461.2940, 160.6099
462.4830, 237.3713
463.6710, 223.4548
464.8590, 218.8105
466.0470, 213.2351
467.2350, 191.9700
468.4220, 170.3003
469.6090, 138.7717
470.7970, 124.5068
471.9840, 89.53784
473.1700, 85.93994
474.3570, 67.99731
475.5440, 90.05127
476.7300, 62.39600
477.9160, 72.43701
479.1020, 110.0952
480.2880, 162.3364
481.4740, 85.87646
482.6590, 53.11108
483.8440, 5.434326
485.0300, 30.55688
486.2140, 79.65625
487.3990, 128.8652
488.5840, 53.07007
489.7680, 101.2708
490.9530, 106.4668
492.1370, 101.6584
493.3210, 162.8452
494.5040, 130.0266
495.6880, 146.2031
496.8720, 70.37427
498.0550, 174.5400
499.2380, 148.7000
500.4210, 98.85449
501.6040, 269.0024
502.7860, 325.1443
503.9690, 279.2827
505.1510, 309.4146
506.3330, 372.5393
507.5150, 336.6580
508.6970, 472.7693
509.8780, 445.8733
511.0600, 502.9705
512.2410, 465.0598
513.4220, 478.1416
514.6030, 481.2158
515.7840, 463.2817
516.9640, 460.0740
518.1440, 449.6597
519.3250, 421.4314
520.5050, 434.4641
521.6850, 399.4888
522.8640, 404.5042
524.0440, 409.5105
525.2230, 334.5081
526.4020, 372.4961
527.5820, 327.4749
528.7600, 344.4438
529.9390, 423.4033
531.1180, 333.3528
532.2960, 383.2925
533.4740, 462.2222
534.6520, 490.1414
535.8300, 405.0500
537.0080, 422.9487
538.1850, 388.8364
539.3630, 342.7131
540.5400, 393.5793
541.7170, 351.4341
542.8940, 364.2778
544.0700, 407.1101
545.2470, 405.9312
546.4230, 436.7407
547.5990, 437.5383
548.7750, 500.3247
549.9510, 544.9277
551.1270, 573.6904
552.3020, 659.6101
553.4780, 651.3477
554.6530, 678.0728
555.8280, 717.7854
557.0030, 713.4854
558.1770, 698.1724
559.3520, 760.8481
560.5260, 616.5110
561.7000, 578.1609
562.8740, 591.7971
564.0480, 551.4197
565.2220, 432.0293
566.3950, 397.6252
567.5680, 328.2070
568.7420, 312.7751
569.9150, 276.8691
571.0870, 248.8691
572.2600, 244.3950
573.4320, 223.9062
574.6050, 238.4036
575.7770, 219.8857
576.9490, 153.3535
578.1210, 171.3088
579.2920, 63.94580
580.4640, 153.3687
581.6350, 48.58887
582.8060, 17.09131
583.9770, 17.92188
585.1480, 29.81055
586.3190, 90.86694
587.4890, 57.70972
588.6590, 58.35278
589.8290, 11.86206
590.9990, 30.65747
592.1690, 1.054932
593.3390, 24.24561
594.5080, 58.42627
595.6770, 39.05322
596.8470, 24.33887
598.0160, 36.49829
599.1840, 22.74609
600.3530, 14.89893
601.5210, 0.2214360
602.6900, 32.57837
603.8580, 11.20508
605.0260, 18.41138
606.1930, 21.55444
607.3610, 16.34277
608.5280, 54.02539
609.6960, 87.58496
610.8630, 63.29932
612.0300, 51.80200
613.1970, 106.2708
614.3630, 35.72095
615.5300, 68.12671
616.6960, 56.50220
617.8620, 14.84521
619.0280, 46.44531
620.1940, 171.3997
621.3590, 49.63672
622.5250, 132.8389
623.6900, 99.01831
624.8550, 73.06372
626.0200, 198.1860
627.1850, 141.2886
628.3490, 248.3687
629.5140, 273.4260
630.6780, 180.4607
631.8420, 232.4731
633.0060, 242.4622
634.1700, 277.4292
635.3330, 409.3735
636.4970, 344.2949
637.6600, 464.1941
638.8230, 438.0706
639.9860, 443.9246
641.1490, 557.7559
642.3110, 615.5645
643.4740, 755.3511
644.6360, 817.1150
645.7980, 794.8564
646.9600, 962.5757
648.1220, 1117.272
649.2840, 1243.947
650.4450, 1431.599
651.6060, 1690.229
652.7670, 1888.836
653.9280, 2064.422
655.0890, 2465.985
656.2500, 2850.527
657.4100, 3554.046
658.5700, 3877.543
659.7300, 4333.019
660.8900, 4748.471
662.0500, 5336.904
663.2100, 5872.313
664.3690, 6311.702
665.5280, 6459.068
666.6880, 6291.413
667.8460, 6150.737
669.0050, 5506.040
670.1640, 4908.320
671.3220, 4173.580
672.4810, 3829.818
673.6390, 3174.036
674.7970, 2692.232
675.9540, 2265.407
677.1120, 2015.562
678.2690, 1689.695
679.4270, 1435.807
680.5840, 1298.899
681.7410, 1106.971
682.8980, 999.0220
684.0540, 827.0525
685.2110, 713.0625
686.3670, 680.0525
687.5230, 591.0227
688.6790, 518.9724
689.8350, 473.9026
690.9900, 403.8123
692.1460, 312.7026
693.3010, 361.5737
694.4560, 259.4248
695.6110, 262.2568
696.7660, 305.0693
697.9210, 275.8630
699.0750, 158.6372
700.2290, 231.3926
701.3840, 225.1292
702.5370, 130.8464
703.6910, 191.1575
704.8450, 152.2092
705.9980, 212.8882
707.1520, 143.5322
708.3050, 152.1577
709.4580, 147.7656
710.6110, 105.3555
711.7630, 86.92725
712.9160, 134.4817
714.0680, 107.0183
715.2200, 114.5378
716.3720, 105.0400
717.5240, 0.5251460
718.6760, 137.9858
719.8270, 19.57056
720.9780, 59.83057
722.1300, 3.969727
723.2810, 12.21021
724.4310, 40.50903
725.5820, 50.15967
726.7330, 36.88477
727.8830, 105.6587
729.0330, 116.3594
730.1830, 62.60327
731.3330, 127.4658
732.4830, 97.44336
733.6320, 86.56226
734.7810, 95.72437
735.9310, 37.23706
737.0800, 53.45044
738.2290, 42.33960
739.3770, 58.69238
740.5260, 63.29297
741.6740, 62.40088
742.8220, 30.32080
743.9700, 18.59863
745.1180, 23.42285
746.2660, 56.57324
747.4130, 49.65576
748.5610, 60.37891
749.7080, 43.98682
750.8550, 67.00781
752.0020, 3.110840
753.1490, 60.52930
754.2950, 191.9800
755.4420, 184.1113
756.5880, 117.5371
757.7340, 271.3364
758.8800, 202.5435
760.0250, 188.4434
761.1710, 229.6382
762.3160, 291.6055
763.4620, 316.1392
764.6070, 345.3252
765.7520, 302.5059
766.8960, 343.6826
768.0410, 280.8555
769.1850, 388.0244
770.3300, 370.1904
771.4740, 320.3535
772.6180, 394.5132
773.7610, 445.6709
774.9050, 402.8257
776.0480, 370.9785
777.1920, 502.1304
778.3350, 388.2793
779.4780, 367.4277
780.6200, 423.5747
781.7630, 371.7212
782.9060, 431.8672
784.0480, 375.0127
785.1900, 332.1577
786.3320, 389.3037
787.4740, 353.4492
788.6150, 362.5967
789.7570, 318.7441
790.8980, 278.8936
792.0390, 292.0439
793.1800, 198.1963
794.3210, 225.3506
795.4620, 314.5073
796.6020, 260.6665
797.7420, 261.8281
798.8830, 299.9932
800.0230, 280.1611
801.1620, 240.3325
802.3020, 248.5078
803.4420, 297.6865
804.5810, 251.8696
805.7200, 318.0576
806.8590, 284.2495
807.9980, 255.4473
809.1370, 346.6499
810.2750, 279.8574
811.4140, 291.0703
812.5520, 333.2896
813.6900, 294.5146
814.8280, 321.7461
815.9650, 292.9839
817.1030, 377.2290
818.2400, 314.4810
819.3780, 299.7402
820.5150, 407.0068
821.6520, 330.2812
822.7880, 356.5645
823.9250, 389.8555
825.0610, 345.1548
826.1980, 318.4629
827.3340, 389.7798
828.4700, 384.1060
829.6050, 280.4414
830.7410, 320.7866
831.8760, 405.1416
833.0120, 349.5068
834.1470, 373.8823
835.2820, 420.2681
836.4160, 427.6650
837.5510, 378.0723
838.6860, 388.4907
839.8200, 384.9204
840.9540, 401.3623
842.0880, 360.8149
843.2220, 296.2808
844.3550, 267.7578
845.4890, 310.2476
846.6220, 340.7505
847.7550, 286.2661
848.8880, 339.7944
850.0210, 224.3354
851.1540, 212.8911
852.2860, 282.4600
853.4190, 222.0430
854.5510, 290.0063
855.6830, 265.6172
856.8150, 229.4302
857.9460, 241.0713
859.0780, 330.9805
860.2090, 302.8901
861.3410, 149.5645
862.4720, 329.7515
863.6020, 234.8335
864.7330, 317.6611
865.8640, 207.8936
866.9940, 222.5718
868.1240, 250.2891
869.2540, 266.9761
870.3840, 240.0908
871.5140, 198.8477
872.6440, 162.9619
873.7730, 203.1548
874.9020, 143.2383
876.0320, 123.4756
877.1600, 277.5781
878.2890, 66.84863
879.4180, 267.0151
880.5460, 303.2642
881.6750, 234.3462
882.8030, 148.5352
883.9310, 241.8521
885.0590, 173.0288
886.1860, 190.4370
887.3140, 213.8862
888.4410, 223.3896
889.5680, 256.9326
890.6950, 233.5117
891.8220, 311.1270
892.9490, 281.7964
894.0750, 213.4990
895.2020, 313.2568
896.3280, 301.0596
897.4540, 242.9038
898.5800, 216.7944
899.7050, 286.7148
900.8310, 248.6875
901.9560, 200.7192
903.0820, 260.7871
904.2070, 233.8882
905.3320, 248.0278
906.4560, 300.2012
907.5810, 224.4038
908.7050, 261.6396
909.8300, 219.9028
910.9540, 219.2090
912.0780, 183.5430
913.2010, 280.9053
914.3250, 227.3062
915.4480, 319.7344
916.5720, 288.1914
917.6950, 223.6870
918.8180, 229.2104
919.9410, 266.7671
921.0630, 268.3516
922.1860, 267.8652
923.3080, 310.6538
924.4300, 258.3628
925.5520, 286.1001
926.6740, 297.8657
927.7960, 276.6611
928.9170, 364.4873
930.0390, 366.3423
931.1600, 325.2256
932.2810, 409.1377
933.4020, 306.0776
934.5230, 453.0610
935.6430, 328.0732
936.7640, 334.1187
937.8840, 303.1934
939.0040, 286.3418
940.1240, 311.4360
941.2440, 308.6035
942.3630, 334.8008
943.4830, 351.0264
944.6020, 408.2812
945.7210, 328.5645
946.8400, 431.8765
947.9590, 381.2173
949.0770, 398.5894
950.1960, 365.9897
951.3140, 328.4409
952.4320, 390.9253
953.5500, 453.4458
954.6680, 360.9946
955.7860, 416.5728
956.9030, 407.1797
958.0210, 431.8149
959.1380, 480.4795
960.2550, 471.1719
961.3720, 470.8936
962.4890, 461.6440
963.6050, 540.4229
964.7220, 539.2305
965.8380, 584.0693
966.9540, 647.9370
968.0700, 649.8335
969.1860, 650.7578
970.3010, 710.7109
971.4170, 700.6924
972.5320, 768.7021
973.6470, 772.7412
974.7620, 818.8081
975.8770, 822.9038
976.9910, 987.0273
978.1060, 886.1797
979.2200, 1100.359
980.3340, 996.5669
981.4480, 1145.803
982.5620, 1134.066
983.6760, 1231.357
984.7890, 1397.676
985.9030, 1489.023
987.0160, 1534.397
988.1290, 1822.803
989.2420, 1850.242
990.3550, 1987.710
991.4670, 2277.219
992.5800, 2516.754
993.6920, 2824.326
994.8040, 3234.929
995.9160, 3471.561
997.0280, 3738.244
998.1390, 4198.971
999.2510, 4796.761
1000.362, 5300.616
1001.473, 5790.520
1002.584, 6509.491
1003.695, 7029.521
1004.805, 7551.604
1005.916, 8054.741
1007.026, 8611.920
1008.136, 8985.139
1009.246, 9159.395
1010.356, 9002.695
1011.466, 8333.037
1012.576, 7874.423
1013.685, 7090.837
1014.794, 6066.281
1015.903, 5317.074
1017.012, 4441.004
1018.121, 3695.881
1019.229, 3325.291
1020.338, 2819.068
1021.446, 2372.381
1022.554, 2022.027
1023.662, 1820.238
1024.770, 1605.021
1025.878, 1527.267
1026.985, 1386.025
1028.092, 1288.444
1029.200, 1169.181
1030.307, 1132.419
1031.413, 1132.120
1032.520, 1103.032
1033.627, 1070.907
1034.733, 888.0610
1035.839, 991.1582
1036.945, 896.1533
1038.051, 914.6147
1039.157, 936.9126
1040.262, 869.2646
1041.368, 804.3721
1042.473, 958.3540
1043.578, 876.9697
1044.683, 902.9800
1045.788, 786.0049
1046.893, 727.5835
1047.997, 679.6372
1049.101, 743.7817
1050.205, 597.2119
1051.309, 629.3066
1052.413, 628.4697
1053.517, 566.5913
1054.621, 544.7603
1055.724, 585.9888
1056.827, 403.1499
1057.930, 461.3286
1059.033, 477.5142
1060.136, 348.0444
1061.238, 364.7417
1062.341, 308.9609
1063.443, 274.1909
1064.545, 316.4316
1065.647, 380.6816
1066.749, 255.2334
1067.850, 325.5039
1068.952, 224.8257
1070.053, 325.2148
1071.154, 258.5127
1072.255, 247.2686
1073.356, 262.6050
1074.457, 203.0801
1075.557, 255.4116
1076.658, 238.7520
1077.758, 207.0991
1078.858, 137.4536
1079.958, 143.8164
1081.057, 231.6636
1082.157, 155.0405
1083.256, 285.3848
1084.356, 135.7793
1085.455, 172.8516
1086.554, 214.2520
1087.653, 260.6577
1088.751, 271.7358
1089.850, 255.4839
1090.948, 278.9033
1092.046, 195.3286
1093.144, 158.7573
1094.242, 266.2690
1095.340, 269.7056
1096.437, 155.1460
1097.534, 174.2803
1098.632, 221.7271
1099.729, 202.1768
1100.826, 184.6426
1101.922, 187.0977
1103.019, 279.6367
1104.115, 231.1699
1105.212, 241.6309
1106.308, 257.1802
1107.404, 181.7002
1108.499, 226.1665
1109.595, 199.1929
1110.691, 322.1011
1111.786, 182.5684
1112.881, 205.0371
1113.976, 192.5059
1115.071, 150.0098
1116.166, 235.4785
1117.260, 154.9463
1118.355, 183.4136
1119.449, 159.5137
1120.543, 174.9785
1121.637, 220.5640
1122.731, 178.0264
1123.824, 198.4863
1124.918, 167.9443
1126.011, 90.40039
1127.104, 212.4976
1128.197, 176.7993
1129.290, 199.2471
1130.382, 115.5156
1131.475, 82.07422
1132.567, 81.51074
1133.659, 111.1685
1134.751, 116.8730
1135.843, 108.2949
1136.935, 99.32666
1138.027, 75.25244
1139.118, 50.52539
1140.209, 33.92334
1141.300, 8.313965
1142.391, 31.71289
1143.482, 51.08936
1144.573, 18.50684
1145.663, 18.19141
1146.754, 44.53125
1147.844, 28.95459
1148.934, 58.61230
1150.024, 81.35107
1151.113, 37.97852
1152.203, 124.7842
1153.292, 18.20020
1154.381, 24.69336
1155.470, 16.52734
1156.559, 54.46240
1157.648, 5.560547
1158.737, 102.4282
1159.825, 42.48584
1160.913, 49.24023
1162.001, 55.37744
1163.089, 7.516602
1164.177, 87.67920
1165.265, 106.9385
1166.352, 25.27197
1167.440, 6.637695
1168.527, 28.93750
1169.614, 9.360840
1170.701, 7.190430
1171.788, 4.274902
1172.874, 26.23535
1173.961, 42.25244
1175.047, 50.20068
1176.133, 33.74951
1177.219, 22.82324
1178.305, 59.56836
1179.390, 24.94678
1180.476, 17.68945
1181.561, 103.6392
1182.646, 4.410645
1183.731, 145.2456
1184.816, 9.907715
1185.901, 89.66309
1186.985, 75.50635
1188.070, 51.66211
1189.154, 90.01221
1190.238, 27.20117
1191.322, 23.40674
1192.406, 72.49561
1193.489, 100.5693
1194.573, 77.62891
1195.656, 156.6733
1196.739, 23.29736
1197.822, 89.72168
1198.905, 15.69141
1199.988, 49.63525
1201.070, 122.5630
1202.153, 9.475098
1203.235, 70.35840
1204.317, 50.34473
1205.399, 97.19434
1206.481, 129.4028
1207.562, 98.57617
1208.644, 167.6484
1209.725, 104.6025
1210.806, 40.37207
1211.887, 154.1211
1212.968, 42.13037
1214.049, 26.54248
1215.129, 12.18994
1216.209, 107.8052
1217.290, 112.4043
1218.370, 119.9868
1219.450, 114.5537
1220.529, 97.10352
1221.609, 112.6367
1222.688, 125.2104
1223.768, 81.74219
1224.847, 104.2266
1225.926, 123.6978
1227.005, 44.15186
1228.083, 120.5825
1229.162, 115.9961
1230.240, 104.3916
1231.318, 114.8145
1232.396, 90.17578
1233.474, 93.08105
1234.552, 118.8438
1235.629, 92.15137
1236.707, 100.4395
1237.784, 114.7119
1238.861, 139.9658
1239.938, 125.2017
1241.015, 165.4385
1242.092, 157.6479
1243.168, 149.8394
1244.244, 112.0127
1245.321, 296.1680
1246.397, 284.3047
1247.473, 245.4243
1248.548, 58.52441
1249.624, 145.6011
1250.699, 96.65967
1251.775, 213.6982
1252.850, 250.7197
1253.925, 175.7217
1254.999, 173.7065
1256.074, 61.67236
1257.148, 53.62256
1258.223, 150.6289
1259.297, 55.52734
1260.371, 104.4976
1261.445, 137.3496
1262.519, 91.18457
1263.592, 86.99805
1264.666, 165.7910
1265.739, 215.5664
1266.812, 171.3232
1267.885, 149.0620
1268.958, 159.7817
1270.030, 213.4834
1271.103, 135.1670
1272.175, 220.8315
1273.247, 51.47754
1274.319, 94.09570
1275.391, 157.6938
1276.463, 91.95605
1277.535, 128.1035
1278.606, 162.3032
1279.677, 94.99072
1280.748, 126.3140
1281.819, 43.94189
1282.890, 158.4023
1283.961, 106.3086
1285.031, 140.9702
1286.102, 186.5649
1287.172, 134.9546
1288.242, 187.4487
1289.312, 59.35010
1290.381, 124.0000
1291.451, 89.43555
1292.520, 110.6655
1293.590, 180.9316
1294.659, 161.9204
1295.728, 162.9678
1296.797, 72.30469
1297.865, 116.0659
1298.934, 124.9824
