##NAMES=Augite
##RRUFFID=R061108
##IDEAL CHEMISTRY=(Ca,Mg,Fe^2+^,Fe^3+^)_2_(Si,Al)_2_O_6_
##LOCALITY=Monti Rossi, near Mt. Etna, Sicily, Italy
##OWNER=RRUFF
##SOURCE=Michael Scott
##DESCRIPTION=Euhedral, short prismatic, black crystals in vesicular basalt.
##STATUS=The identification of this mineral is confirmed by single-crystal X-ray diffraction and chemical analysis.
##URL=rruff.info/R061108
##MEASURED CHEMISTRY=(Ca_0.86_Mg_0.74_Fe^2+^_0.18_Fe^3+^_0.08_Al_0.05_Ti_0.04_Na_0.04_Mn_0.01_)_Σ=2_(Si_1.83_Al_0.17_)_Σ=2_O_6_
##PIN_ID=L01906
##ORIENTATION=Laser parallel to (1 0 1). Fiducial mark perpendicular to laser is parallel to -b [0 -1 0]
161.1660, 0.0000000E+00
162.4000, 186.3320
163.6330, 128.4658
164.8670, 319.4775
166.1000, 110.3916
167.3340, 49.86621
168.5670, 69.16992
169.8000, 334.7695
171.0320, 298.0742
172.2650, 245.0947
173.4970, 259.9062
174.7290, 221.2002
175.9610, 217.8994
177.1930, 306.2324
178.4240, 501.7402
179.6550, 356.2441
180.8870, 535.7637
182.1170, 533.3955
183.3480, 454.1025
184.5790, 629.9736
185.8090, 702.1094
187.0390, 913.0586
188.2690, 863.3330
189.4990, 918.3691
190.7290, 1005.942
191.9580, 1089.422
193.1870, 1062.879
194.4160, 1046.599
195.6450, 1058.239
196.8740, 1062.231
198.1020, 1157.924
199.3310, 1243.286
200.5590, 1268.098
201.7870, 1242.658
203.0140, 1119.660
204.2420, 1191.450
205.4690, 788.7344
206.6960, 618.1338
207.9230, 102.7344
209.1500, 123.7754
210.3760, 45.10938
211.6030, 92.72559
212.8290, 113.6123
214.0550, 193.7598
215.2810, 51.84473
216.5060, 2.209961
217.7320, 136.6562
218.9570, 69.24316
220.1820, 1.909180
221.4070, 35.33984
222.6320, 42.53223
223.8560, 2.483398
225.0800, 16.19141
226.3040, 65.65527
227.5280, 137.8740
228.7520, 71.84863
229.9760, 61.57422
231.1990, 204.0537
232.4220, 197.2832
233.6450, 8.265625
234.8680, 143.0020
236.0910, 27.50293
237.3130, 34.77051
238.5350, 111.8066
239.7570, 104.3887
240.9790, 46.19043
242.2010, 48.54785
243.4220, 114.3066
244.6430, 35.63477
245.8640, 88.62109
247.0850, 230.0645
248.3060, 272.6875
249.5270, 216.4766
250.7470, 204.4219
251.9670, 250.5156
253.1870, 322.9287
254.4070, 358.4170
255.6260, 358.9707
256.8460, 219.5752
258.0650, 261.2021
259.2840, 230.4160
260.5030, 196.7451
261.7220, 264.1035
262.9400, 145.5273
264.1580, 211.3945
265.3760, 203.7324
266.5940, 198.6455
267.8120, 258.0410
269.0290, 287.5039
270.2470, 119.9463
271.4640, 134.4756
272.6810, 111.1445
273.8980, 315.9541
275.1140, 115.9346
276.3310, 340.0889
277.5470, 322.4238
278.7630, 514.9424
279.9790, 482.6455
281.1940, 467.5312
282.4100, 633.5957
283.6250, 680.8428
284.8400, 732.2725
286.0550, 803.8799
287.2700, 900.9082
288.4850, 997.6348
289.6990, 1154.778
290.9130, 1280.100
292.1270, 1473.598
293.3410, 1603.271
294.5540, 1728.120
295.7680, 1880.144
296.9810, 2078.340
298.1940, 2252.709
299.4070, 2475.247
300.6200, 2742.957
301.8320, 3063.839
303.0450, 3274.895
304.2570, 3486.129
305.4690, 4155.543
306.6800, 4504.145
307.8920, 5077.540
309.1030, 5560.203
310.3150, 5974.986
311.5260, 6560.895
312.7360, 7324.941
313.9470, 8002.105
315.1580, 8805.386
316.3680, 9369.794
317.5780, 10221.33
318.7880, 10792.98
319.9980, 11675.71
321.2070, 12014.48
322.4170, 12501.27
323.6260, 12895.05
324.8350, 13220.86
326.0430, 13205.66
327.2520, 13317.48
328.4610, 13183.32
329.6690, 13037.20
330.8770, 12801.04
332.0850, 12421.78
333.2920, 12265.54
334.5000, 11964.18
335.7070, 11783.82
336.9140, 11442.34
338.1210, 11245.79
339.3280, 10899.30
340.5350, 10988.70
341.7410, 10942.11
342.9470, 10922.30
344.1540, 11121.54
345.3590, 11149.90
346.5650, 11380.35
347.7710, 11607.93
348.9760, 11522.64
350.1810, 11739.50
351.3860, 11786.51
352.5910, 11919.67
353.7950, 11819.12
355.0000, 11847.99
356.2040, 11731.25
357.4080, 11912.32
358.6120, 11792.68
359.8150, 11621.68
361.0190, 11268.04
362.2220, 11368.23
363.4250, 11033.64
364.6280, 10981.00
365.8310, 10708.27
367.0340, 10486.12
368.2360, 10653.19
369.4380, 10803.17
370.6400, 10857.92
371.8420, 10793.41
373.0440, 10926.10
374.2450, 11245.33
375.4470, 11636.58
376.6480, 12361.00
377.8490, 12952.47
379.0490, 13848.39
380.2500, 14526.15
381.4500, 15233.00
382.6510, 16384.85
383.8510, 17296.31
385.0500, 18149.00
386.2500, 18883.08
387.4500, 19567.27
388.6490, 19739.63
389.8480, 19684.12
391.0470, 19347.30
392.2460, 18735.68
393.4440, 17459.17
394.6430, 16396.78
395.8410, 14814.49
397.0390, 13326.32
398.2370, 11772.25
399.4340, 10543.30
400.6320, 9022.444
401.8290, 7819.705
403.0260, 6880.069
404.2230, 5951.539
405.4200, 5073.117
406.6170, 4616.799
407.8130, 3820.587
409.0090, 3359.478
410.2050, 3093.475
411.4010, 2816.574
412.5970, 2644.777
413.7920, 2432.083
414.9880, 2323.492
416.1830, 2209.004
417.3780, 2055.617
418.5730, 1776.332
419.7670, 1657.147
420.9620, 1572.370
422.1560, 1479.663
423.3500, 1527.184
424.5440, 1413.390
425.7380, 1471.691
426.9310, 1403.088
428.1240, 1209.577
429.3180, 1113.160
430.5110, 1185.835
431.7030, 1055.600
432.8960, 1123.453
434.0890, 874.3965
435.2810, 906.4287
436.4730, 935.5723
437.6650, 732.8320
438.8570, 800.2480
440.0480, 859.8535
441.2390, 646.6377
442.4310, 777.6465
443.6220, 783.8262
444.8120, 844.2334
446.0030, 887.2021
447.1940, 788.7920
448.3840, 916.9590
449.5740, 942.3887
450.7640, 909.0908
451.9540, 1040.605
453.1430, 1215.350
454.3330, 1194.589
455.5220, 1370.588
456.7110, 1387.136
457.9000, 1504.234
459.0890, 1673.712
460.2770, 1827.510
461.4650, 1829.672
462.6540, 1887.555
463.8420, 2007.773
465.0290, 1907.796
466.2170, 2015.913
467.4050, 2134.600
468.5920, 2077.049
469.7790, 2031.342
470.9660, 2084.830
472.1530, 2005.450
473.3390, 2121.919
474.5250, 2096.338
475.7120, 2084.842
476.8980, 2109.578
478.0840, 2137.291
479.2690, 2126.055
480.4550, 2109.865
481.6400, 2131.722
482.8250, 2124.627
484.0100, 2203.578
485.1950, 2173.578
486.3800, 2342.624
487.5640, 2311.717
488.7480, 2270.855
489.9320, 2367.039
491.1160, 2244.264
492.3000, 2365.532
493.4840, 2295.843
494.6670, 2347.073
495.8500, 2446.582
497.0330, 2421.023
498.2160, 2396.506
499.3990, 2358.045
500.5810, 2397.627
501.7630, 2456.745
502.9460, 2533.604
504.1280, 2676.608
505.3090, 2771.373
506.4910, 2942.165
507.6720, 3083.018
508.8540, 3261.908
510.0350, 3400.842
511.2160, 3543.820
512.3960, 3678.827
513.5770, 3887.996
514.7570, 4198.943
515.9380, 4337.072
517.1180, 4647.238
518.2970, 4916.436
519.4770, 5153.695
520.6570, 5401.014
521.8360, 5655.346
523.0150, 6054.719
524.1940, 6267.107
525.3730, 6793.510
526.5510, 7065.938
527.7300, 7402.376
528.9080, 7596.826
530.0860, 7685.289
531.2640, 7743.758
532.4420, 7776.465
533.6200, 7810.715
534.7970, 7661.200
535.9740, 7612.688
537.1510, 7394.846
538.3280, 6993.665
539.5050, 6970.153
540.6810, 6747.640
541.8580, 6443.125
543.0340, 6314.605
544.2100, 6238.082
545.3860, 5897.553
546.5610, 5683.018
547.7370, 5682.475
548.9120, 5327.923
550.0870, 5219.363
551.2620, 5020.792
552.4370, 4935.211
553.6120, 4767.617
554.7860, 4699.009
555.9600, 4675.389
557.1340, 4583.752
558.3080, 4498.610
559.4820, 4362.430
560.6560, 4273.743
561.8290, 4143.038
563.0020, 3988.313
564.1750, 3929.567
565.3480, 3963.801
566.5210, 3559.012
567.6930, 3611.198
568.8660, 3487.361
570.0380, 3241.499
571.2100, 3239.611
572.3820, 2892.697
573.5530, 2598.756
574.7250, 2399.785
575.8960, 2399.787
577.0670, 2220.718
578.2380, 1947.282
579.4090, 1678.842
580.5800, 1512.751
581.7500, 1278.543
582.9210, 1227.963
584.0910, 928.1777
585.2610, 843.1133
586.4300, 421.6865
587.6000, 452.8115
588.7690, 273.0312
589.9390, 268.9668
591.1080, 42.19824
592.2770, 183.2695
593.4450, 1.726563
594.6140, 173.3076
595.7820, 301.5020
596.9500, 270.4434
598.1190, 283.1924
599.2860, 346.2354
600.4540, 353.7607
601.6220, 327.0703
602.7890, 148.8311
603.9560, 49.49121
605.1230, 23.51367
606.2900, 82.45996
607.4570, 19.57324
608.6230, 43.49121
609.7890, 68.22363
610.9560, 134.7832
612.1220, 110.1934
613.2870, 203.4473
614.4530, 296.5713
615.6180, 253.5869
616.7840, 377.4844
617.9490, 508.2822
619.1140, 471.9824
620.2790, 562.5850
621.4430, 710.0898
622.6080, 823.4951
623.7720, 1028.803
624.9360, 1079.011
626.1000, 1324.119
627.2640, 1528.127
628.4270, 1811.035
629.5910, 2005.843
630.7540, 2270.290
631.9170, 2461.154
633.0800, 2801.658
634.2430, 3094.320
635.4050, 3405.361
636.5680, 3841.559
637.7300, 4196.655
638.8920, 4609.646
640.0540, 5205.537
641.2150, 5846.072
642.3770, 6543.006
643.5380, 7513.584
644.7000, 8471.061
645.8610, 9653.433
647.0210, 10867.70
648.1820, 12339.87
649.3430, 13943.92
650.5030, 16060.87
651.6630, 18238.72
652.8230, 20385.46
653.9830, 23464.10
655.1430, 26318.63
656.3020, 30034.06
657.4620, 33530.38
658.6210, 36968.59
659.7800, 40809.71
660.9390, 44101.71
662.0970, 46701.61
663.2560, 47475.39
664.4140, 47890.08
665.5720, 46840.65
666.7300, 44609.13
667.8880, 41221.49
669.0460, 38028.75
670.2030, 33888.91
671.3600, 30218.95
672.5180, 26454.90
673.6740, 23150.73
674.8310, 20248.46
675.9880, 17495.09
677.1440, 15527.61
678.3010, 13515.02
679.4570, 11738.34
680.6130, 10249.54
681.7690, 9014.646
682.9240, 7924.643
684.0800, 7041.537
685.2350, 6325.328
686.3900, 5572.014
687.5450, 4965.596
688.7000, 4422.077
689.8540, 3840.456
691.0090, 3541.731
692.1630, 3190.906
693.3170, 2934.978
694.4710, 2664.389
695.6250, 2287.818
696.7780, 2227.588
697.9320, 1985.257
699.0850, 1870.825
700.2380, 1535.295
701.3910, 1411.666
702.5440, 1452.938
703.6970, 1368.111
704.8490, 1062.186
706.0010, 981.1641
707.1530, 911.0449
708.3050, 764.8291
709.4570, 647.5371
710.6090, 452.1094
711.7600, 380.6074
712.9110, 333.0098
714.0620, 269.3184
715.2130, 100.5303
716.3640, 63.60254
717.5150, 86.48145
718.6650, 222.7998
719.8150, 192.4189
720.9650, 365.3242
722.1150, 174.6016
723.2650, 397.1494
724.4150, 491.0850
725.5640, 456.4502
726.7130, 574.0986
727.8630, 558.4785
729.0110, 600.1875
730.1600, 610.3740
731.3090, 559.5820
732.4570, 612.2129
733.6060, 616.5410
734.7540, 528.8291
735.9020, 662.8428
737.0490, 519.6133
738.1970, 264.9238
739.3440, 372.6465
740.4920, 325.8457
741.6390, 177.8613
742.7860, 93.26660
743.9320, 34.50586
745.0790, 92.14648
746.2250, 194.2256
747.3720, 282.5420
748.5180, 583.0156
749.6640, 649.2949
750.8100, 796.4463
751.9550, 872.7529
753.1010, 1135.033
754.2460, 1298.396
755.3910, 1496.456
756.5360, 1575.546
757.6810, 1774.599
758.8250, 1898.615
759.9700, 2076.597
761.1140, 2342.546
762.2580, 2488.465
763.4020, 2362.353
764.5460, 2694.213
765.6900, 2612.046
766.8330, 2618.855
767.9760, 2890.642
769.1200, 2800.404
770.2620, 2903.149
771.4050, 2776.875
772.5480, 2769.742
773.6900, 2794.273
774.8330, 2636.953
775.9750, 2593.620
777.1170, 2420.276
778.2590, 2472.922
779.4000, 2298.562
780.5420, 2300.194
781.6830, 2227.822
782.8240, 2179.448
783.9650, 1921.072
785.1060, 2166.695
786.2470, 1920.321
787.3870, 1771.948
788.5280, 1826.581
789.6680, 1872.219
790.8080, 1846.864
791.9480, 1518.518
793.0870, 1727.182
794.2270, 1558.858
795.3660, 1621.547
796.5060, 1649.249
797.6450, 1685.967
798.7830, 1706.701
799.9220, 1668.454
801.0610, 1712.508
802.1990, 1725.633
803.3370, 1779.840
804.4750, 1741.681
805.6130, 1829.547
806.7510, 1746.439
807.8890, 1860.359
809.0260, 1840.312
810.1630, 1780.293
811.3000, 1764.306
812.4370, 1760.684
813.5740, 1803.435
814.7110, 1821.554
815.8470, 1771.710
816.9830, 1899.905
818.1190, 1749.143
819.2550, 1784.420
820.3910, 1774.743
821.5270, 1714.109
822.6620, 1734.521
823.7970, 1557.981
824.9330, 1539.489
826.0670, 1569.048
827.2020, 1404.658
828.3370, 1416.318
829.4710, 1149.036
830.6060, 1430.807
831.7400, 1322.635
832.8740, 1117.521
834.0080, 1246.467
835.1410, 1152.473
836.2750, 1158.541
837.4080, 1173.671
838.5410, 1181.066
839.6740, 1344.128
840.8070, 1341.455
841.9400, 1485.852
843.0730, 1728.317
844.2050, 1966.854
845.3370, 2244.463
846.4690, 2580.655
847.6010, 2973.902
848.7330, 3357.734
849.8640, 3808.645
850.9960, 4319.633
852.1270, 4458.738
853.2580, 5263.262
854.3890, 5626.844
855.5200, 6176.121
856.6500, 6218.572
857.7810, 6520.445
858.9110, 6391.575
860.0410, 6341.037
861.1710, 6420.912
862.3010, 6327.291
863.4310, 6201.628
864.5600, 5711.305
865.6900, 5557.740
866.8190, 5215.928
867.9480, 4943.105
869.0770, 4667.447
870.2050, 4287.396
871.3340, 4008.042
872.4620, 3745.451
873.5900, 3460.799
874.7180, 3355.154
875.8460, 3037.922
876.9740, 2943.067
878.1010, 2837.084
879.2290, 2912.432
880.3560, 2562.869
881.4830, 2485.176
882.6100, 2377.713
883.7370, 2485.459
884.8630, 2259.469
885.9900, 2199.747
887.1160, 2254.284
888.2420, 2153.060
889.3680, 2001.059
890.4940, 1919.293
891.6200, 1760.750
892.7450, 1730.446
893.8700, 1715.367
894.9960, 1725.534
896.1210, 1849.955
897.2460, 1747.607
898.3700, 1760.524
899.4950, 1657.685
900.6190, 1718.075
901.7430, 1650.721
902.8670, 1708.627
903.9910, 1448.776
905.1150, 1507.141
906.2390, 1502.721
907.3620, 1575.537
908.4850, 1604.929
909.6080, 1632.942
910.7310, 1713.523
911.8540, 1782.315
912.9770, 1894.350
914.0990, 1816.604
915.2210, 1770.654
916.3440, 1898.059
917.4660, 1988.571
918.5870, 2044.196
919.7090, 1959.963
920.8310, 2056.867
921.9520, 2081.438
923.0730, 2103.246
924.1940, 2226.215
925.3150, 2163.393
926.4360, 2285.138
927.5560, 2333.475
928.6770, 2415.706
929.7970, 2425.148
930.9170, 2418.451
932.0370, 2524.035
933.1570, 2510.789
934.2760, 2330.806
935.3960, 2440.979
936.5150, 2360.336
937.6340, 2236.883
938.7530, 2322.979
939.8720, 2309.574
940.9910, 2349.703
942.1090, 2447.029
943.2280, 2404.547
944.3460, 2472.248
945.4640, 2424.157
946.5820, 2498.254
947.6990, 2579.538
948.8170, 2395.045
949.9340, 2419.758
951.0520, 2375.651
952.1690, 2727.735
953.2860, 2383.002
954.4030, 2664.450
955.5190, 2620.084
956.6360, 2658.904
957.7520, 2705.920
958.8680, 2773.121
959.9840, 2810.509
961.1000, 2846.079
962.2160, 2925.832
963.3310, 2992.772
964.4470, 3065.892
965.5620, 3145.195
966.6770, 3219.685
967.7920, 3241.358
968.9060, 3426.214
970.0210, 3376.244
971.1360, 3520.455
972.2500, 3516.844
973.3640, 3764.412
974.4780, 3887.160
975.5920, 3966.091
976.7050, 4122.199
977.8190, 4173.488
978.9320, 4288.955
980.0450, 4380.600
981.1580, 4849.417
982.2710, 4886.414
983.3840, 5243.594
984.4970, 5343.947
985.6090, 6008.479
986.7210, 5972.207
987.8330, 6631.141
988.9450, 6924.318
990.0570, 7624.778
991.1690, 8111.509
992.2800, 9098.548
993.3920, 9800.851
994.5030, 10861.47
995.6140, 11910.44
996.7250, 13134.73
997.8350, 14292.39
998.9460, 15720.41
1000.056, 17375.79
1001.167, 18888.53
1002.277, 20125.62
1003.387, 21554.07
1004.496, 22439.88
1005.606, 23129.01
1006.715, 23943.49
1007.825, 23923.30
1008.934, 23254.88
1010.043, 22396.19
1011.152, 20833.30
1012.260, 19003.47
1013.369, 17138.02
1014.477, 15160.47
1015.586, 12935.82
1016.694, 11537.78
1017.802, 10198.32
1018.909, 9166.458
1020.017, 8100.660
1021.124, 7246.292
1022.232, 6393.045
1023.339, 5876.051
1024.446, 5393.213
1025.553, 4976.187
1026.659, 4754.041
1027.766, 4417.285
1028.872, 4218.194
1029.979, 3795.776
1031.085, 3722.211
1032.191, 3727.243
1033.296, 3441.964
1034.402, 3503.867
1035.507, 3424.819
1036.613, 3601.776
1037.718, 3265.194
1038.823, 3298.977
1039.928, 3314.645
1041.032, 3035.971
1042.137, 3099.964
1043.241, 3090.305
1044.346, 2780.816
1045.450, 2944.768
1046.554, 2687.112
1047.657, 2703.345
1048.761, 2470.250
1049.864, 2529.885
1050.968, 2395.763
1052.071, 2201.994
1053.174, 2108.478
1054.277, 2056.286
1055.379, 2034.440
1056.482, 2014.288
1057.584, 1979.409
1058.687, 1939.478
1059.789, 1936.529
1060.891, 1796.378
1061.992, 1750.684
1063.094, 1791.328
1064.196, 1857.476
1065.297, 1862.976
1066.398, 1679.902
1067.499, 1569.338
1068.600, 1648.320
1069.701, 1735.868
1070.801, 1772.539
1071.902, 1808.850
1073.002, 1674.543
1074.102, 1706.652
1075.202, 1725.865
1076.302, 1736.439
1077.402, 1757.386
1078.501, 1748.361
1079.600, 1737.494
1080.700, 1702.623
1081.799, 1734.408
1082.898, 1744.366
1083.996, 1714.327
1085.095, 1734.007
1086.193, 1688.325
1087.292, 1811.997
1088.390, 1849.380
1089.488, 1903.155
1090.586, 1663.255
1091.683, 1832.507
1092.781, 1654.990
1093.878, 1821.550
1094.975, 1741.674
1096.073, 1892.137
1097.169, 1791.151
1098.266, 1620.690
1099.363, 1661.652
1100.459, 1619.027
1101.556, 1780.959
1102.652, 1770.193
1103.748, 1695.289
1104.844, 1749.944
1105.940, 1721.346
1107.035, 1620.730
1108.131, 1598.816
1109.226, 1539.119
1110.321, 1713.291
1111.416, 1602.718
1112.511, 1573.606
1113.605, 1693.504
1114.700, 1522.167
1115.794, 1471.526
1116.889, 1498.297
1117.983, 1531.327
1119.077, 1362.396
1120.170, 1496.005
1121.264, 1322.492
1122.357, 1315.907
1123.451, 1324.877
1124.544, 1135.840
1125.637, 984.9004
1126.730, 787.4785
1127.823, 885.2256
1128.915, 929.0957
1130.008, 723.9316
1131.100, 656.8594
1132.192, 584.3408
1133.284, 445.9580
1134.376, 363.2090
1135.467, 310.5381
1136.559, 358.8203
1137.650, 203.7822
1138.742, 90.42773
1139.833, 71.44434
1140.924, 30.71973
1142.014, 28.20215
1143.105, 19.27344
1144.195, 117.1143
1145.286, 81.35352
1146.376, 119.6807
1147.466, 53.04004
1148.556, 297.5596
1149.646, 345.2168
1150.735, 289.1758
1151.825, 253.3086
1152.914, 233.3672
1154.003, 242.6914
1155.092, 220.3438
1156.181, 288.2598
1157.270, 213.9443
1158.358, 291.3262
1159.447, 309.4395
1160.535, 216.3223
1161.623, 333.3457
1162.711, 255.2129
1163.799, 178.7021
1164.886, 269.5225
1165.974, 294.5977
1167.061, 207.6240
1168.148, 96.13184
1169.235, 94.76465
1170.322, 165.5146
1171.409, 264.6709
1172.496, 172.8525
1173.582, 219.5215
1174.669, 40.45020
1175.755, 152.5488
1176.841, 56.88184
1177.927, 160.3975
1179.012, 133.1572
1180.098, 38.85254
1181.183, 9.284180
1182.269, 41.40625
1183.354, 87.05078
1184.439, 30.27344
1185.524, 21.43457
1186.608, 3.520508
1187.693, 78.33984
1188.777, 110.2139
1189.862, 33.74609
1190.946, 201.1025
1192.030, 156.3936
1193.113, 379.4443
1194.197, 179.4424
1195.281, 119.3086
1196.364, 116.0205
1197.447, 236.5771
1198.530, 272.0088
1199.613, 251.3223
1200.696, 150.5186
1201.779, 167.5645
1202.861, 348.4600
1203.944, 188.2383
1205.026, 266.8662
1206.108, 310.3613
1207.190, 156.7344
1208.271, 305.9414
1209.353, 306.0176
1210.435, 78.96289
1211.516, 185.7051
1212.597, 435.2861
1213.678, 312.7441
1214.759, 464.0664
1215.840, 426.2656
1216.920, 401.3389
1218.001, 360.2822
1219.081, 299.0908
1220.161, 393.7520
1221.241, 391.2783
1222.321, 467.6699
1223.401, 467.9336
1224.480, 424.0684
1225.560, 497.0684
1226.639, 447.9395
1227.718, 415.6758
1228.797, 466.2734
1229.876, 539.7373
1230.955, 654.0713
1232.033, 590.2812
1233.112, 631.3613
1234.190, 534.3154
1235.268, 573.1367
1236.346, 475.8965
1237.424, 661.4473
1238.501, 492.9385
1239.579, 652.2227
1240.656, 596.3770
1241.733, 729.3994
1242.811, 548.4814
1243.888, 487.2383
1244.964, 627.8516
1246.041, 575.3330
1247.117, 711.6777
1248.194, 703.8926
1249.270, 604.3301
1250.346, 621.2783
1251.422, 632.3936
1252.498, 730.0703
1253.573, 730.6152
1254.649, 706.0273
1255.724, 618.3076
1256.800, 776.4492
1257.875, 584.4609
1258.950, 747.4316
1260.024, 721.1680
1261.099, 822.7725
1262.173, 784.2461
1263.248, 653.5869
1264.322, 852.9971
1265.396, 843.3545
1266.470, 681.3301
1267.544, 739.2666
1268.617, 918.2607
1269.691, 829.4951
1270.764, 838.9082
1271.837, 898.6250
1272.910, 792.3740
1273.983, 943.2969
1275.056, 874.1709
1276.129, 843.8428
1277.201, 902.0391
1278.273, 834.5352
1279.346, 853.4551
1280.418, 814.3203
1281.489, 738.8691
1282.561, 747.1064
1283.633, 758.2021
1284.704, 847.5498
1285.776, 647.9287
1286.847, 811.2021
1287.918, 618.0908
1288.989, 777.3213
1290.059, 694.4824
1291.130, 570.4590
1292.200, 646.6406
1293.271, 690.0400
1294.341, 692.3975
1295.411, 552.8418
1296.481, 598.7725
1297.551, 579.4971
1298.620, 556.2080
1299.690, 628.6836
1300.759, 508.4775
1301.828, 577.9863
1302.897, 570.8066
1303.966, 607.9629
1305.035, 564.6338
1306.103, 549.9971
1307.172, 610.3672
1308.240, 613.0488
1309.308, 593.4756
1310.376, 635.6865
1311.444, 510.6279
1312.512, 498.5273
1313.580, 580.0293
1314.647, 422.5791
1315.714, 543.0107
1316.781, 385.5713
1317.848, 499.4873
1318.915, 582.4160
1319.982, 591.5117
1321.049, 515.1943
1322.115, 522.4834
1323.181, 507.2598
1324.248, 516.6660
1325.314, 506.7969
1326.380, 519.5850
