##NAMES=Augite
##RRUFFID=R061108
##IDEAL CHEMISTRY=(Ca,Mg,Fe^2+^,Fe^3+^)_2_(Si,Al)_2_O_6_
##LOCALITY=Monti Rossi, near Mt. Etna, Sicily, Italy
##OWNER=RRUFF
##SOURCE=Michael Scott
##DESCRIPTION=Euhedral, short prismatic, black crystals in vesicular basalt.
##STATUS=The identification of this mineral is confirmed by single-crystal X-ray diffraction and chemical analysis.
##URL=rruff.info/R061108
##MEASURED CHEMISTRY=(Ca_0.86_Mg_0.74_Fe^2+^_0.18_Fe^3+^_0.08_Al_0.05_Ti_0.04_Na_0.04_Mn_0.01_)_Σ=2_(Si_1.83_Al_0.17_)_Σ=2_O_6_
##PIN_ID=L01693
##ORIENTATION=Laser parallel to -c* (0 0 -1). Fiducial mark perpendicular to laser is parallel to a [1 0 0]
157.4620, 0.0000000E+00
158.6970, 0.4013670
159.9310, 206.7031
161.1660, 33.87988
162.4000, 294.5654
163.6330, 441.3086
164.8670, 392.0908
166.1000, 436.1680
167.3340, 276.2393
168.5670, 431.3271
169.8000, 441.0928
171.0320, 550.4756
172.2650, 501.0986
173.4970, 282.2275
174.7290, 291.3945
175.9610, 219.5244
177.1930, 28.28516
178.4240, 158.0342
179.6550, 173.5273
180.8870, 49.22363
182.1170, 10.14746
183.3480, 1.031250
184.5790, 165.5078
185.8090, 213.8789
187.0390, 216.8301
188.2690, 257.9336
189.4990, 372.7930
190.7290, 175.8877
191.9580, 481.3672
193.1870, 327.2178
194.4160, 397.4238
195.6450, 441.9668
196.8740, 516.8223
198.1020, 506.9746
199.3310, 593.4082
200.5590, 568.1152
201.7870, 574.0850
203.0140, 426.3125
204.2420, 367.7900
205.4690, 121.5127
206.6960, 144.4756
207.9230, 122.3311
209.1500, 77.08984
210.3760, 82.26953
211.6030, 36.41406
212.8290, 4.348633
214.0550, 85.92578
215.2810, 60.40332
216.5060, 31.91992
217.7320, 128.9551
218.9570, 98.97852
220.1820, 61.27734
221.4070, 3.283203
222.6320, 159.3369
223.8560, 17.13574
225.0800, 51.10840
226.3040, 65.24805
227.5280, 162.5557
228.7520, 115.0254
229.9760, 240.6523
231.1990, 332.4111
232.4220, 243.2080
233.6450, 343.0625
234.8680, 271.9873
236.0910, 373.9932
237.3130, 507.0889
238.5350, 729.2852
239.7570, 779.6494
240.9790, 856.9961
242.2010, 961.5107
243.4220, 1114.149
244.6430, 1243.883
245.8640, 1285.780
247.0850, 1391.779
248.3060, 1431.902
249.5270, 1441.148
250.7470, 1538.515
251.9670, 1576.612
253.1870, 1659.608
254.4070, 1683.336
255.6260, 1741.178
256.8460, 1619.285
258.0650, 1725.493
259.2840, 1768.292
260.5030, 1751.091
261.7220, 1493.823
262.9400, 1515.083
264.1580, 1440.593
265.3760, 1353.211
266.5940, 1339.936
267.8120, 1315.766
269.0290, 1363.699
270.2470, 1132.734
271.4640, 1289.869
272.6810, 1367.104
273.8980, 1198.435
275.1140, 1262.859
276.3310, 1397.379
277.5470, 1293.989
278.7630, 1387.688
279.9790, 1322.476
281.1940, 1512.350
282.4100, 1530.307
283.6250, 1659.348
284.8400, 1729.710
286.0550, 1820.239
287.2700, 1824.946
288.4850, 2066.299
289.6990, 2072.727
290.9130, 2282.226
292.1270, 2420.794
293.3410, 2494.431
294.5540, 2694.135
295.7680, 3058.904
296.9810, 3173.737
298.1940, 3537.631
299.4070, 3821.584
300.6200, 3960.597
301.8320, 4326.689
303.0450, 4620.938
304.2570, 4938.194
305.4690, 5370.992
306.6800, 5701.402
307.8920, 6153.057
309.1030, 6633.940
310.3150, 7060.043
311.5260, 7588.370
312.7360, 8059.937
313.9470, 8592.659
315.1580, 9091.608
316.3680, 9518.776
317.5780, 9902.122
318.7880, 10418.68
319.9980, 10907.43
321.2070, 11395.37
322.4170, 11610.50
323.6260, 11932.17
324.8350, 11901.63
326.0430, 12285.24
327.2520, 12445.97
328.4610, 12138.83
329.6690, 11825.20
330.8770, 11719.12
332.0850, 11312.16
333.2920, 11229.29
334.5000, 10612.47
335.7070, 10277.73
336.9140, 10019.07
338.1210, 9726.484
339.3280, 9281.979
340.5350, 8884.543
341.7410, 8500.179
342.9470, 8045.887
344.1540, 7967.661
345.3590, 7609.498
346.5650, 7241.404
347.7710, 6881.370
348.9760, 6648.398
350.1810, 6522.487
351.3860, 6363.637
352.5910, 6070.842
353.7950, 5704.018
355.0000, 5604.334
356.2040, 5350.412
357.4080, 5020.103
358.6120, 4893.520
359.8150, 4738.045
361.0190, 4407.619
362.2220, 4380.730
363.4250, 4086.398
364.6280, 3831.689
365.8310, 3635.446
367.0340, 3578.213
368.2360, 3505.056
369.4380, 3380.938
370.6400, 3109.863
371.8420, 3019.825
373.0440, 3017.826
374.2450, 2811.862
375.4470, 2880.936
376.6480, 2893.043
377.8490, 2767.187
379.0490, 2814.361
380.2500, 2712.569
381.4500, 2692.810
382.6510, 2682.082
383.8510, 2751.386
385.0500, 2672.721
386.2500, 2610.083
387.4500, 2618.475
388.6490, 2540.892
389.8480, 2531.338
391.0470, 2360.809
392.2460, 2264.305
393.4440, 2272.825
394.6430, 1857.368
395.8410, 1869.934
397.0390, 1523.520
398.2370, 1541.127
399.4340, 1086.753
400.6320, 1130.399
401.8290, 1039.062
403.0260, 748.7422
404.2230, 786.4385
405.4200, 626.1514
406.6170, 614.8789
407.8130, 435.6191
409.0090, 374.3730
410.2050, 419.1396
411.4010, 366.9180
412.5970, 396.7051
413.7920, 430.5039
414.9880, 342.3115
416.1830, 319.1260
417.3780, 169.9482
418.5730, 403.7764
419.7670, 390.6104
420.9620, 489.4492
422.1560, 210.2920
423.3500, 245.1387
424.5440, 375.9863
425.7380, 207.8369
426.9310, 328.6875
428.1240, 344.5391
429.3180, 245.3887
430.5110, 308.2373
431.7030, 323.0830
432.8960, 184.9268
434.0890, 94.76758
435.2810, 249.6035
436.4730, 92.43457
437.6650, 184.2607
438.8570, 78.07910
440.0480, 122.8906
441.2390, 88.69531
442.4310, 78.83496
443.6220, 25.76855
444.8120, 55.42871
446.0030, 38.48438
447.1940, 66.58594
448.3840, 227.7852
449.5740, 112.4082
450.7640, 254.7109
451.9540, 130.1631
453.1430, 169.3984
454.3330, 351.1006
455.5220, 563.9893
456.7110, 382.7559
457.9000, 505.3672
459.0890, 650.4053
460.2770, 555.5801
461.4650, 702.6582
462.6540, 498.0117
463.8420, 611.0459
465.0290, 780.3809
466.2170, 637.3086
467.4050, 728.8682
468.5920, 725.4814
469.7790, 878.9004
470.9660, 813.4199
472.1530, 707.0020
473.3390, 879.5176
474.5250, 795.8623
475.7120, 965.6309
476.8980, 780.2383
478.0840, 866.2637
479.2690, 845.7656
480.4550, 937.8770
481.6400, 938.7969
482.8250, 923.8076
484.0100, 953.8350
485.1950, 920.7109
486.3800, 913.5342
487.5640, 1012.304
488.7480, 971.0186
489.9320, 1027.678
491.1160, 1065.282
492.3000, 1245.829
493.4840, 1309.320
494.6670, 1379.753
495.8500, 1538.126
497.0330, 1598.458
498.2160, 1681.731
499.3990, 1823.955
500.5810, 1916.120
501.7630, 2064.224
502.9460, 2180.265
504.1280, 2386.242
505.3090, 2504.158
506.4910, 2601.012
507.6720, 2613.810
508.8540, 2662.543
510.0350, 2772.210
511.2160, 2477.811
512.3960, 2676.344
513.5770, 2482.810
514.7570, 2347.205
515.9380, 2561.533
517.1180, 2466.790
518.2970, 2435.979
519.4770, 2449.097
520.6570, 2494.145
521.8360, 2524.119
523.0150, 2647.022
524.1940, 2574.854
525.3730, 2764.611
526.5510, 2747.295
527.7300, 2710.904
528.9080, 2923.439
530.0860, 2870.901
531.2640, 2855.287
532.4420, 2829.598
533.6200, 2835.190
534.7970, 2775.987
535.9740, 2868.066
537.1510, 2829.068
538.3280, 2838.991
539.5050, 2703.838
540.6810, 2739.604
541.8580, 2652.292
543.0340, 2448.899
544.2100, 2269.428
545.3860, 2398.876
546.5610, 2243.244
547.7370, 2262.530
548.9120, 2213.737
550.0870, 2121.630
551.2620, 2225.903
552.4370, 2032.863
553.6120, 1962.741
554.7860, 2041.535
555.9600, 2010.247
557.1340, 1930.875
558.3080, 1887.419
559.4820, 1853.879
560.6560, 1924.256
561.8290, 1921.547
563.0020, 1790.755
564.1750, 1623.877
565.3480, 1775.914
566.5210, 1682.867
567.6930, 1596.731
568.8660, 1578.513
570.0380, 1691.207
571.2100, 1541.816
572.3820, 1455.338
573.5530, 1247.773
574.7250, 1160.127
575.8960, 975.3916
577.0670, 980.5703
578.2380, 936.6611
579.4090, 729.6670
580.5800, 681.5840
581.7500, 589.4141
582.9210, 387.1553
584.0910, 336.7949
585.2610, 136.3262
586.4300, 189.7051
587.6000, 95.94531
588.7690, 35.93652
589.9390, 88.73633
591.1080, 175.3545
592.2770, 201.3857
593.4450, 188.9961
594.6140, 231.0293
595.7820, 272.0459
596.9500, 325.0977
598.1190, 180.2832
599.2860, 123.9844
600.4540, 126.4160
601.6220, 147.2910
602.7890, 74.58984
603.9560, 60.26465
605.1230, 25.90820
606.2900, 87.95898
607.4570, 8.395508
608.6230, 180.2812
609.7890, 205.7461
610.9560, 226.0127
612.1220, 306.0859
613.2870, 273.9922
614.4530, 274.7207
615.6180, 391.2773
616.7840, 432.6904
617.9490, 562.9707
619.1140, 607.1426
620.2790, 657.2100
621.4430, 653.1758
622.6080, 855.0439
623.7720, 881.8145
624.9360, 989.4902
626.1000, 1163.067
627.2640, 1357.549
628.4270, 1579.936
629.5910, 1589.229
630.7540, 1813.425
631.9170, 2084.528
633.0800, 2406.537
634.2430, 2661.455
635.4050, 3022.280
636.5680, 3395.012
637.7300, 3890.654
638.8920, 4272.204
640.0540, 4822.664
641.2150, 5315.035
642.3770, 6083.316
643.5380, 6831.510
644.7000, 7724.616
645.8610, 8701.634
647.0210, 9855.567
648.1820, 11127.41
649.3430, 12840.17
650.5030, 14475.85
651.6630, 16366.44
652.8230, 18854.95
653.9830, 21066.37
655.1430, 24194.72
656.3020, 26848.97
657.4620, 29783.16
658.6210, 32941.26
659.7800, 35613.28
660.9390, 38219.23
662.0970, 40317.09
663.2560, 41474.88
664.4140, 42416.61
665.5720, 42677.23
666.7300, 41627.80
667.8880, 39759.29
669.0460, 36882.71
670.2030, 33199.05
671.3600, 29978.33
672.5180, 26380.53
673.6740, 22939.67
674.8310, 19791.73
675.9880, 16972.73
677.1440, 14730.66
678.3010, 12539.52
679.4570, 10854.32
680.6130, 9223.053
681.7690, 8081.723
682.9240, 7186.328
684.0800, 6166.874
685.2350, 5473.357
686.3900, 4975.781
687.5450, 4280.146
688.7000, 4017.451
689.8540, 3616.701
691.0090, 3152.893
692.1630, 3091.029
693.3170, 2701.112
694.4710, 2590.141
695.6250, 2453.116
696.7780, 2393.041
697.9320, 2198.914
699.0850, 2207.738
700.2380, 2107.513
701.3910, 2134.240
702.5440, 2089.921
703.6970, 2084.556
704.8490, 2053.146
706.0010, 2009.691
707.1530, 2140.195
708.3050, 1918.657
709.4570, 2004.077
710.6090, 1858.458
711.7600, 1679.800
712.9110, 1730.606
714.0620, 1652.875
715.2130, 1568.106
716.3640, 1397.305
717.5150, 1399.482
718.6650, 1133.615
719.8150, 1017.716
720.9650, 941.7861
722.1150, 702.4844
723.2650, 561.3486
724.4150, 509.4521
725.5640, 303.1221
726.7130, 124.7109
727.8630, 37.17969
729.0110, 41.80957
730.1600, 187.5273
731.3090, 221.4756
732.4570, 363.2920
733.6060, 271.6895
734.7540, 254.3652
735.9020, 458.0029
737.0490, 484.6113
738.1970, 505.7783
739.3440, 327.2109
740.4920, 459.6357
741.6390, 340.6934
742.7860, 290.1543
743.9320, 165.9902
745.0790, 120.5879
746.2250, 62.15234
747.3720, 241.8232
748.5180, 399.6748
749.6640, 342.4141
750.8100, 306.0771
751.9550, 329.7959
753.1010, 601.6758
754.2460, 722.1230
755.3910, 840.7217
756.5360, 1010.815
757.6810, 1084.587
758.8250, 1293.662
759.9700, 1218.792
761.1140, 1418.989
762.2580, 1550.233
763.4020, 1704.527
764.5460, 1691.873
765.6900, 1963.271
766.8330, 2074.723
767.9760, 1888.232
769.1200, 2108.798
770.2620, 1936.422
771.4050, 2089.107
772.5480, 2071.854
773.6900, 2049.665
774.8330, 2160.541
775.9750, 1955.485
777.1170, 2087.496
778.2590, 1853.578
779.4000, 1844.729
780.5420, 1845.954
781.6830, 1775.253
782.8240, 1663.627
783.9650, 1582.079
785.1060, 1602.609
786.2470, 1574.220
787.3870, 1602.910
788.5280, 1397.683
789.6680, 1327.539
790.8080, 1343.481
791.9480, 1416.510
793.0870, 1244.627
794.2270, 1339.832
795.3660, 1456.127
796.5060, 1404.516
797.6450, 1245.996
798.7830, 1242.572
799.9220, 1249.243
801.0610, 1207.012
802.1990, 1226.878
803.3370, 1242.094
804.4750, 1238.691
805.6130, 1314.080
806.7510, 1321.354
807.8890, 1384.730
809.0260, 1424.473
810.1630, 1473.804
811.3000, 1490.502
812.4370, 1521.309
813.5740, 1515.228
814.7110, 1658.258
815.8470, 1647.400
816.9830, 1578.658
818.1190, 1729.030
819.2550, 1541.518
820.3910, 1614.124
821.5270, 1603.850
822.6620, 1538.693
823.7970, 1546.659
824.9330, 1426.745
826.0670, 1465.955
827.2020, 1366.290
828.3370, 1422.748
829.4710, 1205.335
830.6060, 1161.048
831.7400, 1061.890
832.8740, 959.8613
834.0080, 947.9619
835.1410, 905.1943
836.2750, 758.5596
837.4080, 700.0576
838.5410, 510.6904
839.6740, 437.4590
840.8070, 383.3643
841.9400, 247.4053
843.0730, 215.5859
844.2050, 184.5566
845.3370, 233.3652
846.4690, 127.9658
847.6010, 68.70996
848.7330, 57.40527
849.8640, 157.6191
850.9960, 60.78711
852.1270, 225.1016
853.2580, 16.56152
854.3890, 182.1680
855.5200, 65.92383
856.6500, 316.8281
857.7810, 385.8828
858.9110, 199.0957
860.0410, 279.4717
861.1710, 158.0312
862.3010, 342.7695
863.4310, 200.6602
864.5600, 174.4639
865.6900, 187.0693
866.8190, 229.8096
867.9480, 211.5596
869.0770, 153.4482
870.2050, 139.2598
871.3340, 155.0361
872.4620, 56.85938
873.5900, 153.1475
874.7180, 200.1250
875.8460, 174.5029
876.9740, 250.7822
878.1010, 263.9854
879.2290, 108.3789
880.3560, 286.8760
881.4830, 163.5986
882.6100, 415.2734
883.7370, 339.2031
884.8630, 495.3857
885.9900, 644.8623
887.1160, 499.5957
888.2420, 718.6367
889.3680, 692.9697
890.4940, 853.5859
891.6200, 918.4883
892.7450, 1027.644
893.8700, 1042.062
894.9960, 1099.740
896.1210, 1132.666
897.2460, 1300.839
898.3700, 1165.288
899.4950, 1429.020
900.6190, 1480.006
901.7430, 1342.264
902.8670, 1526.774
903.9910, 1608.515
905.1150, 1605.504
906.2390, 1738.748
907.3620, 1792.273
908.4850, 1908.039
909.6080, 1965.048
910.7310, 2009.278
911.8540, 2239.770
912.9770, 2193.513
914.0990, 2458.485
915.2210, 2305.661
916.3440, 2662.064
917.4660, 2683.703
918.5870, 2920.565
919.7090, 3024.634
920.8310, 3096.911
921.9520, 3160.399
923.0730, 3414.099
924.1940, 3368.014
925.3150, 3435.154
926.4360, 3495.515
927.5560, 3850.086
928.6770, 3704.865
929.7970, 3774.833
930.9170, 3940.016
932.0370, 3862.412
933.1570, 3955.031
934.2760, 4003.854
935.3960, 3944.883
936.5150, 3879.123
937.6340, 3836.564
938.7530, 3881.204
939.8720, 4079.039
940.9910, 3911.074
942.1090, 3945.308
943.2280, 4144.732
944.3460, 3923.346
945.4640, 4096.156
946.5820, 4019.154
947.6990, 3953.350
948.8170, 3978.732
949.9340, 4013.301
951.0520, 3990.050
952.1690, 4101.985
953.2860, 4049.104
954.4030, 3899.408
955.5190, 4152.899
956.6360, 4018.577
957.7520, 4198.438
958.8680, 4053.480
959.9840, 4233.703
961.1000, 4220.106
962.2160, 4387.688
963.3310, 4488.441
964.4470, 4620.371
965.5620, 4786.477
966.6770, 4992.752
967.7920, 5000.201
968.9060, 5213.826
970.0210, 5374.622
971.1360, 5612.589
972.2500, 5829.729
973.3640, 6004.029
974.4780, 6207.502
975.5920, 6414.137
976.7050, 6737.938
977.8190, 7145.921
978.9320, 7631.028
980.0450, 8094.318
981.1580, 8538.770
982.2710, 8994.387
983.3840, 9828.659
984.4970, 10352.59
985.6090, 11228.70
986.7210, 12389.96
987.8330, 13159.36
988.9450, 14278.93
990.0570, 15542.66
991.1690, 17009.54
992.2800, 18770.58
993.3920, 20367.77
994.5030, 22472.12
995.6140, 24524.61
996.7250, 27008.25
997.8350, 29047.04
998.9460, 31511.00
1000.056, 34398.12
1001.167, 36847.46
1002.277, 39178.00
1003.387, 41917.78
1004.496, 43458.77
1005.606, 44336.96
1006.715, 45697.40
1007.825, 45548.09
1008.934, 44516.02
1010.043, 43463.14
1011.152, 41113.50
1012.260, 38556.05
1013.369, 34989.80
1014.477, 31437.70
1015.586, 28013.75
1016.694, 24567.60
1017.802, 21449.33
1018.909, 18868.29
1020.017, 16701.77
1021.124, 14700.12
1022.232, 13100.45
1023.339, 12122.63
1024.446, 10804.21
1025.553, 9859.521
1026.659, 9284.125
1027.766, 8730.711
1028.872, 7883.273
1029.979, 7801.332
1031.085, 7306.053
1032.191, 7045.854
1033.296, 6634.322
1034.402, 6313.396
1035.507, 6086.621
1036.613, 6044.234
1037.718, 5824.156
1038.823, 5710.947
1039.928, 5560.133
1041.032, 5232.270
1042.137, 5211.229
1043.241, 4982.626
1044.346, 4762.959
1045.450, 4735.264
1046.554, 4654.339
1047.657, 4291.574
1048.761, 4128.012
1049.864, 3929.151
1050.968, 3714.856
1052.071, 3557.150
1053.174, 3424.370
1054.277, 3256.635
1055.379, 2991.037
1056.482, 3010.552
1057.584, 2818.810
1058.687, 2764.104
1059.789, 2738.469
1060.891, 2754.685
1061.992, 2597.420
1063.094, 2532.686
1064.196, 2638.963
1065.297, 2366.464
1066.398, 2366.040
1067.499, 2461.729
1068.600, 2374.298
1069.701, 2275.112
1070.801, 2331.405
1071.902, 2314.244
1073.002, 2350.650
1074.102, 2305.009
1075.202, 2307.688
1076.302, 2302.219
1077.402, 2259.087
1078.501, 2391.596
1079.600, 2254.625
1080.700, 2271.851
1081.799, 2413.393
1082.898, 2221.896
1083.996, 2246.064
1085.095, 2286.940
1086.193, 2239.371
1087.292, 2267.082
1088.390, 2192.444
1089.488, 2177.861
1090.586, 2289.561
1091.683, 2185.825
1092.781, 2215.234
1093.878, 2326.114
1094.975, 2276.621
1096.073, 2224.866
1097.169, 2200.663
1098.266, 2191.305
1099.363, 2126.059
1100.459, 2197.398
1101.556, 2158.995
1102.652, 2145.689
1103.748, 2203.893
1104.844, 2121.426
1105.940, 2057.703
1107.035, 2138.517
1108.131, 1979.979
1109.226, 2036.761
1110.321, 2016.520
1111.416, 2075.151
1112.511, 1954.870
1113.605, 2106.845
1114.700, 1981.830
1115.794, 1768.872
1116.889, 1873.241
1117.983, 1912.115
1119.077, 1740.760
1120.170, 1688.316
1121.264, 1814.803
1122.357, 1591.179
1123.451, 1505.497
1124.544, 1373.750
1125.637, 1372.957
1126.730, 1212.092
1127.823, 1205.214
1128.915, 1111.256
1130.008, 924.4375
1131.100, 827.3945
1132.192, 721.3984
1133.284, 642.3379
1134.376, 562.9404
1135.467, 545.6973
1136.559, 448.0361
1137.650, 404.5088
1138.742, 399.7217
1139.833, 329.9844
1140.924, 142.1748
1142.014, 113.6260
1143.105, 179.8271
1144.195, 69.76855
1145.286, 115.5635
1146.376, 27.73242
1147.466, 53.62646
1148.556, 61.95654
1149.646, 217.2686
1150.735, 123.0303
1151.825, 288.8779
1152.914, 233.7456
1154.003, 240.5649
1155.092, 271.8252
1156.181, 181.3486
1157.270, 227.3267
1158.358, 204.7417
1159.447, 166.2554
1160.535, 152.0537
1161.623, 268.1304
1162.711, 279.4634
1163.799, 172.8408
1164.886, 224.7129
1165.974, 157.8384
1167.061, 63.10254
1168.148, 126.4590
1169.235, 151.0879
1170.322, 247.9014
1171.409, 82.86182
1172.496, 91.15674
1173.582, 13.72070
1174.669, 151.4912
1175.755, 114.6284
1176.841, 26.95312
1177.927, 87.48926
1179.012, 8.206543
1180.098, 47.08496
1181.183, 11.83105
1182.269, 85.57080
1183.354, 69.31787
1184.439, 73.75439
1185.524, 76.03662
1186.608, 56.55420
1187.693, 10.12158
1188.777, 30.88916
1189.862, 98.49072
1190.946, 107.9199
1192.030, 250.1929
1193.113, 76.34131
1194.197, 87.31787
1195.281, 32.12549
1196.364, 154.7397
1197.447, 126.2026
1198.530, 107.5142
1199.613, 163.6582
1200.696, 192.6484
1201.779, 205.4897
1202.861, 194.1855
1203.944, 201.7310
1205.026, 287.1265
1206.108, 248.3877
1207.190, 260.5273
1208.271, 288.6108
1209.353, 201.4355
1210.435, 351.2275
1211.516, 332.8047
1212.597, 435.3521
1213.678, 306.6753
1214.759, 404.8589
1215.840, 365.9160
1216.920, 291.8384
1218.001, 315.6143
1219.081, 383.3848
1220.161, 365.8804
1221.241, 405.3433
1222.321, 398.4570
1223.401, 449.5400
1224.480, 498.4907
1225.560, 536.3115
1226.639, 472.0039
1227.718, 562.5635
1228.797, 546.9966
1229.876, 431.3003
1230.955, 509.4658
1232.033, 500.7734
1233.112, 561.6729
1234.190, 730.4409
1235.268, 557.0889
1236.346, 653.8936
1237.424, 756.5156
1238.501, 658.8926
1239.579, 663.2168
1240.656, 691.2241
1241.733, 668.4058
1242.811, 604.1577
1243.888, 599.9897
1244.964, 593.5186
1246.041, 554.0269
1247.117, 613.2500
1248.194, 663.3408
1249.270, 678.6299
1250.346, 689.9854
1251.422, 709.8374
1252.498, 717.1143
1253.573, 725.7065
1254.649, 729.2954
1255.724, 738.5869
1256.800, 734.1079
1257.875, 744.6748
1258.950, 701.8203
1260.024, 746.4956
1261.099, 725.0420
1262.173, 724.5801
1263.248, 764.8687
1264.322, 793.0288
1265.396, 864.2163
1266.470, 796.1919
1267.544, 929.1255
1268.617, 820.8550
1269.691, 824.4351
1270.764, 747.8398
1271.837, 793.1162
1272.910, 840.2656
1273.983, 909.2900
1275.056, 754.1914
1276.129, 943.9639
1277.201, 826.9292
1278.273, 790.0005
1279.346, 834.8564
1280.418, 809.1655
1281.489, 735.7915
1282.561, 655.3462
1283.633, 688.8218
1284.704, 673.2749
1285.776, 719.1309
1286.847, 756.2529
1287.918, 704.3799
1288.989, 708.5156
1290.059, 797.1411
1291.130, 689.0879
1292.200, 611.9365
1293.271, 677.0972
1294.341, 641.7100
1295.411, 606.1880
1296.481, 576.2515
1297.551, 576.9800
1298.620, 550.7104
1299.690, 497.0215
1300.759, 517.3569
1301.828, 520.0894
1302.897, 520.8667
1303.966, 585.9243
1305.035, 509.9854
1306.103, 569.2969
1307.172, 641.3682
1308.240, 508.5190
1309.308, 497.8057
1310.376, 518.6226
1311.444, 444.5103
1312.512, 506.6216
1313.580, 492.8086
1314.647, 495.6182
1315.714, 479.4570
1316.781, 495.3726
1317.848, 443.0322
1318.915, 503.9648
1319.982, 603.6211
1321.049, 544.7144
1322.115, 566.2422
1323.181, 459.7168
