##NAMES=Augite
##RRUFFID=R070231
##IDEAL CHEMISTRY=(Ca,Mg,Fe^2+^,Fe^3+^)_2_(Si,Al)_2_O_6_
##LOCALITY=Old Goose Creek Quarry, Leesburg, Loudoun County, Virginia, USA
##OWNER=RRUFF
##SOURCE=Michael Scott
##DESCRIPTION=Very dark grey-green prismatic crystals frozen in quartz
##STATUS=The identification of this mineral is confirmed by single-crystal X-ray diffraction and chemical analysis.
##URL=rruff.info/R070231
##MEASURED CHEMISTRY=(Mg_0.44_Fe_0.37_Ca_0.17_Ti_0.01_Mn_0.01_)_Σ=1_(Si_0.98_Al_0.02_)_Σ=1_O_3_
##PIN_ID=M00062
##ORIENTATION=Laser parallel to -c* (0 0 -1). Fiducial mark perpendicular to laser is parallel to a [1 0 0]
147.3620, 0.0000000E+00
148.5960, 20.26758
149.8300, 88.91797
151.0630, 432.0586
152.2960, 423.9355
153.5300, 314.8047
154.7620, 110.8535
155.9950, 82.47461
157.2280, 38.05273
158.4600, 62.55859
159.6920, 46.46875
160.9250, 117.2871
162.1560, 403.7305
163.3880, 516.8301
164.6200, 739.5293
165.8510, 491.8223
167.0820, 932.8281
168.3130, 962.4102
169.5440, 1404.334
170.7750, 1746.145
172.0050, 1609.246
173.2350, 2076.250
174.4650, 2157.002
175.6950, 2369.443
176.9250, 2984.809
178.1550, 3185.287
179.3840, 3609.195
180.6130, 3835.006
181.8420, 3944.787
183.0710, 4304.572
184.3000, 4724.590
185.5280, 5377.906
186.7570, 4689.141
187.9850, 4167.596
189.2130, 4173.656
190.4400, 4264.195
191.6680, 3542.018
192.8960, 3208.590
194.1230, 2928.283
195.3500, 2632.559
196.5770, 2478.443
197.8030, 2211.879
199.0300, 1972.219
200.2560, 2027.254
201.4830, 1639.555
202.7090, 1571.758
203.9340, 1305.469
205.1600, 698.2461
206.3860, 781.8750
207.6110, 590.9023
208.8360, 396.3223
210.0610, 506.8008
211.2860, 373.3906
212.5100, 479.8242
213.7350, 445.1836
214.9590, 618.8652
216.1830, 596.5488
217.4070, 325.0137
218.6310, 575.9980
219.8540, 554.2148
221.0780, 420.2070
222.3010, 530.3535
223.5240, 251.2363
224.7470, 74.16406
225.9690, 336.1465
227.1920, 352.1328
228.4140, 317.0645
229.6360, 459.9629
230.8580, 220.8652
232.0800, 416.7227
233.3020, 246.5371
234.5230, 328.3086
235.7440, 135.0312
236.9650, 305.7090
238.1860, 18.65820
239.4070, 100.9219
240.6280, 18.45703
241.8480, 355.9375
243.0680, 238.3691
244.2880, 79.74609
245.5080, 111.0664
246.7280, 448.3340
247.9470, 336.5488
249.1660, 349.7051
250.3860, 312.8066
251.6040, 337.8496
252.8230, 326.8320
254.0420, 413.7539
255.2600, 381.6152
256.4790, 285.4102
257.6970, 899.1406
258.9150, 931.8066
260.1320, 601.3906
261.3500, 331.9062
262.5670, 74.35938
263.7840, 236.7422
265.0010, 57.05664
266.2180, 36.28516
267.4350, 33.58008
268.6510, 2.515625
269.8680, 15.47852
271.0840, 126.5879
272.3000, 104.2891
273.5160, 27.11328
274.7310, 174.0469
275.9470, 119.5762
277.1620, 74.35938
278.3770, 188.8809
279.5920, 99.71484
280.8070, 230.1289
282.0210, 41.31445
283.2360, 153.2246
284.4500, 137.2930
285.6640, 323.1914
286.8780, 25.18164
288.0920, 59.00195
289.3050, 104.0840
290.5180, 204.5703
291.7320, 325.9688
292.9450, 180.0723
294.1570, 311.7793
295.3700, 322.9102
296.5830, 355.4746
297.7950, 501.4785
299.0070, 688.4629
300.2190, 831.7109
301.4310, 741.6992
302.6420, 1026.781
303.8540, 1082.248
305.0650, 1278.592
306.2760, 1132.061
307.4870, 1377.977
308.6980, 1253.580
309.9080, 1407.283
311.1190, 1290.559
312.3290, 1666.947
313.5390, 1754.807
314.7490, 1840.627
315.9580, 1938.406
317.1680, 2018.143
318.3770, 1749.830
319.5860, 1905.473
320.7950, 1785.070
322.0040, 1793.625
323.2130, 1939.135
324.4210, 1741.592
325.6290, 1957.996
326.8380, 1726.352
328.0460, 1622.652
329.2530, 1759.898
330.4610, 1589.090
331.6680, 1728.219
332.8760, 1689.270
334.0830, 1399.264
335.2890, 1447.201
336.4960, 1450.082
337.7030, 1494.898
338.9090, 1305.625
340.1150, 1567.270
341.3210, 1367.863
342.5270, 1490.490
343.7330, 1514.980
344.9380, 1488.428
346.1440, 1467.838
347.3490, 1345.213
348.5540, 1426.553
349.7590, 1334.859
350.9630, 1529.121
352.1680, 1389.328
353.3720, 1313.455
354.5760, 1448.371
355.7800, 1372.301
356.9840, 1326.889
358.1870, 1164.723
359.3910, 1076.420
360.5940, 1135.104
361.7970, 1009.746
363.0000, 913.8438
364.2030, 986.3633
365.4050, 995.8477
366.6080, 1089.184
367.8100, 904.6016
369.0120, 921.1797
370.2140, 922.9668
371.4150, 762.8555
372.6170, 1026.789
373.8180, 1101.555
375.0190, 800.8105
376.2200, 973.1328
377.4210, 954.2500
378.6220, 987.6367
379.8220, 1143.342
381.0230, 1002.219
382.2230, 1185.793
383.4230, 1158.746
384.6220, 1144.428
385.8220, 1173.529
387.0220, 1102.732
388.2210, 1039.908
389.4200, 949.9727
390.6190, 841.6133
391.8180, 687.5449
393.0160, 580.0996
394.2150, 459.6914
395.4130, 550.1191
396.6110, 335.6367
397.8090, 466.0957
399.0060, 231.9043
400.2040, 157.5664
401.4010, 69.81055
402.5980, 14.56250
403.7950, 20.71094
404.9920, 34.36523
406.1890, 16.99609
407.3860, 7.416016
408.5820, 64.48828
409.7780, 102.6328
410.9740, 154.6348
412.1700, 119.5879
413.3650, 33.95898
414.5610, 78.26172
415.7560, 53.62891
416.9510, 60.84375
418.1460, 5.687500
419.3410, 101.1680
420.5360, 20.40234
421.7300, 41.37891
422.9240, 247.7832
424.1180, 83.94141
425.3120, 67.51758
426.5060, 154.0996
427.7000, 91.16406
428.8930, 43.15039
430.0860, 106.0957
431.2790, 225.7500
432.4720, 27.39258
433.6650, 160.0801
434.8580, 103.9863
436.0500, 131.5723
437.2420, 118.9199
438.4340, 150.8672
439.6260, 192.9238
440.8180, 133.9824
442.0090, 15.87109
443.2010, 48.75586
444.3920, 94.68164
445.5830, 100.6641
446.7740, 145.7031
447.9640, 51.80664
449.1550, 94.94531
450.3450, 232.8633
451.5350, 167.6660
452.7250, 17.44922
453.9150, 126.2129
455.1050, 45.03906
456.2940, 216.6660
457.4830, 456.3535
458.6720, 258.0273
459.8610, 408.6855
461.0500, 491.3301
462.2390, 678.9590
463.4270, 619.5742
464.6150, 483.1758
465.8040, 721.7637
466.9910, 750.3359
468.1790, 433.8965
469.3670, 389.4414
470.5540, 624.9746
471.7410, 582.5000
472.9280, 335.0117
474.1150, 355.5176
475.3020, 539.0098
476.4890, 381.4883
477.6750, 411.9629
478.8610, 319.4277
480.0470, 260.8848
481.2330, 237.3320
482.4190, 173.7695
483.6040, 467.2051
484.7900, 129.6348
485.9750, 389.0566
487.1600, 300.4746
488.3450, 400.8887
489.5290, 685.2988
490.7140, 608.7070
491.8980, 603.1113
493.0820, 552.5176
494.2660, 698.9160
495.4500, 687.3105
496.6340, 781.7031
497.8170, 718.0938
499.0010, 776.4844
500.1840, 920.8750
501.3670, 918.8633
502.5500, 1004.082
503.7320, 1080.041
504.9150, 1057.432
506.0970, 1206.834
507.2790, 1132.252
508.4610, 1308.670
509.6430, 1259.107
510.8250, 1566.584
512.0060, 1461.094
513.1870, 1589.660
514.3680, 1525.234
515.5490, 1621.879
516.7300, 1715.529
517.9110, 1733.260
519.0910, 1946.055
520.2710, 1971.807
521.4510, 2079.729
522.6310, 2175.594
523.8110, 2225.512
524.9910, 2446.498
526.1700, 2461.529
527.3490, 2480.617
528.5280, 2825.752
529.7070, 2880.914
530.8860, 2620.096
532.0650, 2679.299
533.2430, 3059.512
534.4210, 2916.773
535.5990, 2985.045
536.7770, 3242.330
537.9550, 3209.619
539.1320, 3394.973
540.3100, 3522.330
541.4870, 3353.359
542.6640, 3259.090
543.8410, 3205.469
545.0170, 3287.402
546.1940, 3083.568
547.3700, 2902.975
548.5470, 2958.422
549.7230, 2676.436
550.8980, 2792.885
552.0740, 2656.504
553.2500, 2694.422
554.4250, 2381.973
555.6000, 2298.516
556.7750, 2279.771
557.9500, 1988.561
559.1250, 1893.389
560.2990, 2000.771
561.4730, 1772.795
562.6480, 1987.492
563.8220, 1802.945
564.9950, 1331.949
566.1690, 1506.793
567.3430, 1415.811
568.5160, 1192.211
569.6890, 837.3516
570.8620, 1166.297
572.0350, 989.0000
573.2070, 1077.244
574.3800, 964.1777
575.5520, 1081.674
576.7240, 999.8438
577.8960, 904.3281
579.0680, 791.6602
580.2400, 1152.041
581.4110, 782.8418
582.5830, 1142.398
583.7540, 1086.555
584.9250, 883.1797
586.0950, 924.3613
587.2660, 1226.246
588.4370, 986.3789
589.6070, 1323.012
590.7770, 1138.391
591.9470, 1199.213
593.1170, 1431.836
594.2860, 1672.842
595.4560, 1468.307
596.6250, 1840.514
597.7940, 1828.322
598.9630, 1601.129
600.1320, 1798.934
601.3000, 1767.732
602.4690, 1738.527
603.6370, 2022.553
604.8050, 1851.342
605.9730, 1996.133
607.1410, 2110.918
608.3090, 2178.701
609.4760, 2326.477
610.6430, 2251.645
611.8100, 2302.047
612.9770, 2341.660
614.1440, 2422.000
615.3110, 2581.760
616.4770, 2358.711
617.6430, 2503.764
618.8090, 2431.715
619.9750, 2522.432
621.1410, 2993.598
622.3070, 2994.828
623.4720, 3109.193
624.6370, 3137.793
625.8020, 3177.418
626.9670, 3062.254
628.1320, 3276.324
629.2970, 3381.422
630.4610, 3354.033
631.6250, 3926.928
632.7890, 3473.559
633.9530, 3988.717
635.1170, 4295.672
636.2810, 4204.232
637.4440, 4289.908
638.6070, 4631.125
639.7700, 4705.174
640.9330, 4786.260
642.0960, 4919.543
643.2590, 5262.602
644.4210, 5449.588
645.5830, 5828.836
646.7450, 6012.793
647.9070, 6448.945
649.0690, 7352.516
650.2310, 7869.520
651.3920, 8362.611
652.5530, 8896.398
653.7140, 9885.600
654.8750, 10424.89
656.0360, 11551.16
657.1970, 12392.35
658.3570, 13249.59
659.5170, 13978.25
660.6770, 14417.34
661.8370, 14896.10
662.9970, 15079.09
664.1570, 15044.59
665.3160, 14790.10
666.4750, 14076.45
667.6340, 13330.36
668.7930, 12637.39
669.9520, 12112.30
671.1110, 11507.81
672.2690, 10576.50
673.4270, 9751.857
674.5850, 9221.430
675.7430, 8775.656
676.9010, 8016.439
678.0590, 7373.885
679.2160, 6821.496
680.3730, 6290.918
681.5300, 5498.146
682.6870, 5288.217
683.8440, 4920.168
685.0010, 4619.424
686.1570, 4519.613
687.3130, 4252.953
688.4690, 3888.182
689.6250, 3501.648
690.7810, 3236.059
691.9370, 2974.258
693.0920, 2878.611
694.2470, 2651.180
695.4020, 2465.947
696.5570, 2547.281
697.7120, 2224.320
698.8670, 2223.340
700.0210, 2177.863
701.1750, 2062.688
702.3290, 2094.781
703.4830, 1847.191
704.6370, 1706.584
705.7910, 1673.055
706.9440, 1783.037
708.0970, 1448.613
709.2510, 1559.492
710.4030, 1492.395
711.5560, 1248.211
712.7090, 1521.037
713.8610, 1429.816
715.0140, 1256.549
716.1660, 1261.258
717.3180, 1213.951
718.4690, 1110.627
719.6210, 1075.293
720.7730, 1066.955
721.9240, 872.6055
723.0750, 1134.209
724.2260, 886.7715
725.3770, 928.3086
726.5270, 912.8203
727.6780, 939.3125
728.8280, 619.7676
729.9780, 881.1914
731.1280, 1011.559
732.2780, 604.9844
733.4280, 690.2461
734.5770, 577.4512
735.7260, 498.7227
736.8760, 800.5098
738.0250, 700.5586
739.1730, 663.5508
740.3220, 534.4824
741.4700, 386.3574
742.6190, 523.1719
743.7670, 548.5371
744.9150, 453.2344
746.0630, 664.8711
747.2100, 612.4512
748.3580, 360.9160
749.5050, 307.3457
750.6520, 258.5176
751.7990, 323.8418
752.9460, 531.0996
754.0930, 418.2988
755.2390, 155.5195
756.3860, 419.9551
757.5320, 236.9531
758.6780, 370.0449
759.8240, 356.0918
760.9690, 84.88867
762.1150, 268.3223
763.2600, 240.0469
764.4060, 211.6289
765.5510, 156.1348
766.6950, 115.5684
767.8400, 174.9766
768.9850, 82.35352
770.1290, 41.55859
771.2730, 372.6836
772.4170, 179.7402
773.5610, 51.72070
774.7050, 245.6230
775.8480, 115.8203
776.9920, 154.5684
778.1350, 145.2402
779.2780, 95.83594
780.4210, 149.3496
781.5640, 163.7871
782.7060, 3.853516
783.8490, 14.59766
784.9910, 119.5527
786.1330, 23.37891
787.2750, 109.4219
788.4170, 62.62500
789.5580, 152.9648
790.7000, 95.51172
791.8410, 224.0918
792.9820, 83.08203
794.1230, 253.8242
795.2640, 174.9727
796.4040, 22.31250
797.5450, 124.7734
798.6850, 172.5977
799.8250, 123.1094
800.9650, 210.9922
802.1050, 52.08594
803.2450, 145.3164
804.3840, 90.72852
805.5230, 61.29297
806.6630, 4.001953
807.8020, 5.804688
808.9400, 129.2773
810.0790, 147.7246
811.2170, 33.09375
812.3560, 3.179688
813.4940, 88.43359
814.6320, 183.0273
815.7700, 100.3008
816.9070, 56.44922
818.0450, 38.66797
819.1820, 44.68750
820.3190, 49.62500
821.4560, 140.4727
822.5930, 39.75781
823.7300, 347.8789
824.8670, 6.445313
826.0030, 82.91016
827.1390, 308.2852
828.2750, 203.4062
829.4110, 236.3125
830.5470, 56.55078
831.6820, 191.3281
832.8180, 222.9727
833.9530, 349.5039
835.0880, 104.9062
836.2230, 212.2305
837.3580, 367.4727
838.4920, 292.6445
839.6270, 204.7461
840.7610, 24.23438
841.8950, 5.667969
843.0290, 64.46875
844.1630, 361.1914
845.2960, 634.8477
846.4300, 497.4414
847.5630, 713.9688
848.6960, 709.4297
849.8290, 748.8281
850.9620, 726.1641
852.0940, 889.4297
853.2270, 1027.629
854.3590, 807.7695
855.4910, 540.8398
856.6230, 806.8438
857.7550, 837.7891
858.8870, 967.6602
860.0180, 500.4727
861.1500, 828.2188
862.2810, 743.8984
863.4120, 575.5156
864.5430, 711.7043
865.6730, 843.0883
866.8040, 891.3726
867.9340, 861.3538
869.0640, 506.3087
870.1940, 580.1182
871.3240, 487.6528
872.4540, 392.1981
873.5830, 537.8115
874.7130, 250.5799
875.8420, 400.4102
876.9710, 381.3615
878.1000, 445.4146
879.2290, 342.1357
880.3570, 295.7689
881.4860, 424.7424
882.6140, 462.8170
883.7420, 355.7531
884.8700, 448.7337
885.9980, 195.3841
887.1250, 622.5469
888.2530, 690.1875
889.3800, 875.3477
890.5070, 431.2461
891.6340, 361.9766
892.7610, 658.7500
893.8880, 168.7305
895.0140, 162.2422
896.1400, 655.6602
897.2670, 271.8789
898.3930, 421.7969
899.5180, 808.5312
900.6440, 676.0898
901.7700, 488.4023
902.8950, 420.4844
904.0200, 408.7461
905.1450, 444.5586
906.2700, 589.0430
907.3950, 732.9414
908.5190, 723.9648
909.6440, 854.3281
910.7680, 331.5039
911.8920, 512.0742
913.0160, 527.7500
914.1400, 773.3164
915.2630, 687.6875
916.3870, 734.2227
917.5100, 412.7578
918.6330, 472.1758
919.7560, 986.3984
920.8790, 472.5703
922.0010, 562.2500
923.1240, 695.4414
924.2460, 448.4727
925.3680, 692.7461
926.4900, 796.5352
927.6120, 606.1680
928.7340, 704.8359
929.8550, 535.5117
930.9760, 604.0703
932.0980, 611.1523
933.2190, 339.7344
934.3390, 464.5977
935.4600, 538.1602
936.5810, 486.1914
937.7010, 727.1484
938.8210, 641.2344
939.9410, 853.6953
941.0610, 823.5391
942.1810, 830.9531
943.3010, 726.9492
944.4200, 767.3672
945.5390, 584.0469
946.6580, 448.4492
947.7770, 800.1367
948.8960, 561.1914
950.0150, 370.5234
951.1330, 252.6172
952.2510, 732.8398
953.3690, 784.1875
954.4870, 566.6328
955.6050, 402.1250
956.7230, 700.2617
957.8400, 171.4141
958.9580, 690.3672
960.0750, 525.3828
961.1920, 617.1055
962.3090, 623.8203
963.4250, 611.6133
964.5420, 675.3281
965.6580, 868.7344
966.7740, 686.8789
967.8900, 453.4180
969.0060, 672.1914
970.1220, 691.9219
971.2380, 714.0898
972.3530, 561.8945
973.4680, 514.3672
974.5830, 554.4609
975.6980, 937.5273
976.8130, 838.4727
977.9280, 784.8477
979.0420, 1154.910
980.1560, 1139.094
981.2710, 1223.359
982.3850, 1325.742
983.4980, 1110.105
984.6120, 1299.461
985.7260, 1494.797
986.8390, 1810.121
987.9520, 1960.430
989.0650, 1915.723
990.1780, 2349.004
991.2910, 2486.270
992.4030, 2743.520
993.5160, 3035.754
994.6280, 2964.977
995.7400, 3379.188
996.8520, 4126.391
997.9640, 4253.582
999.0750, 4418.758
1000.187, 5148.926
1001.298, 5324.082
1002.409, 5860.266
1003.520, 6629.484
1004.631, 7629.832
1005.741, 8550.941
1006.852, 9595.355
1007.962, 10303.64
1009.072, 10828.73
1010.182, 11020.80
1011.292, 10456.61
1012.402, 10029.68
1013.511, 8684.453
1014.621, 7922.504
1015.730, 6508.789
1016.839, 5678.820
1017.948, 4573.984
1019.056, 3901.035
1020.165, 3420.277
1021.273, 3033.715
1022.382, 2589.906
1023.490, 2358.789
1024.598, 2147.176
1025.706, 2036.180
1026.813, 1974.578
1027.921, 2005.801
1029.028, 1979.199
1030.135, 1861.188
1031.242, 1874.777
1032.349, 1861.297
1033.456, 1833.281
1034.562, 1909.504
1035.668, 1927.484
1036.775, 2005.414
1037.881, 2028.297
1038.987, 2117.277
1040.092, 1977.262
1041.198, 1934.238
1042.303, 1896.219
1043.408, 2007.195
1044.514, 1923.809
1045.618, 1857.105
1046.723, 1585.109
1047.828, 1822.203
1048.932, 1890.664
1050.037, 1681.707
1051.141, 1880.695
1052.245, 1419.699
1053.349, 1594.727
1054.452, 1040.754
1055.556, 1154.801
1056.659, 1096.895
1057.762, 847.0195
1058.865, 953.1992
1059.968, 1124.375
1061.071, 1045.492
1062.174, 930.7500
1063.276, 755.2383
1064.378, 871.0977
1065.480, 750.4414
1066.582, 896.0078
1067.684, 741.5039
1068.786, 853.2070
1069.887, 958.5469
1070.988, 488.0547
1072.090, 642.9180
1073.191, 698.3867
1074.291, 595.1406
1075.392, 668.9766
1076.493, 815.4336
1077.593, 508.2305
1078.693, 600.3867
1079.793, 486.2422
1080.893, 964.1211
1081.993, 762.0000
1083.092, 961.9492
1084.192, 899.9023
1085.291, 985.8867
1086.390, 938.8789
1087.489, 706.8789
1088.588, 845.2969
1089.686, 506.5039
1090.785, 397.5430
1091.883, 601.5820
1092.981, 553.6367
1094.079, 556.6992
1095.177, 611.7578
1096.275, 605.4336
1097.373, 653.1094
1098.470, 595.0312
1099.567, 552.2578
1100.664, 393.6250
1101.761, 394.7227
1102.858, 348.0625
1103.954, 477.4883
1105.051, 541.2109
1106.147, 610.5195
1107.243, 371.3125
1108.339, 118.6523
1109.435, 183.0430
1110.531, 11.77344
1111.626, 53.87109
1112.722, 176.8398
1113.817, 198.4297
1114.912, 166.7578
1116.007, 351.2109
1117.101, 341.5312
1118.196, 596.8477
1119.290, 588.3477
1120.385, 507.7383
1121.479, 778.1094
1122.573, 597.4141
1123.666, 380.0430
1124.760, 468.4180
1125.853, 291.7812
1126.947, 329.8438
1128.040, 159.9062
1129.133, 386.1953
1130.226, 136.4805
1131.318, 227.7578
1132.411, 132.0352
1133.503, 90.31250
1134.596, 107.5820
1135.688, 74.85938
1136.780, 104.1289
1137.871, 161.8320
1138.963, 89.30469
1140.054, 281.3633
1141.146, 354.4609
1142.237, 4.613281
1143.328, 297.2969
1144.419, 60.92188
1145.509, 334.8750
1146.600, 101.8789
1147.690, 186.5078
1148.780, 125.1641
1149.870, 215.3516
1150.960, 174.1914
1152.050, 46.58203
1153.139, 106.4922
1154.229, 69.33203
1155.318, 182.7578
1156.407, 19.06641
1157.496, 160.9102
1158.585, 191.8359
1159.674, 178.4883
1160.762, 234.0195
1161.850, 91.89453
1162.939, 23.23047
1164.027, 270.6250
1165.114, 233.5273
1166.202, 168.6445
1167.290, 339.7031
1168.377, 418.4180
1169.464, 428.1719
1170.551, 456.7734
1171.638, 474.3203
1172.725, 375.3203
1173.812, 393.0117
1174.898, 327.7461
1175.984, 96.47656
1177.071, 167.2070
1178.157, 240.0391
1179.242, 60.58594
1180.328, 163.2031
1181.414, 497.8125
1182.499, 362.8711
1183.584, 407.1328
1184.669, 246.7266
1185.754, 233.3125
1186.839, 420.8945
1187.924, 183.4648
1189.008, 289.0273
1190.092, 213.5859
1191.177, 260.8594
1192.260, 326.5508
1193.344, 152.9531
1194.428, 45.65625
1195.512, 198.5039
1196.595, 298.8438
1197.678, 188.1719
1198.761, 166.5039
1199.844, 16.70703
1200.927, 97.10547
1202.009, 153.0078
1203.092, 18.19141
1204.174, 274.2695
1205.256, 183.5859
1206.338, 39.64062
1207.420, 524.7070
1208.502, 127.7539
1209.583, 276.7852
1210.665, 685.8008
1211.746, 369.8008
1212.827, 239.7773
1213.908, 224.7344
1214.988, 502.6719
1216.069, 454.5859
1217.149, 448.4766
1218.230, 111.3438
1219.310, 162.1836
1220.390, 325.0078
1221.470, 255.8242
1222.549, 311.6289
1223.629, 359.4219
1224.708, 350.2109
1225.787, 258.2617
1226.866, 330.0938
1227.945, 49.97266
1229.024, 237.6797
1230.103, 202.3828
1231.181, 30.05859
1232.259, 212.6523
1233.337, 193.3047
1234.415, 122.8672
1235.493, 332.4141
1236.571, 44.06250
1237.648, 270.4336
1238.726, 214.9102
1239.803, 137.3711
1240.880, 245.4727
1241.957, 136.0664
1243.034, 214.3867
1244.110, 291.9336
1245.187, 13.23438
1246.263, 291.8867
1247.339, 238.1367
1248.415, 188.3711
1249.491, 212.5820
1250.566, 218.7773
1251.642, 410.9492
1252.717, 156.1055
1253.793, 218.7852
1254.868, 221.9062
1255.943, 55.12109
1257.017, 54.21094
1258.092, 497.2773
1259.166, 625.3320
1260.241, 871.3711
1261.315, 736.9727
1262.389, 1034.715
1263.462, 360.3594
1264.536, 343.7773
1265.610, 344.5078
1266.683, 143.7930
1267.756, 19.71484
1268.829, 57.96875
1269.902, 50.49609
1270.975, 90.36719
1272.048, 93.34766
1273.120, 159.9219
1274.192, 82.51172
1275.264, 255.4102
1276.336, 203.4805
1277.408, 138.2383
1278.480, 315.3047
1279.551, 96.75781
1280.623, 204.5195
1281.694, 80.43750
1282.765, 97.83984
1283.836, 194.5391
1284.907, 357.6289
1285.977, 430.2656
1287.048, 520.3945
1288.118, 444.2070
1289.188, 611.2227
1290.258, 525.8398
1291.328, 574.8867
1292.398, 353.8125
1293.467, 349.9180
1294.537, 116.3008
1295.606, 142.5117
1296.675, 381.3945
1297.744, 214.2227
1298.813, 217.7461
1299.882, 311.6562
1300.950, 256.1445
1302.018, 525.9297
1303.086, 541.1016
1304.155, 524.5742
1305.222, 405.3867
1306.290, 661.8320
1307.358, 326.5430
1308.425, 465.9531
1309.492, 249.4609
1310.559, 127.8242
1311.626, 79.17188
1312.693, 270.5039
1313.760, 404.8164
1314.826, 305.1094
1315.893, 484.3789
