##NAMES=Augite
##RRUFFID=R061108
##IDEAL CHEMISTRY=(Ca,Mg,Fe^2+^,Fe^3+^)_2_(Si,Al)_2_O_6_
##LOCALITY=Monti Rossi, near Mt. Etna, Sicily, Italy
##OWNER=RRUFF
##SOURCE=Michael Scott
##DESCRIPTION=Euhedral, short prismatic, black crystals in vesicular basalt.
##STATUS=The identification of this mineral is confirmed by single-crystal X-ray diffraction and chemical analysis.
##URL=rruff.info/R061108
##MEASURED CHEMISTRY=(Ca_0.86_Mg_0.74_Fe^2+^_0.18_Fe^3+^_0.08_Al_0.05_Ti_0.04_Na_0.04_Mn_0.01_)_Σ=2_(Si_1.83_Al_0.17_)_Σ=2_O_6_
##PIN_ID=L01693
##ORIENTATION=Laser parallel to -c* (0 0 -1). Fiducial mark perpendicular to laser is parallel to a [1 0 0]
158.6970, 0.0000000E+00
159.9310, 174.0400
161.1660, 9.692383
162.4000, 3.928711
163.6330, 5.845703
164.8670, 223.4395
166.1000, 287.0205
167.3340, 32.11621
168.5670, 259.9014
169.8000, 492.9746
171.0320, 702.2412
172.2650, 315.8594
173.4970, 412.3203
174.7290, 497.1230
175.9610, 631.7188
177.1930, 588.6738
178.4240, 614.6338
179.6550, 828.2920
180.8870, 735.3857
182.1170, 908.6943
183.3480, 647.0322
184.5790, 982.2402
185.8090, 924.5752
187.0390, 1060.166
188.2690, 851.0859
189.4990, 869.2197
190.7290, 963.5166
191.9580, 1136.932
193.1870, 1124.419
194.4160, 1105.938
195.6450, 1310.451
196.8740, 1120.889
198.1020, 1464.176
199.3310, 1519.252
200.5590, 1430.075
201.7870, 1666.610
203.0140, 1756.831
204.2420, 1599.717
205.4690, 1395.248
206.6960, 1368.412
207.9230, 1236.192
209.1500, 1630.578
210.3760, 1630.558
211.6030, 1872.403
212.8290, 1951.660
214.0550, 2163.782
215.2810, 2152.037
216.5060, 2275.289
217.7320, 2699.694
218.9570, 2774.646
220.1820, 2633.132
221.4070, 2875.138
222.6320, 2882.654
223.8560, 3184.666
225.0800, 3039.158
226.3040, 2904.120
227.5280, 2774.539
228.7520, 2734.408
229.9760, 2732.715
231.1990, 2606.471
232.4220, 2372.588
233.6450, 2400.691
234.8680, 2213.819
236.0910, 1978.026
237.3130, 1977.355
238.5350, 1766.840
239.7570, 1560.509
240.9790, 1580.385
242.2010, 1556.492
243.4220, 1552.848
244.6430, 1530.468
245.8640, 1326.360
247.0850, 1252.535
248.3060, 1367.004
249.5270, 1148.771
250.7470, 1206.839
251.9670, 978.2129
253.1870, 943.8926
254.4070, 787.8770
255.6260, 603.0654
256.8460, 584.4717
258.0650, 529.2168
259.2840, 439.1748
260.5030, 209.3379
261.7220, 160.6846
262.9400, 39.88965
264.1580, 83.60059
265.3760, 8.919922
266.5940, 259.2422
267.8120, 36.14062
269.0290, 47.77930
270.2470, 243.1621
271.4640, 146.2949
272.6810, 114.1777
273.8980, 267.8174
275.1140, 107.7832
276.3310, 85.62207
277.5470, 87.69336
278.7630, 141.9941
279.9790, 183.5225
281.1940, 247.2725
282.4100, 315.2412
283.6250, 560.4238
284.8400, 826.8115
286.0550, 917.3799
287.2700, 1298.126
288.4850, 1433.021
289.6990, 1516.068
290.9130, 2045.289
292.1270, 2167.699
293.3410, 2512.297
294.5540, 2942.078
295.7680, 3310.035
296.9810, 3818.170
298.1940, 4171.479
299.4070, 4784.957
300.6200, 5230.600
301.8320, 5725.662
303.0450, 6357.646
304.2570, 7173.124
305.4690, 8096.188
306.6800, 8820.026
307.8920, 9579.230
309.1030, 10773.09
310.3150, 11705.72
311.5260, 13022.06
312.7360, 13954.05
313.9470, 15267.66
315.1580, 16402.87
316.3680, 17588.66
317.5780, 18557.01
318.7880, 19319.91
319.9980, 20121.30
321.2070, 20866.21
322.4170, 21233.60
323.6260, 21496.49
324.8350, 21762.85
326.0430, 21467.64
327.2520, 21288.81
328.4610, 20647.38
329.6690, 20224.33
330.8770, 19314.63
332.0850, 18243.29
333.2920, 17426.30
334.5000, 16206.64
335.7070, 15162.30
336.9140, 14387.28
338.1210, 13440.55
339.3280, 12578.11
340.5350, 11704.96
341.7410, 10952.05
342.9470, 10520.40
344.1540, 9792.978
345.3590, 9447.781
346.5650, 8793.774
347.7710, 8685.938
348.9760, 8144.274
350.1810, 8121.773
351.3860, 7740.427
352.5910, 7694.229
353.7950, 7726.182
355.0000, 7369.276
356.2040, 7364.510
357.4080, 7401.872
358.6120, 7338.318
359.8150, 7430.887
361.0190, 7405.519
362.2220, 7473.215
363.4250, 7594.039
364.6280, 7701.988
365.8310, 8271.055
367.0340, 8699.244
368.2360, 8995.542
369.4380, 9375.957
370.6400, 10147.48
371.8420, 10614.11
373.0440, 11424.85
374.2450, 12311.68
375.4470, 13266.62
376.6480, 14605.66
377.8490, 15477.79
379.0490, 17251.01
380.2500, 18803.33
381.4500, 20146.73
382.6510, 21797.24
383.8510, 23650.83
385.0500, 24815.51
386.2500, 26117.28
387.4500, 27287.13
388.6490, 27675.07
389.8480, 27979.09
391.0470, 27943.19
392.2460, 27549.37
393.4440, 26826.63
394.6430, 25492.96
395.8410, 24028.37
397.0390, 21842.84
398.2370, 19882.38
399.4340, 17667.99
400.6320, 15488.57
401.8290, 13782.40
403.0260, 11435.20
404.2230, 9715.059
405.4200, 8584.974
406.6170, 7267.943
407.8130, 6231.967
409.0090, 5194.207
410.2050, 4658.330
411.4010, 4028.336
412.5970, 3510.270
413.7920, 3038.150
414.9880, 2695.681
416.1830, 2460.208
417.3780, 2109.312
418.5730, 2151.397
419.7670, 1920.850
420.9620, 1758.333
422.1560, 1562.849
423.3500, 1519.395
424.5440, 1462.967
425.7380, 1320.566
426.9310, 1193.189
428.1240, 1053.836
429.3180, 917.5039
430.5110, 815.2061
431.7030, 711.1270
432.8960, 634.6641
434.0890, 573.4473
435.2810, 493.2793
436.4730, 500.1582
437.6650, 347.1074
438.8570, 430.1367
440.0480, 155.2578
441.2390, 52.44727
442.4310, 29.26953
443.6220, 78.93555
444.8120, 23.47949
446.0030, 164.9229
447.1940, 29.71289
448.3840, 31.65723
449.5740, 79.30762
450.7640, 4.143555
451.9540, 30.09961
453.1430, 148.3018
454.3330, 48.23633
455.5220, 33.51074
456.7110, 92.15625
457.9000, 279.5527
459.0890, 303.8223
460.2770, 466.0928
461.4650, 484.6709
462.6540, 625.3867
463.8420, 734.9473
465.0290, 572.2773
466.2170, 613.8652
467.4050, 643.4971
468.5920, 685.3633
469.7790, 717.7334
470.9660, 780.6123
472.1530, 767.2217
473.3390, 960.1533
474.5250, 1016.128
475.7120, 922.3398
476.8980, 1117.668
478.0840, 1252.381
479.2690, 1098.268
480.4550, 1249.607
481.6400, 1142.863
482.8250, 1336.772
484.0100, 1186.713
485.1950, 1258.408
486.3800, 1323.779
487.5640, 1607.674
488.7480, 1547.929
489.9320, 1652.847
491.1160, 1646.441
492.3000, 1513.674
493.4840, 1660.283
494.6670, 1535.895
495.8500, 1665.277
497.0330, 1657.571
498.2160, 1762.772
499.3990, 1747.883
500.5810, 1877.898
501.7630, 2019.819
502.9460, 2057.642
504.1280, 2077.367
505.3090, 2289.994
506.4910, 2538.521
507.6720, 2401.945
508.8540, 2692.265
510.0350, 2758.481
511.2160, 2927.592
512.3960, 3073.593
513.5770, 3221.485
514.7570, 3470.269
515.9380, 3721.939
517.1180, 4044.498
518.2970, 4098.943
519.4770, 4294.270
520.6570, 4605.483
521.8360, 4710.576
523.0150, 4737.551
524.1940, 4956.403
525.3730, 5145.137
526.5510, 5313.745
527.7300, 5481.231
528.9080, 5549.588
530.0860, 5561.402
531.2640, 5457.927
532.4420, 5452.902
533.6200, 5263.746
534.7970, 5157.461
535.9740, 5071.303
537.1510, 5016.491
538.3280, 4890.806
539.5050, 4811.984
540.6810, 4782.024
541.8580, 4617.930
543.0340, 4686.691
544.2100, 4499.406
545.3860, 4471.801
546.5610, 4298.141
547.7370, 4168.340
548.9120, 4275.395
550.0870, 4259.305
551.2620, 4212.074
552.4370, 4112.695
553.6120, 4103.188
554.7860, 4041.533
555.9600, 4011.730
557.1340, 4119.797
558.3080, 4112.720
559.4820, 3963.496
560.6560, 3970.140
561.8290, 3842.629
563.0020, 3799.963
564.1750, 3592.143
565.3480, 3450.167
566.5210, 3380.033
567.6930, 3356.743
568.8660, 3334.293
570.0380, 3167.686
571.2100, 3057.888
572.3820, 2920.959
573.5530, 2758.869
574.7250, 2559.754
575.8960, 2489.749
577.0670, 2323.688
578.2380, 2138.276
579.4090, 1893.035
580.5800, 1758.228
581.7500, 1616.761
582.9210, 1417.253
584.0910, 1214.455
585.2610, 1053.077
586.4300, 925.3604
587.6000, 860.4648
588.7690, 535.9941
589.9390, 385.9570
591.1080, 379.4355
592.2770, 146.9053
593.4450, 120.8750
594.6140, 84.32129
595.7820, 55.13184
596.9500, 25.60938
598.1190, 38.25195
599.2860, 147.7959
600.4540, 118.9561
601.6220, 154.4521
602.7890, 71.53223
603.9560, 180.6357
605.1230, 160.9316
606.2900, 277.0664
607.4570, 214.7715
608.6230, 108.0146
609.7890, 10.25879
610.9560, 94.88574
612.1220, 12.50586
613.2870, 12.44336
614.4530, 38.02441
615.6180, 43.93359
616.7840, 16.29004
617.9490, 6.923828
619.1140, 62.27832
620.2790, 116.0684
621.4430, 22.05273
622.6080, 41.63086
623.7720, 223.8154
624.9360, 92.68359
626.1000, 254.1865
627.2640, 234.3838
628.4270, 492.2725
629.5910, 714.9209
630.7540, 563.3594
631.9170, 761.5693
633.0800, 878.5742
634.2430, 848.3809
635.4050, 1137.989
636.5680, 1274.400
637.7300, 1616.616
638.8920, 1754.637
640.0540, 2026.464
641.2150, 2399.098
642.3770, 2709.536
643.5380, 3122.783
644.7000, 3468.838
645.8610, 4099.703
647.0210, 4676.375
648.1820, 5380.859
649.3430, 6167.154
650.5030, 7023.259
651.6630, 8132.178
652.8230, 9389.189
653.9830, 10830.45
655.1430, 12359.81
656.3020, 13933.99
657.4620, 15691.98
658.6210, 17067.79
659.7800, 18613.42
660.9390, 20154.87
662.0970, 21296.13
663.2560, 22192.21
664.4140, 22703.12
665.5720, 22710.86
666.7300, 22371.41
667.8880, 21083.79
669.0460, 19791.99
670.2030, 18087.02
671.3600, 16285.88
672.5180, 14404.57
673.6740, 12525.08
674.8310, 11112.43
675.9880, 9616.608
677.1440, 8349.620
678.3010, 7303.465
679.4570, 6301.144
680.6130, 5467.092
681.7690, 4800.014
682.9240, 4150.205
684.0800, 3574.236
685.2350, 3180.107
686.3900, 2783.821
687.5450, 2283.379
688.7000, 2208.780
689.8540, 2033.026
691.0090, 1664.120
692.1630, 1470.062
693.3170, 1334.854
694.4710, 1152.497
695.6250, 1022.989
696.7780, 1002.338
697.9320, 780.5400
699.0850, 576.5957
700.2380, 622.5107
701.3910, 619.2842
702.5440, 505.9160
703.6970, 397.4102
704.8490, 262.7656
706.0010, 296.9854
707.1530, 107.0713
708.3050, 114.0234
709.4570, 7.843750
710.6090, 84.50098
711.7600, 136.0303
712.9110, 65.56836
714.0620, 93.35254
715.2130, 101.3330
716.3640, 202.5059
717.5150, 246.9209
718.6650, 311.5967
719.8150, 231.5615
720.9650, 336.7695
722.1150, 200.2666
723.2650, 499.9775
724.4150, 416.0488
725.5640, 410.4355
726.7130, 359.1182
727.8630, 332.9990
729.0110, 506.7295
730.1600, 491.4482
731.3090, 400.4121
732.4570, 474.4785
733.6060, 394.4395
734.7540, 349.8818
735.9020, 413.8262
737.0490, 308.6650
738.1970, 270.0547
739.3440, 83.19629
740.4920, 84.76270
741.6390, 25.69531
742.7860, 20.76562
743.9320, 140.9336
745.0790, 226.3047
746.2250, 299.5615
747.3720, 439.5107
748.5180, 439.8877
749.6640, 738.6836
750.8100, 717.6807
751.9550, 982.2852
753.1010, 1178.776
754.2460, 1243.964
755.3910, 1391.965
756.5360, 1578.512
757.6810, 1747.819
758.8250, 1972.607
759.9700, 2146.411
761.1140, 2202.498
762.2580, 2311.488
763.4020, 2400.659
764.5460, 2717.092
765.6900, 2767.938
766.8330, 3224.361
767.9760, 2877.062
769.1200, 2907.025
770.2620, 3078.289
771.4050, 2883.119
772.5480, 2894.888
773.6900, 2916.830
774.8330, 2891.805
775.9750, 2781.814
777.1170, 2664.861
778.2590, 2684.947
779.4000, 2570.077
780.5420, 2512.252
781.6830, 2381.473
782.8240, 2230.742
783.9650, 2223.063
785.1060, 2115.438
786.2470, 2208.867
787.3870, 2071.356
788.5280, 2003.904
789.6680, 1951.515
790.8080, 1907.479
791.9480, 1917.690
793.0870, 1887.741
794.2270, 1980.622
795.3660, 1989.346
796.5060, 2041.605
797.6450, 2028.713
798.7830, 2086.897
799.9220, 2085.167
801.0610, 2135.518
802.1990, 2441.955
803.3370, 2395.480
804.4750, 2385.096
805.6130, 2608.802
806.7510, 2569.604
807.8890, 2870.499
809.0260, 2845.494
810.1630, 3035.589
811.3000, 3192.785
812.4370, 3124.086
813.5740, 3245.612
814.7110, 3082.009
815.8470, 3262.632
816.9830, 3250.368
818.1190, 3196.220
819.2550, 3171.188
820.3910, 3233.271
821.5270, 2948.476
822.6620, 2949.803
823.7970, 2896.251
824.9330, 2624.826
826.0670, 2475.528
827.2020, 2476.358
828.3370, 2306.320
829.4710, 2140.417
830.6060, 2102.647
831.7400, 2122.016
832.8740, 1916.520
834.0080, 1937.166
835.1410, 2043.953
836.2750, 1762.886
837.4080, 1622.962
838.5410, 1631.188
839.6740, 1894.562
840.8070, 1745.087
841.9400, 1786.767
843.0730, 1784.599
844.2050, 1942.588
845.3370, 1874.734
846.4690, 2156.070
847.6010, 2062.538
848.7330, 2193.170
849.8640, 2290.829
850.9960, 2429.384
852.1270, 2528.998
853.2580, 2428.971
854.3890, 2617.777
855.5200, 2492.162
856.6500, 2419.213
857.7810, 2558.314
858.9110, 2515.474
860.0410, 2389.670
861.1710, 2264.820
862.3010, 2243.021
863.4310, 2166.154
864.5600, 2074.592
865.6900, 2004.959
866.8190, 2036.074
867.9480, 1903.721
869.0770, 2016.846
870.2050, 1853.546
871.3340, 1783.515
872.4620, 1718.904
873.5900, 1943.563
874.7180, 1787.878
875.8460, 1970.420
876.9740, 1802.445
878.1010, 1964.422
879.2290, 1920.503
880.3560, 1957.339
881.4830, 1976.645
882.6100, 2101.414
883.7370, 2025.524
884.8630, 2099.240
885.9900, 1938.311
887.1160, 2021.822
888.2420, 2037.779
889.3680, 2054.213
890.4940, 2197.102
891.6200, 2038.408
892.7450, 2041.168
893.8700, 2229.396
894.9960, 2205.047
896.1210, 2230.149
897.2460, 2204.692
898.3700, 2210.639
899.4950, 2124.010
900.6190, 2209.764
901.7430, 2188.907
902.8670, 2320.398
903.9910, 2246.216
905.1150, 2275.773
906.2390, 2320.391
907.3620, 2235.606
908.4850, 2349.708
909.6080, 2291.131
910.7310, 2234.891
911.8540, 2412.979
912.9770, 2458.362
914.0990, 2445.043
915.2210, 2552.008
916.3440, 2631.255
917.4660, 2794.786
918.5870, 2881.600
919.7090, 2713.722
920.8310, 2827.134
921.9520, 2745.865
923.0730, 2893.874
924.1940, 2958.162
925.3150, 2989.731
926.4360, 3222.565
927.5560, 3023.701
928.6770, 3040.112
929.7970, 2790.820
930.9170, 2885.824
932.0370, 2943.090
933.1570, 2790.621
934.2760, 2690.443
935.3960, 2686.527
936.5150, 2565.886
937.6340, 2533.715
938.7530, 2542.405
939.8720, 2463.559
940.9910, 2372.977
942.1090, 2384.669
943.2280, 2283.405
944.3460, 2308.218
945.4640, 2166.369
946.5820, 2299.119
947.6990, 2301.131
948.8170, 2195.407
949.9340, 2242.959
951.0520, 2328.772
952.1690, 2395.838
953.2860, 2513.158
954.4030, 2654.730
955.5190, 2690.555
956.6360, 2936.635
957.7520, 2919.971
958.8680, 3032.556
959.9840, 3295.395
961.1000, 3385.492
962.2160, 3575.844
963.3310, 3624.450
964.4470, 3726.309
965.5620, 4160.416
966.6770, 4402.770
967.7920, 4555.375
968.9060, 4686.225
970.0210, 4929.321
971.1360, 5336.664
972.2500, 5421.250
973.3640, 5731.078
974.4780, 6433.146
975.5920, 6523.453
976.7050, 7137.003
977.8190, 7415.787
978.9320, 7768.811
980.0450, 8375.072
981.1580, 8938.593
982.2710, 9272.351
983.3840, 10128.34
984.4970, 10814.60
985.6090, 11455.14
986.7210, 12765.94
987.8330, 13607.03
988.9450, 14614.43
990.0570, 16055.14
991.1690, 17585.14
992.2800, 19293.46
993.3920, 21133.06
994.5030, 23173.00
995.6140, 25447.28
996.7250, 27732.87
997.8350, 30275.78
998.9460, 32778.98
1000.056, 35458.52
1001.167, 37844.38
1002.277, 40514.55
1003.387, 42478.03
1004.496, 44527.81
1005.606, 45737.87
1006.715, 46528.20
1007.825, 46810.95
1008.934, 45618.47
1010.043, 44168.48
1011.152, 41807.91
1012.260, 39238.43
1013.369, 35626.81
1014.477, 32222.23
1015.586, 28612.51
1016.694, 25035.03
1017.802, 22117.12
1018.909, 19532.62
1020.017, 17016.04
1021.124, 15372.47
1022.232, 13813.58
1023.339, 12739.59
1024.446, 11749.64
1025.553, 10980.86
1026.659, 10286.02
1027.766, 9857.931
1028.872, 9442.460
1029.979, 9159.152
1031.085, 8878.762
1032.191, 8815.667
1033.296, 8502.302
1034.402, 8466.984
1035.507, 8392.455
1036.613, 8323.076
1037.718, 8136.344
1038.823, 7782.226
1039.928, 7801.807
1041.032, 7380.314
1042.137, 7305.264
1043.241, 7054.468
1044.346, 6692.056
1045.450, 6621.445
1046.554, 6085.156
1047.657, 5876.938
1048.761, 5710.715
1049.864, 5194.070
1050.968, 5094.145
1052.071, 4592.107
1053.174, 4540.098
1054.277, 4333.706
1055.379, 4200.760
1056.482, 3715.887
1057.584, 3708.817
1058.687, 3551.242
1059.789, 3192.270
1060.891, 3283.448
1061.992, 2934.719
1063.094, 2864.561
1064.196, 2728.821
1065.297, 2652.995
1066.398, 2559.329
1067.499, 2422.950
1068.600, 2335.854
1069.701, 2263.900
1070.801, 2179.466
1071.902, 2204.147
1073.002, 2074.031
1074.102, 2041.069
1075.202, 2030.819
1076.302, 1858.637
1077.402, 1938.420
1078.501, 2091.592
1079.600, 1901.495
1080.700, 1859.603
1081.799, 1913.181
1082.898, 1606.876
1083.996, 1949.546
1085.095, 1676.802
1086.193, 1532.938
1087.292, 1841.033
1088.390, 1617.109
1089.488, 1693.834
1090.586, 1700.008
1091.683, 1683.639
1092.781, 1712.037
1093.878, 1593.364
1094.975, 1544.929
1096.073, 1767.884
1097.169, 1698.229
1098.266, 1399.619
1099.363, 1544.998
1100.459, 1687.025
1101.556, 1479.396
1102.652, 1573.308
1103.748, 1594.473
1104.844, 1523.142
1105.940, 1463.298
1107.035, 1687.963
1108.131, 1504.910
1109.226, 1499.889
1110.321, 1455.424
1111.416, 1353.533
1112.511, 1338.688
1113.605, 1446.553
1114.700, 1401.081
1115.794, 1494.348
1116.889, 1390.468
1117.983, 1457.506
1119.077, 1340.406
1120.170, 1289.621
1121.264, 1318.319
1122.357, 1143.835
1123.451, 1235.688
1124.544, 867.1992
1125.637, 876.7803
1126.730, 751.1133
1127.823, 805.7207
1128.915, 657.1611
1130.008, 591.6045
1131.100, 406.4570
1132.192, 393.5156
1133.284, 299.7412
1134.376, 188.4932
1135.467, 268.4600
1136.559, 170.6807
1137.650, 63.95996
1138.742, 1.295898
1139.833, 63.46680
1140.924, 144.8584
1142.014, 165.5332
1143.105, 217.4336
1144.195, 203.6396
1145.286, 248.8164
1146.376, 270.1738
1147.466, 280.2197
1148.556, 261.7061
1149.646, 320.6777
1150.735, 339.7549
1151.825, 376.3418
1152.914, 439.9580
1154.003, 331.8252
1155.092, 210.3965
1156.181, 361.7568
1157.270, 334.5039
1158.358, 320.4219
1159.447, 352.0977
1160.535, 313.1172
1161.623, 301.0488
1162.711, 282.6533
1163.799, 236.0439
1164.886, 243.6279
1165.974, 199.5029
1167.061, 161.1602
1168.148, 146.9141
1169.235, 132.2773
1170.322, 103.1289
1171.409, 141.6064
1172.496, 140.5381
1173.582, 168.5059
1174.669, 150.9248
1175.755, 12.70410
1176.841, 10.22070
1177.927, 46.70312
1179.012, 55.16895
1180.098, 72.54785
1181.183, 67.03418
1182.269, 25.89648
1183.354, 66.06152
1184.439, 54.30273
1185.524, 126.1602
1186.608, 133.9160
1187.693, 124.0439
1188.777, 236.9082
1189.862, 55.06250
1190.946, 171.5557
1192.030, 64.83496
1193.113, 101.2520
1194.197, 307.0977
1195.281, 279.7930
1196.364, 136.3271
1197.447, 327.6758
1198.530, 248.8691
1199.613, 254.0576
1200.696, 414.8965
1201.779, 334.5869
1202.861, 374.1514
1203.944, 258.5176
1205.026, 215.7051
1206.108, 482.6895
1207.190, 427.5215
1208.271, 481.1953
1209.353, 389.7168
1210.435, 390.0703
1211.516, 301.2500
1212.597, 429.2373
1213.678, 604.0537
1214.759, 547.7188
1215.840, 572.2295
1216.920, 589.5840
1218.001, 515.7871
1219.081, 553.8262
1220.161, 616.7051
1221.241, 581.4258
1222.321, 473.9873
1223.401, 545.3760
1224.480, 539.6025
1225.560, 592.6602
1226.639, 659.6689
1227.718, 663.4023
1228.797, 584.1250
1229.876, 726.7119
1230.955, 691.9561
1232.033, 644.1035
1233.112, 732.0391
1234.190, 845.8125
1235.268, 747.4287
1236.346, 859.8838
1237.424, 798.2285
1238.501, 796.3633
1239.579, 906.4443
1240.656, 782.5488
1241.733, 679.2021
1242.811, 838.6875
1243.888, 746.0059
1244.964, 781.1553
1246.041, 699.1367
1247.117, 814.9453
1248.194, 835.5869
1249.270, 799.0625
1250.346, 881.3711
1251.422, 901.5156
1252.498, 860.4961
1253.573, 917.9697
1254.649, 896.9629
1255.724, 951.4492
1256.800, 880.9824
1257.875, 881.1387
1258.950, 945.1279
1260.024, 1039.952
1261.099, 983.8232
1262.173, 935.3252
1263.248, 1038.759
1264.322, 978.1396
1265.396, 907.1475
1266.470, 896.3525
1267.544, 885.7158
1268.617, 935.5098
1269.691, 927.1865
1270.764, 1033.515
1271.837, 1082.360
1272.910, 1057.090
1273.983, 1029.541
1275.056, 1019.712
1276.129, 1024.848
1277.201, 1028.952
1278.273, 983.8223
1279.346, 934.8115
1280.418, 978.0654
1281.489, 897.6289
1282.561, 855.4492
1283.633, 983.4834
1284.704, 826.3848
1285.776, 825.8789
1286.847, 776.5508
1287.918, 868.3574
1288.989, 846.9268
1290.059, 841.8604
1291.130, 728.0723
1292.200, 672.6758
1293.271, 636.7891
1294.341, 623.7959
1295.411, 614.9375
1296.481, 610.8965
1297.551, 637.3613
1298.620, 633.5479
1299.690, 646.8955
1300.759, 680.5156
1301.828, 612.3320
1302.897, 637.1338
1303.966, 714.7812
1305.035, 523.9961
1306.103, 590.7207
1307.172, 564.7852
1308.240, 498.6641
1309.308, 558.5801
1310.376, 758.4756
1311.444, 567.2100
1312.512, 626.8320
1313.580, 558.2617
1314.647, 441.6855
1315.714, 544.9912
1316.781, 558.5469
1317.848, 450.5371
1318.915, 547.0645
1319.982, 615.6670
1321.049, 457.2568
1322.115, 743.6748
1323.181, 640.7217
1324.248, 663.4082
