##NAMES=Augite
##RRUFFID=R070231
##IDEAL CHEMISTRY=(Ca,Mg,Fe^2+^,Fe^3+^)_2_(Si,Al)_2_O_6_
##LOCALITY=Old Goose Creek Quarry, Leesburg, Loudoun County, Virginia, USA
##OWNER=RRUFF
##SOURCE=Michael Scott
##DESCRIPTION=Very dark grey-green prismatic crystals frozen in quartz
##STATUS=The identification of this mineral is confirmed by single-crystal X-ray diffraction and chemical analysis.
##URL=rruff.info/R070231
##MEASURED CHEMISTRY=(Mg_0.44_Fe_0.37_Ca_0.17_Ti_0.01_Mn_0.01_)_Σ=1_(Si_0.98_Al_0.02_)_Σ=1_O_3_
##PIN_ID=M00250
##ORIENTATION=Laser parallel to (-1 0 -1). Fiducial mark perpendicular to laser is parallel to b [0 1 0]
115.2200, 0.0000000E+00
116.4580, 20.54004
117.6970, 232.6621
118.9350, 52.50488
120.1730, 9.416992
121.4100, 371.9443
122.6480, 632.7363
123.8850, 727.2295
125.1230, 517.9375
126.3600, 599.9600
127.5960, 722.8496
128.8330, 1003.977
130.0700, 1082.216
131.3060, 1143.456
132.5420, 913.5986
133.7780, 815.5586
135.0140, 757.2930
136.2500, 831.8496
137.4850, 1010.805
138.7200, 1155.250
139.9550, 1172.277
141.1900, 998.8340
142.4250, 705.8779
143.6600, 779.3701
144.8940, 720.2754
146.1280, 805.5654
147.3620, 662.2129
148.5960, 507.1943
149.8300, 618.4873
151.0630, 450.0732
152.2960, 390.9326
153.5300, 387.1543
154.7620, 296.2227
155.9950, 219.6250
157.2280, 1.144531
158.4600, 43.22461
159.6920, 26.48145
160.9250, 5.381836
162.1560, 62.37695
163.3880, 79.48633
164.6200, 104.6748
165.8510, 137.2324
167.0820, 118.7949
168.3130, 140.4844
169.5440, 114.9873
170.7750, 112.8975
172.0050, 149.2725
173.2350, 125.4297
174.4650, 198.6924
175.6950, 278.0596
176.9250, 330.2158
178.1550, 475.0850
179.3840, 418.7363
180.6130, 505.4775
181.8420, 379.3008
183.0710, 290.2061
184.3000, 462.1904
185.5280, 361.2500
186.7570, 508.3809
187.9850, 468.5840
189.2130, 450.8379
190.4400, 399.2910
191.6680, 330.8525
192.8960, 313.0869
194.1230, 355.2695
195.3500, 306.3066
196.5770, 401.5146
197.8030, 316.3867
199.0300, 442.2988
200.2560, 545.2510
201.4830, 659.2461
202.7090, 538.3174
203.9340, 503.5342
205.1600, 144.9189
206.3860, 272.5039
207.6110, 292.2871
208.8360, 343.2344
210.0610, 562.4121
211.2860, 648.7344
212.5100, 733.1338
213.7350, 833.5771
214.9590, 988.0527
216.1830, 1114.559
217.4070, 1261.091
218.6310, 1451.650
219.8540, 1727.239
221.0780, 1765.857
222.3010, 1824.508
223.5240, 2062.190
224.7470, 2041.912
225.9690, 2222.674
227.1920, 2145.481
228.4140, 2298.334
229.6360, 2181.226
230.8580, 2387.147
232.0800, 2214.092
233.3020, 2050.061
234.5230, 1936.051
235.7440, 2021.062
236.9650, 1870.092
238.1860, 1773.144
239.4070, 1523.214
240.6280, 1481.305
241.8480, 1523.413
243.0680, 1309.540
244.2880, 1228.685
245.5080, 1240.846
246.7280, 1088.023
247.9470, 1134.217
249.1660, 955.4268
250.3860, 1042.650
251.6040, 839.8867
252.8230, 905.1377
254.0420, 639.4023
255.2600, 645.6797
256.4790, 530.9688
257.6970, 508.2695
258.9150, 397.2012
260.1320, 323.4434
261.3500, 143.2334
262.5670, 174.1992
263.7840, 14.06055
265.0010, 32.91016
266.2180, 64.81641
267.4350, 13.69727
268.6510, 70.16016
269.8680, 145.4951
271.0840, 79.73047
272.3000, 116.8633
273.5160, 11.91113
274.7310, 9.870117
275.9470, 14.78516
277.1620, 29.45996
278.3770, 111.7393
279.5920, 78.08984
280.8070, 227.5068
282.0210, 359.9863
283.2360, 409.5254
284.4500, 581.5410
285.6640, 652.7275
286.8780, 870.4590
288.0920, 1061.364
289.3050, 1229.871
290.5180, 1449.154
291.7320, 1618.971
292.9450, 1857.045
294.1570, 2002.799
295.3700, 2204.010
296.5830, 2438.965
297.7950, 2671.979
299.0070, 2907.887
300.2190, 3192.290
301.4310, 3485.705
302.6420, 3734.567
303.8540, 4068.618
305.0650, 4603.318
306.2760, 5005.959
307.4870, 5603.786
308.6980, 6318.910
309.9080, 7334.728
311.1190, 8245.328
312.3290, 9414.681
313.5390, 10717.34
314.7490, 12547.20
315.9580, 14041.74
317.1680, 15880.43
318.3770, 17397.19
319.5860, 18915.88
320.7950, 20583.60
322.0040, 21919.43
323.2130, 22190.25
324.4210, 22509.12
325.6290, 22257.02
326.8380, 20714.04
328.0460, 19904.13
329.2530, 18250.28
330.4610, 16584.58
331.6680, 15069.86
332.8760, 13388.20
334.0830, 11894.84
335.2890, 10694.59
336.4960, 9619.199
337.7030, 8646.177
338.9090, 7857.814
340.1150, 7303.948
341.3210, 6707.543
342.5270, 6259.878
343.7330, 6253.273
344.9380, 6159.229
346.1440, 6104.377
347.3490, 6286.349
348.5540, 6221.326
349.7590, 6601.311
350.9630, 6626.300
352.1680, 7086.293
353.3720, 7292.289
354.5760, 7319.287
355.7800, 7490.290
356.9840, 7450.291
358.1870, 7384.291
359.3910, 7126.293
360.5940, 7091.292
361.7970, 7052.293
363.0000, 6812.293
364.2030, 6825.291
365.4050, 7071.287
366.6080, 6828.283
367.8100, 7306.274
369.0120, 7442.266
370.2140, 8022.252
371.4150, 8344.237
372.6170, 8862.221
373.8180, 9453.198
375.0190, 10394.17
376.2200, 11204.14
377.4210, 12726.11
378.6220, 13577.07
379.8220, 15305.02
381.0230, 16816.97
382.2230, 18407.92
383.4230, 20398.86
384.6220, 22055.79
385.8220, 23599.72
387.0220, 25299.63
388.2210, 26097.55
389.4200, 26775.45
390.6190, 26430.35
391.8180, 25408.24
393.0160, 23784.12
394.2150, 21837.00
395.4130, 19903.86
396.6110, 17204.71
397.8090, 15217.56
399.0060, 13305.40
400.2040, 11650.22
401.4010, 9890.040
402.5980, 8597.846
403.7950, 7224.640
404.9920, 6212.425
406.1890, 5224.199
407.3860, 4251.968
408.5820, 3472.737
409.7780, 2793.880
410.9740, 2467.095
412.1700, 2116.656
413.3650, 1797.698
414.5610, 1497.751
415.7560, 1245.463
416.9510, 1019.735
418.1460, 896.3018
419.3410, 781.8936
420.5360, 642.6240
421.7300, 714.3457
422.9240, 524.0586
424.1180, 465.7617
425.3120, 283.4551
426.5060, 195.1396
427.7000, 133.8115
428.8930, 208.4727
430.0860, 130.1211
431.2790, 102.7578
432.4720, 40.62207
433.6650, 38.04883
434.8580, 15.52246
436.0500, 69.47852
437.2420, 22.61035
438.4340, 92.23047
439.6260, 54.92871
440.8180, 89.68848
442.0090, 32.52832
443.2010, 42.41602
444.3920, 73.35449
445.5830, 95.36621
446.7740, 97.45898
447.9640, 6.413086
449.1550, 78.32910
450.3450, 48.64648
451.5350, 23.00293
452.7250, 70.52734
453.9150, 13.57227
455.1050, 224.5459
456.2940, 147.4062
457.4830, 121.6309
458.6720, 254.6309
459.8610, 220.4658
461.0500, 225.7207
462.2390, 277.7070
463.4270, 263.1211
464.6150, 259.3770
465.8040, 367.1592
466.9910, 330.9883
468.1790, 321.7051
469.3670, 282.7510
470.5540, 268.6260
471.7410, 266.2480
472.9280, 234.5771
474.1150, 245.3936
475.3020, 239.6670
476.4890, 168.3770
477.6750, 149.8857
478.8610, 184.2227
480.0470, 126.3936
481.2330, 166.8877
482.4190, 107.2158
483.6040, 173.5273
484.7900, 239.8271
485.9750, 229.1064
487.1600, 400.3652
488.3450, 296.5918
489.5290, 433.7881
490.7140, 351.9531
491.8980, 403.0850
493.0820, 530.1943
494.2660, 431.2861
495.4500, 535.3691
496.6340, 588.4443
497.8170, 606.4971
499.0010, 659.5332
500.1840, 840.5488
501.3670, 906.5332
502.5500, 1205.488
503.7320, 1192.413
504.9150, 1442.311
506.0970, 1557.179
507.2790, 1728.024
508.4610, 1865.834
509.6430, 2002.615
510.8250, 2126.396
512.0060, 2195.145
513.1870, 2287.537
514.3680, 2371.819
515.5490, 2443.191
516.7300, 2557.791
517.9110, 2700.379
519.0910, 2868.924
520.2710, 3037.432
521.4510, 3346.896
522.6310, 3391.318
523.8110, 3701.699
524.9910, 4165.035
526.1700, 4263.332
527.3490, 4453.581
528.5280, 4475.789
529.7070, 4553.953
530.8860, 4577.074
532.0650, 4499.658
533.2430, 4426.182
534.4210, 4260.170
535.5990, 4058.111
536.7770, 3840.010
537.9550, 3598.861
539.1320, 3600.668
540.3100, 3439.430
541.4870, 3380.146
542.6640, 3078.814
543.8410, 2949.438
545.0170, 2962.014
546.1940, 2764.545
547.3700, 2879.028
548.5470, 2811.463
549.7230, 2963.852
550.8980, 2930.193
552.0740, 2924.488
553.2500, 3216.743
554.4250, 3151.952
555.6000, 3278.119
556.7750, 3160.259
557.9500, 3030.359
559.1250, 2919.426
560.2990, 2788.443
561.4730, 2513.413
562.6480, 2244.332
563.8220, 2174.202
564.9950, 1962.021
566.1690, 1897.790
567.3430, 1892.508
568.5160, 1719.175
569.6890, 1596.766
570.8620, 1578.331
572.0350, 1388.780
573.2070, 1457.053
574.3800, 1267.720
575.5520, 1235.442
576.7240, 1142.473
577.8960, 1110.013
579.0680, 1052.392
580.2400, 889.3633
581.4110, 794.5430
582.5830, 674.4082
583.7540, 639.3184
584.9250, 578.8857
586.0950, 515.0078
587.2660, 458.0859
588.4370, 361.4033
589.6070, 350.2734
590.7770, 173.3760
591.9470, 144.3447
593.1170, 53.30957
594.2860, 171.5850
595.4560, 40.54102
596.6250, 1.958984
597.7940, 51.87207
598.9630, 144.1865
600.1320, 46.27539
601.3000, 53.33594
602.4690, 15.18945
603.6370, 26.69336
604.8050, 38.59082
605.9730, 47.33203
607.1410, 31.81152
608.3090, 13.61426
609.4760, 102.0908
610.6430, 172.3320
611.8100, 135.5059
612.9770, 97.70312
614.1440, 338.5566
615.3110, 244.3477
616.4770, 366.9072
617.6430, 410.7881
618.8090, 578.2080
619.9750, 713.7969
621.1410, 632.6357
622.3070, 653.4658
623.4720, 655.3242
624.6370, 805.6211
625.8020, 788.2217
626.9670, 852.9219
628.1320, 883.0967
629.2970, 916.7480
630.4610, 1045.792
631.6250, 1129.965
632.7890, 1250.019
633.9530, 1419.782
635.1170, 1607.396
636.2810, 1688.915
637.4440, 2002.123
638.6070, 2000.021
639.7700, 2234.536
640.9330, 2520.219
642.0960, 2803.901
643.2590, 3120.820
644.4210, 3474.407
645.5830, 4088.674
646.7450, 4666.045
647.9070, 5130.170
649.0690, 6139.439
650.2310, 6865.038
651.3920, 7684.523
652.5530, 8832.008
653.7140, 9996.709
654.8750, 11242.35
656.0360, 12968.94
657.1970, 14621.34
658.3570, 16386.81
659.5170, 18340.46
660.6770, 20550.81
661.8370, 21994.10
662.9970, 23356.33
664.1570, 23828.51
665.3160, 24125.63
666.4750, 23442.69
667.6340, 21989.69
668.7930, 20416.63
669.9520, 18714.52
671.1110, 16670.35
672.2690, 14807.12
673.4270, 13380.84
674.5850, 11764.50
675.7430, 10307.10
676.9010, 9255.650
678.0590, 8058.145
679.2160, 6951.582
680.3730, 6154.965
681.5300, 5387.291
682.6870, 4682.562
683.8440, 4106.779
685.0010, 3688.943
686.1570, 3254.053
687.3130, 2842.107
688.4690, 2675.109
689.6250, 2318.058
690.7810, 2157.953
691.9370, 2012.795
693.0920, 1804.585
694.2470, 1607.323
695.4020, 1595.008
696.5570, 1355.641
697.7120, 1288.222
698.8670, 1174.752
700.0210, 1205.230
701.1750, 1034.659
702.3290, 1030.036
703.4830, 1011.363
704.6370, 822.6406
705.7910, 853.8672
706.9440, 747.0459
708.0970, 724.1738
709.2510, 694.2539
710.4030, 766.2861
711.5560, 688.2695
712.7090, 580.2061
713.8610, 539.1123
715.0140, 449.7314
716.1660, 387.5635
717.3180, 332.6484
718.4690, 303.4355
719.6210, 307.2090
720.7730, 348.9580
721.9240, 174.6953
723.0750, 133.3975
724.2260, 174.0684
725.3770, 122.7178
726.5270, 203.3477
727.6780, 19.74121
728.8280, 104.0088
729.9780, 45.28711
731.1280, 16.10742
732.2780, 55.67676
733.4280, 109.6475
734.5770, 234.6191
735.7260, 197.6426
736.8760, 246.2373
738.0250, 279.9951
739.1730, 142.8555
740.3220, 235.2324
741.4700, 48.81641
742.6190, 110.9082
743.7670, 37.09668
744.9150, 73.69043
746.0630, 59.76758
747.2100, 25.31641
748.3580, 54.21191
749.5050, 57.02441
750.6520, 108.5312
751.7990, 13.12012
752.9460, 46.13086
754.0930, 77.68359
755.2390, 26.75879
756.3860, 71.71191
757.5320, 106.5811
758.6780, 119.5420
759.8240, 117.5996
760.9690, 81.75293
762.1150, 82.97852
763.2600, 49.33984
764.4060, 49.63477
765.5510, 8.290039
766.6950, 9.481445
767.8400, 6.049805
768.9850, 0.4433590
770.1290, 40.96289
771.2730, 72.52637
772.4170, 105.1475
773.5610, 106.7725
774.7050, 55.60938
775.8480, 87.42090
776.9920, 67.29297
778.1350, 35.21094
779.2780, 38.15918
780.4210, 46.13867
781.5640, 42.14160
782.7060, 59.18750
783.8490, 83.26172
784.9910, 4.380859
786.1330, 68.51172
787.2750, 179.6797
788.4170, 56.93359
789.5580, 82.21484
790.7000, 8.467773
791.8410, 43.14258
792.9820, 106.8096
794.1230, 148.5293
795.2640, 8.072266
796.4040, 15.33203
797.5450, 125.2559
798.6850, 59.83984
799.8250, 133.4199
800.9650, 67.99707
802.1050, 66.57129
803.2450, 96.64160
804.3840, 151.9561
805.5230, 145.2852
806.6630, 201.4385
807.8020, 244.7842
808.9400, 300.9961
810.0790, 335.5684
811.2170, 419.1416
812.3560, 437.7188
813.4940, 553.2988
814.6320, 547.8809
815.7700, 627.4668
816.9070, 685.0576
818.0450, 961.6523
819.1820, 937.2529
820.3190, 919.8613
821.4560, 1186.475
822.5930, 1108.095
823.7300, 1187.723
824.8670, 1171.359
826.0030, 1181.123
827.1390, 1187.656
828.2750, 1230.319
829.4110, 1308.992
830.5470, 1366.676
831.6820, 1346.371
832.8180, 1210.078
833.9530, 1382.795
835.0880, 1164.527
836.2230, 1303.271
837.3580, 1086.028
838.4920, 1140.801
839.6270, 904.5869
840.7610, 933.3877
841.8950, 885.2051
843.0290, 989.0391
844.1630, 1046.888
845.2960, 847.7549
846.4300, 1061.640
847.5630, 1069.543
848.6960, 1037.464
849.8290, 1212.404
850.9620, 1286.364
852.0940, 1409.344
853.2270, 1488.344
854.3590, 1505.364
855.4910, 1394.341
856.6230, 1514.371
857.7550, 1495.456
858.8870, 1394.010
860.0180, 1483.211
861.1500, 1418.842
862.2810, 1230.017
863.4120, 1190.852
864.5430, 1339.731
865.6730, 1088.799
866.8040, 1217.150
867.9340, 1050.205
869.0640, 1080.248
870.1940, 1134.821
871.3240, 1056.173
872.4540, 1001.462
873.5830, 1024.022
874.7130, 949.6777
875.8420, 1081.146
876.9710, 965.9414
878.1000, 959.8340
879.2290, 1094.463
880.3570, 1149.443
881.4860, 1003.161
882.6140, 1044.177
883.7420, 970.6348
884.8700, 1024.471
885.9980, 1105.280
887.1250, 918.0166
888.2530, 949.9551
889.3800, 1032.982
890.5070, 1183.213
891.6340, 997.7988
892.7610, 1014.724
893.8880, 943.6689
895.0140, 864.9863
896.1400, 916.6211
897.2670, 843.6758
898.3930, 875.8369
899.5180, 823.2998
900.6440, 935.9268
901.7700, 855.9062
902.8950, 802.2090
904.0200, 762.3428
905.1450, 867.3604
906.2700, 782.4932
907.3950, 811.9062
908.5190, 948.4707
909.6440, 929.1494
910.7680, 1037.134
911.8920, 923.4375
913.0160, 980.1465
914.1400, 1181.737
915.2630, 1047.370
916.3870, 1088.817
917.5100, 1200.628
918.6330, 1222.796
919.7560, 1258.881
920.8790, 1169.228
922.0010, 1315.465
923.1240, 1229.410
924.2460, 1357.499
925.3680, 1131.621
926.4900, 1378.562
927.6120, 1367.588
928.7340, 1282.706
929.8550, 1377.016
930.9760, 1424.265
932.0980, 1356.337
933.2190, 1439.707
934.3390, 1522.132
935.4600, 1386.612
936.5810, 1417.146
937.7010, 1397.734
938.8210, 1515.377
939.9410, 1616.076
941.0610, 1592.828
942.1810, 1581.637
943.3010, 1635.499
944.4200, 1607.415
945.5390, 1757.389
946.6580, 1738.417
947.7770, 1766.502
948.8960, 1833.643
950.0150, 1728.838
951.1330, 1590.090
952.2510, 1739.396
953.3690, 1731.758
954.4870, 1674.176
955.6050, 1726.650
956.7230, 1777.180
957.8400, 1776.765
958.9580, 1839.406
960.0750, 1854.006
961.1920, 1912.187
962.3090, 1893.666
963.4250, 2059.530
964.5420, 2078.448
965.6580, 2203.425
966.7740, 2367.458
967.8900, 2594.544
969.0060, 2759.687
970.1220, 2973.886
971.2380, 3009.139
972.3530, 3146.448
973.4680, 3590.812
974.5830, 3710.233
975.6980, 4287.709
976.8130, 4419.239
977.9280, 4898.826
979.0420, 5216.467
980.1560, 5885.164
981.2710, 6500.915
982.3850, 7100.723
983.4980, 8032.586
984.6120, 8860.501
985.7260, 9800.472
986.8390, 11079.50
987.9520, 12335.58
989.0650, 13630.72
990.1780, 14957.90
991.2910, 16659.15
992.4030, 17726.45
993.5160, 19175.81
994.6280, 20252.22
995.7400, 21240.69
996.8520, 22156.22
997.9640, 22820.80
999.0750, 23972.46
1000.187, 25257.18
1001.298, 26794.96
1002.409, 28693.81
1003.520, 31009.74
1004.631, 33348.71
1005.741, 36577.74
1006.852, 39508.82
1007.962, 42292.96
1009.072, 44564.14
1010.182, 46348.38
1011.292, 46425.67
1012.402, 45421.01
1013.511, 42824.28
1014.621, 38747.73
1015.730, 33913.66
1016.839, 29340.46
1017.948, 25544.41
1019.056, 20648.12
1020.165, 17394.91
1021.273, 14481.25
1022.382, 12268.79
1023.490, 10924.14
1024.598, 9569.374
1025.706, 8561.881
1026.813, 7987.752
1027.921, 7204.139
1029.028, 6683.318
1030.135, 6396.920
1031.242, 5955.344
1032.349, 5781.055
1033.456, 5347.468
1034.562, 5131.143
1035.668, 4978.879
1036.775, 4735.018
1037.881, 4499.024
1038.987, 4485.660
1040.092, 4388.574
1041.198, 4237.595
1042.303, 4148.176
1043.408, 4094.167
1044.514, 3924.960
1045.618, 3746.210
1046.723, 3622.957
1047.828, 3345.210
1048.932, 3130.699
1050.037, 3009.472
1051.141, 2781.426
1052.245, 2650.226
1053.349, 2575.401
1054.452, 2369.835
1055.556, 2288.577
1056.659, 2146.164
1057.762, 2066.817
1058.865, 1945.661
1059.968, 1862.430
1061.071, 1798.101
1062.174, 1690.271
1063.276, 1623.989
1064.378, 1501.188
1065.480, 1465.037
1066.582, 1366.906
1067.684, 1201.793
1068.786, 1342.698
1069.887, 1183.621
1070.988, 1587.223
1072.090, 1327.319
1073.191, 1295.725
1074.291, 1044.505
1075.392, 1020.513
1076.493, 989.5352
1077.593, 891.5723
1078.693, 777.9209
1079.793, 988.9883
1080.893, 1060.068
1081.993, 1047.164
1083.092, 867.2715
1084.192, 751.3926
1085.291, 789.5264
1086.390, 900.9346
1087.489, 978.0908
1088.588, 843.3291
1089.686, 788.5068
1090.785, 722.6963
1091.883, 744.8945
1092.981, 739.1025
1094.079, 715.6201
1095.177, 712.5459
1096.275, 697.7793
1097.373, 656.1162
1098.470, 650.3662
1099.567, 643.6230
1100.664, 674.8867
1101.761, 713.1582
1102.858, 635.4336
1103.954, 504.7158
1105.051, 619.0029
1106.147, 732.2939
1107.243, 529.5898
1108.339, 559.8896
1109.435, 639.1934
1110.531, 563.4980
1111.626, 655.8076
1112.722, 535.1182
1113.817, 580.4316
1114.912, 671.7461
1116.007, 611.0625
1117.101, 604.3789
1118.196, 523.6963
1119.290, 750.0137
1120.385, 658.3301
1121.479, 735.6455
1122.573, 658.9609
1123.666, 682.2744
1124.760, 509.5850
1125.853, 556.8945
1126.947, 573.2012
1128.040, 613.5039
1129.133, 424.8018
1130.226, 482.0977
1131.318, 323.3887
1132.411, 422.6748
1133.503, 279.9570
1134.596, 253.2305
1135.688, 308.5000
1136.780, 223.7617
1137.871, 201.0156
1138.963, 208.2637
1140.054, 85.50391
1141.146, 143.7354
1142.237, 15.95801
1143.328, 39.17285
1144.419, 29.62305
1145.509, 24.56055
1146.600, 120.2666
1147.690, 7.163086
1148.780, 114.0762
1149.870, 57.94141
1150.960, 20.94727
1152.050, 142.0605
1153.139, 30.15625
1154.229, 88.28613
1155.318, 0.5214840
1156.407, 2.691406
1157.496, 166.9277
1158.585, 76.27344
1159.674, 85.68262
1160.762, 7.836914
1161.850, 19.66504
1162.939, 37.20605
1164.027, 2.203125
1165.114, 174.4160
1166.202, 115.8389
1167.290, 160.9229
1168.377, 60.80566
1169.464, 4.755859
1170.551, 73.25391
1171.638, 21.75488
1172.725, 59.81543
1173.812, 5.1757999E-02
1174.898, 26.12305
1175.984, 78.35547
1177.071, 180.6729
1178.157, 154.0605
1179.242, 171.6455
1180.328, 110.4385
1181.414, 127.2695
1182.499, 54.21582
1183.584, 36.24121
1184.669, 113.3379
1185.754, 100.5459
1186.839, 95.86133
1187.924, 95.28027
1189.008, 96.65430
1190.092, 62.16504
1191.177, 91.15527
1192.260, 10.98047
1193.344, 38.13184
1194.428, 17.20215
1195.512, 194.2227
1196.595, 162.2158
1197.678, 188.6035
1198.761, 217.5039
1199.844, 163.0371
1200.927, 207.9238
1202.009, 161.7822
1203.092, 182.6133
1204.174, 148.4180
1205.256, 227.1934
1206.338, 292.9414
1207.420, 186.6611
1208.502, 102.3525
1209.583, 257.0137
1210.665, 239.6445
1211.746, 294.2490
1212.827, 174.8242
1213.908, 262.3701
1214.988, 260.8877
1216.069, 116.3770
1217.149, 229.8340
1218.230, 161.2617
1219.310, 198.6611
1220.390, 213.0293
1221.470, 236.3691
1222.549, 200.6797
1223.629, 249.9609
1224.708, 282.2119
1225.787, 201.4346
1226.866, 168.6260
1227.945, 264.7881
1229.024, 376.9199
1230.103, 365.0215
1231.181, 437.7432
1232.259, 456.1357
1233.337, 436.1484
1234.415, 398.1309
1235.493, 272.0830
1236.571, 288.0049
1237.648, 330.8975
1238.726, 325.3301
1239.803, 401.6133
1240.880, 428.4355
1241.957, 400.2295
1243.034, 455.9932
1244.110, 412.7266
1245.187, 453.4297
1246.263, 448.1035
1247.339, 502.7500
1248.415, 512.3672
1249.491, 399.9697
1250.566, 408.5625
1251.642, 351.1240
1252.717, 453.6562
1253.793, 533.1602
1254.868, 435.6348
1255.943, 465.0771
1257.017, 420.4932
1258.092, 358.8770
1259.166, 538.2305
1260.241, 459.5566
1261.315, 487.8506
1262.389, 593.1152
1263.462, 504.3584
1264.536, 579.5732
1265.610, 808.7578
1266.683, 663.5908
1267.756, 697.0342
1268.829, 581.1309
1269.902, 612.2080
1270.975, 665.2539
1272.048, 644.2725
1273.120, 609.2598
1274.192, 478.3369
1275.264, 638.2646
1276.336, 576.7422
1277.408, 726.3896
1278.480, 651.9248
1279.551, 629.7373
1280.623, 623.5234
1281.694, 634.8174
1282.765, 670.9434
1283.836, 666.5674
1284.907, 603.8174
1285.977, 686.0996
1287.048, 561.0586
