##NAMES=Axinite-(Fe)
##RRUFFID=R050061
##IDEAL CHEMISTRY=Ca_4_Fe^2+^_2_Al_4_[B_2_Si_8_O_30_](OH)_2_
##LOCALITY=Jamestown, California, USA
##OWNER=RRUFF
##SOURCE=Rock Currier
##DESCRIPTION=Brown colored axe-head-shaped single crystals
##STATUS=The identification of this mineral has been confirmed by X-ray diffraction and chemical analysis
##URL=rruff.info/R050061
##MEASURED CHEMISTRY=Ca_2.00_(Fe^2+^_0.73_Mg_0.20_Mn_0.07_)Al_2.00_BSi_4_O_15_(OH)
##PIN_ID=L00399
##ORIENTATION=Laser parallel to c* (0 0 1). Fiducial mark perpendicular to laser is parallel to a [1 0 0]
89.663, 0.000
91.065, 24.448
92.466, 8.311
93.868, 55.511
95.269, 248.367
96.670, 216.163
98.070, 588.513
99.471, 769.434
100.871, 1037.144
102.271, 953.918
103.670, 1056.442
105.070, 1258.054
106.469, 1610.235
107.868, 2196.810
109.267, 2562.359
110.665, 2925.174
112.063, 2886.291
113.461, 2476.221
114.859, 2320.782
116.256, 2037.679
117.653, 1832.997
119.050, 1493.410
120.447, 1526.466
121.843, 1461.619
123.240, 1402.244
124.636, 1122.023
126.031, 881.880
127.427, 656.446
128.822, 444.911
130.217, 320.021
131.612, 319.441
133.006, 262.731
134.400, 544.602
135.794, 793.445
137.188, 1272.937
138.581, 1715.939
139.975, 1808.276
141.368, 1671.163
142.760, 1437.229
144.153, 1347.470
145.545, 1327.875
146.937, 1561.434
148.329, 1876.141
149.720, 2398.986
151.112, 2518.954
152.503, 2605.040
153.893, 2158.239
155.284, 1563.538
156.674, 1007.896
158.064, 544.294
159.454, 250.749
160.843, 95.454
162.233, 71.577
163.622, 172.054
165.011, 376.225
166.399, 740.261
167.787, 1229.836
169.175, 1880.162
170.563, 2468.563
171.951, 3008.076
173.338, 2964.724
174.725, 2627.593
176.112, 2005.686
177.499, 1289.004
178.885, 801.540
180.271, 323.281
181.657, 56.785
183.043, 205.670
184.428, 342.387
185.813, 447.949
187.198, 391.372
188.583, 134.667
189.967, 136.152
191.351, 562.075
192.735, 959.088
194.119, 1026.185
195.502, 1048.359
196.885, 715.598
198.268, 626.863
199.651, 703.143
201.033, 1061.438
202.415, 1599.752
203.797, 2227.083
205.179, 3107.434
206.561, 3678.803
207.942, 4498.182
209.323, 4952.470
210.703, 5590.698
212.084, 5749.939
213.464, 5671.203
214.844, 5935.490
216.224, 5998.798
217.603, 6182.126
218.983, 6105.409
220.362, 5445.281
221.741, 4605.492
223.119, 3227.405
224.497, 2324.363
225.875, 1453.375
227.253, 790.446
228.631, 422.830
230.008, 143.844
231.385, 48.144
232.762, 64.492
234.139, 91.881
235.515, 7.097
236.891, 150.826
238.267, 356.885
239.643, 441.992
241.018, 578.128
242.393, 556.303
243.768, 473.490
245.143, 289.573
246.517, 328.588
247.891, 435.614
249.265, 667.655
250.639, 1233.709
252.012, 1909.778
253.386, 2927.860
254.759, 3794.955
256.131, 4204.941
257.504, 4413.098
258.876, 3883.295
260.248, 3604.906
261.620, 3482.623
262.991, 3674.400
264.363, 3992.198
265.734, 4384.994
267.104, 4922.764
268.475, 5299.493
269.845, 5737.155
271.215, 5973.742
272.585, 6158.252
273.955, 6276.669
275.324, 5973.986
276.693, 5903.210
278.062, 5447.350
279.431, 4925.379
280.799, 4299.236
282.167, 3759.931
283.535, 3429.483
284.903, 3226.909
286.270, 3295.221
287.638, 3273.429
289.005, 3389.546
290.371, 3440.542
291.738, 3403.237
293.104, 3513.791
294.470, 3318.285
295.836, 3327.727
297.201, 3016.121
298.567, 2780.471
299.932, 2497.847
301.296, 2264.938
302.661, 2278.276
304.025, 2218.655
305.389, 2340.808
306.753, 2509.988
308.117, 2650.197
309.480, 2776.432
310.843, 2872.693
312.206, 3527.978
313.569, 4435.288
314.931, 5725.622
316.293, 7597.979
317.655, 9222.356
319.017, 10896.760
320.378, 10861.186
321.740, 10345.632
323.101, 9380.101
324.461, 8232.801
325.822, 6212.332
327.182, 5216.372
328.542, 4865.501
329.902, 4509.124
331.261, 4531.483
332.621, 4750.864
333.980, 5014.269
335.339, 5614.696
336.697, 6524.435
338.056, 7591.616
339.414, 9016.106
340.772, 10580.619
342.129, 12355.150
343.487, 12969.698
344.844, 13383.586
346.201, 11207.125
347.557, 9011.483
348.914, 6847.424
350.270, 4906.891
351.626, 3780.062
352.982, 2773.492
354.337, 2147.969
355.693, 1521.652
357.048, 1080.350
358.402, 748.061
359.757, 471.831
361.111, 256.676
362.465, 157.501
363.819, 83.803
365.173, 11.814
366.526, 7.372
367.879, 114.689
369.232, 146.780
370.585, 299.885
371.937, 380.386
373.290, 539.345
374.642, 735.180
375.993, 577.047
377.345, 686.879
378.696, 707.873
380.047, 973.595
381.398, 1530.044
382.748, 1694.617
384.099, 2311.472
385.449, 2899.442
386.799, 3840.449
388.148, 4126.950
389.497, 4313.917
390.847, 4226.662
392.196, 3601.316
393.544, 3090.824
394.893, 2434.321
396.241, 1997.298
397.589, 1803.326
398.936, 1490.749
400.284, 1531.784
401.631, 1471.689
402.978, 1444.593
404.325, 1472.495
405.672, 1187.396
407.018, 1318.294
408.364, 1194.999
409.710, 1367.875
411.055, 1553.768
412.401, 1909.660
413.746, 2501.550
415.091, 3070.437
416.435, 4005.323
417.780, 4843.207
419.124, 5846.072
420.468, 6716.921
421.812, 7521.751
423.155, 8706.562
424.498, 9081.351
425.842, 9666.118
427.184, 9350.861
428.527, 9015.588
429.869, 8140.288
431.211, 6944.969
432.553, 5965.625
433.895, 4697.261
435.236, 3819.875
436.577, 3202.469
437.918, 2730.040
439.259, 2965.182
440.599, 3244.266
441.940, 4087.029
443.280, 4982.464
444.619, 5507.471
445.959, 5829.640
447.298, 5066.075
448.637, 3948.493
449.976, 2794.893
451.315, 1967.276
452.653, 1306.643
453.991, 895.994
455.329, 676.330
456.667, 481.651
458.004, 336.957
459.341, 298.249
460.678, 235.527
462.015, 272.789
463.352, 252.037
464.688, 295.275
466.024, 462.506
467.360, 564.732
468.695, 869.952
470.031, 952.166
471.366, 1058.375
472.701, 1092.576
474.035, 1015.773
475.370, 1041.967
476.704, 1070.179
478.038, 1353.424
479.372, 1648.684
480.705, 2233.978
482.038, 2976.301
483.371, 3566.658
484.704, 4365.044
486.037, 4213.470
487.369, 3703.956
488.701, 3021.494
490.033, 2013.089
491.365, 1443.721
492.696, 1015.371
494.027, 774.049
495.358, 752.739
496.689, 641.450
498.019, 651.165
499.350, 667.870
500.680, 808.566
502.009, 816.251
503.339, 803.927
504.668, 863.592
505.997, 833.249
507.326, 974.944
508.655, 940.715
509.983, 925.596
511.311, 1018.629
512.639, 922.785
513.967, 928.007
515.295, 809.239
516.622, 588.470
517.949, 509.692
519.276, 248.904
520.602, 235.102
521.929, 35.286
523.255, 92.553
524.581, 134.779
525.906, 210.443
527.232, 261.491
528.557, 277.158
529.882, 228.941
531.207, 234.625
532.531, 225.468
533.855, 111.468
535.179, 111.563
536.503, 78.755
537.827, 65.026
539.150, 60.370
540.473, 39.784
541.796, 89.258
543.119, 13.818
544.441, 38.576
545.764, 34.944
547.086, 118.286
548.407, 41.606
549.729, 68.901
551.050, 7.173
552.371, 110.407
553.692, 113.624
555.013, 189.829
556.333, 395.047
557.653, 614.288
558.973, 878.531
560.293, 1125.760
561.612, 1331.973
562.932, 1490.168
564.251, 1346.346
565.569, 1374.508
566.888, 1384.652
568.206, 1461.780
569.524, 1671.891
570.842, 1796.984
572.160, 2113.060
573.477, 2182.118
574.795, 2196.160
576.112, 2043.183
577.428, 1725.188
578.745, 1518.176
580.061, 1225.146
581.377, 1048.098
582.693, 977.033
584.009, 862.950
585.324, 983.850
586.639, 900.731
587.954, 994.595
589.269, 1052.442
590.583, 848.271
591.897, 778.082
593.212, 615.875
594.525, 414.651
595.839, 257.410
597.152, 113.151
598.465, 121.870
599.778, 27.566
601.091, 52.231
602.403, 124.870
603.716, 81.488
605.028, 280.081
606.339, 334.657
607.651, 537.216
608.962, 801.758
610.273, 1048.282
611.584, 1434.789
612.895, 1708.279
614.205, 2111.752
615.515, 2405.206
616.825, 2609.646
618.135, 2962.066
619.444, 2838.406
620.754, 2846.791
622.063, 2555.161
623.372, 2021.514
624.680, 1644.849
625.989, 1103.167
627.297, 875.467
628.605, 642.830
629.912, 521.096
631.220, 443.620
632.527, 410.406
633.834, 567.700
635.141, 628.404
636.447, 795.045
637.754, 1078.540
639.060, 1167.930
640.366, 1558.602
641.671, 1841.047
642.977, 2059.901
644.282, 2218.611
645.587, 2152.344
646.892, 2103.317
648.196, 1808.952
649.501, 1488.678
650.805, 1310.773
652.109, 1010.025
653.412, 849.713
654.716, 650.059
656.019, 524.899
657.322, 470.712
658.625, 439.500
659.927, 372.263
661.230, 415.000
662.532, 393.711
663.834, 496.397
665.135, 556.056
666.437, 712.690
667.738, 803.724
669.039, 992.379
670.340, 1315.109
671.640, 1608.303
672.940, 2196.680
674.241, 2606.651
675.540, 3155.185
676.840, 3633.545
678.139, 3492.815
679.439, 3470.088
680.738, 2978.868
682.036, 2462.922
683.335, 2068.156
684.633, 1601.128
685.931, 1345.053
687.229, 1065.947
688.527, 956.432
689.824, 869.442
691.121, 725.563
692.418, 879.638
693.715, 883.732
695.012, 960.651
696.308, 1157.828
697.604, 1234.264
698.900, 1579.562
700.195, 1806.566
701.491, 2351.448
702.786, 2901.283
704.081, 3462.616
705.376, 4596.476
706.670, 5722.548
707.964, 7476.699
709.259, 9506.938
710.552, 11537.177
711.846, 13907.722
713.139, 15338.559
714.433, 16249.378
715.726, 15590.184
717.018, 13840.973
718.311, 11841.746
719.603, 9552.505
720.895, 7393.248
722.187, 6196.976
723.479, 4660.688
724.770, 3828.384
726.061, 3074.066
727.352, 2410.733
728.643, 2081.385
729.934, 1658.022
731.224, 1433.645
732.514, 1253.253
733.804, 979.847
735.094, 891.427
736.383, 740.993
737.672, 634.545
738.961, 522.083
740.250, 460.608
741.539, 483.119
742.827, 411.617
744.115, 356.102
745.403, 345.573
746.691, 301.031
747.978, 354.477
749.265, 251.910
750.552, 354.330
751.839, 344.738
753.126, 402.543
754.412, 459.375
755.698, 501.494
756.984, 664.910
758.270, 760.724
759.555, 787.346
760.840, 968.672
762.125, 1032.987
763.410, 1170.291
764.695, 1383.584
765.979, 1393.868
767.263, 1484.140
768.547, 1427.402
769.831, 1361.653
771.114, 1169.895
772.398, 947.127
773.681, 850.349
774.964, 686.562
776.246, 551.765
777.529, 509.959
778.811, 296.144
780.093, 331.320
781.375, 196.487
782.656, 77.645
783.937, 104.794
785.219, 27.934
786.499, 15.062
787.780, 59.826
789.060, 130.770
790.341, 50.805
791.621, 128.891
792.901, 112.068
794.180, 133.326
795.459, 114.677
796.739, 122.109
798.017, 152.626
799.296, 106.244
800.575, 158.938
801.853, 138.734
803.131, 77.623
804.409, 116.570
805.686, 56.597
806.964, 96.670
808.241, 28.810
809.518, 99.019
810.795, 76.843
812.071, 233.662
813.347, 127.478
814.623, 212.289
815.899, 187.096
817.175, 100.899
818.450, 80.699
819.726, 59.496
821.001, 36.710
822.275, 13.056
823.550, 34.183
824.824, 43.448
826.098, 30.741
827.372, 5.057
828.646, 4.617
829.920, 21.087
831.193, 32.851
832.466, 47.622
833.739, 53.294
835.011, 64.000
836.284, 78.751
837.556, 143.568
838.828, 204.468
840.100, 226.453
841.371, 342.509
842.642, 411.639
843.914, 517.843
845.184, 661.089
846.455, 694.378
847.726, 854.701
848.996, 987.055
850.266, 1101.438
851.536, 1264.847
852.805, 1339.294
854.075, 1296.759
855.344, 1370.234
856.613, 1326.718
857.881, 1431.209
859.150, 1352.710
860.418, 1364.221
861.686, 1460.749
862.954, 1413.283
864.222, 1496.833
865.489, 1492.967
866.756, 1459.942
868.023, 1522.541
869.290, 1413.122
870.557, 1472.715
871.823, 1513.313
873.089, 1457.923
874.355, 1565.542
875.621, 1538.172
876.886, 1607.808
878.152, 1683.456
879.417, 1557.125
880.682, 1677.800
881.946, 1540.491
883.211, 1710.188
884.475, 1713.901
885.739, 1709.621
887.003, 1850.348
888.266, 1917.085
889.530, 2162.830
890.793, 2392.583
892.056, 2491.352
893.318, 2995.131
894.581, 3247.924
895.843, 3717.730
897.105, 4279.547
898.367, 4601.377
899.629, 5257.217
900.890, 5834.064
902.152, 6422.934
903.413, 7178.815
904.673, 7298.709
905.934, 7508.618
907.194, 7488.540
908.454, 6797.481
909.714, 6752.438
910.974, 5935.407
912.234, 5312.398
913.493, 4845.404
914.752, 3973.422
916.011, 3551.448
917.270, 3132.486
918.528, 2740.533
919.786, 2589.589
921.044, 2195.657
922.302, 2181.742
923.560, 2010.836
924.817, 1903.950
926.074, 1932.087
927.331, 1890.236
928.588, 1921.403
929.844, 1944.580
931.101, 1979.769
932.357, 2025.859
933.613, 1997.208
934.868, 2141.367
936.124, 2291.627
937.379, 2387.622
938.634, 2631.363
939.889, 2816.589
941.144, 2966.399
942.398, 3423.267
943.652, 3728.281
944.906, 4291.397
946.160, 4825.236
947.414, 5398.297
948.667, 6253.946
949.920, 6769.736
951.173, 7672.500
952.426, 8492.022
953.678, 8992.882
954.931, 10227.643
956.183, 10950.031
957.435, 12486.256
958.686, 14770.039
959.938, 16078.158
961.189, 18388.785
962.440, 20009.426
963.691, 19940.096
964.941, 20130.783
966.192, 18341.488
967.442, 16522.217
968.692, 15532.969
969.942, 13773.738
971.191, 13484.529
972.441, 12942.917
973.690, 13393.675
974.939, 14482.352
976.187, 14910.560
977.436, 16029.576
978.684, 15939.993
979.932, 15700.838
981.180, 14941.805
982.428, 13462.793
983.675, 12293.803
984.922, 11424.834
986.169, 10345.888
987.416, 10066.962
988.663, 9528.827
989.909, 9169.944
991.155, 9091.082
992.401, 8472.240
993.647, 8474.035
994.893, 8425.229
996.138, 7976.525
997.383, 8317.854
998.628, 8149.111
999.873, 8190.387
1001.117, 8001.994
1002.362, 7283.311
1003.606, 7284.705
1004.850, 6544.676
1006.093, 5855.055
1007.337, 5499.785
1008.580, 4604.692
1009.823, 4129.620
1011.066, 3541.487
1012.308, 2925.074
1013.551, 2750.809
1014.793, 2188.766
1016.035, 2097.310
1017.277, 1904.837
1018.518, 1616.425
1019.760, 1618.686
1021.001, 1531.346
1022.242, 1489.424
1023.483, 1647.803
1024.723, 1560.584
1025.964, 1673.295
1027.204, 1673.605
1028.444, 1585.609
1029.683, 1566.631
1030.923, 1271.175
1032.162, 1206.982
1033.401, 1078.069
1034.640, 926.910
1035.879, 924.767
1037.117, 879.558
1038.355, 807.448
1039.593, 806.353
1040.831, 736.512
1042.069, 776.053
1043.306, 786.867
1044.544, 765.396
1045.781, 923.698
1047.017, 805.031
1048.254, 1014.042
1049.490, 1001.068
1050.726, 1041.708
1051.962, 1175.763
1053.198, 1210.338
1054.434, 1273.999
1055.669, 1303.156
1056.904, 1230.558
1058.139, 1259.747
1059.374, 1257.104
1060.608, 1075.210
1061.843, 1098.828
1063.077, 971.082
1064.311, 795.371
1065.544, 818.681
1066.778, 649.893
1068.011, 754.117
1069.244, 666.605
1070.477, 637.226
1071.710, 727.501
1072.942, 763.785
1074.174, 828.091
1075.406, 1045.434
1076.638, 1067.650
1077.870, 1478.963
1079.101, 1619.352
1080.332, 1724.009
1081.563, 2102.460
1082.794, 1948.396
1084.025, 1875.931
1085.255, 1686.388
1086.485, 1342.732
1087.715, 1190.160
1088.945, 997.590
1090.175, 852.162
1091.404, 758.963
1092.633, 558.194
1093.862, 532.320
1095.091, 518.976
1096.319, 412.551
1097.548, 405.555
1098.776, 399.792
1100.004, 430.532
1101.231, 441.433
1102.459, 395.490
1103.686, 509.566
1104.913, 394.594
1106.140, 443.775
1107.367, 449.003
1108.593, 554.209
1109.819, 354.853
1111.046, 347.202
1112.271, 261.331
1113.497, 242.763
1114.722, 207.920
1115.948, 198.065
1117.173, 205.334
1118.398, 171.489
1119.622, 181.729
1120.847, 143.982
1122.071, 127.489
1123.295, 114.810
1124.519, 84.023
1125.742, 84.380
1126.966, 68.628
1128.189, 36.868
1129.412, 37.984
1130.635, 20.643
1131.857, 14.890
1133.080, 61.190
1134.302, 40.518
1135.524, 33.191
1136.746, 35.057
1137.967, 23.307
1139.188, 60.557
1140.410, 27.191
1141.631, 5.055
1142.851, 5.284
1144.072, 5.917
1145.292, 46.413
1146.512, 21.111
1147.732, 15.342
1148.952, 41.019
1150.172, 3.088
1151.391, 23.725
1152.610, 31.985
1153.829, 14.545
1155.048, 19.087
1156.266, 18.609
1157.484, 15.842
1158.702, 4.930
1159.920, 54.013
1161.138, 38.252
1162.356, 30.849
1163.573, 27.046
1164.790, 14.550
1166.007, 39.470
1167.224, 0.246
1168.440, 33.985
1169.656, 18.915
1170.872, 26.377
1172.088, 14.491
1173.304, 33.655
1174.519, 60.347
1175.735, 6.128
1176.950, 34.381
1178.165, 21.607
1179.379, 41.142
1180.594, 4.993
1181.808, 17.103
1183.022, 16.554
1184.236, 19.556
1185.449, 12.648
1186.663, 36.338
1187.876, 8.402
1189.089, 12.383
1190.302, 23.465
1191.515, 1.403
1192.727, 18.469
1193.939, 21.559
1195.151, 19.570
1196.363, 52.453
1197.575, 16.345
1198.786, 17.782
1199.997, 1.966
1201.208, 9.756
1202.419, 12.414
1203.630, 11.260
1204.840, 7.154
1206.051, 21.094
1207.261, 12.484
1208.470, 14.404
1209.680, 14.244
1210.889, 14.808
1212.099, 39.503
1213.308, 49.086
1214.516, 12.619
1215.725, 6.861
1216.933, 38.634
1218.142, 15.880
1219.350, 31.401
1220.557, 35.018
1221.765, 12.575
1222.972, 51.804
1224.180, 36.190
1225.387, 33.365
1226.593, 28.983
1227.800, 13.319
1229.006, 13.381
1230.213, 38.873
1231.419, 24.887
1232.624, 54.320
1233.830, 63.518
1235.035, 42.698
1236.241, 3.858
1237.446, 16.997
1238.650, 14.888
1239.855, 82.206
1241.059, 14.288
1242.264, 33.354
1243.468, 27.405
1244.671, 2.559
1245.875, 78.455
1247.078, 51.456
1248.282, 56.530
1249.485, 94.503
1250.687, 50.460
1251.890, 49.402
1253.092, 60.352
1254.295, 31.262
1255.497, 45.155
1256.699, 89.032
1257.900, 42.938
1259.102, 84.782
1260.303, 115.609
1261.504, 62.417
1262.705, 98.206
1263.905, 73.975
1265.106, 75.718
1266.306, 120.435
1267.506, 42.128
1268.706, 123.795
1269.905, 67.427
1271.105, 96.028
1272.304, 118.604
1273.503, 54.153
1274.702, 101.676
1275.900, 108.168
1277.099, 91.631
1278.297, 86.072
1279.495, 96.326
1280.693, 129.825
1281.891, 130.308
1283.088, 127.064
1284.285, 172.895
1285.482, 135.785
1286.679, 53.078
1287.876, 81.269
1289.072, 90.427
1290.268, 52.653
1291.464, 61.870
1292.660, 83.741
1293.856, 44.900
1295.051, 83.979
1296.247, 20.479
1297.442, 68.729
1298.637, 69.467
1299.831, 26.025
1301.026, 49.756
1302.220, 43.351
1303.414, 43.223
1304.608, 47.035
1305.802, 32.533
1306.995, 8.443
1308.188, 52.367
1309.381, 10.228
1310.574, 44.450
1311.767, 42.234
1312.960, 29.595
1314.152, 50.671
1315.344, 34.321
1316.536, 34.934
1317.728, 62.151
1318.919, 18.566
1320.110, 33.036
1321.301, 22.903
1322.492, 57.501
1323.683, 64.815
1324.874, 67.373
1326.064, 46.911
1327.254, 64.512
1328.444, 66.089
1329.634, 80.471
1330.823, 90.682
1332.013, 67.507
1333.202, 87.055
1334.391, 55.884
1335.580, 73.938
1336.768, 54.954
1337.956, 56.285
1339.145, 59.572
1340.333, 84.331
1341.520, 64.623
1342.708, 71.371
1343.895, 90.067
1345.083, 62.223
1346.270, 93.130
1347.456, 49.307
1348.643, 69.248
1349.829, 149.435
1351.016, 42.105
1352.202, 45.135
1353.387, 119.126
1354.573, 60.092
1355.759, 84.150
1356.944, 99.220
1358.129, 108.993
1359.314, 130.628
1360.498, 114.727
1361.683, 85.688
1362.867, 129.624
1364.051, 106.518
1365.235, 109.535
1366.419, 82.451
1367.602, 65.278
1368.785, 75.829
1369.968, 75.771
1371.151, 80.054
1372.334, 92.651
1373.517, 117.244
1374.699, 114.021
1375.881, 106.666
1377.063, 78.358
1378.245, 84.407
1379.426, 116.831
1380.608, 140.939
1381.789, 115.329
1382.970, 93.702
1384.150, 80.854
1385.331, 122.574
1386.511, 76.684
1387.691, 74.656
1388.871, 135.805
1390.051, 53.960
1391.231, 114.083
1392.410, 111.737
1393.589, 77.706
1394.768, 68.466
1395.947, 84.524
1397.126, 81.395
1398.304, 80.339
1399.483, 63.296
1400.661, 104.221
1401.838, 121.446
1403.016, 101.618
1404.194, 99.891
1405.371, 85.659
1406.548, 86.147
1407.725, 133.856
1408.901, 111.804
1410.078, 108.646
1411.254, 131.277
1412.430, 92.619
1413.606, 91.331
1414.782, 132.744
1415.958, 53.861
1417.133, 109.096
1418.308, 57.868
1419.483, 129.480
1420.658, 65.885
1421.832, 4.440
1423.007, 83.512
1424.181, 88.365
1425.355, 79.998
1426.529, 11.436
1427.702, 47.168
1428.876, 65.901
1430.049, 104.735
1431.222, 72.414
1432.395, 40.313
1433.567, 107.426
1434.740, 57.230
1435.912, 92.173
1437.084, 56.170
1438.256, 9.118
1439.428, 84.138
1440.599, 96.125
1441.770, 4.903
1442.942, 89.821
1444.112, 73.848
1445.283, 14.873
1446.454, 105.896
1447.624, 49.929
1448.794, 76.930
1449.964, 86.885
1451.134, 24.797
1452.303, 32.461
1453.473, 34.271
1454.642, 26.977
1455.811, 54.689
1456.980, 51.238
1458.148, 46.843
1459.317, 70.420
1460.485, 8.995
1461.653, 67.608
1462.821, 45.280
1463.989, 32.925
1465.156, 51.460
1466.323, 61.783
1467.490, 64.284
1468.657, 33.200
1469.824, 44.809
1470.991, 39.549
1472.157, 34.241
1473.323, 51.526
1474.489, 27.177
1475.655, 41.524
1476.820, 36.863
1477.986, 20.020
1479.151, 45.913
1480.316, 7.417
1481.481, 12.267
1482.645, 52.940
1483.810, 6.763
1484.974, 87.504
1486.138, 28.350
1487.302, 0.796
1488.465, 93.658
1489.629, 41.524
1490.792, 18.379
1491.955, 68.337
1493.118, 25.327
1494.281, 62.318
1495.443, 78.323
1496.606, 6.405
1497.768, 73.999
1498.930, 35.764
1500.091, 2.088
1501.253, 76.419
1502.414, 58.628
1503.575, 45.877
