##NAMES=Axinite-(Fe)
##RRUFFID=R060194
##IDEAL CHEMISTRY=Ca_4_Fe^2+^_2_Al_4_[B_2_Si_8_O_30_](OH)_2_
##LOCALITY=near Dalbandi, Baluchistan Province, Pakistan
##OWNER=RRUFF
##SOURCE=Herbert Obodda
##DESCRIPTION=Brown transparent wedge-shaped single crystal
##STATUS=The identification of this mineral has been confirmed by X-ray diffraction and chemical analysis
##URL=rruff.info/R060194
##MEASURED CHEMISTRY=Ca_2.00_(Fe^2+^_0.66_Mg_0.30_Mn_0.04_)Al_2.00_BSi_4.00_O_15_(OH)
##PIN_ID=L00599
##ORIENTATION=Laser parallel to (0 -1 -1). Fiducial mark perpendicular to laser is parallel to a [1 0 0]
53.91000, 0.0000000E+00
55.14900, 72.96710
56.38700, 122.4327
57.62600, 232.2856
58.86400, 231.7949
60.10300, 410.2920
61.34100, 357.8146
62.57900, 208.9096
63.81700, 86.20947
65.05400, 36.78076
66.29200, 100.6232
67.52900, 129.8719
68.76700, 32.95850
70.00400, 45.76648
71.24100, 123.1959
72.47700, 236.5482
73.71400, 249.5664
74.95100, 317.7903
76.18700, 331.9165
77.42300, 226.6785
78.65900, 221.8425
79.89500, 122.1982
81.13100, 222.5579
82.36700, 338.7568
83.60200, 484.6431
84.83700, 730.0840
86.07200, 954.9585
87.30800, 1049.158
88.54200, 1096.593
89.77700, 1552.195
91.01200, 1879.899
92.24600, 2606.582
93.48000, 3457.090
94.71400, 3921.279
95.94800, 4908.039
97.18200, 5760.288
98.41600, 7075.985
99.64900, 8326.100
100.8830, 10131.58
102.1160, 11076.37
103.3490, 12313.42
104.5820, 14415.71
105.8150, 17347.18
107.0470, 20825.81
108.2800, 24935.58
109.5120, 27338.45
110.7440, 25046.40
111.9760, 21596.40
113.2080, 18653.44
114.4400, 15559.48
115.6710, 12611.52
116.9030, 9624.531
118.1340, 7479.497
119.3650, 5836.406
120.5960, 4489.255
121.8270, 3801.092
123.0580, 3264.972
124.2880, 3012.917
125.5190, 2781.901
126.7490, 2424.898
127.9790, 2434.701
129.2090, 2292.748
130.4390, 2554.012
131.6680, 2832.464
132.8980, 3263.101
134.1270, 3580.854
135.3560, 4255.782
136.5850, 4961.060
137.8140, 6049.715
139.0430, 7111.769
140.2710, 8253.396
141.5000, 8777.785
142.7280, 9063.938
143.9560, 8746.700
145.1840, 8452.939
146.4120, 7780.629
147.6390, 7891.776
148.8670, 8022.388
150.0940, 8227.469
151.3210, 8423.029
152.5490, 8523.062
153.7750, 7984.580
155.0020, 7703.576
156.2290, 7322.050
157.4550, 7047.012
158.6810, 6897.453
159.9080, 6829.375
161.1340, 7096.776
162.3590, 7609.656
163.5850, 7973.012
164.8110, 8707.844
166.0360, 9965.144
167.2610, 11134.92
168.4860, 12653.15
169.7110, 13878.86
170.9360, 14973.02
172.1610, 15117.64
173.3850, 14850.72
174.6100, 13647.26
175.8340, 12028.25
177.0580, 10176.69
178.2820, 7978.573
179.5050, 6224.900
180.7290, 4777.667
181.9520, 3680.870
183.1760, 2863.507
184.3990, 2357.578
185.6220, 2062.457
186.8450, 2049.016
188.0670, 2201.926
189.2900, 2803.802
190.5120, 3472.105
191.7340, 4511.649
192.9560, 5622.016
194.1780, 6491.763
195.4000, 7054.812
196.6220, 7482.160
197.8430, 7927.807
199.0640, 8123.749
200.2860, 8649.982
201.5070, 9761.661
202.7270, 10789.08
203.9480, 12400.21
205.1690, 13507.12
206.3890, 15066.74
207.6090, 16054.91
208.8290, 16774.09
210.0490, 17022.56
211.2690, 16697.97
212.4890, 16274.86
213.7080, 15246.60
214.9280, 14283.78
216.1470, 12874.08
217.3660, 11338.06
218.5850, 9987.684
219.8030, 8509.937
221.0220, 7018.797
222.2400, 6058.242
223.4590, 4960.258
224.6770, 3781.314
225.8950, 2987.503
227.1120, 2372.364
228.3300, 1819.129
229.5480, 1375.255
230.7650, 904.1953
231.9820, 747.2881
233.1990, 505.1162
234.4160, 327.6631
235.6330, 402.5918
236.8490, 400.9502
238.0660, 663.7295
239.2820, 945.9219
240.4980, 1291.522
241.7140, 1514.533
242.9300, 1802.968
244.1460, 2165.816
245.3610, 2538.062
246.5770, 3094.690
247.7920, 3482.686
249.0070, 3953.039
250.2220, 4582.748
251.4370, 5095.807
252.6510, 5779.210
253.8660, 6476.949
255.0800, 7030.024
256.2940, 7337.432
257.5080, 7783.158
258.7220, 8649.212
259.9360, 9815.576
261.1490, 9837.256
262.3630, 9703.242
263.5760, 10269.53
264.7890, 11518.12
266.0020, 13124.00
267.2150, 14734.18
268.4270, 16839.64
269.6400, 18486.39
270.8520, 19985.41
272.0640, 21333.71
273.2760, 22235.28
274.4880, 22835.11
275.7000, 22505.21
276.9120, 21552.57
278.1230, 20034.20
279.3340, 18257.09
280.5450, 16356.25
281.7560, 14460.66
282.9670, 12679.34
284.1780, 11331.29
285.3880, 10414.49
286.5980, 9717.944
287.8090, 9573.658
289.0190, 9763.616
290.2290, 10174.83
291.4380, 10826.28
292.6480, 11774.98
293.8570, 12742.92
295.0670, 14105.11
296.2760, 15118.52
297.4850, 16532.18
298.6930, 17446.07
299.9020, 18520.20
301.1110, 19163.55
302.3190, 19631.13
303.5270, 20042.94
304.7350, 20587.97
305.9430, 20884.23
307.1510, 20937.71
308.3580, 20701.40
309.5660, 20121.32
310.7730, 18974.45
311.9800, 17792.78
313.1870, 16748.46
314.3940, 15832.32
315.6010, 15494.81
316.8070, 15781.42
318.0130, 15856.56
319.2200, 15764.76
320.4260, 15499.51
321.6310, 14544.13
322.8370, 12926.49
324.0430, 11333.46
325.2480, 9800.546
326.4540, 8218.163
327.6590, 7201.659
328.8640, 6504.834
330.0680, 6115.425
331.2730, 5769.213
332.4780, 5530.662
333.6820, 5262.256
334.8860, 5294.988
336.0900, 5775.854
337.2940, 6351.845
338.4980, 7416.682
339.7010, 8318.198
340.9050, 10317.55
342.1080, 12101.03
343.3110, 14134.63
344.5140, 15993.33
345.7170, 16781.20
346.9200, 17314.36
348.1220, 17325.81
349.3240, 16891.61
350.5270, 16658.72
351.7290, 15921.12
352.9310, 15191.79
354.1320, 14056.70
355.3340, 12330.82
356.5350, 10489.15
357.7370, 8400.698
358.9380, 6350.467
360.1390, 4473.449
361.3400, 3074.617
362.5400, 2153.969
363.7410, 1150.499
364.9410, 595.2061
366.1410, 317.0879
367.3410, 42.13965
368.5410, 214.6416
369.7410, 326.3076
370.9400, 383.8916
372.1400, 417.4141
373.3390, 381.7295
374.5380, 309.2676
375.7370, 200.5039
376.9360, 135.5752
378.1350, 23.58887
379.3330, 473.9727
380.5310, 899.5596
381.7300, 1424.321
382.9280, 2164.246
384.1260, 3056.465
385.3230, 4397.841
386.5210, 5774.966
387.7180, 7319.338
388.9160, 8866.174
390.1130, 9779.870
391.3100, 10700.73
392.5060, 10615.71
393.7030, 9949.810
394.9000, 8608.033
396.0960, 7434.375
397.2920, 6263.836
398.4880, 5160.409
399.6840, 4051.098
400.8800, 3233.900
402.0750, 2709.812
403.2710, 2392.831
404.4660, 2230.308
405.6610, 2295.190
406.8560, 2602.527
408.0510, 3181.967
409.2450, 3962.509
410.4400, 5044.152
411.6340, 6526.895
412.8280, 8164.736
414.0220, 10703.68
415.2160, 13650.71
416.4100, 16694.85
417.6030, 19441.08
418.7970, 20069.40
419.9900, 20110.82
421.1830, 19083.32
422.3760, 18278.92
423.5690, 17594.60
424.7610, 16956.38
425.9540, 17680.24
427.1460, 18584.19
428.3380, 19139.22
429.5300, 19969.33
430.7220, 19935.52
431.9140, 18862.79
433.1050, 17432.15
434.2970, 15765.57
435.4880, 13213.07
436.6790, 11004.65
437.8700, 8955.294
439.0610, 7743.010
440.2510, 6939.797
441.4420, 6682.652
442.6320, 6947.574
443.8220, 7392.560
445.0120, 7452.610
446.2020, 7364.724
447.3910, 6768.896
448.5810, 5621.131
449.7700, 4341.424
450.9600, 3006.772
452.1490, 1911.178
453.3370, 1136.638
454.5260, 594.1514
455.7150, 172.7168
456.9030, 275.6748
458.0910, 442.2148
459.2800, 570.9844
460.4670, 673.0518
461.6550, 784.4707
462.8430, 836.2998
464.0300, 842.5674
465.2180, 915.2812
466.4050, 832.4805
467.5920, 844.1279
468.7790, 692.2324
469.9650, 563.7217
471.1520, 312.5361
472.3380, 41.55664
473.5250, 231.3438
474.7110, 845.2656
475.8970, 1349.222
477.0820, 2107.210
478.2680, 2999.229
479.4540, 4111.280
480.6390, 5536.361
481.8240, 6921.473
483.0090, 8731.610
484.1940, 10213.78
485.3780, 11187.97
486.5630, 11062.20
487.7470, 10085.26
488.9320, 8440.661
490.1160, 6730.029
491.3000, 5138.127
492.4830, 3644.707
493.6670, 2716.000
494.8500, 2043.544
496.0340, 1753.087
497.2170, 1645.598
498.4000, 1769.977
499.5820, 2084.361
500.7650, 2314.750
501.9480, 2882.142
503.1300, 3259.537
504.3120, 4075.931
505.4940, 4590.324
506.6760, 5077.717
507.8580, 5713.108
509.0390, 6234.496
510.2210, 6598.878
511.4020, 6673.764
512.5830, 6746.053
513.7640, 6137.258
514.9450, 5555.939
516.1250, 4752.312
517.3060, 4043.858
518.4860, 3216.686
519.6660, 2564.913
520.8460, 1866.609
522.0260, 1386.415
523.2060, 1079.384
524.3850, 694.0674
525.5650, 527.6074
526.7440, 407.1455
527.9230, 252.6416
529.1020, 282.0488
530.2810, 372.3721
531.4590, 433.6367
532.6380, 662.8525
533.8160, 755.0449
534.9940, 1123.212
536.1720, 1179.353
537.3500, 1492.467
538.5270, 1737.553
539.7050, 1909.610
540.8820, 2321.639
542.0590, 2797.637
543.2360, 3197.605
544.4130, 3483.541
545.5900, 3765.445
546.7660, 3859.082
547.9430, 3960.291
549.1190, 3782.300
550.2950, 3632.374
551.4710, 3286.542
552.6470, 2963.778
553.8220, 2592.121
554.9980, 2740.543
556.1730, 2565.044
557.3480, 2950.626
558.5230, 3290.297
559.6980, 3617.033
560.8730, 3983.785
562.0470, 4107.541
563.2220, 4264.295
564.3960, 4225.041
565.5700, 4277.752
566.7440, 4295.418
567.9170, 4386.037
569.0910, 4535.612
570.2640, 4913.141
571.4380, 5313.621
572.6110, 6041.055
573.7840, 6207.438
574.9570, 6491.771
576.1290, 6515.057
577.3020, 6510.291
578.4740, 6178.474
579.6460, 6212.605
580.8180, 6069.684
581.9900, 6022.709
583.1620, 6159.681
584.3330, 7060.599
585.5040, 7654.463
586.6760, 8447.271
587.8470, 9474.021
589.0180, 10024.72
590.1880, 10370.36
591.3590, 10151.94
592.5290, 9413.467
593.7000, 8382.932
594.8700, 7111.340
596.0400, 5846.689
597.2090, 4517.846
598.3790, 3571.982
599.5490, 2821.617
600.7180, 2117.289
601.8870, 1673.574
603.0560, 1276.941
604.2250, 1061.894
605.3940, 877.1211
606.5620, 862.7451
607.7300, 780.8965
608.8990, 825.0596
610.0670, 909.8301
611.2350, 984.8564
612.4020, 1138.334
613.5700, 1321.527
614.7370, 1471.646
615.9050, 1551.229
617.0720, 1773.777
618.2390, 1711.295
619.4060, 1701.452
620.5720, 1744.236
621.7390, 1464.659
622.9050, 1226.050
624.0710, 1004.406
625.2370, 564.7305
626.4030, 391.0215
627.5690, 28.27734
628.7340, 147.5820
629.9000, 214.6416
631.0650, 356.9365
632.2300, 200.5410
633.3950, 144.3721
634.5600, 97.40625
635.7240, 123.3838
636.8890, 351.0947
638.0530, 637.9180
639.2170, 1173.402
640.3810, 1352.003
641.5450, 1802.567
642.7080, 2173.094
643.8720, 2377.585
645.0350, 2356.038
646.1980, 2345.457
647.3610, 2118.839
648.5240, 2028.185
649.6870, 1437.490
650.8490, 1135.763
652.0120, 816.0215
653.1740, 367.2852
654.3360, 282.7939
655.4980, 26.83594
656.6600, 104.5449
657.8210, 83.58496
658.9830, 288.8721
660.1440, 121.9062
661.3050, 51.48145
662.4660, 58.79688
663.6270, 137.3828
664.7870, 539.4463
665.9480, 809.0254
667.1080, 1154.808
668.2680, 1659.042
669.4280, 2358.117
670.5880, 3145.820
671.7480, 4043.751
672.9070, 5041.610
674.0670, 6079.429
675.2260, 7038.209
676.3850, 7738.949
677.5440, 8111.649
678.7030, 7964.312
679.8610, 7675.936
681.0200, 6724.520
682.1780, 6095.064
683.3360, 4763.572
684.4940, 3753.041
685.6520, 3065.990
686.8090, 2427.512
687.9670, 2196.879
689.1240, 1905.307
690.2810, 1755.833
691.4380, 1794.286
692.5950, 1898.047
693.7520, 2156.184
694.9080, 2423.353
696.0650, 2836.501
697.2210, 3520.641
698.3770, 4151.309
699.5330, 5046.561
700.6880, 6167.943
701.8440, 7770.749
702.9990, 9701.275
704.1550, 12144.05
705.3100, 15211.66
706.4650, 19014.22
707.6190, 23188.73
708.7740, 28167.18
709.9290, 33449.59
711.0830, 38694.94
712.2370, 43500.23
713.3910, 47726.48
714.5450, 48714.66
715.6980, 48275.81
716.8520, 45210.89
718.0050, 41003.93
719.1580, 35446.91
720.3110, 29823.85
721.4640, 24465.74
722.6170, 19906.58
723.7700, 16294.37
724.9220, 13491.11
726.0740, 10878.80
727.2260, 9042.442
728.3780, 7760.035
729.5300, 6491.585
730.6810, 5517.088
731.8330, 4835.544
732.9840, 3995.953
734.1350, 3562.317
735.2860, 3225.637
736.4370, 2737.915
737.5880, 2594.248
738.7380, 2176.677
739.8880, 1941.234
741.0390, 1874.948
742.1890, 1680.846
743.3380, 1518.944
744.4880, 1516.245
745.6380, 1450.769
746.7870, 1381.494
747.9360, 1375.428
749.0850, 1405.533
750.2340, 1454.781
751.3830, 1435.108
752.5310, 1644.455
753.6800, 1694.769
754.8280, 2094.044
755.9760, 2387.282
757.1240, 2858.483
758.2720, 3336.926
759.4190, 3720.772
760.5670, 4426.863
761.7140, 5139.916
762.8610, 5753.934
764.0080, 6592.918
765.1550, 7278.867
766.3020, 7847.965
767.4480, 8189.711
768.5950, 8172.489
769.7410, 7897.523
770.8870, 7598.066
772.0330, 6986.881
773.1780, 6245.436
774.3240, 5420.977
775.4690, 4814.535
776.6140, 3861.213
777.7590, 3220.867
778.9040, 2825.502
780.0490, 2263.116
781.1940, 1844.711
782.3380, 1779.287
783.4820, 1464.844
784.6260, 1096.382
785.7700, 1022.904
786.9140, 645.4072
788.0580, 511.8965
789.2010, 486.3662
790.3450, 398.8223
791.4880, 251.1855
792.6310, 181.6533
793.7730, 119.6191
794.9160, 30.11230
796.0590, 34.16797
797.2010, 20.19141
798.3430, 89.38672
799.4850, 111.6992
800.6270, 121.2490
801.7690, 64.58594
802.9100, 10.13477
804.0520, 61.50098
805.1930, 191.5586
806.3340, 287.2861
807.4750, 445.0420
808.6160, 652.8115
809.7560, 791.5918
810.8970, 940.3691
812.0370, 1195.146
813.1770, 1240.922
814.3170, 1408.698
815.4570, 1214.474
816.5960, 809.2510
817.7360, 745.0293
818.8750, 420.8096
820.0140, 294.5918
821.1530, 131.3779
822.2920, 87.83301
823.4310, 217.1094
824.5690, 360.5127
825.7070, 348.1191
826.8460, 463.9209
827.9840, 369.9756
829.1220, 521.2324
830.2590, 418.7705
831.3970, 422.5322
832.5340, 441.5215
833.6710, 476.7402
834.8080, 393.2109
835.9450, 196.8838
837.0820, 168.6553
838.2190, 145.5068
839.3550, 127.4287
840.4910, 24.40723
841.6270, 149.6074
842.7630, 177.6387
843.8990, 239.6836
845.0350, 265.7432
846.1700, 524.8203
847.3060, 755.9150
848.4410, 822.0264
849.5760, 840.1562
850.7100, 932.3037
851.8450, 1179.473
852.9800, 1293.661
854.1140, 1292.868
855.2480, 1273.099
856.3820, 1365.351
857.5160, 1297.625
858.6500, 1271.922
859.7830, 1263.244
860.9170, 1291.729
862.0500, 1322.121
863.1830, 1399.357
864.3160, 1413.780
865.4480, 1456.229
866.5810, 1462.707
867.7130, 1524.212
868.8460, 1492.745
869.9780, 1507.309
871.1100, 1409.902
872.2410, 1556.525
873.3730, 1437.186
874.5050, 1606.876
875.6360, 1668.599
876.7670, 1645.355
877.8980, 1824.160
879.0290, 1911.013
880.1590, 1960.901
881.2900, 2144.329
882.4200, 2195.767
883.5500, 2413.739
884.6800, 2570.741
885.8100, 2634.771
886.9400, 2977.826
888.0690, 3301.916
889.1990, 3711.051
890.3280, 4272.225
891.4570, 4838.443
892.5860, 5456.696
893.7140, 6167.004
894.8430, 6795.363
895.9710, 7920.787
897.1000, 8539.268
898.2280, 9350.800
899.3560, 10045.39
900.4830, 10199.04
901.6110, 10294.71
902.7380, 10702.47
903.8660, 10739.35
904.9930, 11104.38
906.1200, 11157.59
907.2460, 11345.96
908.3730, 11437.46
909.5000, 11500.09
910.6260, 11480.78
911.7520, 10953.51
912.8780, 10374.30
914.0040, 9680.151
915.1290, 8547.063
916.2550, 7529.047
917.3800, 6580.107
918.5050, 5792.215
919.6300, 5087.389
920.7550, 4567.451
921.8800, 4125.910
923.0040, 3916.260
924.1290, 3817.668
925.2530, 3843.131
926.3770, 3815.656
927.5010, 3983.988
928.6250, 4081.845
929.7480, 4323.162
930.8720, 4587.115
931.9950, 4752.279
933.1180, 4756.096
934.2410, 4644.398
935.3640, 4432.796
936.4860, 4136.864
937.6090, 3931.447
938.7310, 3880.365
939.8530, 3685.099
940.9750, 3734.782
942.0970, 4045.514
943.2180, 4190.311
944.3400, 4326.162
945.4610, 4962.094
946.5820, 5261.121
947.7030, 5917.225
948.8240, 6486.391
949.9450, 7326.617
951.0650, 8231.909
952.1860, 9071.274
953.3060, 9951.697
954.4260, 11004.20
955.5460, 12564.77
956.6650, 13847.41
957.7850, 15353.57
958.9040, 17075.20
960.0230, 19222.99
961.1420, 21566.76
962.2610, 23612.45
963.3800, 25696.23
964.4990, 27104.74
965.6170, 27956.90
966.7350, 27895.05
967.8530, 26611.25
968.9710, 25102.48
970.0890, 23711.21
971.2070, 22537.40
972.3240, 21877.50
973.4410, 21774.19
974.5580, 22495.19
975.6750, 23631.97
976.7920, 25094.93
977.9090, 26802.98
979.0250, 28482.11
980.1410, 29382.31
981.2580, 29698.59
982.3740, 29612.93
983.4890, 28167.36
984.6050, 26753.87
985.7200, 24979.46
986.8360, 23415.12
987.9510, 22557.85
989.0660, 21515.67
990.1810, 21039.57
991.2950, 20653.54
992.4100, 20961.58
993.5240, 21247.70
994.6390, 21454.90
995.7530, 21483.17
996.8660, 22014.52
997.9800, 22182.94
999.0940, 23017.44
1000.207, 23728.01
1001.320, 24311.67
1002.433, 25005.40
1003.546, 25444.21
1004.659, 25736.09
1005.772, 25156.05
1006.884, 24255.73
1007.996, 22861.96
1009.108, 20687.15
1010.220, 18638.03
1011.332, 16128.05
1012.444, 13834.12
1013.555, 11796.50
1014.666, 10117.05
1015.777, 8611.951
1016.888, 7452.383
1017.999, 6464.156
1019.110, 5698.002
1020.220, 5280.969
1021.331, 4864.102
1022.441, 4599.473
1023.551, 4682.144
1024.661, 4654.582
1025.770, 4897.256
1026.880, 5199.062
1027.989, 5386.297
1029.098, 5422.537
1030.207, 5300.441
1031.316, 5100.570
1032.425, 4718.205
1033.533, 4315.602
1034.642, 3770.402
1035.750, 3492.240
1036.858, 3360.793
1037.966, 3064.212
1039.073, 3006.962
1040.181, 2829.486
1041.288, 2901.431
1042.396, 2771.629
1043.503, 2616.946
1044.610, 2833.170
1045.716, 2766.201
1046.823, 2717.062
1047.929, 2825.829
1049.036, 2892.722
1050.142, 3101.271
1051.248, 3335.889
1052.353, 3416.762
1053.459, 3723.589
1054.564, 4050.474
1055.670, 4206.898
1056.775, 4174.089
1057.880, 4442.164
1058.985, 4382.422
1060.089, 4038.639
1061.194, 3935.909
1062.298, 3838.372
1063.402, 3557.755
1064.506, 3228.223
1065.610, 2872.773
1066.713, 2619.027
1067.817, 2546.742
1068.920, 2183.859
1070.023, 2001.387
1071.126, 1806.371
1072.229, 1932.434
1073.332, 1875.299
1074.435, 2114.438
1075.537, 2224.791
1076.639, 2717.276
1077.741, 3145.058
1078.843, 3725.872
1079.945, 4452.248
1081.046, 5059.779
1082.148, 5775.451
1083.249, 6583.529
1084.350, 6936.488
1085.451, 7092.277
1086.551, 6730.054
1087.652, 6257.932
1088.752, 5604.107
1089.853, 4938.893
1090.953, 4182.412
1092.053, 3390.235
1093.152, 3084.609
1094.252, 2714.920
1095.351, 2302.305
1096.451, 2103.601
1097.550, 1952.237
1098.649, 1723.940
1099.748, 1714.042
1100.846, 1810.877
1101.945, 1951.486
1103.043, 1947.446
1104.141, 1950.812
1105.239, 2017.552
1106.337, 2150.380
1107.434, 1995.173
1108.532, 1988.648
1109.629, 1919.288
1110.726, 1754.938
1111.823, 1576.122
1112.920, 1420.793
1114.017, 1311.827
1115.113, 1004.902
1116.210, 1022.348
1117.306, 905.2715
1118.402, 704.7832
1119.498, 970.1426
1120.593, 840.2383
1121.689, 735.3252
1122.784, 668.3428
1123.879, 713.2031
1124.974, 589.2627
1126.069, 485.3867
1127.164, 276.5732
1128.259, 385.9160
1129.353, 257.3018
1130.447, 130.9189
1131.541, 183.3760
1132.635, 50.39160
1133.729, 130.7100
1134.822, 31.02930
1135.916, 61.11523
1137.009, 115.3027
1138.102, 40.79004
1139.195, 7.440430
1140.288, 64.51562
1141.380, 37.85547
1142.473, 130.2803
1143.565, 128.2998
1144.657, 46.84570
1145.749, 65.96289
1146.841, 64.51074
1147.932, 89.12988
1149.024, 95.62891
1150.115, 41.42676
1151.206, 2.219727
1152.297, 48.99316
1153.388, 104.2256
1154.479, 84.27832
1155.569, 98.80078
1156.659, 51.91992
1157.750, 120.8096
1158.839, 144.0059
1159.929, 157.4873
1161.019, 131.0410
1162.108, 113.6572
1163.198, 136.3281
1164.287, 92.57715
1165.376, 10.14648
1166.465, 53.10352
1167.553, 16.96289
1168.642, 36.96582
1169.730, 83.25391
1170.818, 109.8555
1171.906, 40.23145
1172.994, 97.52637
1174.082, 35.63184
1175.170, 14.73340
1176.257, 100.1133
1177.344, 61.90918
1178.431, 89.05859
1179.518, 119.3379
1180.605, 142.4424
1181.691, 7.280273
1182.778, 93.16309
1183.864, 57.25098
1184.950, 38.82422
1186.036, 59.79688
1187.122, 36.50195
1188.207, 31.35059
1189.292, 46.82129
1190.378, 45.91211
1191.463, 41.97266
1192.548, 41.14160
1193.632, 98.90039
1194.717, 65.98828
1195.801, 77.10352
1196.886, 8.790039
1197.970, 139.1191
1199.054, 39.12402
1200.137, 34.01562
1201.221, 120.7061
1202.305, 52.58203
1203.388, 38.92773
1204.471, 136.3945
1205.554, 15.11523
1206.637, 35.49121
1207.719, 50.90234
1208.802, 112.6680
1209.884, 23.56152
1210.966, 26.46289
1212.048, 26.65039
1213.130, 21.62793
1214.212, 23.38379
1215.293, 95.37695
1216.374, 15.90430
1217.456, 31.22363
1218.536, 87.53418
1219.617, 129.1875
1220.698, 32.64062
1221.778, 170.4219
1222.859, 6.768555
1223.939, 78.07910
1225.019, 83.28809
1226.099, 63.44434
1227.178, 38.58984
1228.258, 65.61035
1229.337, 89.56738
1230.417, 107.4648
1231.496, 38.30664
1232.574, 7.0312999E-02
1233.653, 51.73535
1234.732, 158.3213
1235.810, 71.85645
