##NAMES=Axinite-(Fe)
##RRUFFID=R060183
##IDEAL CHEMISTRY=Ca_4_Fe^2+^_2_Al_4_[B_2_Si_8_O_30_](OH)_2_
##LOCALITY=Skagit Bluffs, near Manning Park, British Columbia, Canada
##OWNER=RRUFF
##SOURCE=Lloyd Twaites
##DESCRIPTION=Light-pink transparent axe-head-shaped single crystal
##STATUS=The identification of this mineral has been confirmed by X-ray diffraction and chemical analysis
##URL=rruff.info/R060183
##MEASURED CHEMISTRY=Ca_2.00_(Fe^2+^_0.58_Mn_0.23_Mg_0.19_)Al_2.00_B_1.00_Si_4.00_O_15_(OH)
##PIN_ID=L01743
##ORIENTATION=Laser parallel to (0 1 1). Fiducial mark perpendicular to laser is parallel to -a [-1 0 0]
52.67100, 0.0000000E+00
53.91000, 39.15204
55.14900, 112.9938
56.38700, 157.7931
57.62600, 188.5562
58.86400, 259.7923
60.10300, 317.4772
61.34100, 343.3032
62.57900, 248.5556
63.81700, 146.0289
65.05400, 54.46454
66.29200, 1.731689
67.52900, 28.36542
68.76700, 57.03827
70.00400, 57.91901
71.24100, 35.83606
72.47700, 37.47119
73.71400, 51.99500
74.95100, 67.29126
76.18700, 130.4360
77.42300, 159.9161
78.65900, 167.5620
79.89500, 178.2295
81.13100, 342.7960
82.36700, 604.1558
83.60200, 841.2170
84.83700, 1100.899
86.07200, 1159.133
87.30800, 1498.861
88.54200, 1811.038
89.77700, 2435.620
91.01200, 3236.529
92.24600, 4108.664
93.48000, 5133.935
94.71400, 6430.258
95.94800, 8135.575
97.18200, 10129.61
98.41600, 12275.46
99.64900, 14960.09
100.8830, 17465.47
102.1160, 20449.59
103.3490, 23352.44
104.5820, 26966.00
105.8150, 31065.28
107.0470, 34253.24
108.2800, 35117.91
109.5120, 32420.26
110.7440, 26403.28
111.9760, 20537.97
113.2080, 15977.32
114.4400, 12612.33
115.6710, 9667.986
116.9030, 7590.287
118.1340, 5741.222
119.3650, 4560.809
120.5960, 3542.077
121.8270, 2903.048
123.0580, 2669.713
124.2880, 2400.056
125.5190, 2151.065
126.7490, 1911.624
127.9790, 1906.386
129.2090, 2055.327
130.4390, 2288.424
131.6680, 2585.662
132.8980, 2858.024
134.1270, 3270.481
135.3560, 3962.057
136.5850, 4481.845
137.8140, 4855.900
139.0430, 5062.802
140.2710, 5489.554
141.5000, 5095.628
142.7280, 4927.338
143.9560, 4655.531
145.1840, 4541.078
146.4120, 4693.991
147.6390, 4696.273
148.8670, 5050.928
150.0940, 5117.960
151.3210, 5216.369
152.5490, 5498.158
153.7750, 5418.326
155.0020, 5462.874
156.2290, 5777.803
157.4550, 5604.113
158.6810, 5460.803
159.9080, 5578.875
161.1340, 5764.329
162.3590, 6184.163
163.5850, 7040.377
164.8110, 7913.968
166.0360, 9158.939
167.2610, 10352.28
168.4860, 11764.00
169.7110, 13038.09
170.9360, 13710.55
172.1610, 13465.37
173.3850, 12162.56
174.6100, 10781.11
175.8340, 9435.013
177.0580, 8078.279
178.2820, 6915.899
179.5050, 5705.875
180.7290, 4755.204
181.9520, 4039.885
183.1760, 3809.026
184.3990, 3708.874
185.6220, 3660.565
186.8450, 3989.145
188.0670, 4517.591
189.2900, 5369.645
190.5120, 6529.029
191.7340, 7512.707
192.9560, 8061.677
194.1780, 8219.936
195.4000, 8434.481
196.6220, 9052.313
197.8430, 10206.43
199.0640, 11661.83
200.2860, 13723.28
201.5070, 15927.32
202.7270, 18244.21
203.9480, 19924.83
205.1690, 20626.21
206.3890, 19682.40
207.6090, 18423.30
208.8290, 16503.20
210.0490, 14783.04
211.2690, 12423.70
212.4890, 10381.54
213.7080, 8482.128
214.9280, 6595.195
216.1470, 5008.581
217.3660, 3888.573
218.5850, 2854.633
219.8030, 1996.358
221.0220, 1348.246
222.2400, 791.5537
223.4590, 264.2710
224.6770, 51.87695
225.8950, 200.9419
227.1120, 315.4214
228.3300, 475.8262
229.5480, 400.5195
230.7650, 442.6079
231.9820, 303.3208
233.1990, 49.37939
234.4160, 341.5098
235.6330, 848.0649
236.8490, 1473.009
238.0660, 2057.337
239.2820, 2968.003
240.4980, 3725.980
241.7140, 4558.263
242.9300, 5158.847
244.1460, 5507.724
245.3610, 5825.885
246.5770, 6147.331
247.7920, 6305.053
249.0070, 6422.053
250.2220, 6600.325
251.4370, 6957.866
252.6510, 7207.678
253.8660, 7269.752
255.0800, 7181.088
256.2940, 7040.683
257.5080, 7042.537
258.7220, 7535.641
259.9360, 8137.000
261.1490, 8388.606
262.3630, 9195.465
263.5760, 10249.57
264.7890, 11922.94
266.0020, 13805.56
267.2150, 15887.44
268.4270, 17984.56
269.6400, 20204.93
270.8520, 21673.53
272.0640, 22759.35
273.2760, 22712.40
274.4880, 22064.67
275.7000, 20756.15
276.9120, 18659.86
278.1230, 16533.80
279.3340, 14463.95
280.5450, 12645.32
281.7560, 11132.91
282.9670, 10162.72
284.1780, 9033.756
285.3880, 8454.006
286.5980, 8051.415
287.8090, 7653.922
289.0190, 7616.550
290.2290, 8026.395
291.4380, 8316.454
292.6480, 9233.724
293.8570, 10188.20
295.0670, 11341.90
296.2760, 12974.80
297.4850, 14830.90
298.6930, 17000.21
299.9020, 18996.73
301.1110, 21852.46
302.3190, 23998.37
303.5270, 26162.49
304.7350, 27572.81
305.9430, 26923.32
307.1510, 24640.04
308.3580, 21490.94
309.5660, 17905.03
310.7730, 14926.38
311.9800, 11968.76
313.1870, 9429.399
314.3940, 7616.894
315.6010, 6068.480
316.8070, 4972.064
318.0130, 4299.363
319.2200, 3831.114
320.4260, 3527.562
321.6310, 3518.256
322.8370, 3543.000
324.0430, 3874.713
325.2480, 4046.101
326.4540, 4248.652
327.6590, 4387.362
328.8640, 4244.230
330.0680, 3683.251
331.2730, 3158.423
332.4780, 2885.741
333.6820, 2714.203
334.8860, 2854.246
336.0900, 3150.546
337.2940, 3875.424
338.4980, 4729.438
339.7010, 6128.587
340.9050, 7743.871
342.1080, 9695.287
343.3110, 11564.42
344.5140, 13664.52
345.7170, 15901.40
346.9200, 17971.51
348.1220, 20440.89
349.3240, 22175.56
350.5270, 22838.54
351.7290, 21656.80
352.9310, 18764.36
354.1320, 15530.19
355.3340, 12615.28
356.5350, 9785.607
357.7370, 7563.141
358.9380, 5305.889
360.1390, 3895.839
361.3400, 2606.987
362.5400, 1711.329
363.7410, 1046.854
364.9410, 555.5752
366.1410, 363.4829
367.3410, 63.58545
368.5410, 72.09961
369.7410, 160.5874
370.9400, 228.2095
372.1400, 282.9004
373.3390, 88.89062
374.5380, 147.5679
375.7370, 342.3467
376.9360, 771.4438
378.1350, 1285.891
379.3330, 2280.478
380.5310, 3315.592
381.7300, 4749.319
382.9280, 6452.068
384.1260, 8400.832
385.3230, 10711.50
386.5210, 13297.30
387.7180, 15303.23
388.9160, 16267.29
390.1130, 15856.48
391.3100, 14223.79
392.5060, 12337.23
393.7030, 10576.79
394.9000, 8938.466
396.0960, 7319.271
397.2920, 5952.192
398.4880, 5071.231
399.6840, 4218.385
400.8800, 3722.654
402.0750, 3590.036
403.2710, 3577.530
404.4660, 4116.134
405.6610, 4957.892
406.8560, 6537.644
408.0510, 8606.080
409.2450, 11617.90
410.4400, 15232.70
411.6340, 19554.73
412.8280, 25159.54
414.0220, 30668.37
415.2160, 34657.90
416.4100, 34141.55
417.6030, 31172.28
418.7970, 26734.10
419.9900, 23312.03
421.1830, 20603.04
422.3760, 18652.15
423.5690, 17063.35
424.7610, 16105.64
425.9540, 15509.02
427.1460, 14205.48
428.3380, 13203.03
429.5300, 11327.67
430.7220, 9766.385
431.9140, 8007.187
433.1050, 6661.068
434.2970, 5369.032
435.4880, 4492.075
436.6790, 3941.194
437.8700, 3623.391
439.0610, 3786.663
440.2510, 4072.008
441.4420, 4483.427
442.6320, 4913.917
443.8220, 4445.017
445.0120, 4162.105
446.2020, 3328.803
447.3910, 2465.565
448.5810, 1764.393
449.7700, 1211.285
450.9600, 669.2397
452.1490, 225.2554
453.3370, 89.66846
454.5260, 196.5859
455.7150, 378.5420
456.9030, 445.6128
458.0910, 513.8335
459.2800, 525.2378
460.4670, 586.8335
461.6550, 496.6509
462.8430, 576.6528
464.0300, 519.8770
465.2180, 250.2998
466.4050, 98.80322
467.5920, 129.6738
468.7790, 485.1963
469.9650, 1035.763
471.1520, 1524.373
472.3380, 2303.024
473.5250, 3468.718
474.7110, 4906.451
475.8970, 6780.225
477.0820, 9271.036
478.2680, 11850.88
479.4540, 15337.77
480.6390, 18779.69
481.8240, 22346.64
483.0090, 24935.63
484.1940, 24587.64
485.3780, 22125.70
486.5630, 17990.69
487.7470, 14420.66
488.9320, 11125.40
490.1160, 8434.547
491.3000, 6136.819
492.4830, 4550.934
493.6670, 3210.957
494.8500, 2423.350
496.0340, 1873.951
497.2170, 1549.757
498.4000, 1386.194
499.5820, 1263.548
500.7650, 1264.460
501.9480, 1392.336
503.1300, 1367.101
504.3120, 1278.903
505.4940, 1268.884
506.6760, 1216.102
507.8580, 1120.601
509.0390, 1179.079
510.2210, 866.8730
511.4020, 611.5337
512.5830, 330.1113
513.7640, 370.7134
514.9450, 201.1416
516.1250, 48.03662
517.3060, 70.85254
518.4860, 182.9419
519.6660, 193.3521
520.8460, 190.1382
522.0260, 74.36865
523.2060, 62.67480
524.3850, 111.8779
525.5650, 268.3594
526.7440, 522.8096
527.9230, 672.2314
529.1020, 931.6270
530.2810, 1042.993
531.4590, 1317.330
532.6380, 1512.637
533.8160, 1546.912
534.9940, 1638.154
536.1720, 1540.364
537.3500, 1419.539
538.5270, 1232.679
539.7050, 1186.783
540.8820, 1086.852
542.0590, 960.8818
543.2360, 726.8740
544.4130, 590.8267
545.5900, 520.7393
546.7660, 301.6123
547.9430, 312.4478
549.1190, 215.2803
550.2950, 244.0898
551.4710, 186.8892
552.6470, 291.6680
553.8220, 232.4854
554.9980, 379.2886
556.1730, 651.1265
557.3480, 798.9824
558.5230, 1147.842
559.6980, 1508.682
560.8730, 1840.492
562.0470, 2382.270
563.2220, 2939.996
564.3960, 3552.669
565.5700, 4490.290
566.7440, 5441.855
567.9170, 6431.368
569.0910, 7232.824
570.2640, 8138.226
571.4380, 8838.568
572.6110, 9122.854
573.7840, 9232.085
574.9570, 8909.252
576.1290, 8556.365
577.3020, 8237.415
578.4740, 8207.404
579.6460, 8323.332
580.8180, 8611.198
581.9900, 9409.001
583.1620, 10327.74
584.3330, 11550.42
585.5040, 12663.03
586.6760, 13523.58
587.8470, 13868.06
589.0180, 13521.48
590.1880, 12713.83
591.3590, 11045.11
592.5290, 9674.321
593.7000, 8345.467
594.8700, 6720.484
596.0400, 5512.583
597.2090, 4617.541
598.3790, 3691.764
599.5490, 3064.007
600.7180, 2607.366
601.8870, 2197.121
603.0560, 1901.538
604.2250, 1551.364
605.3940, 1617.052
606.5620, 1662.798
607.7300, 1627.679
608.8990, 1724.986
610.0670, 1830.233
611.2350, 2035.420
612.4020, 2167.547
613.5700, 2315.612
614.7370, 2407.617
615.9050, 2366.561
617.0720, 2418.440
618.2390, 2396.259
619.4060, 2202.014
620.5720, 1948.706
621.7390, 1514.334
622.9050, 1171.899
624.0710, 866.3989
625.2370, 615.8350
626.4030, 365.2061
627.5690, 150.5024
628.7340, 73.68604
629.9000, 87.26758
631.0650, 231.4414
632.2300, 211.9116
633.3950, 177.6685
634.5600, 198.6938
635.7240, 58.00049
636.8890, 108.5137
638.0530, 67.73926
639.2170, 238.8486
640.3810, 212.8608
641.5450, 332.7720
642.7080, 342.5991
643.8720, 340.3447
645.0350, 326.7412
646.1980, 162.5874
647.3610, 198.0513
648.5240, 115.4097
649.6870, 20.63867
650.8490, 1.298340
652.0120, 66.97510
653.1740, 18.92090
654.3360, 123.3804
655.4980, 54.37939
656.6600, 30.16162
657.8210, 56.24951
658.9830, 135.6421
660.1440, 269.4932
661.3050, 355.0137
662.4660, 563.1416
663.6270, 781.1226
664.7870, 1060.149
665.9480, 1396.231
667.1080, 2182.479
668.2680, 2639.662
669.4280, 3368.781
670.5880, 4496.836
671.7480, 5404.828
672.9070, 6453.756
674.0670, 7647.623
675.2260, 8339.425
676.3850, 8645.165
677.5440, 8426.841
678.7030, 7866.456
679.8610, 7082.008
681.0200, 6304.499
682.1780, 5371.929
683.3360, 4663.296
684.4940, 3993.604
685.6520, 3408.853
686.8090, 3157.273
687.9670, 3010.476
689.1240, 2845.354
690.2810, 2834.214
691.4380, 3017.093
692.5950, 3267.783
693.7520, 3639.032
694.9080, 4072.916
696.0650, 4707.057
697.2210, 5572.848
698.3770, 6713.128
699.5330, 7781.812
700.6880, 9667.578
701.8440, 11514.95
702.9990, 14237.26
704.1550, 17132.50
705.3100, 21235.69
706.4650, 25921.81
707.6190, 30910.86
708.7740, 36643.86
709.9290, 42149.79
711.0830, 47336.66
712.2370, 50583.48
713.3910, 51761.23
714.5450, 50860.92
715.6980, 47853.55
716.8520, 42842.13
718.0050, 37437.65
719.1580, 32065.11
720.3110, 27042.51
721.4640, 22191.85
722.6170, 18417.14
723.7700, 15073.38
724.9220, 12313.55
726.0740, 10400.68
727.2260, 8571.746
728.3780, 7325.763
729.5300, 6278.724
730.6810, 5399.635
731.8330, 4682.494
732.9840, 4110.299
734.1350, 3551.082
735.2860, 3177.861
736.4370, 2930.677
737.5880, 2635.547
738.7380, 2371.877
739.8880, 2128.500
741.0390, 1931.603
742.1890, 1809.776
743.3380, 1691.039
744.4880, 1679.379
745.6380, 1599.738
746.7870, 1585.085
747.9360, 1579.388
749.0850, 1626.648
750.2340, 1521.864
751.3830, 1705.039
752.5310, 1769.171
753.6800, 2104.262
754.8280, 2330.313
755.9760, 2687.324
757.1240, 3043.296
758.2720, 3563.229
759.4190, 4089.124
760.5670, 4706.982
761.7140, 5589.803
762.8610, 6255.589
764.0080, 6901.339
765.1550, 7429.141
766.3020, 7603.959
767.4480, 7609.010
768.5950, 7369.647
769.7410, 6711.152
770.8870, 6026.810
772.0330, 5370.550
773.1780, 4836.917
774.3240, 4139.066
775.4690, 3449.005
776.6140, 2931.304
777.7590, 2469.677
778.9040, 2076.483
780.0490, 1680.315
781.1940, 1442.249
782.3380, 1080.135
783.4820, 840.8315
784.6260, 827.2808
785.7700, 551.6841
786.9140, 486.5991
788.0580, 414.4346
789.2010, 371.9009
790.3450, 8.250977
791.4880, 59.59619
792.6310, 78.59961
793.7730, 80.65039
794.9160, 112.2041
796.0590, 182.6299
797.2010, 208.8662
798.3430, 172.4175
799.4850, 192.6206
800.6270, 22.40820
801.7690, 50.85938
802.9100, 229.1597
804.0520, 358.4727
805.1930, 670.7959
806.3340, 964.1294
807.4750, 1255.476
808.6160, 1747.834
809.7560, 2119.206
810.8970, 2383.591
812.0370, 2461.991
813.1770, 2423.406
814.3170, 2192.836
815.4570, 1776.283
816.5960, 1557.747
817.7360, 1042.229
818.8750, 610.7295
820.0140, 433.2495
821.1530, 143.7896
822.2920, 18.34961
823.4310, 99.07080
824.5690, 243.4985
825.7070, 268.0005
826.8460, 292.5762
827.9840, 328.2383
829.1220, 466.9951
830.2590, 320.9258
831.3970, 401.9492
832.5340, 317.9834
833.6710, 264.3906
834.8080, 167.7417
835.9450, 135.1211
837.0820, 115.5151
838.2190, 93.08545
839.3550, 57.71729
840.4910, 138.3799
841.6270, 366.0742
842.7630, 525.8027
843.8990, 583.5630
845.0350, 792.3584
846.1700, 1008.189
847.3060, 1202.055
848.4410, 1236.957
849.5760, 1410.896
850.7100, 1321.873
851.8450, 1362.888
852.9800, 1209.942
854.1140, 1113.036
855.2480, 1067.170
856.3820, 982.3447
857.5160, 806.5615
858.6500, 816.8203
859.7830, 845.1221
860.9170, 742.1465
862.0500, 568.8569
863.1830, 669.2915
864.3160, 712.7715
865.4480, 736.2979
866.5810, 918.8706
867.7130, 1010.490
868.8460, 897.1597
869.9780, 1056.876
871.1100, 1323.642
872.2410, 1309.460
873.3730, 1590.328
874.5050, 1819.248
875.6360, 2011.217
876.7670, 2271.237
877.8980, 2451.307
879.0290, 2840.426
880.1590, 3141.536
881.2900, 3617.580
882.4200, 3992.104
883.5500, 4680.439
884.6800, 5381.856
885.8100, 5959.334
886.9400, 7080.877
888.0690, 8018.477
889.1990, 9445.135
890.3280, 10779.88
891.4570, 12362.71
892.5860, 14185.61
893.7140, 16391.58
894.8430, 18666.62
895.9710, 19950.73
897.1000, 21471.90
898.2280, 22695.15
899.3560, 23436.48
900.4830, 23482.91
901.6110, 23601.45
902.7380, 23364.12
903.8660, 22894.88
904.9930, 22321.82
906.1200, 21892.98
907.2460, 21464.37
908.3730, 20680.93
909.5000, 19908.70
910.6260, 18568.63
911.7520, 17284.74
912.8780, 15941.00
914.0040, 14310.37
915.1290, 12869.88
916.2550, 11586.46
917.3800, 10236.14
918.5050, 9471.915
919.6300, 8523.786
920.7550, 7946.746
921.8800, 7538.808
923.0040, 7038.967
924.1290, 6995.264
925.2530, 6998.697
926.3770, 6895.524
927.5010, 6957.271
928.6250, 6803.030
929.7480, 6900.143
930.8720, 6553.844
931.9950, 6320.725
933.1180, 6032.321
934.2410, 5638.275
935.3640, 5457.261
936.4860, 5128.934
937.6090, 5091.686
938.7310, 5160.514
939.8530, 5305.422
940.9750, 5565.401
942.0970, 5963.453
943.2180, 6430.576
944.3400, 7063.586
945.4610, 7835.067
946.5820, 8679.421
947.7030, 9596.849
948.8240, 10735.35
949.9450, 11571.95
951.0650, 12326.63
952.1860, 13047.38
953.3060, 13762.21
954.4260, 14578.11
955.5460, 15063.10
956.6650, 15855.18
957.7850, 16956.33
958.9040, 18133.28
960.0230, 19366.56
961.1420, 20577.62
962.2610, 21453.43
963.3800, 21689.35
964.4990, 21677.35
965.6170, 20976.13
966.7350, 20313.38
967.8530, 19402.78
968.9710, 18639.53
970.0890, 18339.82
971.2070, 18435.27
972.3240, 18689.55
973.4410, 19670.81
974.5580, 20821.13
975.6750, 22334.54
976.7920, 23881.04
977.9090, 25176.62
979.0250, 26067.29
980.1410, 26005.03
981.2580, 25899.86
982.3740, 25767.76
983.4890, 24992.75
984.6050, 24668.82
985.7200, 24437.97
986.8360, 24489.21
987.9510, 24721.51
989.0660, 24835.90
990.1810, 25301.37
991.2950, 25314.91
992.4100, 25365.54
993.5240, 25037.25
994.6390, 24956.04
995.7530, 24974.90
996.8660, 25468.85
997.9800, 26269.87
999.0940, 26947.96
1000.207, 28157.14
1001.320, 29355.39
1002.433, 30188.72
1003.546, 30708.12
1004.659, 30527.60
1005.772, 29880.56
1006.884, 27987.19
1007.996, 25748.11
1009.108, 22929.88
1010.220, 20154.74
1011.332, 17604.66
1012.444, 15042.66
1013.555, 12877.73
1014.666, 11081.84
1015.777, 9618.610
1016.888, 8249.896
1017.999, 7217.383
1019.110, 6387.779
1020.220, 5831.465
1021.331, 5418.161
1022.441, 5258.844
1023.551, 4953.124
1024.661, 4729.903
1025.770, 4548.724
1026.880, 4423.092
1027.989, 4016.656
1029.098, 3766.604
1030.207, 3499.523
1031.316, 3028.342
1032.425, 2747.779
1033.533, 2356.872
1034.642, 2113.789
1035.750, 1810.521
1036.858, 1718.304
1037.966, 1425.439
1039.073, 1497.335
1040.181, 1456.366
1041.288, 1224.349
1042.396, 1160.697
1043.503, 1152.905
1044.610, 1217.010
1045.716, 1026.908
1046.823, 1099.903
1047.929, 1071.214
1049.036, 1141.725
1050.142, 1114.329
1051.248, 1149.634
1052.353, 1067.055
1053.459, 1137.339
1054.564, 1116.373
1055.670, 1126.932
1056.775, 1121.114
1057.880, 933.3853
1058.985, 924.0386
1060.089, 854.5928
1061.194, 864.0498
1062.298, 829.8398
1063.402, 700.2280
1064.506, 535.9209
1065.610, 489.0928
1066.713, 288.6274
1067.817, 328.1606
1068.920, 212.1694
1070.023, 302.8364
1071.126, 236.0039
1072.229, 242.3218
1073.332, 272.6021
1074.435, 241.5449
1075.537, 329.1758
1076.639, 594.6694
1077.741, 490.0903
1078.843, 756.6743
1079.945, 843.4556
1081.046, 849.6572
1082.148, 993.5967
1083.249, 932.0156
1084.350, 956.8706
1085.451, 927.1924
1086.551, 894.8901
1087.652, 824.0049
1088.752, 838.8076
1089.853, 817.6470
1090.953, 786.8374
1092.053, 878.6904
1093.152, 976.9019
1094.252, 894.9492
1095.351, 1104.230
1096.451, 1257.092
1097.550, 1573.910
1098.649, 1788.473
1099.748, 2024.160
1100.846, 2285.149
1101.945, 2521.083
1103.043, 2723.955
1104.141, 2859.720
1105.239, 3009.329
1106.337, 2990.201
1107.434, 2970.189
1108.532, 2838.311
1109.629, 2668.849
1110.726, 2499.867
1111.823, 2301.528
1112.920, 2128.983
1114.017, 1963.456
1115.113, 1650.254
1116.210, 1484.611
1117.306, 1355.580
1118.402, 1225.295
1119.498, 1201.900
1120.593, 1102.479
1121.689, 1032.487
1122.784, 985.0552
1123.879, 944.6782
1124.974, 885.5552
1126.069, 653.0825
1127.164, 604.7632
1128.259, 384.5625
1129.353, 324.4463
1130.447, 197.3032
1131.541, 256.0562
1132.635, 224.7388
1133.729, 185.3462
1134.822, 194.9570
1135.916, 126.6953
1137.009, 22.87695
1138.102, 44.68066
1139.195, 12.15918
1140.288, 98.72217
1141.380, 11.74658
1142.473, 23.03320
1143.565, 51.04541
1144.657, 38.11523
1145.749, 36.69580
1146.841, 51.52393
1147.932, 14.85840
1149.024, 149.6514
1150.115, 32.11377
1151.206, 79.77539
1152.297, 1.558594
1153.388, 30.32520
1154.479, 111.2959
1155.569, 147.3633
1156.659, 80.65283
1157.750, 33.90479
1158.839, 85.19873
1159.929, 18.66504
1161.019, 15.16846
1162.108, 94.53271
1163.198, 53.09326
1164.287, 155.6836
1165.376, 165.4170
1166.465, 127.2705
1167.553, 13.29492
1168.642, 127.1621
1169.730, 136.1089
1170.818, 198.8369
1171.906, 19.72314
1172.994, 134.1143
1174.082, 65.18555
1175.170, 76.58350
1176.257, 166.0479
1177.344, 116.9424
1178.431, 135.1895
1179.518, 7.661133
1180.605, 70.84229
1181.691, 31.64844
1182.778, 46.89453
1183.864, 75.07812
1184.950, 19.65771
1186.036, 57.62256
1187.122, 32.98193
1188.207, 0.1469730
1189.292, 99.47217
1190.378, 16.97021
1191.463, 45.16602
1192.548, 88.53662
1193.632, 56.85498
1194.717, 26.74512
1195.801, 20.76318
1196.886, 0.5273440
1197.970, 28.51270
1199.054, 35.31641
1200.137, 81.38721
1201.221, 65.06885
1202.305, 36.75781
1203.388, 146.2681
1204.471, 85.61865
1205.554, 110.8760
1206.637, 22.08350
1207.719, 154.3896
1208.802, 136.4717
1209.884, 71.51172
1210.966, 97.57959
1212.048, 9.500000
1213.130, 61.32080
1214.212, 135.0752
1215.293, 106.7759
1216.374, 92.41797
1217.456, 54.05176
1218.536, 2.557129
1219.617, 164.9653
1220.698, 134.3198
1221.778, 176.0752
1222.859, 94.70264
1223.939, 176.2422
1225.019, 160.8066
1226.099, 126.8701
1227.178, 139.1948
1228.258, 170.1318
1229.337, 170.0098
1230.417, 153.0278
1231.496, 165.3013
1232.574, 178.2544
1233.653, 197.6328
