##NAMES=Axinite-(Fe)
##RRUFFID=R060194
##IDEAL CHEMISTRY=Ca_4_Fe^2+^_2_Al_4_[B_2_Si_8_O_30_](OH)_2_
##LOCALITY=near Dalbandi, Baluchistan Province, Pakistan
##OWNER=RRUFF
##SOURCE=Herbert Obodda
##DESCRIPTION=Brown transparent wedge-shaped single crystal
##STATUS=The identification of this mineral has been confirmed by X-ray diffraction and chemical analysis
##URL=rruff.info/R060194
##MEASURED CHEMISTRY=Ca_2.00_(Fe^2+^_0.66_Mg_0.30_Mn_0.04_)Al_2.00_BSi_4.00_O_15_(OH)
##PIN_ID=L01072
##ORIENTATION=Laser parallel to -c* (0 0 -1). Fiducial mark perpendicular to laser is parallel to a [1 0 0]
53.91000, 0.0000000E+00
55.14900, 45.24707
56.38700, 115.8068
57.62600, 188.7046
58.86400, 251.4214
60.10300, 324.6068
61.34100, 434.7118
62.57900, 346.5038
63.81700, 241.8495
65.05400, 333.4756
66.29200, 161.8855
67.52900, 36.76636
68.76700, 12.08649
70.00400, 65.62488
71.24100, 192.1675
72.47700, 102.5143
73.71400, 89.52734
74.95100, 206.1650
76.18700, 154.6094
77.42300, 4.951050
78.65900, 45.34546
79.89500, 31.41992
81.13100, 50.03638
82.36700, 205.0737
83.60200, 303.4238
84.83700, 689.9910
86.07200, 1080.689
87.30800, 1094.442
88.54200, 1309.181
89.77700, 1722.845
91.01200, 2167.375
92.24600, 2557.669
93.48000, 3480.601
94.71400, 3970.049
95.94800, 4609.909
97.18200, 5636.113
98.41600, 6841.235
99.64900, 8579.437
100.8830, 9673.461
102.1160, 10868.67
103.3490, 12032.04
104.5820, 13260.53
105.8150, 14595.11
107.0470, 16526.77
108.2800, 19008.48
109.5120, 22496.22
110.7440, 23571.00
111.9760, 20289.78
113.2080, 16454.56
114.4400, 13350.32
115.6710, 11044.04
116.9030, 9699.730
118.1340, 8671.359
119.3650, 7762.927
120.5960, 6849.418
121.8270, 6099.837
123.0580, 5680.178
124.2880, 5209.430
125.5190, 4884.582
126.7490, 4321.620
127.9790, 3725.397
129.2090, 3403.479
130.4390, 3297.834
131.6680, 3386.427
132.8980, 3376.234
134.1270, 3705.229
135.3560, 3954.333
136.5850, 4692.693
137.8140, 5415.379
139.0430, 6427.433
140.2710, 7333.254
141.5000, 8227.860
142.7280, 8590.019
143.9560, 8541.614
145.1840, 8306.629
146.4120, 8133.072
147.6390, 8275.953
148.8670, 8964.290
150.0940, 9637.098
151.3210, 10424.39
152.5490, 11255.17
153.7750, 11617.45
155.0020, 10721.23
156.2290, 9906.514
157.4550, 8740.312
158.6810, 7847.630
159.9080, 6902.469
161.1340, 6550.837
162.3590, 6354.736
163.5850, 6588.172
164.8110, 7089.139
166.0360, 7752.638
167.2610, 8821.663
168.4860, 9770.216
169.7110, 11206.29
170.9360, 12385.89
172.1610, 13661.01
173.3850, 14053.64
174.6100, 13245.79
175.8340, 12075.45
177.0580, 10148.62
178.2820, 8271.297
179.5050, 6554.476
180.7290, 4912.159
181.9520, 3807.337
183.1760, 2988.012
184.3990, 2728.179
185.6220, 2757.885
186.8450, 2834.167
188.0670, 3356.149
189.2900, 3927.439
190.5120, 4615.784
191.7340, 5789.303
192.9560, 6897.283
194.1780, 8352.722
195.4000, 9528.611
196.6220, 10030.95
197.8430, 9305.741
199.0640, 8772.970
200.2860, 8737.642
201.5070, 9257.479
202.7270, 10750.96
203.9480, 12302.18
205.1690, 13892.01
206.3890, 14997.66
207.6090, 15905.94
208.8290, 16389.52
210.0490, 16295.57
211.2690, 15641.13
212.4890, 14817.75
213.7080, 13964.74
214.9280, 13212.54
216.1470, 12317.20
217.3660, 11218.15
218.5850, 10678.08
219.8030, 9651.612
221.0220, 8823.721
222.2400, 7138.037
223.4590, 5811.396
224.6770, 4488.447
225.8950, 3279.892
227.1120, 2299.631
228.3300, 1582.807
229.5480, 1038.070
230.7650, 648.0703
231.9820, 368.3818
233.1990, 270.3438
234.4160, 223.1709
235.6330, 253.4561
236.8490, 466.1992
238.0660, 905.4600
239.2820, 1423.279
240.4980, 1964.664
241.7140, 2393.604
242.9300, 2685.110
244.1460, 2894.164
245.3610, 2930.781
246.5770, 3297.934
247.7920, 3375.594
249.0070, 3615.715
250.2220, 4117.252
251.4370, 4577.195
252.6510, 5331.533
253.8660, 6208.308
255.0800, 7128.489
256.2940, 7717.098
257.5080, 8376.184
258.7220, 8524.698
259.9360, 8875.672
261.1490, 9193.106
262.3630, 8958.000
263.5760, 9604.332
264.7890, 10703.09
266.0020, 12319.29
267.2150, 13941.94
268.4270, 15521.04
269.6400, 17234.59
270.8520, 18764.49
272.0640, 20073.72
273.2760, 20886.28
274.4880, 21143.13
275.7000, 20487.29
276.9120, 19602.77
278.1230, 17839.54
279.3340, 15873.63
280.5450, 14185.02
281.7560, 12128.72
282.9670, 10374.72
284.1780, 9124.021
285.3880, 8444.630
286.5980, 8038.538
287.8090, 7982.744
289.0190, 7601.243
290.2290, 7942.035
291.4380, 8233.120
292.6480, 8580.493
293.8570, 8996.154
295.0670, 9537.105
296.2760, 10081.34
297.4850, 10671.65
298.6930, 11318.63
299.9020, 11930.73
301.1110, 12630.09
302.3190, 13309.71
303.5270, 14076.62
304.7350, 14809.79
305.9430, 15583.24
307.1510, 16366.95
308.3580, 16580.93
309.5660, 16323.17
310.7730, 15360.67
311.9800, 14690.42
313.1870, 13626.44
314.3940, 13033.83
315.6010, 13262.47
316.8070, 14029.24
318.0130, 15125.61
319.2200, 16523.22
320.4260, 16913.31
321.6310, 16266.94
322.8370, 14903.79
324.0430, 12829.01
325.2480, 10931.46
326.4540, 9208.140
327.6590, 8095.048
328.8640, 7270.186
330.0680, 7111.547
331.2730, 6936.133
332.4780, 6942.938
333.6820, 6795.961
334.8860, 7129.195
336.0900, 7793.643
337.2940, 8645.302
338.4980, 10195.17
339.7010, 11729.24
340.9050, 13841.51
342.1080, 16554.99
343.3110, 19187.67
344.5140, 21159.54
345.7170, 22127.63
346.9200, 22001.96
348.1220, 20265.57
349.3240, 18298.45
350.5270, 16975.61
351.7290, 16054.06
352.9310, 15009.79
354.1320, 13975.80
355.3340, 12338.09
356.5350, 9951.645
357.7370, 7390.478
358.9380, 5333.589
360.1390, 3430.992
361.3400, 2046.679
362.5400, 1119.623
363.7410, 400.8232
364.9410, 130.7266
366.1410, 353.0283
367.3410, 539.1045
368.5410, 716.0166
369.7410, 548.8359
370.9400, 699.5195
372.1400, 466.1133
373.3390, 284.5439
374.5380, 136.7656
375.7370, 38.72656
376.9360, 59.42480
378.1350, 236.1611
379.3330, 574.0234
380.5310, 1056.069
381.7300, 1748.844
382.9280, 2982.002
384.1260, 4247.335
385.3230, 5705.144
386.5210, 7522.937
387.7180, 9364.572
388.9160, 11407.25
390.1130, 12887.03
391.3100, 13803.85
392.5060, 13795.73
393.7030, 12558.89
394.9000, 10792.89
396.0960, 8884.881
397.2920, 7053.043
398.4880, 5385.168
399.6840, 4446.783
400.8800, 3732.084
402.0750, 3358.922
403.2710, 2945.525
404.4660, 2862.043
405.6610, 2788.138
406.8560, 2971.225
408.0510, 3320.027
409.2450, 3883.795
410.4400, 5063.325
411.6340, 6520.362
412.8280, 8317.361
414.0220, 10522.92
415.2160, 13697.07
416.4100, 17287.50
417.6030, 20572.05
418.7970, 23694.75
419.9900, 24288.57
421.1830, 22785.51
422.3760, 20452.59
423.5690, 18988.78
424.7610, 18847.10
425.9540, 18363.53
427.1460, 18574.09
428.3380, 18476.77
429.5300, 17695.56
430.7220, 16542.46
431.9140, 14483.48
433.1050, 12332.61
434.2970, 10170.84
435.4880, 8373.185
436.6790, 6944.634
437.8700, 6049.186
439.0610, 5702.840
440.2510, 5735.595
441.4420, 6782.449
442.6320, 7768.400
443.8220, 9176.447
445.0120, 10395.59
446.2020, 10683.82
447.3910, 9867.144
448.5810, 7955.557
449.7700, 6034.057
450.9600, 3999.643
452.1490, 2666.314
453.3370, 1517.067
454.5260, 998.9023
455.7150, 355.8164
456.9030, 14.80762
458.0910, 95.14258
459.2800, 150.9287
460.4670, 236.9268
461.6550, 232.8213
462.8430, 142.7529
464.0300, 122.6914
465.2180, 39.36621
466.4050, 214.4736
467.5920, 574.6465
468.7790, 804.8818
469.9650, 1085.178
471.1520, 1603.536
472.3380, 2039.951
473.5250, 2418.424
474.7110, 2926.952
475.8970, 3197.535
477.0820, 4178.171
478.2680, 5355.857
479.4540, 6850.594
480.6390, 8807.383
481.8240, 11062.22
483.0090, 13695.09
484.1940, 15953.02
485.3780, 17704.99
486.5630, 18490.00
487.7470, 17373.05
488.9320, 14828.14
490.1160, 10912.26
491.3000, 7737.014
492.4830, 5338.195
493.6670, 3703.834
494.8500, 2760.330
496.0340, 2146.712
497.2170, 1872.027
498.4000, 1710.367
499.5820, 1929.730
500.7650, 2158.115
501.9480, 2429.521
503.1300, 2716.944
504.3120, 3194.383
505.4940, 3593.837
506.6760, 3880.303
507.8580, 4104.348
509.0390, 4356.145
510.2210, 4424.964
511.4020, 4318.228
512.5830, 4211.682
513.7640, 3665.395
514.9450, 3180.936
516.1250, 2561.693
517.3060, 2068.092
518.4860, 1307.436
519.6660, 872.4414
520.8460, 516.1738
522.0260, 171.6943
523.2060, 136.4492
524.3850, 338.2207
525.5650, 383.2422
526.7440, 365.3115
527.9230, 424.5674
529.1020, 362.0596
530.2810, 456.8359
531.4590, 347.9492
532.6380, 255.3506
533.8160, 77.99707
534.9940, 92.19434
536.1720, 132.3018
537.3500, 173.4756
538.5270, 18.69336
539.7050, 61.13086
540.8820, 29.15625
542.0590, 221.6006
543.2360, 70.30078
544.4130, 181.1855
545.5900, 220.3135
546.7660, 191.7041
547.9430, 168.3477
549.1190, 89.17773
550.2950, 202.1729
551.4710, 192.3740
552.6470, 280.7510
553.8220, 206.3877
554.9980, 109.7871
556.1730, 269.9248
557.3480, 506.0576
558.5230, 836.2109
559.6980, 1252.397
560.8730, 1490.566
562.0470, 2016.719
563.2220, 2346.821
564.3960, 2601.875
565.5700, 2852.875
566.7440, 3168.824
567.9170, 3381.719
569.0910, 4101.560
570.2640, 4925.344
571.4380, 5387.072
572.6110, 6129.744
573.7840, 6631.356
574.9570, 6777.910
576.1290, 6743.405
577.3020, 6237.839
578.4740, 5755.211
579.6460, 5169.521
580.8180, 4916.771
581.9900, 4750.152
583.1620, 4599.070
584.3330, 4878.123
585.5040, 5375.109
586.6760, 5863.027
587.8470, 6681.879
589.0180, 7139.662
590.1880, 7804.375
591.3590, 7666.020
592.5290, 7271.591
593.7000, 6329.092
594.8700, 5257.520
596.0400, 4109.873
597.2090, 3230.155
598.3790, 2471.242
599.5490, 1875.257
600.7180, 1652.313
601.8870, 1276.944
603.0560, 1203.502
604.2250, 1104.747
605.3940, 1156.621
606.5620, 1236.434
607.7300, 1743.037
608.8990, 1911.564
610.0670, 2342.015
611.2350, 2821.388
612.4020, 3283.682
613.5700, 3976.896
614.7370, 4547.033
615.9050, 5038.088
617.0720, 5274.065
618.2390, 5493.958
619.4060, 5535.772
620.5720, 5395.504
621.7390, 5108.152
622.9050, 4621.719
624.0710, 3641.203
625.2370, 2855.602
626.4030, 2120.917
627.5690, 1498.147
628.7340, 1083.292
629.9000, 751.3516
631.0650, 580.3252
632.2300, 495.1963
633.3950, 472.9502
634.5600, 544.5859
635.7240, 631.1104
636.8890, 847.4951
638.0530, 1174.873
639.2170, 1453.122
640.3810, 1811.282
641.5450, 2255.354
642.7080, 2521.337
643.8720, 2673.230
645.0350, 2747.123
646.1980, 2706.328
647.3610, 2533.371
648.5240, 2307.914
649.6870, 1951.395
650.8490, 1446.027
652.0120, 1188.370
653.1740, 856.1865
654.3360, 550.8457
655.4980, 466.6641
656.6600, 241.8574
657.8210, 321.6797
658.9830, 176.4326
660.1440, 265.5312
661.3050, 324.2715
662.4660, 434.3994
663.6270, 651.3535
664.7870, 827.2920
665.9480, 1093.511
667.1080, 1473.408
668.2680, 2047.972
669.4280, 2474.773
670.5880, 3107.113
671.7480, 4017.451
672.9070, 4749.845
674.0670, 5646.270
675.2260, 6513.502
676.3850, 7403.992
677.5440, 7751.581
678.7030, 7677.086
679.8610, 7447.709
681.0200, 6420.926
682.1780, 5266.541
683.3360, 4340.699
684.4940, 3539.986
685.6520, 2749.797
686.8090, 2294.926
687.9670, 1920.012
689.1240, 1736.910
690.2810, 1599.950
691.4380, 1591.035
692.5950, 1660.883
693.7520, 1819.064
694.9080, 2144.676
696.0650, 2510.057
697.2210, 3041.993
698.3770, 3723.533
699.5330, 4459.906
700.6880, 5475.255
701.8440, 6798.312
702.9990, 8352.292
704.1550, 10419.19
705.3100, 13143.01
706.4650, 16299.75
707.6190, 20018.42
708.7740, 24475.00
709.9290, 29068.51
711.0830, 34105.93
712.2370, 38784.29
713.3910, 42336.57
714.5450, 44636.77
715.6980, 44374.89
716.8520, 41341.93
718.0050, 36997.91
719.1580, 31568.81
720.3110, 26313.64
721.4640, 21111.39
722.6170, 17268.06
723.7700, 14043.67
724.9220, 11254.20
726.0740, 9153.658
727.2260, 7630.043
728.3780, 6540.360
729.5300, 5267.606
730.6810, 4449.781
731.8330, 3919.884
732.9840, 3284.919
734.1350, 2948.885
735.2860, 2534.782
736.4370, 2074.612
737.5880, 1785.385
738.7380, 1668.117
739.8880, 1596.782
741.0390, 1439.438
742.1890, 1319.483
743.3380, 1157.700
744.4880, 1059.289
745.6380, 1011.822
746.7870, 943.2920
747.9360, 931.3291
749.0850, 971.0469
750.2340, 951.3320
751.3830, 1068.558
752.5310, 1123.723
753.6800, 1381.828
754.8280, 1457.876
755.9760, 1838.866
757.1240, 2087.799
758.2720, 2532.676
759.4190, 2905.496
760.5670, 3497.262
761.7140, 4010.973
762.8610, 4620.629
764.0080, 5191.234
765.1550, 6011.788
766.3020, 6408.288
767.4480, 6650.740
768.5950, 6689.141
769.7410, 6363.904
770.8870, 6045.224
772.0330, 5428.070
773.1780, 5018.047
774.3240, 4189.120
775.4690, 3720.242
776.6140, 3082.320
777.7590, 2501.356
778.9040, 1912.351
780.0490, 1685.305
781.1940, 1393.219
782.3380, 1113.092
783.4820, 898.9287
784.6260, 682.7266
785.7700, 477.4883
786.9140, 359.2139
788.0580, 289.9033
789.2010, 36.55566
790.3450, 44.12695
791.4880, 56.37793
792.6310, 206.7070
793.7730, 233.9502
794.9160, 204.1963
796.0590, 226.3271
797.2010, 257.4131
798.3430, 387.7461
799.4850, 391.0264
800.6270, 358.8086
801.7690, 373.1846
802.9100, 350.5869
804.0520, 291.2227
805.1930, 223.9355
806.3340, 84.32715
807.4750, 261.7002
808.6160, 516.2158
809.7560, 638.8477
810.8970, 895.5762
812.0370, 1092.360
813.1770, 1402.161
814.3170, 1383.973
815.4570, 1321.789
816.5960, 1267.655
817.7360, 1105.551
818.8750, 784.5010
820.0140, 533.5547
821.1530, 262.6768
822.2920, 101.8945
823.4310, 88.22070
824.5690, 207.3506
825.7070, 153.9365
826.8460, 221.5293
827.9840, 332.1309
829.1220, 188.7988
830.2590, 336.4336
831.3970, 347.1289
832.5340, 291.9609
833.6710, 259.9219
834.8080, 322.0117
835.9450, 127.2588
837.0820, 148.5625
838.2190, 51.07324
839.3550, 170.7139
840.4910, 258.3594
841.6270, 319.0117
842.7630, 552.6729
843.8990, 957.3408
845.0350, 1067.020
846.1700, 1232.707
847.3060, 1299.407
848.4410, 1634.117
849.5760, 1950.840
850.7100, 2131.576
851.8450, 2375.327
852.9800, 2338.092
854.1140, 2482.872
855.2480, 2329.671
856.3820, 2241.482
857.5160, 2314.315
858.6500, 2144.166
859.7830, 1968.037
860.9170, 2225.927
862.0500, 2078.839
863.1830, 2160.771
864.3160, 2013.727
865.4480, 2086.706
866.5810, 2195.709
867.7130, 2057.736
868.8460, 2071.789
869.9780, 2178.869
871.1100, 2262.977
872.2410, 2153.136
873.3730, 2233.323
874.5050, 2351.541
875.6360, 2584.797
876.7670, 2489.083
877.8980, 2685.407
879.0290, 2854.764
880.1590, 3064.158
881.2900, 3118.597
882.4200, 3374.067
883.5500, 3572.574
884.6800, 3841.144
885.8100, 3995.754
886.9400, 4260.405
888.0690, 4756.125
889.1990, 5256.127
890.3280, 6073.752
891.4570, 6730.641
892.5860, 7648.576
893.7140, 8773.557
894.8430, 9711.615
895.9710, 11136.74
897.1000, 12424.92
898.2280, 13846.13
899.3560, 14733.43
900.4830, 16063.83
901.6110, 17027.29
902.7380, 18056.80
903.8660, 18866.40
904.9930, 19847.08
906.1200, 20534.84
907.2460, 21361.68
908.3730, 21738.63
909.5000, 22201.67
910.6260, 21396.79
911.7520, 20517.03
912.8780, 19550.38
914.0040, 17893.77
915.1290, 16151.26
916.2550, 14049.81
917.3800, 12021.43
918.5050, 10618.11
919.6300, 9164.865
920.7550, 8168.699
921.8800, 7070.604
923.0040, 6383.588
924.1290, 5805.453
925.2530, 5663.658
926.3770, 5375.420
927.5010, 5358.379
928.6250, 5284.172
929.7480, 5413.555
930.8720, 5484.232
931.9950, 5455.905
933.1180, 5591.142
934.2410, 5547.657
935.3640, 5491.418
936.4860, 5339.612
937.6090, 5264.236
938.7310, 5409.615
939.8530, 5517.026
940.9750, 5864.973
942.0970, 6307.053
943.2180, 6677.732
944.3400, 7341.486
945.4610, 8146.313
946.5820, 9438.229
947.7030, 10326.24
948.8240, 11788.33
949.9450, 13493.52
951.0650, 14881.79
952.1860, 16412.14
953.3060, 17897.56
954.4260, 19454.07
955.5460, 21091.65
956.6650, 22659.34
957.7850, 24543.12
958.9040, 26667.98
960.0230, 29439.04
961.1420, 32085.72
962.2610, 34846.45
963.3800, 37866.53
964.4990, 39534.91
965.6170, 40397.31
966.7350, 39980.35
967.8530, 38103.12
968.9710, 35793.21
970.0890, 32745.71
971.2070, 30393.37
972.3240, 28639.07
973.4410, 27519.07
974.5580, 27311.16
975.6750, 27915.32
976.7920, 29665.59
977.9090, 31149.94
979.0250, 32687.37
980.1410, 33897.89
981.2580, 34275.50
982.3740, 33807.18
983.4890, 32505.96
984.6050, 30716.83
985.7200, 28744.77
986.8360, 27432.83
987.9510, 26508.97
989.0660, 25778.19
990.1810, 26111.50
991.2950, 25850.89
992.4100, 26491.36
993.5240, 26206.92
994.6390, 26343.56
995.7530, 26120.29
996.8660, 26055.09
997.9800, 26343.98
999.0940, 26563.96
1000.207, 27022.04
1001.320, 27918.20
1002.433, 28242.45
1003.546, 28460.79
1004.659, 28669.20
1005.772, 28440.88
1006.884, 27492.45
1007.996, 25667.11
1009.108, 23292.40
1010.220, 21033.24
1011.332, 18251.40
1012.444, 15642.39
1013.555, 13479.59
1014.666, 11747.81
1015.777, 9867.024
1016.888, 8498.454
1017.999, 7316.910
1019.110, 6168.279
1020.220, 5681.949
1021.331, 5117.646
1022.441, 4756.475
1023.551, 4682.406
1024.661, 4472.883
1025.770, 4758.229
1026.880, 4709.340
1027.989, 4708.158
1029.098, 4707.238
1030.207, 4775.450
1031.316, 4512.738
1032.425, 4200.058
1033.533, 3448.714
1034.642, 3206.429
1035.750, 2766.689
1036.858, 2539.161
1037.966, 2207.207
1039.073, 1971.779
1040.181, 1690.599
1041.288, 1648.135
1042.396, 1641.553
1043.503, 1587.309
1044.610, 1638.888
1045.716, 1436.033
1046.823, 1635.265
1047.929, 1595.850
1049.036, 1800.413
1050.142, 1844.646
1051.248, 1987.553
1052.353, 2124.711
1053.459, 2270.871
1054.564, 2546.595
1055.670, 2548.509
1056.775, 2898.671
1057.880, 2836.718
1058.985, 2781.111
1060.089, 3153.096
1061.194, 2840.178
1062.298, 2946.397
1063.402, 2756.779
1064.506, 2553.277
1065.610, 2436.713
1066.713, 2122.684
1067.817, 1879.922
1068.920, 1740.915
1070.023, 1506.473
1071.126, 1402.917
1072.229, 1388.655
1073.332, 1384.630
1074.435, 1402.216
1075.537, 1523.463
1076.639, 1618.432
1077.741, 1808.662
1078.843, 2256.525
1079.945, 2578.379
1081.046, 2965.464
1082.148, 3437.617
1083.249, 3789.816
1084.350, 3977.180
1085.451, 3918.737
1086.551, 3999.744
1087.652, 3642.908
1088.752, 3164.318
1089.853, 2552.626
1090.953, 2362.912
1092.053, 1920.804
1093.152, 1567.878
1094.252, 1312.613
1095.351, 1361.801
1096.451, 1273.194
1097.550, 1297.770
1098.649, 1332.076
1099.748, 1389.440
1100.846, 1588.088
1101.945, 1661.963
1103.043, 1812.684
1104.141, 2094.199
1105.239, 2274.007
1106.337, 2418.368
1107.434, 2350.898
1108.532, 2536.438
1109.629, 2345.854
1110.726, 2221.189
1111.823, 2167.400
1112.920, 1943.202
1114.017, 1761.271
1115.113, 1472.582
1116.210, 1420.410
1117.306, 1206.446
1118.402, 1135.588
1119.498, 842.5371
1120.593, 800.2432
1121.689, 866.9883
1122.784, 647.0859
1123.879, 572.2432
1124.974, 546.3477
1126.069, 416.4600
1127.164, 541.5498
1128.259, 504.7217
1129.353, 359.7598
1130.447, 257.6436
1131.541, 48.28906
1132.635, 145.6406
1133.729, 115.5762
1134.822, 193.3770
1135.916, 15.17578
1137.009, 177.0264
1138.102, 56.75391
1139.195, 99.82910
1140.288, 74.42773
1141.380, 9.500977
1142.473, 61.60352
1143.565, 9.093750
1144.657, 55.08594
1145.749, 82.94238
1146.841, 56.89258
1147.932, 4.191406
1149.024, 168.4111
1150.115, 40.83203
1151.206, 47.15234
1152.297, 160.5977
1153.388, 174.1338
1154.479, 71.57715
1155.569, 55.70312
1156.659, 73.92969
1157.750, 0.3574220
1158.839, 182.7656
1159.929, 134.5654
1161.019, 40.51855
1162.108, 26.07129
1163.198, 204.7080
1164.287, 189.7793
1165.376, 90.80176
1166.465, 61.04883
1167.553, 110.3457
1168.642, 160.7227
1169.730, 90.11914
1170.818, 87.59082
1171.906, 158.6953
1172.994, 120.9355
1174.082, 58.60547
1175.170, 243.0645
1176.257, 232.3281
1177.344, 43.99316
1178.431, 103.8467
1179.518, 36.18945
1180.605, 43.18945
1181.691, 16.84570
1182.778, 66.77832
1183.864, 47.33984
1184.950, 36.94238
1186.036, 68.39258
1187.122, 20.81543
1188.207, 0.2851560
1189.292, 17.49219
1190.378, 112.6631
1191.463, 163.5996
1192.548, 155.0244
1193.632, 112.4922
1194.717, 146.5176
1195.801, 47.95508
1196.886, 41.69727
1197.970, 10.84961
1199.054, 1.841797
1200.137, 94.00293
1201.221, 46.98730
1202.305, 137.5107
1203.388, 61.10645
1204.471, 67.63770
1205.554, 113.6738
1206.637, 246.7656
1207.719, 141.8057
1208.802, 38.95898
1209.884, 5.898438
1210.966, 93.71777
1212.048, 6.476563
1213.130, 228.1396
1214.212, 45.75000
1215.293, 164.2842
1216.374, 124.1152
1217.456, 121.6582
1218.536, 29.98438
1219.617, 125.6074
1220.698, 45.77832
1221.778, 173.8584
1222.859, 111.8818
1223.939, 69.91211
1225.019, 63.82910
1226.099, 6.609375
1227.178, 119.2744
1228.258, 15.16797
1229.337, 173.6543
1230.417, 159.0986
1231.496, 135.4531
1232.574, 148.8887
1233.653, 124.0957
1234.732, 156.2207
1235.810, 186.2725
