##NAMES=Axinite-(Fe)
##RRUFFID=R060183
##IDEAL CHEMISTRY=Ca_4_Fe^2+^_2_Al_4_[B_2_Si_8_O_30_](OH)_2_
##LOCALITY=Skagit Bluffs, near Manning Park, British Columbia, Canada
##OWNER=RRUFF
##SOURCE=Lloyd Twaites
##DESCRIPTION=Light-pink transparent axe-head-shaped single crystal
##STATUS=The identification of this mineral has been confirmed by X-ray diffraction and chemical analysis
##URL=rruff.info/R060183
##MEASURED CHEMISTRY=Ca_2.00_(Fe^2+^_0.58_Mn_0.23_Mg_0.19_)Al_2.00_B_1.00_Si_4.00_O_15_(OH)
##PIN_ID=L00798
##ORIENTATION=Laser parallel to -b* (0 -1 0). Fiducial mark perpendicular to laser is parallel to -c [0 0 -1]
52.67100, 0.0000000E+00
53.91000, 49.09180
55.14900, 112.0023
56.38700, 112.4443
57.62600, 163.2266
58.86400, 218.6845
60.10300, 297.0727
61.34100, 298.1704
62.57900, 312.2313
63.81700, 206.9187
65.05400, 94.38129
66.29200, 66.07336
67.52900, 3.862427
68.76700, 22.40881
70.00400, 50.43958
71.24100, 55.29456
72.47700, 74.12024
73.71400, 27.13806
74.95100, 10.05029
76.18700, 48.50500
77.42300, 192.9139
78.65900, 216.2815
79.89500, 328.4368
81.13100, 415.2737
82.36700, 631.7007
83.60200, 836.6624
84.83700, 1212.017
86.07200, 1419.776
87.30800, 1781.866
88.54200, 2220.249
89.77700, 2765.890
91.01200, 3534.722
92.24600, 4430.659
93.48000, 5472.619
94.71400, 6344.528
95.94800, 7648.331
97.18200, 8729.646
98.41600, 10041.56
99.64900, 11782.19
100.8830, 13446.49
102.1160, 15150.46
103.3490, 17478.08
104.5820, 20136.35
105.8150, 23669.25
107.0470, 27245.79
108.2800, 30063.95
109.5120, 29677.72
110.7440, 26063.11
111.9760, 21643.10
113.2080, 17305.68
114.4400, 13713.86
115.6710, 10647.63
116.9030, 7881.966
118.1340, 6114.882
119.3650, 4815.377
120.5960, 3874.488
121.8270, 3439.244
123.0580, 3046.646
124.2880, 2865.680
125.5190, 2713.332
126.7490, 2613.496
127.9790, 2562.867
129.2090, 2661.632
130.4390, 2813.128
131.6680, 3087.983
132.8980, 3436.964
134.1270, 4026.154
135.3560, 4576.257
136.5850, 5579.595
137.8140, 6640.149
139.0430, 7787.026
140.2710, 7790.219
141.5000, 7689.895
142.7280, 7518.455
143.9560, 7367.861
145.1840, 7513.995
146.4120, 7389.877
147.6390, 7840.389
148.8670, 8160.241
150.0940, 8263.436
151.3210, 7875.978
152.5490, 7543.865
153.7750, 6882.100
155.0020, 6610.682
156.2290, 6362.613
157.4550, 6267.887
158.6810, 6195.512
159.9080, 5941.483
161.1340, 6125.799
162.3590, 6529.460
163.5850, 7068.461
164.8110, 8079.806
166.0360, 9182.493
167.2610, 10506.52
168.4860, 12169.88
169.7110, 13417.58
170.9360, 14144.60
172.1610, 13993.96
173.3850, 13263.65
174.6100, 12125.66
175.8340, 10377.00
177.0580, 8962.658
178.2820, 7389.635
179.5050, 6047.936
180.7290, 4826.554
181.9520, 3844.490
183.1760, 3388.765
184.3990, 2846.568
185.6220, 2678.141
186.8450, 2596.619
188.0670, 2818.060
189.2900, 3156.329
190.5120, 3915.072
191.7340, 4662.080
192.9560, 5141.338
194.1780, 5387.847
195.4000, 5660.608
196.6220, 5801.614
197.8430, 6218.869
199.0640, 7108.365
200.2860, 8309.167
201.5070, 9886.722
202.7270, 11844.01
203.9480, 13608.95
205.1690, 14561.76
206.3890, 15275.36
207.6090, 14650.91
208.8290, 13937.12
210.0490, 12434.46
211.2690, 10885.67
212.4890, 9432.838
213.7080, 7806.997
214.9280, 6273.274
216.1470, 4922.968
217.3660, 3813.783
218.5850, 2774.852
219.8030, 2031.173
221.0220, 1404.060
222.2400, 823.8579
223.4590, 442.1323
224.6770, 148.4478
225.8950, 115.8311
227.1120, 321.7666
228.3300, 359.7412
229.5480, 412.9238
230.7650, 409.8188
231.9820, 228.4287
233.1990, 63.71631
234.4160, 183.3457
235.6330, 591.7939
236.8490, 985.6255
238.0660, 1639.841
239.2820, 2415.428
240.4980, 3125.353
241.7140, 3935.584
242.9300, 4607.100
244.1460, 5074.878
245.3610, 5445.915
246.5770, 5711.204
247.7920, 5774.744
249.0070, 5746.533
250.2220, 5946.567
251.4370, 6035.846
252.6510, 6323.364
253.8660, 6510.123
255.0800, 6503.114
256.2940, 6701.339
257.5080, 6593.797
258.7220, 6934.482
259.9360, 7226.394
261.1490, 7269.526
262.3630, 7777.882
263.5760, 8623.457
264.7890, 10060.25
266.0020, 11637.25
267.2150, 13532.47
268.4270, 15476.90
269.6400, 17575.53
270.8520, 19586.37
272.0640, 20808.40
273.2760, 21960.64
274.4880, 22212.08
275.7000, 21532.71
276.9120, 20486.55
278.1230, 18749.58
279.3340, 16760.81
280.5450, 14788.24
281.7560, 13502.86
282.9670, 12160.69
284.1780, 10873.71
285.3880, 10172.92
286.5980, 9562.277
287.8090, 9001.729
289.0190, 8702.296
290.2290, 8637.053
291.4380, 8668.000
292.6480, 9117.138
293.8570, 9504.470
295.0670, 10190.99
296.2760, 10887.69
297.4850, 11809.58
298.6930, 12787.66
299.9020, 14207.92
301.1110, 15649.37
302.3190, 17202.99
303.5270, 18461.79
304.7350, 19661.77
305.9430, 19944.92
307.1510, 18993.25
308.3580, 17334.76
309.5660, 14807.44
310.7730, 12337.29
311.9800, 10165.05
313.1870, 8339.970
314.3940, 6759.096
315.6010, 5628.663
316.8070, 4976.737
318.0130, 4611.992
319.2200, 4349.061
320.4260, 4209.561
321.6310, 4204.906
322.8370, 4228.945
324.0430, 4426.337
325.2480, 4942.565
326.4540, 5492.287
327.6590, 5702.311
328.8640, 5832.478
330.0680, 5445.779
331.2730, 4889.214
332.4780, 4190.781
333.6820, 3544.473
334.8860, 3190.286
336.0900, 3164.221
337.2940, 3215.274
338.4980, 3644.445
339.7010, 4508.733
340.9050, 5935.137
342.1080, 7113.653
343.3110, 8459.286
344.5140, 9881.032
345.7170, 11303.94
346.9200, 12514.02
348.1220, 14142.34
349.3240, 15724.92
350.5270, 16677.75
351.7290, 16723.82
352.9310, 15404.13
354.1320, 13436.68
355.3340, 10989.45
356.5350, 8531.396
357.7370, 6319.521
358.9380, 4666.811
360.1390, 3251.274
361.3400, 2026.904
362.5400, 1286.705
363.7410, 777.6689
364.9410, 335.7959
366.1410, 95.07275
367.3410, 97.49951
368.5410, 83.93896
369.7410, 160.2368
370.9400, 85.51025
372.1400, 72.29980
373.3390, 84.14893
374.5380, 37.48096
375.7370, 183.3799
376.9360, 279.4985
378.1350, 710.3369
379.3330, 1286.991
380.5310, 1920.159
381.7300, 2775.286
382.9280, 3901.396
384.1260, 5226.509
385.3230, 6899.014
386.5210, 8663.887
387.7180, 10581.94
388.9160, 11555.09
390.1130, 11834.35
391.3100, 11445.73
392.5060, 10160.22
393.7030, 8824.830
394.9000, 7251.544
396.0960, 5810.365
397.2920, 4689.297
398.4880, 3996.335
399.6840, 3358.477
400.8800, 2741.723
402.0750, 2735.071
403.2710, 2552.522
404.4660, 2868.072
405.6610, 3336.722
406.8560, 4089.470
408.0510, 5602.313
409.2450, 7120.253
410.4400, 9328.288
411.6340, 12483.42
412.8280, 16072.64
414.0220, 20949.96
415.2160, 24654.36
416.4100, 26683.87
417.6030, 26044.45
418.7970, 23611.13
419.9900, 20936.89
421.1830, 18027.75
422.3760, 15964.69
423.5690, 14666.71
424.7610, 13562.82
425.9540, 13404.00
427.1460, 13151.28
428.3380, 12336.63
429.5300, 11558.06
430.7220, 10395.57
431.9140, 9052.154
433.1050, 7473.817
434.2970, 6139.555
435.4880, 5221.369
436.6790, 4259.257
437.8700, 3698.216
439.0610, 3476.247
440.2510, 3662.348
441.4420, 4016.518
442.6320, 4147.756
443.8220, 4424.062
445.0120, 4121.432
446.2020, 3514.866
447.3910, 2847.365
448.5810, 2119.926
449.7700, 1846.549
450.9600, 887.2314
452.1490, 454.9731
453.3370, 103.7739
454.5260, 42.36914
455.7150, 168.4980
456.9030, 303.6670
458.0910, 433.9370
459.2800, 510.3706
460.4670, 543.0054
461.6550, 635.8608
462.8430, 619.9849
464.0300, 611.3726
465.2180, 515.0225
466.4050, 389.8887
467.5920, 137.9141
468.7790, 53.01367
469.9650, 461.9702
471.1520, 753.9697
472.3380, 1457.012
473.5250, 2186.097
474.7110, 3066.222
475.8970, 4026.387
477.0820, 5640.591
478.2680, 7446.835
479.4540, 9676.115
480.6390, 11849.43
481.8240, 14604.79
483.0090, 16459.18
484.1940, 17447.60
485.3780, 16033.06
486.5630, 13836.55
487.7470, 11039.14
488.9320, 8311.312
490.1160, 6109.846
491.3000, 4206.937
492.4830, 2895.500
493.6670, 1883.166
494.8500, 1394.698
496.0340, 980.4170
497.2170, 898.1045
498.4000, 909.0513
499.5820, 867.7876
500.7650, 909.5503
501.9480, 980.3252
503.1300, 1190.110
504.3120, 1303.906
505.4940, 1384.712
506.6760, 1534.524
507.8580, 1457.345
509.0390, 1618.027
510.2210, 1516.381
511.4020, 1297.773
512.5830, 1226.993
513.7640, 936.4424
514.9450, 631.5518
516.1250, 459.8613
517.3060, 244.9556
518.4860, 81.34619
519.6660, 11.81787
520.8460, 164.5615
522.0260, 168.2217
523.2060, 196.8823
524.3850, 157.7793
525.5650, 33.82422
526.7440, 73.00098
527.9230, 208.7446
529.1020, 326.4502
530.2810, 588.1382
531.4590, 703.8091
532.6380, 1001.462
533.8160, 1056.098
534.9940, 1136.713
536.1720, 1083.309
537.3500, 1105.884
538.5270, 946.4370
539.7050, 987.9683
540.8820, 792.4761
542.0590, 751.9600
543.2360, 784.4189
544.4130, 631.8530
545.5900, 552.2603
546.7660, 489.6406
547.9430, 484.9990
549.1190, 510.3638
550.2950, 499.7578
551.4710, 698.1812
552.6470, 779.6431
553.8220, 911.1372
554.9980, 1291.670
556.1730, 1786.224
557.3480, 2093.809
558.5230, 2488.392
559.6980, 2832.982
560.8730, 3221.558
562.0470, 3357.099
563.2220, 3835.604
564.3960, 4304.073
565.5700, 4924.503
566.7440, 5720.894
567.9170, 6615.245
569.0910, 7637.556
570.2640, 8581.824
571.4380, 9432.052
572.6110, 9828.238
573.7840, 9918.380
574.9570, 9769.479
576.1290, 9370.533
577.3020, 8754.545
578.4740, 8258.507
579.6460, 7922.427
580.8180, 7926.718
581.9900, 7989.123
583.1620, 8450.899
584.3330, 9038.628
585.5040, 9744.306
586.6760, 10608.94
587.8470, 11047.52
589.0180, 11033.05
590.1880, 10437.52
591.3590, 9416.950
592.5290, 8214.323
593.7000, 6955.644
594.8700, 5667.912
596.0400, 4486.383
597.2090, 3767.808
598.3790, 3042.142
599.5490, 2567.145
600.7180, 2127.752
601.8870, 1910.287
603.0560, 1628.813
604.2250, 1599.617
605.3940, 1450.379
606.5620, 1456.553
607.7300, 1711.478
608.8990, 1866.666
610.0670, 1938.463
611.2350, 2345.054
612.4020, 2509.602
613.5700, 2731.106
614.7370, 2857.568
615.9050, 3297.985
617.0720, 3398.358
618.2390, 3493.687
619.4060, 3478.970
620.5720, 3103.208
621.7390, 2712.399
622.9050, 2183.545
624.0710, 1718.065
625.2370, 1126.696
626.4030, 766.7007
627.5690, 384.6582
628.7340, 158.5659
629.9000, 99.61035
631.0650, 170.9810
632.2300, 145.5854
633.3950, 114.4092
634.5600, 111.4385
635.7240, 113.6704
636.8890, 14.89258
638.0530, 230.3174
639.2170, 311.6704
640.3810, 454.9619
641.5450, 618.2031
642.7080, 697.3940
643.8720, 656.5342
645.0350, 616.6240
646.1980, 607.6626
647.3610, 565.6499
648.5240, 327.5859
649.6870, 212.2368
650.8490, 138.6436
652.0120, 14.56543
653.1740, 78.57617
654.3360, 63.56494
655.4980, 98.45166
656.6600, 35.19141
657.8210, 20.01807
658.9830, 63.02588
660.1440, 235.9639
661.3050, 337.9824
662.4660, 521.3760
663.6270, 711.1572
664.7870, 1027.477
665.9480, 1383.259
667.1080, 1890.676
668.2680, 2393.786
669.4280, 3276.784
670.5880, 4065.736
671.7480, 5175.632
672.9070, 6087.470
674.0670, 7247.253
675.2260, 8065.979
676.3850, 8468.646
677.5440, 8613.260
678.7030, 8159.815
679.8610, 7410.316
681.0200, 6432.759
682.1780, 5490.146
683.3360, 4801.479
684.4940, 4016.756
685.6520, 3530.978
686.8090, 3152.697
687.9670, 2968.573
689.1240, 2769.098
690.2810, 2908.883
691.4380, 2848.688
692.5950, 3098.296
693.7520, 3500.402
694.9080, 3931.328
696.0650, 4494.046
697.2210, 5269.013
698.3770, 6190.073
699.5330, 7452.186
700.6880, 8911.679
701.8440, 10846.15
702.9990, 13052.50
704.1550, 16024.78
705.3100, 19266.01
706.4650, 23736.18
707.6190, 28436.29
708.7740, 33706.34
709.9290, 39072.33
711.0830, 44113.27
712.2370, 47988.14
713.3910, 50137.95
714.5450, 49902.72
715.6980, 47085.43
716.8520, 42384.07
718.0050, 37133.66
719.1580, 31747.20
720.3110, 26153.68
721.4640, 21620.11
722.6170, 17680.48
723.7700, 14416.80
724.9220, 11838.06
726.0740, 9608.271
727.2260, 8188.429
728.3780, 6871.535
729.5300, 5795.589
730.6810, 4884.591
731.8330, 4221.542
732.9840, 3740.441
734.1350, 3312.291
735.2860, 2969.112
736.4370, 2521.933
737.5880, 2164.780
738.7380, 2065.688
739.8880, 1769.673
741.0390, 1583.748
742.1890, 1444.935
743.3380, 1414.230
744.4880, 1239.636
745.6380, 1219.127
746.7870, 1140.676
747.9360, 1127.226
749.0850, 1173.739
750.2340, 1110.209
751.3830, 1081.635
752.5310, 1256.018
753.6800, 1376.358
754.8280, 1455.657
755.9760, 1670.915
757.1240, 2114.131
758.2720, 2354.307
759.4190, 2610.443
760.5670, 3095.540
761.7140, 3455.598
762.8610, 3885.618
764.0080, 4457.601
765.1550, 4724.546
766.3020, 4879.385
767.4480, 4973.644
768.5950, 4640.532
769.7410, 4481.863
770.8870, 4066.713
772.0330, 3546.456
773.1780, 3050.326
774.3240, 2667.005
775.4690, 2187.707
776.6140, 1788.143
777.7590, 1392.782
778.9040, 1273.387
780.0490, 850.9717
781.1940, 773.5371
782.3380, 594.0830
783.4820, 335.6104
784.6260, 386.1201
785.7700, 215.6133
786.9140, 101.2324
788.0580, 25.05566
789.2010, 12.12891
790.3450, 140.7119
791.4880, 72.85254
792.6310, 196.3311
793.7730, 321.5542
794.9160, 334.6406
796.0590, 385.1079
797.2010, 362.1582
798.3430, 393.7959
799.4850, 321.0327
800.6270, 195.8643
801.7690, 127.9302
802.9100, 39.00635
804.0520, 205.9980
805.1930, 439.0239
806.3340, 749.0610
807.4750, 1035.101
808.6160, 1422.143
809.7560, 1892.187
810.8970, 2211.234
812.0370, 2335.286
813.1770, 2348.342
814.3170, 2209.403
815.4570, 1882.470
816.5960, 1390.544
817.7360, 1117.625
818.8750, 798.7134
820.0140, 521.8105
821.1530, 304.9175
822.2920, 96.03418
823.4310, 15.83838
824.5690, 146.7104
825.7070, 246.6392
826.8460, 254.6719
827.9840, 292.8115
829.1220, 276.0742
830.2590, 305.4492
831.3970, 237.9502
832.5340, 289.5410
833.6710, 161.2451
834.8080, 200.9966
835.9450, 117.8145
837.0820, 15.34570
838.2190, 10.52197
839.3550, 194.7168
840.4910, 233.9321
841.6270, 481.1689
842.7630, 535.4292
843.8990, 692.7124
845.0350, 889.0190
846.1700, 961.3506
847.3060, 1116.708
848.4410, 1231.091
849.5760, 1447.500
850.7100, 1439.938
851.8450, 1442.403
852.9800, 1502.897
854.1140, 1388.420
855.2480, 1407.974
856.3820, 1308.559
857.5160, 1187.175
858.6500, 1204.823
859.7830, 1258.504
860.9170, 1174.219
862.0500, 1211.968
863.1830, 1250.753
864.3160, 1387.572
865.4480, 1161.428
866.5810, 1290.321
867.7130, 1273.251
868.8460, 1442.220
869.9780, 1487.227
871.1100, 1447.274
872.2410, 1559.361
873.3730, 1823.488
874.5050, 1900.656
875.6360, 2098.865
876.7670, 2172.114
877.8980, 2288.404
879.0290, 2695.748
880.1590, 2977.133
881.2900, 3227.572
882.4200, 3447.052
883.5500, 3984.580
884.6800, 4334.158
885.8100, 5043.780
886.9400, 5677.445
888.0690, 6555.174
889.1990, 7499.970
890.3280, 8555.827
891.4570, 9804.736
892.5860, 11479.70
893.7140, 12636.74
894.8430, 14435.83
895.9710, 16008.00
897.1000, 17325.25
898.2280, 18228.58
899.3560, 19128.98
900.4830, 19648.47
901.6110, 19493.06
902.7380, 19454.75
903.8660, 19244.56
904.9930, 18707.52
906.1200, 18125.67
907.2460, 18001.97
908.3730, 17332.44
909.5000, 16400.08
910.6260, 15434.89
911.7520, 14436.84
912.8780, 12977.88
914.0040, 11851.01
915.1290, 10592.23
916.2550, 9495.539
917.3800, 8462.936
918.5050, 7719.088
919.6300, 7152.943
920.7550, 6638.558
921.8800, 6353.247
923.0040, 6188.245
924.1290, 6066.510
925.2530, 6399.270
926.3770, 6610.085
927.5010, 6672.704
928.6250, 6737.174
929.7480, 7015.431
930.8720, 6747.406
931.9950, 6647.665
933.1180, 6085.767
934.2410, 5703.172
935.3640, 5309.407
936.4860, 5011.740
937.6090, 4626.295
938.7310, 4595.515
939.8530, 4537.850
940.9750, 4664.263
942.0970, 4855.748
943.2180, 5340.313
944.3400, 5628.952
945.4610, 6335.668
946.5820, 6824.460
947.7030, 7725.329
948.8240, 8576.286
949.9450, 9398.320
951.0650, 10238.43
952.1860, 10572.62
953.3060, 11511.91
954.4260, 11607.30
955.5460, 12382.78
956.6650, 13036.34
957.7850, 13801.99
958.9040, 14747.17
960.0230, 15907.21
961.1420, 16948.63
962.2610, 17756.81
963.3800, 18178.00
964.4990, 18176.42
965.6170, 17891.36
966.7350, 17230.51
967.8530, 17184.90
968.9710, 16703.05
970.0890, 16120.15
971.2070, 15870.22
972.3240, 16254.93
973.4410, 16963.68
974.5580, 18116.60
975.6750, 19801.61
976.7920, 21107.70
977.9090, 22315.87
979.0250, 23008.08
980.1410, 23743.47
981.2580, 23498.91
982.3740, 23180.43
983.4890, 22476.03
984.6050, 21983.71
985.7200, 21555.48
986.8360, 21429.33
987.9510, 21588.27
989.0660, 21964.29
990.1810, 22328.40
991.2950, 22382.60
992.4100, 22479.89
993.5240, 22201.27
994.6390, 22010.72
995.7530, 22153.26
996.8660, 22216.88
997.9800, 22680.59
999.0940, 23065.38
1000.207, 23759.26
1001.320, 24167.21
1002.433, 24818.26
1003.546, 24663.38
1004.659, 24197.58
1005.772, 23509.86
1006.884, 21867.22
1007.996, 19991.66
1009.108, 18018.18
1010.220, 15600.78
1011.332, 13666.46
1012.444, 11624.48
1013.555, 10127.41
1014.666, 8599.914
1015.777, 7681.905
1016.888, 6426.349
1017.999, 5623.937
1019.110, 5050.817
1020.220, 4448.112
1021.331, 4252.595
1022.441, 3957.077
1023.551, 3768.114
1024.661, 3534.501
1025.770, 3375.634
1026.880, 3222.064
1027.989, 3063.090
1029.098, 2923.013
1030.207, 2685.770
1031.316, 2463.392
1032.425, 2216.399
1033.533, 2139.643
1034.642, 2069.517
1035.750, 1947.479
1036.858, 1934.566
1037.966, 2181.604
1039.073, 1984.286
1040.181, 2040.511
1041.288, 2219.170
1042.396, 2048.111
1043.503, 2297.934
1044.610, 2252.595
1045.716, 2182.208
1046.823, 2236.010
1047.929, 2336.875
1049.036, 2286.817
1050.142, 2467.253
1051.248, 2660.300
1052.353, 2778.270
1053.459, 3050.030
1054.564, 3187.063
1055.670, 3309.818
1056.775, 3271.062
1057.880, 3333.931
1058.985, 3157.892
1060.089, 3102.719
1061.194, 2822.207
1062.298, 2586.760
1063.402, 2215.067
1064.506, 1984.029
1065.610, 1791.557
1066.713, 1484.301
1067.817, 1244.129
1068.920, 1189.926
1070.023, 1126.738
1071.126, 1102.696
1072.229, 1066.656
1073.332, 1227.294
1074.435, 1248.612
1075.537, 1296.222
1076.639, 1629.380
1077.741, 1768.858
1078.843, 1982.433
1079.945, 2298.431
1081.046, 2443.138
1082.148, 2565.324
1083.249, 2560.712
1084.350, 2420.202
1085.451, 2353.664
1086.551, 2160.145
1087.652, 2093.732
1088.752, 1857.353
1089.853, 1680.320
1090.953, 1437.705
1092.053, 1409.217
1093.152, 1394.735
1094.252, 1473.413
1095.351, 1554.914
1096.451, 1653.858
1097.550, 1863.549
1098.649, 2084.139
1099.748, 2332.729
1100.846, 2644.258
1101.945, 2893.893
1103.043, 3166.048
1104.141, 3415.739
1105.239, 3598.091
1106.337, 3468.136
1107.434, 3405.604
1108.532, 3278.595
1109.629, 3022.296
1110.726, 2825.543
1111.823, 2500.474
1112.920, 2141.984
1114.017, 1942.636
1115.113, 1737.424
1116.210, 1528.235
1117.306, 1375.834
1118.402, 1239.869
1119.498, 1039.776
1120.593, 926.5186
1121.689, 828.2114
1122.784, 735.9868
1123.879, 743.5708
1124.974, 495.9873
1126.069, 475.1821
1127.164, 400.3296
1128.259, 476.5938
1129.353, 325.7158
1130.447, 172.9287
1131.541, 257.3657
1132.635, 129.4878
1133.729, 144.8076
1134.822, 57.57617
1135.916, 105.3345
1137.009, 60.95947
1138.102, 151.5610
1139.195, 111.4136
1140.288, 27.06396
1141.380, 39.70508
1142.473, 14.84326
1143.565, 85.42822
1144.657, 1.929688
1145.749, 90.36768
1146.841, 37.01660
1147.932, 54.60303
1149.024, 55.20996
1150.115, 28.93994
1151.206, 32.34082
1152.297, 111.3936
1153.388, 126.1772
1154.479, 94.96729
1155.569, 27.76953
1156.659, 68.48193
1157.750, 137.1592
1158.839, 12.12451
1159.929, 124.0078
1161.019, 165.0054
1162.108, 95.04736
1163.198, 113.0479
1164.287, 176.5718
1165.376, 182.6255
1166.465, 196.1294
1167.553, 162.4282
1168.642, 110.0903
1169.730, 164.4565
1170.818, 57.93066
1171.906, 93.17871
1172.994, 173.7881
1174.082, 104.6885
1175.170, 167.0752
1176.257, 58.22607
1177.344, 94.43262
1178.431, 92.20215
1179.518, 122.0459
1180.605, 78.91699
1181.691, 5.914063
1182.778, 65.34473
1183.864, 11.25928
1184.950, 28.44092
1186.036, 36.97217
1187.122, 25.83643
1188.207, 0.7866210
1189.292, 0.8706050
1190.378, 24.66162
1191.463, 33.11475
1192.548, 49.79346
1193.632, 7.981934
1194.717, 4.403809
1195.801, 16.46045
1196.886, 68.66895
1197.970, 81.20898
1199.054, 116.0391
1200.137, 141.3389
1201.221, 130.4238
1202.305, 144.6968
1203.388, 45.32178
1204.471, 100.8828
1205.554, 53.04199
1206.637, 151.4966
1207.719, 63.89160
1208.802, 105.5659
1209.884, 88.23096
1210.966, 23.58203
1212.048, 89.71631
1213.130, 171.8369
1214.212, 86.99170
1215.293, 44.85693
1216.374, 21.99121
1217.456, 42.00195
1218.536, 44.06152
1219.617, 61.73096
1220.698, 80.27051
1221.778, 114.1001
1222.859, 119.6694
1223.939, 118.9819
1225.019, 131.9453
1226.099, 87.69580
1227.178, 98.85010
1228.258, 107.8882
1229.337, 112.8530
1230.417, 186.7446
1231.496, 183.7041
1232.574, 107.4692
1233.653, 195.1582
