##NAMES=Axinite-(Fe)
##RRUFFID=R060558
##IDEAL CHEMISTRY=Ca_4_Fe^2+^_2_Al_4_[B_2_Si_8_O_30_](OH)_2_
##LOCALITY=unknown
##OWNER=RRUFF
##SOURCE=Gemological Institute of America
##DESCRIPTION=Brown flattened crystal
##STATUS=The identification of this mineral has been confirmed by X-ray diffraction and chemical analysis
##URL=rruff.info/R060558
##MEASURED CHEMISTRY=Ca_2.00_(Fe^2+^_0.60_Mg_0.35_Mn_0.05_)_Î£=1_Al_2.00_BSi_4.00_O_15_(OH) ; B not measured
##PIN_ID=M01160
##ORIENTATION=Laser parallel to b* (0 1 0). Fiducial mark perpendicular to laser is parallel to -c [0 0 -1]
86.54100, 0.0000000E+00
87.78900, 14.81689
89.03600, 151.6912
90.28400, 650.3037
91.53100, 1194.619
92.77800, 2036.766
94.02500, 3193.845
95.27200, 4658.400
96.51900, 6289.235
97.76500, 8674.530
99.01100, 10818.95
100.2570, 12785.54
101.5030, 14683.83
102.7490, 17183.76
103.9940, 19623.35
105.2390, 21664.22
106.4840, 22819.94
107.7290, 23317.50
108.9740, 22573.82
110.2180, 19857.49
111.4620, 16202.77
112.7060, 12053.56
113.9500, 8622.545
115.1940, 5875.571
116.4370, 3973.492
117.6800, 2678.198
118.9230, 1803.592
120.1660, 1129.587
121.4090, 869.1045
122.6510, 565.4041
123.8940, 196.8816
125.1360, 25.17822
126.3770, 208.6460
127.6190, 167.6218
128.8600, 193.7781
130.1020, 192.1436
131.3430, 196.7505
132.5840, 226.6260
133.8240, 167.7957
135.0650, 48.30566
136.3050, 234.7939
137.5450, 493.4856
138.7850, 864.7634
140.0250, 1078.622
141.2640, 1351.055
142.5030, 1786.057
143.7430, 2220.629
144.9810, 2715.799
146.2200, 3215.605
147.4590, 3823.048
148.6970, 4432.117
149.9350, 5148.793
151.1730, 6033.070
152.4110, 6641.927
153.6480, 7056.358
154.8860, 7443.350
156.1230, 7596.893
157.3600, 7692.978
158.5960, 7633.409
159.8330, 7843.342
161.0690, 8117.620
162.3050, 8300.249
163.5410, 8731.583
164.7770, 9055.274
166.0130, 9688.331
167.2480, 10273.75
168.4830, 11051.52
169.7180, 11453.63
170.9530, 12037.07
172.1880, 12141.81
173.4220, 11768.81
174.6560, 10991.06
175.8900, 9934.588
177.1240, 8440.396
178.3580, 6875.487
179.5910, 5421.871
180.8250, 4383.389
182.0580, 3877.831
183.2900, 3733.222
184.5230, 4076.583
185.7560, 4363.138
186.9880, 4962.030
188.2200, 5773.258
189.4520, 6886.822
190.6830, 8544.719
191.9150, 9721.949
193.1460, 10902.51
194.3770, 12018.40
195.6080, 12612.62
196.8390, 12895.17
198.0700, 13005.02
199.3000, 13142.23
200.5300, 13440.09
201.7600, 14499.80
202.9900, 15231.36
204.2190, 16223.68
205.4490, 16952.56
206.6780, 16997.80
207.9070, 16771.29
209.1360, 15410.03
210.3640, 14052.02
211.5930, 12389.26
212.8210, 10611.74
214.0490, 9218.472
215.2770, 7635.447
216.5040, 6499.666
217.7320, 5165.126
218.9590, 4187.830
220.1860, 3389.778
221.4130, 2586.969
222.6400, 1998.408
223.8660, 1336.094
225.0920, 915.0293
226.3190, 547.2144
227.5450, 141.6484
228.7700, 95.66797
229.9960, 268.7344
231.2210, 432.5503
232.4460, 400.1646
233.6710, 411.7305
234.8960, 357.1343
236.1210, 62.77051
237.3450, 63.36768
238.5690, 585.5249
239.7930, 913.3984
241.0170, 1533.771
242.2410, 2060.505
243.4640, 2746.546
244.6870, 3345.825
245.9100, 3817.173
247.1330, 4204.524
248.3560, 4668.935
249.5780, 5058.452
250.8000, 5295.109
252.0230, 5638.929
253.2440, 5985.932
254.4660, 6120.500
255.6880, 6668.489
256.9090, 7005.992
258.1300, 7552.116
259.3510, 8352.453
260.5720, 9149.040
261.7920, 10240.69
263.0130, 11277.45
264.2330, 12641.09
265.4530, 14045.05
266.6730, 15211.33
267.8920, 16541.92
269.1120, 17171.80
270.3310, 17768.97
271.5500, 17984.39
272.7690, 17554.72
273.9880, 16495.33
275.2060, 14929.84
276.4240, 13651.59
277.6430, 11834.10
278.8600, 10177.01
280.0780, 8577.942
281.2960, 7436.680
282.5130, 6443.965
283.7300, 5658.696
284.9470, 5388.645
286.1640, 5296.806
287.3810, 5312.177
288.5970, 5712.755
289.8130, 6200.540
291.0290, 6905.528
292.2450, 7804.717
293.4610, 9169.105
294.6760, 10454.69
295.8910, 12094.46
297.1060, 13791.43
298.3210, 15765.58
299.5360, 17380.92
300.7510, 19211.44
301.9650, 20530.13
303.1790, 21911.01
304.3930, 23056.07
305.6070, 23267.22
306.8200, 23345.31
308.0340, 22545.38
309.2470, 21008.63
310.4600, 18935.73
311.6730, 16545.57
312.8850, 13738.62
314.0980, 10993.73
315.3100, 8834.411
316.5220, 6777.312
317.7340, 5227.304
318.9460, 4132.450
320.1570, 3339.555
321.3690, 2713.090
322.5800, 2311.695
323.7910, 1966.848
325.0010, 1793.207
326.2120, 1744.718
327.4220, 1592.378
328.6330, 1762.189
329.8430, 1736.151
331.0520, 1787.265
332.2620, 1913.529
333.4720, 1939.942
334.6810, 2028.503
335.8900, 2291.208
337.0990, 2814.060
338.3070, 3494.055
339.5160, 4475.950
340.7240, 5559.466
341.9320, 7096.881
343.1400, 8735.434
344.3480, 10622.12
345.5560, 12400.95
346.7630, 14075.92
347.9700, 15664.04
349.1770, 16976.33
350.3840, 18162.81
351.5910, 19164.49
352.7970, 19468.39
354.0040, 18754.49
355.2100, 17582.81
356.4160, 15541.35
357.6220, 12769.09
358.8270, 10048.03
360.0320, 7585.146
361.2380, 5667.455
362.4430, 4114.940
363.6470, 2959.602
364.8520, 2052.423
366.0560, 1490.408
367.2610, 993.5664
368.4650, 696.8984
369.6690, 506.4185
370.8720, 419.1240
372.0760, 386.0205
373.2790, 367.0967
374.4820, 359.9111
375.6850, 279.0068
376.8880, 637.8779
378.0910, 931.2637
379.2930, 1463.331
380.4950, 2260.639
381.6970, 3466.169
382.8990, 4933.312
384.1010, 6485.928
385.3020, 8128.310
386.5040, 10200.49
387.7050, 12264.29
388.9060, 14329.01
390.1060, 15967.83
391.3070, 17084.76
392.5070, 16979.67
393.7080, 16641.93
394.9080, 14981.17
396.1070, 13096.50
397.3070, 10544.95
398.5070, 8684.493
399.7060, 7074.140
400.9050, 6044.890
402.1040, 5377.747
403.3030, 5123.712
404.5010, 5143.785
405.7000, 5180.960
406.8980, 5868.341
408.0960, 7137.594
409.2940, 8889.880
410.4910, 11214.48
411.6890, 13957.68
412.8860, 16877.31
414.0830, 20468.28
415.2800, 24320.28
416.4770, 27727.40
417.6730, 30403.55
418.8690, 30824.86
420.0660, 30094.31
421.2620, 27203.91
422.4570, 23264.65
423.6530, 19468.54
424.8480, 16529.56
426.0440, 14743.71
427.2390, 13794.97
428.4340, 13022.30
429.6280, 12649.71
430.8230, 11760.19
432.0170, 10707.75
433.2110, 9119.370
434.4050, 7557.065
435.5990, 6034.830
436.7930, 5119.393
437.9860, 3980.927
439.1800, 3310.564
440.3730, 2582.546
441.5660, 2464.635
442.7580, 2481.785
443.9510, 2517.994
445.1430, 2489.263
446.3350, 2386.588
447.5270, 2007.971
448.7190, 1731.409
449.9110, 1161.901
451.1020, 605.4478
452.2930, 175.0483
453.4850, 158.2983
454.6750, 383.6426
455.8660, 548.0781
457.0570, 506.6831
458.2470, 583.4395
459.4370, 564.3877
460.6270, 506.5205
461.8170, 485.8120
463.0070, 443.2549
464.1960, 275.8311
465.3850, 292.4678
466.5750, 99.17334
467.7630, 180.1265
468.9520, 377.4644
470.1410, 692.8394
471.3290, 1126.251
472.5170, 1649.698
473.7050, 2508.180
474.8930, 3636.693
476.0810, 5269.282
477.2680, 7025.818
478.4560, 9514.428
479.6430, 12221.06
480.8300, 15180.73
482.0160, 18063.41
483.2030, 21362.13
484.3890, 23961.88
485.5760, 25507.64
486.7620, 25756.43
487.9480, 24035.24
489.1330, 20695.63
490.3190, 16783.22
491.5040, 12577.75
492.6890, 8944.638
493.8740, 6337.839
495.0590, 4839.333
496.2440, 4035.439
497.4280, 3436.130
498.6120, 3290.633
499.7960, 3248.588
500.9800, 3374.876
502.1640, 3495.059
503.3470, 3725.616
504.5310, 3890.458
505.7140, 3913.052
506.8970, 3941.075
508.0800, 3933.990
509.2620, 3794.625
510.4450, 3437.978
511.6270, 3191.506
512.8090, 2634.080
513.9910, 2043.088
515.1730, 1498.775
516.3550, 1125.640
517.5360, 781.4546
518.7170, 526.8818
519.8980, 235.5554
521.0790, 130.2195
522.2600, 49.29907
523.4400, 6.387939
524.6210, 87.57983
525.8010, 48.32568
526.9810, 84.15039
528.1610, 180.9067
529.3400, 221.6179
530.5200, 335.2876
531.6990, 532.9199
532.8780, 586.5139
534.0570, 747.0688
535.2360, 849.5840
536.4140, 886.0579
537.5930, 965.4900
538.7710, 862.8794
539.9490, 863.2256
541.1270, 857.5271
542.3040, 747.7837
543.4820, 665.9944
544.6590, 498.1580
545.8360, 450.2742
547.0130, 487.3416
548.1900, 335.3599
549.3670, 267.3369
550.5430, 135.2710
551.7190, 106.1687
552.8960, 123.0081
554.0710, 181.7961
555.2470, 219.5461
556.4230, 227.2693
557.5980, 386.9502
558.7730, 523.6018
559.9480, 609.2195
561.1230, 800.7839
562.2980, 965.2908
563.4720, 1316.737
564.6470, 1561.122
565.8210, 1902.443
566.9950, 2368.702
568.1690, 2931.896
569.3420, 3371.024
570.5160, 4005.086
571.6890, 4607.083
572.8620, 5102.011
574.0350, 5498.871
575.2080, 5915.663
576.3800, 6086.384
577.5530, 6162.036
578.7250, 6164.618
579.8970, 6379.129
581.0690, 6736.565
582.2410, 7141.933
583.4120, 7889.226
584.5830, 8861.445
585.7550, 9943.592
586.9260, 10922.66
588.0960, 11734.66
589.2670, 12359.58
590.4380, 12552.42
591.6080, 12190.18
592.7780, 11313.87
593.9480, 10032.48
595.1180, 8508.320
596.2870, 7074.528
597.4570, 5703.616
598.6260, 4608.732
599.7950, 3826.369
600.9640, 3118.877
602.1330, 2563.382
603.3010, 2257.820
604.4700, 2054.385
605.6380, 1860.606
606.8060, 1950.839
607.9740, 1853.608
609.1420, 2071.251
610.3090, 2227.822
611.4760, 2357.321
612.6440, 2516.749
613.8110, 2685.103
614.9770, 2700.385
616.1440, 2796.594
617.3110, 2714.728
618.4770, 2630.789
619.6430, 2566.774
620.8090, 2340.687
621.9750, 2033.523
623.1400, 1850.284
624.3060, 1485.969
625.4710, 1073.579
626.6360, 815.1113
627.8010, 547.5681
628.9660, 204.9475
630.1300, 159.2158
631.2950, 29.36108
632.4590, 39.66235
633.6230, 154.8916
634.7870, 142.3879
635.9510, 135.1455
637.1140, 207.1611
638.2780, 171.4734
639.4410, 146.0640
640.6040, 118.9199
641.7670, 53.02710
642.9290, 122.3516
644.0920, 46.93018
645.2540, 58.72266
646.4160, 1.736572
647.5780, 15.94092
648.7400, 59.34399
649.9020, 70.96851
651.0630, 121.8201
652.2250, 122.9260
653.3860, 146.2864
654.5470, 109.9128
655.7080, 96.66748
656.8680, 1.374023
658.0290, 70.88989
659.1890, 156.2068
660.3490, 290.4404
661.5090, 408.8184
662.6690, 567.0432
663.8280, 832.8730
664.9880, 1055.973
666.1470, 1431.589
667.3060, 1927.472
668.4650, 2418.591
669.6240, 3176.111
670.7820, 3747.747
671.9410, 4664.304
673.0990, 5544.783
674.2570, 6181.182
675.4150, 7001.502
676.5720, 7448.744
677.7300, 7443.908
678.8870, 7078.996
680.0450, 6714.006
681.2020, 5953.939
682.3590, 4939.795
683.5150, 4069.575
684.6720, 3532.280
685.8280, 3038.908
686.9840, 2621.461
688.1400, 2284.981
689.2960, 2265.142
690.4520, 2205.596
691.6070, 2423.609
692.7630, 2348.812
693.9180, 2676.870
695.0730, 2947.617
696.2280, 3447.936
697.3820, 3967.844
698.5370, 4675.448
699.6910, 5426.923
700.8450, 6863.722
701.9990, 8359.310
703.1530, 10189.82
704.3070, 12794.26
705.4600, 15796.63
706.6130, 19454.93
707.7660, 23717.16
708.9190, 28283.32
710.0720, 33091.40
711.2250, 37368.41
712.3770, 41237.37
713.5300, 43880.25
714.6820, 45024.06
715.8340, 43758.80
716.9850, 40529.48
718.1370, 35875.09
719.2880, 30980.64
720.4400, 25576.12
721.5910, 21060.54
722.7420, 17068.89
723.8930, 13667.18
725.0430, 11317.40
726.1940, 9293.567
727.3440, 7930.669
728.4940, 6537.710
729.6440, 5664.692
730.7940, 4882.613
731.9430, 4220.475
733.0930, 3739.278
734.2420, 3252.049
735.3910, 2930.833
736.5400, 2661.671
737.6890, 2404.552
738.8370, 2120.497
739.9860, 1955.503
741.1340, 1851.556
742.2820, 1614.654
743.4300, 1685.788
744.5780, 1599.920
745.7250, 1610.055
746.8730, 1557.157
748.0200, 1648.208
749.1670, 1792.210
750.3140, 1749.164
751.4610, 1943.069
752.6070, 2010.926
753.7540, 2434.738
754.9000, 2742.502
756.0460, 3215.222
757.1920, 3718.897
758.3380, 4157.529
759.4830, 4903.117
760.6280, 5634.664
761.7740, 6502.167
762.9190, 7288.634
764.0640, 8018.058
765.2080, 8651.442
766.3530, 9073.792
767.4970, 9388.543
768.6420, 9249.074
769.7860, 8897.650
770.9300, 8348.859
772.0730, 7563.733
773.2170, 6602.296
774.3600, 5926.230
775.5040, 4887.563
776.6470, 4174.065
777.7900, 3524.101
778.9320, 2820.785
780.0750, 2483.557
781.2170, 2094.936
782.3600, 1596.014
783.5020, 1318.323
784.6440, 1069.186
785.7850, 810.1384
786.9270, 630.3547
788.0680, 530.8345
789.2100, 286.1221
790.3510, 205.3467
791.4920, 85.11890
792.6320, 17.80493
793.7730, 70.93213
794.9130, 167.0349
796.0540, 168.7747
797.1940, 171.7571
798.3340, 284.7324
799.4730, 283.1577
800.6130, 161.6511
801.7520, 101.1658
802.8920, 48.34912
804.0310, 78.90332
805.1700, 335.4902
806.3090, 583.0996
807.4470, 914.7280
808.5860, 1201.376
809.7240, 1548.043
810.8620, 1929.730
812.0000, 2227.439
813.1380, 2322.170
814.2750, 2257.922
815.4130, 2107.698
816.5500, 2007.498
817.6870, 1586.323
818.8240, 1277.174
819.9610, 833.0508
821.0980, 451.9556
822.2340, 330.8877
823.3700, 99.84863
824.5070, 75.16064
825.6430, 117.1621
826.7780, 299.1646
827.9140, 258.2256
829.0500, 275.3198
830.1850, 262.4551
831.3200, 284.6323
832.4550, 214.8638
833.5900, 187.1191
834.7250, 157.3955
835.8590, 34.68213
836.9930, 0.9414060
838.1280, 139.8345
839.2620, 283.6494
840.3950, 377.5054
841.5290, 536.4019
842.6630, 767.3403
843.7960, 990.3213
844.9290, 1123.346
846.0620, 1276.414
847.1950, 1459.528
848.3280, 1580.687
849.4600, 1701.892
850.5930, 1660.145
851.7250, 1642.444
852.8570, 1636.792
853.9890, 1488.190
855.1210, 1383.637
856.2520, 1260.136
857.3840, 1043.685
858.5150, 878.2861
859.6460, 791.9404
860.7770, 800.6475
861.9080, 738.4087
863.0380, 721.2256
864.1690, 664.0972
865.2990, 653.0254
866.4290, 798.0093
867.5590, 681.0518
868.6890, 738.1519
869.8190, 762.3110
870.9480, 708.5293
872.0770, 791.8076
873.2070, 877.1455
874.3360, 1008.543
875.4640, 1120.268
876.5930, 1250.526
877.7220, 1421.110
878.8500, 1634.756
879.9780, 1867.463
881.1060, 2110.233
882.2340, 2362.065
883.3620, 2687.967
884.4890, 3084.935
885.6170, 3453.981
886.7440, 4012.095
887.8710, 4812.305
888.9980, 5425.593
890.1240, 6437.953
891.2510, 7217.403
892.3770, 8430.945
893.5040, 9801.562
894.6300, 11077.27
895.7560, 12485.07
896.8810, 13946.96
898.0070, 15019.96
899.1330, 16033.05
900.2580, 17097.23
901.3830, 17875.50
902.5080, 18798.90
903.6330, 19100.41
904.7570, 19804.06
905.8820, 20308.85
907.0060, 21143.80
908.1300, 21517.96
909.2540, 21810.32
910.3780, 21376.88
911.5020, 20775.67
912.6250, 19431.66
913.7490, 17867.84
914.8720, 16066.21
915.9950, 14078.75
917.1180, 12179.47
918.2400, 10649.37
919.3630, 9158.438
920.4850, 7979.669
921.6080, 7118.054
922.7300, 6439.608
923.8520, 5840.342
924.9730, 5565.263
926.0950, 5400.358
927.2160, 5445.636
928.3380, 5236.961
929.4590, 5262.420
930.5800, 5490.358
931.7010, 5301.278
932.8210, 5187.651
933.9420, 5151.665
935.0620, 4867.994
936.1820, 4730.266
937.3020, 4763.606
938.4220, 4738.086
939.5420, 4882.661
940.6610, 5017.326
941.7810, 5543.082
942.9000, 5719.926
944.0190, 6342.860
945.1380, 7032.887
946.2570, 8113.001
947.3750, 9143.199
948.4940, 10244.48
949.6120, 11202.86
950.7300, 12457.32
951.8480, 13651.87
952.9660, 14581.51
954.0830, 15484.25
955.2010, 16244.07
956.3180, 17340.98
957.4350, 18060.99
958.5520, 19194.08
959.6690, 20505.11
960.7860, 21797.75
961.9020, 23156.18
963.0190, 23693.83
964.1350, 24399.82
965.2510, 24380.65
966.3670, 23830.54
967.4830, 22444.96
968.5980, 21293.76
969.7140, 19878.95
970.8290, 18905.30
971.9440, 18338.34
973.0590, 18088.60
974.1740, 18577.96
975.2880, 19438.41
976.4030, 20489.94
977.5170, 21586.57
978.6310, 22745.28
979.7450, 23352.09
980.8590, 23420.97
981.9730, 23336.95
983.0860, 22589.02
984.2000, 21696.17
985.3130, 20954.42
986.4260, 20526.74
987.5390, 20528.16
988.6520, 20252.66
989.7640, 20308.26
990.8770, 21139.93
991.9890, 21827.69
993.1010, 22482.54
994.2130, 22940.47
995.3250, 23675.48
996.4370, 24438.58
997.5480, 25639.76
998.6590, 26724.03
999.7710, 28222.38
1000.882, 29928.81
1001.993, 31192.32
1003.103, 32663.91
1004.214, 32997.59
1005.324, 32905.35
1006.434, 31782.19
1007.545, 29724.10
1008.655, 27359.39
1009.764, 24399.86
1010.874, 20981.02
1011.983, 18017.44
1013.093, 15021.82
1014.202, 12796.43
1015.311, 10881.89
1016.420, 9091.839
1017.528, 7943.915
1018.637, 6875.026
1019.745, 6006.281
1020.854, 5404.712
1021.962, 4955.736
1023.070, 4846.593
1024.177, 4533.747
1025.285, 4600.777
1026.392, 4663.357
1027.500, 4619.870
1028.607, 4525.285
1029.714, 4337.251
1030.821, 3948.980
1031.927, 3614.890
1033.034, 3034.312
1034.140, 2623.418
1035.246, 2277.233
1036.352, 1857.357
1037.458, 1655.232
1038.564, 1335.746
1039.670, 1150.520
1040.775, 1035.734
1041.880, 929.1460
1042.986, 836.9504
1044.090, 704.4358
1045.195, 687.2349
1046.300, 624.6597
1047.404, 628.3591
1048.509, 623.6323
1049.613, 593.1023
1050.717, 582.3667
1051.821, 551.1667
1052.925, 519.8706
1054.028, 474.6660
1055.132, 413.7988
1056.235, 414.7515
1057.338, 430.9922
1058.441, 418.6514
1059.544, 367.3452
1060.647, 323.5425
1061.749, 293.5347
1062.851, 221.2375
1063.954, 300.7349
1065.056, 170.5068
1066.158, 175.0898
1067.259, 172.4558
1068.361, 74.99731
1069.462, 129.4424
1070.564, 37.53247
1071.665, 101.6692
1072.766, 206.2695
1073.867, 231.3191
1074.967, 255.3157
1076.068, 408.3201
1077.168, 513.7197
1078.268, 625.3555
1079.368, 763.4458
1080.468, 920.4312
1081.568, 1063.253
1082.668, 1144.280
1083.767, 1182.664
1084.866, 1208.280
1085.966, 1186.233
1087.065, 1031.364
1088.163, 1041.095
1089.262, 845.0957
1090.361, 659.5674
1091.459, 717.0942
1092.557, 646.6650
1093.655, 627.6592
1094.753, 714.6477
1095.851, 743.8530
1096.949, 955.4453
1098.046, 1082.369
1099.143, 1263.613
1100.241, 1503.657
1101.338, 1759.917
1102.434, 1894.032
1103.531, 2142.174
1104.628, 2361.351
1105.724, 2543.781
1106.820, 2698.049
1107.916, 2638.487
1109.012, 2613.630
1110.108, 2482.640
1111.204, 2275.748
1112.299, 2111.376
1113.395, 1912.646
1114.490, 1704.507
1115.585, 1520.091
1116.680, 1318.129
1117.775, 1121.859
1118.869, 1014.977
1119.964, 877.3364
1121.058, 715.1287
1122.152, 709.4448
1123.246, 552.3831
1124.340, 455.0151
1125.434, 510.7703
1126.527, 431.2158
1127.620, 369.9368
1128.714, 314.7808
1129.807, 252.2261
1130.900, 198.8008
1131.992, 150.3115
1133.085, 180.3652
1134.178, 118.0349
1135.270, 102.6768
1136.362, 106.3191
1137.454, 51.13965
1138.546, 73.66870
1139.638, 13.74512
1140.729, 18.30688
1141.821, 13.06030
1142.912, 7.676025
1144.003, 0.5471190
1145.094, 8.214600
1146.185, 30.96240
1147.276, 40.78784
1148.366, 14.66699
1149.456, 78.57471
1150.547, 13.53857
1151.637, 127.4951
1152.727, 66.57300
1153.816, 19.56201
1154.906, 95.62500
1155.995, 89.84570
1157.085, 44.95947
1158.174, 90.10400
1159.263, 52.54810
1160.352, 105.9578
1161.441, 114.5493
1162.529, 81.98218
1163.618, 70.74829
1164.706, 78.19141
1165.794, 149.8066
1166.882, 103.5815
1167.970, 96.30298
1169.058, 103.2563
1170.145, 72.33789
1171.232, 76.21973
1172.320, 108.1279
1173.407, 143.2073
1174.494, 103.2896
1175.580, 73.51074
1176.667, 32.83740
1177.754, 66.27588
1178.840, 40.81006
1179.926, 51.54492
1181.012, 63.71875
1182.098, 34.51001
1183.184, 53.12280
1184.269, 20.22314
1185.355, 23.10986
1186.440, 49.61377
1187.525, 19.98486
1188.610, 26.43970
1189.695, 28.70288
1190.780, 44.06470
1191.864, 28.33325
1192.949, 38.36987
1194.033, 24.45923
1195.117, 4.489990
1196.201, 95.41772
1197.285, 67.29102
1198.369, 39.06958
1199.452, 75.77539
1200.536, 33.32373
1201.619, 34.90649
1202.702, 82.33057
1203.785, 69.78076
1204.868, 75.02710
1205.950, 78.12476
1207.033, 68.35864
1208.115, 100.3423
1209.197, 139.3098
1210.279, 158.3748
1211.361, 103.1909
1212.443, 98.03125
1213.525, 135.8608
1214.606, 53.76880
1215.687, 100.3096
1216.769, 80.04761
1217.850, 130.5801
1218.930, 119.9998
1220.011, 156.6349
1221.092, 156.4883
1222.172, 105.1451
1223.252, 135.2367
1224.333, 142.3441
1225.413, 94.37000
1226.492, 122.4894
1227.572, 113.3135
1228.652, 105.1792
1229.731, 170.8590
1230.810, 160.5906
1231.889, 176.2013
1232.968, 177.6901
1234.047, 178.1149
1235.126, 163.4841
1236.204, 176.9196
1237.283, 168.1509
1238.361, 192.3562
1239.439, 207.4526
1240.517, 200.4854
1241.595, 273.4531
1242.673, 192.3601
1243.750, 236.2008
1244.827, 174.9789
1245.905, 219.7974
1246.982, 262.4755
1248.059, 215.0579
1249.135, 197.5752
1250.212, 257.0247
1251.288, 204.4111
1252.365, 242.7563
1253.441, 295.3094
1254.517, 267.5513
1255.593, 199.9424
1256.669, 276.2200
1257.744, 260.5496
1258.820, 342.6520
1259.895, 311.5494
1260.970, 326.3657
1262.045, 238.1238
1263.120, 286.8104
1264.195, 292.5674
1265.270, 291.1642
1266.344, 266.7930
