##NAMES=Axinite-(Fe)
##RRUFFID=R060558
##IDEAL CHEMISTRY=Ca_4_Fe^2+^_2_Al_4_[B_2_Si_8_O_30_](OH)_2_
##LOCALITY=unknown
##OWNER=RRUFF
##SOURCE=Gemological Institute of America
##DESCRIPTION=Brown flattened crystal
##STATUS=The identification of this mineral has been confirmed by X-ray diffraction and chemical analysis
##URL=rruff.info/R060558
##MEASURED CHEMISTRY=Ca_2.00_(Fe^2+^_0.60_Mg_0.35_Mn_0.05_)_Î£=1_Al_2.00_BSi_4.00_O_15_(OH) ; B not measured
##PIN_ID=M00869
##ORIENTATION=Laser parallel to (0 1 1). Fiducial mark perpendicular to laser is parallel to a [1 0 0]
129.0000, 0.0000000E+00
130.2340, 3.593506
131.4670, 17.35449
132.7000, 37.55200
133.9330, 76.12866
135.1660, 147.8877
136.3990, 304.8779
137.6310, 435.7256
138.8640, 723.7349
140.0960, 1041.078
141.3280, 1357.015
142.5600, 1394.225
143.7910, 1473.934
145.0230, 1313.419
146.2540, 1142.778
147.4850, 1034.916
148.7160, 879.8206
149.9470, 855.4436
151.1780, 782.9631
152.4080, 832.2322
153.6380, 903.3250
154.8690, 893.4880
156.0980, 1007.062
157.3280, 1064.888
158.5580, 1085.921
159.7870, 1121.442
161.0170, 914.3357
162.2460, 681.9746
163.4750, 659.3101
164.7030, 662.3850
165.9320, 594.2361
167.1600, 717.8926
168.3890, 867.3813
169.6170, 1030.728
170.8450, 1237.955
172.0730, 1433.081
173.3000, 1441.121
174.5280, 1259.091
175.7550, 1121.000
176.9820, 945.8586
178.2090, 677.6746
179.4350, 487.4558
180.6620, 363.1301
181.8880, 196.5037
183.1150, 95.42383
184.3410, 71.44849
185.5670, 18.21777
186.7920, 21.25366
188.0180, 7.631836
189.2430, 28.42151
190.4690, 67.11621
191.6940, 30.28259
192.9180, 112.7712
194.1430, 245.3445
195.3680, 280.7971
196.5920, 400.7321
197.8160, 338.5409
199.0400, 320.4236
200.2640, 283.3787
201.4880, 444.4070
202.7110, 602.4978
203.9350, 754.6357
205.1580, 958.8408
206.3810, 1116.121
207.6040, 1219.479
208.8270, 1352.916
210.0490, 1435.429
211.2710, 1445.019
212.4940, 1594.679
213.7160, 1672.409
214.9370, 1670.204
216.1590, 1604.063
217.3810, 1480.982
218.6020, 1393.951
219.8230, 1330.968
221.0440, 1112.030
222.2650, 880.1360
223.4860, 775.2847
224.7060, 521.4751
225.9260, 447.7061
227.1470, 276.9766
228.3670, 144.2856
229.5860, 106.6272
230.8060, 40.98950
232.0260, 53.65430
233.2450, 77.36426
234.4640, 113.0857
235.6830, 128.7805
236.9020, 123.4482
238.1200, 103.0896
239.3390, 69.70410
240.5570, 87.29199
241.7750, 9.853271
242.9930, 63.38843
244.2110, 79.10229
245.4290, 214.6194
246.6460, 215.1770
247.8630, 396.7957
249.0810, 518.4905
250.2980, 581.2336
251.5140, 722.0186
252.7310, 1005.849
253.9470, 1149.712
255.1640, 1421.574
256.3800, 1625.430
257.5960, 1763.274
258.8120, 1782.130
260.0270, 1897.004
261.2430, 2003.915
262.4580, 2170.817
263.6730, 2298.755
264.8880, 2461.712
266.1030, 2756.689
267.3170, 3073.687
268.5320, 3361.711
269.7460, 3660.762
270.9600, 3966.880
272.1740, 4225.062
273.3880, 4266.286
274.6010, 4281.525
275.8150, 4050.964
277.0280, 3961.777
278.2410, 3559.979
279.4540, 3184.408
280.6670, 2754.002
281.8790, 2444.721
283.0920, 1960.540
284.3040, 1813.432
285.5160, 1562.381
286.7280, 1527.376
287.9400, 1527.410
289.1510, 1483.475
290.3630, 1612.559
291.5740, 1699.641
292.7850, 1843.721
293.9960, 2058.800
295.2070, 2289.878
296.4170, 2494.957
297.6280, 2703.037
298.8380, 2914.120
300.0480, 3002.206
301.2580, 3154.294
302.4680, 3174.374
303.6770, 3166.418
304.8870, 3156.381
306.0960, 3129.149
307.3050, 3110.908
308.5140, 3030.669
309.7230, 2840.430
310.9310, 2604.194
312.1400, 2368.961
313.3480, 1885.734
314.5560, 1662.511
315.7640, 1341.293
316.9720, 1140.083
318.1790, 965.8782
319.3870, 931.6804
320.5940, 761.4897
321.8010, 712.3066
323.0080, 676.1311
324.2150, 587.9634
325.4210, 551.8032
326.6280, 571.6104
327.8340, 557.9995
329.0400, 557.8052
330.2460, 624.2202
331.4510, 681.9290
332.6570, 742.5776
333.8620, 719.8340
335.0680, 809.9648
336.2730, 802.7900
337.4780, 861.0198
338.6820, 936.4600
339.8870, 1162.918
341.0910, 1303.394
342.2950, 1505.886
343.5000, 1891.395
344.7030, 2268.919
345.9070, 2695.460
347.1110, 2937.018
348.3140, 3013.589
349.5170, 3152.177
350.7200, 3291.779
351.9230, 3492.395
353.1260, 3807.025
354.3290, 3715.668
355.5310, 3582.326
356.7330, 3236.997
357.9350, 2656.680
359.1370, 2065.376
360.3390, 1602.083
361.5400, 1211.041
362.7420, 866.3462
363.9430, 676.0830
365.1440, 508.1445
366.3450, 387.3384
367.5460, 267.8291
368.7460, 190.7593
369.9470, 117.2266
371.1470, 84.22827
372.3470, 73.04102
373.5470, 83.83643
374.7460, 72.70532
375.9460, 47.45190
377.1450, 85.21997
378.3450, 124.9600
379.5440, 189.4817
380.7430, 244.5669
381.9410, 288.3345
383.1400, 440.4055
384.3380, 494.3269
385.5370, 752.6870
386.7350, 847.6614
387.9320, 1049.798
389.1300, 1242.734
390.3280, 1421.697
391.5250, 1561.647
392.7220, 1527.604
393.9190, 1357.568
395.1160, 1202.539
396.3130, 1069.516
397.5100, 783.4988
398.7060, 660.4875
399.9020, 548.4824
401.0980, 497.4832
402.2940, 491.4897
403.4900, 428.5310
404.6860, 488.9741
405.8810, 612.9983
407.0760, 656.0278
408.2710, 774.8748
409.4660, 884.4189
410.6610, 1057.786
411.8550, 1277.224
413.0500, 1469.280
414.2440, 1694.105
415.4380, 2234.171
416.6320, 2690.240
417.8260, 3366.316
419.0190, 3836.394
420.2130, 4166.481
421.4060, 4769.576
422.5990, 4154.676
423.7920, 4046.781
424.9850, 4047.888
426.1770, 4193.997
427.3700, 4113.109
428.5620, 3990.223
429.7540, 3844.339
430.9460, 3486.456
432.1380, 3048.573
433.3290, 2666.692
434.5210, 2222.811
435.7120, 2048.930
436.9030, 1909.051
438.0940, 1820.172
439.2850, 1943.293
440.4750, 2123.416
441.6660, 2363.539
442.8560, 2820.661
444.0460, 3436.785
445.2360, 3935.909
446.4260, 4403.035
447.6160, 4143.158
448.8050, 3570.284
449.9940, 2841.413
451.1830, 2095.542
452.3720, 1545.673
453.5610, 1039.807
454.7500, 775.9412
455.9380, 546.0776
457.1260, 455.2156
458.3150, 306.3547
459.5020, 211.4958
460.6900, 141.6379
461.8780, 107.7815
463.0650, 106.9268
464.2530, 37.07275
465.4400, 88.22021
466.6270, 134.3687
467.8130, 140.5186
469.0000, 204.6689
470.1870, 154.8203
471.3730, 274.9739
472.5590, 360.1294
473.7450, 533.2878
474.9310, 615.4531
476.1160, 792.6245
477.3020, 929.8086
478.4870, 1154.010
479.6720, 1381.240
480.8570, 1631.473
482.0420, 2069.708
483.2270, 2426.947
484.4110, 2870.186
485.5960, 3208.429
486.7800, 3330.673
487.9640, 3193.919
489.1480, 2811.167
490.3310, 2155.417
491.5150, 1535.668
492.6980, 1120.921
493.8810, 769.1753
495.0640, 486.4309
496.2470, 316.6880
497.4300, 239.9460
498.6120, 110.2048
499.7950, 105.4651
500.9770, 57.72607
502.1590, 18.98755
503.3410, 1.250000
504.5220, 20.65356
505.7040, 11.24780
506.8850, 32.01465
508.0660, 33.80273
509.2470, 24.61304
510.4280, 33.56079
511.6090, 37.25415
512.7890, 2.906250
513.9700, 16.06763
515.1500, 9.763916
516.3300, 26.59888
517.5100, 8.440186
518.6900, 11.27905
519.8690, 64.10083
521.0490, 62.92993
522.2280, 102.7646
523.4070, 91.62524
524.5860, 43.49731
525.7640, 56.37158
526.9430, 47.25806
528.1210, 19.56055
529.3000, 36.06421
530.4780, 31.01611
531.6560, 14.09521
532.8330, 56.17261
534.0110, 144.2488
535.1880, 107.3237
536.3650, 148.3975
537.5430, 148.4697
538.7190, 156.5408
539.8960, 135.6104
541.0730, 95.67847
542.2490, 81.74487
543.4250, 67.80981
544.6020, 15.87842
545.7780, 1.946289
546.9530, 36.00684
548.1290, 34.07471
549.3040, 19.83618
550.4800, 30.73853
551.6550, 43.65479
552.8300, 44.58154
554.0040, 29.47046
555.1790, 34.44678
556.3540, 47.62671
557.5280, 42.71655
558.7020, 54.81592
559.8760, 144.9221
561.0500, 231.0547
562.2230, 374.1851
563.3970, 345.8596
564.5700, 370.9856
565.7430, 311.6003
566.9160, 322.7334
568.0890, 333.8640
569.2620, 356.9917
570.4340, 373.1165
571.6070, 456.2383
572.7790, 455.3572
573.9510, 496.4731
575.1230, 608.5859
576.2940, 696.6956
577.4660, 704.8022
578.6370, 684.9055
579.8080, 747.0059
580.9790, 872.1028
582.1500, 1007.197
583.3210, 1190.287
584.4910, 1370.527
585.6620, 1529.458
586.8320, 1787.538
588.0020, 2069.615
589.1720, 2290.688
590.3410, 2492.758
591.5110, 2530.823
592.6800, 2376.886
593.8500, 2139.945
595.0190, 1821.000
596.1880, 1524.051
597.3560, 1176.099
598.5250, 897.1428
599.6930, 760.1829
600.8620, 646.2188
602.0300, 508.2505
603.1970, 498.2788
604.3650, 346.3027
605.5330, 411.3225
606.7000, 418.3384
607.8680, 469.3501
609.0350, 498.3574
610.2020, 526.3608
611.3680, 551.3601
612.5350, 614.3545
613.7010, 703.3452
614.8680, 653.3313
616.0340, 726.3127
617.2000, 682.2900
618.3660, 690.2627
619.5310, 607.2305
620.6970, 566.1934
621.8620, 392.1516
623.0270, 356.1050
624.1920, 234.0535
625.3570, 155.9966
626.5220, 150.9351
627.6860, 130.8682
628.8500, 100.7964
630.0140, 104.7192
631.1780, 55.63721
632.3420, 58.54980
633.5060, 54.45728
634.6700, 128.3591
635.8330, 158.2561
636.9960, 171.1477
638.1590, 292.0339
639.3220, 325.9146
640.4850, 303.7900
641.6470, 471.6599
642.8100, 484.5244
643.9720, 551.1460
645.1340, 626.4253
646.2960, 513.2788
647.4570, 586.8135
648.6190, 479.3193
649.7800, 422.5251
650.9420, 273.7593
652.1030, 262.9871
653.2640, 165.3435
654.4240, 173.8159
655.5850, 117.9783
656.7450, 85.74780
657.9060, 127.4487
659.0660, 133.2466
660.2260, 79.32373
661.3850, 121.5635
662.5450, 152.5752
663.7040, 188.6521
664.8640, 251.3328
666.0230, 339.3745
667.1820, 400.7205
668.3410, 518.7925
669.4990, 754.8269
670.6580, 893.5654
671.8160, 1164.278
672.9740, 1382.007
674.1320, 1618.730
675.2900, 2006.448
676.4480, 2161.162
677.6050, 2298.871
678.7630, 2277.574
679.9200, 2127.273
681.0770, 1875.967
682.2340, 1607.656
683.3900, 1299.371
684.5470, 1011.182
685.7030, 832.4365
686.8590, 740.0376
688.0150, 625.0730
689.1710, 563.2222
690.3270, 502.8362
691.4830, 521.0032
692.6380, 510.4578
693.7930, 562.9939
694.9480, 592.9912
696.1030, 688.8049
697.2580, 774.9153
698.4130, 907.5151
699.5670, 1155.689
700.7210, 1282.285
701.8750, 1512.807
703.0290, 1974.396
704.1830, 2360.969
705.3370, 2950.535
706.4900, 3657.798
707.6430, 4451.644
708.7970, 5359.189
709.9490, 6382.724
711.1020, 7478.254
712.2550, 8674.776
713.4070, 9566.293
714.5600, 10344.80
715.7120, 10311.30
716.8640, 9862.793
718.0160, 8749.276
719.1670, 7462.756
720.3190, 6269.228
721.4700, 5093.690
722.6210, 4190.148
723.7720, 3325.599
724.9230, 2737.041
726.0740, 2267.478
727.2250, 1887.907
728.3750, 1563.329
729.5250, 1269.744
730.6750, 1072.152
731.8250, 942.5527
732.9750, 851.9470
734.1240, 706.3345
735.2740, 599.7151
736.4230, 513.0889
737.5720, 444.4561
738.7210, 388.8159
739.8700, 335.1694
741.0190, 320.5164
742.1670, 314.8564
743.3150, 262.1899
744.4630, 178.5171
745.6110, 202.8379
746.7590, 168.1519
747.9070, 176.4595
749.0540, 91.76099
750.2020, 152.0559
751.3490, 109.3447
752.4960, 120.6270
753.6430, 161.9033
754.7890, 168.1736
755.9360, 164.4380
757.0820, 211.6965
758.2280, 222.9490
759.3740, 276.1953
760.5200, 275.4358
761.6660, 299.6709
762.8120, 312.8997
763.9570, 344.1230
765.1020, 356.3408
766.2470, 444.5530
767.3920, 437.7595
768.5370, 544.9602
769.6810, 517.1555
770.8260, 528.3452
771.9700, 511.5298
773.1140, 496.7090
774.2580, 348.8828
775.4020, 289.0513
776.5460, 248.2148
777.6890, 259.3730
778.8320, 225.5261
779.9750, 122.6743
781.1180, 143.8174
782.2610, 71.95776
783.4040, 77.10107
784.5460, 68.24487
785.6890, 20.39453
786.8310, 12.54956
787.9730, 25.29419
789.1150, 20.83545
790.2560, 0.9719240
791.3980, 13.90283
792.5390, 8.798340
793.6810, 35.70605
794.8220, 32.79736
795.9630, 37.58984
797.1030, 31.57080
798.2440, 1.561035
799.3840, 15.45483
800.5240, 28.50464
801.6650, 16.53589
802.8040, 9.414063
803.9440, 44.63721
805.0840, 39.70044
806.2230, 22.76782
807.3630, 75.84399
808.5020, 106.9167
809.6410, 89.98608
810.7790, 126.0518
811.9180, 149.1145
813.0570, 146.1733
814.1950, 157.2290
815.3330, 153.2815
816.4710, 100.3308
817.6090, 66.37720
818.7470, 31.42017
819.8840, 8.539551
821.0220, 5.486328
822.1590, 17.50684
823.2960, 23.47290
824.4330, 78.47388
825.5690, 93.52441
826.7060, 32.62402
827.8420, 70.73706
828.9790, 34.88062
830.1150, 114.0349
831.2510, 60.25659
832.3860, 61.50439
833.5220, 34.79175
834.6570, 27.10425
835.7930, 100.4375
836.9280, 33.17041
838.0630, 43.22339
839.1980, 6.354004
840.3320, 31.92969
841.4670, 22.50366
842.6010, 96.07617
843.7350, 76.64746
844.8690, 153.2175
846.0030, 242.7866
847.1370, 250.3550
848.2700, 308.1631
849.4040, 264.4885
850.5370, 359.0544
851.6700, 352.6196
852.8030, 365.1841
853.9360, 373.7478
855.0680, 417.3115
856.2000, 355.8752
857.3330, 459.4397
858.4650, 425.0044
859.5970, 372.5688
860.7290, 369.1367
861.8600, 440.7048
862.9920, 323.2729
864.1230, 422.8418
865.2540, 378.4116
866.3850, 400.9858
867.5160, 439.5613
868.6460, 379.1370
869.7770, 456.7136
870.9070, 355.2910
872.0370, 458.8694
873.1670, 488.4490
874.2970, 473.0332
875.4270, 479.6189
876.5570, 470.2061
877.6860, 550.7949
878.8150, 579.3882
879.9440, 643.9941
881.0730, 706.6021
882.2020, 792.2141
883.3300, 833.8279
884.4590, 931.5325
885.5870, 956.0676
886.7150, 1122.698
887.8430, 1223.339
888.9710, 1340.984
890.0990, 1613.638
891.2260, 1871.300
892.3530, 2030.966
893.4810, 2305.633
894.6080, 2628.304
895.7340, 2863.977
896.8610, 3308.657
897.9880, 3630.341
899.1140, 3890.028
900.2400, 4128.717
901.3660, 4267.409
902.4920, 4388.104
903.6180, 4377.802
904.7430, 4446.504
905.8690, 4422.208
906.9940, 4498.917
908.1190, 4054.628
909.2440, 4030.346
910.3690, 3724.068
911.4930, 3361.800
912.6180, 2993.535
913.7420, 2779.275
914.8660, 2453.019
915.9900, 2085.768
917.1140, 1839.520
918.2380, 1618.275
919.3610, 1488.036
920.4850, 1311.800
921.6080, 1202.712
922.7310, 1083.019
923.8540, 1041.395
924.9760, 980.1035
926.0990, 961.1580
927.2210, 913.2961
928.3440, 890.7727
929.4660, 917.5825
930.5880, 800.5938
931.7090, 867.3218
932.8310, 843.4463
933.9520, 877.4761
935.0740, 859.2251
936.1950, 834.6082
937.3160, 841.4053
938.4360, 750.0264
939.5570, 776.9084
940.6780, 786.7964
941.7980, 892.6797
942.9180, 876.5793
944.0380, 976.4844
945.1580, 978.3953
946.2780, 996.3118
947.3970, 1113.234
948.5170, 1257.163
949.6360, 1363.098
950.7550, 1411.038
951.8740, 1586.989
952.9930, 1685.946
954.1110, 1809.909
955.2300, 2035.858
956.3480, 2194.683
957.4660, 2393.673
958.5840, 2562.742
959.7020, 2834.383
960.8190, 3176.100
961.9370, 3581.663
963.0540, 3911.871
964.1710, 4079.360
965.2880, 4333.916
966.4050, 4534.873
967.5220, 4548.781
968.6380, 4451.396
969.7550, 4462.522
970.8710, 4530.082
971.9870, 4641.223
973.1030, 4785.437
974.2190, 5279.594
975.3340, 5670.768
976.4500, 6302.954
977.5650, 6877.147
978.6800, 7329.357
979.7950, 7928.578
980.9100, 8244.808
982.0250, 8162.049
983.1390, 8019.300
984.2530, 7665.562
985.3680, 6997.834
986.4820, 6682.120
987.5950, 6332.416
988.7090, 5984.722
989.8230, 5718.038
990.9360, 5621.641
992.0490, 5814.976
993.1620, 5800.323
994.2750, 5869.348
995.3880, 5851.727
996.5010, 5946.119
997.6130, 6241.527
998.7250, 6306.978
999.8370, 6443.358
1000.949, 6565.791
1002.061, 6640.231
1003.173, 6615.684
1004.284, 6372.144
1005.396, 6217.618
1006.507, 5854.102
1007.618, 5502.373
1008.729, 4945.901
1009.839, 4377.416
1010.950, 3924.986
1012.060, 3308.226
1013.171, 2908.521
1014.281, 2532.807
1015.391, 2141.846
1016.500, 1876.426
1017.610, 1654.015
1018.719, 1393.069
1019.829, 1216.580
1020.938, 1107.917
1022.047, 1027.078
1023.156, 946.1143
1024.264, 834.9707
1025.373, 827.7607
1026.481, 847.4268
1027.589, 790.1018
1028.697, 758.7896
1029.805, 777.5874
1030.913, 656.2935
1032.020, 671.0088
1033.128, 641.7332
1034.235, 562.4663
1035.342, 542.2085
1036.449, 487.6787
1037.556, 415.7217
1038.663, 408.4927
1039.769, 350.2742
1040.875, 338.0637
1041.981, 322.5532
1043.087, 328.3608
1044.193, 293.6436
1045.299, 379.4695
1046.404, 297.3044
1047.510, 198.3022
1048.615, 307.1541
1049.720, 332.0142
1050.825, 257.8833
1051.930, 343.7827
1053.034, 313.6682
1054.139, 339.9915
1055.243, 420.8943
1056.347, 334.8066
1057.451, 363.7388
1058.555, 402.6841
1059.658, 350.0381
1060.762, 273.4075
1061.865, 358.6570
1062.968, 417.9795
1064.071, 322.0195
1065.174, 308.0786
1066.277, 337.8062
1067.380, 284.8984
1068.482, 202.6775
1069.584, 239.7795
1070.686, 145.9075
1071.788, 109.0486
1072.890, 211.2402
1073.992, 138.4021
1075.093, 148.5649
1076.194, 140.7354
1077.295, 99.91260
1078.396, 164.0967
1079.497, 117.2876
1080.598, 148.5288
1081.698, 153.7332
1082.799, 132.9443
1083.899, 140.0181
1084.999, 160.2905
1086.099, 181.5232
1087.199, 194.2175
1088.298, 97.79053
1089.398, 162.0493
1090.497, 70.45874
1091.596, 76.87451
1092.695, 25.19897
1093.794, 107.5422
1094.892, 107.3569
1095.991, 107.1929
1097.089, 94.77490
1098.187, 147.5674
1099.285, 129.4441
1100.383, 66.52832
1101.481, 119.0369
1102.579, 100.3806
1103.676, 62.98511
1104.773, 54.54614
1105.870, 62.15039
1106.967, 49.73364
1108.064, 31.33643
1109.161, 126.0393
1110.257, 110.7183
1111.353, 51.37378
1112.449, 106.2190
1113.545, 43.83130
1114.641, 77.44727
1115.737, 94.35986
1116.832, 36.01221
1117.928, 82.16504
1119.023, 95.98657
1120.118, 92.61938
1121.213, 90.46240
1122.308, 14.10571
1123.402, 41.53320
1124.497, 14.36768
1125.591, 24.98804
1126.685, 60.67773
1127.779, 67.32129
1128.873, 0.9667970
1129.967, 2.385010
1131.060, 29.73486
1132.153, 6.907471
1133.247, 46.55225
1134.340, 40.19922
1135.433, 32.84985
1136.525, 7.811279
1137.618, 9.621094
1138.710, 23.75146
1139.802, 0.6381840
1140.895, 8.011963
1141.987, 1.773438
1143.078, 20.92188
1144.170, 52.14893
1145.261, 36.47583
1146.353, 14.83789
1147.444, 14.93066
1148.535, 2.552979
1149.626, 33.77197
1150.716, 23.16162
1151.807, 37.19189
1152.897, 14.90430
1153.988, 31.32275
1155.078, 27.75415
1156.168, 4.195068
1157.257, 16.41992
1158.347, 58.98730
1159.436, 14.32007
1160.526, 24.04028
1161.615, 17.50708
1162.704, 44.06396
1163.793, 64.61499
1164.881, 65.16040
1165.970, 14.70508
1167.058, 29.24902
1168.147, 23.29272
1169.235, 34.83472
1170.323, 53.61060
1171.410, 41.15039
1172.498, 13.24829
1173.585, 56.28198
1174.673, 25.08667
1175.760, 17.58667
1176.847, 54.09912
1177.934, 1.390137
1179.020, 22.32056
1180.107, 20.87695
1181.193, 14.20068
1182.279, 2.702148
1183.365, 41.20093
1184.451, 21.30273
1185.537, 47.17871
1186.623, 14.66699
1187.708, 26.21045
1188.793, 20.64453
1189.878, 2.883789
1190.963, 2.053711
1192.048, 15.50757
1193.133, 6.4940996E-02
1194.217, 9.471924
1195.302, 70.03638
1196.386, 4.533691
1197.470, 31.11816
1198.554, 20.28662
1199.638, 8.889648
1200.721, 16.50415
1201.805, 39.88403
1202.888, 9.259766
1203.971, 16.63086
1205.054, 27.05054
1206.137, 32.49097
1207.219, 29.04565
1208.302, 34.21265
1209.384, 29.59180
1210.466, 12.93726
1211.548, 39.28467
1212.630, 39.67676
1213.712, 2.992188
1214.794, 15.70776
1215.875, 30.09277
1216.956, 27.59985
1218.037, 7.681396
1219.118, 40.95410
1220.199, 13.22168
1221.280, 5.508545
1222.360, 28.85132
1223.441, 39.09058
1224.521, 41.67578
1225.601, 9.472168
1226.681, 20.68555
1227.760, 10.46851
1228.840, 54.61523
1229.919, 46.76758
1230.999, 83.90894
1232.078, 2.051270
1233.157, 28.16260
1234.236, 65.27124
1235.314, 0.6320800
1236.393, 78.44922
1237.471, 40.52905
1238.549, 23.59497
1239.627, 0.3476560
1240.705, 32.69263
1241.783, 18.72510
1242.860, 64.74780
1243.938, 80.78955
1245.015, 17.79736
1246.092, 40.79443
1247.169, 11.78394
1248.246, 22.76123
1249.323, 67.72876
1250.399, 81.68848
1251.475, 124.6404
1252.552, 83.30981
1253.628, 24.24634
1254.703, 95.17334
1255.779, 29.47998
1256.855, 66.47168
1257.930, 108.3494
1259.005, 99.35059
1260.080, 140.1934
1261.155, 115.2034
1262.230, 68.93481
1263.305, 55.81885
1264.379, 70.10791
1265.454, 20.93140
1266.528, 128.7437
1267.602, 31.54810
1268.676, 15.56885
1269.750, 76.33691
1270.823, 13.11523
1271.897, 26.84009
1272.970, 31.89453
1274.043, 56.16846
1275.116, 41.02490
1276.189, 28.28516
1277.261, 80.00537
1278.334, 43.73364
1279.406, 63.05859
1280.478, 57.85229
1281.550, 36.82275
1282.622, 55.03711
1283.694, 62.33716
1284.766, 50.79175
1285.837, 37.31445
1286.908, 49.05713
1287.979, 1.784424
1289.050, 32.40991
1290.121, 87.51270
1291.192, 50.12231
1292.262, 51.72656
1293.333, 73.32349
1294.403, 60.91235
1295.473, 58.49365
1296.543, 8.067139
1297.613, 64.62842
1298.682, 19.18262
1299.752, 64.72729
1300.821, 40.26416
1301.890, 64.10229
