##NAMES=Axinite-(Fe)
##RRUFFID=R060183
##IDEAL CHEMISTRY=Ca_4_Fe^2+^_2_Al_4_[B_2_Si_8_O_30_](OH)_2_
##LOCALITY=Skagit Bluffs, near Manning Park, British Columbia, Canada
##OWNER=RRUFF
##SOURCE=Lloyd Twaites
##DESCRIPTION=Light-pink transparent axe-head-shaped single crystal
##STATUS=The identification of this mineral has been confirmed by X-ray diffraction and chemical analysis
##URL=rruff.info/R060183
##MEASURED CHEMISTRY=Ca_2.00_(Fe^2+^_0.58_Mn_0.23_Mg_0.19_)Al_2.00_B_1.00_Si_4.00_O_15_(OH)
##PIN_ID=L01506
##ORIENTATION=Laser parallel to (-1 -1 0). Fiducial mark perpendicular to laser is parallel to c [0 0 1]
52.67100, 0.0000000E+00
53.91000, 62.69781
55.14900, 165.9195
56.38700, 200.6074
57.62600, 302.1332
58.86400, 324.9253
60.10300, 458.0905
61.34100, 303.1381
62.57900, 187.5526
63.81700, 197.5746
65.05400, 7.418091
66.29200, 15.61401
67.52900, 185.5980
68.76700, 54.66113
70.00400, 122.8718
71.24100, 55.70923
72.47700, 25.41919
73.71400, 117.2122
74.95100, 297.3416
76.18700, 486.7422
77.42300, 402.2104
78.65900, 443.5654
79.89500, 675.6460
81.13100, 891.3088
82.36700, 1414.427
83.60200, 1837.885
84.83700, 2062.582
86.07200, 2315.423
87.30800, 2725.327
88.54200, 3143.217
89.77700, 4144.020
91.01200, 5174.620
92.24600, 6110.877
93.48000, 6643.665
94.71400, 7267.874
95.94800, 7529.458
97.18200, 7903.185
98.41600, 7826.637
99.64900, 8421.138
100.8830, 8720.851
102.1160, 9073.741
103.3490, 9894.775
104.5820, 11002.93
105.8150, 12626.16
107.0470, 14639.47
108.2800, 13850.82
109.5120, 15344.19
110.7440, 12097.58
111.9760, 10415.94
113.2080, 9040.279
114.4400, 8503.570
115.6710, 7918.800
116.9030, 7136.956
118.1340, 6600.021
119.3650, 5941.982
120.5960, 5738.828
121.8270, 5785.549
123.0580, 6066.132
124.2880, 5964.564
125.5190, 5797.834
126.7490, 5704.785
127.9790, 5847.966
129.2090, 5890.341
130.4390, 5680.885
131.6680, 5376.577
132.8980, 5122.445
134.1270, 5216.422
135.3560, 5518.596
136.5850, 5905.190
137.8140, 6620.540
139.0430, 7474.732
140.2710, 8338.592
141.5000, 8712.575
142.7280, 9278.854
143.9560, 9414.163
145.1840, 9540.892
146.4120, 9820.060
147.6390, 9981.682
148.8670, 9694.772
150.0940, 9455.349
151.3210, 9393.412
152.5490, 8896.972
153.7750, 8657.027
155.0020, 8816.580
156.2290, 8440.625
157.4550, 8084.167
158.6810, 7560.204
159.9080, 7297.732
161.1340, 7253.750
162.3590, 7631.261
163.5850, 8457.255
164.8110, 9624.734
166.0360, 11373.70
167.2610, 13345.14
168.4860, 15703.06
169.7110, 17206.46
170.9360, 17301.32
172.1610, 16197.67
173.3850, 14346.48
174.6100, 12474.75
175.8340, 10563.49
177.0580, 8914.690
178.2820, 6674.347
179.5050, 5384.457
180.7290, 4186.020
181.9520, 3541.031
183.1760, 3065.488
184.3990, 2573.388
185.6220, 2597.729
186.8450, 2884.523
188.0670, 3757.784
189.2900, 3471.478
190.5120, 4225.597
191.7340, 4883.137
192.9560, 5514.099
194.1780, 5740.475
195.4000, 5829.264
196.6220, 5807.463
197.8430, 5939.066
199.0640, 6462.072
200.2860, 7157.439
201.5070, 8249.432
202.7270, 9542.092
203.9480, 10443.30
205.1690, 11722.28
206.3890, 12943.16
207.6090, 14228.46
208.8290, 15479.51
210.0490, 15903.77
211.2690, 15622.81
212.4890, 14925.79
213.7080, 14105.57
214.9280, 12869.19
216.1470, 11409.27
217.3660, 10285.67
218.5850, 8901.157
219.8030, 7709.629
221.0220, 6323.857
222.2400, 5004.602
223.4590, 4253.193
224.6770, 3182.494
225.8950, 2641.464
227.1120, 2074.816
228.3300, 1609.205
229.5480, 1293.059
230.7650, 1122.602
231.9820, 980.0859
233.1990, 1137.510
234.4160, 1089.244
235.6330, 1415.549
236.8490, 1805.438
238.0660, 2093.929
239.2820, 2718.009
240.4980, 3177.688
241.7140, 3541.511
242.9300, 3978.411
244.1460, 4233.197
245.3610, 4578.139
246.5770, 4766.569
247.7920, 4865.470
249.0070, 4924.782
250.2220, 5161.451
251.4370, 5219.471
252.6510, 5327.832
253.8660, 5440.535
255.0800, 5371.568
256.2940, 4927.936
257.5080, 4915.628
258.7220, 4670.822
259.9360, 5105.975
261.1490, 4498.621
262.3630, 4256.578
263.5760, 4588.843
264.7890, 5055.409
266.0020, 5807.275
267.2150, 6565.438
268.4270, 7421.891
269.6400, 8763.634
270.8520, 9639.662
272.0640, 10214.97
273.2760, 10743.56
274.4880, 10778.43
275.7000, 10279.57
276.9120, 9322.995
278.1230, 8257.698
279.3340, 6954.678
280.5450, 5847.933
281.7560, 5048.396
282.9670, 4283.276
284.1780, 3812.358
285.3880, 3767.709
286.5980, 3741.327
287.8090, 4184.208
289.0190, 4661.354
290.2290, 5362.760
291.4380, 6392.425
292.6480, 7280.349
293.8570, 8385.524
295.0670, 9402.961
296.2760, 10207.65
297.4850, 11097.58
298.6930, 11618.77
299.9020, 12335.20
301.1110, 12877.88
302.3190, 13413.80
303.5270, 13766.96
304.7350, 13967.37
305.9430, 13584.00
307.1510, 12688.88
308.3580, 11650.99
309.5660, 10520.33
310.7730, 9634.899
311.9800, 9184.693
313.1870, 9026.719
314.3940, 9800.967
315.6010, 10616.44
316.8070, 11493.13
318.0130, 11613.15
319.2200, 11464.55
320.4260, 10504.12
321.6310, 9226.672
322.8370, 7994.435
324.0430, 6330.405
325.2480, 5156.584
326.4540, 4416.970
327.6590, 3892.557
328.8640, 3278.346
330.0680, 2827.335
331.2730, 2804.522
332.4780, 2762.906
333.6820, 2968.484
334.8860, 3500.254
336.0900, 4208.874
337.2940, 5070.363
338.4980, 6431.700
339.7010, 7938.223
340.9050, 9676.930
342.1080, 10857.82
343.3110, 11335.89
344.5140, 11387.13
345.7170, 11065.63
346.9200, 10672.39
348.1220, 10419.43
349.3240, 10311.94
350.5270, 9962.340
351.7290, 9310.180
352.9310, 8010.634
354.1320, 6509.043
355.3340, 5160.848
356.5350, 3779.076
357.7370, 2606.262
358.9380, 1647.625
360.1390, 738.2666
361.3400, 173.1465
362.5400, 43.74609
363.7410, 423.4219
364.9410, 610.9512
366.1410, 577.3916
367.3410, 672.7363
368.5410, 617.0166
369.7410, 432.2188
370.9400, 317.2930
372.1400, 210.2158
373.3390, 295.9648
374.5380, 170.5615
375.7370, 113.4473
376.9360, 56.14453
378.1350, 259.5908
379.3330, 929.3916
380.5310, 1417.949
381.7300, 2301.946
382.9280, 3329.996
384.1260, 4674.205
385.3230, 5932.513
386.5210, 7231.353
387.7180, 8072.212
388.9160, 8655.816
390.1130, 9368.037
391.3100, 9484.243
392.5060, 9177.790
393.7030, 8945.719
394.9000, 8002.032
396.0960, 7132.492
397.2920, 6102.098
398.4880, 5248.844
399.6840, 4336.730
400.8800, 3760.758
402.0750, 2935.923
403.2710, 2489.225
404.4660, 1973.661
405.6610, 1811.232
406.8560, 1713.938
408.0510, 1988.775
409.2450, 2148.742
410.4400, 2653.842
411.6340, 3401.070
412.8280, 4454.425
414.0220, 5584.907
415.2160, 6627.516
416.4100, 7163.249
417.6030, 7520.105
418.7970, 7616.082
419.9900, 8008.182
421.1830, 8350.401
422.3760, 9012.739
423.5690, 9951.194
424.7610, 11238.77
425.9540, 12294.45
427.1460, 13203.25
428.3380, 14035.16
429.5300, 14048.19
430.7220, 13661.32
431.9140, 12612.55
433.1050, 10715.90
434.2970, 9028.352
435.4880, 7349.906
436.6790, 5889.562
437.8700, 4946.322
439.0610, 4453.181
440.2510, 4228.139
441.4420, 4399.191
442.6320, 4327.344
443.8220, 4298.590
445.0120, 4024.929
446.2020, 3396.359
447.3910, 2728.883
448.5810, 1864.496
449.7700, 1545.197
450.9600, 1182.984
452.1490, 752.8584
453.3370, 847.8174
454.5260, 811.8594
455.7150, 709.9844
456.9030, 666.1895
458.0910, 440.4746
459.2800, 262.8389
460.4670, 123.2803
461.6550, 75.06152
462.8430, 81.08887
464.0300, 150.9785
465.2180, 300.6680
466.4050, 521.4287
467.5920, 810.2598
468.7790, 811.1602
469.9650, 857.1289
471.1520, 913.1641
472.3380, 665.2646
473.5250, 462.4307
474.7110, 332.6602
475.8970, 527.9521
477.0820, 789.3057
478.2680, 933.7188
479.4540, 1333.190
480.6390, 1683.722
481.8240, 2261.308
483.0090, 2623.952
484.1940, 2851.648
485.3780, 2566.400
486.5630, 2095.205
487.7470, 1571.701
488.9320, 1076.770
490.1160, 526.8652
491.3000, 106.4189
492.4830, 102.9912
493.6670, 267.0918
494.8500, 306.0332
496.0340, 167.4980
497.2170, 37.10059
498.4000, 104.2188
499.5820, 307.4873
500.7650, 592.8467
501.9480, 750.2080
503.1300, 955.6025
504.3120, 1099.738
505.4940, 1270.012
506.6760, 1297.381
507.8580, 1345.830
509.0390, 1369.341
510.2210, 1185.571
511.4020, 1080.650
512.5830, 970.6045
513.7640, 696.7188
514.9450, 612.3467
516.1250, 347.0635
517.3060, 120.6475
518.4860, 96.76367
519.6660, 257.0977
520.8460, 387.1660
522.0260, 478.0117
523.2060, 563.6348
524.3850, 557.5371
525.5650, 604.7373
526.7440, 685.2334
527.9230, 449.1260
529.1020, 409.3271
530.2810, 552.8291
531.4590, 267.6973
532.6380, 193.8008
533.8160, 13.89551
534.9940, 334.4893
536.1720, 514.0781
537.3500, 998.6729
538.5270, 1418.272
539.7050, 1880.879
540.8820, 2527.491
542.0590, 3090.108
543.2360, 3725.771
544.4130, 3923.479
545.5900, 4206.260
546.7660, 4090.139
547.9430, 3935.088
549.1190, 3646.109
550.2950, 3252.211
551.4710, 3124.371
552.6470, 3158.624
553.8220, 3323.922
554.9980, 3454.274
556.1730, 3895.678
557.3480, 4189.157
558.5230, 4353.703
559.6980, 4462.273
560.8730, 4278.844
562.0470, 3953.414
563.2220, 3879.007
564.3960, 3483.220
565.5700, 3184.199
566.7440, 3006.792
567.9170, 3049.373
569.0910, 3362.938
570.2640, 3367.487
571.4380, 3518.019
572.6110, 3655.530
573.7840, 3696.025
574.9570, 3623.499
576.1290, 3480.951
577.3020, 3559.384
578.4740, 3507.795
579.6460, 3713.184
580.8180, 3881.548
581.9900, 4225.889
583.1620, 4771.203
584.3330, 5229.492
585.5040, 5595.756
586.6760, 6079.992
587.8470, 6337.203
589.0180, 5844.383
590.1880, 5543.534
591.3590, 4818.658
592.5290, 3851.750
593.7000, 3173.812
594.8700, 2457.842
596.0400, 1991.840
597.2090, 1758.806
598.3790, 1462.736
599.5490, 1237.634
600.7180, 1207.498
601.8870, 1210.209
603.0560, 1429.726
604.2250, 1574.257
605.3940, 1777.977
606.5620, 1980.659
607.7300, 2329.304
608.8990, 2592.911
610.0670, 2535.479
611.2350, 2871.010
612.4020, 2725.498
613.5700, 2794.947
614.7370, 2864.355
615.9050, 2888.723
617.0720, 2826.049
618.2390, 2726.332
619.4060, 2695.572
620.5720, 2426.770
621.7390, 2307.923
622.9050, 1815.031
624.0710, 1498.095
625.2370, 1173.114
626.4030, 965.0869
627.5690, 591.0146
628.7340, 549.8857
629.9000, 403.6982
631.0650, 388.4219
632.2300, 525.8525
633.3950, 549.5938
634.5600, 597.0996
635.7240, 788.1982
636.8890, 844.5518
638.0530, 1155.728
639.2170, 1106.675
640.3810, 1459.883
641.5450, 1664.118
642.7080, 1682.311
643.8720, 1665.458
645.0350, 1613.561
646.1980, 1550.621
647.3610, 1464.676
648.5240, 1317.500
649.6870, 1278.134
650.8490, 1078.872
652.0120, 1135.824
653.1740, 1249.077
654.3360, 1164.100
655.4980, 1384.646
656.6600, 1720.477
657.8210, 2223.360
658.9830, 2566.439
660.1440, 3061.283
661.3050, 3638.580
662.4660, 4257.081
663.6270, 4562.242
664.7870, 5079.912
665.9480, 5158.283
667.1080, 5455.767
668.2680, 5634.495
669.4280, 5945.289
670.5880, 6342.668
671.7480, 7047.452
672.9070, 7971.608
674.0670, 8945.456
675.2260, 9595.037
676.3850, 10240.35
677.5440, 10375.62
678.7030, 9823.029
679.8610, 8768.762
681.0200, 7805.342
682.1780, 6734.488
683.3360, 5588.363
684.4940, 4530.881
685.6520, 3779.910
686.8090, 3226.270
687.9670, 2927.423
689.1240, 2678.135
690.2810, 2645.034
691.4380, 2726.301
692.5950, 2536.925
693.7520, 2828.719
694.9080, 3137.050
696.0650, 3673.576
697.2210, 4250.330
698.3770, 4846.042
699.5330, 5715.053
700.6880, 6963.701
701.8440, 8701.600
702.9990, 10507.24
704.1550, 13062.91
705.3100, 15920.46
706.4650, 19039.13
707.6190, 23269.24
708.7740, 27756.26
709.9290, 32309.23
711.0830, 36768.14
712.2370, 40365.99
713.3910, 42489.80
714.5450, 42835.56
715.6980, 40665.25
716.8520, 37395.89
718.0050, 33069.49
719.1580, 28156.02
720.3110, 23700.51
721.4640, 19098.94
722.6170, 15825.31
723.7700, 12999.64
724.9220, 10371.90
726.0740, 8642.119
727.2260, 7156.279
728.3780, 6190.387
729.5300, 5140.441
730.6810, 4339.443
731.8330, 3743.392
732.9840, 3305.287
734.1350, 2812.128
735.2860, 2456.798
736.4370, 2086.265
737.5880, 1918.338
738.7380, 1726.971
739.8880, 1653.550
741.0390, 1534.641
742.1890, 1617.569
743.3380, 1277.018
744.4880, 1587.414
745.6380, 1255.760
746.7870, 1201.055
747.9360, 1220.300
749.0850, 1147.494
750.2340, 1040.637
751.3830, 1330.729
752.5310, 1532.772
753.6800, 1422.767
754.8280, 1680.709
755.9760, 1861.604
757.1240, 2256.450
758.2720, 2522.248
759.4190, 2948.996
760.5670, 3407.696
761.7140, 3795.349
762.8610, 4337.953
764.0080, 4957.512
765.1550, 5252.021
766.3020, 5465.846
767.4480, 5356.101
768.5950, 5456.330
769.7410, 5072.104
770.8870, 4482.820
772.0330, 4011.156
773.1780, 3636.223
774.3240, 3039.691
775.4690, 2797.207
776.6140, 2173.737
777.7590, 1758.254
778.9040, 1521.730
780.0490, 1231.165
781.1940, 1027.560
782.3380, 831.9111
783.4820, 671.2227
784.6260, 479.9443
785.7700, 357.1660
786.9140, 192.9150
788.0580, 127.0547
789.2010, 128.1348
790.3450, 34.15430
791.4880, 31.90918
792.6310, 106.0908
793.7730, 160.4277
794.9160, 219.9463
796.0590, 209.6543
797.2010, 180.4961
798.3430, 172.4141
799.4850, 171.3721
800.6270, 220.3438
801.7690, 149.3311
802.9100, 258.2969
804.0520, 38.28418
805.1930, 94.84277
806.3340, 174.0830
807.4750, 146.4375
808.6160, 154.9395
809.7560, 285.5195
810.8970, 485.1689
812.0370, 342.8418
813.1770, 324.4854
814.3170, 418.0957
815.4570, 250.6719
816.5960, 173.2148
817.7360, 188.7168
818.8750, 86.81641
820.0140, 84.46777
821.1530, 208.2373
822.2920, 298.1865
823.4310, 199.3633
824.5690, 219.7109
825.7070, 236.2441
826.8460, 177.9668
827.9840, 297.8477
829.1220, 130.9482
830.2590, 168.1807
831.3970, 163.5625
832.5340, 265.0898
833.6710, 223.8145
834.8080, 82.71289
835.9450, 37.28906
837.0820, 1.250977
838.2190, 78.84082
839.3550, 6.023438
840.4910, 33.25879
841.6270, 32.44141
842.7630, 94.10254
843.8990, 198.7334
845.0350, 263.0713
846.1700, 349.9248
847.3060, 413.4863
848.4410, 476.0264
849.5760, 532.5449
850.7100, 627.0420
851.8450, 532.5186
852.9800, 486.9766
854.1140, 574.4150
855.2480, 628.8340
856.3820, 734.2334
857.5160, 750.6152
858.6500, 840.8887
859.7830, 905.6260
860.9170, 985.6572
862.0500, 1034.972
863.1830, 1105.271
864.3160, 1153.555
865.4480, 1211.063
866.5810, 1278.078
867.7130, 1318.319
868.8460, 1306.547
869.9780, 1349.763
871.1100, 1321.966
872.2410, 1435.157
873.3730, 1337.338
874.5050, 1486.509
875.6360, 1563.671
876.7670, 1616.846
877.8980, 1523.012
879.0290, 1670.167
880.1590, 1620.314
881.2900, 1544.479
882.4200, 1775.636
883.5500, 1687.793
884.6800, 1848.942
885.8100, 1959.087
886.9400, 2055.240
888.0690, 2246.422
889.1990, 2529.609
890.3280, 2828.792
891.4570, 3157.439
892.5860, 3557.155
893.7140, 3981.341
894.8430, 4445.528
895.9710, 5040.734
897.1000, 5850.949
898.2280, 6301.213
899.3560, 6872.479
900.4830, 7368.758
901.6110, 7662.049
902.7380, 7755.164
903.8660, 7612.668
904.9930, 7486.025
906.1200, 6976.417
907.2460, 6475.816
908.3730, 5997.230
909.5000, 5668.672
910.6260, 5165.731
911.7520, 4528.666
912.8780, 4272.180
914.0040, 3838.719
915.1290, 3377.295
916.2550, 3302.877
917.3800, 3128.496
918.5050, 3033.123
919.6300, 2934.711
920.7550, 2789.430
921.8800, 2768.078
923.0040, 2685.760
924.1290, 2642.600
925.2530, 2749.509
926.3770, 2791.117
927.5010, 2899.967
928.6250, 2825.269
929.7480, 2907.274
930.8720, 2652.703
931.9950, 2793.898
933.1180, 2758.082
934.2410, 2582.899
935.3640, 2722.919
936.4860, 2702.004
937.6090, 2698.674
938.7310, 2797.646
939.8530, 2865.559
940.9750, 3234.853
942.0970, 3468.201
943.2180, 3767.357
944.3400, 4048.639
945.4610, 4559.709
946.5820, 4734.924
947.7030, 5638.148
948.8240, 5885.389
949.9450, 6439.650
951.0650, 7411.756
952.1860, 8164.520
953.3060, 9148.419
954.4260, 10196.73
955.5460, 11619.29
956.6650, 12996.20
957.7850, 14634.58
958.9040, 16943.31
960.0230, 18814.89
961.1420, 20834.56
962.2610, 22398.03
963.3800, 23156.12
964.4990, 23317.82
965.6170, 22895.35
966.7350, 21797.32
967.8530, 20785.08
968.9710, 19660.59
970.0890, 19074.13
971.2070, 18727.35
972.3240, 18446.92
973.4410, 19027.21
974.5580, 19864.76
975.6750, 20906.24
976.7920, 21591.83
977.9090, 22461.29
979.0250, 22538.29
980.1410, 22044.36
981.2580, 21608.48
982.3740, 20579.63
983.4890, 19266.82
984.6050, 18169.04
985.7200, 17204.30
986.8360, 15994.61
987.9510, 15864.96
989.0660, 15014.34
990.1810, 14916.77
991.2950, 14691.23
992.4100, 14438.75
993.5240, 14408.30
994.6390, 14763.92
995.7530, 14957.59
996.8660, 15027.29
997.9800, 15356.05
999.0940, 15734.87
1000.207, 16264.72
1001.320, 16177.61
1002.433, 15998.54
1003.546, 15636.52
1004.659, 15142.53
1005.772, 14413.59
1006.884, 13550.68
1007.996, 12396.11
1009.108, 11067.38
1010.220, 10060.39
1011.332, 8892.653
1012.444, 8033.956
1013.555, 6939.295
1014.666, 6175.117
1015.777, 5423.532
1016.888, 5078.355
1017.999, 4704.848
1019.110, 4223.621
1020.220, 3959.270
1021.331, 4001.964
1022.441, 3886.678
1023.551, 3988.356
1024.661, 3852.074
1025.770, 3903.998
1026.880, 3961.356
1027.989, 3714.220
1029.098, 3749.623
1030.207, 3555.227
1031.316, 3513.605
1032.425, 3581.734
1033.533, 3449.048
1034.642, 3493.645
1035.750, 3558.733
1036.858, 3579.917
1037.966, 3747.151
1039.073, 3981.458
1040.181, 4224.682
1041.288, 4387.171
1042.396, 4567.511
1043.503, 4544.020
1044.610, 4703.703
1045.716, 4880.164
1046.823, 5210.176
1047.929, 5620.133
1049.036, 5831.927
1050.142, 6384.174
1051.248, 6805.433
1052.353, 7348.799
1053.459, 7522.881
1054.564, 7810.475
1055.670, 7876.735
1056.775, 7853.512
1057.880, 7983.271
1058.985, 7584.076
1060.089, 7336.978
1061.194, 6808.385
1062.298, 6153.562
1063.402, 5540.393
1064.506, 4790.945
1065.610, 4269.305
1066.713, 3920.667
1067.817, 3491.133
1068.920, 3532.457
1070.023, 3248.281
1071.126, 3153.272
1072.229, 3511.154
1073.332, 3594.480
1074.435, 3961.717
1075.537, 4455.920
1076.639, 5119.010
1077.741, 5415.839
1078.843, 6268.061
1079.945, 6939.252
1081.046, 7612.452
1082.148, 7809.426
1083.249, 8091.967
1084.350, 7613.845
1085.451, 7192.000
1086.551, 6395.324
1087.652, 5680.596
1088.752, 4963.262
1089.853, 4467.213
1090.953, 3957.753
1092.053, 3474.926
1093.152, 2973.645
1094.252, 2735.807
1095.351, 2470.767
1096.451, 2312.546
1097.550, 2159.521
1098.649, 2188.862
1099.748, 1968.230
1100.846, 1996.083
1101.945, 1963.037
1103.043, 1932.655
1104.141, 1950.277
1105.239, 3065.905
1106.337, 3869.568
1107.434, 1595.077
1108.532, 2792.614
1109.629, 1433.285
1110.726, 1460.233
1111.823, 1155.248
1112.920, 1144.703
1114.017, 1190.321
1115.113, 1036.128
1116.210, 985.8467
1117.306, 968.0049
1118.402, 1176.102
1119.498, 1115.902
1120.593, 1182.324
1121.689, 1161.419
1122.784, 1078.986
1123.879, 1190.886
1124.974, 882.3125
1126.069, 737.9805
1127.164, 597.1738
1128.259, 517.7734
1129.353, 411.9668
1130.447, 283.8027
1131.541, 341.8867
1132.635, 147.5371
1133.729, 184.4424
1134.822, 72.29199
1135.916, 181.6934
1137.009, 69.57617
1138.102, 54.67285
1139.195, 20.63965
1140.288, 5.041992
1141.380, 147.2842
1142.473, 62.01465
1143.565, 43.12012
1144.657, 34.04395
1145.749, 151.0420
1146.841, 97.46289
1147.932, 58.40918
1149.024, 10.61133
1150.115, 12.89746
1151.206, 95.32910
1152.297, 163.9043
1153.388, 69.55371
1154.479, 75.76660
1155.569, 64.07715
1156.659, 67.13672
1157.750, 23.86914
1158.839, 36.32520
1159.929, 106.5078
1161.019, 49.13477
1162.108, 217.3447
1163.198, 24.31836
1164.287, 57.74609
1165.376, 61.24219
1166.465, 36.68457
1167.553, 100.1523
1168.642, 46.87109
1169.730, 46.05859
1170.818, 70.12500
1171.906, 23.89941
1172.994, 89.78320
1174.082, 137.7549
1175.170, 122.1553
1176.257, 36.42285
1177.344, 74.78809
1178.431, 135.2637
1179.518, 8.161133
1180.605, 119.2686
1181.691, 7.3242001E-02
1182.778, 52.90723
1183.864, 12.79980
1184.950, 1.454102
1186.036, 108.3047
1187.122, 72.64160
1188.207, 16.09082
1189.292, 90.79492
1190.378, 61.35156
1191.463, 34.43164
1192.548, 7.187500
1193.632, 121.0947
1194.717, 29.51660
1195.801, 84.83105
1196.886, 206.9727
1197.970, 0.5654300
1199.054, 11.15430
1200.137, 103.2031
1201.221, 31.47070
1202.305, 23.78516
1203.388, 30.96680
1204.471, 88.17383
1205.554, 105.2969
1206.637, 5.545898
1207.719, 0.4658200
1208.802, 131.4678
1209.884, 143.3535
1210.966, 149.1406
1212.048, 22.89355
1213.130, 82.59375
1214.212, 54.25488
1215.293, 200.8750
1216.374, 158.6104
1217.456, 28.00977
1218.536, 111.5049
1219.617, 41.96094
1220.698, 50.63477
1221.778, 50.18359
1222.859, 155.4395
1223.939, 122.7148
1225.019, 63.88672
1226.099, 76.01172
1227.178, 153.1797
1228.258, 48.30859
1229.337, 183.2881
1230.417, 108.2246
1231.496, 109.1152
1232.574, 186.9678
1233.653, 76.77441
