##NAMES=Axinite-(Fe)
##RRUFFID=R050061
##IDEAL CHEMISTRY=Ca_4_Fe^2+^_2_Al_4_[B_2_Si_8_O_30_](OH)_2_
##LOCALITY=Jamestown, California, USA
##OWNER=RRUFF
##SOURCE=Rock Currier
##DESCRIPTION=Brown colored axe-head-shaped single crystals
##STATUS=The identification of this mineral has been confirmed by X-ray diffraction and chemical analysis
##URL=rruff.info/R050061
##MEASURED CHEMISTRY=Ca_2.00_(Fe^2+^_0.73_Mg_0.20_Mn_0.07_)Al_2.00_BSi_4_O_15_(OH)
##PIN_ID=L00318
##ORIENTATION=Laser parallel to (0 1 1). Fiducial mark perpendicular to laser is parallel to a [1 0 0]
91.065, 0.000
92.466, 8.634
93.868, 99.540
95.269, 91.420
96.670, 213.909
98.070, 135.517
99.471, 48.381
100.871, 63.593
102.271, 307.682
103.670, 1059.551
105.070, 2441.559
106.469, 3903.443
107.868, 5099.741
109.267, 5699.277
110.665, 5492.304
112.063, 4647.753
113.461, 3514.842
114.859, 2865.588
116.256, 2302.932
117.653, 2094.870
119.050, 1764.536
120.447, 2010.067
121.843, 2789.589
123.240, 2337.208
124.636, 2221.028
126.031, 1906.027
127.427, 1611.004
128.822, 1403.823
130.217, 1275.799
131.612, 1212.136
133.006, 1365.010
134.400, 1642.573
135.794, 2162.967
137.188, 2678.321
138.581, 3281.982
139.975, 3547.384
141.368, 3446.148
142.760, 3264.562
144.153, 3282.677
145.545, 3440.530
146.937, 4108.150
148.329, 4485.558
149.720, 4962.778
151.112, 4909.828
152.503, 4786.722
153.893, 4343.496
155.284, 3960.192
156.674, 3646.821
158.064, 3353.362
159.454, 3285.685
160.843, 3545.558
162.233, 4161.345
163.622, 5240.435
165.011, 6771.811
166.399, 8752.106
167.787, 10572.562
169.175, 11443.132
170.563, 11773.794
171.951, 10564.549
173.338, 8735.386
174.725, 6806.307
176.112, 5007.333
177.499, 3665.516
178.885, 2510.877
180.271, 1602.426
181.657, 894.164
183.043, 364.091
184.428, 13.798
185.813, 210.509
187.198, 307.051
188.583, 213.432
189.967, 109.336
191.351, 454.248
192.735, 621.293
194.119, 678.462
195.502, 714.746
196.885, 563.137
198.268, 541.639
199.651, 745.232
201.033, 1067.889
202.415, 1685.606
203.797, 2422.383
205.179, 3257.214
206.561, 4059.098
207.942, 4933.032
209.323, 5517.008
210.703, 5581.005
212.084, 5505.007
213.464, 5029.108
214.844, 4343.661
216.224, 3638.741
217.603, 2840.163
218.983, 2259.609
220.362, 1540.036
221.741, 1028.273
223.119, 556.035
224.497, 236.691
225.875, 24.348
227.253, 153.996
228.631, 256.712
230.008, 400.261
231.385, 407.830
232.762, 376.605
234.139, 314.624
235.515, 179.126
236.891, 66.446
238.267, 401.503
239.643, 720.547
241.018, 1243.579
242.393, 1589.512
243.768, 2146.052
245.143, 2432.053
246.517, 2589.643
247.891, 2771.163
249.265, 2934.694
250.639, 3060.235
252.012, 3222.786
253.386, 3281.345
254.759, 3420.914
256.131, 3223.491
257.504, 3130.786
258.876, 2816.686
260.248, 2869.670
261.620, 2915.228
262.991, 3402.218
264.363, 4030.542
265.734, 4988.126
267.104, 6125.917
268.475, 7233.871
269.845, 8531.951
271.215, 9690.122
272.585, 10868.362
273.955, 11286.656
275.324, 11254.982
276.693, 11053.329
278.062, 9931.681
279.431, 8550.035
280.799, 7378.369
282.167, 6146.635
283.535, 5304.842
284.903, 4542.992
286.270, 4321.090
287.638, 4072.142
289.005, 4053.148
290.371, 4255.114
291.738, 4393.025
293.104, 4770.843
294.470, 4998.571
295.836, 5346.216
297.201, 5613.784
298.567, 5781.282
299.932, 5848.715
301.296, 5896.088
302.661, 6013.636
304.025, 6021.666
305.389, 5898.485
306.753, 5674.958
308.117, 5331.151
309.480, 4907.330
310.843, 4473.494
312.206, 4339.642
313.569, 4575.779
314.931, 5111.902
316.293, 5638.014
317.655, 5984.114
319.017, 6040.205
320.378, 5796.284
321.740, 4882.354
323.101, 4388.413
324.461, 3691.297
325.822, 3632.678
327.182, 3346.491
328.542, 3428.934
329.902, 3371.384
331.261, 3174.854
332.621, 2918.077
333.980, 2542.588
335.339, 2424.306
336.697, 2475.343
338.056, 2701.880
339.414, 3227.815
340.772, 3725.161
342.129, 4468.930
343.487, 4873.944
344.844, 5288.544
346.201, 5143.148
347.557, 5057.759
348.914, 5106.482
350.270, 5012.965
351.626, 4993.491
352.982, 4709.990
354.337, 4053.614
355.693, 3227.247
357.048, 2253.881
358.402, 1606.516
359.757, 1079.152
361.111, 603.789
362.465, 257.425
363.819, 137.591
365.173, 7.021
366.526, 66.572
367.879, 9.586
369.232, 120.780
370.585, 281.354
371.937, 319.649
373.290, 459.218
374.642, 489.081
375.993, 454.586
377.345, 279.297
378.696, 294.229
380.047, 336.668
381.398, 455.095
382.748, 780.508
384.099, 1286.909
385.449, 1870.297
386.799, 2904.674
388.148, 3729.042
389.497, 4507.511
390.847, 5393.888
392.196, 5908.830
393.544, 6214.286
394.893, 5929.085
396.241, 5365.856
397.589, 4876.527
398.936, 3831.709
400.284, 3248.275
401.631, 2879.382
402.978, 2421.479
404.325, 1969.564
405.672, 1676.643
407.018, 1523.713
408.364, 1257.777
409.710, 1330.838
411.055, 1455.896
412.401, 1856.950
413.746, 2625.001
415.091, 3431.047
416.435, 4467.090
417.780, 4922.129
419.124, 5206.164
420.468, 5090.195
421.812, 4994.216
423.155, 5298.227
424.498, 5692.224
425.842, 6496.202
427.184, 7370.162
428.527, 9344.099
429.869, 8838.019
431.211, 8751.911
432.553, 8335.778
433.895, 7439.626
435.236, 6203.449
436.577, 4897.247
437.918, 3711.018
439.259, 3213.765
440.599, 2721.486
441.940, 2614.182
443.280, 2801.852
444.619, 2561.496
445.959, 2484.115
447.298, 2126.710
448.637, 1586.279
449.976, 1220.824
451.315, 879.343
452.653, 860.838
453.991, 732.308
455.329, 837.754
456.667, 776.176
458.004, 694.574
459.341, 627.949
460.678, 429.301
462.015, 257.629
463.352, 186.936
464.688, 56.216
466.024, 110.464
467.360, 179.689
468.695, 404.894
470.031, 467.080
471.366, 584.249
472.701, 558.409
474.035, 502.563
475.370, 428.801
476.704, 403.983
478.038, 510.192
479.372, 581.445
480.705, 902.744
482.038, 1360.088
483.371, 1576.483
484.704, 2079.915
486.037, 2100.396
487.369, 1798.929
488.701, 1348.503
490.033, 782.092
491.365, 445.715
492.696, 93.359
494.027, 162.007
495.358, 276.493
496.689, 313.168
498.019, 305.052
499.350, 359.141
500.680, 190.463
502.009, 53.929
503.339, 143.531
504.668, 450.975
505.997, 657.405
507.326, 1002.821
508.655, 1228.223
509.983, 1341.640
511.311, 1588.123
512.639, 1596.707
513.967, 1625.364
515.295, 1418.030
516.622, 1241.700
517.949, 905.378
519.276, 739.073
520.602, 518.781
521.929, 279.490
523.255, 114.003
524.581, 84.535
525.906, 101.548
527.232, 98.664
528.557, 91.483
529.882, 174.907
531.207, 138.876
532.531, 79.839
533.855, 116.764
535.179, 31.789
536.503, 22.130
537.827, 100.653
539.150, 229.217
540.473, 335.942
541.796, 412.786
543.119, 691.616
544.441, 862.431
545.764, 887.232
547.086, 1125.018
548.407, 919.790
549.729, 946.559
551.050, 735.372
552.371, 819.256
553.692, 914.250
555.013, 1130.357
556.333, 1436.569
557.653, 2083.869
558.973, 2652.222
560.293, 3367.565
561.612, 3543.895
562.932, 3434.210
564.251, 2991.512
565.569, 2426.799
566.888, 1955.072
568.206, 1615.331
569.524, 1363.576
570.842, 1424.807
572.160, 1399.023
573.477, 1440.225
574.795, 1495.413
576.112, 1399.586
577.428, 1445.744
578.745, 1315.889
580.061, 1232.018
581.377, 1268.133
582.693, 1490.232
584.009, 1615.318
585.324, 1988.389
586.639, 2176.444
587.954, 2532.486
589.269, 2679.513
590.583, 2529.523
591.897, 2310.521
593.212, 1914.504
594.525, 1376.473
595.839, 1025.426
597.152, 709.365
598.465, 514.291
599.778, 369.201
601.091, 248.098
602.403, 383.979
603.716, 311.848
605.028, 478.702
606.339, 600.542
607.651, 714.368
608.962, 866.318
610.273, 997.977
611.584, 1141.761
612.895, 1271.531
614.205, 1408.288
615.515, 1719.031
616.825, 1961.760
618.135, 2480.475
619.444, 2667.177
620.754, 2825.866
622.063, 2630.312
623.372, 2244.834
624.680, 1816.897
625.989, 1303.273
627.297, 981.896
628.605, 670.602
629.912, 406.567
631.220, 358.449
632.527, 184.762
633.834, 318.245
635.141, 404.826
636.447, 568.239
637.754, 814.456
639.060, 1055.349
640.366, 1277.431
641.671, 1581.562
642.977, 1725.894
644.282, 1963.734
645.587, 1844.575
646.892, 1807.338
648.196, 1586.888
649.501, 1223.131
650.805, 1164.327
652.109, 739.087
653.412, 639.158
654.716, 450.904
656.019, 309.144
657.322, 327.979
658.625, 240.399
659.927, 288.390
661.230, 360.126
662.532, 445.273
663.834, 655.404
665.135, 765.520
666.437, 1090.620
667.738, 1446.706
669.039, 1873.805
670.340, 2529.571
671.640, 3258.400
672.940, 4591.989
674.241, 5406.665
675.540, 6474.242
676.840, 7321.149
678.139, 7314.879
679.439, 6937.520
680.738, 6089.832
682.036, 5002.048
683.335, 4153.202
684.633, 3395.988
685.931, 2739.090
687.229, 2377.963
688.527, 2088.097
689.824, 1969.937
691.121, 1938.460
692.418, 1910.322
693.715, 2050.959
695.012, 2219.352
696.308, 2599.212
697.604, 2837.059
698.900, 3549.893
700.195, 4149.713
701.491, 5192.522
702.786, 6413.316
704.081, 7974.097
705.376, 10094.866
706.670, 12645.622
707.964, 16296.365
709.259, 20787.096
710.552, 25147.807
711.846, 29258.510
713.139, 32139.195
714.433, 32869.863
715.726, 30580.523
717.018, 27431.164
718.311, 22831.793
719.603, 18912.402
720.895, 14642.998
722.187, 11773.575
723.479, 9274.140
724.770, 7484.691
726.061, 6095.228
727.352, 4877.750
728.643, 4063.256
729.934, 3437.748
731.224, 2769.227
732.514, 2515.692
733.804, 2001.142
735.094, 1667.578
736.383, 1539.001
737.672, 1362.411
738.961, 1160.298
740.250, 1150.189
741.539, 868.559
742.827, 778.915
744.115, 703.258
745.403, 564.588
746.691, 509.906
747.978, 503.211
749.265, 474.504
750.552, 477.210
751.839, 458.052
753.126, 502.309
754.412, 540.553
755.698, 558.785
756.984, 624.006
758.270, 668.215
759.555, 790.412
760.840, 935.598
762.125, 1034.773
763.410, 1155.937
764.695, 1495.090
765.979, 1442.231
767.263, 1509.362
768.547, 1500.483
769.831, 1372.593
771.114, 1226.692
772.398, 1045.781
773.681, 897.860
774.964, 763.929
776.246, 575.915
777.529, 400.038
778.811, 254.084
780.093, 248.123
781.375, 170.154
782.656, 96.175
783.937, 7.187
785.219, 7.830
786.499, 78.881
787.780, 82.074
789.060, 131.960
790.341, 193.566
791.621, 206.993
792.901, 202.558
794.180, 222.259
795.459, 176.104
796.739, 212.071
798.017, 221.176
799.296, 174.425
800.575, 62.792
801.853, 140.217
803.131, 88.742
804.409, 5.337
805.686, 3.957
806.964, 153.458
808.241, 336.954
809.518, 465.542
810.795, 641.221
812.071, 800.004
813.347, 765.847
814.623, 768.714
815.899, 636.578
817.175, 430.437
818.450, 264.292
819.726, 260.141
821.001, 110.986
822.275, 22.174
823.550, 0.362
824.824, 67.564
826.098, 48.818
827.372, 67.111
828.646, 98.454
829.920, 88.862
831.193, 39.329
832.466, 22.828
833.739, 27.352
835.011, 22.104
836.284, 15.559
837.556, 3.051
838.828, 163.576
840.100, 36.136
841.371, 157.752
842.642, 235.417
843.914, 262.114
845.184, 347.863
846.455, 388.631
847.726, 498.405
848.996, 577.184
850.266, 620.962
851.536, 725.740
852.805, 819.517
854.075, 819.294
855.344, 892.076
856.613, 888.858
857.881, 1079.639
859.150, 1101.421
860.418, 1120.205
861.686, 1304.990
862.954, 1335.775
864.222, 1372.562
865.489, 1368.352
866.756, 1494.142
868.023, 1548.934
869.290, 1514.737
870.557, 1474.543
871.823, 1638.358
873.089, 1562.178
874.355, 1679.003
875.621, 1652.836
876.886, 1694.675
878.152, 1790.518
879.417, 1620.372
880.682, 1743.239
881.946, 1712.122
883.211, 1662.008
884.475, 1772.906
885.739, 1747.825
887.003, 1871.749
888.266, 1983.694
889.530, 2174.652
890.793, 2460.613
892.056, 2673.730
893.318, 2993.588
894.581, 3254.598
895.843, 3590.615
897.105, 3941.637
898.367, 4279.679
899.629, 4697.738
900.890, 4835.804
902.152, 5369.890
903.413, 5528.991
904.673, 5668.096
905.934, 5587.208
907.194, 5516.342
908.454, 4876.480
909.714, 4436.627
910.974, 4036.785
912.234, 3522.952
913.493, 3146.138
914.752, 2716.338
916.011, 2331.552
917.270, 2268.773
918.528, 1965.005
919.786, 1876.245
921.044, 1770.493
922.302, 1842.757
923.560, 2047.029
924.817, 2105.310
926.074, 2318.601
927.331, 2638.899
928.588, 2875.211
929.844, 2970.530
931.101, 2955.859
932.357, 2908.197
933.613, 2626.549
934.868, 2457.812
936.124, 2350.814
937.379, 2111.898
938.634, 2041.547
939.889, 1946.021
941.144, 1855.394
942.398, 1992.932
943.652, 2055.663
944.906, 2146.714
946.160, 2367.574
947.414, 2602.385
948.667, 2902.991
949.920, 3235.104
951.173, 3517.214
952.426, 4024.408
953.678, 4369.813
954.931, 4997.524
956.183, 5535.549
957.435, 6583.740
958.686, 7773.427
959.938, 9173.138
961.189, 10112.869
962.440, 11122.625
963.691, 11572.400
964.941, 11682.195
966.192, 11202.008
967.442, 10171.840
968.692, 9911.690
969.942, 9091.562
971.191, 9091.455
972.441, 9191.366
973.690, 9769.271
974.939, 10928.509
976.187, 11693.692
977.436, 12700.118
978.684, 12885.458
979.932, 12868.899
981.180, 12203.016
982.428, 11580.312
983.675, 10408.707
984.922, 9877.001
986.169, 9247.149
987.416, 8857.224
988.663, 8637.688
989.909, 8547.900
991.155, 8678.212
992.401, 8448.742
993.647, 8529.035
994.893, 8861.698
996.138, 8682.034
997.383, 8882.391
998.628, 8923.500
999.873, 8953.909
1001.117, 8804.594
1002.362, 8055.040
1003.606, 7875.523
1004.850, 7397.017
1006.093, 6507.546
1007.337, 6168.100
1008.580, 5938.674
1009.823, 4819.524
1011.066, 4276.355
1012.308, 3707.014
1013.551, 3382.693
1014.793, 2956.447
1016.035, 2796.174
1017.277, 2486.969
1018.518, 2092.946
1019.760, 2115.739
1021.001, 1955.309
1022.242, 1821.267
1023.483, 1868.996
1024.723, 1764.723
1025.964, 1834.431
1027.204, 1763.379
1028.444, 1763.220
1029.683, 1874.281
1030.923, 2033.860
1032.162, 2020.895
1033.401, 2225.426
1034.640, 2313.719
1035.879, 2643.815
1037.117, 2980.002
1038.355, 3272.485
1039.593, 3550.638
1040.831, 3631.470
1042.069, 3674.632
1043.306, 3736.862
1044.544, 3543.442
1045.781, 3917.689
1047.017, 3901.751
1048.254, 4262.936
1049.490, 4701.365
1050.726, 4994.060
1051.962, 5226.758
1053.198, 5638.103
1054.434, 5769.596
1055.669, 5784.156
1056.904, 5705.544
1058.139, 5547.006
1059.374, 5289.550
1060.608, 4677.318
1061.843, 4221.165
1063.077, 3790.493
1064.311, 3161.920
1065.544, 2915.697
1066.778, 2538.741
1068.011, 2420.371
1069.244, 2147.930
1070.477, 2109.390
1071.710, 2268.120
1072.942, 2399.669
1074.174, 2462.661
1075.406, 2911.230
1076.638, 3261.682
1077.870, 3957.417
1079.101, 4304.161
1080.332, 4828.038
1081.563, 5318.594
1082.794, 5080.313
1084.025, 4825.774
1085.255, 4438.674
1086.485, 3568.448
1087.715, 3066.397
1088.945, 2550.244
1090.175, 2182.316
1091.404, 1809.369
1092.633, 1578.438
1093.862, 1318.713
1095.091, 1195.454
1096.319, 1067.682
1097.548, 993.123
1098.776, 993.584
1100.004, 927.170
1101.231, 941.712
1102.459, 840.728
1103.686, 831.482
1104.913, 753.279
1106.140, 718.165
1107.367, 699.818
1108.593, 639.581
1109.819, 668.094
1111.046, 537.381
1112.271, 431.094
1113.497, 423.752
1114.722, 273.691
1115.948, 268.303
1117.173, 306.178
1118.398, 246.686
1119.622, 239.475
1120.847, 213.944
1122.071, 173.563
1123.295, 162.945
1124.519, 160.882
1125.742, 123.622
1126.966, 128.679
1128.189, 86.468
1129.412, 83.612
1130.635, 106.727
1131.857, 7.453
1133.080, 5.278
1134.302, 37.757
1135.524, 29.449
1136.746, 108.709
1137.967, 4.868
1139.188, 16.480
1140.410, 46.285
1141.631, 75.796
1142.851, 6.680
1144.072, 55.654
1145.292, 32.553
1146.512, 2.000
1147.732, 14.729
1148.952, 40.535
1150.172, 3.196
1151.391, 37.866
1152.610, 42.778
1153.829, 27.883
1155.048, 11.630
1156.266, 11.114
1157.484, 9.283
1158.702, 23.069
1159.920, 7.315
1161.138, 1.505
1162.356, 43.676
1163.573, 0.813
1164.790, 56.476
1166.007, 6.682
1167.224, 45.939
1168.440, 3.769
1169.656, 25.907
1170.872, 24.558
1172.088, 22.924
1173.304, 15.612
1174.519, 42.184
1175.735, 44.754
1176.950, 52.626
1178.165, 44.467
1179.379, 31.177
1180.594, 76.056
1181.808, 27.341
1183.022, 71.983
1184.236, 25.740
1185.449, 47.824
1186.663, 10.643
1187.876, 114.401
1189.089, 18.969
1190.302, 1.787
1191.515, 68.432
1192.727, 43.721
1193.939, 44.588
1195.151, 6.641
1196.363, 50.477
1197.575, 17.544
1198.786, 70.452
1199.997, 11.496
1201.208, 44.209
1202.419, 57.055
1203.630, 36.110
1204.840, 9.072
1206.051, 6.401
1207.261, 27.830
1208.470, 18.592
1209.680, 3.272
1210.889, 10.375
1212.099, 5.002
1213.308, 36.604
1214.516, 58.188
1215.725, 15.137
1216.933, 26.394
1218.142, 115.904
1219.350, 12.429
1220.557, 99.897
1221.765, 5.593
1222.972, 48.138
1224.180, 50.582
1225.387, 23.184
1226.593, 7.692
1227.800, 69.155
1229.006, 11.587
1230.213, 36.944
1231.419, 74.210
1232.624, 44.190
1233.830, 79.731
1235.035, 40.931
1236.241, 64.186
1237.446, 79.353
1238.650, 49.624
1239.855, 24.738
1241.059, 97.822
1242.264, 35.933
1243.468, 81.088
1244.671, 2.916
1245.875, 88.145
1247.078, 34.084
1248.282, 16.237
1249.485, 58.124
1250.687, 48.982
1251.890, 21.838
1253.092, 77.642
1254.295, 27.423
1255.497, 35.473
1256.699, 98.192
1257.900, 114.058
1259.102, 57.842
1260.303, 130.466
1261.504, 70.257
1262.705, 35.004
1263.905, 95.541
1265.106, 38.375
1266.306, 154.818
1267.506, 44.229
1268.706, 78.578
1269.905, 106.895
1271.105, 88.240
1272.304, 136.475
1273.503, 70.670
1274.702, 30.826
1275.900, 145.930
1277.099, 74.876
1278.297, 98.890
1279.495, 235.758
1280.693, 79.120
1281.891, 60.001
1283.088, 27.767
1284.285, 19.285
1285.482, 129.034
1286.679, 56.388
1287.876, 109.053
1289.072, 152.688
1290.268, 53.554
1291.464, 69.104
1292.660, 30.364
1293.856, 1.850
1295.051, 114.287
1296.247, 1.705
1297.442, 35.074
1298.637, 155.407
1299.831, 39.291
1301.026, 87.720
1302.220, 81.735
1303.414, 71.911
1304.608, 77.051
1305.802, 34.102
1306.995, 58.169
1308.188, 30.153
1309.381, 74.941
1310.574, 26.896
1311.767, 71.062
1312.960, 39.823
1314.152, 24.798
1315.344, 45.759
1316.536, 16.277
1317.728, 64.428
1318.919, 19.222
1320.110, 62.776
1321.301, 60.793
1322.492, 16.334
1323.683, 56.362
1324.874, 143.612
1326.064, 84.041
1327.254, 39.363
1328.444, 84.375
1329.634, 26.702
1330.823, 148.333
1332.013, 0.621
1333.202, 120.826
1334.391, 122.666
1335.580, 9.826
1336.768, 128.155
1337.956, 93.346
1339.145, 33.279
1340.333, 147.931
1341.520, 123.562
1342.708, 108.533
1343.895, 61.451
1345.083, 57.176
1346.270, 85.057
1347.456, 137.850
1348.643, 37.545
1349.829, 137.003
1351.016, 98.365
1352.202, 144.233
1353.387, 154.989
1354.573, 144.381
1355.759, 161.492
1356.944, 230.006
1358.129, 111.577
1359.314, 194.233
1360.498, 176.607
1361.683, 128.147
1362.867, 171.233
1364.051, 78.488
1365.235, 107.128
1366.419, 126.438
1367.602, 83.761
1368.785, 100.910
1369.968, 104.324
1371.151, 106.596
1372.334, 117.053
1373.517, 134.048
1374.699, 120.150
1375.881, 155.083
1377.063, 182.135
1378.245, 116.659
1379.426, 223.199
1380.608, 105.341
1381.789, 219.650
1382.970, 170.929
1384.150, 84.680
1385.331, 147.595
1386.511, 130.697
1387.691, 104.333
1388.871, 141.465
1390.051, 72.364
1391.231, 128.297
1392.410, 144.307
1393.589, 122.583
1394.768, 177.131
1395.947, 131.783
1397.126, 61.731
1398.304, 131.132
1399.483, 86.683
1400.661, 99.274
1401.838, 136.662
1403.016, 77.264
1404.194, 81.545
1405.371, 188.422
1406.548, 49.268
1407.725, 130.633
1408.901, 161.062
1410.078, 110.529
1411.254, 183.284
1412.430, 88.587
1413.606, 157.077
1414.782, 179.786
1415.958, 174.992
1417.133, 158.685
1418.308, 154.668
1419.483, 165.464
1420.658, 218.156
1421.832, 197.413
1423.007, 207.275
1424.181, 189.823
1425.355, 178.743
1426.529, 170.699
1427.702, 142.111
1428.876, 182.613
1430.049, 144.754
1431.222, 212.062
1432.395, 157.171
1433.567, 173.127
1434.740, 202.931
1435.912, 263.069
1437.084, 246.033
1438.256, 222.049
1439.428, 248.093
1440.599, 222.032
1441.770, 258.310
1442.942, 213.725
1444.112, 225.054
1445.283, 152.494
1446.454, 126.140
1447.624, 202.846
1448.794, 123.315
1449.964, 220.611
1451.134, 204.746
1452.303, 141.196
1453.473, 180.358
1454.642, 177.112
1455.811, 128.265
1456.980, 256.375
1458.148, 154.698
1459.317, 163.940
1460.485, 131.379
1461.653, 59.763
1462.821, 227.760
1463.989, 70.687
1465.156, 149.486
1466.323, 92.514
1467.490, 91.604
1468.657, 113.874
1469.824, 116.238
1470.991, 105.371
1472.157, 123.122
1473.323, 102.662
1474.489, 72.197
1475.655, 126.752
1476.820, 82.296
1477.986, 66.803
1479.151, 135.276
1480.316, 84.743
1481.481, 44.210
1482.645, 132.662
1483.810, 0.894
1484.974, 115.559
1486.138, 104.030
1487.302, 22.529
1488.465, 30.105
1489.629, 54.778
1490.792, 24.564
1491.955, 104.428
1493.118, 19.355
1494.281, 86.333
1495.443, 49.355
