##NAMES=Axinite-(Fe)
##RRUFFID=R040074
##IDEAL CHEMISTRY=Ca_4_Fe^2+^_2_Al_4_[B_2_Si_8_O_30_](OH)_2_
##LOCALITY=Luning, Nevada, USA
##OWNER=RRUFF
##SOURCE=University of Arizona Mineral Museum
##DESCRIPTION=Pale brown wedge-shaped crystal
##STATUS=The identification of this mineral has been confirmed by X-ray diffraction and chemical analysis
##URL=rruff.info/R040074
##MEASURED CHEMISTRY=(Ca_0.98_Mn_0.01_)_2_(Fe_0.41_Mg_0.39_Mn_0.20_)Al_1.95_B_1.20_Si_3.90_O_15_(OH)
##PIN_ID=M00153
##ORIENTATION=Laser parallel to (1 0 1). Fiducial mark perpendicular to laser is parallel to b [0 1 0]
88.289, 0.000
89.685, 38.510
91.081, 20.646
92.477, 50.570
93.873, 146.364
95.268, 486.343
96.663, 765.928
98.058, 1219.897
99.453, 1693.643
100.848, 2305.158
102.242, 3208.072
103.636, 4410.188
105.030, 6407.342
106.423, 8216.869
107.817, 10707.245
109.210, 12327.490
110.603, 12547.009
111.996, 11915.771
113.388, 12836.096
114.780, 11942.665
116.172, 9462.441
117.564, 8330.763
118.956, 7111.699
120.347, 6166.272
121.738, 5235.330
123.129, 4239.575
124.519, 3510.042
125.910, 2457.081
127.300, 1880.755
128.690, 1441.441
130.080, 1119.471
131.469, 975.133
132.858, 908.700
134.248, 1110.408
135.636, 1739.856
137.025, 3060.850
138.413, 4842.408
139.801, 6564.309
141.189, 7633.451
142.577, 8628.329
143.964, 9290.808
145.352, 9131.115
146.739, 8918.228
148.125, 8455.796
149.512, 7863.788
150.898, 7482.184
152.284, 6660.962
153.670, 5660.108
155.056, 4689.576
156.441, 4029.281
157.827, 3501.455
159.212, 3194.057
160.596, 3006.423
161.981, 2979.419
163.365, 3140.011
164.749, 3500.846
166.133, 4651.916
167.517, 5793.207
168.900, 7184.712
170.283, 7676.422
171.666, 7808.377
173.049, 7180.688
174.431, 5963.393
175.813, 4856.510
177.195, 3480.033
178.577, 2603.951
179.959, 1688.249
181.340, 762.902
182.721, 350.892
184.102, 190.803
185.483, 507.207
186.863, 700.348
188.244, 619.247
189.624, 461.927
191.003, 221.403
192.383, 122.310
193.762, 141.197
195.141, 61.267
196.520, 237.379
197.899, 351.636
199.277, 235.794
200.656, 49.944
202.034, 389.912
203.411, 1040.778
204.789, 1938.658
206.166, 2776.554
207.543, 4044.465
208.920, 5062.396
210.297, 6130.344
211.673, 6928.312
213.049, 7286.314
214.425, 7694.424
215.801, 7592.667
217.176, 7100.957
218.552, 6449.258
219.927, 6197.059
221.302, 4183.787
222.676, 3209.738
224.051, 2275.533
225.425, 1541.158
226.799, 957.108
228.173, 520.145
229.546, 256.814
230.919, 113.693
232.292, 168.136
233.665, 316.852
235.038, 703.638
236.410, 1151.473
237.782, 1859.349
239.154, 2187.262
240.526, 2395.212
241.898, 2573.186
243.269, 2251.147
244.640, 2309.123
246.011, 2157.133
247.381, 2415.178
248.752, 2653.256
250.122, 3311.369
251.492, 3939.513
252.861, 4697.689
254.231, 5392.299
255.600, 5686.336
256.969, 6081.159
258.338, 6247.108
259.707, 6483.469
261.075, 6910.119
262.443, 7716.966
263.811, 8903.934
265.179, 10510.978
266.546, 12328.056
267.914, 13465.113
269.281, 15212.109
270.647, 16129.019
272.014, 17025.824
273.380, 17522.523
274.747, 16989.109
276.113, 16405.592
277.478, 14891.967
278.844, 13608.144
280.209, 11844.051
281.574, 10239.680
282.939, 9035.029
284.304, 8200.135
285.668, 7545.020
287.032, 7339.707
288.396, 7054.211
289.760, 7108.549
291.123, 7106.833
292.487, 7245.209
293.850, 7380.700
295.212, 7644.506
296.575, 7808.205
297.937, 7821.810
299.300, 7746.517
300.662, 7512.889
302.023, 7297.496
303.385, 6838.955
304.746, 6462.852
306.107, 6150.436
307.468, 5800.839
308.829, 5739.416
310.189, 5437.854
311.549, 5796.348
312.909, 6404.898
314.269, 7513.504
315.629, 9152.163
316.988, 10960.875
318.347, 12479.632
319.706, 13498.441
321.065, 13727.302
322.423, 12976.208
323.781, 11625.138
325.139, 10524.060
326.497, 9103.017
327.855, 8112.018
329.212, 7451.064
330.569, 7040.156
331.926, 6789.290
333.283, 6738.468
334.639, 6927.631
335.995, 7588.372
337.351, 8181.675
338.707, 9433.442
340.063, 11219.072
341.418, 13330.344
342.773, 15020.913
344.128, 16021.010
345.483, 15840.367
346.837, 14037.364
348.192, 12392.183
349.546, 10377.411
350.899, 8790.774
352.253, 7139.482
353.606, 5918.311
354.960, 4742.473
356.313, 3496.299
357.665, 2460.805
359.018, 1693.002
360.370, 1053.786
361.722, 465.305
363.074, 120.597
364.426, 90.513
365.777, 35.682
367.128, 63.861
368.479, 253.574
369.830, 522.673
371.181, 810.440
372.531, 1008.588
373.881, 1167.714
375.231, 1121.035
376.581, 1082.674
377.930, 871.276
379.280, 791.216
380.629, 876.479
381.977, 1098.795
383.326, 1664.682
384.674, 2252.577
386.023, 2932.485
387.370, 3902.405
388.718, 4512.337
390.066, 5112.280
391.413, 5221.822
392.760, 5190.156
394.107, 4467.097
395.454, 3874.782
396.800, 3423.570
398.146, 2953.526
399.492, 2653.484
400.838, 2663.443
402.184, 2573.403
403.529, 2463.363
404.874, 2183.324
406.219, 2077.284
407.564, 1963.243
408.908, 1932.202
410.252, 2193.159
411.596, 2843.115
412.940, 3733.070
414.284, 5003.023
415.627, 6322.972
416.970, 7512.896
418.313, 8272.797
419.656, 8862.671
420.999, 9292.510
422.341, 9832.313
423.683, 10622.080
425.025, 11101.808
426.367, 11661.497
427.708, 11631.140
429.049, 11700.748
430.390, 11290.314
431.731, 10719.840
433.072, 9509.330
434.412, 8428.785
435.752, 7218.206
437.092, 6087.589
438.432, 6126.939
439.772, 6146.915
441.111, 6617.381
442.450, 7548.341
443.789, 8369.564
445.127, 8650.525
446.466, 8061.209
447.804, 6861.201
449.142, 5060.499
450.480, 3639.545
451.817, 2648.558
453.155, 1971.536
454.492, 1518.479
455.829, 1032.390
457.166, 805.267
458.502, 600.109
459.838, 336.918
461.175, 105.691
462.510, 57.578
463.846, 155.920
465.181, 209.378
466.517, 110.975
467.852, 185.348
469.186, 498.684
470.521, 649.044
471.855, 872.439
473.190, 775.899
474.523, 988.445
475.857, 963.077
477.191, 1338.797
478.524, 1839.606
479.857, 2577.518
481.190, 3669.538
482.523, 4838.654
483.855, 5677.888
485.187, 5757.794
486.519, 6176.630
487.851, 5076.127
489.183, 3715.706
490.514, 2474.358
491.845, 1495.050
493.176, 933.775
494.507, 421.497
495.837, 175.203
497.168, 38.392
498.498, 1.583
499.828, 74.043
501.157, 32.794
502.487, 210.927
503.816, 333.567
505.145, 582.068
506.474, 880.379
507.802, 1192.890
509.131, 1451.293
510.459, 1681.861
511.787, 1696.647
513.115, 1672.628
514.442, 1535.763
515.770, 1222.987
517.097, 912.216
518.424, 472.443
519.750, 331.680
521.077, 165.998
522.403, 175.581
523.729, 329.838
525.055, 390.437
526.381, 506.444
527.706, 507.970
529.031, 481.163
530.356, 411.222
531.681, 384.568
533.006, 224.190
534.330, 147.003
535.654, 109.033
536.978, 120.017
538.302, 279.950
539.625, 443.838
540.949, 432.685
542.272, 545.490
543.595, 714.259
544.917, 717.989
546.240, 703.681
547.562, 743.334
548.884, 644.948
550.206, 624.522
551.527, 612.059
552.849, 944.562
554.170, 1032.040
555.491, 1479.487
556.812, 1928.898
558.132, 2716.268
559.453, 3172.596
560.773, 3339.883
562.093, 3377.126
563.412, 2985.328
564.732, 2696.486
566.051, 2700.602
567.370, 2678.674
568.689, 2964.702
570.008, 3249.686
571.326, 3716.626
572.644, 4103.521
573.963, 4390.372
575.280, 4477.176
576.598, 4113.936
577.915, 3830.651
579.233, 3327.319
580.550, 2910.941
581.866, 2610.518
583.183, 2368.048
584.499, 2337.532
585.815, 2416.969
587.131, 2411.359
588.447, 2497.016
589.763, 2206.988
591.078, 2056.256
592.393, 1673.924
593.708, 1233.563
595.022, 892.328
596.337, 589.881
597.651, 430.613
598.965, 305.855
600.279, 181.521
601.593, 111.655
602.906, 167.471
604.219, 227.071
605.532, 385.452
606.845, 544.409
608.158, 718.947
609.470, 790.435
610.782, 1185.874
612.094, 1536.264
613.406, 1890.603
614.718, 2391.893
616.029, 2834.133
617.340, 3448.322
618.651, 4020.979
619.962, 4155.623
621.272, 4277.336
622.582, 3563.433
623.892, 2866.467
625.202, 2229.438
626.512, 1582.567
627.821, 1230.944
629.131, 933.787
630.440, 753.121
631.749, 654.319
633.057, 719.495
634.366, 957.600
635.674, 1080.765
636.982, 1532.451
638.290, 1997.095
639.597, 2469.445
640.905, 2974.791
642.212, 3275.589
643.519, 3650.595
644.825, 3615.448
646.132, 3359.012
647.438, 3017.968
648.744, 2469.736
650.050, 1995.353
651.356, 1631.180
652.662, 1257.434
653.967, 989.368
655.272, 700.792
656.577, 688.709
657.882, 592.716
659.186, 513.035
660.490, 623.003
661.794, 649.392
663.098, 689.305
664.402, 877.136
665.705, 1083.986
667.009, 1386.388
668.312, 1740.162
669.614, 2258.018
670.917, 3028.949
672.219, 3741.008
673.522, 4956.996
674.824, 5690.474
676.125, 6433.814
677.427, 6456.557
678.728, 6148.177
680.030, 5467.521
681.331, 4576.431
682.631, 3807.502
683.932, 2960.633
685.232, 2510.319
686.532, 2115.555
687.832, 1890.055
689.132, 1767.110
690.432, 1592.123
691.731, 1652.875
693.030, 1747.302
694.329, 1923.588
695.628, 2201.525
696.926, 2521.074
698.224, 2911.503
699.522, 3557.296
700.820, 4194.020
702.118, 5454.674
703.415, 6765.262
704.713, 8485.781
706.010, 10966.231
707.307, 13666.612
708.603, 18096.928
709.900, 22507.172
711.196, 27987.350
712.492, 32577.459
713.788, 35257.500
715.083, 35757.480
716.379, 32267.391
717.674, 28687.230
718.969, 23517.004
720.264, 18626.711
721.558, 14816.350
722.853, 11535.921
724.147, 9065.426
725.441, 7384.867
726.735, 5834.239
728.028, 4643.547
729.322, 3842.789
730.615, 3217.965
731.908, 2575.075
733.201, 2268.120
734.493, 1941.101
735.785, 1581.015
737.078, 1326.864
738.370, 1183.649
739.661, 894.370
740.953, 842.024
742.244, 711.616
743.535, 616.142
744.826, 528.602
746.117, 445.992
747.407, 338.309
748.698, 332.550
749.988, 290.715
751.278, 328.804
752.567, 273.815
753.857, 377.092
755.146, 260.767
756.435, 371.840
757.724, 431.542
759.013, 466.403
760.301, 503.439
761.590, 590.064
762.878, 731.286
764.165, 876.661
765.453, 993.974
766.741, 1115.228
768.028, 1078.419
769.315, 992.551
770.602, 962.622
771.888, 768.633
773.175, 769.584
774.461, 426.478
775.747, 374.308
777.033, 233.094
778.319, 149.856
779.604, 70.606
780.889, 35.694
782.174, 23.129
783.459, 63.696
784.744, 184.417
786.028, 263.354
787.312, 264.548
788.596, 281.000
789.880, 283.717
791.164, 341.700
792.447, 358.979
793.730, 324.563
795.013, 406.432
796.296, 272.627
797.579, 374.080
798.861, 246.840
800.143, 276.840
801.425, 254.096
802.707, 126.592
803.989, 111.262
805.270, 27.904
806.551, 159.980
807.832, 443.988
809.113, 882.944
810.394, 1009.938
811.674, 1181.844
812.954, 1318.341
814.234, 1188.461
815.514, 1197.991
816.794, 940.583
818.073, 727.290
819.352, 540.731
820.631, 386.314
821.910, 274.842
823.189, 232.312
824.467, 190.723
825.745, 137.073
827.023, 130.363
828.301, 228.591
829.578, 206.763
830.856, 182.878
832.133, 257.941
833.410, 226.956
834.687, 362.980
835.963, 329.061
837.240, 454.211
838.516, 571.471
839.792, 697.839
841.068, 650.312
842.343, 891.873
843.618, 955.515
844.894, 1272.196
846.169, 1426.901
847.443, 1526.576
848.718, 1924.234
849.992, 1895.862
851.266, 2178.473
852.540, 2213.057
853.814, 2267.610
855.088, 2339.159
856.361, 2381.688
857.634, 2378.195
858.907, 2439.678
860.180, 2425.136
861.453, 2409.904
862.725, 2281.034
863.997, 2333.440
865.269, 2239.834
866.541, 2167.212
867.812, 2357.561
869.084, 2205.931
870.355, 2251.275
871.626, 2146.625
872.897, 2238.949
874.167, 2387.260
875.438, 2382.571
876.708, 2392.856
877.978, 2418.114
879.248, 2472.624
880.517, 2519.692
881.787, 2625.867
883.056, 2698.117
884.325, 2800.411
885.594, 2993.540
886.862, 3125.717
888.130, 3416.868
889.399, 3708.020
890.667, 4199.148
891.934, 4730.260
893.202, 5301.349
894.469, 5991.084
895.737, 6953.482
897.004, 7494.208
898.270, 8234.554
899.537, 9044.545
900.803, 9714.061
902.070, 9613.538
903.336, 10092.820
904.601, 9482.252
905.867, 8721.438
907.132, 8111.049
908.398, 7460.172
909.663, 6669.763
910.928, 6049.597
912.192, 5289.576
913.457, 5009.702
914.721, 4460.183
915.985, 4041.027
917.249, 3731.853
918.512, 3542.661
919.776, 3423.453
921.039, 3444.226
922.302, 3424.982
923.565, 3665.724
924.827, 3826.446
926.090, 4167.154
927.352, 4436.840
928.614, 4866.297
929.876, 5115.181
931.138, 4993.705
932.399, 5161.403
933.660, 5053.638
934.922, 4746.674
936.182, 4897.184
937.443, 4700.134
938.704, 4798.156
939.964, 4806.135
941.224, 4773.119
942.484, 5209.980
943.744, 5443.252
945.003, 6115.500
946.262, 6859.973
947.521, 7399.386
948.780, 8627.280
950.039, 9298.897
951.298, 10338.602
952.556, 11356.527
953.814, 11895.996
955.072, 12683.584
956.330, 13732.266
957.587, 14890.118
958.845, 16038.384
960.102, 17648.320
961.359, 19278.920
962.615, 20669.533
963.872, 21560.164
965.128, 21830.809
966.384, 20991.471
967.640, 19712.143
968.896, 18382.826
970.152, 17693.520
971.407, 17474.131
972.662, 17654.121
973.917, 18013.678
975.172, 19813.082
976.427, 21152.336
977.681, 22101.387
978.935, 22960.445
980.189, 21729.939
981.443, 21359.367
982.697, 19209.137
983.950, 17878.838
985.203, 16218.737
986.456, 14959.176
987.709, 14399.406
988.962, 13690.396
990.214, 12731.578
991.467, 12182.756
992.719, 11514.458
993.971, 10935.901
995.222, 10527.508
996.474, 10079.529
997.725, 9981.419
998.976, 9905.714
1000.227, 10097.800
1001.478, 10263.044
1002.728, 9746.144
1003.978, 9428.732
1005.229, 8987.469
1006.479, 8022.199
1007.728, 7406.691
1008.978, 6480.221
1010.227, 5664.004
1011.476, 4863.804
1012.725, 4237.195
1013.974, 3749.699
1015.223, 3236.016
1016.471, 2820.877
1017.719, 2480.040
1018.967, 2277.372
1020.215, 1979.953
1021.462, 1880.299
1022.710, 1792.676
1023.957, 1748.615
1025.204, 1716.733
1026.451, 1560.424
1027.697, 1578.826
1028.944, 1427.135
1030.190, 1503.633
1031.436, 1456.307
1032.682, 1496.316
1033.928, 1547.724
1035.173, 1501.279
1036.418, 1519.765
1037.663, 1782.271
1038.908, 1730.016
1040.153, 2132.517
1041.398, 2276.201
1042.642, 2328.670
1043.886, 2472.987
1045.130, 2176.711
1046.374, 2119.152
1047.617, 2143.146
1048.860, 1986.319
1050.104, 2158.309
1051.347, 2000.764
1052.589, 2023.317
1053.832, 2165.740
1055.074, 2219.679
1056.316, 2591.990
1057.558, 2596.842
1058.800, 2751.694
1060.042, 2933.873
1061.283, 2927.229
1062.524, 3009.813
1063.765, 2682.242
1065.006, 2507.539
1066.247, 2349.639
1067.487, 2082.076
1068.728, 1894.627
1069.968, 1956.387
1071.208, 1608.853
1072.447, 1831.203
1073.687, 1843.293
1074.926, 1955.900
1076.165, 2297.658
1077.404, 2559.796
1078.643, 2828.837
1079.881, 3410.551
1081.120, 3582.713
1082.358, 4034.865
1083.596, 4156.943
1084.834, 3939.238
1086.071, 3761.099
1087.309, 3243.135
1088.546, 2705.568
1089.783, 2417.779
1091.020, 1930.154
1092.256, 1862.771
1093.493, 1454.764
1094.729, 1307.088
1095.965, 1259.564
1097.201, 1128.062
1098.436, 1150.600
1099.672, 1168.482
1100.907, 1022.042
1102.142, 1184.237
1103.377, 1112.906
1104.612, 1240.765
1105.846, 1423.488
1107.081, 1114.449
1108.315, 1210.156
1109.549, 1169.860
1110.782, 942.865
1112.016, 1033.281
1113.249, 772.858
1114.483, 897.527
1115.716, 705.411
1116.948, 470.308
1118.181, 710.919
1119.413, 526.414
1120.646, 424.207
1121.878, 474.653
1123.110, 288.721
1124.341, 331.092
1125.573, 323.184
1126.804, 311.037
1128.035, 304.531
1129.266, 263.280
1130.497, 85.295
1131.727, 199.889
1132.957, 119.543
1134.188, 137.540
1135.418, 164.719
1136.647, 118.362
1137.877, 128.436
1139.106, 134.875
1140.335, 14.105
1141.564, 86.481
1142.793, 51.421
1144.022, 7.949
1145.250, 3.085
1146.479, 75.900
1147.707, 7.659
1148.934, 93.825
1150.162, 41.831
1151.390, 24.449
1152.617, 155.811
1153.844, 76.339
1155.071, 69.651
1156.298, 46.086
1157.524, 50.742
1158.751, 162.968
1159.977, 48.893
1161.203, 43.128
1162.428, 94.380
1163.654, 62.519
1164.879, 0.624
1166.105, 213.791
1167.330, 2.990
1168.555, 150.553
1169.779, 14.659
1171.004, 73.309
1172.228, 108.429
1173.452, 1.273
1174.676, 38.431
1175.900, 89.530
1177.123, 57.812
1178.346, 140.194
1179.570, 80.457
1180.793, 46.562
1182.015, 12.521
1183.238, 30.237
1184.460, 29.971
1185.683, 85.025
1186.905, 31.351
1188.126, 13.251
1189.348, 45.527
1190.569, 23.659
1191.791, 11.414
1193.012, 53.829
1194.233, 14.732
1195.453, 2.035
1196.674, 163.874
1197.894, 53.001
1199.114, 29.268
1200.334, 61.185
1201.554, 7.031
1202.774, 89.918
1203.993, 19.429
1205.212, 18.293
1206.431, 122.151
1207.650, 11.185
1208.869, 35.207
1210.087, 70.209
1211.305, 12.059
1212.524, 166.254
1213.741, 82.977
1214.959, 54.935
1216.177, 238.565
1217.394, 70.491
1218.611, 93.624
1219.828, 151.444
1221.045, 53.120
1222.261, 226.312
1223.478, 132.074
1224.694, 60.500
1225.910, 233.286
1227.126, 128.380
1228.342, 132.727
1229.557, 154.849
1230.772, 111.128
1231.987, 221.715
1233.202, 193.932
1234.417, 134.919
1235.631, 205.410
1236.846, 189.344
1238.060, 149.930
1239.274, 320.419
1240.488, 271.913
1241.701, 255.172
1242.915, 275.420
1244.128, 285.457
1245.341, 225.757
1246.554, 317.908
1247.767, 194.050
1248.979, 333.172
1250.191, 72.857
1251.403, 333.615
1252.615, 272.051
1253.827, 133.425
1255.039, 322.847
1256.250, 241.706
1257.461, 164.736
1258.672, 333.725
1259.883, 302.088
1261.094, 481.226
1262.304, 228.164
1263.514, 286.916
1264.724, 304.606
1265.934, 221.229
1267.144, 139.914
1268.354, 377.633
1269.563, 294.596
1270.772, 351.442
1271.981, 397.386
1273.190, 234.038
1274.398, 370.323
1275.607, 355.445
1276.815, 201.202
1278.023, 386.798
1279.231, 290.829
1280.439, 238.811
1281.646, 352.993
1282.853, 237.196
1284.060, 372.324
1285.267, 406.081
1286.474, 90.186
1287.681, 444.192
1288.887, 156.291
1290.093, 199.258
1291.299, 371.516
1292.505, 290.430
1293.711, 192.679
1294.916, 301.108
1296.121, 141.208
1297.327, 343.979
1298.531, 87.462
1299.736, 155.667
1300.941, 265.488
1302.145, 163.635
1303.349, 92.327
1304.553, 284.973
1305.757, 57.768
1306.961, 193.170
1308.164, 12.454
1309.367, 123.301
1310.570, 262.424
1311.773, 48.372
1312.976, 225.591
1314.178, 227.350
1315.381, 5.667
1316.583, 237.816
1317.785, 178.666
1318.987, 4.702
1320.188, 340.884
1321.390, 182.172
1322.591, 174.717
1323.792, 283.035
1324.993, 103.630
1326.193, 188.607
1327.394, 204.422
1328.594, 58.897
1329.794, 303.126
1330.994, 192.367
1332.194, 26.139
1333.394, 248.621
1334.593, 111.949
1335.792, 143.202
1336.991, 275.167
1338.190, 107.842
1339.389, 148.703
1340.587, 270.474
1341.786, 192.866
1342.984, 344.547
1344.182, 185.878
1345.379, 97.121
1346.577, 316.610
1347.774, 87.461
1348.972, 205.545
1350.169, 325.944
1351.365, 43.750
1352.562, 355.130
1353.759, 324.551
1354.955, 126.128
1356.151, 410.078
1357.347, 129.243
1358.543, 197.833
1359.738, 226.063
1360.934, 44.837
1362.129, 272.670
1363.324, 310.380
1364.519, 38.117
1365.713, 385.003
1366.908, 212.852
1368.102, 9.729
1369.296, 349.470
1370.490, 26.308
1371.684, 42.472
1372.877, 178.421
1374.071, 34.229
1375.264, 99.640
1376.457, 115.319
1377.650, 89.286
1378.843, 345.662
1380.035, 20.875
1381.227, 255.761
1382.419, 251.364
1383.611, 3.638
1384.803, 360.923
1385.995, 225.106
1387.186, 47.314
1388.377, 261.168
1389.568, 163.794
1390.759, 34.102
1391.950, 338.755
1393.140, 191.604
1394.331, 83.563
1395.521, 403.705
1396.711, 45.319
1397.900, 156.961
1399.090, 207.567
1400.279, 2.526
1401.469, 157.754
1402.658, 217.226
1403.847, 116.426
1405.035, 482.422
1406.224, 120.172
1407.412, 227.847
1408.600, 444.726
1409.788, 90.418
1410.976, 154.327
1412.164, 239.710
1413.351, 221.791
1414.538, 374.966
1415.725, 170.656
1416.912, 194.163
1418.099, 424.558
1419.285, 151.094
1420.472, 215.135
1421.658, 462.962
1422.844, 5.924
1424.030, 378.594
1425.215, 281.822
1426.401, 102.477
1427.586, 300.429
1428.771, 112.052
1429.956, 134.260
1431.141, 674.253
1432.325, 146.619
1433.510, 279.148
1434.694, 459.658
1435.878, 158.868
1437.062, 238.952
1438.245, 311.836
1439.429, 12.865
1440.612, 551.882
1441.795, 198.039
1442.978, 29.259
1444.161, 435.703
1445.343, 158.261
1446.526, 123.463
1447.708, 547.922
1448.890, 30.031
1450.072, 337.939
1451.253, 301.285
1452.435, 69.764
1453.616, 489.043
1454.797, 410.975
1455.978, 3.674
1457.159, 578.668
1458.340, 239.455
1459.520, 289.643
1460.700, 461.277
1461.880, 251.988
1463.060, 191.059
1464.240, 362.346
1465.420, 24.895
1466.599, 349.861
1467.778, 319.064
1468.957, 9.098
1470.136, 669.957
1471.315, 277.332
1472.493, 99.711
1473.671, 619.904
1474.849, 175.461
1476.027, 248.064
1477.205, 555.691
1478.383, 104.748
1479.560, 378.631
1480.737, 297.270
