##NAMES=Axinite-(Fe)
##RRUFFID=R060183
##IDEAL CHEMISTRY=Ca_4_Fe^2+^_2_Al_4_[B_2_Si_8_O_30_](OH)_2_
##LOCALITY=Skagit Bluffs, near Manning Park, British Columbia, Canada
##OWNER=RRUFF
##SOURCE=Lloyd Twaites
##DESCRIPTION=Light-pink transparent axe-head-shaped single crystal
##STATUS=The identification of this mineral has been confirmed by X-ray diffraction and chemical analysis
##URL=rruff.info/R060183
##MEASURED CHEMISTRY=Ca_2.00_(Fe^2+^_0.58_Mn_0.23_Mg_0.19_)Al_2.00_B_1.00_Si_4.00_O_15_(OH)
##PIN_ID=L00943
##ORIENTATION=Laser parallel to c* (0 0 1). Fiducial mark perpendicular to laser is parallel to a [1 0 0]
52.67100, 0.0000000E+00
53.91000, 50.92334
55.14900, 173.5099
56.38700, 274.9502
57.62600, 329.4152
58.86400, 418.5801
60.10300, 570.8892
61.34100, 480.8535
62.57900, 387.8424
63.81700, 309.7582
65.05400, 147.5172
66.29200, 47.09814
67.52900, 44.68042
68.76700, 17.97485
70.00400, 37.42529
71.24100, 98.72839
72.47700, 13.48938
73.71400, 160.1697
74.95100, 79.43384
76.18700, 68.50610
77.42300, 184.4739
78.65900, 76.30762
79.89500, 136.8625
81.13100, 366.0090
82.36700, 1217.632
83.60200, 1211.627
84.83700, 1771.900
86.07200, 1877.368
87.30800, 2059.955
88.54200, 2505.594
89.77700, 3133.220
91.01200, 4223.726
92.24600, 5148.638
93.48000, 6747.827
94.71400, 7629.183
95.94800, 9355.002
97.18200, 10837.27
98.41600, 12193.93
99.64900, 14455.92
100.8830, 16788.19
102.1160, 18128.70
103.3490, 19839.43
104.5820, 22070.33
105.8150, 25102.38
107.0470, 28879.55
108.2800, 34340.84
109.5120, 37905.23
110.7440, 32694.69
111.9760, 26294.19
113.2080, 21726.74
114.4400, 18147.31
115.6710, 15591.89
116.9030, 13170.46
118.1340, 11276.02
119.3650, 9900.539
120.5960, 8867.033
121.8270, 7858.493
123.0580, 7408.909
124.2880, 6801.186
125.5190, 6689.552
126.7490, 6192.612
127.9790, 5909.988
129.2090, 5770.645
130.4390, 6086.540
131.6680, 6103.644
132.8980, 6526.925
134.1270, 7019.306
135.3560, 8214.891
136.5850, 9579.015
137.8140, 10969.09
139.0430, 12527.26
140.2710, 13097.21
141.5000, 12683.57
142.7280, 11686.33
143.9560, 10875.50
145.1840, 10540.09
146.4120, 10366.13
147.6390, 10787.62
148.8670, 10932.58
150.0940, 11135.04
151.3210, 11012.00
152.5490, 10436.48
153.7750, 8688.476
155.0020, 7480.002
156.2290, 6268.066
157.4550, 5493.666
158.6810, 4997.804
159.9080, 4700.484
161.1340, 4638.702
162.3590, 5114.317
163.5850, 5749.750
164.8110, 6823.574
166.0360, 8009.931
167.2610, 9450.812
168.4860, 11381.22
169.7110, 13090.16
170.9360, 14221.62
172.1610, 14199.59
173.3850, 12694.09
174.6100, 10807.10
175.8340, 9066.615
177.0580, 7223.644
178.2820, 5687.177
179.5050, 4446.213
180.7290, 3463.748
181.9520, 2469.781
183.1760, 1912.308
184.3990, 1661.325
185.6220, 1559.884
186.8450, 1487.166
188.0670, 1719.197
189.2900, 1818.786
190.5120, 2463.838
191.7340, 3066.348
192.9560, 3732.318
194.1780, 4192.738
195.4000, 4309.606
196.6220, 4384.921
197.8430, 4644.678
199.0640, 5044.872
200.2860, 5850.930
201.5070, 7204.221
202.7270, 8776.326
203.9480, 10072.99
205.1690, 11333.34
206.3890, 12191.27
207.6090, 13172.43
208.8290, 13792.65
210.0490, 14041.85
211.2690, 14252.49
212.4890, 14183.78
213.7080, 14098.20
214.9280, 13798.65
216.1470, 13444.30
217.3660, 12797.53
218.5850, 12431.78
219.8030, 11186.47
221.0220, 9814.899
222.2400, 7628.295
223.4590, 7342.571
224.6770, 5218.470
225.8950, 2808.253
227.1120, 1829.331
228.3300, 1116.483
229.5480, 702.9961
230.7650, 418.0117
231.9820, 542.5186
233.1990, 641.3242
234.4160, 1049.974
235.6330, 1395.923
236.8490, 2120.398
238.0660, 2682.442
239.2820, 3280.091
240.4980, 3885.365
241.7140, 4573.275
242.9300, 4811.818
244.1460, 5128.984
245.3610, 5155.760
246.5770, 5214.131
247.7920, 5431.055
249.0070, 5846.583
250.2220, 6249.495
251.4370, 7123.933
252.6510, 8101.842
253.8660, 9244.212
255.0800, 9919.034
256.2940, 10479.32
257.5080, 10557.06
258.7220, 11255.22
259.9360, 12334.79
261.1490, 11052.75
262.3630, 11016.10
263.5760, 11790.82
264.7890, 12999.89
266.0020, 14684.32
267.2150, 16631.08
268.4270, 18322.16
269.6400, 20788.56
270.8520, 22869.29
272.0640, 24842.32
273.2760, 26225.67
274.4880, 27129.32
275.7000, 26983.29
276.9120, 26310.55
278.1230, 24368.13
279.3340, 22548.02
280.5450, 19850.21
281.7560, 17528.71
282.9670, 16246.51
284.1780, 14820.62
285.3880, 13983.02
286.5980, 13330.72
287.8090, 12945.70
289.0190, 12916.98
290.2290, 12644.54
291.4380, 12379.39
292.6480, 12387.53
293.8570, 12371.95
295.0670, 12115.65
296.2760, 12052.64
297.4850, 11621.90
298.6930, 11270.43
299.9020, 10826.24
301.1110, 10449.33
302.3190, 10467.68
303.5270, 10372.30
304.7350, 10700.18
305.9430, 11063.33
307.1510, 11073.74
308.3580, 10831.41
309.5660, 10744.33
310.7730, 10968.51
311.9800, 11817.94
313.1870, 13015.62
314.3940, 15254.55
315.6010, 17659.73
316.8070, 20264.14
318.0130, 22739.30
319.2200, 23747.52
320.4260, 24061.63
321.6310, 22751.67
322.8370, 20817.33
324.0430, 18903.24
325.2480, 16823.37
326.4540, 15775.73
327.6590, 14827.30
328.8640, 14515.10
330.0680, 14115.12
331.2730, 13834.34
332.4780, 13857.78
333.6820, 14139.43
334.8860, 14795.28
336.0900, 16070.34
337.2940, 17835.59
338.4980, 20047.05
339.7010, 22363.71
340.9050, 24492.56
342.1080, 26147.60
343.3110, 26423.84
344.5140, 25637.27
345.7170, 23361.95
346.9200, 20772.89
348.1220, 18188.11
349.3240, 15856.58
350.5270, 14246.32
351.7290, 12451.34
352.9310, 10434.62
354.1320, 8285.169
355.3340, 6287.996
356.5350, 4289.097
357.7370, 2820.477
358.9380, 1571.139
360.1390, 641.0938
361.3400, 68.31055
362.5400, 433.2109
363.7410, 738.5439
364.9410, 815.7959
366.1410, 970.9717
367.3410, 940.1416
368.5410, 724.3057
369.7410, 642.3975
370.9400, 237.3945
372.1400, 3.799805
373.3390, 279.2178
374.5380, 341.8623
375.7370, 415.7354
376.9360, 774.8496
378.1350, 1198.203
379.3330, 1564.098
380.5310, 1996.226
381.7300, 3202.751
382.9280, 4214.183
384.1260, 5377.562
385.3230, 6828.907
386.5210, 8114.172
387.7180, 9252.496
388.9160, 9668.005
390.1130, 9699.229
391.3100, 9051.571
392.5060, 8420.115
393.7030, 7136.664
394.9000, 6004.807
396.0960, 5071.911
397.2920, 4247.863
398.4880, 3555.020
399.6840, 3158.418
400.8800, 2779.795
402.0750, 2546.229
403.2710, 2571.794
404.4660, 2528.292
405.6610, 2779.393
406.8560, 3217.778
408.0510, 3855.219
409.2450, 4864.580
410.4400, 6134.656
411.6340, 7830.865
412.8280, 10083.21
414.0220, 13119.68
415.2160, 15820.28
416.4100, 18313.01
417.6030, 19613.86
418.7970, 19504.84
419.9900, 19335.93
421.1830, 19133.14
422.3760, 19035.48
423.5690, 18804.93
424.7610, 18582.50
425.9540, 18172.18
427.1460, 17212.98
428.3380, 16473.88
429.5300, 15258.04
430.7220, 13976.01
431.9140, 12553.23
433.1050, 11166.56
434.2970, 9799.985
435.4880, 8818.515
436.6790, 8323.143
437.8700, 8207.867
439.0610, 8626.686
440.2510, 9629.598
441.4420, 10897.60
442.6320, 12353.70
443.8220, 13175.88
445.0120, 12266.24
446.2020, 11782.51
447.3910, 9347.950
448.5810, 7192.474
449.7700, 5333.076
450.9600, 3739.761
452.1490, 2571.521
453.3370, 1808.359
454.5260, 1326.272
455.7150, 916.2568
456.9030, 428.3145
458.0910, 307.4414
459.2800, 144.0977
460.4670, 172.1914
461.6550, 164.0752
462.8430, 231.6709
464.0300, 141.3555
465.2180, 56.58008
466.4050, 264.5459
467.5920, 606.5674
468.7790, 1125.646
469.9650, 1328.778
471.1520, 1487.963
472.3380, 1674.199
473.5250, 1897.485
474.7110, 1909.819
475.8970, 2529.202
477.0820, 3002.630
478.2680, 3953.104
479.4540, 4907.619
480.6390, 6315.179
481.8240, 7828.779
483.0090, 9422.417
484.1940, 10698.09
485.3780, 10866.81
486.5630, 9775.552
487.7470, 7854.336
488.9320, 5963.151
490.1160, 4375.997
491.3000, 3065.872
492.4830, 2100.775
493.6670, 1518.704
494.8500, 1327.657
496.0340, 1015.633
497.2170, 1119.630
498.4000, 1189.646
499.5820, 1491.679
500.7650, 1565.729
501.9480, 1864.792
503.1300, 2174.869
504.3120, 2625.956
505.4940, 2955.059
506.6760, 3264.559
507.8580, 3574.208
509.0390, 3889.952
510.2210, 3979.821
511.4020, 3845.712
512.5830, 3583.373
513.7640, 3239.368
514.9450, 2714.919
516.1250, 1968.757
517.3060, 1492.472
518.4860, 899.5098
519.6660, 468.4854
520.8460, 136.8071
522.0260, 81.69727
523.2060, 284.0410
524.3850, 444.0747
525.5650, 570.8672
526.7440, 612.9009
527.9230, 637.2915
529.1020, 613.0620
530.2810, 574.2588
531.4590, 527.7461
532.6380, 385.8774
533.8160, 365.2134
534.9940, 204.8721
536.1720, 71.77637
537.3500, 115.8652
538.5270, 97.16357
539.7050, 45.66357
540.8820, 119.3438
542.0590, 147.2427
543.2360, 69.62256
544.4130, 28.35693
545.5900, 98.93604
546.7660, 138.3970
547.9430, 219.7520
549.1190, 227.0425
550.2950, 271.2798
551.4710, 489.4731
552.6470, 730.6978
553.8220, 1014.918
554.9980, 1325.148
556.1730, 1756.397
557.3480, 2257.627
558.5230, 2902.851
559.6980, 3376.029
560.8730, 3865.164
562.0470, 4171.252
563.2220, 4418.296
564.3960, 4621.289
565.5700, 5195.234
566.7440, 5655.130
567.9170, 6488.976
569.0910, 7276.768
570.2640, 8361.511
571.4380, 9243.200
572.6110, 9680.833
573.7840, 9970.411
574.9570, 9860.936
576.1290, 9263.403
577.3020, 8261.812
578.4740, 7382.164
579.6460, 6496.455
580.8180, 5744.687
581.9900, 5113.857
583.1620, 4805.965
584.3330, 4501.011
585.5040, 4552.996
586.6760, 4584.916
587.8470, 4636.768
589.0180, 4443.558
590.1880, 3920.281
591.3590, 3629.936
592.5290, 3016.525
593.7000, 2293.044
594.8700, 1842.494
596.0400, 1426.875
597.2090, 993.1846
598.3790, 745.4233
599.5490, 517.5903
600.7180, 397.6758
601.8870, 420.1631
603.0560, 398.7305
604.2250, 542.5537
605.3940, 741.8008
606.5620, 979.4653
607.7300, 1455.672
608.8990, 1721.092
610.0670, 2387.438
611.2350, 2982.714
612.4020, 3607.913
613.5700, 4359.038
614.7370, 4959.087
615.9050, 5487.063
617.0720, 5904.961
618.2390, 6132.783
619.4060, 6261.529
620.5720, 6213.195
621.7390, 5783.784
622.9050, 4928.295
624.0710, 3859.727
625.2370, 3083.079
626.4030, 2293.352
627.5690, 1805.543
628.7340, 1417.654
629.9000, 1230.684
631.0650, 1063.633
632.2300, 1030.499
633.3950, 1184.283
634.5600, 1506.984
635.7240, 1886.602
636.8890, 2454.137
638.0530, 2908.054
639.2170, 3376.955
640.3810, 3905.238
641.5450, 4392.437
642.7080, 4657.550
643.8720, 4840.806
645.0350, 4610.325
646.1980, 4403.863
647.3610, 4049.556
648.5240, 3546.616
649.6870, 3067.870
650.8490, 2404.926
652.0120, 1921.341
653.1740, 1457.696
654.3360, 1229.669
655.4980, 913.5068
656.6600, 825.9043
657.8210, 598.3359
658.9830, 640.2490
660.1440, 601.2515
661.3050, 815.5962
662.4660, 899.1294
663.6270, 981.2314
664.7870, 1275.903
665.9480, 1629.843
667.1080, 1940.438
668.2680, 2375.672
669.4280, 3036.270
670.5880, 3661.246
671.7480, 4445.591
672.9070, 5574.903
674.0670, 6595.098
675.2260, 7748.364
676.3850, 8277.117
677.5440, 8777.982
678.7030, 8746.645
679.8610, 7976.035
681.0200, 7226.825
682.1780, 5973.703
683.3360, 5253.783
684.4940, 4256.416
685.6520, 3664.950
686.8090, 3183.975
687.9670, 2742.070
689.1240, 2697.052
690.2810, 2485.987
691.4380, 2530.412
692.5950, 2675.349
693.7520, 2867.041
694.9080, 3139.295
696.0650, 3548.449
697.2210, 4201.174
698.3770, 4901.341
699.5330, 5997.422
700.6880, 7045.421
701.8440, 8562.337
702.9990, 10438.17
704.1550, 12879.92
705.3100, 15864.59
706.4650, 19253.17
707.6190, 23370.67
708.7740, 28136.09
709.9290, 33559.44
711.0830, 38913.70
712.2370, 44075.86
713.3910, 47309.97
714.5450, 50170.98
715.6980, 49511.91
716.8520, 47284.76
718.0050, 42815.54
719.1580, 37435.24
720.3110, 31624.86
721.4640, 26317.40
722.6170, 21638.86
723.7700, 17909.25
724.9220, 14473.55
726.0740, 11944.78
727.2260, 9666.932
728.3780, 8153.007
729.5300, 6814.007
730.6810, 5751.931
731.8330, 4930.779
732.9840, 4274.554
734.1350, 3599.253
735.2860, 3187.879
736.4370, 2735.431
737.5880, 2424.911
738.7380, 2036.052
739.8880, 1973.693
741.0390, 1735.061
742.1890, 1567.078
743.3380, 1303.104
744.4880, 1300.446
745.6380, 1264.736
746.7870, 1188.957
747.9360, 1164.110
749.0850, 1156.840
750.2340, 1168.107
751.3830, 1225.170
752.5310, 1278.058
753.6800, 1432.882
754.8280, 1564.641
755.9760, 1844.335
757.1240, 1830.968
758.2720, 2076.538
759.4190, 2265.046
760.5670, 2398.492
761.7140, 2619.877
762.8610, 2877.203
764.0080, 2980.469
765.1550, 3246.676
766.3020, 3145.825
767.4480, 3237.916
768.5950, 3110.952
769.7410, 2877.930
770.8870, 2635.853
772.0330, 2349.721
773.1780, 2043.496
774.3240, 1676.297
775.4690, 1397.006
776.6140, 1113.663
777.7590, 839.2690
778.9040, 683.8242
780.0490, 452.3301
781.1940, 348.7866
782.3380, 192.1924
783.4820, 91.25488
784.6260, 16.20459
785.7700, 40.07422
786.9140, 125.0845
788.0580, 140.2837
789.2010, 244.6787
790.3450, 183.3223
791.4880, 261.1807
792.6310, 359.2920
793.7730, 452.7051
794.9160, 283.1895
796.0590, 520.1455
797.2010, 448.2500
798.3430, 560.8916
799.4850, 394.9463
800.6270, 524.4082
801.7690, 327.4868
802.9100, 413.1709
804.0520, 154.9648
805.1930, 134.7173
806.3340, 134.5933
807.4750, 359.0728
808.6160, 560.7212
809.7560, 848.5283
810.8970, 942.4629
812.0370, 1223.520
813.1770, 1390.662
814.3170, 1387.858
815.4570, 1257.123
816.5960, 1121.452
817.7360, 843.8335
818.8750, 723.2876
820.0140, 328.8242
821.1530, 239.3901
822.2920, 23.99756
823.4310, 17.62158
824.5690, 49.74561
825.7070, 99.14551
826.8460, 99.77100
827.9840, 249.1172
829.1220, 118.7876
830.2590, 183.5420
831.3970, 213.4111
832.5340, 89.40820
833.6710, 135.4663
834.8080, 66.39453
835.9450, 111.2446
837.0820, 209.0854
838.2190, 339.9180
839.3550, 444.7432
840.4910, 726.5615
841.6270, 1298.375
842.7630, 1399.182
843.8990, 1591.986
845.0350, 1389.787
846.1700, 1564.584
847.3060, 1717.381
848.4410, 2006.177
849.5760, 2125.973
850.7100, 2169.770
851.8450, 2354.566
852.9800, 2354.367
854.1140, 2373.685
855.2480, 2374.980
856.3820, 2316.793
857.5160, 2379.611
858.6500, 2335.438
859.7830, 2367.271
860.9170, 2342.112
862.0500, 2414.961
863.1830, 2423.821
864.3160, 2549.691
865.4480, 2568.574
866.5810, 2596.467
867.7130, 2597.375
868.8460, 2809.295
869.9780, 2907.230
871.1100, 2884.182
872.2410, 2996.148
873.3730, 3017.132
874.5050, 3289.133
875.6360, 3374.165
876.7670, 3468.239
877.8980, 3543.353
879.0290, 3717.887
880.1590, 4185.690
881.2900, 4004.894
882.4200, 4246.120
883.5500, 4235.368
884.6800, 4762.660
885.8100, 4879.977
886.9400, 5388.323
888.0690, 5783.709
889.1990, 6619.126
890.3280, 7115.587
891.4570, 8103.084
892.5860, 9115.631
893.7140, 10018.50
894.8430, 11148.87
895.9710, 12217.55
897.1000, 13186.27
898.2280, 14425.02
899.3560, 15238.82
900.4830, 15635.67
901.6110, 16149.57
902.7380, 16273.53
903.8660, 16066.57
904.9930, 15790.68
906.1200, 15052.85
907.2460, 14442.07
908.3730, 13654.37
909.5000, 13018.74
910.6260, 12044.17
911.7520, 11598.64
912.8780, 10641.17
914.0040, 9756.743
915.1290, 9179.395
916.2550, 8421.121
917.3800, 7901.683
918.5050, 7476.993
919.6300, 7035.286
920.7550, 6778.524
921.8800, 6557.436
923.0040, 6453.256
924.1290, 6577.375
925.2530, 6376.196
926.3770, 6667.138
927.5010, 6983.467
928.6250, 7088.922
929.7480, 7266.487
930.8720, 7436.595
931.9950, 7375.868
933.1180, 7244.033
934.2410, 7079.518
935.3640, 6982.762
936.4860, 7000.612
937.6090, 7007.621
938.7310, 7187.590
939.8530, 7505.306
940.9750, 7944.668
942.0970, 8741.723
943.2180, 9283.427
944.3400, 10030.21
945.4610, 11070.07
946.5820, 11961.04
947.7030, 13584.08
948.8240, 15411.22
949.9450, 16956.43
951.0650, 18948.72
952.1860, 20204.61
953.3060, 21709.89
954.4260, 22928.15
955.5460, 24512.81
956.6650, 26203.55
957.7850, 27983.80
958.9040, 30319.12
960.0230, 32858.21
961.1420, 34992.50
962.2610, 37228.05
963.3800, 38225.64
964.4990, 38435.59
965.6170, 38795.73
966.7350, 37054.40
967.8530, 35078.18
968.9710, 33328.40
970.0890, 31398.18
971.2070, 30736.05
972.3240, 30506.02
973.4410, 30608.10
974.5580, 31585.27
975.6750, 32980.52
976.7920, 34492.87
977.9090, 36196.30
979.0250, 36899.83
980.1410, 37698.45
981.2580, 36872.14
982.3740, 35646.93
983.4890, 33693.82
984.6050, 31993.80
985.7200, 30457.86
986.8360, 28824.01
987.9510, 27697.25
989.0660, 26769.58
990.1810, 26327.00
991.2950, 25170.52
992.4100, 24122.12
993.5240, 22937.82
994.6390, 22379.59
995.7530, 21475.46
996.8660, 20972.41
997.9800, 20589.45
999.0940, 20129.59
1000.207, 19809.81
1001.320, 19247.12
1002.433, 19105.53
1003.546, 18715.01
1004.659, 18920.58
1005.772, 17279.24
1006.884, 16152.98
1007.996, 15671.81
1009.108, 13841.14
1010.220, 12458.72
1011.332, 10862.81
1012.444, 9598.980
1013.555, 8217.237
1014.666, 7289.581
1015.777, 6441.015
1016.888, 5509.736
1017.999, 4798.305
1019.110, 4198.163
1020.220, 3882.768
1021.331, 3505.898
1022.441, 3262.311
1023.551, 3041.866
1024.661, 2890.986
1025.770, 2676.453
1026.880, 2468.324
1027.989, 2376.402
1029.098, 2245.322
1030.207, 2013.014
1031.316, 1806.282
1032.425, 1799.738
1033.533, 1766.884
1034.642, 1478.124
1035.750, 1310.603
1036.858, 1402.857
1037.966, 1278.037
1039.073, 1348.783
1040.181, 1523.688
1041.288, 1422.879
1042.396, 1592.034
1043.503, 1564.944
1044.610, 1681.179
1045.716, 1668.581
1046.823, 1660.332
1047.929, 1605.724
1049.036, 1612.366
1050.142, 1714.986
1051.248, 1791.390
1052.353, 1963.945
1053.459, 2117.036
1054.564, 2216.383
1055.670, 2305.305
1056.775, 2366.754
1057.880, 2368.067
1058.985, 2405.959
1060.089, 2333.656
1061.194, 2286.362
1062.298, 2214.774
1063.402, 2014.514
1064.506, 1931.732
1065.610, 1635.045
1066.713, 1514.017
1067.817, 1392.615
1068.920, 1356.321
1070.023, 1368.051
1071.126, 1324.970
1072.229, 1504.077
1073.332, 1485.136
1074.435, 1715.472
1075.537, 1919.018
1076.639, 2350.139
1077.741, 2557.111
1078.843, 3150.598
1079.945, 3527.779
1081.046, 4002.334
1082.148, 4292.528
1083.249, 4593.434
1084.350, 4390.800
1085.451, 4351.527
1086.551, 4149.953
1087.652, 3695.027
1088.752, 3139.279
1089.853, 2934.624
1090.953, 2506.410
1092.053, 2512.741
1093.152, 1946.309
1094.252, 1933.945
1095.351, 1849.546
1096.451, 1768.094
1097.550, 1811.331
1098.649, 2008.491
1099.748, 2103.917
1100.846, 2293.785
1101.945, 2577.023
1103.043, 2604.993
1104.141, 2728.541
1105.239, 2898.612
1106.337, 2946.766
1107.434, 2850.889
1108.532, 2864.027
1109.629, 2592.139
1110.726, 2596.061
1111.823, 2298.662
1112.920, 2156.488
1114.017, 1970.780
1115.113, 1725.612
1116.210, 1481.470
1117.306, 1335.481
1118.402, 1281.098
1119.498, 1130.700
1120.593, 998.2056
1121.689, 858.0728
1122.784, 738.3682
1123.879, 752.8760
1124.974, 666.3291
1126.069, 550.0737
1127.164, 551.2002
1128.259, 374.9146
1129.353, 279.8257
1130.447, 304.7427
1131.541, 272.6138
1132.635, 268.6206
1133.729, 219.3237
1134.822, 200.5508
1135.916, 178.5049
1137.009, 148.4302
1138.102, 134.1465
1139.195, 113.9106
1140.288, 89.70264
1141.380, 54.82422
1142.473, 57.08398
1143.565, 47.94629
1144.657, 60.50293
1145.749, 39.58350
1146.841, 11.53223
1147.932, 13.74951
1149.024, 144.1260
1150.115, 10.62354
1151.206, 46.16797
1152.297, 120.3999
1153.388, 27.92920
1154.479, 122.4341
1155.569, 80.58447
1156.659, 135.5234
1157.750, 139.9854
1158.839, 94.35840
1159.929, 86.15918
1161.019, 7.526367
1162.108, 60.85742
1163.198, 31.74023
1164.287, 160.3784
1165.376, 97.07227
1166.465, 75.76953
1167.553, 243.8472
1168.642, 124.8511
1169.730, 162.5303
1170.818, 46.69580
1171.906, 208.0693
1172.994, 106.9189
1174.082, 98.39209
1175.170, 39.90723
1176.257, 40.20996
1177.344, 44.05566
1178.431, 136.6582
1179.518, 120.4023
1180.605, 83.88135
1181.691, 203.4604
1182.778, 121.6411
1183.864, 48.20752
1184.950, 61.27197
1186.036, 65.92969
1187.122, 78.61230
1188.207, 66.63037
1189.292, 80.83740
1190.378, 88.41406
1191.463, 67.15869
1192.548, 40.69092
1193.632, 31.95459
1194.717, 9.883301
1195.801, 100.6499
1196.886, 41.38428
1197.970, 44.15527
1199.054, 72.97266
1200.137, 137.3223
1201.221, 95.76709
1202.305, 14.68799
1203.388, 44.52295
1204.471, 44.11328
1205.554, 6.329102
1206.637, 59.14746
1207.719, 43.37158
1208.802, 1.108887
1209.884, 9.279297
1210.966, 43.44434
1212.048, 83.76123
1213.130, 122.6045
1214.212, 19.41064
1215.293, 16.01074
1216.374, 67.71143
1217.456, 16.83154
1218.536, 56.17920
1219.617, 18.35986
1220.698, 32.14551
1221.778, 144.8521
1222.859, 129.6440
1223.939, 134.5796
1225.019, 101.1201
1226.099, 80.55859
1227.178, 93.91504
1228.258, 52.33789
1229.337, 134.6548
1230.417, 45.89551
1231.496, 160.9004
1232.574, 97.83496
1233.653, 62.68164
