##NAMES=Axinite-(Fe)
##RRUFFID=R060194
##IDEAL CHEMISTRY=Ca_4_Fe^2+^_2_Al_4_[B_2_Si_8_O_30_](OH)_2_
##LOCALITY=near Dalbandi, Baluchistan Province, Pakistan
##OWNER=RRUFF
##SOURCE=Herbert Obodda
##DESCRIPTION=Brown transparent wedge-shaped single crystal
##STATUS=The identification of this mineral has been confirmed by X-ray diffraction and chemical analysis
##URL=rruff.info/R060194
##MEASURED CHEMISTRY=Ca_2.00_(Fe^2+^_0.66_Mg_0.30_Mn_0.04_)Al_2.00_BSi_4.00_O_15_(OH)
##PIN_ID=L00599
##ORIENTATION=Laser parallel to (0 -1 -1). Fiducial mark perpendicular to laser is parallel to a [1 0 0]
53.91000, 0.0000000E+00
55.14900, 70.19031
56.38700, 147.0223
57.62600, 203.1193
58.86400, 311.7952
60.10300, 383.3146
61.34100, 453.3519
62.57900, 258.2919
63.81700, 126.4127
65.05400, 12.31335
66.29200, 86.52148
67.52900, 154.6234
68.76700, 69.49573
70.00400, 113.4034
71.24100, 233.6636
72.47700, 211.9221
73.71400, 231.8479
74.95100, 300.5928
76.18700, 276.3962
77.42300, 386.4285
78.65900, 299.9663
79.89500, 310.7944
81.13100, 351.7227
82.36700, 541.5806
83.60200, 609.2178
84.83700, 988.4980
86.07200, 1069.300
87.30800, 1197.512
88.54200, 1243.035
89.77700, 1424.785
91.01200, 1576.682
92.24600, 1812.596
93.48000, 2048.938
94.71400, 2319.848
95.94800, 2644.922
97.18200, 2986.509
98.41600, 3419.569
99.64900, 4072.070
100.8830, 4707.963
102.1160, 5454.194
103.3490, 6188.726
104.5820, 7621.522
105.8150, 9651.545
107.0470, 12017.77
108.2800, 14835.16
109.5120, 17218.69
110.7440, 16699.34
111.9760, 15530.09
113.2080, 14604.92
114.4400, 12579.79
115.6710, 10367.69
116.9030, 8195.610
118.1340, 6320.522
119.3650, 4743.413
120.5960, 3908.261
121.8270, 3200.062
123.0580, 2800.822
124.2880, 2663.554
125.5190, 2303.259
126.7490, 2008.913
127.9790, 1785.329
129.2090, 1723.975
130.4390, 1724.822
131.6680, 1836.840
132.8980, 1962.019
134.1270, 2005.319
135.3560, 2184.730
136.5850, 2343.475
137.8140, 2639.599
139.0430, 3053.147
140.2710, 3617.328
141.5000, 3925.308
142.7280, 4072.065
143.9560, 4352.460
145.1840, 4459.346
146.4120, 4431.717
147.6390, 4575.581
148.8670, 4810.951
150.0940, 4972.831
151.3210, 5448.225
152.5490, 5892.135
153.7750, 5889.562
155.0020, 6111.505
156.2290, 6127.964
157.4550, 6123.938
158.6810, 6069.426
159.9080, 6240.425
161.1340, 6489.933
162.3590, 7119.946
163.5850, 7625.465
164.8110, 8686.483
166.0360, 9900.993
167.2610, 11455.00
168.4860, 13062.50
169.7110, 14566.49
170.9360, 15786.95
172.1610, 16253.90
173.3850, 16143.33
174.6100, 15400.22
175.8340, 13814.59
177.0580, 11778.42
178.2820, 9578.712
179.5050, 7394.464
180.7290, 5893.671
181.9520, 4312.327
183.1760, 3428.429
184.3990, 2861.974
185.6220, 2511.957
186.8450, 2371.943
188.0670, 2525.325
189.2900, 2891.980
190.5120, 3543.462
191.7340, 4535.793
192.9560, 5516.952
194.1780, 6539.852
195.4000, 7129.244
196.6220, 7619.996
197.8430, 8308.109
199.0640, 8204.575
200.2860, 8279.396
201.5070, 8892.993
202.7270, 9370.341
203.9480, 10591.39
205.1690, 11832.99
206.3890, 13521.55
207.6090, 15241.35
208.8290, 17167.25
210.0490, 18817.16
211.2690, 20203.16
212.4890, 21019.28
213.7080, 21456.43
214.9280, 21175.23
216.1470, 20250.78
217.3660, 18790.79
218.5850, 17240.54
219.8030, 15372.96
221.0220, 13777.04
222.2400, 11867.79
223.4590, 10220.91
224.6770, 8479.314
225.8950, 7168.631
227.1120, 5886.357
228.3300, 4716.225
229.5480, 4034.360
230.7650, 3312.455
231.9820, 2896.673
233.1990, 2476.146
234.4160, 2390.635
235.6330, 2265.706
236.8490, 2163.330
238.0660, 2190.484
239.2820, 2248.158
240.4980, 2386.135
241.7140, 2574.835
242.9300, 2806.072
244.1460, 3070.598
245.3610, 3300.545
246.5770, 3558.865
247.7920, 4063.551
249.0070, 4498.598
250.2220, 5256.998
251.4370, 5893.744
252.6510, 6673.836
253.8660, 7640.266
255.0800, 8169.025
256.2940, 8771.108
257.5080, 9267.520
258.7220, 9682.245
259.9360, 10153.28
261.1490, 9780.633
262.3630, 9835.280
263.5760, 10085.23
264.7890, 10641.47
266.0020, 11938.00
267.2150, 13361.82
268.4270, 14759.92
269.6400, 15989.29
270.8520, 17830.94
272.0640, 18892.86
273.2760, 20318.03
274.4880, 20995.48
275.7000, 20944.17
276.9120, 20788.13
278.1230, 19761.35
279.3340, 18288.82
280.5450, 16838.55
281.7560, 14895.55
282.9670, 12986.80
284.1780, 11424.30
285.3880, 10302.05
286.5980, 9608.061
287.8090, 9498.310
289.0190, 9699.805
290.2290, 10573.54
291.4380, 11712.51
292.6480, 13559.72
293.8570, 15001.16
295.0670, 16536.83
296.2760, 18274.73
297.4850, 19593.86
298.6930, 20437.22
299.9020, 20820.79
301.1110, 20943.58
302.3190, 20780.60
303.5270, 19822.82
304.7350, 19399.27
305.9430, 18336.92
307.1510, 17884.78
308.3580, 17159.85
309.5660, 16708.11
310.7730, 16496.58
311.9800, 16440.25
313.1870, 16726.12
314.3940, 17796.18
315.6010, 19328.44
316.8070, 21424.88
318.0130, 23255.51
319.2200, 24958.13
320.4260, 25277.90
321.6310, 24495.65
322.8370, 22333.53
324.0430, 19533.64
325.2480, 15957.07
326.4540, 12749.82
327.6590, 9948.657
328.8640, 7791.353
330.0680, 6439.080
331.2730, 5634.434
332.4780, 5279.763
333.6820, 5238.080
334.8860, 5917.052
336.0900, 6570.166
337.2940, 7809.418
338.4980, 9467.807
339.7010, 11135.33
340.9050, 13787.98
342.1080, 17004.75
343.3110, 20081.65
344.5140, 22216.68
345.7170, 23877.83
346.9200, 23778.18
348.1220, 21923.75
349.3240, 19554.52
350.5270, 16576.49
351.7290, 13834.69
352.9310, 11362.18
354.1320, 9564.542
355.3340, 7973.272
356.5350, 6523.236
357.7370, 5057.832
358.9380, 3881.438
360.1390, 2844.199
361.3400, 1975.527
362.5400, 1228.625
363.7410, 839.8760
364.9410, 458.6221
366.1410, 49.92871
367.3410, 154.4502
368.5410, 410.9521
369.7410, 419.3086
370.9400, 542.7021
372.1400, 616.5645
373.3390, 482.2930
374.5380, 424.0225
375.7370, 333.4922
376.9360, 185.9648
378.1350, 110.0283
379.3330, 342.1318
380.5310, 911.5117
381.7300, 1332.986
382.9280, 2173.905
384.1260, 3135.223
385.3230, 4038.639
386.5210, 5316.530
387.7180, 6344.854
388.9160, 7490.771
390.1130, 7991.447
391.3100, 8520.043
392.5060, 8344.734
393.7030, 8039.518
394.9000, 7409.389
396.0960, 6709.352
397.2920, 5844.402
398.4880, 4886.536
399.6840, 4250.754
400.8800, 3531.054
402.0750, 2967.434
403.2710, 2597.892
404.4660, 2291.646
405.6610, 2236.035
406.8560, 2160.718
408.0510, 2354.474
409.2450, 2679.300
410.4400, 3290.195
411.6340, 3888.161
412.8280, 4733.193
414.0220, 6113.293
415.2160, 7503.455
416.4100, 9347.686
417.6030, 11000.98
418.7970, 12262.33
419.9900, 13183.75
421.1830, 13912.22
422.3760, 14125.75
423.5690, 14622.34
424.7610, 15462.99
425.9540, 16858.70
427.1460, 18873.46
428.3380, 20780.26
429.5300, 22851.13
430.7220, 24036.04
431.9140, 24219.00
433.1050, 23240.00
434.2970, 21745.06
435.4880, 18953.15
436.6790, 16384.30
437.8700, 13639.48
439.0610, 11559.71
440.2510, 10081.97
441.4420, 9185.270
442.6320, 9075.605
443.8220, 9190.977
445.0120, 9390.381
446.2020, 9418.822
447.3910, 8572.291
448.5810, 7829.791
449.7700, 6458.320
450.9600, 4847.876
452.1490, 3605.459
453.3370, 2530.066
454.5260, 1687.697
455.7150, 1187.352
456.9030, 772.0264
458.0910, 406.7217
459.2800, 231.4365
460.4670, 110.1689
461.6550, 17.08105
462.8430, 205.3525
464.0300, 214.7305
465.2180, 227.2246
466.4050, 379.8428
467.5920, 359.6641
468.7790, 356.6816
469.9650, 366.8984
471.1520, 339.3232
472.3380, 331.9453
473.5250, 300.7656
474.7110, 136.7705
475.8970, 19.25391
477.0820, 218.9443
478.2680, 396.7764
479.4540, 665.6094
480.6390, 976.4424
481.8240, 1349.276
483.0090, 1843.109
484.1940, 2217.940
485.3780, 2539.769
486.5630, 2580.593
487.7470, 2684.413
488.9320, 2402.229
490.1160, 1931.038
491.3000, 1380.841
492.4830, 939.6338
493.6670, 497.4180
494.8500, 219.1904
496.0340, 40.05469
497.2170, 38.41797
498.4000, 119.9014
499.5820, 37.54883
500.7650, 149.3223
501.9480, 161.2812
503.1300, 78.43262
504.3120, 84.73926
505.4940, 102.7920
506.6760, 38.24707
507.8580, 34.40430
509.0390, 209.7979
510.2210, 7.169922
511.4020, 58.73438
512.5830, 101.8730
513.7640, 42.08203
514.9450, 105.3994
516.1250, 74.74805
517.3060, 132.6592
518.4860, 235.3213
519.6660, 291.9062
520.8460, 374.1963
522.0260, 288.7939
523.2060, 234.6523
524.3850, 220.7539
525.5650, 155.0928
526.7440, 135.6074
527.9230, 20.32031
529.1020, 27.82422
530.2810, 39.84863
531.4590, 347.7549
532.6380, 630.6230
533.8160, 711.4580
534.9940, 1021.257
536.1720, 1408.021
537.3500, 2001.751
538.5270, 2551.443
539.7050, 3170.101
540.8820, 3791.719
542.0590, 4738.301
543.2360, 5686.846
544.4130, 6451.351
545.5900, 7165.822
546.7660, 7552.274
547.9430, 7801.719
549.1190, 7573.215
550.2950, 7055.750
551.4710, 6328.315
552.6470, 5754.906
553.8220, 5153.570
554.9980, 4891.315
556.1730, 4804.113
557.3480, 4824.982
558.5230, 5118.897
559.6980, 5263.852
560.8730, 5437.837
562.0470, 5718.855
563.2220, 5675.904
564.3960, 5668.969
565.5700, 5283.061
566.7440, 4943.156
567.9170, 4724.229
569.0910, 4656.286
570.2640, 4568.322
571.4380, 4739.330
572.6110, 4789.293
573.7840, 5137.207
574.9570, 5175.074
576.1290, 5119.892
577.3020, 5034.664
578.4740, 4975.388
579.6460, 4737.062
580.8180, 4656.688
581.9900, 4817.265
583.1620, 4976.791
584.3330, 5254.269
585.5040, 5669.695
586.6760, 6179.074
587.8470, 6749.400
589.0180, 7081.677
590.1880, 7403.902
591.3590, 7247.077
592.5290, 6704.202
593.7000, 5837.272
594.8700, 4919.293
596.0400, 4066.263
597.2090, 3120.180
598.3790, 2296.046
599.5490, 1831.859
600.7180, 1517.621
601.8870, 1229.329
603.0560, 1044.183
604.2250, 839.0215
605.3940, 874.0107
606.5620, 835.9883
607.7300, 1021.867
608.8990, 1041.548
610.0670, 1175.030
611.2350, 1256.548
612.4020, 1530.324
613.5700, 1677.186
614.7370, 1881.532
615.9050, 2213.020
617.0720, 2332.631
618.2390, 2528.694
619.4060, 2690.720
620.5720, 2566.705
621.7390, 2540.654
622.9050, 2278.562
624.0710, 2165.432
625.2370, 1788.262
626.4030, 1376.054
627.5690, 1251.807
628.7340, 963.5195
629.9000, 777.1934
631.0650, 730.8291
632.2300, 776.4258
633.3950, 808.9844
634.5600, 901.5029
635.7240, 1179.893
636.8890, 1294.588
638.0530, 1717.089
639.2170, 2006.531
640.3810, 2464.518
641.5450, 2967.682
642.7080, 3203.877
643.8720, 3477.666
645.0350, 3669.831
646.1980, 3715.987
647.3610, 3505.787
648.5240, 3329.167
649.6870, 2841.366
650.8490, 2355.811
652.0120, 2019.202
653.1740, 1655.721
654.3360, 1285.775
655.4980, 961.7539
656.6600, 865.8066
657.8210, 732.6758
658.9830, 573.0146
660.1440, 462.2266
661.3050, 394.8184
662.4660, 501.8281
663.6270, 524.2617
664.7870, 879.3584
665.9480, 988.0352
667.1080, 1410.005
668.2680, 1971.428
669.4280, 2504.516
670.5880, 3258.103
671.7480, 4353.023
672.9070, 5346.118
674.0670, 6240.207
675.2260, 7527.291
676.3850, 8310.370
677.5440, 9059.445
678.7030, 8907.518
679.8610, 8366.582
681.0200, 7677.645
682.1780, 6562.703
683.3360, 5457.760
684.4940, 4406.400
685.6520, 3532.309
686.8090, 2867.447
687.9670, 2524.590
689.1240, 2021.803
690.2810, 2000.990
691.4380, 1896.902
692.5950, 1892.897
693.7520, 2137.364
694.9080, 2330.970
696.0650, 2912.568
697.2210, 3259.249
698.3770, 3953.229
699.5330, 4666.919
700.6880, 5757.010
701.8440, 7243.219
702.9990, 9055.384
704.1550, 11331.66
705.3100, 14264.08
706.4650, 17721.19
707.6190, 21762.12
708.7740, 26478.37
709.9290, 31590.22
711.0830, 37321.18
712.2370, 42203.96
713.3910, 46373.73
714.5450, 48416.49
715.6980, 48602.23
716.8520, 46394.96
718.0050, 42473.66
719.1580, 37144.36
720.3110, 31325.04
721.4640, 25982.70
722.6170, 21165.35
723.7700, 17389.00
724.9220, 14438.62
726.0740, 12009.24
727.2260, 9964.837
728.3780, 8315.428
729.5300, 7212.006
730.6810, 6173.574
731.8330, 5400.131
732.9840, 4472.678
734.1350, 4063.214
735.2860, 3604.740
736.4370, 3229.259
737.5880, 2883.768
738.7380, 2528.268
739.8880, 2264.760
741.0390, 2153.246
742.1890, 2008.741
743.3380, 1843.292
744.4880, 1769.900
745.6380, 1724.569
746.7870, 1604.342
747.9360, 1635.211
749.0850, 1548.181
750.2340, 1598.252
751.3830, 1655.424
752.5310, 1864.690
753.6800, 2003.051
754.8280, 2231.405
755.9760, 2392.905
757.1240, 2811.344
758.2720, 3166.780
759.4190, 3614.215
760.5670, 4075.648
761.7140, 4815.082
762.8610, 5611.514
764.0080, 6047.945
765.1550, 6780.377
766.3020, 7442.808
767.4480, 7765.240
768.5950, 7825.674
769.7410, 7807.111
770.8870, 7800.549
772.0330, 7014.988
773.1780, 6380.430
774.3240, 5515.879
775.4690, 4882.382
776.6140, 4288.941
777.7590, 3521.579
778.9040, 3132.276
780.0490, 2566.062
781.1940, 2094.939
782.3380, 1801.889
783.4820, 1539.914
784.6260, 1258.971
785.7700, 1114.078
786.9140, 944.2510
788.0580, 727.4424
789.2010, 639.6914
790.3450, 545.9863
791.4880, 385.3193
792.6310, 243.6982
793.7730, 316.1602
794.9160, 325.6963
796.0590, 167.3184
797.2010, 253.0518
798.3430, 142.9121
799.4850, 50.92090
800.6270, 150.0479
801.7690, 116.2900
802.9100, 64.35840
804.0520, 88.03027
805.1930, 142.5088
806.3340, 262.0537
807.4750, 438.6504
808.6160, 513.2988
809.7560, 701.9609
810.8970, 781.6318
812.0370, 841.3125
813.1770, 948.0049
814.3170, 832.7070
815.4570, 753.4189
816.5960, 718.1436
817.7360, 547.8789
818.8750, 380.6250
820.0140, 192.3828
821.1530, 40.15234
822.2920, 32.07520
823.4310, 70.33203
824.5690, 306.6387
825.7070, 276.1113
826.8460, 225.7344
827.9840, 221.4834
829.1220, 401.3535
830.2590, 425.4395
831.3970, 332.7529
832.5340, 397.2441
833.6710, 303.9473
834.8080, 293.8125
835.9450, 240.8330
837.0820, 265.9824
838.2190, 252.2705
839.3550, 201.6904
840.4910, 256.2158
841.6270, 157.8740
842.7630, 34.61230
843.8990, 101.3721
845.0350, 57.18359
846.1700, 35.02637
847.3060, 38.11426
848.4410, 214.2705
849.5760, 172.4453
850.7100, 234.6387
851.8450, 77.85059
852.9800, 289.0830
854.1140, 230.3350
855.2480, 443.6064
856.3820, 516.8984
857.5160, 412.2109
858.6500, 662.5449
859.7830, 716.8994
860.9170, 657.2764
862.0500, 689.6748
863.1830, 866.0947
864.3160, 744.5381
865.4480, 918.0029
866.5810, 916.4932
867.7130, 806.0049
868.8460, 1019.540
869.9780, 919.1006
871.1100, 859.6855
872.2410, 816.2949
873.3730, 820.4600
874.5050, 801.5889
875.6360, 884.2734
876.7670, 885.9844
877.8980, 915.7217
879.0290, 918.4873
880.1590, 914.2793
881.2900, 907.1055
882.4200, 859.2363
883.5500, 847.8555
884.6800, 804.7783
885.8100, 766.7363
886.9400, 766.4287
888.0690, 807.7266
889.1990, 778.7578
890.3280, 823.8203
891.4570, 875.9131
892.5860, 901.0381
893.7140, 886.1953
894.8430, 1139.382
895.9710, 1125.604
897.1000, 1375.858
898.2280, 1427.147
899.3560, 1653.476
900.4830, 1881.836
901.6110, 2017.236
902.7380, 2185.672
903.8660, 2391.133
904.9930, 2465.621
906.1200, 2542.134
907.2460, 2495.005
908.3730, 2505.242
909.5000, 2242.837
910.6260, 2057.465
911.7520, 1836.119
912.8780, 1574.809
914.0040, 1379.539
915.1290, 1295.297
916.2550, 1088.110
917.3800, 1133.953
918.5050, 938.8223
919.6300, 974.7285
920.7550, 965.6641
921.8800, 1073.658
923.0040, 946.6787
924.1290, 970.7266
925.2530, 1030.800
926.3770, 1289.929
927.5010, 1448.093
928.6250, 1531.283
929.7480, 1635.502
930.8720, 1829.754
931.9950, 1938.031
933.1180, 2131.332
934.2410, 2079.657
935.3640, 2108.420
936.4860, 2165.814
937.6090, 2273.230
938.7310, 2317.797
939.8530, 2372.098
940.9750, 2611.592
942.0970, 2737.115
943.2180, 3120.664
944.3400, 3282.237
945.4610, 3718.852
946.5820, 4059.488
947.7030, 4713.186
948.8240, 5254.904
949.9450, 5912.656
951.0650, 6719.442
952.1860, 7629.252
953.3060, 8691.100
954.4260, 9903.986
955.5460, 11288.90
956.6650, 13026.28
957.7850, 15149.43
958.9040, 17355.36
960.0230, 20426.31
961.1420, 23195.23
962.2610, 26174.20
963.3800, 28968.50
964.4990, 31276.77
965.6170, 31925.60
966.7350, 31963.33
967.8530, 30946.09
968.9710, 29198.79
970.0890, 26855.22
971.2070, 25041.97
972.3240, 23844.35
973.4410, 22969.63
974.5580, 22936.99
975.6750, 23558.27
976.7920, 24933.42
977.9090, 26024.92
979.0250, 27323.61
980.1410, 28077.03
981.2580, 28323.86
982.3740, 27289.65
983.4890, 25878.65
984.6050, 23614.71
985.7200, 21349.81
986.8360, 19254.97
987.9510, 17152.17
989.0660, 15424.42
990.1810, 13954.72
991.2950, 12613.06
992.4100, 11962.45
993.5240, 11540.88
994.6390, 11266.36
995.7530, 11155.88
996.8660, 11525.46
997.9800, 11475.07
999.0940, 11668.74
1000.207, 12311.45
1001.320, 12556.20
1002.433, 12939.03
1003.546, 13146.26
1004.659, 13365.83
1005.772, 13009.81
1006.884, 12577.94
1007.996, 11653.00
1009.108, 10923.10
1010.220, 9785.250
1011.332, 8483.438
1012.444, 7468.312
1013.555, 6332.588
1014.666, 5685.238
1015.777, 4801.648
1016.888, 4191.715
1017.999, 3479.162
1019.110, 3044.505
1020.220, 2847.052
1021.331, 2581.628
1022.441, 2382.246
1023.551, 2400.292
1024.661, 2318.777
1025.770, 2432.516
1026.880, 2690.812
1027.989, 2709.704
1029.098, 2854.511
1030.207, 2909.912
1031.316, 2978.569
1032.425, 2866.521
1033.533, 2917.017
1034.642, 2771.929
1035.750, 2818.801
1036.858, 2720.959
1037.966, 2915.161
1039.073, 2666.404
1040.181, 2879.685
1041.288, 2946.009
1042.396, 2893.375
1043.503, 2877.904
1044.610, 2763.369
1045.716, 2972.103
1046.823, 3276.649
1047.929, 3282.341
1049.036, 3561.734
1050.142, 3552.366
1051.248, 3964.078
1052.353, 4162.139
1053.459, 4406.119
1054.564, 4784.332
1055.670, 5121.186
1056.775, 5353.204
1057.880, 5461.127
1058.985, 5529.703
1060.089, 5429.572
1061.194, 5378.677
1062.298, 4950.238
1063.402, 4606.395
1064.506, 4126.518
1065.610, 3787.674
1066.713, 3484.860
1067.817, 2885.079
1068.920, 2852.838
1070.023, 2589.125
1071.126, 2708.386
1072.229, 2603.766
1073.332, 2815.299
1074.435, 3066.278
1075.537, 3401.503
1076.639, 3847.043
1077.741, 4567.594
1078.843, 5546.170
1079.945, 6801.221
1081.046, 7715.860
1082.148, 8861.414
1083.249, 10133.48
1084.350, 10713.20
1085.451, 10964.52
1086.551, 10662.99
1087.652, 9936.656
1088.752, 8749.261
1089.853, 7694.607
1090.953, 6317.504
1092.053, 5467.873
1093.152, 4720.158
1094.252, 4002.078
1095.351, 3268.898
1096.451, 3053.857
1097.550, 2545.514
1098.649, 2185.144
1099.748, 2110.431
1100.846, 1713.320
1101.945, 1583.320
1103.043, 1427.587
1104.141, 1432.413
1105.239, 1074.196
1106.337, 1106.586
1107.434, 1142.054
1108.532, 906.9443
1109.629, 958.5898
1110.726, 846.6465
1111.823, 883.3662
1112.920, 546.3789
1114.017, 593.1289
1115.113, 709.9502
1116.210, 555.8076
1117.306, 729.6523
1118.402, 715.3496
1119.498, 683.2295
1120.593, 605.1172
1121.689, 503.5654
1122.784, 519.6924
1123.879, 670.6211
1124.974, 655.6191
1126.069, 551.5723
1127.164, 415.0596
1128.259, 403.3691
1129.353, 276.2451
1130.447, 318.3330
1131.541, 136.3408
1132.635, 72.70508
1133.729, 0.1689450
1134.822, 87.05566
1135.916, 56.07812
1137.009, 71.13184
1138.102, 8.746094
1139.195, 25.32129
1140.288, 19.39551
1141.380, 25.47656
1142.473, 52.56738
1143.565, 36.33691
1144.657, 9.756836
1145.749, 59.14355
1146.841, 1.052734
1147.932, 135.9590
1149.024, 61.58105
1150.115, 70.36133
1151.206, 3.682617
1152.297, 112.3506
1153.388, 147.6592
1154.479, 54.28613
1155.569, 35.20898
1156.659, 68.17480
1157.750, 54.94824
1158.839, 41.79980
1159.929, 63.80957
1161.019, 51.83789
1162.108, 56.26465
1163.198, 83.48438
1164.287, 48.57617
1165.376, 78.37695
1166.465, 53.51367
1167.553, 43.70898
1168.642, 11.67969
1169.730, 19.08008
1170.818, 93.05762
1171.906, 36.96289
1172.994, 57.45215
1174.082, 31.67285
1175.170, 29.87891
1176.257, 32.31738
1177.344, 65.43066
1178.431, 26.74512
1179.518, 120.6816
1180.605, 5.281250
1181.691, 96.28613
1182.778, 45.85352
1183.864, 0.1103520
1184.950, 125.4990
1186.036, 45.15430
1187.122, 3.680664
1188.207, 44.24316
1189.292, 106.8926
1190.378, 30.19824
1191.463, 17.20703
1192.548, 1.398438
1193.632, 11.02148
1194.717, 56.81543
1195.801, 31.15723
1196.886, 32.52246
1197.970, 55.83984
1199.054, 59.70898
1200.137, 141.6523
1201.221, 9.8632999E-02
1202.305, 83.38574
1203.388, 20.58398
1204.471, 5.222656
1205.554, 9.024414
1206.637, 34.39648
1207.719, 40.49316
1208.802, 46.57520
1209.884, 108.3818
1210.966, 50.67578
1212.048, 1.295898
1213.130, 7.543945
1214.212, 61.23047
1215.293, 23.92676
1216.374, 8.804688
1217.456, 5.984375
1218.536, 55.30176
1219.617, 1.575195
1220.698, 146.5576
1221.778, 45.14160
1222.859, 25.90625
1223.939, 16.47852
1225.019, 92.03223
1226.099, 59.81836
1227.178, 33.67578
1228.258, 4.4922002E-02
1229.337, 28.18555
1230.417, 170.3760
1231.496, 200.5430
1232.574, 87.68457
1233.653, 31.79785
1234.732, 66.93750
1235.810, 127.0723
