##NAMES=Axinite-(Fe)
##RRUFFID=R060183
##IDEAL CHEMISTRY=Ca_4_Fe^2+^_2_Al_4_[B_2_Si_8_O_30_](OH)_2_
##LOCALITY=Skagit Bluffs, near Manning Park, British Columbia, Canada
##OWNER=RRUFF
##SOURCE=Lloyd Twaites
##DESCRIPTION=Light-pink transparent axe-head-shaped single crystal
##STATUS=The identification of this mineral has been confirmed by X-ray diffraction and chemical analysis
##URL=rruff.info/R060183
##MEASURED CHEMISTRY=Ca_2.00_(Fe^2+^_0.58_Mn_0.23_Mg_0.19_)Al_2.00_B_1.00_Si_4.00_O_15_(OH)
##PIN_ID=L00943
##ORIENTATION=Laser parallel to c* (0 0 1). Fiducial mark perpendicular to laser is parallel to a [1 0 0]
52.67100, 0.0000000E+00
53.91000, 40.52576
55.14900, 71.71298
56.38700, 124.2524
57.62600, 153.5151
58.86400, 208.6659
60.10300, 260.4330
61.34100, 259.9554
62.57900, 245.9844
63.81700, 230.3407
65.05400, 145.0071
66.29200, 94.11526
67.52900, 52.19373
68.76700, 25.68494
70.00400, 4.684998
71.24100, 45.37390
72.47700, 12.22736
73.71400, 87.97229
74.95100, 43.78601
76.18700, 17.22522
77.42300, 14.03552
78.65900, 51.65552
79.89500, 19.71179
81.13100, 29.72729
82.36700, 198.6013
83.60200, 369.8568
84.83700, 524.4463
86.07200, 506.3276
87.30800, 525.4629
88.54200, 644.8169
89.77700, 828.3557
91.01200, 1170.018
92.24600, 1542.724
93.48000, 1852.400
94.71400, 2041.979
95.94800, 2554.411
97.18200, 2835.673
98.41600, 3457.738
99.64900, 4056.578
100.8830, 4854.170
102.1160, 5529.495
103.3490, 6402.538
104.5820, 7354.286
105.8150, 8690.726
107.0470, 10170.85
108.2800, 12120.64
109.5120, 12159.11
110.7440, 9581.227
111.9760, 7266.996
113.2080, 5741.411
114.4400, 4495.462
115.6710, 3957.145
116.9030, 3203.454
118.1340, 2590.389
119.3650, 2176.941
120.5960, 1909.104
121.8270, 1641.870
123.0580, 1595.234
124.2880, 1693.189
125.5190, 1639.729
126.7490, 1532.212
127.9790, 1337.999
129.2090, 1326.427
130.4390, 1309.022
131.6680, 1382.769
132.8980, 1296.649
134.1270, 1238.643
135.3560, 1454.767
136.5850, 1649.030
137.8140, 1963.545
139.0430, 2426.463
140.2710, 3230.781
141.5000, 3777.440
142.7280, 4631.374
143.9560, 5768.594
145.1840, 7411.113
146.4120, 9352.948
147.6390, 11860.11
148.8670, 14539.60
150.0940, 16367.44
151.3210, 17631.62
152.5490, 20032.14
153.7750, 14363.02
155.0020, 11141.24
156.2290, 9469.803
157.4550, 8349.724
158.6810, 7529.004
159.9080, 6939.651
161.1340, 6723.666
162.3590, 6870.049
163.5850, 7433.800
164.8110, 8283.919
166.0360, 9454.401
167.2610, 11189.24
168.4860, 13550.45
169.7110, 15622.01
170.9360, 17310.93
172.1610, 17701.21
173.3850, 16829.84
174.6100, 15295.83
175.8340, 13824.16
177.0580, 12321.84
178.2820, 10791.89
179.5050, 9170.337
180.7290, 7827.170
181.9520, 6696.348
183.1760, 5960.112
184.3990, 5453.706
185.6220, 5297.882
186.8450, 5459.384
188.0670, 5855.211
189.2900, 6697.364
190.5120, 8195.835
191.7340, 9677.623
192.9560, 10874.73
194.1780, 10836.14
195.4000, 9884.869
196.6220, 8765.907
197.8430, 8053.243
199.0640, 7633.886
200.2860, 7877.626
201.5070, 8437.137
202.7270, 9487.406
203.9480, 10147.52
205.1690, 10558.42
206.3890, 10978.15
207.6090, 11042.71
208.8290, 11092.14
210.0490, 10707.46
211.2690, 10091.53
212.4890, 9329.283
213.7080, 8691.794
214.9280, 7787.554
216.1470, 7423.008
217.3660, 6639.609
218.5850, 6148.473
219.8030, 5582.254
221.0220, 4469.686
222.2400, 3660.104
223.4590, 2749.268
224.6770, 2125.538
225.8950, 1535.617
227.1120, 985.7192
228.3300, 577.4565
229.5480, 413.3867
230.7650, 329.1890
231.9820, 183.3691
233.1990, 201.9448
234.4160, 334.9443
235.6330, 327.3848
236.8490, 713.2998
238.0660, 991.6699
239.2820, 1403.498
240.4980, 1950.771
241.7140, 2534.428
242.9300, 3129.454
244.1460, 3771.801
245.3610, 4232.435
246.5770, 4721.341
247.7920, 4879.506
249.0070, 5064.935
250.2220, 5202.618
251.4370, 5484.556
252.6510, 5737.743
253.8660, 5745.180
255.0800, 5544.869
256.2940, 5117.814
257.5080, 4837.054
258.7220, 4772.948
259.9360, 4632.301
261.1490, 4778.708
262.3630, 4800.259
263.5760, 4990.167
264.7890, 5423.417
266.0020, 5927.006
267.2150, 6715.887
268.4270, 7389.064
269.6400, 8173.487
270.8520, 9097.143
272.0640, 9691.009
273.2760, 9870.083
274.4880, 9726.363
275.7000, 9307.849
276.9120, 8861.545
278.1230, 8324.447
279.3340, 7808.551
280.5450, 7453.864
281.7560, 7534.378
282.9670, 7160.100
284.1780, 6949.023
285.3880, 6645.151
286.5980, 6302.478
287.8090, 6136.005
289.0190, 5633.729
290.2290, 5292.651
291.4380, 5059.768
292.6480, 5166.081
293.8570, 5339.586
295.0670, 5688.285
296.2760, 6298.172
297.4850, 7349.250
298.6930, 8763.517
299.9020, 10310.97
301.1110, 12220.21
302.3190, 14439.74
303.5270, 16843.32
304.7350, 18734.16
305.9430, 19793.20
307.1510, 19291.70
308.3580, 17444.41
309.5660, 14715.30
310.7730, 11957.36
311.9800, 9705.592
313.1870, 7777.993
314.3940, 6209.560
315.6010, 5190.293
316.8070, 4329.191
318.0130, 3875.253
319.2200, 3513.476
320.4260, 3029.858
321.6310, 2726.400
322.8370, 2581.099
324.0430, 2355.951
325.2480, 2358.960
326.4540, 2426.119
327.6590, 2607.428
328.8640, 2717.885
330.0680, 2651.490
331.2730, 2554.240
332.4780, 2629.136
333.6820, 2922.175
334.8860, 3350.354
336.0900, 4044.673
337.2940, 5030.130
338.4980, 6162.725
339.7010, 7594.456
340.9050, 9217.320
342.1080, 10735.32
343.3110, 11588.45
344.5140, 11583.71
345.7170, 11466.14
346.9200, 11639.75
348.1220, 11921.53
349.3240, 12462.49
350.5270, 12420.62
351.7290, 11600.94
352.9310, 9974.425
354.1320, 8035.100
355.3340, 6213.959
356.5350, 4559.008
357.7370, 3164.247
358.9380, 2218.685
360.1390, 1313.315
361.3400, 698.1294
362.5400, 304.1284
363.7410, 78.31104
364.9410, 236.3281
366.1410, 288.8115
367.3410, 293.1636
368.5410, 410.3911
369.7410, 296.5171
370.9400, 247.5093
372.1400, 203.3643
373.3390, 52.07764
374.5380, 125.9951
375.7370, 322.6978
376.9360, 578.1226
378.1350, 1192.463
379.3330, 1783.262
380.5310, 2758.600
381.7300, 3827.219
382.9280, 5428.579
384.1260, 7023.675
385.3230, 9305.548
386.5210, 11841.35
387.7180, 14554.57
388.9160, 16960.09
390.1130, 18389.74
391.3100, 18344.04
392.5060, 17443.47
393.7030, 15451.00
394.9000, 13166.65
396.0960, 10574.41
397.2920, 8457.282
398.4880, 6603.118
399.6840, 5060.562
400.8800, 3959.287
402.0750, 2940.922
403.2710, 2259.138
404.4660, 1858.028
405.6610, 1648.899
406.8560, 1770.931
408.0510, 2230.614
409.2450, 2626.521
410.4400, 3375.960
411.6340, 4587.619
412.8280, 5880.625
414.0220, 7488.837
415.2160, 8851.121
416.4100, 9410.451
417.6030, 9170.855
418.7970, 8138.330
419.9900, 7424.877
421.1830, 6874.495
422.3760, 6360.182
423.5690, 6042.937
424.7610, 5692.757
425.9540, 5323.644
427.1460, 4976.595
428.3380, 4505.608
429.5300, 4223.683
430.7220, 3647.818
431.9140, 3233.013
433.1050, 2741.265
434.2970, 2137.574
435.4880, 1724.938
436.6790, 1177.357
437.8700, 826.8286
439.0610, 504.3530
440.2510, 223.9272
441.4420, 95.55127
442.6320, 53.22314
443.8220, 41.05664
445.0120, 7.310547
446.2020, 68.53223
447.3910, 2.738770
448.5810, 67.91406
449.7700, 11.07764
450.9600, 150.7847
452.1490, 159.6855
453.3370, 182.6250
454.5260, 328.6006
455.7150, 326.6123
456.9030, 382.6587
458.0910, 464.7383
459.2800, 553.8506
460.4670, 746.9937
461.6550, 797.1670
462.8430, 1146.370
464.0300, 1421.600
465.2180, 1776.857
466.4050, 2221.141
467.5920, 2620.313
468.7790, 3199.780
469.9650, 3567.135
471.1520, 4128.511
472.3380, 4648.909
473.5250, 5491.326
474.7110, 6928.761
475.8970, 8502.211
477.0820, 10999.68
478.2680, 14286.17
479.4540, 18619.67
480.6390, 23584.18
481.8240, 29683.70
483.0090, 34869.24
484.1940, 37872.79
485.3780, 36511.34
486.5630, 31872.91
487.7470, 26056.48
488.9320, 20528.07
490.1160, 16024.65
491.3000, 12297.24
492.4830, 9394.832
493.6670, 7258.426
494.8500, 5775.023
496.0340, 4808.648
497.2170, 4380.545
498.4000, 3900.560
499.5820, 3746.316
500.7650, 3707.205
501.9480, 3611.169
503.1300, 3796.817
504.3120, 3793.767
505.4940, 3601.947
506.6760, 3332.426
507.8580, 3009.863
509.0390, 2652.385
510.2210, 2090.420
511.4020, 1813.541
512.5830, 1196.251
513.7640, 740.0835
514.9450, 452.5864
516.1250, 107.4189
517.3060, 107.2847
518.4860, 198.0005
519.6660, 326.2759
520.8460, 409.3062
522.0260, 554.2236
523.2060, 488.0342
524.3850, 509.0615
525.5650, 482.3389
526.7440, 245.8589
527.9230, 204.5615
529.1020, 18.45996
530.2810, 121.5093
531.4590, 228.4058
532.6380, 408.2583
533.8160, 527.0747
534.9940, 532.8545
536.1720, 600.5957
537.3500, 552.2988
538.5270, 494.9619
539.7050, 249.5840
540.8820, 190.1528
542.0590, 3.648438
543.2360, 132.0054
544.4130, 102.8784
545.5900, 141.9595
546.7660, 232.2700
547.9430, 261.8613
549.1190, 235.7510
550.2950, 218.9272
551.4710, 46.38428
552.6470, 79.02686
553.8220, 148.1187
554.9980, 204.1631
556.1730, 392.1157
557.3480, 615.0210
558.5230, 837.8789
559.6980, 1006.004
560.8730, 1202.467
562.0470, 1347.182
563.2220, 1467.842
564.3960, 1624.448
565.5700, 1865.109
566.7440, 2023.492
567.9170, 2389.928
569.0910, 2668.307
570.2640, 2937.628
571.4380, 3316.891
572.6110, 3529.096
573.7840, 3692.346
574.9570, 3813.232
576.1290, 3839.347
577.3020, 3830.309
578.4740, 3734.210
579.6460, 3616.049
580.8180, 3640.826
581.9900, 3730.539
583.1620, 4031.188
584.3330, 4178.774
585.5040, 4600.692
586.6760, 4970.437
587.8470, 5108.254
589.0180, 4938.925
590.1880, 4818.503
591.3590, 4289.748
592.5290, 3772.878
593.7000, 3145.943
594.8700, 2711.940
596.0400, 2459.874
597.2090, 1995.737
598.3790, 1926.534
599.5490, 1971.263
600.7180, 1945.924
601.8870, 1991.516
603.0560, 2284.040
604.2250, 2710.493
605.3940, 3170.878
606.5620, 3793.192
607.7300, 4642.437
608.8990, 5688.612
610.0670, 6996.717
611.2350, 8309.749
612.4020, 9849.711
613.5700, 11128.60
614.7370, 12662.42
615.9050, 14182.17
617.0720, 15702.84
618.2390, 16670.44
619.4060, 17249.97
620.5720, 16407.43
621.7390, 15005.82
622.9050, 12853.13
624.0710, 10579.37
625.2370, 8354.528
626.4030, 6339.621
627.5690, 4778.640
628.7340, 3488.583
629.9000, 2620.453
631.0650, 1872.248
632.2300, 1314.969
633.3950, 1038.616
634.5600, 733.1885
635.7240, 528.6865
636.8890, 508.0986
638.0530, 499.4229
639.2170, 454.6577
640.3810, 396.7959
641.5450, 442.8286
642.7080, 529.7622
643.8720, 505.6104
645.0350, 568.3691
646.1980, 471.0454
647.3610, 462.6279
648.5240, 514.1313
649.6870, 472.4028
650.8490, 418.5864
652.0120, 393.1626
653.1740, 401.6445
654.3360, 427.2344
655.4980, 492.5400
656.6600, 580.7754
657.8210, 682.1348
658.9830, 810.2925
660.1440, 952.0894
661.3050, 1118.647
662.4660, 1280.012
663.6270, 1614.618
664.7870, 1864.970
665.9480, 2397.027
667.1080, 2954.008
668.2680, 3722.415
669.4280, 4560.148
670.5880, 5655.636
671.7480, 7007.040
672.9070, 8234.823
674.0670, 9923.530
675.2260, 11312.17
676.3850, 12258.72
677.5440, 12788.21
678.7030, 12320.62
679.8610, 11325.10
681.0200, 10211.67
682.1780, 9023.656
683.3360, 7818.433
684.4940, 6877.659
685.6520, 6033.541
686.8090, 5320.869
687.9670, 4819.364
689.1240, 4491.087
690.2810, 4362.233
691.4380, 4370.709
692.5950, 4532.678
693.7520, 4736.072
694.9080, 5246.553
696.0650, 5644.667
697.2210, 6340.590
698.3770, 7261.189
699.5330, 8377.827
700.6880, 9923.046
701.8440, 11599.77
702.9990, 13631.32
704.1550, 16318.38
705.3100, 19968.38
706.4650, 24126.33
707.6190, 28831.23
708.7740, 34798.08
709.9290, 40709.88
711.0830, 46906.62
712.2370, 52750.31
713.3910, 56719.97
714.5450, 58407.56
715.6980, 56795.11
716.8520, 53711.62
718.0050, 48104.08
719.1580, 41833.47
720.3110, 35576.84
721.4640, 29579.15
722.6170, 24255.42
723.7700, 19807.64
724.9220, 16256.83
726.0740, 13487.98
727.2260, 11221.10
728.3780, 9164.185
729.5300, 7817.240
730.6810, 6668.261
731.8330, 5761.240
732.9840, 5022.179
734.1350, 4282.078
735.2860, 3930.935
736.4370, 3421.754
737.5880, 3220.535
738.7380, 2870.277
739.8880, 2506.983
741.0390, 2412.652
742.1890, 2270.284
743.3380, 2085.880
744.4880, 2043.441
745.6380, 1994.968
746.7870, 2079.462
747.9360, 2084.922
749.0850, 2180.427
750.2340, 2234.743
751.3830, 2424.107
752.5310, 2574.440
753.6800, 2741.742
754.8280, 2974.016
755.9760, 3417.261
757.1240, 3981.477
758.2720, 4449.666
759.4190, 4988.828
760.5670, 5651.963
761.7140, 6354.073
762.8610, 7016.160
764.0080, 7752.222
765.1550, 8129.260
766.3020, 8399.276
767.4480, 8309.271
768.5950, 7945.247
769.7410, 7353.199
770.8870, 6602.135
772.0330, 5913.050
773.1780, 5151.950
774.3240, 4155.800
775.4690, 3594.363
776.6140, 2892.789
777.7590, 2437.454
778.9040, 2006.969
780.0490, 1539.389
781.1940, 1238.504
782.3380, 943.4990
783.4820, 701.6426
784.6260, 415.4673
785.7700, 239.1396
786.9140, 70.48145
788.0580, 3.385254
789.2010, 143.8794
790.3450, 197.9868
791.4880, 208.3013
792.6310, 361.4741
793.7730, 378.9746
794.9160, 388.6240
796.0590, 503.4614
797.2010, 466.9922
798.3430, 568.6719
799.4850, 433.5283
800.6270, 492.4492
801.7690, 423.4785
802.9100, 417.5708
804.0520, 180.7246
805.1930, 52.87988
806.3340, 261.0195
807.4750, 601.9795
808.6160, 1124.968
809.7560, 1620.974
810.8970, 2173.992
812.0370, 2551.025
813.1770, 2875.071
814.3170, 2802.132
815.4570, 2752.210
816.5960, 2325.304
817.7360, 1972.423
818.8750, 1662.576
820.0140, 1248.801
821.1530, 926.1343
822.2920, 784.5703
823.4310, 404.1211
824.5690, 385.8115
825.7070, 135.6514
826.8460, 124.6357
827.9840, 22.23828
829.1220, 49.97314
830.2590, 28.70703
831.3970, 16.65625
832.5340, 28.93311
833.6710, 22.50488
834.8080, 81.05615
835.9450, 14.60400
837.0820, 35.87207
838.2190, 136.3794
839.3550, 216.9199
840.4910, 345.4941
841.6270, 418.1030
842.7630, 508.7471
843.8990, 647.3638
845.0350, 768.1431
846.1700, 889.8965
847.3060, 981.6885
848.4410, 1040.520
849.5760, 1033.390
850.7100, 1007.865
851.8450, 971.2520
852.9800, 859.2451
854.1140, 681.2803
855.2480, 586.3589
856.3820, 453.4810
857.5160, 333.6475
858.6500, 248.8594
859.7830, 204.1172
860.9170, 145.4209
862.0500, 88.77197
863.1830, 128.1704
864.3160, 144.6172
865.4480, 111.1138
866.5810, 197.6592
867.7130, 112.2544
868.8460, 161.9009
869.9780, 232.5977
871.1100, 214.3472
872.2410, 318.1494
873.3730, 239.0044
874.5050, 380.9131
875.6360, 408.8770
876.7670, 560.8945
877.8980, 589.9692
879.0290, 732.0996
880.1590, 838.2871
881.2900, 1084.531
882.4200, 1228.834
883.5500, 1446.195
884.6800, 1825.617
885.8100, 2107.097
886.9400, 2469.638
888.0690, 2810.240
889.1990, 3356.905
890.3280, 3977.658
891.4570, 4745.434
892.5860, 5538.296
893.7140, 6458.224
894.8430, 7491.229
895.9710, 8126.307
897.1000, 9231.457
898.2280, 9983.693
899.3560, 10377.01
900.4830, 10608.43
901.6110, 10681.93
902.7380, 10454.52
903.8660, 10078.19
904.9930, 9749.936
906.1200, 9405.783
907.2460, 8863.734
908.3730, 8568.780
909.5000, 8182.931
910.6260, 7501.176
911.7520, 6947.523
912.8780, 6480.963
914.0040, 6138.523
915.1290, 5730.199
916.2550, 5270.000
917.3800, 4944.917
918.5050, 4641.949
919.6300, 4674.088
920.7550, 4659.339
921.8800, 4576.702
923.0040, 4607.332
924.1290, 4850.087
925.2530, 5263.503
926.3770, 5506.054
927.5010, 5784.288
928.6250, 6211.488
929.7480, 6564.922
930.8720, 6668.087
931.9950, 6940.348
933.1180, 7154.239
934.2410, 7286.071
935.3640, 7406.729
936.4860, 7657.017
937.6090, 8259.966
938.7310, 9030.648
939.8530, 9303.780
940.9750, 10394.72
942.0970, 11438.05
943.2180, 12930.49
944.3400, 14605.03
945.4610, 16725.67
946.5820, 18868.41
947.7030, 21229.25
948.8240, 23617.19
949.9450, 26438.24
951.0650, 28961.39
952.1860, 31220.67
953.3060, 33137.05
954.4260, 34737.55
955.5460, 36339.14
956.6650, 38348.85
957.7850, 40449.67
958.9040, 43405.62
960.0230, 45514.68
961.1420, 48332.84
962.2610, 50504.13
963.3800, 51485.86
964.4990, 50740.35
965.6170, 48716.16
966.7350, 45328.83
967.8530, 41143.92
968.9710, 37201.26
970.0890, 33573.98
971.2070, 30871.71
972.3240, 28699.90
973.4410, 26946.20
974.5580, 26202.61
975.6750, 25543.11
976.7920, 25560.73
977.9090, 25225.43
979.0250, 25172.25
980.1410, 24588.17
981.2580, 24049.19
982.3740, 22615.30
983.4890, 21343.52
984.6050, 19794.84
985.7200, 18683.26
986.8360, 17538.78
987.9510, 16599.90
989.0660, 15957.12
990.1810, 15171.93
991.2950, 14759.84
992.4100, 14374.84
993.5240, 14186.94
994.6390, 14290.13
995.7530, 14687.42
996.8660, 15141.81
997.9800, 15985.29
999.0940, 16671.86
1000.207, 17841.54
1001.320, 18929.30
1002.433, 20058.16
1003.546, 20941.11
1004.659, 21666.15
1005.772, 21434.29
1006.884, 21130.51
1007.996, 19494.83
1009.108, 18263.23
1010.220, 16238.73
1011.332, 14706.32
1012.444, 12620.00
1013.555, 10934.78
1014.666, 9452.639
1015.777, 8120.590
1016.888, 7056.632
1017.999, 6128.249
1019.110, 5379.324
1020.220, 4897.276
1021.331, 4286.749
1022.441, 4163.341
1023.551, 3754.691
1024.661, 3560.338
1025.770, 3218.932
1026.880, 3118.931
1027.989, 2939.051
1029.098, 2762.240
1030.207, 2354.881
1031.316, 2237.232
1032.425, 2039.853
1033.533, 1906.031
1034.642, 1664.764
1035.750, 1410.490
1036.858, 1342.947
1037.966, 1291.634
1039.073, 1121.541
1040.181, 1257.921
1041.288, 1238.524
1042.396, 1149.578
1043.503, 1440.819
1044.610, 1264.938
1045.716, 1425.743
1046.823, 1418.609
1047.929, 1432.338
1049.036, 1831.791
1050.142, 1869.310
1051.248, 2131.567
1052.353, 2252.332
1053.459, 2576.828
1054.564, 2942.237
1055.670, 3125.811
1056.775, 3187.223
1057.880, 3355.321
1058.985, 3483.239
1060.089, 3343.742
1061.194, 3224.766
1062.298, 3183.835
1063.402, 3004.649
1064.506, 2817.661
1065.610, 2684.243
1066.713, 2421.529
1067.817, 2296.891
1068.920, 2193.441
1070.023, 2057.699
1071.126, 2255.749
1072.229, 2260.333
1073.332, 2392.394
1074.435, 2525.445
1075.537, 2915.985
1076.639, 3265.465
1077.741, 3688.855
1078.843, 4125.062
1079.945, 4816.570
1081.046, 5291.591
1082.148, 5536.780
1083.249, 5728.120
1084.350, 5612.534
1085.451, 5290.520
1086.551, 4769.467
1087.652, 4292.205
1088.752, 3800.622
1089.853, 3466.024
1090.953, 3097.483
1092.053, 2845.555
1093.152, 2739.735
1094.252, 2795.602
1095.351, 2803.293
1096.451, 2977.932
1097.550, 3047.796
1098.649, 3425.018
1099.748, 3656.434
1100.846, 4222.290
1101.945, 4715.375
1103.043, 5107.549
1104.141, 5351.344
1105.239, 5647.413
1106.337, 5747.369
1107.434, 5826.510
1108.532, 5535.550
1109.629, 5410.710
1110.726, 4968.238
1111.823, 4579.604
1112.920, 4114.046
1114.017, 3725.155
1115.113, 3383.443
1116.210, 2991.369
1117.306, 2766.263
1118.402, 2500.960
1119.498, 2261.393
1120.593, 2066.098
1121.689, 1852.172
1122.784, 1693.867
1123.879, 1510.233
1124.974, 1341.662
1126.069, 1237.826
1127.164, 1038.607
1128.259, 1070.347
1129.353, 969.8047
1130.447, 876.3486
1131.541, 754.9463
1132.635, 761.7246
1133.729, 618.1763
1134.822, 660.6680
1135.916, 602.1587
1137.009, 538.2373
1138.102, 436.6123
1139.195, 304.8442
1140.288, 300.9961
1141.380, 265.5381
1142.473, 298.8081
1143.565, 262.9434
1144.657, 231.1792
1145.749, 142.2910
1146.841, 202.5249
1147.932, 52.51465
1149.024, 54.63379
1150.115, 72.81885
1151.206, 27.74072
1152.297, 2.904297
1153.388, 6.049805
1154.479, 41.09766
1155.569, 22.75684
1156.659, 42.07275
1157.750, 9.537109
1158.839, 79.58643
1159.929, 77.51562
1161.019, 26.58008
1162.108, 117.6772
1163.198, 119.0010
1164.287, 144.2598
1165.376, 113.1978
1166.465, 67.45361
1167.553, 118.6221
1168.642, 4.015137
1169.730, 152.5933
1170.818, 156.3911
1171.906, 105.0132
1172.994, 158.3496
1174.082, 72.68457
1175.170, 101.6553
1176.257, 56.94727
1177.344, 154.0527
1178.431, 99.96680
1179.518, 155.1133
1180.605, 136.2129
1181.691, 128.0776
1182.778, 100.4082
1183.864, 92.20459
1184.950, 86.97949
1186.036, 69.81006
1187.122, 78.93506
1188.207, 85.75244
1189.292, 110.2056
1190.378, 19.13721
1191.463, 6.828125
1192.548, 34.08984
1193.632, 72.49268
1194.717, 30.32764
1195.801, 89.71826
1196.886, 0.1625980
1197.970, 43.00537
1199.054, 25.41650
1200.137, 40.48975
1201.221, 54.11865
1202.305, 24.10645
1203.388, 13.41650
1204.471, 24.07812
1205.554, 39.22070
1206.637, 22.97754
1207.719, 52.31689
1208.802, 63.35938
1209.884, 58.67090
1210.966, 84.37744
1212.048, 48.78125
1213.130, 9.090332
1214.212, 5.468750
1215.293, 67.93408
1216.374, 7.487305
1217.456, 55.42285
1218.536, 68.40967
1219.617, 23.87061
1220.698, 9.856934
1221.778, 19.36719
1222.859, 20.15088
1223.939, 49.83203
1225.019, 85.50098
1226.099, 91.75342
1227.178, 88.28027
1228.258, 118.5312
1229.337, 53.52051
1230.417, 70.82812
1231.496, 142.7686
1232.574, 69.47607
1233.653, 117.2876
