##NAMES=Axinite-(Fe)
##RRUFFID=R050026
##IDEAL CHEMISTRY=Ca_4_Fe^2+^_2_Al_4_[B_2_Si_8_O_30_](OH)_2_
##LOCALITY=Pouyva mine, Polar Urals, Western Siberian Region, Russia
##OWNER=RRUFF
##SOURCE=Rock Currier
##DESCRIPTION=Brown transparent flat crystal
##STATUS=The identification of this mineral has been confirmed by X-ray diffraction and chemical analysis
##URL=rruff.info/R050026
##MEASURED CHEMISTRY=Ca_2.00_(Fe^2+^_0.61_Mn_0.26_Mg_0.13_)Al_2.00_BSi_4_O_15_(OH)
##PIN_ID=L00250
##ORIENTATION=Laser parallel to -b* (0 -1 0). Fiducial mark perpendicular to laser is parallel to -c [0 0 -1]
85.706, 0.000
87.101, 203.658
88.496, 12.901
89.890, 22.497
91.284, 205.197
92.678, 1021.800
94.071, 1692.092
95.465, 2031.409
96.858, 2327.982
98.251, 2679.044
99.644, 2766.797
101.036, 2845.377
102.428, 3386.729
103.820, 2730.670
105.212, 2134.866
106.604, 1938.478
107.995, 2050.860
109.387, 2331.660
110.777, 2690.788
112.168, 3863.994
113.559, 3289.603
114.949, 5119.923
116.339, 2507.003
117.729, 1309.404
119.119, 776.625
120.508, 757.431
121.897, 724.463
123.286, 729.418
124.675, 819.832
126.063, 945.646
127.452, 1212.213
128.840, 1436.885
130.228, 1576.983
131.615, 1549.790
133.003, 1347.548
134.390, 858.469
135.777, 605.512
137.164, 528.961
138.550, 689.428
139.937, 883.322
141.323, 1064.121
142.709, 1219.427
144.094, 1109.828
145.480, 1160.348
146.865, 1266.131
148.250, 1627.164
149.635, 2068.433
151.019, 2733.944
152.403, 3681.692
153.788, 4806.642
155.171, 5929.714
156.555, 7112.851
157.939, 7786.369
159.322, 7782.266
160.705, 6839.073
162.088, 5820.184
163.470, 4713.846
164.853, 4416.434
166.235, 4759.155
167.617, 5952.008
168.998, 7685.061
170.380, 9578.538
171.761, 11232.450
173.142, 11536.796
174.523, 11211.558
175.904, 9836.717
177.284, 7852.256
178.664, 6178.145
180.044, 4614.361
181.424, 3316.883
182.803, 2068.688
184.183, 1411.744
185.562, 789.027
186.940, 120.514
188.319, 203.813
189.698, 387.968
191.076, 543.967
192.454, 622.819
193.831, 598.536
195.209, 572.148
196.586, 359.736
197.963, 157.342
199.340, 109.040
200.717, 515.422
202.093, 1113.811
203.470, 2061.210
204.846, 3209.622
206.221, 4615.045
207.597, 6213.479
208.972, 7651.924
210.347, 9090.383
211.722, 9748.866
213.097, 10057.550
214.472, 9676.533
215.846, 8855.575
217.220, 7904.634
218.594, 6603.703
219.967, 5822.490
221.341, 4680.434
222.714, 3907.297
224.087, 2817.210
225.460, 2209.684
226.832, 1563.173
228.204, 987.832
229.577, 715.821
230.948, 371.153
232.320, 233.768
233.692, 54.545
235.063, 76.402
236.434, 109.330
237.805, 275.332
239.175, 557.406
240.545, 946.552
241.916, 1613.733
243.286, 2249.856
244.655, 2960.951
246.025, 3501.104
247.394, 3856.332
248.763, 4253.637
250.132, 4331.015
251.501, 4267.652
252.869, 4375.099
254.237, 4312.973
255.605, 4150.889
256.973, 3909.320
258.340, 3572.878
259.708, 3045.494
261.075, 2667.116
262.442, 2495.708
263.808, 2522.247
265.175, 2614.702
266.541, 2819.028
267.907, 3283.205
269.273, 3694.219
270.639, 4033.073
272.004, 4530.765
273.369, 4908.300
274.734, 5085.685
276.099, 5012.925
277.463, 4859.959
278.828, 4366.641
280.192, 3787.959
281.556, 3410.968
282.919, 2836.711
284.283, 2653.216
285.646, 2401.505
287.009, 2251.600
288.372, 2383.509
289.734, 2715.248
291.097, 3296.828
292.459, 4049.265
293.821, 5023.570
295.183, 6167.753
296.544, 7461.828
297.905, 8795.798
299.266, 10029.674
300.627, 11263.453
301.988, 12716.556
303.348, 14218.189
304.709, 15797.935
306.069, 17046.326
307.428, 17984.646
308.788, 17392.588
310.147, 15640.862
311.507, 13049.687
312.865, 10178.637
314.224, 8107.633
315.583, 6526.708
316.941, 5245.857
318.299, 4445.070
319.657, 4044.350
321.015, 3801.675
322.372, 3263.045
323.729, 2819.405
325.086, 2216.656
326.443, 1770.871
327.800, 1294.132
329.156, 1070.442
330.512, 935.803
331.868, 764.211
333.224, 620.669
334.579, 563.175
335.935, 498.493
337.290, 738.189
338.645, 1067.229
339.999, 1647.290
341.354, 2300.206
342.708, 3193.219
344.062, 4408.171
345.416, 5758.155
346.769, 7038.172
348.123, 8608.218
349.476, 10627.447
350.829, 12465.521
352.182, 14154.778
353.534, 15292.741
354.887, 14471.171
356.239, 12644.906
357.591, 9760.413
358.942, 7327.826
360.294, 5318.816
361.645, 3558.757
362.996, 2516.459
364.347, 1630.748
365.698, 1081.212
367.048, 686.091
368.398, 411.699
369.748, 296.891
371.098, 172.411
372.448, 273.083
373.797, 214.192
375.146, 391.958
376.495, 417.602
377.844, 639.700
379.192, 776.494
380.540, 1012.414
381.889, 1466.268
383.236, 2104.151
384.584, 3190.069
385.932, 4303.024
387.279, 5894.024
388.626, 7275.067
389.973, 8346.157
391.319, 9387.290
392.666, 10098.324
394.012, 10267.523
395.358, 10235.148
396.704, 9178.239
398.049, 8202.430
399.394, 6777.903
400.740, 5516.644
402.084, 4607.529
403.429, 3588.016
404.774, 3015.541
406.118, 2377.105
407.462, 1958.707
408.806, 1637.347
410.150, 1409.024
411.493, 1607.740
412.836, 1704.493
414.179, 2299.248
415.522, 2996.000
416.865, 3785.749
418.207, 4827.491
419.549, 5579.228
420.891, 6330.956
422.233, 6802.675
423.575, 7604.387
424.916, 7966.091
426.257, 8427.784
427.598, 8389.473
428.939, 8231.152
430.279, 8052.823
431.619, 7264.489
432.959, 6306.147
434.299, 5417.802
435.639, 4389.451
436.978, 3480.099
438.318, 3019.741
439.657, 3109.381
440.996, 3422.021
442.334, 4187.661
443.673, 5219.304
445.011, 5840.949
446.349, 6182.598
447.687, 5694.252
449.024, 4515.912
450.361, 3434.578
451.699, 2299.252
453.036, 1634.934
454.372, 1173.625
455.709, 856.324
457.045, 809.032
458.381, 610.751
459.717, 455.481
461.053, 317.222
462.388, 177.973
463.724, 182.740
465.059, 178.526
466.394, 440.342
467.728, 732.192
469.063, 1156.077
470.397, 1479.998
471.731, 1633.955
473.065, 1678.943
474.398, 1565.964
475.732, 1476.932
477.065, 1397.060
478.398, 1639.301
479.731, 2168.282
481.063, 2831.456
482.396, 3920.667
483.728, 4722.922
485.060, 5815.222
486.391, 6057.594
487.723, 5220.033
489.054, 4262.529
490.385, 3501.100
491.716, 2069.757
493.047, 893.485
494.377, 289.276
495.708, 37.792
497.038, 214.375
498.368, 247.296
499.697, 289.578
501.027, 173.240
502.356, 1.354
503.685, 111.971
505.014, 433.610
506.342, 609.286
507.671, 936.012
508.999, 1269.815
510.327, 1475.694
511.655, 1887.711
512.982, 2054.951
514.310, 2275.453
515.637, 2197.276
516.964, 1973.400
518.291, 1579.812
519.617, 1146.523
520.944, 965.450
522.270, 559.556
523.596, 329.756
524.921, 208.993
526.247, 49.735
527.572, 214.458
528.897, 238.256
530.222, 242.140
531.547, 275.114
532.871, 201.195
534.196, 242.346
535.520, 124.588
536.844, 131.861
538.167, 72.833
539.491, 3.544
540.814, 302.270
542.137, 451.014
543.460, 766.775
544.783, 1078.555
546.105, 1164.352
547.427, 1434.166
548.749, 1333.996
550.071, 1342.843
551.393, 1154.706
552.714, 1078.585
554.035, 1278.490
555.356, 1273.426
556.677, 1396.415
557.998, 2020.451
559.318, 2263.530
560.638, 2819.634
561.958, 2973.755
563.278, 3143.891
564.597, 3055.039
565.917, 2962.201
567.236, 3141.376
568.555, 3269.563
569.874, 3532.764
571.192, 4047.976
572.511, 4348.201
573.829, 4853.437
575.147, 4948.686
576.464, 4863.945
577.782, 4959.216
579.099, 4854.500
580.416, 5089.794
581.733, 5425.100
583.050, 6150.416
584.366, 7095.746
585.683, 8361.085
586.999, 9516.435
588.315, 10631.797
589.630, 11137.172
590.946, 10892.556
592.261, 9997.949
593.576, 8663.356
594.891, 6958.772
596.206, 5764.199
597.520, 4659.636
598.834, 3811.084
600.148, 3531.542
601.462, 3000.012
602.776, 3111.490
604.089, 3076.979
605.402, 3403.479
606.715, 3718.987
608.028, 4056.506
609.341, 4539.035
610.653, 4694.573
611.965, 4620.119
613.277, 4645.676
614.589, 4391.242
615.901, 4080.817
617.212, 3745.399
618.523, 3481.992
619.834, 3021.594
621.145, 2718.203
622.456, 2283.820
623.766, 1796.446
625.076, 1397.080
626.386, 1031.722
627.696, 689.371
629.006, 440.027
630.315, 163.691
631.624, 87.361
632.933, 90.962
634.242, 76.336
635.551, 43.755
636.859, 55.202
638.167, 108.317
639.475, 152.183
640.783, 238.159
642.090, 440.836
643.398, 424.549
644.705, 500.460
646.012, 544.250
647.318, 439.204
648.625, 359.376
649.931, 100.373
651.237, 61.138
652.543, 54.081
653.849, 92.921
655.155, 76.177
656.460, 125.142
657.765, 32.135
659.070, 107.036
660.375, 134.144
661.679, 452.349
662.984, 537.398
664.288, 835.995
665.592, 1243.090
666.895, 1740.093
668.199, 2336.024
669.502, 2954.066
670.805, 4125.333
672.108, 5176.170
673.411, 6939.458
674.713, 8631.607
676.016, 10388.080
677.318, 12108.146
678.620, 12932.473
679.921, 12562.847
681.223, 11788.359
682.524, 9886.220
683.825, 8439.889
685.126, 6854.845
686.427, 5488.237
687.727, 4658.317
689.028, 3879.265
690.328, 3419.791
691.628, 3282.678
692.927, 3085.705
694.227, 3240.294
695.526, 3395.201
696.825, 3697.998
698.124, 4166.878
699.423, 4859.743
700.721, 5844.595
702.020, 6929.431
703.318, 8624.254
704.616, 10629.065
705.913, 12953.856
707.211, 16228.639
708.508, 20673.402
709.805, 25648.156
711.102, 31542.893
712.399, 37047.617
713.695, 42822.320
714.992, 45467.012
716.288, 44581.680
717.584, 42806.352
718.879, 36301.004
720.175, 31345.629
721.470, 24790.246
722.765, 20344.846
724.060, 16069.431
725.355, 12654.002
726.649, 10418.556
727.944, 8283.093
729.238, 6837.616
730.532, 5862.125
731.825, 4684.618
733.119, 4297.096
734.412, 3514.560
735.705, 2873.006
736.998, 2606.438
738.291, 2187.854
739.584, 1918.256
740.876, 1706.642
742.168, 1486.821
743.460, 1430.368
744.752, 1223.708
746.043, 1169.033
747.334, 1091.343
748.626, 995.636
749.916, 963.915
751.207, 915.179
752.498, 938.427
753.788, 974.659
755.078, 1000.876
756.368, 1177.079
757.658, 1288.265
758.947, 1493.436
760.237, 1639.592
761.526, 2011.732
762.815, 2309.856
764.104, 2607.966
765.392, 3251.061
766.680, 3406.140
767.969, 3647.203
769.257, 3999.252
770.544, 3709.285
771.832, 3502.303
773.119, 3174.307
774.406, 2739.295
775.693, 2381.269
776.980, 1868.227
778.267, 1660.170
779.553, 1340.099
780.839, 1128.013
782.125, 1041.912
783.411, 794.797
784.697, 719.668
785.982, 550.524
787.267, 451.365
788.552, 340.278
789.837, 196.047
791.122, 139.143
792.406, 127.669
793.690, 29.442
794.974, 8.187
796.258, 3.110
797.542, 99.452
798.825, 86.891
800.108, 37.419
801.391, 120.011
802.674, 155.709
803.957, 105.532
805.239, 70.454
806.522, 23.455
807.804, 19.398
809.085, 1.232
810.367, 99.435
811.649, 120.425
812.930, 131.748
814.211, 75.795
815.492, 107.835
816.772, 5.134
818.053, 62.134
819.333, 166.196
820.613, 149.373
821.893, 196.656
823.173, 215.070
824.452, 187.624
825.732, 261.302
827.011, 110.144
828.290, 93.068
829.568, 163.066
830.847, 62.173
832.125, 131.337
833.403, 69.591
834.681, 7.096
835.959, 32.234
837.236, 59.398
838.514, 36.034
839.791, 122.709
841.068, 164.434
842.345, 138.207
843.621, 304.042
844.898, 251.916
846.174, 328.842
847.450, 388.789
848.726, 362.757
850.001, 524.728
851.277, 478.695
852.552, 607.660
853.827, 631.625
855.102, 655.588
856.376, 711.553
857.651, 757.525
858.925, 850.495
860.199, 994.469
861.473, 798.444
862.746, 982.417
864.020, 1111.407
865.293, 1131.396
866.566, 1332.888
867.839, 1382.681
869.112, 1549.371
870.384, 1620.375
871.656, 1534.384
872.928, 1786.395
874.200, 1828.422
875.472, 1979.457
876.744, 2085.513
878.015, 2095.577
879.286, 2461.646
880.557, 2359.739
881.828, 2558.840
883.098, 2746.943
884.369, 2871.054
885.639, 3117.169
886.909, 3447.307
888.178, 3846.452
889.448, 4339.599
890.717, 4861.762
891.987, 5469.928
893.256, 6262.097
894.524, 7054.275
895.793, 8336.458
897.061, 9258.643
898.330, 10700.842
899.598, 12563.047
900.865, 13675.252
902.133, 15227.461
903.401, 16639.680
904.668, 17011.896
905.935, 17274.121
907.202, 16106.352
908.468, 15198.589
909.735, 13430.831
911.001, 11633.084
912.267, 10275.348
913.533, 8677.615
914.799, 7549.899
916.064, 6562.194
917.330, 5744.500
918.595, 5148.812
919.860, 4488.132
921.124, 4277.464
922.389, 3891.814
923.653, 3639.173
924.918, 3554.551
926.182, 3364.951
927.445, 3281.373
928.709, 3241.811
929.972, 3056.262
931.236, 3173.735
932.499, 3117.222
933.761, 3049.732
935.024, 3020.259
936.286, 2954.801
937.549, 2963.353
938.811, 2979.915
940.073, 2991.486
941.334, 3202.095
942.596, 3195.738
943.857, 3274.409
945.118, 3529.110
946.379, 3685.487
947.640, 3996.775
948.900, 4356.380
950.161, 4543.967
951.421, 5268.383
952.681, 5675.936
953.940, 6488.337
955.200, 7298.537
956.459, 8331.925
957.719, 9717.559
958.978, 11376.191
960.236, 13547.688
961.495, 15838.287
962.753, 17561.305
964.012, 20214.385
965.270, 20797.500
966.527, 21160.633
967.785, 20883.777
969.043, 18985.098
970.300, 18822.895
971.557, 17914.203
972.814, 17816.621
974.071, 18546.133
975.327, 19614.541
976.583, 21644.736
977.840, 23240.391
979.095, 24965.598
980.351, 26091.959
981.607, 26234.006
982.862, 25222.465
984.117, 24976.676
985.372, 22624.848
986.627, 21857.891
987.882, 20828.588
989.136, 19832.113
990.390, 19855.656
991.644, 19329.229
992.898, 19692.828
994.152, 19797.127
995.405, 19890.775
996.659, 21164.736
997.912, 20968.436
999.165, 21682.166
1000.417, 22577.072
1001.670, 21990.855
1002.922, 22254.666
1004.174, 21439.391
1005.426, 20353.258
1006.678, 19668.562
1007.930, 17754.426
1009.181, 16138.373
1010.432, 14454.055
1011.683, 12698.395
1012.934, 11492.429
1014.185, 9690.523
1015.435, 8564.609
1016.685, 7629.462
1017.935, 6664.003
1019.185, 6148.605
1020.435, 5415.146
1021.684, 4992.564
1022.934, 4661.059
1024.183, 4277.940
1025.432, 4146.688
1026.680, 3957.003
1027.929, 3714.582
1029.177, 3609.741
1030.425, 3388.485
1031.673, 3218.402
1032.921, 3128.885
1034.169, 2822.577
1035.416, 2858.497
1036.663, 2660.593
1037.911, 2657.349
1039.157, 2714.938
1040.404, 2701.413
1041.650, 2753.042
1042.897, 2730.718
1044.143, 2765.857
1045.389, 2874.551
1046.634, 2909.349
1047.880, 3106.134
1049.125, 3428.884
1050.371, 3636.769
1051.615, 3995.555
1052.860, 4253.359
1054.105, 4557.267
1055.349, 4836.168
1056.593, 5072.155
1057.837, 4861.729
1059.081, 4950.622
1060.325, 4648.184
1061.568, 4396.193
1062.812, 3863.151
1064.055, 3507.457
1065.298, 3180.688
1066.540, 2683.338
1067.783, 2498.625
1069.025, 2259.870
1070.267, 2029.641
1071.509, 2046.724
1072.751, 1840.024
1073.993, 1951.043
1075.234, 2193.383
1076.475, 2198.792
1077.716, 2513.644
1078.957, 2805.129
1080.198, 3110.563
1081.438, 3540.781
1082.679, 3752.744
1083.919, 3977.587
1085.159, 4039.449
1086.398, 3718.903
1087.638, 3546.557
1088.877, 3008.919
1090.116, 2664.338
1091.355, 2395.799
1092.594, 2110.531
1093.833, 1886.116
1095.071, 1771.593
1096.309, 1554.261
1097.547, 1587.897
1098.785, 1451.960
1100.023, 1345.554
1101.260, 1469.127
1102.498, 1375.771
1103.735, 1410.456
1104.972, 1441.037
1106.208, 1421.832
1107.445, 1410.792
1108.681, 1335.811
1109.918, 1217.693
1111.154, 1114.073
1112.389, 1013.972
1113.625, 837.005
1114.860, 842.955
1116.096, 665.000
1117.331, 710.000
1118.566, 593.064
1119.800, 492.911
1121.035, 465.139
1122.269, 459.476
1123.503, 670.529
1124.737, 575.863
1125.971, 412.283
1127.205, 405.792
1128.438, 200.377
1129.671, 208.956
1130.904, 108.420
1132.137, 103.228
1133.370, 156.856
1134.602, 87.318
1135.834, 68.053
1137.066, 114.274
1138.298, 33.704
1139.530, 85.808
1140.762, 37.662
1141.993, 34.631
1143.224, 87.611
1144.455, 17.709
1145.686, 36.175
1146.917, 22.816
1148.147, 47.098
1149.377, 36.027
1150.607, 8.759
1151.837, 37.573
1153.067, 14.049
1154.296, 50.954
1155.526, 62.741
1156.755, 28.632
1157.984, 55.871
1159.213, 16.349
1160.441, 5.081
1161.670, 96.515
1162.898, 9.153
1164.126, 27.422
1165.354, 16.173
1166.581, 16.879
1167.809, 59.675
1169.036, 36.060
1170.263, 7.711
1171.490, 76.176
1172.717, 36.949
1173.943, 95.442
1175.170, 30.823
1176.396, 20.561
1177.622, 98.030
1178.848, 33.768
1180.073, 10.118
1181.299, 26.585
1182.524, 8.420
1183.749, 80.392
1184.974, 24.153
1186.199, 32.148
1187.423, 50.638
1188.648, 43.677
1189.872, 18.196
1191.096, 25.026
1192.320, 40.285
1193.543, 12.346
1194.767, 31.773
1195.990, 46.043
1197.213, 11.877
1198.436, 47.701
1199.659, 47.380
1200.881, 27.217
1202.104, 35.213
1203.326, 22.104
1204.548, 2.280
1205.770, 93.321
1206.991, 16.020
1208.213, 42.553
1209.434, 61.252
1210.655, 24.336
1211.876, 6.063
1213.096, 4.345
1214.317, 13.581
1215.537, 22.797
1216.757, 5.914
1217.977, 29.998
1219.197, 27.041
1220.417, 26.806
1221.636, 30.840
1222.855, 30.924
1224.074, 5.060
1225.293, 1.764
1226.512, 28.281
1227.731, 8.455
1228.949, 34.766
1230.167, 0.009
1231.385, 0.596
1232.603, 46.239
1233.820, 28.778
1235.038, 77.287
1236.255, 67.891
1237.472, 62.364
1238.689, 32.795
1239.906, 45.203
1241.122, 15.577
1242.338, 4.077
1243.555, 50.226
1244.771, 30.508
1245.986, 15.172
1247.202, 96.052
1248.417, 89.253
1249.633, 94.022
1250.848, 228.691
1252.063, 99.068
1253.277, 71.166
1254.492, 82.290
1255.706, 87.455
1256.920, 45.722
1258.134, 109.708
1259.348, 80.897
1260.562, 103.954
1261.775, 83.856
1262.988, 31.946
1264.201, 87.800
1265.414, 39.603
1266.627, 78.523
1267.839, 73.315
1269.052, 146.055
1270.264, 96.943
1271.476, 36.534
1272.688, 92.071
1273.899, 88.563
1275.111, 95.987
1276.322, 137.497
1277.533, 79.794
1278.744, 117.041
1279.955, 164.241
1281.165, 101.404
1282.376, 63.517
1283.586, 187.588
1284.796, 71.615
1286.006, 92.599
1287.215, 116.545
1288.425, 65.758
1289.634, 121.604
1290.843, 90.126
1292.052, 24.893
1293.261, 76.705
1294.469, 73.225
1295.678, 22.937
1296.886, 120.525
1298.094, 52.180
1299.302, 81.674
1300.509, 33.880
1301.717, 58.348
1302.924, 53.840
1304.131, 23.461
1305.338, 54.407
1306.545, 55.751
1307.752, 41.923
1308.958, 12.923
1310.164, 25.785
1311.370, 24.457
1312.576, 26.276
1313.782, 39.917
1314.987, 31.163
1316.193, 97.629
1317.398, 18.880
1318.603, 36.245
1319.807, 70.755
1321.012, 106.520
1322.216, 73.416
1323.421, 90.722
1324.625, 12.817
1325.829, 81.324
1327.032, 93.598
1328.236, 34.625
1329.439, 72.459
1330.642, 64.611
1331.845, 70.914
1333.048, 57.410
1334.251, 44.637
1335.453, 32.801
1336.656, 53.485
1337.858, 72.596
1339.060, 92.586
1340.261, 97.202
1341.463, 90.630
1342.664, 91.775
1343.866, 120.702
1345.067, 86.593
1346.267, 67.462
1347.468, 76.213
1348.669, 118.951
1349.869, 116.027
1351.069, 97.723
1352.269, 108.732
1353.469, 84.275
1354.668, 137.851
1355.868, 159.062
1357.067, 118.363
1358.266, 152.191
1359.465, 151.365
1360.664, 199.563
1361.862, 180.217
1363.061, 168.499
1364.259, 133.583
1365.457, 225.906
1366.655, 173.967
1367.852, 169.832
1369.050, 203.235
1370.247, 115.979
1371.444, 168.751
1372.641, 133.715
1373.838, 121.909
1375.035, 153.195
1376.231, 127.448
1377.427, 172.079
1378.623, 175.488
1379.819, 117.378
1381.015, 141.988
1382.211, 145.333
1383.406, 160.333
1384.601, 170.434
1385.796, 156.015
1386.991, 150.905
1388.185, 153.296
1389.380, 128.577
1390.574, 144.401
1391.768, 149.788
1392.962, 118.569
1394.156, 148.235
1395.350, 83.685
1396.543, 163.180
1397.736, 130.606
1398.929, 112.712
1400.122, 81.773
1401.315, 157.004
1402.507, 86.873
1403.700, 112.062
1404.892, 149.684
1406.084, 88.850
1407.276, 135.927
1408.467, 151.366
1409.659, 99.029
1410.850, 116.357
1412.041, 118.495
1413.232, 71.310
1414.423, 203.367
1415.614, 154.827
1416.804, 157.220
1417.994, 173.591
1419.184, 79.587
1420.374, 150.928
1421.564, 110.705
1422.753, 112.084
1423.943, 106.090
1425.132, 139.908
1426.321, 140.925
1427.510, 169.542
1428.698, 94.015
1429.887, 89.774
1431.075, 143.920
1432.263, 125.586
1433.451, 176.476
1434.639, 121.402
1435.827, 62.597
1437.014, 109.094
1438.201, 63.764
1439.388, 80.169
1440.575, 115.316
1441.762, 94.272
1442.949, 40.531
1444.135, 101.896
1445.321, 47.999
1446.507, 100.385
1447.693, 84.471
1448.879, 48.734
1450.064, 71.957
1451.250, 127.233
1452.435, 10.381
1453.620, 128.681
1454.805, 20.954
1455.989, 85.187
1457.174, 26.209
1458.358, 34.249
1459.542, 96.956
1460.726, 75.257
1461.910, 66.624
1463.093, 114.707
1464.277, 59.419
1465.460, 54.340
1466.643, 85.655
1467.826, 60.410
1469.009, 92.939
1470.191, 60.303
1471.373, 63.779
1472.556, 56.636
1473.738, 55.864
1474.919, 25.832
1476.101, 80.750
1477.283, 56.681
1478.464, 90.699
1479.645, 92.723
1480.826, 68.452
1482.007, 30.196
1483.187, 132.252
1484.368, 20.289
1485.548, 68.263
1486.728, 89.827
