##NAMES=Axinite-(Fe)
##RRUFFID=R050061
##IDEAL CHEMISTRY=Ca_4_Fe^2+^_2_Al_4_[B_2_Si_8_O_30_](OH)_2_
##LOCALITY=Jamestown, California, USA
##OWNER=RRUFF
##SOURCE=Rock Currier
##DESCRIPTION=Brown colored axe-head-shaped single crystals
##STATUS=The identification of this mineral has been confirmed by X-ray diffraction and chemical analysis
##URL=rruff.info/R050061
##MEASURED CHEMISTRY=Ca_2.00_(Fe^2+^_0.73_Mg_0.20_Mn_0.07_)Al_2.00_BSi_4_O_15_(OH)
##PIN_ID=L00399
##ORIENTATION=Laser parallel to c* (0 0 1). Fiducial mark perpendicular to laser is parallel to a [1 0 0]
91.065, 0.000
92.466, 85.128
93.868, 93.061
95.269, 172.732
96.670, 417.201
98.070, 902.458
99.471, 1249.706
100.871, 1640.565
102.271, 1993.140
103.670, 2417.542
105.070, 3186.160
106.469, 4080.993
107.868, 4927.079
109.267, 5052.646
110.665, 4826.826
112.063, 3673.589
113.461, 2507.872
114.859, 1826.806
116.256, 1178.700
117.653, 843.178
119.050, 493.137
120.447, 353.599
121.843, 188.588
123.240, 152.131
124.636, 11.743
126.031, 49.617
127.427, 129.382
128.822, 96.444
130.217, 14.438
131.612, 180.275
133.006, 307.309
134.400, 533.304
135.794, 853.388
137.188, 1173.951
138.581, 1347.138
139.975, 1444.628
141.368, 1294.615
142.760, 1047.541
144.153, 909.070
145.545, 971.255
146.937, 1206.134
148.329, 1410.733
149.720, 1827.078
151.112, 2279.190
152.503, 2900.088
153.893, 3321.787
155.284, 3804.301
156.674, 3984.645
158.064, 3420.821
159.454, 2707.468
160.843, 1945.900
162.233, 1738.458
163.622, 1639.801
165.011, 2007.504
166.399, 2647.097
167.787, 3371.078
169.175, 4281.141
170.563, 4979.270
171.951, 5112.466
173.338, 4850.731
174.725, 4031.102
176.112, 3140.703
177.499, 2145.538
178.885, 1561.591
180.271, 1064.844
181.657, 512.273
183.043, 280.864
184.428, 74.581
185.813, 82.402
187.198, 3.323
188.583, 152.339
189.967, 270.443
191.351, 669.600
192.735, 997.661
194.119, 1283.578
195.502, 1460.557
196.885, 1374.800
198.268, 1501.310
199.651, 1764.911
201.033, 2325.558
202.415, 3232.250
203.797, 4273.987
205.179, 5489.768
206.561, 6052.592
207.942, 6603.460
209.323, 6684.367
210.703, 6215.298
212.084, 5746.240
213.464, 4904.189
214.844, 4273.149
216.224, 3440.121
217.603, 2728.106
218.983, 2230.105
220.362, 1735.113
221.741, 1367.054
223.119, 843.889
224.497, 597.719
225.875, 227.569
227.253, 164.441
228.631, 40.665
230.008, 197.750
231.385, 180.807
232.762, 327.428
234.139, 273.782
235.515, 229.033
236.891, 200.021
238.267, 63.986
239.643, 136.069
241.018, 507.144
242.393, 675.228
243.768, 1018.173
245.143, 1270.861
246.517, 1500.359
247.891, 1701.716
249.265, 1839.135
250.639, 2143.632
252.012, 2287.177
253.386, 2686.754
254.759, 2942.363
256.131, 2910.004
257.504, 2886.651
258.876, 2597.825
260.248, 2526.178
261.620, 2579.560
262.991, 2899.872
264.363, 3355.075
265.734, 3790.154
267.104, 4474.992
268.475, 4964.616
269.845, 5774.069
271.215, 6260.379
272.585, 6535.559
273.955, 6610.480
275.324, 6084.697
276.693, 5705.423
278.062, 4728.133
279.431, 4057.835
280.799, 3293.523
282.167, 2622.183
283.535, 2282.815
284.903, 1963.423
286.270, 2049.008
287.638, 2048.342
289.005, 2416.502
290.371, 2949.866
291.738, 3426.872
293.104, 4384.703
294.470, 5138.348
295.836, 6205.923
297.201, 7158.996
298.567, 7933.561
299.932, 9085.507
301.296, 9985.951
302.661, 11646.827
304.025, 12665.197
305.389, 14348.104
306.753, 14980.844
308.117, 14263.573
309.480, 13366.284
310.843, 10109.007
312.206, 7841.747
313.569, 5793.498
314.931, 4126.288
316.293, 3174.105
317.655, 2209.952
319.017, 1742.818
320.378, 1283.678
321.740, 1045.533
323.101, 911.384
324.461, 738.211
325.822, 845.778
327.182, 721.935
328.542, 972.703
329.902, 863.240
331.261, 897.788
332.621, 859.358
333.980, 807.950
335.339, 979.574
336.697, 1128.228
338.056, 1418.932
339.414, 1916.672
340.772, 2529.447
342.129, 3723.259
343.487, 4684.096
344.844, 6107.949
346.201, 7045.789
347.557, 8406.501
348.914, 9993.773
350.270, 11321.434
351.626, 12825.548
352.982, 12805.030
354.337, 11915.906
355.693, 9567.868
357.048, 7049.849
358.402, 5281.845
359.757, 3685.853
361.111, 2642.875
362.465, 1891.909
363.819, 1379.955
365.173, 941.014
366.526, 680.335
367.879, 522.584
369.232, 348.112
370.585, 262.278
371.937, 137.393
373.290, 114.517
374.642, 187.650
375.993, 66.792
377.345, 209.942
378.696, 269.103
380.047, 415.273
381.398, 656.454
382.748, 926.645
384.099, 1491.845
385.449, 2061.056
386.799, 2940.278
388.148, 3721.510
389.497, 4413.029
390.847, 5094.090
392.196, 5102.848
393.544, 5015.989
394.893, 4312.688
396.241, 3506.971
397.589, 2827.506
398.936, 1978.462
400.284, 1596.608
401.631, 1138.155
402.978, 1040.830
404.325, 957.751
405.672, 916.544
407.018, 1083.138
408.364, 1103.339
409.710, 1472.984
411.055, 1978.385
412.401, 2831.798
413.746, 4191.221
415.091, 5834.655
416.435, 8263.100
417.780, 9585.559
419.124, 10478.023
420.468, 10100.480
421.812, 9182.928
423.155, 9205.359
424.498, 9097.781
425.842, 9710.188
427.184, 9712.582
428.527, 9504.967
429.869, 9127.337
431.211, 7579.699
432.553, 6312.048
433.895, 4824.390
435.236, 3831.724
436.577, 3185.049
437.918, 3048.083
439.259, 3403.688
440.599, 4024.004
441.940, 5281.318
443.280, 6810.629
444.619, 7582.937
445.959, 7715.244
447.298, 6507.548
448.637, 4870.849
449.976, 3299.149
451.315, 2020.448
452.653, 1389.760
453.991, 773.095
455.329, 433.473
456.667, 201.888
458.004, 41.318
459.341, 37.253
460.678, 163.840
462.015, 140.507
463.352, 148.243
464.688, 111.050
466.024, 48.091
467.360, 179.231
468.695, 412.372
470.031, 595.608
471.366, 902.248
472.701, 935.456
474.035, 1137.284
475.370, 1457.644
476.704, 1799.117
478.038, 2504.540
479.372, 3421.149
480.705, 4533.283
482.038, 6087.416
483.371, 7265.544
484.704, 8857.670
486.037, 8389.794
487.369, 7211.915
488.701, 5584.038
490.033, 3590.162
491.365, 2456.290
492.696, 1559.421
494.027, 985.554
495.358, 735.781
496.689, 497.464
498.019, 553.128
499.350, 412.552
500.680, 587.561
502.009, 597.726
503.339, 749.282
504.668, 873.426
505.997, 863.570
507.326, 1069.713
508.655, 1185.878
509.983, 1322.071
511.311, 1560.322
512.639, 1453.627
513.967, 1534.971
515.295, 1222.362
516.622, 1077.783
517.949, 841.241
519.276, 579.724
520.602, 523.248
521.929, 256.807
523.255, 259.405
524.581, 192.030
525.906, 52.660
527.232, 72.303
528.557, 8.953
529.882, 97.595
531.207, 128.250
532.531, 186.551
533.855, 268.759
535.179, 276.277
536.503, 313.292
537.827, 233.910
539.150, 281.549
540.473, 284.186
541.796, 231.820
543.119, 430.451
544.441, 475.079
545.764, 548.703
547.086, 656.323
548.407, 452.941
549.729, 458.557
551.050, 196.175
552.371, 76.823
553.692, 11.459
555.013, 133.694
556.333, 161.907
557.653, 106.129
558.973, 78.341
560.293, 26.539
561.612, 72.730
562.932, 8.973
564.251, 38.238
565.569, 59.458
566.888, 4.146
568.206, 52.818
569.524, 193.482
570.842, 268.141
572.160, 537.794
573.477, 621.442
574.795, 825.085
576.112, 1089.721
577.428, 1313.353
578.745, 1588.978
580.061, 1930.597
581.377, 2455.211
582.693, 3218.819
584.009, 4051.420
585.324, 5229.018
586.639, 6308.607
587.954, 7753.191
589.269, 8645.770
590.583, 8418.342
591.897, 8300.909
593.212, 6913.471
594.525, 5612.026
595.839, 4388.575
597.152, 3302.120
598.465, 2726.657
599.778, 2095.188
601.091, 1726.714
602.403, 1487.234
603.716, 1243.748
605.028, 1347.255
606.339, 1271.757
607.651, 1343.252
608.962, 1452.742
610.273, 1555.225
611.584, 1764.702
612.895, 1771.172
614.205, 1905.636
615.515, 1846.093
616.825, 1640.362
618.135, 1560.486
619.444, 1108.184
620.754, 944.339
622.063, 656.004
623.372, 412.002
624.680, 312.281
625.989, 98.689
627.297, 71.092
628.605, 51.511
629.912, 76.162
631.220, 53.874
632.527, 157.635
633.834, 95.501
635.141, 110.438
636.447, 65.455
637.754, 101.472
639.060, 152.394
640.366, 287.311
641.671, 349.222
642.977, 426.128
644.282, 421.028
645.587, 398.923
646.892, 413.813
648.196, 279.697
649.501, 184.576
650.805, 165.450
652.109, 9.682
653.412, 0.841
654.716, 80.024
656.019, 28.272
657.322, 21.558
658.625, 39.878
659.927, 1.759
661.230, 133.373
662.532, 199.981
663.834, 345.510
665.135, 416.547
666.437, 699.389
667.738, 1031.033
669.039, 1315.706
670.340, 1864.688
671.640, 2372.861
672.940, 3440.199
674.241, 4188.289
675.540, 5145.486
676.840, 5854.567
678.139, 5758.080
679.439, 5630.658
680.738, 4970.540
682.036, 3985.060
683.335, 3280.997
684.633, 2458.160
685.931, 2213.180
687.229, 1683.750
688.527, 1537.182
689.824, 1449.604
691.121, 1307.016
692.418, 1402.418
693.715, 1355.811
695.012, 1572.193
696.308, 1860.563
697.604, 1957.923
698.900, 2495.271
700.195, 2838.608
701.491, 3593.934
702.786, 4541.249
704.081, 5442.553
705.376, 7093.846
706.670, 8795.128
707.964, 11536.400
709.259, 15077.512
710.552, 18027.217
711.846, 21839.203
713.139, 24039.391
714.433, 25313.037
715.726, 24568.396
717.018, 21556.963
718.311, 18562.598
719.603, 15112.198
720.895, 11859.926
722.187, 9830.853
723.479, 7431.177
724.770, 6309.057
726.061, 5057.187
727.352, 4224.306
728.643, 3585.417
729.934, 2938.519
731.224, 2537.613
732.514, 2282.697
733.804, 1883.774
735.094, 1726.842
736.383, 1445.902
737.672, 1351.954
738.961, 1196.998
740.250, 1076.033
741.539, 1054.061
742.827, 903.081
744.115, 900.092
745.403, 866.096
746.691, 941.093
747.978, 801.082
749.265, 776.064
750.552, 854.038
751.839, 890.005
753.126, 866.965
754.412, 1020.917
755.698, 1087.863
756.984, 1351.801
758.270, 1485.733
759.555, 1607.657
760.840, 2110.575
762.125, 2249.487
763.410, 2777.392
764.695, 3146.290
765.979, 3318.182
767.263, 3700.068
768.547, 3547.948
769.831, 3527.821
771.114, 3224.688
772.398, 2762.551
773.681, 2495.415
774.964, 2284.313
776.246, 2177.238
777.529, 1642.193
778.811, 1251.168
780.093, 1183.139
781.375, 984.104
782.656, 836.969
783.937, 757.426
785.219, 619.310
786.499, 576.569
787.780, 464.293
789.060, 390.899
790.341, 417.551
791.621, 265.011
792.901, 305.944
794.180, 253.876
795.459, 240.806
796.739, 244.734
798.017, 110.662
799.296, 254.588
800.575, 160.513
801.853, 225.438
803.131, 219.361
804.409, 215.284
805.686, 314.206
806.964, 314.227
808.241, 590.412
809.518, 409.809
810.795, 396.448
812.071, 484.503
813.347, 296.404
814.623, 233.916
815.899, 210.842
817.175, 103.770
818.450, 47.301
819.726, 12.402
821.001, 138.517
822.275, 59.710
823.550, 96.941
824.824, 148.227
826.098, 103.597
827.372, 132.026
828.646, 86.528
829.920, 149.080
831.193, 124.713
832.466, 142.415
833.739, 100.195
835.011, 12.026
836.284, 58.866
837.556, 28.734
838.828, 35.391
840.100, 52.479
841.371, 92.629
842.642, 62.740
843.914, 99.858
845.184, 220.991
846.455, 178.129
847.726, 305.273
848.996, 381.427
850.266, 396.585
851.536, 540.751
852.805, 528.923
854.075, 484.100
855.344, 532.293
856.613, 484.493
857.881, 583.706
859.150, 543.926
860.418, 513.153
861.686, 540.386
862.954, 513.628
864.222, 547.889
865.489, 535.203
866.756, 518.573
868.023, 605.989
869.290, 466.448
870.557, 602.927
871.823, 629.451
873.089, 555.991
874.355, 748.564
875.621, 754.151
876.886, 804.751
878.152, 918.370
879.417, 876.002
880.682, 1126.644
881.946, 1105.299
883.211, 1382.962
884.475, 1575.633
885.739, 1791.325
887.003, 2232.025
888.266, 2544.743
889.530, 3054.470
890.793, 3674.206
892.056, 4114.956
893.318, 5008.718
894.581, 5681.495
895.843, 6236.280
897.105, 7150.073
898.367, 7370.882
899.629, 7781.700
900.890, 7702.528
902.152, 7673.368
903.413, 7764.218
904.673, 7185.082
905.934, 7085.953
907.194, 6956.835
908.454, 6214.727
909.714, 5999.630
910.974, 5316.542
912.234, 4701.474
913.493, 4266.416
914.752, 3490.367
916.011, 3174.329
917.270, 2791.305
918.528, 2341.293
919.786, 2293.295
921.044, 1851.309
922.302, 2006.333
923.560, 1951.368
924.817, 1587.416
926.074, 1641.473
927.331, 1577.542
928.588, 1573.634
929.844, 1545.736
931.101, 1407.849
932.357, 1629.973
933.613, 1413.109
934.868, 1512.255
936.124, 1547.437
937.379, 1537.659
938.634, 1634.918
939.889, 1680.237
941.144, 1706.601
942.398, 1958.019
943.652, 2061.473
944.906, 2298.943
946.160, 2435.428
947.414, 2656.924
948.667, 2927.434
949.920, 3235.954
951.173, 3512.487
952.426, 3962.032
953.678, 4236.592
954.931, 5066.164
956.183, 5593.750
957.435, 6499.347
958.686, 7906.969
959.938, 8768.612
961.189, 10290.299
962.440, 11532.016
963.691, 11923.763
964.941, 12285.537
966.192, 11517.335
967.442, 11069.141
968.692, 10960.962
969.942, 10159.429
971.191, 10920.021
972.441, 11012.822
973.690, 12130.595
974.939, 14026.070
976.187, 14928.358
977.436, 16913.484
978.684, 17216.869
979.932, 17323.150
981.180, 16985.703
982.428, 15589.685
983.675, 14332.604
984.922, 13599.007
986.169, 12479.992
987.416, 12259.189
988.663, 11820.856
989.909, 11892.960
991.155, 12402.641
992.401, 12284.749
993.647, 13177.238
994.893, 13651.913
996.138, 13774.076
997.383, 14976.454
998.628, 15199.836
999.873, 15872.058
1001.117, 16374.729
1002.362, 15557.080
1003.606, 16089.357
1004.850, 14904.177
1006.093, 13566.498
1007.337, 12620.709
1008.580, 10443.068
1009.823, 9235.732
1011.066, 7968.165
1012.308, 6402.762
1013.551, 5660.056
1014.793, 4615.510
1016.035, 4130.995
1017.277, 3691.705
1018.518, 3016.931
1019.760, 2992.474
1021.001, 2757.534
1022.242, 2689.105
1023.483, 2820.724
1024.723, 2552.195
1025.964, 2795.815
1027.204, 2651.476
1028.444, 2471.331
1029.683, 2386.181
1030.923, 2042.863
1032.162, 1856.630
1033.401, 1638.279
1034.640, 1316.647
1035.879, 1271.389
1037.117, 984.286
1038.355, 957.052
1039.593, 955.832
1040.831, 805.636
1042.069, 792.217
1043.306, 663.761
1044.544, 582.622
1045.781, 658.473
1047.017, 579.340
1048.254, 567.203
1049.490, 567.077
1050.726, 498.530
1051.962, 573.508
1053.198, 540.728
1054.434, 449.645
1055.669, 478.615
1056.904, 464.610
1058.139, 505.557
1059.374, 466.513
1060.608, 358.255
1061.843, 437.230
1063.077, 375.310
1064.311, 280.303
1065.544, 343.756
1066.778, 299.071
1068.011, 347.977
1069.244, 299.038
1070.477, 210.171
1071.710, 323.219
1072.942, 253.368
1074.174, 317.490
1075.406, 409.592
1076.638, 388.376
1077.870, 582.519
1079.101, 592.614
1080.332, 666.859
1081.563, 820.072
1082.794, 801.190
1084.025, 836.900
1085.255, 772.438
1086.485, 597.326
1087.715, 695.591
1088.945, 505.844
1090.175, 443.252
1091.404, 603.650
1092.633, 501.581
1093.862, 527.581
1095.091, 540.846
1096.319, 228.485
1097.548, 228.805
1098.776, 200.124
1100.004, 182.661
1101.231, 218.477
1102.459, 150.874
1103.686, 230.699
1104.913, 159.930
1106.140, 100.876
1107.367, 177.333
1108.593, 87.687
1109.819, 79.773
1111.046, 94.337
1112.271, 75.928
1113.497, 89.262
1114.722, 46.612
1115.948, 75.917
1117.173, 97.190
1118.398, 41.724
1119.622, 49.130
1120.847, 45.543
1122.071, 45.969
1123.295, 30.570
1124.519, 18.052
1125.742, 15.515
1126.966, 98.705
1128.189, 8.797
1129.412, 10.865
1130.635, 39.439
1131.857, 28.947
1133.080, 8.867
1134.302, 30.419
1135.524, 43.771
1136.746, 1.030
1137.967, 27.389
1139.188, 4.812
1140.410, 15.272
1141.631, 61.438
1142.851, 48.242
1144.072, 9.034
1145.292, 34.062
1146.512, 7.708
1147.732, 15.549
1148.952, 3.873
1150.172, 6.853
1151.391, 55.891
1152.610, 28.152
1153.829, 43.092
1155.048, 9.883
1156.266, 8.686
1157.484, 0.514
1158.702, 4.795
1159.920, 20.450
1161.138, 22.809
1162.356, 21.314
1163.573, 24.931
1164.790, 32.733
1166.007, 4.042
1167.224, 44.381
1168.440, 28.138
1169.656, 35.683
1170.872, 16.073
1172.088, 44.210
1173.304, 32.931
1174.519, 19.344
1175.735, 0.774
1176.950, 15.029
1178.165, 59.960
1179.379, 14.063
1180.594, 39.530
1181.808, 29.957
1183.022, 30.596
1184.236, 17.622
1185.449, 30.275
1186.663, 11.041
1187.876, 6.813
1189.089, 5.568
1190.302, 14.600
1191.515, 20.747
1192.727, 8.715
1193.939, 37.423
1195.151, 35.705
1196.363, 0.191
1197.575, 10.896
1198.786, 5.046
1199.997, 42.163
1201.208, 24.234
1202.419, 22.242
1203.630, 74.232
1204.840, 43.201
1206.051, 15.834
1207.261, 76.096
1208.470, 20.047
1209.680, 49.963
1210.889, 7.859
1212.099, 12.016
1213.308, 0.984
1214.516, 41.952
1215.725, 28.016
1216.933, 63.661
1218.142, 30.590
1219.350, 40.385
1220.557, 48.167
1221.765, 25.063
1222.972, 44.670
1224.180, 73.391
1225.387, 28.206
1226.593, 36.899
1227.800, 80.579
1229.006, 13.246
1230.213, 18.894
1231.419, 10.526
1232.624, 38.162
1233.830, 43.758
1235.035, 2.338
1236.241, 29.898
1237.446, 12.443
1238.650, 11.972
1239.855, 52.485
1241.059, 22.984
1242.264, 43.578
1243.468, 46.045
1244.671, 29.898
1245.875, 20.335
1247.078, 40.755
1248.282, 21.515
1249.485, 77.906
1250.687, 19.284
1251.890, 40.646
1253.092, 53.990
1254.295, 17.321
1255.497, 36.636
1256.699, 35.935
1257.900, 65.298
1259.102, 62.567
1260.303, 74.820
1261.504, 84.159
1262.705, 44.733
1263.905, 60.518
1265.106, 69.758
1266.306, 72.649
1267.506, 50.550
1268.706, 78.200
1269.905, 91.251
1271.105, 28.270
1272.304, 104.264
1273.503, 71.093
1274.702, 105.047
1275.900, 112.963
1277.099, 62.081
1278.297, 84.952
1279.495, 103.934
1280.693, 78.284
1281.891, 104.059
1283.088, 35.060
1284.285, 52.824
1285.482, 61.205
1286.679, 16.396
1287.876, 75.094
1289.072, 44.576
1290.268, 4.943
1291.464, 65.689
1292.660, 79.872
1293.856, 67.376
1295.051, 28.950
1296.247, 11.022
1297.442, 57.569
1298.637, 5.198
1299.831, 18.324
1301.026, 25.930
1302.220, 6.670
1303.414, 20.563
1304.608, 64.096
1305.802, 26.465
1306.995, 9.131
1308.188, 21.976
1309.381, 41.562
1310.574, 61.899
1311.767, 66.638
1312.960, 17.858
1314.152, 47.037
1315.344, 11.346
1316.536, 16.500
1317.728, 42.643
1318.919, 41.546
1320.110, 28.447
1321.301, 15.509
1322.492, 11.545
1323.683, 55.560
1324.874, 39.936
1326.064, 43.913
1327.254, 80.729
1328.444, 23.670
1329.634, 21.593
1330.823, 69.546
1332.013, 60.658
1333.202, 74.836
1334.391, 77.656
1335.580, 24.480
1336.768, 72.284
1337.956, 43.084
1339.145, 75.866
1340.333, 76.063
1341.520, 59.446
1342.708, 63.863
1343.895, 72.790
1345.083, 85.443
1346.270, 87.065
1347.456, 91.139
1348.643, 88.031
1349.829, 92.234
1351.016, 80.852
1352.202, 86.360
1353.387, 100.949
1354.573, 36.072
1355.759, 63.326
1356.944, 57.983
1358.129, 75.481
1359.314, 85.875
1360.498, 58.342
1361.683, 96.697
1362.867, 122.072
1364.051, 100.475
1365.235, 95.173
1366.419, 98.501
1367.602, 58.865
1368.785, 101.073
1369.968, 117.314
1371.151, 93.819
1372.334, 177.541
1373.517, 96.430
1374.699, 76.903
1375.881, 135.935
1377.063, 104.812
1378.245, 138.984
1379.426, 107.219
1380.608, 117.732
1381.789, 123.333
1382.970, 114.536
1384.150, 54.878
1385.331, 139.821
1386.511, 20.690
1387.691, 79.829
1388.871, 105.454
1390.051, 24.170
1391.231, 114.497
1392.410, 113.028
1393.589, 100.386
1394.768, 119.216
1395.947, 99.726
1397.126, 103.349
1398.304, 112.651
1399.483, 61.121
1400.661, 100.021
1401.838, 116.994
1403.016, 53.073
1404.194, 66.397
1405.371, 81.536
1406.548, 56.899
1407.725, 88.814
1408.901, 84.480
1410.078, 55.965
1411.254, 104.842
1412.430, 94.056
1413.606, 77.693
1414.782, 122.415
1415.958, 61.064
1417.133, 128.258
1418.308, 91.501
1419.483, 81.797
1420.658, 109.295
1421.832, 74.500
1423.007, 157.670
1424.181, 116.451
1425.355, 122.301
1426.529, 61.407
1427.702, 107.810
1428.876, 49.470
1430.049, 98.896
1431.222, 73.521
1432.395, 57.242
1433.567, 86.953
1434.740, 89.592
1435.912, 75.793
1437.084, 112.056
1438.256, 27.593
1439.428, 52.979
1440.599, 92.556
1441.770, 23.149
1442.942, 65.509
1444.112, 54.044
1445.283, 72.563
1446.454, 107.022
1447.624, 23.514
1448.794, 38.976
1449.964, 49.399
1451.134, 20.553
1452.303, 53.033
1453.473, 116.548
1454.642, 31.788
1455.811, 47.984
1456.980, 85.132
1458.148, 24.037
1459.317, 74.083
1460.485, 41.773
1461.653, 68.613
1462.821, 85.735
1463.989, 94.874
1465.156, 24.188
1466.323, 85.506
1467.490, 59.932
1468.657, 51.398
1469.824, 78.884
1470.991, 12.382
1472.157, 108.887
1473.323, 17.387
1474.489, 50.877
1475.655, 53.352
1476.820, 36.832
1477.986, 39.061
1479.151, 40.220
1480.316, 34.671
1481.481, 10.886
1482.645, 84.267
1483.810, 2.620
1484.974, 64.850
1486.138, 47.281
1487.302, 22.622
1488.465, 100.186
1489.629, 77.806
1490.792, 45.353
1491.955, 105.028
1493.118, 65.717
1494.281, 77.031
1495.443, 46.482
1496.606, 40.179
1497.768, 59.921
1498.930, 54.798
1500.091, 15.311
1501.253, 69.568
1502.414, 39.780
1503.575, 10.901
1504.736, 29.889
1505.897, 60.742
