##NAMES=Axinite-(Fe)
##RRUFFID=R060558
##IDEAL CHEMISTRY=Ca_4_Fe^2+^_2_Al_4_[B_2_Si_8_O_30_](OH)_2_
##LOCALITY=unknown
##OWNER=RRUFF
##SOURCE=Gemological Institute of America
##DESCRIPTION=Brown flattened crystal
##STATUS=The identification of this mineral has been confirmed by X-ray diffraction and chemical analysis
##URL=rruff.info/R060558
##MEASURED CHEMISTRY=Ca_2.00_(Fe^2+^_0.60_Mg_0.35_Mn_0.05_)_Î£=1_Al_2.00_BSi_4.00_O_15_(OH) ; B not measured
##PIN_ID=M00869
##ORIENTATION=Laser parallel to (0 1 1). Fiducial mark perpendicular to laser is parallel to a [1 0 0]
132.7000, 0.0000000E+00
133.9330, 7.619751
135.1660, 6.166992
136.3990, 18.58521
137.6310, 15.67163
138.8640, 106.8770
140.0960, 276.2214
141.3280, 332.5386
142.5600, 430.7556
143.7910, 641.0146
145.0230, 710.6741
146.2540, 799.7009
147.4850, 871.2454
148.7160, 1009.656
149.9470, 1024.449
151.1780, 1228.291
152.4080, 1456.949
153.6380, 1611.255
154.8690, 1676.086
156.0980, 1676.350
157.3280, 1447.040
158.5580, 1316.873
159.7870, 1001.736
161.0170, 883.5662
162.2460, 820.8201
163.4750, 758.5977
164.7030, 845.9790
165.9320, 822.0269
167.1600, 926.7927
168.3890, 927.3240
169.6170, 1073.658
170.8450, 1085.821
172.0730, 1292.837
173.3000, 1408.728
174.5280, 1577.514
175.7550, 1515.215
176.9820, 1379.847
178.2090, 1265.424
179.4350, 1030.958
180.6620, 726.4585
181.8880, 515.7061
183.1150, 427.2524
184.3410, 273.0669
185.5670, 389.0181
186.7920, 415.0190
188.0180, 492.5051
189.2430, 436.7488
190.4690, 465.1365
191.6940, 516.6650
192.9180, 680.3994
194.1430, 869.3223
195.3680, 1125.359
196.5920, 1248.505
197.8160, 1434.760
199.0400, 1449.131
200.2640, 1422.620
201.4880, 1361.222
202.7110, 1282.936
203.9350, 1417.757
205.1580, 1514.683
206.3810, 1645.690
207.6040, 1792.722
208.8270, 1949.803
210.0490, 2039.946
211.2710, 2069.160
212.4940, 2131.449
213.7160, 1985.817
214.9370, 1960.263
216.1590, 1806.789
217.3810, 1669.393
218.6020, 1555.074
219.8230, 1489.831
221.0440, 1342.663
222.2650, 1258.564
223.4860, 1053.533
224.7060, 848.5691
225.9260, 606.6694
227.1470, 420.8323
228.3670, 309.0559
229.5860, 143.3391
230.8060, 10.32031
232.0260, 77.92578
233.2450, 85.48804
234.4640, 104.0129
235.6830, 97.50024
236.9020, 216.9507
238.1200, 162.3635
239.3390, 180.7397
240.5570, 111.0789
241.7750, 106.3821
242.9930, 18.35132
244.2110, 62.12036
245.4290, 93.92529
246.6460, 193.7651
247.8630, 253.6399
249.0810, 338.5493
250.2980, 435.4929
251.5140, 494.2021
252.7310, 588.9343
253.9470, 696.5845
255.1640, 779.6045
256.3800, 949.5991
257.5960, 1002.611
258.8120, 1137.637
260.0270, 1302.722
261.2430, 1530.939
262.4580, 1414.330
263.6730, 1285.851
264.8880, 1367.485
266.1030, 1457.195
267.3170, 1604.938
268.5320, 1808.711
269.7460, 1930.528
270.9600, 1918.388
272.1740, 1969.281
273.3880, 1921.199
274.6010, 1928.135
275.8150, 2011.086
277.0280, 1802.055
278.2410, 1729.038
279.4540, 1510.229
280.6670, 1286.265
281.8790, 1052.764
283.0920, 975.6726
284.3040, 934.8101
285.5160, 878.1370
286.7280, 798.6233
287.9400, 769.2456
289.1510, 801.9839
290.3630, 697.8247
291.5740, 724.7556
292.7850, 766.7656
293.9960, 744.8425
295.2070, 902.9773
296.4170, 907.1631
297.6280, 1117.395
298.8380, 1111.669
300.0480, 1269.982
301.2580, 1423.332
302.4680, 1465.715
303.6770, 1626.130
304.8870, 1683.566
306.0960, 1849.006
307.3050, 1895.446
308.5140, 2013.886
309.7230, 2065.331
310.9310, 2100.780
312.1400, 2103.235
313.3480, 1962.699
314.5560, 1909.171
315.7640, 1726.652
316.9720, 1682.144
318.1790, 1707.645
319.3870, 1690.158
320.5940, 1694.681
321.8010, 1809.217
323.0080, 1759.764
324.2150, 1664.324
325.4210, 1526.896
326.6280, 1301.479
327.8340, 1178.065
329.0400, 939.5615
330.2460, 972.9519
331.4510, 803.1248
332.6570, 906.1484
333.8620, 959.1389
335.0680, 1019.156
336.2730, 1193.198
337.4780, 1362.265
338.6820, 1554.356
339.8870, 1714.470
341.0910, 1940.538
342.2950, 2138.765
343.5000, 2385.944
344.7030, 2571.144
345.9070, 2775.364
347.1110, 2879.604
348.3140, 2843.955
349.5170, 2803.140
350.7200, 2561.436
351.9230, 2305.749
353.1260, 1960.079
354.3290, 1727.427
355.5310, 1428.792
356.7330, 1324.174
357.9350, 1055.572
359.1370, 823.9858
360.3390, 600.4150
361.5400, 395.8594
362.7420, 278.3186
363.9430, 123.7922
365.1440, 82.27979
366.3450, 6.780762
367.5460, 30.70532
368.7460, 7.814209
369.9470, 2.654053
371.1470, 26.11182
372.3470, 29.56348
373.5470, 26.99219
374.7460, 26.56030
375.9460, 111.5403
377.1450, 105.8389
378.3450, 167.7681
379.5440, 265.8501
380.7430, 461.1108
381.9410, 528.5259
383.1400, 758.2859
384.3380, 879.6221
385.5370, 1168.237
386.7350, 1405.187
387.9320, 1574.290
389.1300, 1726.262
390.3280, 1961.978
391.5250, 2155.557
392.7220, 2264.383
393.9190, 2317.213
395.1160, 2288.477
396.3130, 2022.170
397.5100, 1778.645
398.7060, 1524.049
399.9020, 1164.146
401.0980, 981.2219
402.2940, 898.9126
403.4900, 745.8616
404.6860, 753.7092
405.8810, 672.7656
407.0760, 697.3384
408.2710, 818.8728
409.4660, 918.2773
410.6610, 1143.329
411.8550, 1335.198
413.0500, 1513.027
414.2440, 1695.813
415.4380, 2026.601
416.6320, 2298.389
417.8260, 2690.179
419.0190, 3022.970
420.2130, 3437.762
421.4060, 3574.554
422.5990, 3639.347
423.7920, 3528.149
424.9850, 3392.961
426.1770, 3227.782
427.3700, 3291.609
428.5620, 3174.440
429.7540, 3210.277
430.9460, 2977.115
432.1380, 2825.956
433.3290, 2530.799
434.5210, 2331.642
435.7120, 1906.487
436.9030, 1511.331
438.0940, 1293.176
439.2850, 1100.019
440.4750, 851.8623
441.6660, 732.7039
442.8560, 659.5444
444.0460, 590.3828
445.2360, 638.2197
446.4260, 685.0542
447.6160, 584.8867
448.8050, 583.7163
449.9940, 496.5430
451.1830, 402.3677
452.3720, 389.1895
453.5610, 188.0083
454.7500, 279.8240
455.9380, 183.6365
457.1260, 114.4463
458.3150, 155.2524
459.5020, 141.0552
460.6900, 202.8545
461.8780, 174.6499
463.0650, 130.4419
464.2530, 197.2300
465.4400, 255.0142
466.6270, 331.7942
467.8130, 355.5698
469.0000, 421.3413
470.1870, 518.1079
471.3730, 592.8701
472.5590, 727.6282
473.7450, 808.3826
474.9310, 1042.134
476.1160, 1227.883
477.3020, 1525.629
478.4870, 1860.374
479.6720, 2162.116
480.8570, 2565.855
482.0420, 2766.591
483.2270, 3105.323
484.4110, 3489.052
485.5960, 3732.779
486.7800, 4056.500
487.9640, 4157.219
489.1480, 4035.933
490.3310, 3631.644
491.5150, 2878.350
492.6980, 2294.052
493.8810, 1683.749
495.0640, 1269.441
496.2470, 1074.128
497.4300, 844.8105
498.6120, 699.4875
499.7950, 706.1592
500.9770, 640.8257
502.1590, 588.4863
503.3410, 628.1416
504.5220, 645.7905
505.7040, 545.4336
506.8850, 604.0706
508.0660, 556.7012
509.2470, 573.3330
510.4280, 568.5601
511.6090, 478.2144
512.7890, 415.6589
513.9700, 357.1509
515.1500, 270.9875
516.3300, 239.7778
517.5100, 113.5356
518.6900, 28.12109
519.8690, 29.93848
521.0490, 47.20532
522.2280, 75.32764
523.4070, 105.4626
524.5860, 122.7356
525.7640, 132.1704
526.9430, 104.9385
528.1210, 137.1636
529.3000, 91.44702
530.4780, 88.79712
531.6560, 84.21729
532.8330, 49.70435
534.0110, 37.24414
535.1880, 52.83057
536.3650, 27.47217
537.5430, 18.15601
538.7190, 25.12280
539.8960, 28.38501
541.0730, 44.63037
542.2490, 46.86230
543.4250, 20.08105
544.6020, 13.28052
545.7780, 16.56152
546.9530, 11.64160
548.1290, 26.74634
549.3040, 28.86084
550.4800, 34.95752
551.6550, 56.03809
552.8300, 74.22241
554.0040, 80.17017
555.1790, 144.2195
556.3540, 159.2676
557.5280, 229.3069
558.7020, 266.3350
559.8760, 306.3528
561.0500, 433.3594
562.2230, 423.3550
563.3970, 522.3396
564.5700, 655.3152
565.7430, 673.2793
566.9160, 716.2329
568.0890, 745.1753
569.2620, 797.1057
570.4340, 776.0247
571.6070, 873.9321
572.7790, 989.8269
573.9510, 975.7104
575.1230, 949.5818
576.2940, 953.4409
577.4660, 965.2881
578.6370, 968.1230
579.8080, 861.9453
580.9790, 891.7559
582.1500, 882.5537
583.3210, 752.3394
584.4910, 767.1125
585.6620, 664.8726
586.8320, 678.6204
588.0020, 706.3555
589.1720, 744.0776
590.3410, 747.7871
591.5110, 743.4839
592.6800, 733.1677
593.8500, 692.8389
595.0190, 646.4966
596.1880, 522.1416
597.3560, 452.7737
598.5250, 372.3926
599.6930, 361.9980
600.8620, 349.5908
602.0300, 299.1699
603.1970, 379.7361
604.3650, 398.2888
605.5330, 476.8284
606.7000, 521.3542
607.8680, 676.8672
609.0350, 802.3665
610.2020, 980.8525
611.3680, 1122.324
612.5350, 1303.784
613.7010, 1530.229
614.8680, 1737.660
616.0340, 1960.079
617.2000, 2113.484
618.3660, 2200.875
619.5310, 2250.251
620.6970, 2296.615
621.8620, 2195.964
623.0270, 2074.710
624.1920, 1964.621
625.3570, 1652.930
626.5220, 1359.224
627.6860, 1084.504
628.8500, 783.7698
630.0140, 634.0220
631.1780, 380.2605
632.3420, 323.4849
633.5060, 286.6948
634.6700, 222.8909
635.8330, 182.0732
636.9960, 169.2410
638.1590, 201.3950
639.3220, 192.5344
640.4850, 219.6602
641.6470, 241.7717
642.8100, 232.8691
643.9720, 217.9524
645.1340, 245.0215
646.2960, 264.0762
647.4570, 234.1167
648.6190, 206.5725
649.7800, 207.8367
650.9420, 207.2891
652.1030, 177.6733
653.2640, 132.6035
654.4240, 83.55103
655.5850, 134.0237
656.7450, 159.1953
657.9060, 83.66724
659.0660, 173.8154
660.2260, 197.6133
661.3850, 191.9624
662.5450, 251.2578
663.7040, 268.3362
664.8640, 350.5488
666.0230, 465.2681
667.1820, 536.9956
668.3410, 666.9438
669.4990, 806.7629
670.6580, 921.5596
671.8160, 1093.755
672.9740, 1229.576
674.1320, 1376.143
675.2900, 1488.696
676.4480, 1630.806
677.6050, 2679.468
678.7630, 2367.328
679.9200, 2494.243
681.0770, 1548.455
682.2340, 1335.679
683.3900, 1191.279
684.5470, 966.6118
685.7030, 804.0369
686.8590, 706.2432
688.0150, 651.9224
689.1710, 599.6284
690.3270, 552.4531
691.4830, 500.3521
692.6380, 474.7585
693.7930, 554.1218
694.9480, 644.4043
696.1030, 703.9468
697.2580, 774.3113
698.4130, 945.6616
699.5670, 1175.998
700.7210, 1280.319
701.8750, 1627.626
703.0290, 1910.205
704.1830, 2422.484
705.3370, 3010.817
706.4900, 3503.068
707.6430, 4290.305
708.7970, 4976.530
709.9490, 5691.738
711.1020, 6278.933
712.2550, 6911.115
713.4070, 7359.282
714.5600, 7790.438
715.7120, 7767.579
716.8640, 7562.707
718.0160, 6932.821
719.1670, 6074.922
720.3190, 5183.011
721.4700, 4332.086
722.6210, 3413.147
723.7720, 2675.196
724.9230, 2270.232
726.0740, 1788.256
727.2250, 1437.266
728.3750, 1221.264
729.5250, 1003.250
730.6750, 844.2229
731.8250, 727.1836
732.9750, 581.1318
734.1240, 463.0686
735.2740, 427.9927
736.4230, 337.9050
737.5720, 347.8052
738.7210, 289.6936
739.8700, 224.5706
741.0190, 248.4360
742.1670, 191.2898
743.3150, 171.1323
744.4630, 169.9634
745.6110, 1442.784
746.7590, 1170.592
747.9070, 804.3911
749.0540, 183.1785
750.2020, 126.9556
751.3490, 206.7222
752.4960, 266.4780
753.6430, 256.2239
754.7890, 269.9595
755.9360, 315.6848
757.0820, 364.4006
758.2280, 419.1062
759.3740, 528.8022
760.5200, 556.4888
761.6660, 657.1655
762.8120, 725.0972
763.9570, 870.4917
765.1020, 849.1411
766.2470, 937.7817
767.3920, 955.4131
768.5370, 1006.036
769.6810, 950.6501
770.8260, 958.2559
771.9700, 929.8530
773.1140, 808.4419
774.2580, 676.0227
775.4020, 612.5955
776.5460, 472.1602
777.6890, 437.7173
778.8320, 281.2666
779.9750, 223.8083
781.1180, 202.3425
782.2610, 69.86963
783.4040, 91.38940
784.5460, 44.90234
785.6890, 2.591553
786.8310, 32.10742
787.9730, 51.66016
789.1150, 67.25952
790.2560, 28.91357
791.3980, 93.62207
792.5390, 86.87915
793.6810, 130.7639
794.8220, 88.66895
795.9630, 90.43970
797.1030, 101.4697
798.2440, 160.5669
799.3840, 93.74292
800.5240, 121.9556
801.6650, 79.21021
802.8040, 50.47949
803.9440, 72.74487
805.0840, 50.02490
806.2230, 12.29810
807.3630, 1.444092
808.5020, 1.791504
809.6410, 54.99316
810.7790, 126.7966
811.9180, 127.6162
813.0570, 195.4563
814.1950, 225.3103
815.3330, 283.1763
816.4710, 243.0435
817.6090, 185.9124
818.7470, 211.7817
819.8840, 146.6511
821.0220, 54.52393
822.1590, 157.4019
823.2960, 79.28394
824.4330, 42.17212
825.5690, 8.063721
826.7060, 5.958252
827.8420, 17.14453
828.9790, 0.2551270
830.1150, 8.632813
831.2510, 39.47876
832.3860, 4.609131
833.5220, 13.25757
834.6570, 9.125488
835.7930, 40.99390
836.9280, 28.86353
838.0630, 27.73438
839.1980, 10.39307
840.3320, 140.4771
841.4670, 1.651123
842.6010, 170.2209
843.7350, 155.0952
844.8690, 199.9719
846.0030, 297.8511
847.1370, 255.7327
848.2700, 276.6174
849.4040, 321.5051
850.5370, 298.3965
851.6700, 342.2905
852.8030, 414.1882
853.9360, 428.0901
855.0680, 498.9956
856.2000, 429.9050
857.3330, 459.8186
858.4650, 467.7373
859.5970, 470.6599
860.7290, 521.5874
861.8600, 434.5200
862.9920, 417.4575
864.1230, 469.4004
865.2540, 413.3489
866.3850, 503.3027
867.5160, 429.2622
868.6460, 407.2278
869.7770, 445.1995
870.9070, 498.1775
872.0370, 428.1614
873.1670, 360.1521
874.2970, 428.1504
875.4270, 454.1560
876.5570, 457.1697
877.6860, 509.1951
878.8150, 466.2283
879.9440, 425.2822
881.0730, 490.3521
882.2020, 468.1299
883.3300, 564.5291
884.4590, 540.6304
885.5870, 601.7432
886.7150, 710.8694
887.8430, 684.0044
888.9710, 899.1489
890.0990, 918.3022
891.2260, 1097.464
892.3530, 1220.636
893.4810, 1390.819
894.6080, 1643.015
895.7340, 1930.234
896.8610, 2165.463
897.9880, 2392.700
899.1140, 2704.948
900.2400, 2948.207
901.3660, 3349.476
902.4920, 3555.754
903.6180, 3912.043
904.7430, 4114.344
905.8690, 4269.654
906.9940, 4507.976
908.1190, 4538.309
909.2440, 4392.652
910.3690, 4324.006
911.4930, 4101.372
912.6180, 3742.749
913.7420, 3509.138
914.8660, 3200.538
915.9900, 2840.953
917.1140, 2521.393
918.2380, 2227.845
919.3610, 1945.310
920.4850, 1629.803
921.6080, 1440.883
922.7310, 1320.165
923.8540, 1163.280
924.9760, 1118.466
926.0990, 1121.108
927.2210, 1037.758
928.3440, 1004.897
929.4660, 941.3345
930.5880, 953.2148
931.7090, 955.3293
932.8310, 1009.042
933.9520, 1003.880
935.0740, 1048.978
936.1950, 1071.374
937.3160, 1062.530
938.4360, 1159.560
939.5570, 1242.263
940.6780, 1383.462
941.7980, 1497.934
942.9180, 1649.493
944.0380, 1812.115
945.1580, 2013.077
946.2780, 2268.059
947.3970, 2548.068
948.5170, 2857.583
949.6360, 3227.155
950.7550, 3566.232
951.8740, 3960.329
952.9930, 4364.447
954.1110, 4727.584
955.2300, 5303.743
956.3480, 5631.921
957.4660, 5970.127
958.5840, 6409.364
959.7020, 6995.624
960.8190, 7496.912
961.9370, 7983.220
963.0540, 8386.815
964.1710, 8608.099
965.2880, 8863.469
966.4050, 8709.973
967.5220, 8643.220
968.6380, 8130.674
969.7550, 7437.146
970.8710, 6842.641
971.9870, 6262.160
973.1030, 5893.700
974.2190, 5576.974
975.3340, 5483.567
976.4500, 5380.117
977.5650, 5630.754
978.6800, 5851.417
979.7950, 5595.099
980.9100, 5656.800
982.0250, 5474.525
983.1390, 5388.271
984.2530, 5269.041
985.3680, 5048.837
986.4820, 4944.655
987.5950, 4749.496
988.7090, 4604.357
989.8230, 4638.244
990.9360, 4651.154
992.0490, 4652.084
993.1620, 4491.048
994.2750, 4610.036
995.3880, 4466.045
996.5010, 4577.072
997.6130, 4411.122
998.7250, 4383.193
999.8370, 4458.282
1000.949, 4615.395
1002.061, 4730.526
1003.173, 4791.682
1004.284, 4646.857
1005.396, 4613.054
1006.507, 4397.271
1007.618, 4078.715
1008.729, 3920.975
1009.839, 3384.573
1010.950, 2923.619
1012.060, 2751.109
1013.171, 2354.371
1014.281, 1988.580
1015.391, 1696.356
1016.500, 1441.757
1017.610, 1253.376
1018.719, 1002.406
1019.829, 940.9893
1020.938, 873.4998
1022.047, 750.0967
1023.156, 705.6543
1024.264, 750.2058
1025.373, 649.8225
1026.481, 747.6914
1027.589, 712.1414
1028.697, 717.6758
1029.805, 632.3423
1030.913, 631.0273
1032.020, 646.7310
1033.128, 509.4626
1034.235, 505.2048
1035.342, 508.9656
1036.449, 383.7446
1037.556, 326.5430
1038.663, 316.3604
1039.769, 250.1953
1040.875, 250.0505
1041.981, 259.9238
1043.087, 294.8157
1044.193, 292.2539
1045.299, 251.6541
1046.404, 309.6011
1047.510, 346.5659
1048.615, 359.0562
1049.720, 426.0088
1050.825, 442.0286
1051.930, 506.0659
1053.034, 552.8540
1054.139, 644.7070
1055.243, 674.0444
1056.347, 734.8965
1057.451, 825.8735
1058.555, 878.1882
1059.658, 890.1340
1060.762, 933.5310
1061.865, 904.8623
1062.968, 941.6636
1064.071, 916.0950
1065.174, 769.5720
1066.277, 819.8855
1067.380, 714.4724
1068.482, 609.1038
1069.584, 568.4961
1070.686, 475.2192
1071.788, 469.9739
1072.890, 491.7656
1073.992, 429.5884
1075.093, 527.5664
1076.194, 464.5291
1077.295, 581.4211
1078.396, 608.3135
1079.497, 644.0247
1080.598, 764.2297
1081.698, 747.9456
1082.799, 786.8896
1083.899, 855.1416
1084.999, 854.1104
1086.099, 819.1406
1087.199, 821.5449
1088.298, 741.5518
1089.398, 591.6389
1090.497, 445.9211
1091.596, 416.2195
1092.695, 420.9583
1093.794, 335.0210
1094.892, 350.3506
1095.991, 300.7964
1097.089, 272.9089
1098.187, 308.0776
1099.285, 335.2485
1100.383, 354.5266
1101.481, 407.2710
1102.579, 437.4302
1103.676, 422.7444
1104.773, 508.9255
1105.870, 578.1152
1106.967, 565.0186
1108.064, 591.1387
1109.161, 532.8599
1110.257, 512.7290
1111.353, 548.3438
1112.449, 445.6196
1113.545, 415.9663
1114.641, 425.8264
1115.737, 380.4211
1116.832, 356.9946
1117.928, 222.6321
1119.023, 242.0913
1120.118, 198.6189
1121.213, 128.6501
1122.308, 147.5713
1123.402, 111.9980
1124.497, 101.1892
1125.591, 103.4458
1126.685, 100.2161
1127.779, 77.53735
1128.873, 107.8630
1129.967, 55.19336
1131.060, 54.52734
1132.153, 3.876953
1133.247, 31.21875
1134.340, 4.889160
1135.433, 68.29590
1136.525, 32.66382
1137.618, 6.023926
1138.710, 12.53418
1139.802, 23.82837
1140.895, 16.75171
1141.987, 29.93701
1143.078, 9.994141
1144.170, 75.63477
1145.261, 54.28931
1146.353, 43.96631
1147.444, 3.344971
1148.535, 10.25708
1149.626, 22.94604
1150.716, 35.48682
1151.807, 0.1816410
1152.897, 4.358643
1153.988, 0.3620610
1155.078, 42.23193
1156.168, 1.409668
1157.257, 11.05493
1158.347, 25.76318
1159.436, 63.87793
1160.526, 10.84497
1161.615, 30.10010
1162.704, 36.35449
1163.793, 1.607178
1164.881, 73.93066
1165.970, 23.17944
1167.058, 80.45947
1168.147, 106.7925
1169.235, 81.04517
1170.323, 121.2854
1171.410, 65.75342
1172.498, 45.98828
1173.585, 92.27637
1174.673, 76.50537
1175.760, 52.73120
1176.847, 47.11377
1177.934, 14.33276
1179.020, 9.238281
1180.107, 49.96924
1181.193, 14.27490
1182.279, 16.44604
1183.365, 60.15503
1184.451, 12.02539
1185.537, 34.90894
1186.623, 57.81763
1187.708, 10.60889
1188.793, 3.536621
1189.878, 71.43140
1190.963, 29.40308
1192.048, 24.12036
1193.133, 16.92603
1194.217, 18.03955
1195.302, 19.25610
1196.386, 52.82471
1197.470, 48.16699
1198.554, 30.11890
1199.638, 17.80811
1200.721, 53.03027
1201.805, 22.87549
1202.888, 59.69629
1203.971, 27.53540
1205.054, 12.38330
1206.137, 14.17407
1207.219, 21.01587
1208.302, 56.09644
1209.384, 13.94507
1210.466, 12.78784
1211.548, 12.45972
1212.630, 81.23291
1213.712, 14.97803
1214.794, 55.64648
1215.875, 25.34180
1216.956, 14.65283
1218.037, 58.28369
1219.118, 13.09619
1220.199, 15.50610
1221.280, 22.05249
1222.360, 21.40283
1223.441, 62.22534
1224.521, 24.72339
1225.601, 22.32617
1226.681, 48.79932
1227.760, 39.38745
1228.840, 44.90308
1229.919, 49.52368
1230.999, 41.85938
1232.078, 103.2295
1233.157, 8.587158
1234.236, 82.93311
1235.314, 74.25610
1236.393, 15.43311
1237.471, 15.84155
1238.549, 27.09497
1239.627, 62.53589
1240.705, 68.75781
1241.783, 61.98022
1242.860, 50.16089
1243.938, 27.34155
1245.015, 37.50293
1246.092, 11.64722
1247.169, 37.76685
1248.246, 47.86914
1249.323, 44.95557
1250.399, 27.02612
1251.475, 31.07617
1252.552, 56.26782
1253.628, 13.66431
1254.703, 50.31763
1255.779, 64.31128
1256.855, 116.2542
1257.930, 155.2158
1259.005, 95.24097
1260.080, 91.14136
1261.155, 87.02710
1262.230, 120.9619
1263.305, 49.81836
1264.379, 78.67261
1265.454, 89.49561
1266.528, 142.5830
1267.602, 77.37988
1268.676, 131.9536
1269.750, 84.71948
1270.823, 113.1499
1271.897, 90.44971
1272.970, 101.9993
1274.043, 94.56201
1275.116, 104.5234
1276.189, 96.80322
1277.261, 76.46167
1278.334, 115.9065
1279.406, 0.9455570
1280.478, 48.42700
1281.550, 65.04175
1282.622, 159.5916
1283.694, 130.3748
1284.766, 24.02295
1285.837, 86.69678
1286.908, 113.9346
1287.979, 6.278076
1289.050, 43.27002
1290.121, 108.6885
1291.192, 155.0923
1292.262, 115.4810
1293.333, 83.84546
1294.403, 109.2026
1295.473, 94.54468
1296.543, 81.87061
1297.613, 101.1809
1298.682, 151.4753
1299.752, 62.75415
1300.821, 129.0156
1301.890, 92.26147
1302.959, 116.4912
1304.028, 108.7051
1305.096, 72.90332
1306.165, 109.0847
