##NAMES=Axinite-(Fe)
##RRUFFID=R060183
##IDEAL CHEMISTRY=Ca_4_Fe^2+^_2_Al_4_[B_2_Si_8_O_30_](OH)_2_
##LOCALITY=Skagit Bluffs, near Manning Park, British Columbia, Canada
##OWNER=RRUFF
##SOURCE=Lloyd Twaites
##DESCRIPTION=Light-pink transparent axe-head-shaped single crystal
##STATUS=The identification of this mineral has been confirmed by X-ray diffraction and chemical analysis
##URL=rruff.info/R060183
##MEASURED CHEMISTRY=Ca_2.00_(Fe^2+^_0.58_Mn_0.23_Mg_0.19_)Al_2.00_B_1.00_Si_4.00_O_15_(OH)
##PIN_ID=L01506
##ORIENTATION=Laser parallel to (-1 -1 0). Fiducial mark perpendicular to laser is parallel to c [0 0 1]
52.67100, 0.0000000E+00
53.91000, 70.68030
55.14900, 174.8871
56.38700, 241.4500
57.62600, 271.6877
58.86400, 437.7287
60.10300, 574.6371
61.34100, 431.5264
62.57900, 281.4835
63.81700, 104.4351
65.05400, 2.603027
66.29200, 81.92322
67.52900, 86.45752
68.76700, 12.30103
70.00400, 54.35779
71.24100, 20.16882
72.47700, 14.33618
73.71400, 11.99414
74.95100, 56.43384
76.18700, 133.5544
77.42300, 324.8289
78.65900, 435.7209
79.89500, 662.3186
81.13100, 942.4888
82.36700, 1391.114
83.60200, 1845.090
84.83700, 2121.323
86.07200, 2341.732
87.30800, 2698.237
88.54200, 3288.773
89.77700, 3859.273
91.01200, 4930.625
92.24600, 5681.203
93.48000, 6708.334
94.71400, 7212.451
95.94800, 7495.986
97.18200, 7407.897
98.41600, 7441.133
99.64900, 7791.642
100.8830, 7944.385
102.1160, 8161.326
103.3490, 8487.448
104.5820, 9027.720
105.8150, 10318.12
107.0470, 11888.64
108.2800, 11349.77
109.5120, 12942.95
110.7440, 10461.70
111.9760, 8953.508
113.2080, 8300.354
114.4400, 7719.218
115.6710, 7274.096
116.9030, 6728.971
118.1340, 6479.834
119.3650, 5755.672
120.5960, 5695.474
121.8270, 5698.228
123.0580, 6044.923
124.2880, 6098.549
125.5190, 6156.097
126.7490, 6302.407
127.9790, 6491.995
129.2090, 6486.822
130.4390, 6282.858
131.6680, 5751.085
132.8980, 5481.453
134.1270, 5072.899
135.3560, 4993.617
136.5850, 5036.806
137.8140, 5455.693
139.0430, 6082.321
140.2710, 6452.481
141.5000, 7163.061
142.7280, 8056.074
143.9560, 9302.548
145.1840, 10695.50
146.4120, 12877.95
147.6390, 14784.91
148.8670, 16766.42
150.0940, 17293.46
151.3210, 16230.07
152.5490, 14377.24
153.7750, 12406.97
155.0020, 10594.27
156.2290, 9617.137
157.4550, 8561.584
158.6810, 7914.605
159.9080, 7324.201
161.1340, 7077.372
162.3590, 7316.113
163.5850, 7992.420
164.8110, 9248.294
166.0360, 10435.73
167.2610, 12265.73
168.4860, 14252.29
169.7110, 16312.40
170.9360, 16745.07
172.1610, 16274.28
173.3850, 15300.05
174.6100, 13565.35
175.8340, 12255.21
177.0580, 10682.59
178.2820, 9076.517
179.5050, 7722.977
180.7290, 6412.963
181.9520, 5486.477
183.1760, 4871.510
184.3990, 4432.994
185.6220, 4297.944
186.8450, 4404.719
188.0670, 4768.811
189.2900, 5308.410
190.5120, 6183.510
191.7340, 6930.107
192.9560, 6976.196
194.1780, 6917.779
195.4000, 6222.850
196.6220, 5935.400
197.8430, 5887.430
199.0640, 6131.936
200.2860, 6623.998
201.5070, 7570.600
202.7270, 8510.814
203.9480, 9099.531
205.1690, 9434.967
206.3890, 9861.020
207.6090, 10246.53
208.8290, 10295.37
210.0490, 10326.44
211.2690, 10247.81
212.4890, 9689.873
213.7080, 9398.223
214.9280, 8868.659
216.1470, 8489.889
217.3660, 8057.383
218.5850, 7565.744
219.8030, 6771.991
221.0220, 5618.316
222.2400, 4653.430
223.4590, 3608.878
224.6770, 2710.186
225.8950, 1841.661
227.1120, 1502.710
228.3300, 1045.291
229.5480, 963.4082
230.7650, 861.1123
231.9820, 668.4258
233.1990, 832.4219
234.4160, 1008.102
235.6330, 1253.493
236.8490, 1493.584
238.0660, 2014.355
239.2820, 2386.808
240.4980, 2754.922
241.7140, 3222.695
242.9300, 3428.985
244.1460, 3872.114
245.3610, 3741.689
246.5770, 4046.811
247.7920, 3932.445
249.0070, 3953.535
250.2220, 4257.095
251.4370, 4482.102
252.6510, 4768.537
253.8660, 4746.443
255.0800, 4895.812
256.2940, 4446.617
257.5080, 4572.853
258.7220, 4423.945
259.9360, 4350.638
261.1490, 4357.061
262.3630, 4417.923
263.5760, 4672.170
264.7890, 4908.789
266.0020, 5298.779
267.2150, 5678.118
268.4270, 6043.799
269.6400, 6295.814
270.8520, 6652.163
272.0640, 6725.843
273.2760, 6843.848
274.4880, 6716.178
275.7000, 6208.834
276.9120, 6021.814
278.1230, 5628.119
279.3340, 5236.750
280.5450, 4887.705
281.7560, 4691.984
282.9670, 4605.584
284.1780, 4246.506
285.3880, 4082.743
286.5980, 3794.297
287.8090, 3474.163
289.0190, 3388.342
290.2290, 3058.828
291.4380, 2955.625
292.6480, 3289.730
293.8570, 3343.139
295.0670, 3652.850
296.2760, 4121.862
297.4850, 4859.174
298.6930, 5833.781
299.9020, 6488.684
301.1110, 7916.879
302.3190, 8840.362
303.5270, 10130.13
304.7350, 10933.20
305.9430, 10868.53
307.1510, 10405.15
308.3580, 8864.058
309.5660, 7396.234
310.7730, 6397.688
311.9800, 5224.410
313.1870, 4558.406
314.3940, 4028.668
315.6010, 4239.195
316.8070, 4407.984
318.0130, 4804.037
319.2200, 4559.348
320.4260, 4442.913
321.6310, 4884.734
322.8370, 3980.809
324.0430, 3674.131
325.2480, 3364.702
326.4540, 3454.519
327.6590, 3388.577
328.8640, 3322.881
330.0680, 3273.422
331.2730, 3082.200
332.4780, 3356.213
333.6820, 3674.459
334.8860, 4280.936
336.0900, 5252.644
337.2940, 6517.574
338.4980, 7807.729
339.7010, 9262.111
340.9050, 10716.71
342.1080, 11744.53
343.3110, 11851.57
344.5140, 11323.81
345.7170, 11007.35
346.9200, 10527.18
348.1220, 10325.30
349.3240, 10221.71
350.5270, 9473.427
351.7290, 8211.438
352.9310, 6836.753
354.1320, 5274.369
355.3340, 3820.293
356.5350, 2557.527
357.7370, 1669.072
358.9380, 893.9375
360.1390, 396.1064
361.3400, 56.44531
362.5400, 285.7236
363.7410, 458.7646
364.9410, 600.6016
366.1410, 681.2676
367.3410, 704.7861
368.5410, 385.1641
369.7410, 365.3359
370.9400, 43.69824
372.1400, 82.98828
373.3390, 381.0332
374.5380, 302.0898
375.7370, 562.3311
376.9360, 643.0693
378.1350, 1091.028
379.3330, 1724.354
380.5310, 2520.445
381.7300, 3369.430
382.9280, 4662.112
384.1260, 6133.869
385.3230, 7889.398
386.5210, 9618.541
387.7180, 11225.03
388.9160, 12330.52
390.1130, 12676.75
391.3100, 12449.91
392.5060, 11366.17
393.7030, 9941.159
394.9000, 8196.198
396.0960, 6885.526
397.2920, 5687.014
398.4880, 4602.900
399.6840, 3558.752
400.8800, 2780.784
402.0750, 2106.162
403.2710, 1509.148
404.4660, 1577.855
405.6610, 1325.841
406.8560, 1488.918
408.0510, 1997.585
409.2450, 2413.250
410.4400, 3091.843
411.6340, 4078.599
412.8280, 5311.504
414.0220, 6889.557
415.2160, 7852.751
416.4100, 8569.089
417.6030, 8801.570
418.7970, 8721.193
419.9900, 8760.949
421.1830, 8787.846
422.3760, 8777.874
423.5690, 8631.037
424.7610, 8426.329
425.9540, 8283.753
427.1460, 7850.305
428.3380, 7201.982
429.5300, 6316.783
430.7220, 5572.709
431.9140, 4566.752
433.1050, 3536.914
434.2970, 2667.195
435.4880, 1898.592
436.6790, 1307.102
437.8700, 1042.725
439.0610, 636.4580
440.2510, 731.2988
441.4420, 863.2490
442.6320, 682.3037
443.8220, 818.4619
445.0120, 748.7227
446.2020, 646.0840
447.3910, 641.5439
448.5810, 454.0996
449.7700, 503.7520
450.9600, 429.4980
452.1490, 573.3359
453.3370, 684.2656
454.5260, 720.2832
455.7150, 813.3896
456.9030, 813.5811
458.0910, 708.8564
459.2800, 725.2158
460.4670, 710.6553
461.6550, 568.1738
462.8430, 710.7695
464.0300, 894.4434
465.2180, 1103.192
466.4050, 1602.014
467.5920, 2110.907
468.7790, 2361.871
469.9650, 2578.902
471.1520, 2734.002
472.3380, 3528.166
473.5250, 4002.396
474.7110, 5194.688
475.8970, 6641.041
477.0820, 8489.455
478.2680, 10922.92
479.4540, 13858.45
480.6390, 17418.04
481.8240, 20840.68
483.0090, 23370.37
484.1940, 23622.11
485.3780, 21271.89
486.5630, 17835.73
487.7470, 14050.62
488.9320, 11043.55
490.1160, 8185.525
491.3000, 6259.539
492.4830, 4883.596
493.6670, 3749.902
494.8500, 3292.303
496.0340, 2889.146
497.2170, 2666.163
498.4000, 2596.436
499.5820, 2648.471
500.7650, 2808.372
501.9480, 2905.676
503.1300, 3231.004
504.3120, 3048.862
505.4940, 2946.844
506.6760, 2889.468
507.8580, 2336.730
509.0390, 2138.977
510.2210, 1802.538
511.4020, 1276.921
512.5830, 841.8633
513.7640, 556.9502
514.9450, 124.2080
516.1250, 144.3936
517.3060, 261.9990
518.4860, 600.6318
519.6660, 627.4307
520.8460, 776.4346
522.0260, 744.7539
523.2060, 698.3418
524.3850, 717.2197
525.5650, 674.3955
526.7440, 660.9092
527.9230, 610.7617
529.1020, 454.0117
530.2810, 342.6113
531.4590, 278.5098
532.6380, 166.5225
533.8160, 67.92676
534.9940, 10.57617
536.1720, 68.77051
537.3500, 140.0000
538.5270, 63.86035
539.7050, 28.90918
540.8820, 48.86621
542.0590, 72.50293
543.2360, 74.00684
544.4130, 132.4062
545.5900, 171.6318
546.7660, 200.7871
547.9430, 237.8516
549.1190, 261.8359
550.2950, 307.7539
551.4710, 412.6182
552.6470, 654.4580
553.8220, 787.2979
554.9980, 1164.141
556.1730, 1492.970
557.3480, 1975.780
558.5230, 2316.551
559.6980, 2159.285
560.8730, 2657.979
562.0470, 2518.630
563.2220, 2503.236
564.3960, 2568.797
565.5700, 2684.312
566.7440, 2807.779
567.9170, 2931.199
569.0910, 3515.569
570.2640, 3689.889
571.4380, 3885.157
572.6110, 4187.374
573.7840, 4211.537
574.9570, 4120.648
576.1290, 4008.703
577.3020, 3843.701
578.4740, 3414.644
579.6460, 3334.526
580.8180, 3280.354
581.9900, 2999.119
583.1620, 3017.825
584.3330, 3312.471
585.5040, 3438.053
586.6760, 3399.572
587.8470, 3362.029
589.0180, 3189.421
590.1880, 2704.747
591.3590, 2345.006
592.5290, 2154.200
593.7000, 1653.325
594.8700, 1389.382
596.0400, 1228.369
597.2090, 1156.287
598.3790, 1222.133
599.5490, 1157.908
600.7180, 1366.611
601.8870, 1428.241
603.0560, 1811.797
604.2250, 2305.277
605.3940, 2858.684
606.5620, 3533.016
607.7300, 4324.939
608.8990, 5162.445
610.0670, 6206.546
611.2350, 7224.566
612.4020, 8407.509
613.5700, 9713.371
614.7370, 10896.15
615.9050, 11977.85
617.0720, 12997.47
618.2390, 13687.01
619.4060, 13730.46
620.5720, 13091.84
621.7390, 11258.12
622.9050, 9299.328
624.0710, 7594.447
625.2370, 5949.020
626.4030, 4641.310
627.5690, 3545.851
628.7340, 2621.065
629.9000, 1947.754
631.0650, 1580.354
632.2300, 1175.865
633.3950, 868.2891
634.5600, 864.6172
635.7240, 831.8525
636.8890, 823.9883
638.0530, 777.0234
639.2170, 955.9521
640.3810, 1024.789
641.5450, 1272.534
642.7080, 1280.188
643.8720, 1262.750
645.0350, 1426.224
646.1980, 1236.834
647.3610, 1317.157
648.5240, 1319.170
649.6870, 1383.444
650.8490, 1327.904
652.0120, 1381.927
653.1740, 1639.831
654.3360, 1808.791
655.4980, 2160.189
656.6600, 2377.451
657.8210, 2919.213
658.9830, 3425.852
660.1440, 3997.596
661.3050, 4853.171
662.4660, 5746.931
663.6270, 6619.561
664.7870, 7361.041
665.9480, 7819.698
667.1080, 8099.312
668.2680, 8310.037
669.4280, 8824.413
670.5880, 8999.901
671.7480, 9641.737
672.9070, 10698.74
674.0670, 11081.74
675.2260, 12291.10
676.3850, 12262.51
677.5440, 12123.71
678.7030, 11537.84
679.8610, 10504.40
681.0200, 9099.600
682.1780, 8007.436
683.3360, 6754.006
684.4940, 5907.043
685.6520, 5041.436
686.8090, 4692.019
687.9670, 4176.566
689.1240, 4047.941
690.2810, 3858.562
691.4380, 3866.555
692.5950, 4166.369
693.7520, 4308.214
694.9080, 4806.636
696.0650, 5343.836
697.2210, 6070.250
698.3770, 7171.133
699.5330, 8386.429
700.6880, 9892.586
701.8440, 11823.66
702.9990, 14084.64
704.1550, 16878.54
705.3100, 20160.35
706.4650, 23943.08
707.6190, 28589.73
708.7740, 33389.29
709.9290, 38367.76
711.0830, 42948.16
712.2370, 45949.47
713.3910, 47532.69
714.5450, 47086.83
715.6980, 44154.90
716.8520, 39917.87
718.0050, 34571.77
719.1580, 28803.58
720.3110, 24173.31
721.4640, 19759.96
722.6170, 16159.53
723.7700, 13291.02
724.9220, 10709.43
726.0740, 8639.760
727.2260, 7381.012
728.3780, 6194.184
729.5300, 5145.277
730.6810, 4342.293
731.8330, 3858.230
732.9840, 3301.091
734.1350, 2881.875
735.2860, 2500.482
736.4370, 2179.214
737.5880, 1945.771
738.7380, 1776.252
739.8880, 1605.879
741.0390, 1477.993
742.1890, 1408.253
743.3380, 1409.439
744.4880, 1365.554
745.6380, 1341.597
746.7870, 1217.567
747.9360, 1285.468
749.0850, 1304.298
750.2340, 1376.059
751.3830, 1455.750
752.5310, 1607.252
753.6800, 1777.118
754.8280, 1982.415
755.9760, 2219.838
757.1240, 2435.193
758.2720, 2703.483
759.4190, 3118.709
760.5670, 3611.870
761.7140, 4054.969
762.8610, 4626.005
764.0080, 5019.979
765.1550, 5328.893
766.3020, 5321.748
767.4480, 5115.543
768.5950, 4877.279
769.7410, 4418.957
770.8870, 4065.578
772.0330, 3601.931
773.1780, 2899.170
774.3240, 2614.943
775.4690, 1969.525
776.6140, 1544.428
777.7590, 1265.725
778.9040, 928.9717
780.0490, 860.1689
781.1940, 544.3174
782.3380, 516.4170
783.4820, 216.4707
784.6260, 28.54785
785.7700, 43.72949
786.9140, 36.08008
788.0580, 186.5938
789.2010, 439.3477
790.3450, 442.4697
791.4880, 448.9609
792.6310, 453.8203
793.7730, 390.0312
794.9160, 530.4961
796.0590, 666.2559
797.2010, 578.2949
798.3430, 472.5547
799.4850, 601.9375
800.6270, 473.5146
801.7690, 485.2256
802.9100, 285.0664
804.0520, 267.9375
805.1930, 20.17188
806.3340, 327.4053
807.4750, 645.7783
808.6160, 849.2666
809.7560, 1142.857
810.8970, 1653.523
812.0370, 1559.213
813.1770, 1758.945
814.3170, 1648.701
815.4570, 1550.471
816.5960, 1265.302
817.7360, 1037.188
818.8750, 699.1133
820.0140, 511.0723
821.1530, 415.0674
822.2920, 261.0889
823.4310, 96.12891
824.5690, 89.17969
825.7070, 12.76270
826.8460, 21.72363
827.9840, 68.78906
829.1220, 103.7520
830.2590, 125.8750
831.3970, 77.08691
832.5340, 60.36035
833.6710, 136.3184
834.8080, 7.990234
835.9450, 79.64453
837.0820, 108.2910
838.2190, 414.9316
839.3550, 307.5684
840.4910, 380.2021
841.6270, 702.8330
842.7630, 644.4619
843.8990, 700.0908
845.0350, 796.7197
846.1700, 1136.351
847.3060, 1158.983
848.4410, 1253.618
849.5760, 1326.258
850.7100, 1425.901
851.8450, 1462.549
852.9800, 1597.204
854.1140, 1359.867
855.2480, 1294.537
856.3820, 1450.217
857.5160, 1242.906
858.6500, 1285.605
859.7830, 1581.316
860.9170, 1474.959
862.0500, 1616.744
863.1830, 1517.525
864.3160, 1711.288
865.4480, 1614.068
866.5810, 1602.864
867.7130, 1505.678
868.8460, 1780.508
869.9780, 1658.356
871.1100, 1666.226
872.2410, 1732.113
873.3730, 1708.023
874.5050, 1737.955
875.6360, 1793.909
876.7670, 1813.886
877.8980, 1799.887
879.0290, 1806.920
880.1590, 1844.980
881.2900, 2026.067
882.4200, 2173.181
883.5500, 2353.324
884.6800, 2626.498
885.8100, 2748.715
886.9400, 3241.980
888.0690, 3564.284
889.1990, 4199.639
890.3280, 4893.038
891.4570, 5528.485
892.5860, 6177.986
893.7140, 7100.535
894.8430, 7893.148
895.9710, 8976.818
897.1000, 9839.555
898.2280, 10693.35
899.3560, 11679.24
900.4830, 12213.21
901.6110, 12100.26
902.7380, 12227.36
903.8660, 11893.50
904.9930, 11582.71
906.1200, 10950.96
907.2460, 10301.33
908.3730, 9702.785
909.5000, 9025.336
910.6260, 8131.965
911.7520, 7437.684
912.8780, 6901.494
914.0040, 6237.384
915.1290, 5878.369
916.2550, 5275.436
917.3800, 5072.592
918.5050, 4929.818
919.6300, 4712.913
920.7550, 4502.314
921.8800, 4492.080
923.0040, 4584.629
924.1290, 4797.053
925.2530, 4905.930
926.3770, 5205.953
927.5010, 5313.895
928.6250, 5428.876
929.7480, 5661.213
930.8720, 5541.074
931.9950, 5644.524
933.1180, 5852.336
934.2410, 5759.908
935.3640, 5964.729
936.4860, 6251.990
937.6090, 6450.910
938.7310, 6921.804
939.8530, 7735.186
940.9750, 8291.098
942.0970, 9365.217
943.2180, 10426.43
944.3400, 12110.75
945.4610, 13554.19
946.5820, 15314.72
947.7030, 17235.35
948.8240, 18974.07
949.9450, 21034.90
951.0650, 22551.85
952.1860, 23992.88
953.3060, 25504.01
954.4260, 26677.24
955.5460, 28515.55
956.6650, 30099.96
957.7850, 32156.44
958.9040, 34731.64
960.0230, 37482.93
961.1420, 39715.96
962.2610, 41715.91
963.3800, 41614.71
964.4990, 40924.68
965.6170, 38759.64
966.7350, 36197.03
967.8530, 32854.64
968.9710, 30117.05
970.0890, 27645.00
971.2070, 25516.54
972.3240, 24603.22
973.4410, 23808.01
974.5580, 23536.89
975.6750, 23364.88
976.7920, 23590.97
977.9090, 23291.17
979.0250, 23249.48
980.1410, 22458.89
981.2580, 21572.39
982.3740, 20607.98
983.4890, 19522.66
984.6050, 18564.44
985.7200, 17849.31
986.8360, 17334.27
987.9510, 17077.32
989.0660, 16239.47
990.1810, 16179.71
991.2950, 15811.04
992.4100, 15711.46
993.5240, 15813.97
994.6390, 16054.57
995.7530, 16130.26
996.8660, 16293.04
997.9800, 17076.90
999.0940, 17858.86
1000.207, 18514.91
1001.320, 18821.05
1002.433, 19396.27
1003.546, 19438.59
1004.659, 18975.99
1005.772, 17976.48
1006.884, 17037.05
1007.996, 15686.71
1009.108, 14042.46
1010.220, 12608.29
1011.332, 11195.21
1012.444, 9633.737
1013.555, 8394.834
1014.666, 7607.014
1015.777, 6566.312
1016.888, 5867.697
1017.999, 5402.566
1019.110, 4988.527
1020.220, 4653.617
1021.331, 4558.757
1022.441, 4243.502
1023.551, 4338.535
1024.661, 4303.139
1025.770, 4199.977
1026.880, 4082.205
1027.989, 3951.724
1029.098, 3633.712
1030.207, 3522.533
1031.316, 3179.087
1032.425, 2839.826
1033.533, 2911.769
1034.642, 2675.557
1035.750, 2692.055
1036.858, 2629.860
1037.966, 2822.010
1039.073, 2795.293
1040.181, 2917.345
1041.288, 3180.877
1042.396, 3342.195
1043.503, 3460.864
1044.610, 3473.988
1045.716, 3742.715
1046.823, 3840.111
1047.929, 4520.156
1049.036, 4816.186
1050.142, 5258.857
1051.248, 5755.287
1052.353, 6025.605
1053.459, 6604.748
1054.564, 6851.531
1055.670, 7270.221
1056.775, 7339.307
1057.880, 7448.842
1058.985, 7408.004
1060.089, 7156.024
1061.194, 6630.377
1062.298, 6333.558
1063.402, 5847.969
1064.506, 5109.613
1065.610, 4482.526
1066.713, 3820.680
1067.817, 3618.045
1068.920, 3375.279
1070.023, 3430.207
1071.126, 3383.036
1072.229, 3032.437
1073.332, 3156.063
1074.435, 3492.518
1075.537, 3811.799
1076.639, 4210.396
1077.741, 4841.165
1078.843, 5295.416
1079.945, 5308.816
1081.046, 5719.396
1082.148, 5792.986
1083.249, 5809.580
1084.350, 5321.192
1085.451, 5072.006
1086.551, 4444.193
1087.652, 3689.943
1088.752, 3452.521
1089.853, 2932.021
1090.953, 2821.411
1092.053, 2552.283
1093.152, 2605.435
1094.252, 2501.046
1095.351, 2512.703
1096.451, 2606.006
1097.550, 2745.549
1098.649, 2875.528
1099.748, 3242.501
1100.846, 3549.654
1101.945, 3886.515
1103.043, 4123.422
1104.141, 4238.561
1105.239, 4213.325
1106.337, 4289.730
1107.434, 3929.916
1108.532, 3763.982
1109.629, 3624.037
1110.726, 3377.393
1111.823, 3059.093
1112.920, 2774.466
1114.017, 2567.390
1115.113, 2265.498
1116.210, 2302.670
1117.306, 2049.405
1118.402, 2042.554
1119.498, 1889.717
1120.593, 1815.693
1121.689, 1749.933
1122.784, 1652.875
1123.879, 1532.523
1124.974, 1354.646
1126.069, 1266.932
1127.164, 1111.707
1128.259, 989.6504
1129.353, 787.9092
1130.447, 671.7217
1131.541, 622.3145
1132.635, 432.0488
1133.729, 446.1738
1134.822, 399.4131
1135.916, 233.4141
1137.009, 231.9814
1138.102, 222.5400
1139.195, 50.20508
1140.288, 70.06152
1141.380, 34.91797
1142.473, 193.9736
1143.565, 82.13770
1144.657, 135.4307
1145.749, 140.8994
1146.841, 7.937500
1147.932, 7.381836
1149.024, 27.19043
1150.115, 102.0371
1151.206, 128.1279
1152.297, 67.13477
1153.388, 133.8623
1154.479, 86.31445
1155.569, 97.37402
1156.659, 120.8730
1157.750, 93.21777
1158.839, 152.5322
1159.929, 129.3887
1161.019, 140.0205
1162.108, 130.2529
1163.198, 224.4902
1164.287, 206.5586
1165.376, 167.1064
1166.465, 48.34766
1167.553, 21.42480
1168.642, 93.25098
1169.730, 29.99023
1170.818, 257.5752
1171.906, 196.6025
1172.994, 156.5029
1174.082, 109.5361
1175.170, 143.9150
1176.257, 132.9424
1177.344, 107.1592
1178.431, 160.7812
1179.518, 108.2373
1180.605, 129.9814
1181.691, 58.06250
1182.778, 83.83203
1183.864, 92.45020
1184.950, 129.4072
1186.036, 90.92285
1187.122, 108.1953
1188.207, 77.88379
1189.292, 113.1875
1190.378, 13.19629
1191.463, 35.29102
1192.548, 14.48633
1193.632, 266.2266
1194.717, 768.2314
1195.801, 866.8340
1196.886, 883.3809
1197.970, 955.9609
1199.054, 88.77930
1200.137, 20.14160
1201.221, 20.59082
1202.305, 24.44141
1203.388, 166.3477
1204.471, 0.4609380
1205.554, 64.25293
1206.637, 3.880859
1207.719, 43.42969
1208.802, 54.94141
1209.884, 35.21777
1210.966, 117.7354
1212.048, 12.17188
1213.130, 9.211914
1214.212, 142.6445
1215.293, 26.41699
1216.374, 118.9492
1217.456, 76.82520
1218.536, 183.2725
1219.617, 122.6445
1220.698, 132.2285
1221.778, 119.5557
1222.859, 155.6895
1223.939, 229.8184
1225.019, 82.79199
1226.099, 336.6729
1227.178, 94.54004
1228.258, 88.23926
1229.337, 237.0625
1230.417, 153.2246
1231.496, 286.3057
1232.574, 173.7500
1233.653, 201.9932
