##NAMES=Axinite-(Fe)
##RRUFFID=R060194
##IDEAL CHEMISTRY=Ca_4_Fe^2+^_2_Al_4_[B_2_Si_8_O_30_](OH)_2_
##LOCALITY=near Dalbandi, Baluchistan Province, Pakistan
##OWNER=RRUFF
##SOURCE=Herbert Obodda
##DESCRIPTION=Brown transparent wedge-shaped single crystal
##STATUS=The identification of this mineral has been confirmed by X-ray diffraction and chemical analysis
##URL=rruff.info/R060194
##MEASURED CHEMISTRY=Ca_2.00_(Fe^2+^_0.66_Mg_0.30_Mn_0.04_)Al_2.00_BSi_4.00_O_15_(OH)
##PIN_ID=L00952
##ORIENTATION=Laser parallel to (1 1 0). Fiducial mark perpendicular to laser is parallel to -c [0 0 -1]
53.91000, 0.0000000E+00
55.14900, 74.86963
56.38700, 137.2153
57.62600, 231.5856
58.86400, 282.1621
60.10300, 422.4550
61.34100, 339.7501
62.57900, 196.2410
63.81700, 49.25793
65.05400, 45.78052
66.29200, 133.5399
67.52900, 104.6753
68.76700, 17.79443
70.00400, 237.5571
71.24100, 336.2852
72.47700, 711.7915
73.71400, 761.8643
74.95100, 1276.731
76.18700, 1653.038
77.42300, 2021.474
78.65900, 2085.771
79.89500, 2244.686
81.13100, 2525.000
82.36700, 3057.522
83.60200, 3882.080
84.83700, 4716.520
86.07200, 5017.703
87.30800, 5210.505
88.54200, 5774.818
89.77700, 6384.551
91.01200, 7121.608
92.24600, 8139.848
93.48000, 8941.086
94.71400, 8983.166
95.94800, 9214.964
97.18200, 9382.411
98.41600, 9622.977
99.64900, 9840.396
100.8830, 10175.27
102.1160, 10431.88
103.3490, 10684.88
104.5820, 11267.26
105.8150, 12491.95
107.0470, 13881.92
108.2800, 16890.15
109.5120, 19496.60
110.7440, 16335.23
111.9760, 12604.05
113.2080, 11045.99
114.4400, 10226.06
115.6710, 10114.22
116.9030, 10039.46
118.1340, 9523.748
119.3650, 9197.080
120.5960, 8829.463
121.8270, 8466.908
123.0580, 8285.414
124.2880, 7909.171
125.5190, 7515.686
126.7490, 7220.052
127.9790, 6780.387
129.2090, 6500.210
130.4390, 6173.646
131.6680, 5889.509
132.8980, 5598.534
134.1270, 5268.658
135.3560, 5257.983
136.5850, 5059.667
137.8140, 5237.763
139.0430, 5427.641
140.2710, 5798.392
141.5000, 5731.988
142.7280, 5721.319
143.9560, 5770.329
145.1840, 6143.090
146.4120, 6408.875
147.6390, 7200.357
148.8670, 7856.331
150.0940, 8687.808
151.3210, 9561.803
152.5490, 10160.32
153.7750, 10488.37
155.0020, 10782.94
156.2290, 11135.04
157.4550, 10685.67
158.6810, 10207.83
159.9080, 9486.512
161.1340, 9209.720
162.3590, 9371.452
163.5850, 9983.705
164.8110, 10590.48
166.0360, 11889.76
167.2610, 13100.56
168.4860, 14645.87
169.7110, 16287.69
170.9360, 16522.01
172.1610, 15297.84
173.3850, 13382.17
174.6100, 11375.99
175.8340, 9438.306
177.0580, 7712.115
178.2820, 6214.408
179.5050, 5098.775
180.7290, 4321.445
181.9520, 3617.181
183.1760, 3233.434
184.3990, 3145.398
185.6220, 2986.268
186.8450, 3263.103
188.0670, 3221.902
189.2900, 3636.427
190.5120, 4298.400
191.7340, 4977.787
192.9560, 5851.582
194.1780, 6627.781
195.4000, 6590.382
196.6220, 6415.378
197.8430, 6456.770
199.0640, 6781.553
200.2860, 7413.719
201.5070, 8202.072
202.7270, 9735.934
203.9480, 10653.34
205.1690, 12225.44
206.3890, 12903.33
207.6090, 13428.55
208.8290, 13775.26
210.0490, 13825.66
211.2690, 13667.57
212.4890, 13277.57
213.7080, 12567.73
214.9280, 11622.41
216.1470, 10362.03
217.3660, 9429.601
218.5850, 8112.898
219.8030, 7401.894
221.0220, 6283.782
222.2400, 5425.539
223.4590, 4449.676
224.6770, 3729.887
225.8950, 3276.841
227.1120, 2722.783
228.3300, 2381.618
229.5480, 2021.067
230.7650, 1743.706
231.9820, 1655.163
233.1990, 1700.534
234.4160, 1712.330
235.6330, 1830.216
236.8490, 1943.502
238.0660, 2254.822
239.2820, 2567.686
240.4980, 3007.125
241.7140, 3191.154
242.9300, 3447.783
244.1460, 4132.969
245.3610, 4471.734
246.5770, 4923.047
247.7920, 5109.881
249.0070, 5491.109
250.2220, 5592.732
251.4370, 5830.738
252.6510, 5985.116
253.8660, 5993.861
255.0800, 5807.971
256.2940, 5670.438
257.5080, 5707.259
258.7220, 6487.427
259.9360, 6393.373
261.1490, 7447.782
262.3630, 6942.967
263.5760, 6945.479
264.7890, 7425.314
266.0020, 8109.473
267.2150, 8670.944
268.4270, 8973.727
269.6400, 9650.818
270.8520, 9770.209
272.0640, 9553.897
273.2760, 9254.885
274.4880, 8629.158
275.7000, 7930.725
276.9120, 7131.582
278.1230, 6161.725
279.3340, 5069.161
280.5450, 4455.887
281.7560, 3793.900
282.9670, 3474.201
284.1780, 3144.791
285.3880, 3108.662
286.5980, 3227.814
287.8090, 3698.242
289.0190, 4478.942
290.2290, 5785.914
291.4380, 6846.154
292.6480, 7767.656
293.8570, 9299.427
295.0670, 10709.46
296.2760, 12050.75
297.4850, 13561.30
298.6930, 14837.11
299.9020, 15788.17
301.1110, 16401.49
302.3190, 17006.05
303.5270, 17273.87
304.7350, 17564.92
305.9430, 17220.22
307.1510, 16393.77
308.3580, 14914.55
309.5660, 13113.57
310.7730, 10862.68
311.9800, 9145.934
313.1870, 7656.803
314.3940, 6776.266
315.6010, 6121.901
316.8070, 5547.045
318.0130, 5451.510
319.2200, 5100.106
320.4260, 4195.023
321.6310, 3497.150
322.8370, 2697.078
324.0430, 2010.992
325.2480, 1494.847
326.4540, 1099.641
327.6590, 690.1514
328.8640, 730.5977
330.0680, 775.2373
331.2730, 922.0635
332.4780, 905.0752
333.6820, 1301.266
334.8860, 1598.633
336.0900, 2257.175
337.2940, 2984.890
338.4980, 3895.775
339.7010, 5115.831
340.9050, 6747.053
342.1080, 8339.443
343.3110, 10075.00
344.5140, 11185.71
345.7170, 11786.59
346.9200, 12205.72
348.1220, 12487.11
349.3240, 12901.75
350.5270, 13163.65
351.7290, 13327.90
352.9310, 12801.12
354.1320, 11010.35
355.3340, 9151.104
356.5350, 7132.520
357.7370, 5247.122
358.9380, 3797.500
360.1390, 2428.107
361.3400, 1301.455
362.5400, 784.0273
363.7410, 153.8203
364.9410, 158.1670
366.1410, 546.9648
367.3410, 589.6768
368.5410, 545.3203
369.7410, 545.8867
370.9400, 553.3760
372.1400, 417.7881
373.3390, 417.0615
374.5380, 374.1904
375.7370, 316.1611
376.9360, 327.9766
378.1350, 70.63477
379.3330, 338.9004
380.5310, 1006.563
381.7300, 1546.234
382.9280, 2713.059
384.1260, 3779.902
385.3230, 5334.905
386.5210, 6890.019
387.7180, 8356.644
388.9160, 9833.311
390.1130, 10531.55
391.3100, 11344.60
392.5060, 11604.28
393.7030, 11070.81
394.9000, 10154.53
396.0960, 8692.404
397.2920, 7278.419
398.4880, 6022.578
399.6840, 4881.876
400.8800, 3971.742
402.0750, 3159.596
403.2710, 2557.596
404.4660, 2071.439
405.6610, 1804.547
406.8560, 1695.687
408.0510, 1787.766
409.2450, 2032.134
410.4400, 2495.630
411.6340, 3167.252
412.8280, 3865.999
414.0220, 5020.869
415.2160, 6932.861
416.4100, 8728.977
417.6030, 9995.212
418.7970, 10501.56
419.9900, 10458.03
421.1830, 10516.62
422.3760, 10984.32
423.5690, 11628.13
424.7610, 12751.05
425.9540, 14092.09
427.1460, 15264.23
428.3380, 15647.48
429.5300, 15705.83
430.7220, 14650.29
431.9140, 12773.85
433.1050, 10734.51
434.2970, 8710.272
435.4880, 6903.131
436.6790, 5281.087
437.8700, 4401.138
439.0610, 3880.283
440.2510, 3480.521
441.4420, 3581.850
442.6320, 3866.270
443.8220, 4406.778
445.0120, 4019.373
446.2020, 3389.053
447.3910, 2628.818
448.5810, 1851.666
449.7700, 1185.597
450.9600, 625.6064
452.1490, 142.6943
453.3370, 56.14062
454.5260, 151.9707
455.7150, 194.8389
456.9030, 369.7656
458.0910, 418.8340
459.2800, 364.0693
460.4670, 471.4492
461.6550, 410.0264
462.8430, 370.7764
464.0300, 180.6846
465.2180, 31.33301
466.4050, 172.3643
467.5920, 510.4512
468.7790, 548.6006
469.9650, 938.8105
471.1520, 1051.082
472.3380, 883.4102
473.5250, 646.7979
474.7110, 551.2422
475.8970, 673.7412
477.0820, 816.0361
478.2680, 1179.905
479.4540, 1604.566
480.6390, 1979.280
481.8240, 2783.045
483.0090, 3837.858
484.1940, 4807.721
485.3780, 5049.633
486.5630, 4695.589
487.7470, 3621.594
488.9320, 2441.642
490.1160, 1523.735
491.3000, 759.8711
492.4830, 377.9736
493.6670, 25.79102
494.8500, 127.8262
496.0340, 99.98242
497.2170, 100.4414
498.4000, 192.7422
499.5820, 457.6348
500.7650, 673.4551
501.9480, 1093.305
503.1300, 1103.182
504.3120, 1510.082
505.4940, 2338.005
506.6760, 2056.951
507.8580, 2374.699
509.0390, 2361.245
510.2210, 2434.066
511.4020, 2448.442
512.5830, 2399.703
513.7640, 2318.684
514.9450, 1892.244
516.1250, 1634.206
517.3060, 1439.953
518.4860, 1067.254
519.6660, 700.3564
520.8460, 475.1963
522.0260, 230.0986
523.2060, 83.67188
524.3850, 170.7686
525.5650, 335.3047
526.7440, 417.0322
527.9230, 481.0264
529.1020, 347.3135
530.2810, 461.8711
531.4590, 346.7451
532.6380, 269.8799
533.8160, 382.7461
534.9940, 281.5391
536.1720, 569.0635
537.3500, 550.5781
538.5270, 991.1836
539.7050, 1403.787
540.8820, 1879.390
542.0590, 2376.051
543.2360, 2770.748
544.4130, 3199.479
545.5900, 3404.244
546.7660, 3405.071
547.9430, 3099.957
549.1190, 2782.893
550.2950, 2198.861
551.4710, 1980.888
552.6470, 1825.001
553.8220, 1610.119
554.9980, 1759.259
556.1730, 1720.406
557.3480, 1960.604
558.5230, 2255.803
559.6980, 2535.021
560.8730, 2778.263
562.0470, 2807.500
563.2220, 2846.721
564.3960, 2736.922
565.5700, 2568.104
566.7440, 2696.264
567.9170, 2833.402
569.0910, 2955.518
570.2640, 3334.611
571.4380, 3800.682
572.6110, 4292.728
573.7840, 4294.748
574.9570, 4543.744
576.1290, 4605.712
577.3020, 4923.654
578.4740, 4983.568
579.6460, 4986.455
580.8180, 5602.311
581.9900, 5894.139
583.1620, 6767.935
584.3330, 7565.701
585.5040, 8647.435
586.6760, 9502.139
587.8470, 10199.81
589.0180, 10508.44
590.1880, 10191.04
591.3590, 9505.611
592.5290, 8198.144
593.7000, 6781.641
594.8700, 5506.246
596.0400, 4458.900
597.2090, 3694.139
598.3790, 2949.973
599.5490, 2589.825
600.7180, 2283.355
601.8870, 2183.751
603.0560, 2165.201
604.2250, 2311.509
605.3940, 2392.787
606.5620, 2741.443
607.7300, 2999.287
608.8990, 3258.363
610.0670, 3623.408
611.2350, 3964.425
612.4020, 4059.411
613.5700, 4018.365
614.7370, 4319.291
615.9050, 4000.183
617.0720, 4046.042
618.2390, 3948.870
619.4060, 3932.664
620.5720, 3754.426
621.7390, 3280.152
622.9050, 3067.847
624.0710, 2497.505
625.2370, 2261.129
626.4030, 1751.718
627.5690, 1701.271
628.7340, 1092.788
629.9000, 1050.270
631.0650, 605.7129
632.2300, 387.1221
633.3950, 203.4795
634.5600, 15.69629
635.7240, 81.11719
636.8890, 170.7021
638.0530, 311.9707
639.2170, 434.7607
640.3810, 609.6533
641.5450, 757.4785
642.7080, 1000.271
643.8720, 1195.025
645.0350, 1190.746
646.1980, 1061.430
647.3610, 1056.077
648.5240, 1125.700
649.6870, 836.4248
650.8490, 730.1816
652.0120, 470.3975
653.1740, 278.0039
654.3360, 80.38574
655.4980, 47.60742
656.6600, 19.86914
657.8210, 105.3789
658.9830, 73.69043
660.1440, 192.4717
661.3050, 160.7354
662.4660, 558.0254
663.6270, 694.2148
664.7870, 1031.493
665.9480, 1593.128
667.1080, 2150.498
668.2680, 2779.172
669.4280, 3789.170
670.5880, 4859.974
671.7480, 6215.199
672.9070, 7406.320
674.0670, 8623.268
675.2260, 9570.477
676.3850, 10060.33
677.5440, 10024.53
678.7030, 9175.198
679.8610, 7969.338
681.0200, 6665.664
682.1780, 5274.686
683.3360, 4346.295
684.4940, 3319.626
685.6520, 2577.765
686.8090, 2099.068
687.9670, 1592.469
689.1240, 1547.396
690.2810, 1423.026
691.4380, 1596.174
692.5950, 1613.583
693.7520, 1827.912
694.9080, 2276.904
696.0650, 2799.701
697.2210, 3423.228
698.3770, 4110.334
699.5330, 5082.269
700.6880, 6404.729
701.8440, 8064.596
702.9990, 10167.46
704.1550, 12826.23
705.3100, 16062.96
706.4650, 19604.64
707.6190, 23889.29
708.7740, 28399.88
709.9290, 32994.44
711.0830, 37594.95
712.2370, 40768.40
713.3910, 42354.82
714.5450, 41779.20
715.6980, 38886.53
716.8520, 34628.82
718.0050, 29600.06
719.1580, 24352.26
720.3110, 20095.42
721.4640, 16526.53
722.6170, 13406.60
723.7700, 10836.59
724.9220, 8763.861
726.0740, 7094.562
727.2260, 5928.467
728.3780, 4890.326
729.5300, 4244.147
730.6810, 3589.927
731.8330, 3108.664
732.9840, 2615.362
734.1350, 2096.056
735.2860, 1862.766
736.4370, 1527.500
737.5880, 1398.304
738.7380, 1131.186
739.8880, 970.1377
741.0390, 903.1826
742.1890, 824.3096
743.3380, 843.5107
744.4880, 762.7432
745.6380, 720.9658
746.7870, 725.1533
747.9360, 683.3057
749.0850, 787.4199
750.2340, 744.4990
751.3830, 946.5430
752.5310, 912.5518
753.6800, 1340.526
754.8280, 1528.467
755.9760, 1817.374
757.1240, 2302.247
758.2720, 2748.086
759.4190, 3235.894
760.5670, 3970.668
761.7140, 4584.410
762.8610, 5051.121
764.0080, 5741.801
765.1550, 6178.447
766.3020, 6610.064
767.4480, 6622.650
768.5950, 6597.205
769.7410, 6172.729
770.8870, 5695.297
772.0330, 5131.160
773.1780, 4441.422
774.3240, 3797.150
775.4690, 3269.110
776.6140, 2623.360
777.7590, 2237.886
778.9040, 1770.484
780.0490, 1476.060
781.1940, 1227.609
782.3380, 870.1348
783.4820, 705.6338
784.6260, 558.1084
785.7700, 476.5615
786.9140, 304.9893
788.0580, 303.3926
789.2010, 8.771484
790.3450, 15.91113
791.4880, 86.24414
792.6310, 98.52637
793.7730, 50.82031
794.9160, 126.5938
796.0590, 45.28027
797.2010, 91.21484
798.3430, 213.8623
799.4850, 264.7197
800.6270, 103.3525
801.7690, 266.0508
802.9100, 223.8398
804.0520, 93.65527
805.1930, 132.4043
806.3340, 82.90723
807.4750, 25.66309
808.6160, 25.11719
809.7560, 51.51855
810.8970, 128.2549
812.0370, 123.9756
813.1770, 187.6914
814.3170, 104.3926
815.4570, 302.0771
816.5960, 97.75098
817.7360, 205.5918
818.8750, 123.0713
820.0140, 118.6416
821.1530, 132.3008
822.2920, 227.0537
823.4310, 231.9492
824.5690, 203.9883
825.7070, 135.1553
826.8460, 244.4131
827.9840, 350.8174
829.1220, 49.42285
830.2590, 119.0703
831.3970, 64.79395
832.5340, 228.5664
833.6710, 62.46777
834.8080, 126.4141
835.9450, 143.4326
837.0820, 50.53320
838.2190, 134.3350
839.3550, 117.1973
840.4910, 145.0576
841.6270, 369.9160
842.7630, 416.7734
843.8990, 574.6309
845.0350, 494.4863
846.1700, 619.3438
847.3060, 728.2012
848.4410, 733.0605
849.5760, 905.9209
850.7100, 999.7832
851.8450, 972.6484
852.9800, 1242.518
854.1140, 1386.389
855.2480, 1511.265
856.3820, 1525.145
857.5160, 1745.029
858.6500, 1778.920
859.7830, 1904.816
860.9170, 2231.719
862.0500, 2086.629
863.1830, 2169.545
864.3160, 2059.471
865.4480, 2105.402
866.5810, 1943.344
867.7130, 1869.294
868.8460, 1866.254
869.9780, 1683.225
871.1100, 1665.205
872.2410, 1578.197
873.3730, 1819.200
874.5050, 1763.217
875.6360, 1778.269
876.7670, 1856.335
877.8980, 1804.441
879.0290, 1873.565
880.1590, 1968.749
881.2900, 1758.945
882.4200, 1994.203
883.5500, 2111.522
884.6800, 2143.935
885.8100, 2356.396
886.9400, 2355.925
888.0690, 2615.502
889.1990, 2910.093
890.3280, 3387.729
891.4570, 3727.414
892.5860, 4350.118
893.7140, 4989.865
894.8430, 5529.629
895.9710, 6339.432
897.1000, 7167.246
898.2280, 7838.078
899.3560, 8613.928
900.4830, 9678.806
901.6110, 10568.70
902.7380, 11483.62
903.8660, 12070.55
904.9930, 13027.51
906.1200, 13345.49
907.2460, 13132.49
908.3730, 12535.53
909.5000, 11806.65
910.6260, 10792.82
911.7520, 9779.030
912.8780, 8660.270
914.0040, 7443.529
915.1290, 6519.808
916.2550, 5631.107
917.3800, 4838.426
918.5050, 4254.767
919.6300, 3657.146
920.7550, 3363.547
921.8800, 2928.978
923.0040, 2581.380
924.1290, 2542.810
925.2530, 2266.828
926.3770, 2285.535
927.5010, 2086.528
928.6250, 2074.581
929.7480, 2214.890
930.8720, 2325.848
931.9950, 2028.022
933.1180, 2285.781
934.2410, 2121.053
935.3640, 2091.417
936.4860, 2198.065
937.6090, 2111.656
938.7310, 2331.037
939.8530, 2573.688
940.9750, 2505.100
942.0970, 2752.834
943.2180, 2953.889
944.3400, 3231.112
945.4610, 3668.807
946.5820, 4017.201
947.7030, 4620.635
948.8240, 4993.377
949.9450, 5658.766
951.0650, 6396.689
952.1860, 7300.143
953.3060, 8035.421
954.4260, 9135.009
955.5460, 10469.00
956.6650, 11887.28
957.7850, 13607.75
958.9040, 15616.06
960.0230, 17525.26
961.1420, 20010.94
962.2610, 22085.92
963.3800, 23757.38
964.4990, 24615.58
965.6170, 24344.88
966.7350, 23702.53
967.8530, 22222.36
968.9710, 20786.47
970.0890, 19521.00
971.2070, 18586.71
972.3240, 18508.90
973.4410, 18446.69
974.5580, 19410.48
975.6750, 20237.37
976.7920, 21318.30
977.9090, 22800.29
979.0250, 23927.32
980.1410, 24269.40
981.2580, 24274.53
982.3740, 23576.71
983.4890, 22573.93
984.6050, 21242.20
985.7200, 20146.53
986.8360, 19160.90
987.9510, 18492.32
989.0660, 17765.79
990.1810, 17894.31
991.2950, 17621.88
992.4100, 18009.50
993.5240, 18091.16
994.6390, 18750.88
995.7530, 19127.64
996.8660, 20129.45
997.9800, 21207.32
999.0940, 21888.23
1000.207, 22453.18
1001.320, 23004.20
1002.433, 23068.26
1003.546, 23007.36
1004.659, 22228.52
1005.772, 20830.73
1006.884, 19156.31
1007.996, 17170.63
1009.108, 15217.18
1010.220, 13252.28
1011.332, 11856.51
1012.444, 10200.83
1013.555, 8859.948
1014.666, 7540.699
1015.777, 6578.567
1016.888, 5970.000
1017.999, 5316.025
1019.110, 5119.953
1020.220, 4722.154
1021.331, 4685.660
1022.441, 4526.562
1023.551, 4377.338
1024.661, 4544.878
1025.770, 4773.922
1026.880, 4911.671
1027.989, 4906.525
1029.098, 4690.368
1030.207, 4682.559
1031.316, 4495.790
1032.425, 4085.062
1033.533, 3817.612
1034.642, 3463.965
1035.750, 3219.129
1036.858, 3135.558
1037.966, 2918.632
1039.073, 2849.139
1040.181, 2909.684
1041.288, 2882.269
1042.396, 2899.892
1043.503, 2730.553
1044.610, 2798.252
1045.716, 2711.988
1046.823, 2783.762
1047.929, 2806.573
1049.036, 3051.422
1050.142, 3309.305
1051.248, 3515.227
1052.353, 3893.886
1053.459, 3978.881
1054.564, 4194.189
1055.670, 4200.529
1056.775, 4068.633
1057.880, 4153.771
1058.985, 3961.505
1060.089, 3818.584
1061.194, 3605.236
1062.298, 3231.250
1063.402, 3201.575
1064.506, 2849.084
1065.610, 2256.441
1066.713, 2334.764
1067.817, 2116.557
1068.920, 1935.732
1070.023, 1870.238
1071.126, 1880.803
1072.229, 1901.480
1073.332, 2112.751
1074.435, 2386.026
1075.537, 2603.733
1076.639, 3123.008
1077.741, 3550.848
1078.843, 4264.268
1079.945, 5003.453
1081.046, 5456.944
1082.148, 6075.678
1083.249, 6297.201
1084.350, 6658.744
1085.451, 6490.751
1086.551, 6037.404
1087.652, 5362.179
1088.752, 4820.954
1089.853, 4187.793
1090.953, 3570.720
1092.053, 3229.735
1093.152, 2874.829
1094.252, 2465.984
1095.351, 2392.229
1096.451, 2235.588
1097.550, 2038.945
1098.649, 1915.396
1099.748, 1954.884
1100.846, 2008.453
1101.945, 1864.016
1103.043, 1957.672
1104.141, 2028.386
1105.239, 2042.296
1106.337, 2022.056
1107.434, 1900.168
1108.532, 1861.958
1109.629, 1814.762
1110.726, 1798.581
1111.823, 1476.413
1112.920, 1530.260
1114.017, 1328.118
1115.113, 1263.991
1116.210, 1037.875
1117.306, 987.7715
1118.402, 990.6797
1119.498, 802.6006
1120.593, 786.5312
1121.689, 816.4727
1122.784, 846.4238
1123.879, 554.3857
1124.974, 585.3564
1126.069, 511.3369
1127.164, 517.3262
1128.259, 472.2842
1129.353, 320.3301
1130.447, 351.3428
1131.541, 236.3643
1132.635, 111.3926
1133.729, 238.4268
1134.822, 41.46680
1135.916, 223.5137
1137.009, 82.56543
1138.102, 15.37598
1139.195, 6.681641
1140.288, 127.2578
1141.380, 28.24414
1142.473, 133.2363
1143.565, 57.27930
1144.657, 205.3408
1145.749, 3.493164
1146.841, 211.6494
1147.932, 217.9023
1149.024, 320.2598
1150.115, 156.7773
1151.206, 222.3672
1152.297, 145.0664
1153.388, 26.16211
1154.479, 128.6084
1155.569, 138.4434
1156.659, 24.34961
1157.750, 105.2686
1158.839, 2.756836
1159.929, 80.22363
1161.019, 91.75195
1162.108, 76.72559
1163.198, 21.69629
1164.287, 40.33496
1165.376, 61.60645
1166.465, 9.456055
1167.553, 144.4668
1168.642, 3.613281
1169.730, 167.2930
1170.818, 83.19531
1171.906, 234.0918
1172.994, 28.98438
1174.082, 272.8721
1175.170, 23.75391
1176.257, 148.6289
1177.344, 105.4971
1178.431, 89.35938
1179.518, 145.2148
1180.605, 168.0654
1181.691, 151.9062
1182.778, 38.25879
1183.864, 45.53027
1184.950, 3.313477
1186.036, 58.92969
1187.122, 89.76953
1188.207, 116.4600
1189.292, 74.85938
1190.378, 30.24805
1191.463, 69.23438
1192.548, 120.1875
1193.632, 138.7881
1194.717, 59.49707
1195.801, 214.2734
1196.886, 36.19727
1197.970, 232.1787
1199.054, 28.32031
1200.137, 15.51660
1201.221, 75.23828
1202.305, 73.97852
1203.388, 11.70215
1204.471, 161.3896
1205.554, 8.060547
1206.637, 0.6914060
1207.719, 6.722656
1208.802, 114.8115
1209.884, 24.33008
1210.966, 92.81348
1212.048, 67.27930
1213.130, 155.7236
1214.212, 123.1504
1215.293, 0.4394530
1216.374, 203.9189
1217.456, 98.25977
1218.536, 215.5811
1219.617, 255.8848
1220.698, 175.1689
1221.778, 163.4336
1222.859, 153.6787
1223.939, 125.9062
1225.019, 172.1133
1226.099, 179.2988
1227.178, 0.2558590
1228.258, 202.2627
1229.337, 318.9678
1230.417, 354.4814
1231.496, 65.66406
1232.574, 195.5713
1233.653, 157.6553
1234.732, 112.8389
1235.810, 301.6279
1236.888, 59.85254
