##NAMES=Axinite-(Fe)
##RRUFFID=R060558
##IDEAL CHEMISTRY=Ca_4_Fe^2+^_2_Al_4_[B_2_Si_8_O_30_](OH)_2_
##LOCALITY=unknown
##OWNER=RRUFF
##SOURCE=Gemological Institute of America
##DESCRIPTION=Brown flattened crystal
##STATUS=The identification of this mineral has been confirmed by X-ray diffraction and chemical analysis
##URL=rruff.info/R060558
##MEASURED CHEMISTRY=Ca_2.00_(Fe^2+^_0.60_Mg_0.35_Mn_0.05_)_Î£=1_Al_2.00_BSi_4.00_O_15_(OH) ; B not measured
##PIN_ID=M01972
##ORIENTATION=Laser parallel to (1 0 1). Fiducial mark perpendicular to laser is parallel to -b [0 -1 0]
126.3770, 0.0000000E+00
127.6190, 125.9414
128.8600, 160.3901
130.1020, 116.2529
131.3430, 4.477539
132.5840, 12.65674
133.8240, 38.98730
135.0650, 93.40430
136.3050, 266.5581
137.5450, 483.3564
138.7850, 1154.893
140.0250, 1605.740
141.2640, 2390.149
142.5030, 3219.271
143.7430, 3902.427
144.9810, 4835.128
146.2200, 5745.007
147.4590, 7023.771
148.6970, 8292.183
149.9350, 9147.062
151.1730, 9427.246
152.4110, 9379.888
153.6480, 8568.801
154.8860, 7607.502
156.1230, 6811.229
157.3600, 6003.079
158.5960, 5233.152
159.8330, 4900.476
161.0690, 5064.081
162.3050, 5335.985
163.5410, 5560.208
164.7770, 6065.739
166.0130, 6747.555
167.2480, 7330.647
168.4830, 8114.007
169.7180, 8707.630
170.9530, 9081.520
172.1880, 8977.671
173.4220, 8475.086
174.6560, 7619.756
175.8900, 6542.689
177.1240, 5240.879
178.3580, 4301.425
179.5910, 3210.169
180.8250, 2555.724
182.0580, 1936.759
183.2900, 1625.663
184.5230, 1466.952
185.7560, 1326.612
186.9880, 1319.925
188.2200, 1372.224
189.4520, 1525.934
190.6830, 1910.938
191.9150, 2112.264
193.1460, 1980.938
194.3770, 1771.960
195.6080, 1602.317
196.8390, 1181.000
198.0700, 921.0039
199.3000, 809.3174
200.5300, 922.8716
201.7600, 984.4771
202.9900, 1134.110
204.2190, 1644.796
205.4490, 1877.576
206.6780, 2247.479
207.9070, 2655.518
209.1360, 2888.704
210.3640, 3396.042
211.5930, 3753.536
212.8210, 3949.194
214.0490, 4095.104
215.2770, 4080.390
216.5040, 3997.147
217.7320, 3734.458
218.9590, 3412.931
220.1860, 2968.563
221.4130, 2507.356
222.6400, 1976.308
223.8660, 1538.416
225.0920, 1030.678
226.3190, 663.0952
227.5450, 309.6533
228.7700, 33.65576
229.9960, 120.8354
231.2210, 276.8843
232.4460, 416.8042
233.6710, 487.5957
234.8960, 387.2607
236.1210, 94.79932
237.3450, 125.6416
238.5690, 70.49561
239.7930, 80.32617
241.0170, 417.2764
242.2410, 637.3462
243.4640, 1028.533
244.6870, 1339.836
245.9100, 1766.079
247.1330, 2190.422
248.3560, 2464.063
249.5780, 2866.677
250.8000, 3287.746
252.0230, 3439.507
253.2440, 3646.760
254.4660, 3383.425
255.6880, 3392.763
256.9090, 3354.780
258.1300, 3398.313
259.3510, 3453.115
260.5720, 3546.033
261.7920, 3552.022
263.0130, 3784.058
264.2330, 4100.158
265.4530, 4399.366
266.6730, 4555.744
267.8920, 4930.237
269.1120, 4924.819
270.3310, 4958.445
271.5500, 4777.104
272.7690, 4587.797
273.9880, 4204.822
275.2060, 3846.395
276.4240, 3486.512
277.6430, 3359.866
278.8600, 3214.674
280.0780, 3188.095
281.2960, 3013.810
282.5130, 3069.989
283.7300, 3051.495
284.9470, 3164.301
286.1640, 3066.381
287.3810, 3032.718
288.5970, 2943.287
289.8130, 3016.071
291.0290, 2866.055
292.2450, 3106.226
293.4610, 3293.574
294.6760, 3594.088
295.8910, 3972.764
297.1060, 4571.590
298.3210, 5081.562
299.5360, 5728.674
300.7510, 6266.893
301.9650, 6710.208
303.1790, 7332.621
304.3930, 7791.127
305.6070, 7991.726
306.8200, 7797.417
308.0340, 7480.198
309.2470, 6905.069
310.4600, 6351.027
311.6730, 5616.069
312.8850, 4733.195
314.0980, 4278.405
315.3100, 3865.695
316.5220, 3755.065
317.7340, 3598.513
318.9460, 3432.038
320.1570, 3208.791
321.3690, 3034.312
322.5800, 2718.060
323.7910, 2402.879
325.0010, 2174.720
326.2120, 1932.345
327.4220, 1824.673
328.6330, 1847.019
329.8430, 1763.446
331.0520, 1914.954
332.2620, 2112.537
333.4720, 2342.195
334.6810, 2780.922
335.8900, 3355.717
337.0990, 4035.577
338.3070, 4906.503
339.5160, 5834.490
340.7240, 6927.540
341.9320, 8162.646
343.1400, 9184.812
344.3480, 9949.033
345.5560, 9986.308
346.7630, 9906.641
347.9700, 9266.020
349.1770, 8423.453
350.3840, 7456.942
351.5910, 6569.481
352.7970, 5269.073
354.0040, 4449.714
355.2100, 3380.405
356.4160, 2445.146
357.6220, 1674.935
358.8270, 1142.771
360.0320, 632.6538
361.2380, 308.5820
362.4430, 79.55518
363.6470, 104.4277
364.8520, 184.3838
366.0560, 212.3281
367.2610, 115.2661
368.4650, 262.1816
369.6690, 143.1021
370.8720, 77.00586
372.0760, 17.88184
373.2790, 53.89404
374.4820, 184.6045
375.6850, 370.4570
376.8880, 555.0552
378.0910, 863.7651
379.2930, 1208.722
380.4950, 1739.371
381.6970, 2411.627
382.8990, 3225.922
384.1010, 4378.471
385.3020, 5456.312
386.5040, 6689.955
387.7050, 7606.084
388.9060, 8675.315
390.1060, 9420.503
391.3070, 9903.037
392.5070, 9938.867
393.7080, 9324.930
394.9080, 8371.408
396.1070, 7106.903
397.3070, 5791.704
398.5070, 4722.422
399.7060, 3887.353
400.9050, 3118.325
402.1040, 2635.231
403.3030, 2212.089
404.5010, 1778.805
405.7000, 1610.913
406.8980, 1482.501
408.0960, 1623.615
409.2940, 1537.761
410.4910, 1712.355
411.6890, 1819.949
412.8860, 2179.543
414.0830, 2534.136
415.2800, 2959.726
416.4770, 3467.315
417.6730, 3695.901
418.8690, 4262.513
420.0660, 4616.153
421.2620, 4820.821
422.4570, 5336.518
423.6530, 5843.249
424.8480, 6007.002
426.0440, 6234.781
427.2390, 6416.579
428.4340, 6230.392
429.6280, 6006.221
430.8230, 5473.062
432.0170, 4892.916
433.2110, 4244.780
434.4050, 3504.654
435.5990, 2951.537
436.7930, 2242.425
437.9860, 1813.319
439.1800, 1431.220
440.3730, 1098.124
441.5660, 943.0312
442.7580, 793.9409
443.9510, 713.8521
445.1430, 671.7637
446.3350, 659.6758
447.5270, 742.5864
448.7190, 755.4966
449.9110, 772.4043
451.1020, 882.3096
452.2930, 870.2114
453.4850, 1032.110
454.6750, 1121.003
455.8660, 1184.892
457.0570, 1310.775
458.2470, 1169.652
459.4370, 1205.521
460.6270, 1334.384
461.8170, 1470.239
463.0070, 1446.084
464.1960, 1614.921
465.3850, 1773.749
466.5750, 2061.565
467.7630, 2283.372
468.9520, 2686.166
470.1410, 2973.950
471.3290, 3235.726
472.5170, 3716.492
473.7050, 4445.248
474.8930, 5340.992
476.0810, 6570.727
477.2680, 8567.446
478.4560, 10582.16
479.6430, 13246.86
480.8300, 15694.54
482.0160, 18217.21
483.2030, 21134.86
484.3890, 22775.51
485.5760, 23269.13
486.7620, 22428.74
487.9480, 19736.33
489.1330, 16310.91
490.3190, 12928.47
491.5040, 9813.011
492.6890, 7400.534
493.8740, 5689.040
495.0590, 4260.525
496.2440, 3599.991
497.4280, 2835.438
498.6120, 2573.864
499.7960, 2306.270
500.9800, 2044.654
502.1640, 1864.016
503.3470, 1948.356
504.5310, 1791.674
505.7140, 1679.969
506.8970, 1576.146
508.0800, 1457.149
509.2620, 1254.924
510.4450, 968.7578
511.6270, 720.2974
512.8090, 444.1602
513.9910, 252.2471
515.1730, 104.7183
516.3550, 106.4878
517.5360, 204.7051
518.7170, 368.9922
519.8980, 420.3916
521.0790, 366.9004
522.2600, 456.4878
523.4400, 443.2056
524.6210, 440.1309
525.8010, 398.2715
526.9810, 321.6284
528.1610, 253.1943
529.3400, 163.9673
530.5200, 4.928223
531.6990, 2.994629
532.8780, 129.8335
534.0570, 225.6094
535.2360, 148.3506
536.4140, 297.0425
537.5930, 309.7046
538.7710, 234.3354
539.9490, 248.9297
541.1270, 123.4897
542.3040, 123.9922
543.4820, 67.43652
544.6590, 5.194824
545.8360, 75.05957
547.0130, 168.2397
548.1900, 17.36963
549.3670, 233.3960
550.5430, 171.3818
551.7190, 377.3169
552.8960, 399.2183
554.0710, 591.0854
555.2470, 901.9185
556.4230, 1040.717
557.5980, 1386.482
558.7730, 1499.212
559.9480, 1752.906
561.1230, 1902.565
562.2980, 1823.189
563.4720, 1797.777
564.6470, 1679.328
565.8210, 1439.841
566.9950, 1314.317
568.1690, 1170.757
569.3420, 1314.158
570.5160, 1285.521
571.6890, 1368.847
572.8620, 1311.133
574.0350, 1594.380
575.2080, 1522.589
576.3800, 1703.758
577.5530, 1696.888
578.7250, 1851.979
579.8970, 1868.028
581.0690, 1887.039
582.2410, 1913.008
583.4120, 1957.937
584.5830, 1942.827
585.7550, 1974.674
586.9260, 2100.480
588.0960, 2255.246
589.2670, 2181.970
590.4380, 1978.653
591.6080, 1879.293
592.7780, 1638.893
593.9480, 1379.450
595.1180, 1283.964
596.2870, 1279.437
597.4570, 997.8672
598.6260, 1093.255
599.7950, 1008.600
600.9640, 1164.902
602.1330, 1303.163
603.3010, 1626.379
604.4700, 1947.553
605.6380, 2294.684
606.8060, 2916.770
607.9740, 3544.813
609.1420, 4401.814
610.3090, 5291.770
611.4760, 6531.684
612.6440, 7689.553
613.8110, 9265.378
614.9770, 10314.16
616.1440, 11542.90
617.3110, 12738.59
618.4770, 13435.24
619.6430, 13601.85
620.8090, 13305.41
621.9750, 12145.93
623.1400, 10776.40
624.3060, 9079.824
625.4710, 7324.209
626.6360, 5732.549
627.8010, 4295.843
628.9660, 3147.094
630.1300, 2429.299
631.2950, 1700.461
632.4590, 1368.577
633.6230, 1066.650
634.7870, 839.6777
635.9510, 794.6606
637.1140, 732.5996
638.2780, 566.4932
639.4410, 784.3423
640.6040, 727.1475
641.7670, 786.9077
642.9290, 897.6235
644.0920, 946.2949
645.2540, 845.9224
646.4160, 1015.015
647.5780, 720.9736
648.7400, 763.6616
649.9020, 771.3838
651.0630, 689.4512
652.2250, 707.4321
653.3860, 631.8740
654.5470, 689.3384
655.7080, 736.0215
656.8680, 820.0161
658.0290, 789.0493
659.1890, 953.2017
660.3490, 1008.238
661.5090, 1273.045
662.6690, 1481.797
663.8280, 1757.347
664.9880, 2110.956
666.1470, 2583.133
667.3060, 3273.547
668.4650, 3963.121
669.6240, 4745.287
670.7820, 5778.327
671.9410, 6824.383
673.0990, 7877.046
674.2570, 8675.307
675.4150, 9276.232
676.5720, 9657.667
677.7300, 9325.060
678.8870, 8855.114
680.0450, 7891.225
681.2020, 6907.089
682.3590, 5990.878
683.5150, 5159.696
684.6720, 4438.521
685.8280, 3904.447
686.9840, 3477.941
688.1400, 3209.911
689.2960, 3104.315
690.4520, 3053.645
691.6070, 3112.706
692.7630, 3394.279
693.9180, 3508.032
695.0730, 3941.741
696.2280, 4356.412
697.3820, 5053.037
698.5370, 6014.618
699.6910, 6871.159
700.8450, 8166.655
701.9990, 9916.114
703.1530, 12090.53
704.3070, 14929.90
705.4600, 18161.23
706.6130, 21759.53
707.7660, 26073.78
708.9190, 30461.99
710.0720, 34298.16
711.2250, 38220.29
712.3770, 40799.38
713.5300, 41601.43
714.6820, 40638.46
715.8340, 37930.43
716.9850, 34073.37
718.1370, 28924.27
719.2880, 24470.13
720.4400, 19572.95
721.5910, 15822.74
722.7420, 12711.49
723.8930, 10085.21
725.0430, 8249.883
726.1940, 6727.525
727.3440, 5496.132
728.4940, 4732.704
729.6440, 3943.241
730.7940, 3420.744
731.9430, 2844.212
733.0930, 2703.646
734.2420, 2127.046
735.3910, 1942.413
736.5400, 1738.747
737.6890, 1437.049
738.8370, 1378.318
739.9860, 1152.556
741.1340, 1174.762
742.2820, 887.9370
743.4300, 1043.082
744.5780, 988.1953
745.7250, 769.2788
746.8730, 858.3325
748.0200, 797.3574
749.1670, 976.3535
750.3140, 920.3203
751.4610, 1090.259
752.6070, 1269.171
753.7540, 1391.055
754.9000, 1472.912
756.0460, 1794.742
757.1920, 1776.547
758.3380, 2144.326
759.4830, 2384.080
760.6280, 2696.809
761.7740, 3029.514
762.9190, 3303.194
764.0640, 3569.853
765.2080, 3629.487
766.3530, 3696.100
767.4970, 3646.689
768.6420, 3458.259
769.7860, 3187.808
770.9300, 2726.335
772.0730, 2426.844
773.2170, 2077.333
774.3600, 1802.804
775.5040, 1519.256
776.6470, 1160.691
777.7900, 662.1089
778.9320, 750.5107
780.0750, 456.8960
781.2170, 188.2651
782.3600, 212.6196
783.5020, 8.040039
784.6440, 103.7651
785.7850, 85.60400
786.9270, 247.5454
788.0680, 207.6743
789.2100, 303.9663
790.3510, 409.4727
791.4920, 285.2461
792.6320, 413.2197
793.7730, 428.4492
794.9130, 372.8906
796.0540, 448.4858
797.1940, 471.2295
798.3340, 435.1172
799.4730, 497.1421
800.6130, 374.3096
801.7520, 329.5576
802.8920, 301.8604
804.0310, 186.2119
805.1700, 61.56934
806.3090, 85.11816
807.4470, 420.8818
808.5860, 680.6812
809.7240, 954.5166
810.8620, 1035.361
812.0000, 1580.209
813.1380, 1660.065
814.2750, 1764.922
815.4130, 1624.782
816.5500, 1546.646
817.6870, 1371.514
818.8240, 1211.399
819.9610, 949.3018
821.0980, 734.2310
822.2340, 454.2056
823.3700, 345.2080
824.5070, 248.2251
825.6430, 262.2847
826.7780, 137.3560
827.9140, 73.44385
829.0500, 74.54102
830.1850, 26.64795
831.3200, 29.76416
832.4550, 20.89014
833.5900, 51.02588
834.7250, 57.17334
835.8590, 130.3340
836.9930, 216.5073
838.1280, 189.6948
839.2620, 289.8965
840.3950, 324.1128
841.5290, 453.3452
842.6630, 503.5938
843.7960, 660.0918
844.9290, 899.1392
846.0620, 958.4385
847.1950, 1094.755
848.3280, 1185.091
849.4600, 1195.446
850.5930, 1363.821
851.7250, 1304.216
852.8570, 1425.632
853.9890, 1478.069
855.1210, 1376.528
856.2520, 1391.010
857.3840, 1308.515
858.5150, 1342.042
859.6460, 1313.595
860.7770, 1260.171
861.9080, 1169.773
863.0380, 1164.399
864.1690, 1186.052
865.2990, 1015.732
866.4290, 1080.438
867.5590, 947.1724
868.6890, 936.9351
869.8190, 846.7256
870.9480, 882.5459
872.0770, 831.3955
873.2070, 861.2749
874.3360, 849.1846
875.4640, 869.1255
876.5930, 960.0977
877.7220, 844.1025
878.8500, 932.1396
879.9780, 1130.209
881.1060, 985.3120
882.2340, 1141.449
883.3620, 1146.621
884.4890, 1185.828
885.6170, 1310.070
886.7440, 1689.358
887.8710, 1847.697
888.9980, 2022.081
890.1240, 2562.508
891.2510, 2762.972
892.3770, 3335.475
893.5040, 3835.041
894.6300, 4459.650
895.7560, 4883.312
896.8810, 5294.028
898.0070, 5879.785
899.1330, 6117.617
900.2580, 6359.500
901.3830, 6427.431
902.5080, 6322.443
903.6330, 6312.502
904.7570, 6206.610
905.8820, 5875.802
907.0060, 5465.088
908.1300, 5121.439
909.2540, 4587.867
910.3780, 4143.358
911.5020, 3592.906
912.6250, 3173.522
913.7490, 2977.199
914.8720, 2550.929
915.9950, 2155.714
917.1180, 2097.467
918.2400, 2078.487
919.3630, 1981.970
920.4850, 1922.641
921.6080, 1951.633
922.7300, 2009.626
923.8520, 2128.531
924.9730, 2327.258
926.0950, 2530.727
927.2160, 2861.197
928.3380, 3224.852
929.4590, 3530.785
930.5800, 3697.444
931.7010, 3962.617
932.8210, 4012.622
933.9420, 4035.152
935.0620, 4266.051
936.1820, 4502.928
937.3020, 4653.869
938.4220, 4906.810
939.5420, 5234.271
940.6610, 5872.820
941.7810, 6471.343
942.9000, 7498.958
944.0190, 8504.682
945.1380, 9556.506
946.2570, 11265.45
947.3750, 12711.46
948.4940, 14584.56
949.6120, 16411.73
950.7300, 18123.98
951.8480, 20106.34
952.9660, 21909.78
954.0830, 23392.31
955.2010, 24871.93
956.3180, 26839.64
957.4350, 28929.43
958.5520, 30888.30
959.6690, 33220.25
960.7860, 35572.30
961.9020, 37987.43
963.0190, 39008.64
964.1350, 39394.96
965.2510, 38546.35
966.3670, 36674.84
967.4830, 33650.39
968.5980, 30467.03
969.7140, 27249.75
970.8290, 24265.54
971.9440, 22656.40
973.0590, 20869.35
974.1740, 19955.36
975.2880, 19661.46
976.4030, 19220.62
977.5170, 19185.87
978.6310, 18901.19
979.7450, 18329.59
980.8590, 17410.08
981.9730, 16669.63
983.0860, 15333.26
984.2000, 14266.97
985.3130, 13355.75
986.4260, 12418.73
987.5390, 11639.55
988.6520, 11037.56
989.7640, 10368.64
990.8770, 10040.81
991.9890, 9901.051
993.1010, 9596.365
994.2130, 9457.758
995.3250, 9455.218
996.4370, 9566.755
997.5480, 9963.368
998.6590, 10514.05
999.7710, 10985.81
1000.882, 11592.65
1001.993, 12079.56
1003.103, 12146.54
1004.214, 12305.59
1005.324, 11868.72
1006.434, 11331.92
1007.545, 10480.19
1008.655, 9374.530
1009.764, 8627.944
1010.874, 7517.430
1011.983, 6564.989
1013.093, 5433.617
1014.202, 4870.317
1015.311, 4086.088
1016.420, 3532.930
1017.528, 3092.919
1018.637, 2631.902
1019.745, 2456.905
1020.854, 2150.902
1021.962, 1985.970
1023.070, 1746.108
1024.177, 1761.439
1025.285, 1610.980
1026.392, 1572.325
1027.500, 1401.035
1028.607, 1364.076
1029.714, 1288.692
1030.821, 1228.447
1031.927, 1250.991
1033.034, 970.2842
1034.140, 908.1753
1035.246, 914.3965
1036.352, 949.4014
1037.458, 929.3140
1038.564, 941.9272
1039.670, 988.6777
1040.775, 1021.719
1041.880, 1087.906
1042.986, 1158.293
1044.090, 1253.897
1045.195, 1372.333
1046.300, 1553.125
1047.404, 1696.351
1048.509, 1844.475
1049.613, 2090.705
1050.717, 2362.843
1051.821, 2668.349
1052.925, 2895.057
1054.028, 3237.469
1055.132, 3583.855
1056.235, 3892.877
1057.338, 4126.212
1058.441, 4398.699
1059.544, 4548.979
1060.647, 4723.538
1061.749, 4828.979
1062.851, 4519.482
1063.954, 4288.172
1065.056, 3989.281
1066.158, 3785.801
1067.259, 3430.017
1068.361, 2888.943
1069.462, 2888.354
1070.564, 2581.944
1071.665, 2557.734
1072.766, 2529.525
1073.867, 2577.056
1074.967, 2821.442
1076.068, 3090.847
1077.168, 3350.570
1078.268, 3674.617
1079.368, 4023.294
1080.468, 4633.448
1081.568, 4671.647
1082.668, 5087.387
1083.767, 5023.703
1084.866, 4796.455
1085.966, 4282.464
1087.065, 3914.419
1088.163, 3237.020
1089.262, 2750.331
1090.361, 2499.479
1091.459, 2138.003
1092.557, 1962.521
1093.655, 1816.855
1094.753, 1701.285
1095.851, 1766.366
1096.949, 1888.906
1098.046, 1976.746
1099.143, 2147.554
1100.241, 2285.847
1101.338, 2550.080
1102.434, 2820.483
1103.531, 3104.579
1104.628, 3226.467
1105.724, 3545.197
1106.820, 3450.946
1107.916, 3386.718
1109.012, 3351.279
1110.108, 3045.164
1111.204, 2881.720
1112.299, 2753.640
1113.395, 2449.689
1114.490, 2212.977
1115.585, 2007.040
1116.680, 1640.099
1117.775, 1493.662
1118.869, 1411.462
1119.964, 1208.597
1121.058, 1196.654
1122.152, 1089.536
1123.246, 979.1182
1124.340, 803.1279
1125.434, 888.2622
1126.527, 732.4829
1127.620, 750.6733
1128.714, 628.3379
1129.807, 533.8203
1130.900, 454.8848
1131.992, 455.3936
1133.085, 445.4727
1134.178, 457.6919
1135.270, 333.1699
1136.362, 277.2661
1137.454, 306.3682
1138.546, 202.4736
1139.638, 177.5815
1140.729, 169.6934
1141.821, 177.8091
1142.912, 186.9258
1144.003, 132.0425
1145.094, 117.1602
1146.185, 23.27637
1147.276, 43.39014
1148.366, 3.333984
1149.456, 20.77441
1150.547, 81.11963
1151.637, 102.8965
1152.727, 75.84668
1153.816, 43.82178
1154.906, 34.21143
1155.995, 7.758789
1157.085, 134.5303
1158.174, 48.54443
1159.263, 79.62158
1160.352, 88.72998
1161.441, 5.125000
1162.529, 169.0298
1163.618, 48.20068
1164.706, 59.25635
1165.794, 167.5503
1166.882, 30.92871
1167.970, 25.33105
1169.058, 177.7554
1170.145, 208.2778
1171.232, 91.81445
1172.320, 132.5103
1173.407, 79.17139
1174.494, 44.67627
1175.580, 91.24561
1176.667, 55.76611
1177.754, 27.74707
1178.840, 22.65869
1179.926, 70.70850
1181.012, 65.68652
1182.098, 83.99121
1183.184, 115.2344
1184.269, 42.56738
1185.355, 69.95459
1186.440, 59.41162
1187.525, 59.93555
1188.610, 41.52832
1189.695, 1.183594
1190.780, 0.8803710
1191.864, 41.62256
1192.949, 21.43262
1194.033, 67.30322
1195.117, 52.84082
1196.201, 22.29443
1197.285, 12.39746
1198.369, 2.563965
1199.452, 63.20898
1200.536, 63.35449
1201.619, 64.19336
1202.702, 80.30566
1203.785, 26.98389
1204.868, 18.44873
1205.950, 63.80225
1207.033, 66.18066
1208.115, 84.62012
1209.197, 70.08740
1210.279, 34.66113
1211.361, 108.9658
1212.443, 82.43311
1213.525, 60.28320
1214.606, 34.88525
1215.687, 13.66895
1216.769, 60.38281
1217.850, 7.553711
1218.930, 58.00635
1220.011, 98.50439
1221.092, 88.70996
1222.172, 13.12598
1223.252, 104.3340
1224.333, 8.669922
1225.413, 35.96094
1226.492, 75.11768
1227.572, 70.24805
1228.652, 101.3638
1229.731, 96.15723
1230.810, 139.9946
1231.889, 134.7754
1232.968, 158.6592
1234.047, 185.5674
1235.126, 241.3140
1236.204, 260.9741
1237.283, 258.5098
1238.361, 109.1851
1239.439, 138.6270
1240.517, 159.2544
1241.595, 144.2695
1242.673, 214.5444
1243.750, 190.7715
1244.827, 226.1953
1245.905, 234.3193
1246.982, 181.5503
1248.059, 126.9385
1249.135, 237.0908
1250.212, 262.2573
1251.288, 176.2759
1252.365, 199.1372
1253.441, 367.8823
1254.517, 267.5776
1255.593, 252.3193
1256.669, 264.9111
1257.744, 209.4512
1258.820, 227.9873
1259.895, 381.4170
1260.970, 231.9150
1262.045, 346.7139
1263.120, 286.0342
1264.195, 245.5938
1265.270, 357.7588
1266.344, 405.3442
1267.418, 468.5415
1268.492, 414.5605
1269.566, 420.8477
1270.640, 421.3955
1271.714, 339.2559
1272.788, 398.1528
1273.861, 527.0146
1274.934, 397.7163
1276.007, 428.3691
1277.080, 311.9678
1278.153, 450.6006
1279.226, 423.2061
1280.299, 321.6934
1281.371, 380.3071
1282.443, 410.7617
1283.515, 350.1592
1284.587, 351.5298
1285.659, 303.6045
1286.731, 346.0806
1287.802, 369.3691
1288.874, 455.5054
1289.945, 442.9443
1291.016, 399.0020
1292.087, 336.2393
1293.158, 302.6035
1294.229, 405.3813
1295.299, 382.1211
1296.370, 397.9121
1297.440, 381.9297
1298.510, 467.0288
1299.580, 304.9766
1300.650, 386.0015
1301.720, 293.2437
