##NAMES=Axinite-(Fe)
##RRUFFID=R050026
##IDEAL CHEMISTRY=Ca_4_Fe^2+^_2_Al_4_[B_2_Si_8_O_30_](OH)_2_
##LOCALITY=Pouyva mine, Polar Urals, Western Siberian Region, Russia
##OWNER=RRUFF
##SOURCE=Rock Currier
##DESCRIPTION=Brown transparent flat crystal
##STATUS=The identification of this mineral has been confirmed by X-ray diffraction and chemical analysis
##URL=rruff.info/R050026
##MEASURED CHEMISTRY=Ca_2.00_(Fe^2+^_0.61_Mn_0.26_Mg_0.13_)Al_2.00_BSi_4_O_15_(OH)
##PIN_ID=L00219
##ORIENTATION=Laser parallel to (1 1 0). Fiducial mark perpendicular to laser is parallel to c [0 0 1]
88.260, 0.000
89.663, 8.694
91.065, 1.413
92.466, 123.775
93.868, 243.329
95.269, 347.606
96.670, 466.768
98.070, 709.537
99.471, 758.936
100.871, 992.337
102.271, 1467.225
103.670, 2130.610
105.070, 2919.563
106.469, 4516.056
107.868, 6917.855
109.267, 7051.246
110.665, 5835.688
112.063, 4764.617
113.461, 3686.234
114.859, 3002.573
116.256, 2554.040
117.653, 2222.069
119.050, 2077.020
120.447, 2032.188
121.843, 2204.820
123.240, 2155.261
124.636, 2176.507
126.031, 2145.020
127.427, 2033.162
128.822, 1669.093
130.217, 1454.947
131.612, 1043.840
133.006, 930.880
134.400, 1077.165
135.794, 1352.918
137.188, 1638.128
138.581, 1802.377
139.975, 1967.635
141.368, 1814.586
142.760, 1616.708
144.153, 1511.994
145.545, 1565.440
146.937, 1711.040
148.329, 1937.787
149.720, 2181.677
151.112, 2417.710
152.503, 2646.896
153.893, 2712.230
155.284, 2850.673
156.674, 2596.197
158.064, 2382.649
159.454, 1922.275
160.843, 1747.020
162.233, 1756.798
163.622, 2205.504
165.011, 2953.347
166.399, 3884.310
167.787, 4964.379
169.175, 5573.549
170.563, 5722.816
171.951, 5032.177
173.338, 4084.626
174.725, 3297.219
176.112, 2248.979
177.499, 1526.920
178.885, 847.042
180.271, 283.348
181.657, 98.169
183.043, 382.512
184.428, 459.689
185.813, 434.712
187.198, 309.589
188.583, 522.729
189.967, 301.061
191.351, 817.572
192.735, 993.199
194.119, 1034.934
195.502, 680.768
196.885, 584.665
198.268, 544.611
199.651, 718.603
201.033, 1192.643
202.415, 1805.730
203.797, 2673.864
205.179, 3516.045
206.561, 4453.273
207.942, 5293.537
209.323, 5905.834
210.703, 6148.159
212.084, 5980.568
213.464, 5833.260
214.844, 5316.193
216.224, 4819.201
217.603, 4079.229
218.983, 3437.020
220.362, 2732.183
221.741, 1818.933
223.119, 1166.684
224.497, 592.483
225.875, 254.331
227.253, 11.995
228.631, 124.987
230.008, 194.880
231.385, 240.546
232.762, 178.078
234.139, 290.883
235.515, 372.554
236.891, 483.618
238.267, 712.240
239.643, 920.889
241.018, 1273.552
242.393, 1381.055
243.768, 1620.278
245.143, 1727.437
246.517, 1964.626
247.891, 2114.845
249.265, 2529.094
250.639, 2797.372
252.012, 3366.679
253.386, 3864.013
254.759, 4008.836
256.131, 3934.345
257.504, 3654.333
258.876, 3398.927
260.248, 3288.973
261.620, 3346.368
262.991, 3687.038
264.363, 4186.924
265.734, 4713.986
267.104, 5302.185
268.475, 6028.479
269.845, 6504.844
271.215, 7021.259
272.585, 7467.713
273.955, 7534.195
275.324, 7540.695
276.693, 6867.208
278.062, 6273.711
279.431, 5470.128
280.799, 4579.460
282.167, 4014.717
283.535, 3576.907
284.903, 3394.044
286.270, 3265.130
287.638, 3390.173
289.005, 3623.179
290.371, 3707.133
291.738, 4041.034
293.104, 4251.887
294.470, 4547.697
295.836, 4786.469
297.201, 4899.207
298.567, 5063.913
299.932, 5146.414
301.296, 5134.691
302.661, 5288.883
304.025, 5382.646
305.389, 5526.441
306.753, 5300.265
308.117, 5049.118
309.480, 4567.000
310.843, 4466.909
312.206, 4868.847
313.569, 5399.809
314.931, 6463.798
316.293, 7637.811
317.655, 8621.848
319.017, 8795.908
320.378, 8569.993
321.740, 7484.101
323.101, 6168.199
324.461, 5202.054
325.822, 4267.612
327.182, 3747.166
328.542, 3353.746
329.902, 3283.355
331.261, 3290.990
332.621, 3447.926
333.980, 3860.965
335.339, 4398.928
336.697, 5394.209
338.056, 6467.953
339.414, 7709.268
340.772, 8783.399
342.129, 9207.372
343.487, 9231.220
344.844, 8505.086
346.201, 7449.640
347.557, 6756.460
348.914, 5978.547
350.270, 5802.308
351.626, 5274.023
352.982, 4664.599
354.337, 3674.586
355.693, 2656.589
357.048, 1822.608
358.402, 1128.644
359.757, 677.693
361.111, 241.758
362.465, 9.164
363.819, 45.153
365.173, 204.796
366.526, 221.234
367.879, 185.137
369.232, 56.431
370.585, 30.528
371.937, 83.116
373.290, 216.710
374.642, 169.441
375.993, 197.460
377.345, 235.403
378.696, 436.350
380.047, 744.302
381.398, 1221.772
382.748, 1798.220
384.099, 2581.189
385.449, 3440.169
386.799, 4455.159
388.148, 5003.159
389.497, 5389.167
390.847, 5471.135
392.196, 5484.958
393.544, 5187.757
394.893, 4653.740
396.241, 4072.700
397.589, 3448.170
398.936, 3001.938
400.284, 2517.713
401.631, 2232.495
402.978, 1850.283
404.325, 1694.078
405.672, 1439.880
407.018, 1257.691
408.364, 1308.511
409.710, 1470.339
411.055, 1813.176
412.401, 2542.021
413.746, 3232.875
415.091, 4181.735
416.435, 5087.604
417.780, 5538.484
419.124, 6072.371
420.468, 6516.262
421.812, 7040.153
423.155, 7574.042
424.498, 7777.928
425.842, 8131.807
427.184, 8105.679
428.527, 8269.543
429.869, 7753.401
431.211, 7177.249
432.553, 6121.088
433.895, 5049.917
435.236, 4198.735
436.577, 3289.543
437.918, 3028.342
439.259, 3114.128
440.599, 3397.904
441.940, 4015.670
443.280, 4518.427
444.619, 4613.172
445.959, 4123.908
447.298, 3447.635
448.637, 2520.353
449.976, 1920.060
451.315, 1395.759
452.653, 1122.449
453.991, 993.129
455.329, 898.801
456.667, 779.465
458.004, 646.120
459.341, 433.766
460.678, 352.404
462.015, 165.034
463.352, 201.659
464.688, 269.281
466.024, 372.903
467.360, 631.524
468.695, 781.146
470.031, 920.766
471.366, 960.426
472.701, 826.093
474.035, 844.736
475.370, 847.420
476.704, 1139.113
478.038, 1489.830
479.372, 1859.585
480.705, 2475.381
482.038, 2898.222
483.371, 3108.111
484.704, 3050.050
486.037, 2588.054
487.369, 1883.111
488.701, 1259.227
490.033, 729.404
491.365, 300.628
492.696, 30.895
494.027, 92.815
495.358, 186.578
496.689, 111.453
498.019, 134.258
499.350, 95.118
500.680, 29.020
502.009, 58.055
503.339, 219.090
504.668, 290.954
505.997, 452.816
507.326, 670.724
508.655, 833.763
509.983, 1109.959
511.311, 1256.291
512.639, 1375.748
513.967, 1345.280
515.295, 1136.828
516.622, 1021.402
517.949, 734.993
519.276, 567.587
520.602, 368.185
521.929, 176.779
523.255, 14.074
524.581, 88.399
525.906, 146.180
527.232, 225.867
528.557, 273.852
529.882, 248.425
531.207, 258.350
532.531, 162.636
533.855, 100.932
535.179, 44.704
536.503, 75.334
537.827, 252.960
539.150, 454.581
540.473, 576.198
541.796, 849.811
543.119, 1106.418
544.441, 1252.021
545.764, 1357.619
547.086, 1338.211
548.407, 1220.798
549.729, 1102.381
551.050, 892.970
552.371, 901.601
553.692, 932.294
555.013, 1207.061
556.333, 1398.886
557.653, 1889.720
558.973, 2114.549
560.293, 2286.373
561.612, 2301.191
562.932, 1963.005
564.251, 1762.813
565.569, 1604.617
566.888, 1538.415
568.206, 1693.207
569.524, 1728.994
570.842, 1917.774
572.160, 1890.548
573.477, 1828.316
574.795, 1831.079
576.112, 1513.834
577.428, 1544.584
578.745, 1309.327
580.061, 1387.063
581.377, 1538.792
582.693, 1689.515
584.009, 1939.229
585.324, 2344.938
586.639, 2544.639
587.954, 2719.333
589.269, 2519.020
590.583, 2290.699
591.897, 2482.372
593.212, 2048.036
594.525, 1282.694
595.839, 628.344
597.152, 446.987
598.465, 369.622
599.778, 420.249
601.091, 401.870
602.403, 459.482
603.716, 641.087
605.028, 802.684
606.339, 1030.274
607.651, 1279.855
608.962, 1412.430
610.273, 1571.996
611.584, 1618.554
612.895, 1599.105
614.205, 1749.647
615.515, 1663.183
616.825, 1721.709
618.135, 1646.228
619.444, 1528.738
620.754, 1455.241
622.063, 1086.736
623.372, 898.222
624.680, 584.700
625.989, 337.170
627.297, 222.631
628.605, 91.109
629.912, 89.767
631.220, 104.687
632.527, 103.487
633.834, 266.499
635.141, 385.200
636.447, 678.555
637.754, 864.492
639.060, 1175.516
640.366, 1384.318
641.671, 1597.343
642.977, 1711.969
644.282, 1656.492
645.587, 1589.122
646.892, 1373.424
648.196, 995.383
649.501, 790.265
650.805, 579.474
652.109, 384.963
653.412, 285.836
654.716, 187.524
656.019, 169.701
657.322, 146.310
658.625, 169.745
659.927, 169.065
661.230, 288.151
662.532, 389.490
663.834, 484.151
665.135, 733.497
666.437, 1001.472
667.738, 1394.997
669.039, 1926.731
670.340, 2481.665
671.640, 3281.458
672.940, 4307.208
674.241, 4953.270
675.540, 5845.393
676.840, 6100.466
678.139, 5846.527
679.439, 5246.688
680.738, 4408.719
682.036, 3637.489
683.335, 2805.812
684.633, 2255.564
685.931, 1844.698
687.229, 1563.569
688.527, 1421.803
689.824, 1189.022
691.121, 1304.095
692.418, 1287.871
693.715, 1431.714
695.012, 1630.540
696.308, 1820.350
697.604, 2219.143
698.900, 2708.920
700.195, 3300.679
701.491, 4286.421
702.786, 5190.148
704.081, 6604.858
705.376, 8327.553
706.670, 10600.228
707.964, 13922.888
709.259, 16945.533
710.552, 20608.152
711.846, 23220.766
713.139, 24803.355
714.433, 24955.930
715.726, 21858.482
717.018, 19621.018
718.311, 15723.538
719.603, 12706.040
720.895, 10128.523
722.187, 7800.992
723.479, 6323.440
724.770, 4984.872
726.061, 3963.285
727.352, 3385.681
728.643, 2683.060
729.934, 2314.421
731.224, 1898.764
732.514, 1619.091
733.804, 1334.399
735.094, 1051.691
736.383, 1025.965
737.672, 848.222
738.961, 640.461
740.250, 678.683
741.539, 588.888
742.827, 523.076
744.115, 446.247
745.403, 354.402
746.691, 367.539
747.978, 319.659
749.265, 307.763
750.552, 383.850
751.839, 314.921
753.126, 406.975
754.412, 462.013
755.698, 488.034
756.984, 633.039
758.270, 658.028
759.555, 865.000
760.840, 943.957
762.125, 1197.897
763.410, 1419.821
764.695, 1513.729
765.979, 1647.621
767.263, 1578.497
768.547, 1647.357
769.831, 1479.201
771.114, 1231.030
772.398, 1117.843
773.681, 821.641
774.964, 733.423
776.246, 606.190
777.529, 462.941
778.811, 338.678
780.093, 258.399
781.375, 173.104
782.656, 146.796
783.937, 101.432
785.219, 34.957
786.499, 33.358
787.780, 84.839
789.060, 48.379
790.341, 106.984
791.621, 116.684
792.901, 134.484
794.180, 147.393
795.459, 151.549
796.739, 209.560
798.017, 160.850
799.296, 179.261
800.575, 190.804
801.853, 138.483
803.131, 122.271
804.409, 69.159
805.686, 28.116
806.964, 15.267
808.241, 118.975
809.518, 133.913
810.795, 205.845
812.071, 306.729
813.347, 154.700
814.623, 198.656
815.899, 57.767
817.175, 15.864
818.450, 30.060
819.726, 57.029
821.001, 3.056
822.275, 87.113
823.550, 123.243
824.824, 42.465
826.098, 90.735
827.372, 49.079
828.646, 3.474
829.920, 3.894
831.193, 44.659
832.466, 15.201
833.739, 56.728
835.011, 32.251
836.284, 85.798
837.556, 168.382
838.828, 151.023
840.100, 206.733
841.371, 295.505
842.642, 318.341
843.914, 467.217
845.184, 522.116
846.455, 585.007
847.726, 760.890
848.996, 857.765
850.266, 971.635
851.536, 1032.498
852.805, 1093.352
854.075, 1081.200
855.344, 1119.041
856.613, 1113.876
857.881, 1242.705
859.150, 1229.527
860.418, 1305.343
861.686, 1313.160
862.954, 1463.974
864.222, 1408.792
865.489, 1492.604
866.756, 1594.410
868.023, 1536.222
869.290, 1601.028
870.557, 1673.841
871.823, 1790.649
873.089, 1839.458
874.355, 1889.529
875.621, 1884.078
876.886, 1944.891
878.152, 1962.704
879.417, 1974.513
880.682, 2056.318
881.946, 2051.604
883.211, 2272.920
884.475, 2102.717
885.739, 2297.510
887.003, 2374.299
888.266, 2648.086
889.530, 2997.869
890.793, 3253.669
892.056, 3668.465
893.318, 4227.282
894.581, 4821.104
895.843, 5685.923
897.105, 6441.758
898.367, 7551.591
899.629, 8531.429
900.890, 9131.280
902.152, 9538.487
903.413, 9860.985
904.673, 9400.848
905.934, 8830.710
907.194, 7760.583
908.454, 6880.456
909.714, 6056.327
910.974, 5194.208
912.234, 4568.088
913.493, 3868.967
914.752, 3498.848
916.011, 2937.735
917.270, 2702.622
918.528, 2541.513
919.786, 2326.411
921.044, 2212.320
922.302, 2150.232
923.560, 2127.145
924.817, 2133.069
926.074, 2113.994
927.331, 2102.926
928.588, 2158.875
929.844, 2094.827
931.101, 2114.791
932.357, 2188.765
933.613, 2041.741
934.868, 2165.705
936.124, 2075.482
937.379, 2200.993
938.634, 2337.616
939.889, 2363.022
941.144, 2532.735
942.398, 2661.788
943.652, 2952.253
944.906, 3389.626
946.160, 3674.216
947.414, 4228.575
948.667, 4420.329
949.920, 4971.180
951.173, 5576.919
952.426, 6100.982
953.678, 6759.380
954.931, 7779.853
956.183, 8763.716
957.435, 10400.217
958.686, 11719.440
959.938, 13719.551
961.189, 14769.729
962.440, 15359.920
963.691, 15550.130
964.941, 14530.352
966.192, 13790.589
967.442, 12570.574
968.692, 12180.241
969.942, 11947.217
971.191, 12252.562
972.441, 12701.361
973.690, 13874.940
974.939, 14966.316
976.187, 16042.830
977.436, 16586.379
978.684, 16082.615
979.932, 15751.783
981.180, 14170.997
982.428, 13311.225
983.675, 12341.347
984.922, 11321.678
986.169, 10931.931
987.416, 10422.430
988.663, 10062.981
989.909, 10093.544
991.155, 9734.125
992.401, 9904.725
993.647, 10075.438
994.893, 10186.113
996.138, 10386.761
997.383, 10357.550
998.628, 10262.796
999.873, 10060.806
1001.117, 9700.467
1002.362, 9231.218
1003.606, 8522.256
1004.850, 7693.039
1006.093, 7104.457
1007.337, 6095.275
1008.580, 5399.120
1009.823, 4823.218
1011.066, 4121.662
1012.308, 3709.244
1013.551, 3226.430
1014.793, 2805.384
1016.035, 2676.419
1017.277, 2316.802
1018.518, 2144.868
1019.760, 2058.438
1021.001, 1935.492
1022.242, 1972.756
1023.483, 1757.880
1024.723, 1834.001
1025.964, 1834.035
1027.204, 1757.180
1028.444, 1777.347
1029.683, 1675.633
1030.923, 1691.878
1032.162, 1671.228
1033.401, 1665.557
1034.640, 1692.805
1035.879, 1710.073
1037.117, 1749.355
1038.355, 1815.030
1039.593, 1848.273
1040.831, 1943.602
1042.069, 2004.825
1043.306, 2005.013
1044.544, 2083.385
1045.781, 2249.316
1047.017, 2315.103
1048.254, 2602.479
1049.490, 2713.116
1050.726, 3089.556
1051.962, 3291.267
1053.198, 3297.333
1054.434, 3524.824
1055.669, 3259.789
1056.904, 3226.395
1058.139, 3073.905
1059.374, 2762.384
1060.608, 2445.001
1061.843, 2163.693
1063.077, 1901.425
1064.311, 1628.235
1065.544, 1473.920
1066.778, 1458.319
1068.011, 1460.968
1069.244, 1359.177
1070.477, 1585.156
1071.710, 1585.005
1072.942, 1774.887
1074.174, 2089.555
1075.406, 2318.126
1076.638, 2830.968
1077.870, 3227.776
1079.101, 3685.625
1080.332, 3967.420
1081.563, 3805.288
1082.794, 3613.476
1084.025, 3355.195
1085.255, 2826.421
1086.485, 2451.331
1087.715, 2046.368
1088.945, 1668.766
1090.175, 1626.816
1091.404, 1303.850
1092.633, 1196.003
1093.862, 1074.211
1095.091, 969.497
1096.319, 954.823
1097.548, 896.277
1098.776, 877.880
1100.004, 921.462
1101.231, 853.979
1102.459, 835.705
1103.686, 775.377
1104.913, 682.152
1106.140, 697.067
1107.367, 586.708
1108.593, 557.545
1109.819, 589.308
1111.046, 371.289
1112.271, 377.209
1113.497, 316.033
1114.722, 248.037
1115.948, 247.120
1117.173, 216.136
1118.398, 205.992
1119.622, 212.271
1120.847, 185.996
1122.071, 183.277
1123.295, 138.186
1124.519, 117.107
1125.742, 152.433
1126.966, 34.418
1128.189, 38.340
1129.412, 101.114
1130.635, 62.115
1131.857, 73.278
1133.080, 41.196
1134.302, 5.248
1135.524, 15.404
1136.746, 15.319
1137.967, 32.463
1139.188, 23.634
1140.410, 7.222
1141.631, 2.077
1142.851, 28.520
1144.072, 8.067
1145.292, 41.624
1146.512, 34.257
1147.732, 23.907
1148.952, 14.577
1150.172, 15.392
1151.391, 7.757
1152.610, 27.266
1153.829, 14.797
1155.048, 48.281
1156.266, 12.447
1157.484, 50.078
1158.702, 26.332
1159.920, 61.454
1161.138, 19.351
1162.356, 2.229
1163.573, 61.063
1164.790, 1.507
1166.007, 61.937
1167.224, 3.345
1168.440, 34.281
1169.656, 50.199
1170.872, 33.606
1172.088, 44.980
1173.304, 26.389
1174.519, 8.480
1175.735, 2.564
1176.950, 0.207
1178.165, 2.341
1179.379, 0.630
1180.594, 47.941
1181.808, 113.984
1183.022, 86.621
1184.236, 185.321
1185.449, 74.866
1186.663, 55.736
1187.876, 82.213
1189.089, 32.721
1190.302, 31.943
1191.515, 58.501
1192.727, 2.985
1193.939, 14.333
1195.151, 50.771
1196.363, 38.574
1197.575, 34.043
1198.786, 22.808
1199.997, 37.424
1201.208, 35.204
1202.419, 18.879
1203.630, 56.029
1204.840, 24.664
1206.051, 30.360
1207.261, 16.469
1208.470, 11.672
1209.680, 10.349
1210.889, 32.079
1212.099, 1.983
1213.308, 5.068
1214.516, 29.056
1215.725, 8.795
1216.933, 14.627
1218.142, 21.256
1219.350, 65.522
1220.557, 1.285
1221.765, 49.977
1222.972, 43.709
1224.180, 16.623
1225.387, 14.990
1226.593, 40.608
1227.800, 19.696
1229.006, 84.845
1230.213, 15.378
1231.419, 50.022
1232.624, 28.514
1233.830, 16.370
1235.035, 46.833
1236.241, 63.283
1237.446, 48.738
1238.650, 50.158
1239.855, 46.823
1241.059, 52.975
1242.264, 41.337
1243.468, 31.682
1244.671, 44.130
1245.875, 77.428
1247.078, 41.877
1248.282, 68.131
1249.485, 53.420
1250.687, 6.191
1251.890, 96.991
1253.092, 53.322
1254.295, 73.755
1255.497, 40.865
1256.699, 47.296
1257.900, 67.476
1259.102, 14.514
1260.303, 28.638
1261.504, 117.618
1262.705, 20.553
1263.905, 38.574
1265.106, 118.435
1266.306, 42.267
1267.506, 95.045
1268.706, 98.778
1269.905, 47.474
1271.105, 99.135
1272.304, 117.760
1273.503, 11.329
1274.702, 103.863
1275.900, 69.368
1277.099, 126.876
1278.297, 96.306
1279.495, 73.707
1280.693, 131.188
1281.891, 77.521
1283.088, 74.823
1284.285, 79.094
1285.482, 79.234
1286.679, 48.891
1287.876, 25.070
1289.072, 19.098
1290.268, 87.303
1291.464, 31.604
1292.660, 47.647
1293.856, 106.661
1295.051, 81.372
1296.247, 38.326
1297.442, 95.864
1298.637, 4.758
1299.831, 69.615
1301.026, 63.297
1302.220, 16.471
1303.414, 39.612
1304.608, 14.075
1305.802, 22.757
1306.995, 71.345
1308.188, 17.573
1309.381, 46.101
1310.574, 56.111
1311.767, 19.623
1312.960, 67.906
1314.152, 24.687
1315.344, 45.703
1316.536, 149.164
1317.728, 80.497
1318.919, 69.791
1320.110, 98.141
1321.301, 12.328
1322.492, 108.394
1323.683, 139.468
1324.874, 21.610
1326.064, 115.718
1327.254, 107.798
1328.444, 27.850
1329.634, 111.680
1330.823, 53.667
1332.013, 118.746
1333.202, 75.581
1334.391, 94.484
1335.580, 90.812
1336.768, 66.369
1337.956, 74.223
1339.145, 109.802
1340.333, 98.565
1341.520, 124.041
1342.708, 117.324
1343.895, 80.994
1345.083, 172.175
1346.270, 120.702
1347.456, 80.308
1348.643, 140.991
1349.829, 115.465
1351.016, 89.850
1352.202, 171.150
1353.387, 50.335
1354.573, 163.628
1355.759, 218.257
1356.944, 108.560
1358.129, 157.270
1359.314, 152.289
1360.498, 66.322
1361.683, 206.298
1362.867, 178.518
1364.051, 156.767
1365.235, 171.723
1366.419, 142.687
1367.602, 127.591
1368.785, 168.937
1369.968, 98.781
1371.151, 146.319
1372.334, 121.841
1373.517, 91.823
1374.699, 147.584
1375.881, 48.809
1377.063, 141.910
1378.245, 183.940
1379.426, 122.731
1380.608, 162.700
1381.789, 164.539
1382.970, 119.002
1384.150, 180.842
1385.331, 133.362
1386.511, 98.847
1387.691, 156.379
1388.871, 84.939
1390.051, 147.101
1391.231, 113.129
1392.410, 84.170
1393.589, 148.655
1394.768, 82.904
1395.947, 58.106
1397.126, 148.107
1398.304, 53.232
1399.483, 97.984
1400.661, 135.132
1401.838, 91.212
1403.016, 116.466
1404.194, 154.363
1405.371, 90.608
1406.548, 137.861
1407.725, 132.503
1408.901, 138.635
1410.078, 112.413
1411.254, 126.052
1412.430, 165.716
1413.606, 216.365
1414.782, 107.860
1415.958, 175.947
1417.133, 159.526
1418.308, 81.843
1419.483, 202.796
1420.658, 137.525
1421.832, 59.433
1423.007, 128.459
1424.181, 101.784
1425.355, 110.990
1426.529, 190.423
1427.702, 7.142
1428.876, 108.696
1430.049, 135.687
1431.222, 59.349
1432.395, 109.873
1433.567, 115.049
1434.740, 113.023
1435.912, 136.777
1437.084, 142.172
1438.256, 26.114
1439.428, 136.062
1440.599, 82.021
1441.770, 54.764
1442.942, 208.720
1444.112, 93.356
1445.283, 168.404
1446.454, 93.093
1447.624, 78.740
1448.794, 173.270
1449.964, 100.517
1451.134, 76.607
1452.303, 126.894
1453.473, 111.814
1454.642, 134.948
1455.811, 175.288
1456.980, 101.097
1458.148, 140.836
1459.317, 128.611
1460.485, 18.729
1461.653, 132.995
1462.821, 136.348
1463.989, 71.821
1465.156, 178.349
1466.323, 90.822
1467.490, 95.094
1468.657, 171.759
1469.824, 14.561
1470.991, 106.480
1472.157, 145.769
1473.323, 8.617
1474.489, 183.985
1475.655, 67.705
1476.820, 31.241
1477.986, 121.383
1479.151, 53.867
1480.316, 110.343
1481.481, 161.811
1482.645, 14.296
1483.810, 88.828
1484.974, 123.451
1486.138, 84.144
1487.302, 88.823
1488.465, 38.542
1489.629, 74.273
1490.792, 149.026
1491.955, 84.200
