##NAMES=Axinite-(Fe)
##RRUFFID=R040074
##IDEAL CHEMISTRY=Ca_4_Fe^2+^_2_Al_4_[B_2_Si_8_O_30_](OH)_2_
##LOCALITY=Luning, Nevada, USA
##OWNER=RRUFF
##SOURCE=University of Arizona Mineral Museum
##DESCRIPTION=Pale brown wedge-shaped crystal
##STATUS=The identification of this mineral has been confirmed by X-ray diffraction and chemical analysis
##URL=rruff.info/R040074
##MEASURED CHEMISTRY=(Ca_0.98_Mn_0.01_)_2_(Fe_0.41_Mg_0.39_Mn_0.20_)Al_1.95_B_1.20_Si_3.90_O_15_(OH)
##PIN_ID=L00178
##ORIENTATION=Laser parallel to (0 -1 -1). Fiducial mark perpendicular to laser is parallel to -a [-1 0 0]
99.764, 0.000
101.157, 86.466
102.550, 405.521
103.943, 1810.507
105.336, 3523.391
106.729, 5295.400
108.121, 8752.696
109.513, 16300.444
110.905, 15875.418
112.297, 7355.178
113.688, 4218.068
115.079, 2967.385
116.470, 1914.133
117.861, 1639.340
119.251, 691.985
120.642, 511.729
122.032, 139.996
123.422, 192.938
124.811, 110.104
126.201, 138.898
127.590, 124.402
128.979, 76.701
130.367, 103.943
131.756, 37.316
133.144, 213.225
134.532, 341.578
135.920, 732.404
137.307, 1555.529
138.695, 2430.771
140.082, 3107.971
141.469, 3791.275
142.856, 4296.682
144.242, 4417.281
145.628, 4189.312
147.014, 4262.666
148.400, 4027.250
149.786, 4392.979
151.171, 4089.797
152.556, 3877.670
153.941, 3156.555
155.325, 2836.400
156.710, 2467.152
158.094, 2248.770
159.478, 2171.219
160.862, 2064.496
162.245, 2088.590
163.629, 2483.463
165.012, 3079.086
166.395, 3985.449
167.777, 5253.199
169.160, 6463.539
170.542, 7325.557
171.924, 6898.039
173.306, 6300.930
174.687, 5334.211
176.068, 4167.873
177.449, 2871.895
178.830, 1826.258
180.211, 780.951
181.591, 235.957
182.972, 188.910
184.351, 334.057
185.731, 99.328
187.111, 385.363
188.490, 1200.080
189.869, 2244.863
191.248, 3359.740
192.626, 4054.738
194.005, 4579.877
195.383, 3945.178
196.761, 2980.594
198.139, 2506.156
199.516, 2461.916
200.893, 2718.004
202.271, 3134.594
203.647, 3821.621
205.024, 4699.096
206.400, 5646.783
207.777, 6844.668
209.152, 7952.723
210.528, 9090.953
211.904, 10179.352
213.279, 10287.930
214.654, 10306.676
216.029, 9765.588
217.403, 9114.875
218.778, 7984.682
220.152, 6325.141
221.526, 5416.072
222.900, 4067.367
224.273, 3258.844
225.646, 2120.359
227.019, 1842.070
228.392, 1134.080
229.765, 606.406
231.137, 469.174
232.509, 172.426
233.881, 227.992
235.253, 106.020
236.625, 468.076
237.996, 593.018
239.367, 954.113
240.738, 788.918
242.108, 951.445
243.479, 1284.043
244.849, 1466.705
246.219, 2199.432
247.589, 2622.221
248.958, 3225.070
250.328, 3947.975
251.697, 4420.926
253.065, 4753.910
254.434, 4556.934
255.803, 4549.984
257.171, 4433.070
258.539, 4316.182
259.906, 4849.324
261.274, 5292.486
262.641, 5855.678
264.008, 6938.889
265.375, 7823.432
266.742, 8621.285
268.108, 9401.281
269.475, 10202.875
270.840, 10505.742
272.206, 10319.650
273.572, 10284.430
274.937, 10029.992
276.302, 9506.250
277.667, 8423.137
279.032, 7410.355
280.396, 6168.061
281.760, 5066.270
283.125, 6264.938
284.488, 3914.035
285.852, 4183.525
287.215, 4283.369
288.578, 5263.547
289.941, 6194.031
291.304, 7522.420
292.666, 9041.406
294.029, 9981.637
295.391, 11773.207
296.753, 12755.008
298.114, 13567.164
299.476, 13914.902
300.837, 13632.791
302.198, 13006.979
303.558, 12141.846
304.919, 11468.580
306.279, 10245.896
307.639, 9357.277
308.999, 8535.742
310.359, 8099.094
311.718, 8082.582
313.077, 8727.293
314.436, 9851.035
315.795, 11424.900
317.154, 13188.879
318.512, 14432.969
319.870, 14237.162
321.228, 13401.461
322.586, 11595.854
323.943, 8940.340
325.300, 7034.916
326.657, 5239.578
328.014, 4224.320
329.371, 3429.141
330.727, 3074.037
332.083, 3028.762
333.439, 3175.404
334.795, 3982.078
336.150, 4700.086
337.506, 6095.623
338.861, 8000.584
340.215, 10144.387
341.570, 12548.203
342.924, 13752.141
344.279, 14280.812
345.633, 13111.562
346.986, 12093.281
348.340, 9984.957
349.693, 8658.910
351.046, 7804.363
352.399, 6905.615
353.752, 6034.027
355.104, 4911.053
356.457, 3884.398
357.809, 2679.768
359.160, 1582.100
360.512, 976.418
361.863, 806.496
363.214, 247.631
364.565, 93.938
365.916, 50.920
367.267, 153.455
368.617, 350.422
369.967, 324.672
371.317, 399.225
372.666, 373.873
374.016, 398.611
375.365, 263.451
376.714, 138.359
378.063, 6.691
379.411, 391.727
380.760, 726.758
382.108, 1411.785
383.456, 2406.801
384.803, 3301.807
386.151, 4766.797
387.498, 5601.770
388.845, 6416.729
390.192, 6411.672
391.539, 5976.594
392.885, 5451.496
394.231, 4856.379
395.577, 3741.234
396.923, 3266.008
398.269, 2480.594
399.614, 2254.939
400.959, 1589.029
402.304, 1592.969
403.649, 1456.869
404.993, 1450.748
406.337, 1784.604
407.681, 1528.434
409.025, 1932.238
410.369, 2056.016
411.712, 2859.771
413.055, 4213.500
414.398, 5337.201
415.741, 6970.875
417.084, 7394.523
418.426, 7868.143
419.768, 7311.734
421.110, 7545.297
422.452, 8008.832
423.793, 8612.336
425.134, 10255.816
426.475, 11769.260
427.816, 13652.766
429.157, 14706.312
430.497, 15449.895
431.837, 15073.496
433.177, 13317.117
434.517, 11290.748
435.857, 8944.393
437.196, 7268.039
438.535, 6281.688
439.874, 5505.332
441.213, 6108.977
442.551, 6062.613
443.889, 6316.242
445.227, 5959.859
446.565, 4843.461
447.903, 3977.053
449.240, 2880.625
450.577, 1734.176
451.914, 1357.709
453.251, 881.230
454.588, 894.736
455.924, 268.225
457.260, 301.686
458.596, 225.117
459.932, 38.520
461.267, 41.834
462.602, 64.934
463.938, 71.842
465.272, 91.107
466.607, 106.016
467.941, 3.307
469.276, 59.293
470.610, 301.803
471.943, 354.275
473.277, 206.709
474.610, 319.094
475.944, 371.453
477.276, 833.773
478.609, 1136.055
479.942, 1218.328
481.274, 1580.559
482.606, 2082.826
483.938, 2435.102
485.270, 2037.332
486.601, 2169.547
487.932, 1301.730
489.263, 793.973
490.594, 716.172
491.925, 1.672
493.255, 29.652
494.585, 27.789
495.915, 206.080
497.245, 164.619
498.575, 153.391
499.904, 27.613
501.233, 131.514
502.562, 29.145
503.891, 179.670
505.219, 110.115
506.548, 450.459
507.876, 160.768
509.203, 381.021
510.531, 441.314
511.859, 78.439
513.186, 211.680
514.513, 8.275
515.840, 61.613
517.166, 21.445
518.493, 88.865
519.819, 119.340
521.145, 210.014
522.470, 129.055
523.796, 181.852
525.121, 98.721
526.446, 275.982
527.771, 65.766
529.096, 374.934
530.421, 445.396
531.745, 621.615
533.069, 859.023
534.393, 1044.906
535.716, 1347.959
537.040, 2087.441
538.363, 2233.707
539.686, 3311.918
541.009, 3670.082
542.331, 4808.197
543.654, 5076.266
544.976, 5944.283
546.298, 5522.254
547.620, 4850.172
548.941, 5038.045
550.263, 3985.869
551.584, 4043.646
552.905, 3731.375
554.225, 3889.055
555.546, 4596.686
556.866, 5234.268
558.186, 5651.805
559.506, 6549.297
560.826, 5926.740
562.145, 5844.141
563.465, 4821.500
564.784, 4438.812
566.103, 3886.082
567.421, 3813.309
568.740, 4150.488
570.058, 4097.629
571.376, 4184.725
572.694, 4411.773
574.011, 4328.783
575.329, 4535.746
576.646, 3992.670
577.963, 3959.547
579.279, 3906.383
580.596, 3843.176
581.912, 4209.926
583.228, 4676.633
584.544, 5363.297
585.860, 5779.918
587.175, 6526.500
588.491, 6353.039
589.806, 5899.533
591.121, 5455.984
592.435, 3942.395
593.750, 3498.758
595.064, 2865.080
596.378, 2351.357
597.692, 1847.596
599.006, 1533.789
600.319, 1649.939
601.632, 1576.045
602.945, 1132.107
604.258, 1638.129
605.571, 1584.107
606.883, 1860.041
608.195, 1945.932
609.507, 1921.783
610.819, 2237.592
612.131, 1843.354
613.442, 1949.076
614.753, 2154.754
616.064, 2170.393
617.375, 2165.861
618.685, 1965.916
619.995, 2435.980
621.306, 1849.891
622.615, 2003.262
623.925, 1624.889
625.235, 1265.996
626.544, 1152.996
627.853, 993.018
629.162, 798.266
630.471, 843.479
631.779, 577.566
633.087, 845.320
634.395, 650.428
635.703, 1075.502
637.011, 1498.031
638.318, 1583.033
639.625, 2345.184
640.932, 2701.318
642.239, 2686.219
643.546, 3176.371
644.852, 2664.412
646.158, 2882.176
647.464, 2207.031
648.770, 2202.535
650.076, 1877.461
651.381, 1030.486
652.686, 1403.494
653.991, 615.176
655.296, 639.340
656.600, 544.088
657.905, 560.002
659.209, 555.908
660.513, 571.695
661.817, 452.756
663.120, 1121.740
664.423, 866.102
665.726, 1496.467
667.029, 1669.713
668.332, 2234.006
669.635, 3268.279
670.937, 3890.131
672.239, 5493.232
673.541, 5974.270
674.842, 7638.680
676.144, 7604.645
677.445, 7083.656
678.746, 6615.596
680.047, 5483.211
681.348, 4365.889
682.648, 3659.920
683.948, 2590.887
685.248, 2547.576
686.548, 1942.279
687.848, 1816.537
689.147, 1620.877
690.447, 1755.369
691.746, 1719.873
693.044, 1724.430
694.343, 1919.016
695.641, 2423.602
696.940, 2388.170
698.238, 3562.730
699.535, 3657.277
700.833, 5091.812
702.130, 6106.334
703.427, 7970.848
704.724, 10585.348
706.021, 12959.844
707.318, 17134.326
708.614, 21678.799
709.910, 27683.264
711.206, 33957.719
712.502, 38072.176
713.798, 38896.605
715.093, 37591.055
716.388, 33135.469
717.683, 26929.887
718.978, 22254.305
720.272, 16988.711
721.567, 14013.115
722.861, 10277.514
724.155, 9041.906
725.448, 7096.297
726.742, 5620.684
728.035, 5145.070
729.328, 4019.449
730.621, 3563.830
731.914, 3068.205
733.206, 2322.582
734.499, 2716.955
735.791, 1831.328
737.083, 1585.699
738.374, 1550.072
739.666, 1324.443
740.957, 1308.816
742.248, 1043.189
743.539, 1377.562
744.830, 1081.939
746.120, 1146.318
747.410, 1170.697
748.701, 995.082
749.990, 1249.471
751.280, 1133.859
752.570, 1398.254
753.859, 1522.652
755.148, 1327.057
756.437, 2001.465
757.725, 2285.881
759.014, 2550.299
760.302, 3034.727
761.590, 3309.156
762.878, 4163.596
764.166, 4788.043
765.453, 4952.496
766.740, 5886.957
768.027, 5401.428
769.314, 5075.906
770.601, 4830.393
771.887, 3904.887
773.174, 3679.395
774.460, 2843.941
775.745, 2178.521
777.031, 2063.168
778.316, 1447.881
779.602, 1552.623
780.887, 847.441
782.172, 582.312
783.456, 877.221
784.741, 272.141
786.025, 607.074
787.309, 47.973
788.593, 236.967
789.876, 81.916
791.160, 133.117
792.443, 71.789
793.726, 293.289
795.009, 198.504
796.291, 16.193
797.574, 99.098
798.856, 64.422
800.138, 389.768
801.420, 4.703
802.702, 20.814
803.983, 13.670
805.264, 298.217
806.545, 262.836
807.826, 407.527
809.107, 622.342
810.387, 637.262
811.667, 692.289
812.947, 507.377
814.227, 732.568
815.507, 317.818
816.786, 123.104
818.065, 518.438
819.344, 143.791
820.623, 340.814
821.902, 84.434
823.180, 290.299
824.459, 15.080
825.737, 9.832
827.014, 274.516
828.292, 10.727
829.569, 173.965
830.847, 88.637
832.124, 63.240
833.401, 507.740
834.677, 42.443
835.954, 157.035
837.230, 181.594
838.506, 193.803
839.782, 380.742
841.057, 424.627
842.333, 70.020
843.608, 5.438
844.883, 480.910
846.158, 106.408
847.433, 191.984
848.707, 427.582
849.981, 123.207
851.255, 398.977
852.529, 544.768
853.803, 690.584
855.076, 616.428
856.350, 312.297
857.623, 978.260
858.895, 784.250
860.168, 1110.268
861.441, 1076.312
862.713, 512.387
863.985, 1108.486
865.257, 904.615
866.528, 620.771
867.800, 847.018
869.071, 753.295
870.342, 869.600
871.613, 705.990
872.884, 292.410
874.154, 1008.859
875.425, 265.402
876.695, 821.973
877.965, 678.600
879.234, 315.260
880.504, 1001.949
881.773, 198.672
883.042, 615.428
884.311, 772.219
885.580, 589.041
886.848, 1035.895
888.117, 762.811
889.385, 839.756
890.653, 1226.736
891.920, 1053.752
893.188, 1660.801
894.455, 1407.885
895.722, 1515.012
896.989, 1852.172
898.256, 1829.379
899.523, 2286.619
900.789, 2553.895
902.055, 2651.203
903.321, 2628.545
904.587, 2425.926
905.852, 2413.344
907.118, 1930.795
908.383, 1548.283
909.648, 2045.809
910.913, 1383.365
912.177, 1030.961
913.442, 1488.590
914.706, 1056.254
915.970, 1263.951
917.233, 811.680
918.497, 599.443
919.760, 1457.244
921.024, 915.074
922.287, 1442.938
923.550, 1230.834
924.812, 1348.764
926.075, 1726.723
927.337, 1434.715
928.599, 1792.738
929.861, 1940.793
931.122, 1348.877
932.384, 2246.992
933.645, 1755.137
934.906, 2233.312
936.167, 2131.516
937.428, 1959.752
938.688, 2378.012
939.948, 2303.691
941.208, 2572.010
942.468, 2860.359
943.728, 2441.246
944.987, 3369.654
946.247, 3420.912
947.506, 3738.178
948.765, 4786.680
950.023, 5049.926
951.282, 5525.270
952.540, 6450.895
953.798, 6599.418
955.056, 8507.287
956.314, 9055.969
957.572, 10964.688
958.829, 12953.434
960.086, 14802.211
961.343, 17131.020
962.600, 18789.859
963.856, 18518.729
965.113, 19457.613
966.369, 17316.545
967.625, 16405.494
968.881, 15924.480
970.136, 14233.500
971.392, 15672.531
972.647, 15402.551
973.902, 16721.656
975.157, 18265.020
976.411, 19223.686
977.666, 20652.531
978.920, 20137.156
980.174, 18966.439
981.428, 17707.254
982.682, 15413.066
983.935, 13370.238
985.188, 12470.719
986.441, 9958.879
987.694, 9841.922
988.947, 8422.836
990.199, 7852.488
991.452, 7947.438
992.704, 7177.178
993.956, 7546.961
995.207, 7474.102
996.459, 7453.973
997.710, 8596.006
998.961, 8315.963
1000.212, 9345.965
1001.463, 10443.391
1002.714, 10033.479
1003.964, 10463.609
1005.214, 9303.779
1006.464, 8613.994
1007.714, 8360.230
1008.964, 6770.531
1010.213, 6530.875
1011.462, 5211.582
1012.711, 4342.010
1013.960, 4412.479
1015.209, 3272.994
1016.457, 3443.549
1017.705, 3028.906
1018.954, 2629.549
1020.201, 2980.234
1021.449, 2233.982
1022.697, 2524.754
1023.944, 2825.572
1025.191, 2520.826
1026.438, 3001.729
1027.685, 2578.559
1028.931, 2589.549
1030.177, 2900.586
1031.423, 2422.625
1032.669, 2793.756
1033.915, 2585.902
1035.161, 2047.123
1036.406, 2608.393
1037.651, 2155.904
1038.896, 2497.270
1040.141, 2479.051
1041.386, 2471.180
1042.630, 2602.691
1043.874, 2454.475
1045.118, 2378.285
1046.362, 2729.951
1047.606, 2524.070
1048.849, 3015.840
1050.092, 3087.662
1051.336, 3289.539
1052.578, 3951.469
1053.821, 3513.453
1055.064, 3865.842
1056.306, 4457.764
1057.548, 4430.043
1058.790, 4331.986
1060.032, 4643.848
1061.273, 4166.488
1062.515, 4528.146
1063.756, 3779.848
1064.997, 3571.404
1066.237, 3462.992
1067.478, 2504.621
1068.718, 3146.285
1069.959, 2757.797
1071.199, 2679.168
1072.438, 3450.564
1073.678, 3041.830
1074.918, 3742.982
1076.157, 4344.135
1077.396, 4595.570
1078.635, 6006.730
1079.873, 6627.793
1081.112, 7128.836
1082.350, 8469.871
1083.588, 7661.156
1084.826, 7782.211
1086.064, 7033.113
1087.301, 5973.992
1088.539, 5754.828
1089.776, 4065.641
1091.013, 3637.094
1092.250, 3527.832
1093.486, 2858.938
1094.723, 2780.523
1095.959, 2081.289
1097.195, 1743.113
1098.431, 2383.895
1099.666, 1514.676
1100.902, 1635.527
1102.137, 1846.387
1103.372, 947.238
1104.607, 1848.086
1105.842, 1428.898
1107.076, 1519.695
1108.311, 1750.445
1109.545, 991.137
1110.779, 1162.258
1112.012, 1062.934
1113.246, 563.613
1114.479, 1105.672
1115.712, 576.328
1116.945, 527.125
1118.178, 1010.312
1119.411, 417.191
1120.643, 1080.250
1121.875, 933.531
1123.108, 626.957
1124.339, 940.594
1125.571, 684.398
1126.802, 378.453
1128.034, 982.766
1129.265, 47.277
1130.496, 1141.914
1131.727, 656.594
1132.957, 131.258
1134.187, 895.945
1135.418, 19.555
1136.648, 155.016
1137.877, 849.582
1139.107, 275.859
1140.336, 798.766
1141.566, 373.457
1142.795, 131.852
1144.023, 732.832
1145.252, 202.555
1146.480, 792.043
1147.709, 646.602
1148.937, 438.820
1150.165, 845.812
1151.392, 450.496
1152.620, 235.199
1153.847, 659.922
1155.074, 245.305
1156.301, 489.500
1157.528, 564.336
1158.755, 89.211
1159.981, 234.133
1161.207, 469.105
1162.433, 244.121
1163.659, 589.191
1164.885, 205.684
1166.110, 419.504
1167.336, 494.762
1168.561, 169.910
1169.786, 435.496
1171.010, 320.984
1172.235, 183.434
1173.459, 772.238
1174.683, 41.988
1175.907, 473.883
1177.131, 459.875
1178.355, 85.980
1179.578, 732.199
1180.801, 98.543
1182.024, 455.004
1183.247, 651.598
1184.470, 21.660
1185.692, 585.227
1186.915, 252.270
1188.137, 189.480
1189.359, 866.855
1190.580, 314.406
1191.802, 82.137
1193.023, 840.055
1194.244, 88.152
1195.465, 506.383
1196.686, 434.730
1197.907, 513.191
1199.127, 771.746
1200.347, 480.402
1201.567, 367.395
1202.787, 1159.164
1204.007, 367.402
1205.226, 537.910
1206.446, 836.129
1207.665, 144.789
1208.884, 920.918
1210.102, 497.055
1211.321, 380.289
1212.539, 974.547
1213.758, 429.629
1214.976, 694.648
1216.193, 626.051
1217.411, 560.426
1218.628, 963.008
1219.846, 269.484
1221.063, 681.059
1222.280, 777.750
1223.496, 203.742
1224.713, 872.484
1225.929, 547.855
1227.145, 390.707
1228.361, 1065.688
1229.577, 181.672
1230.793, 215.145
1232.008, 867.113
1233.223, 507.699
1234.438, 535.891
1235.653, 733.746
1236.868, 59.348
1238.082, 1109.941
1239.297, 131.043
1240.511, 10.633
1241.725, 871.875
1242.938, 6.207
1244.152, 547.445
1245.365, 608.449
1246.578, 192.293
1247.791, 843.742
1249.004, 437.363
1250.217, 272.555
1251.429, 831.754
1252.642, 304.383
1253.854, 440.738
1255.066, 583.121
1256.277, 137.742
1257.489, 923.824
1258.700, 330.230
1259.911, 18.492
1261.122, 1067.340
1262.333, 299.590
1263.544, 2.215
1264.754, 0.000
##END=



