##NAMES=Axinite-(Fe)
##RRUFFID=R060558
##IDEAL CHEMISTRY=Ca_4_Fe^2+^_2_Al_4_[B_2_Si_8_O_30_](OH)_2_
##LOCALITY=unknown
##OWNER=RRUFF
##SOURCE=Gemological Institute of America
##DESCRIPTION=Brown flattened crystal
##STATUS=The identification of this mineral has been confirmed by X-ray diffraction and chemical analysis
##URL=rruff.info/R060558
##MEASURED CHEMISTRY=Ca_2.00_(Fe^2+^_0.60_Mg_0.35_Mn_0.05_)_Î£=1_Al_2.00_BSi_4.00_O_15_(OH) ; B not measured
##PIN_ID=M01160
##ORIENTATION=Laser parallel to b* (0 1 0). Fiducial mark perpendicular to laser is parallel to -c [0 0 -1]
97.76500, 0.0000000E+00
99.01100, 74.43555
100.2570, 179.3145
101.5030, 663.7075
102.7490, 1564.321
103.9940, 2942.730
105.2390, 4669.147
106.4840, 6720.801
107.7290, 8399.975
108.9740, 8638.791
110.2180, 7868.145
111.4620, 7031.054
112.7060, 6190.381
113.9500, 5750.865
115.1940, 5073.804
116.4370, 4408.522
117.6800, 3845.416
118.9230, 3262.104
120.1660, 2752.500
121.4090, 2148.191
122.6510, 1779.817
123.8940, 1118.385
125.1360, 625.9473
126.3770, 254.3662
127.6190, 64.35791
128.8600, 110.4873
130.1020, 48.67920
131.3430, 37.19873
132.5840, 378.5049
133.8240, 806.1816
135.0650, 1363.585
136.3050, 2146.853
137.5450, 3079.562
138.7850, 4192.902
140.0250, 4859.597
141.2640, 5185.797
142.5030, 5123.942
143.7430, 4855.470
144.9810, 4312.105
146.2200, 3895.681
147.4590, 3498.970
148.6970, 3355.864
149.9350, 3263.327
151.1730, 3165.327
152.4110, 2939.839
153.6480, 2534.836
154.8860, 2336.297
156.1230, 2134.218
157.3600, 1995.567
158.5960, 1967.276
159.8330, 2085.302
161.0690, 2311.634
162.3050, 2607.265
163.5410, 2971.204
164.7770, 3450.456
166.0130, 3813.013
167.2480, 4316.865
168.4830, 4894.002
169.7180, 5077.418
170.9530, 5010.102
172.1880, 4762.037
173.4220, 4223.263
174.6560, 3551.862
175.8900, 2857.858
177.1240, 1985.253
178.3580, 1269.042
179.5910, 796.2109
180.8250, 220.7388
182.0580, 124.3914
183.2900, 314.1958
184.5230, 506.6982
185.7560, 549.9233
186.9880, 626.8899
188.2200, 555.6592
189.4520, 476.2085
190.6830, 328.5420
191.9150, 172.6711
193.1460, 8.607910
194.3770, 195.6042
195.6080, 465.9023
196.8390, 755.2642
198.0700, 1015.691
199.3000, 1485.186
200.5300, 2053.750
201.7600, 2688.386
202.9900, 3427.093
204.2190, 4366.874
205.4490, 5331.729
206.6780, 6294.660
207.9070, 7311.667
209.1360, 8166.750
210.3640, 9030.918
211.5930, 9401.318
212.8210, 9583.037
214.0490, 9428.994
215.2770, 9364.688
216.5040, 8775.812
217.7320, 7895.330
218.9590, 7073.380
220.1860, 6137.327
221.4130, 4988.383
222.6400, 4068.550
223.8660, 3290.747
225.0920, 2567.024
226.3190, 2015.927
227.5450, 1569.946
228.7700, 1296.303
229.9960, 1127.897
231.2210, 904.5925
232.4460, 972.3679
233.6710, 885.2222
234.8960, 1056.154
236.1210, 1234.163
237.3450, 1440.248
238.5690, 1465.370
239.7930, 1647.638
241.0170, 1476.942
242.2410, 1296.317
243.4640, 1230.780
244.6870, 1145.335
245.9100, 1259.965
247.1330, 1585.048
248.3560, 1997.528
249.5780, 2413.929
250.8000, 3329.969
252.0230, 4457.471
253.2440, 5461.307
254.4660, 6129.363
255.6880, 6525.585
256.9090, 6674.928
258.1300, 6856.330
259.3510, 7158.744
260.5720, 7453.146
261.7920, 7976.383
263.0130, 8777.596
264.2330, 10218.78
265.4530, 11376.92
266.6730, 12950.03
267.8920, 14365.00
269.1120, 15855.73
270.3310, 17255.23
271.5500, 18226.52
272.7690, 18923.65
273.9880, 18934.62
275.2060, 18755.47
276.4240, 17783.01
277.6430, 16558.87
278.8600, 14899.40
280.0780, 13048.85
281.2960, 11598.25
282.5130, 10367.57
283.7300, 9506.846
284.9470, 9200.075
286.1640, 9199.260
287.3810, 9172.123
288.5970, 9290.923
289.8130, 9527.432
291.0290, 9865.845
292.2450, 10188.66
293.4610, 10437.43
294.6760, 10697.29
295.8910, 10698.24
297.1060, 10418.27
298.3210, 10066.38
299.5360, 9567.566
300.7510, 8777.833
301.9650, 8035.173
303.1790, 7316.586
304.3930, 6744.071
305.6070, 6496.624
306.8200, 6328.245
308.0340, 6653.930
309.2470, 7149.679
310.4600, 7965.492
311.6730, 9149.367
312.8850, 10578.30
314.0980, 12521.30
315.3100, 14137.37
316.5220, 16466.53
317.7340, 17957.77
318.9460, 18930.11
320.1570, 18203.53
321.3690, 16826.42
322.5800, 14724.70
323.7910, 12545.30
325.0010, 10453.22
326.2120, 8967.405
327.4220, 7749.086
328.6330, 6963.704
329.8430, 6500.993
331.0520, 6395.212
332.2620, 6361.833
333.4720, 6779.311
334.6810, 7179.472
335.8900, 8068.827
337.0990, 9004.287
338.3070, 10416.97
339.5160, 11993.13
340.7240, 13959.11
341.9320, 16179.23
343.1400, 17633.37
344.3480, 18265.54
345.5560, 17351.74
346.7630, 15163.97
347.9700, 12587.22
349.1770, 10094.54
350.3840, 7892.895
351.5910, 5968.251
352.7970, 4712.105
354.0040, 3669.583
355.2100, 2786.498
356.4160, 2195.607
357.6220, 1594.591
358.8270, 1311.376
360.0320, 1008.354
361.2380, 802.0881
362.4430, 562.6101
363.6470, 470.1545
364.8520, 312.7239
366.0560, 168.3176
367.2610, 145.9365
368.4650, 102.5793
369.6690, 136.2463
370.8720, 195.9368
372.0760, 148.6494
373.2790, 247.3828
374.4820, 244.1362
375.6850, 372.9077
376.8880, 517.6982
378.0910, 580.5066
379.2930, 819.3335
380.4950, 1188.178
381.6970, 1369.041
382.8990, 1823.921
384.1010, 2289.828
385.3020, 2893.326
386.5040, 3441.822
387.7050, 3867.511
388.9060, 3977.345
390.1060, 3944.322
391.3070, 3379.319
392.5070, 2925.325
393.7080, 2319.332
394.9080, 1965.335
396.1070, 1721.332
397.3070, 1542.320
398.5070, 1481.296
399.7060, 1580.262
400.9050, 1662.214
402.1040, 1774.153
403.3030, 1847.078
404.5010, 1930.988
405.7000, 1885.884
406.8980, 1890.766
408.0960, 2072.635
409.2940, 2241.490
410.4910, 2687.331
411.6890, 3009.159
412.8860, 3710.974
414.0830, 4327.777
415.2800, 5322.569
416.4770, 6473.351
417.6730, 7125.122
418.8690, 7594.885
420.0660, 7989.639
421.2620, 8550.795
422.4570, 8836.149
423.6530, 9510.895
424.8480, 10100.63
426.0440, 10571.37
427.2390, 10804.09
428.4340, 10854.80
429.6280, 10952.52
430.8230, 10747.22
432.0170, 10334.92
433.2110, 9545.611
434.4050, 8600.312
435.5990, 7700.021
436.7930, 6966.741
437.9860, 6627.476
439.1800, 6543.220
440.3730, 6872.976
441.5660, 7639.741
442.7580, 9006.517
443.9510, 9739.302
445.1430, 10370.10
446.3350, 9548.899
447.5270, 8224.704
448.7190, 6542.525
449.9110, 4993.351
451.1020, 3716.182
452.2930, 2612.021
453.4850, 1920.865
454.6750, 1506.714
455.8660, 1122.570
457.0570, 926.6709
458.2470, 676.6484
459.4370, 429.4700
460.6270, 324.7737
461.8170, 178.9939
463.0070, 78.37109
464.1960, 24.66089
465.3850, 82.60425
466.5750, 134.3462
467.7630, 138.5420
468.9520, 141.9312
470.1410, 171.4185
471.3290, 190.0154
472.5170, 195.6565
473.7050, 208.2959
474.8930, 174.8909
476.0810, 214.4128
477.2680, 134.8638
478.4560, 71.22144
479.6430, 15.52563
480.8300, 136.3835
482.0160, 257.3242
483.2030, 500.3040
484.3890, 748.2815
485.5760, 886.2544
486.7620, 860.2222
487.9480, 656.1848
489.1330, 440.1418
490.3190, 213.0933
491.5040, 88.61182
492.6890, 51.02222
493.8740, 114.1401
495.0590, 137.3484
496.2440, 146.6589
497.4280, 153.0776
498.6120, 171.6079
499.7960, 153.2595
500.9800, 86.02295
502.1640, 9.125244
503.3470, 62.25977
504.5310, 253.3713
505.7140, 406.4751
506.8970, 611.5728
508.0800, 899.6692
509.2620, 1110.788
510.4450, 1437.934
511.6270, 1744.120
512.8090, 1817.342
513.9910, 1818.605
515.1730, 1710.912
516.3550, 1711.272
517.5360, 1417.687
518.7170, 1155.157
519.8980, 911.6851
521.0790, 733.2664
522.2600, 540.8918
523.4400, 375.7698
524.6210, 216.2512
525.8010, 121.9646
526.9810, 44.69629
528.1610, 9.419922
529.3400, 37.03662
530.5200, 31.42358
531.6990, 147.4312
532.8780, 161.0676
534.0570, 182.6917
535.2360, 372.3030
536.4140, 414.9011
537.5930, 561.4868
538.7710, 601.0593
539.9490, 823.6189
541.1270, 939.1650
542.3040, 1022.699
543.4820, 1203.218
544.6590, 1292.725
545.8360, 1483.219
547.0130, 1372.700
548.1900, 1410.167
549.3670, 1214.631
550.5430, 1136.090
551.7190, 1108.558
552.8960, 1131.021
554.0710, 1242.490
555.2470, 1345.960
556.4230, 1608.424
557.5980, 1888.874
558.7730, 2161.311
559.9480, 2607.733
561.1230, 2722.142
562.2980, 2792.536
563.4720, 2467.916
564.6470, 2239.281
565.8210, 2057.632
566.9950, 1767.968
568.1690, 1631.290
569.3420, 1469.597
570.5160, 1565.889
571.6890, 1575.166
572.8620, 1650.428
574.0350, 1701.674
575.2080, 1651.906
576.3800, 1593.123
577.5530, 1430.324
578.7250, 1370.509
579.8970, 1264.679
581.0690, 1126.833
582.2410, 1119.970
583.4120, 1142.092
584.5830, 1233.197
585.7550, 1279.285
586.9260, 1478.357
588.0960, 1486.412
589.2670, 1501.450
590.4380, 1394.472
591.6080, 1346.476
592.7780, 1047.463
593.9480, 712.4321
595.1180, 468.3840
596.2870, 333.3184
597.4570, 131.2351
598.6260, 25.86914
599.7950, 23.04028
600.9640, 62.27759
602.1330, 76.60156
603.3010, 47.02002
604.4700, 19.48267
605.6380, 33.53906
606.8060, 43.21558
607.9740, 154.5950
609.1420, 281.6838
610.3090, 431.5359
611.4760, 630.5173
612.6440, 783.3149
613.8110, 1019.743
614.9770, 1228.363
616.1440, 1437.063
617.3110, 1505.264
618.4770, 1619.436
619.6430, 1721.578
620.8090, 1636.050
621.9750, 1505.249
623.1400, 1259.431
624.3060, 1081.596
625.4710, 850.7451
626.6360, 667.8767
627.8010, 522.9917
628.9660, 531.0898
630.1300, 507.1714
631.2950, 640.2354
632.4590, 806.2432
633.6230, 951.2305
634.7870, 1209.221
635.9510, 1496.722
637.1140, 1867.610
638.2780, 2249.068
639.4410, 2672.341
640.6040, 3233.745
641.7670, 3660.354
642.9290, 3917.776
644.0920, 4051.447
645.2540, 4012.118
646.4160, 3793.443
647.5780, 3499.391
648.7400, 3108.986
649.9020, 2519.375
651.0630, 2154.558
652.2250, 1576.305
653.3860, 1281.505
654.5470, 966.1582
655.7080, 800.4011
656.8680, 624.0298
658.0290, 567.5068
659.1890, 495.8110
660.3490, 484.9910
661.5090, 506.0562
662.6690, 558.4670
663.8280, 673.0427
664.9880, 812.7107
666.1470, 956.7302
667.3060, 1187.519
668.4650, 1469.572
669.6240, 1723.360
670.7820, 2151.997
671.9410, 2637.481
673.0990, 3120.944
674.2570, 3553.385
675.4150, 4005.804
676.5720, 4197.202
677.7300, 4136.578
678.8870, 3764.931
680.0450, 3512.262
681.2020, 2836.572
682.3590, 2347.861
683.5150, 2056.127
684.6720, 1612.372
685.8280, 1382.596
686.9840, 1178.797
688.1400, 1094.487
689.2960, 1067.064
690.4520, 1057.814
691.6070, 1101.421
692.7630, 1199.470
693.9180, 1378.386
695.0730, 1500.402
696.2280, 1799.440
697.3820, 2181.444
698.5370, 2530.425
699.6910, 3148.383
700.8450, 3825.319
701.9990, 4645.235
703.1530, 5862.125
704.3070, 7367.908
705.4600, 9019.843
706.6130, 11269.67
707.7660, 13693.47
708.9190, 16399.25
710.0720, 19584.02
711.2250, 22641.75
712.3770, 25248.47
713.5300, 26748.17
714.6820, 26768.85
715.8340, 25251.50
716.9850, 22532.14
718.1370, 19364.75
719.2880, 16230.34
720.4400, 13122.91
721.5910, 10666.46
722.7420, 8635.989
723.8930, 7024.500
725.0430, 5770.989
726.1940, 4742.457
727.3440, 4018.906
728.4940, 3411.334
729.6440, 2848.744
730.7940, 2449.133
731.9430, 2152.502
733.0930, 1910.852
734.2420, 1585.183
735.3910, 1396.494
736.5400, 1253.545
737.6890, 1113.705
738.8370, 976.0066
739.9860, 875.8105
741.1340, 747.6836
742.2820, 716.3838
743.4300, 587.1562
744.5780, 499.4631
745.7250, 534.1987
746.8730, 404.3259
748.0200, 435.5828
749.1670, 433.8733
750.3140, 482.2051
751.4610, 510.5835
752.6070, 537.0100
753.7540, 622.4878
754.9000, 718.0088
756.0460, 717.5825
757.1920, 834.1895
758.3380, 888.8125
759.4830, 993.4290
760.6280, 1074.032
761.7740, 1156.623
762.9190, 1231.190
764.0640, 1255.765
765.2080, 1342.317
766.3530, 1341.856
767.4970, 1344.774
768.6420, 1321.495
769.7860, 1234.402
770.9300, 1171.894
772.0730, 1043.399
773.2170, 872.9351
774.3600, 782.5073
775.5040, 557.1194
776.6470, 512.7727
777.7900, 373.4724
778.9320, 311.2139
780.0750, 188.9792
781.2170, 136.7490
782.3600, 99.51074
783.5020, 32.26196
784.6440, 8.999268
785.7850, 81.28833
786.9270, 94.27881
788.0680, 155.0859
789.2100, 132.6348
790.3510, 156.2815
791.4920, 164.0391
792.6320, 205.9104
793.7730, 212.7275
794.9130, 211.0642
796.0540, 223.3479
797.1940, 209.7756
798.3340, 175.3391
799.4730, 150.0205
800.6130, 137.8049
801.7520, 76.68628
802.8920, 83.63135
804.0310, 10.64307
805.1700, 29.32080
806.3090, 90.28784
807.4470, 173.2527
808.5860, 235.2166
809.7240, 334.1748
810.8620, 432.1274
812.0000, 522.0742
813.1380, 560.0164
814.2750, 560.9531
815.4130, 469.8855
816.5500, 436.8132
817.6870, 356.7368
818.8240, 173.6562
819.9610, 105.5720
821.0980, 43.48413
822.2340, 12.39307
823.3700, 21.29639
824.5070, 21.80298
825.6430, 21.24634
826.7780, 73.06421
827.9140, 24.25171
829.0500, 64.45947
830.1850, 47.70801
831.3200, 17.98779
832.4550, 7.717529
833.5900, 28.88477
834.7250, 85.12158
835.8590, 87.82324
836.9930, 149.5249
838.1280, 210.2268
839.2620, 304.9292
840.3950, 324.6321
841.5290, 405.3364
842.6630, 569.0413
843.7960, 612.7480
844.9290, 1022.456
846.0620, 1007.431
847.1950, 1163.879
848.3280, 1157.595
849.4600, 1309.312
850.5930, 1400.033
851.7250, 1457.757
852.8570, 1566.484
853.9890, 1523.215
855.1210, 1686.949
856.2520, 1661.688
857.3840, 1697.430
858.5150, 1631.178
859.6460, 1680.929
860.7770, 1665.687
861.9080, 1706.449
863.0380, 1632.218
864.1690, 1648.992
865.2990, 1702.772
866.4290, 1638.559
867.5590, 1639.352
868.6890, 1557.151
869.8190, 1652.957
870.9480, 1718.770
872.0770, 1706.592
873.2070, 1832.428
874.3360, 1792.296
875.4640, 1780.206
876.5930, 1916.170
877.7220, 1878.181
878.8500, 1964.235
879.9780, 1975.314
881.1060, 1923.416
882.2340, 1884.538
883.3620, 1916.669
884.4890, 1883.816
885.6170, 1783.977
886.7440, 1807.146
887.8710, 1821.333
888.9980, 1791.536
890.1240, 1847.750
891.2510, 1846.980
892.3770, 1986.227
893.5040, 2126.490
894.6300, 2227.769
895.7560, 2437.063
896.8810, 2506.371
898.0070, 2731.696
899.1330, 2927.031
900.2580, 3078.383
901.3830, 3121.750
902.5080, 3217.130
903.6330, 3295.531
904.7570, 3293.944
905.8820, 3149.372
907.0060, 2988.828
908.1300, 2833.306
909.2540, 2660.810
910.3780, 2295.331
911.5020, 2057.878
912.6250, 1728.441
913.7490, 1682.016
914.8720, 1447.606
915.9950, 1325.219
917.1180, 1260.850
918.2400, 1112.495
919.3630, 1138.927
920.4850, 1144.512
921.6080, 1073.448
922.7300, 1189.587
923.8520, 1194.935
924.9730, 1276.718
926.0950, 1397.063
927.2160, 1514.953
928.3380, 1659.261
929.4590, 1725.184
930.5800, 1916.257
931.7010, 1923.613
932.8210, 2014.877
933.9420, 1975.363
935.0620, 1903.504
936.1820, 1924.479
937.3020, 1994.367
938.4220, 2124.893
939.5420, 2086.084
940.6610, 2181.031
941.7810, 2438.069
942.9000, 2771.129
944.0190, 2976.213
945.1380, 3358.320
946.2570, 3710.451
947.3750, 4103.606
948.4940, 4607.795
949.6120, 5244.012
950.7300, 5785.255
951.8480, 6560.522
952.9660, 6963.813
954.0830, 7932.130
955.2010, 8645.479
956.3180, 9540.863
957.4350, 10753.29
958.5520, 11890.74
959.6690, 13333.71
960.7860, 14688.81
961.9020, 15986.74
963.0190, 16982.81
964.1350, 17378.46
965.2510, 17548.26
966.3670, 17038.95
967.4830, 16389.64
968.5980, 15513.37
969.7140, 14693.13
970.8290, 14117.93
971.9440, 14464.75
973.0590, 14668.60
974.1740, 15683.48
975.2880, 16676.39
976.4030, 17735.34
977.5170, 18723.31
978.6310, 19330.31
979.7450, 19349.33
980.8590, 18511.39
981.9730, 17242.47
983.0860, 15703.58
984.2000, 14029.72
985.3130, 12149.88
986.4260, 10937.07
987.5390, 9599.290
988.6520, 8868.533
989.7640, 8084.804
990.8770, 7639.110
991.9890, 7066.440
993.1010, 6907.801
994.2130, 6553.190
995.3250, 6544.605
996.4370, 6374.212
997.5480, 6351.684
998.6590, 6523.179
999.7710, 6335.707
1000.882, 6361.261
1001.993, 6175.840
1003.103, 5859.449
1004.214, 5586.083
1005.324, 5193.051
1006.434, 4754.652
1007.545, 4239.366
1008.655, 3840.130
1009.764, 3275.716
1010.874, 2871.515
1011.983, 2448.908
1013.093, 2166.881
1014.202, 1803.106
1015.311, 1565.952
1016.420, 1291.877
1017.528, 1192.030
1018.637, 1002.999
1019.745, 904.9873
1020.854, 761.8159
1021.962, 741.4927
1023.070, 723.1516
1024.177, 615.8306
1025.285, 573.7725
1026.392, 587.4062
1027.500, 598.2544
1028.607, 538.8621
1029.714, 514.2510
1030.821, 408.8943
1031.927, 416.6587
1033.034, 367.4194
1034.140, 291.9016
1035.246, 263.8271
1036.352, 223.5991
1037.458, 168.6680
1038.564, 245.9163
1039.670, 138.4285
1040.775, 219.0720
1041.880, 216.6089
1042.986, 237.2876
1044.090, 311.6143
1045.195, 332.1953
1046.300, 357.2542
1047.404, 399.8181
1048.509, 474.6008
1049.613, 552.7646
1050.717, 554.2053
1051.821, 683.8472
1052.925, 757.5110
1054.028, 908.2046
1055.132, 922.9487
1056.235, 930.2144
1057.338, 1017.108
1058.441, 1128.687
1059.544, 1142.687
1060.647, 1074.609
1061.749, 1087.800
1062.851, 1048.186
1063.954, 1030.767
1065.056, 897.1738
1066.158, 767.6548
1067.259, 752.2439
1068.361, 729.8604
1069.462, 652.3545
1070.564, 712.0845
1071.665, 724.6846
1072.766, 740.5088
1073.867, 971.4062
1074.967, 1126.238
1076.068, 1280.167
1077.168, 1506.019
1078.268, 1889.975
1079.368, 2362.196
1080.468, 2590.580
1081.568, 2915.139
1082.668, 3310.271
1083.767, 3300.312
1084.866, 3177.344
1085.966, 3004.736
1087.065, 2683.133
1088.163, 2308.962
1089.262, 1987.323
1090.361, 1668.981
1091.459, 1402.011
1092.557, 1209.233
1093.655, 921.8330
1094.753, 791.0264
1095.851, 725.8511
1096.949, 631.1497
1098.046, 531.1511
1099.143, 567.1780
1100.241, 455.5205
1101.338, 432.3699
1102.434, 381.6028
1103.531, 389.0422
1104.628, 343.8230
1105.724, 311.2261
1106.820, 362.5249
1107.916, 260.8442
1109.012, 370.0837
1110.108, 272.5154
1111.204, 261.9167
1112.299, 256.3481
1113.395, 261.1152
1114.490, 225.8992
1115.585, 172.8240
1116.680, 160.0989
1117.775, 127.4121
1118.869, 97.69629
1119.964, 85.21460
1121.058, 64.89185
1122.152, 102.1284
1123.246, 21.56323
1124.340, 76.97388
1125.434, 46.40747
1126.527, 58.79834
1127.620, 11.79541
1128.714, 11.74866
1129.807, 44.05420
1130.900, 3.924438
1131.992, 12.89966
1133.085, 32.28613
1134.178, 29.61157
1135.270, 27.17798
1136.362, 16.51355
1137.454, 35.10425
1138.546, 10.52661
1139.638, 59.04260
1140.729, 73.74756
1141.821, 2.647461
1142.912, 22.98315
1144.003, 36.64087
1145.094, 15.33118
1146.185, 31.11255
1147.276, 2.173584
1148.366, 35.62256
1149.456, 30.38025
1150.547, 12.86731
1151.637, 45.68005
1152.727, 41.36511
1153.816, 18.15979
1154.906, 38.88367
1155.995, 42.68372
1157.085, 35.48816
1158.174, 38.38403
1159.263, 32.53516
1160.352, 26.96497
1161.441, 30.81970
1162.529, 11.56018
1163.618, 30.37512
1164.706, 24.07629
1165.794, 11.66284
1166.882, 42.84741
1167.970, 12.26965
1169.058, 14.67578
1170.145, 66.38403
1171.232, 35.30151
1172.320, 64.16077
1173.407, 17.18640
1174.494, 58.29663
1175.580, 13.11401
1176.667, 2.889282
1177.754, 10.36536
1178.840, 44.57935
1179.926, 17.58728
1181.012, 4.860596
1182.098, 41.21851
1183.184, 29.54028
1184.269, 39.58118
1185.355, 24.50757
1186.440, 5.264648
1187.525, 21.30908
1188.610, 43.89758
1189.695, 44.70459
1190.780, 13.66736
1191.864, 26.86255
1192.949, 19.32422
1194.033, 16.97571
1195.117, 41.30432
1196.201, 61.69189
1197.285, 38.13123
1198.369, 53.41479
1199.452, 9.982422
1200.536, 51.22791
1201.619, 5.543457
1202.702, 49.65100
1203.785, 37.89697
1204.868, 59.07886
1205.950, 41.38538
1207.033, 72.56909
1208.115, 45.80627
1209.197, 31.90771
1210.279, 5.989624
1211.361, 4.021606
1212.443, 41.01990
1213.525, 50.99683
1214.606, 57.95386
1215.687, 35.93384
1216.769, 11.96716
1217.850, 11.08057
1218.930, 2.795898
1220.011, 6.715332
1221.092, 24.43042
1222.172, 21.15417
1223.252, 39.91211
1224.333, 69.58105
1225.413, 36.22815
1226.492, 27.15222
1227.572, 34.41064
1228.652, 35.03088
1229.731, 67.58643
1230.810, 0.9316410
1231.889, 32.50562
1232.968, 64.91138
1234.047, 49.29395
1235.126, 71.68494
1236.204, 12.01697
1237.283, 93.30835
1238.361, 119.5769
1239.439, 33.82312
1240.517, 82.05237
1241.595, 80.24121
1242.673, 59.40588
1243.750, 100.5746
1244.827, 103.6881
1245.905, 127.7780
1246.982, 117.8466
1248.059, 127.0126
1249.135, 82.03345
1250.212, 72.02844
1251.288, 48.99658
1252.365, 99.02246
1253.441, 44.93396
1254.517, 102.8123
1255.593, 114.6655
1256.669, 112.4969
1257.744, 89.13806
1258.820, 147.0726
1259.895, 69.82861
1260.970, 65.56165
1262.045, 123.2583
1263.120, 139.1382
1264.195, 92.79822
1265.270, 155.5601
1266.344, 120.8956
1267.418, 87.68140
1268.492, 114.4362
1269.566, 140.9779
1270.640, 108.9492
1271.714, 115.4751
1272.788, 120.5851
1273.861, 124.8912
1274.934, 173.9523
1276.007, 126.6257
