##NAMES=Axinite-(Fe)
##RRUFFID=R060194
##IDEAL CHEMISTRY=Ca_4_Fe^2+^_2_Al_4_[B_2_Si_8_O_30_](OH)_2_
##LOCALITY=near Dalbandi, Baluchistan Province, Pakistan
##OWNER=RRUFF
##SOURCE=Herbert Obodda
##DESCRIPTION=Brown transparent wedge-shaped single crystal
##STATUS=The identification of this mineral has been confirmed by X-ray diffraction and chemical analysis
##URL=rruff.info/R060194
##MEASURED CHEMISTRY=Ca_2.00_(Fe^2+^_0.66_Mg_0.30_Mn_0.04_)Al_2.00_BSi_4.00_O_15_(OH)
##PIN_ID=L00975
##ORIENTATION=Laser parallel to a* (1 0 0). Fiducial mark perpendicular to laser is parallel to b [0 1 0]
53.91000, 0.0000000E+00
55.14900, 37.71906
56.38700, 81.35522
57.62600, 135.8256
58.86400, 160.6040
60.10300, 205.9417
61.34100, 326.0387
62.57900, 320.1773
63.81700, 233.2277
65.05400, 154.2245
66.29200, 91.04514
67.52900, 60.77905
68.76700, 32.86133
70.00400, 24.49487
71.24100, 87.72009
72.47700, 78.63495
73.71400, 114.1062
74.95100, 57.37415
76.18700, 15.78674
77.42300, 95.63940
78.65900, 76.38574
79.89500, 99.23730
81.13100, 35.29126
82.36700, 39.36572
83.60200, 227.6555
84.83700, 520.5079
86.07200, 902.8599
87.30800, 1170.654
88.54200, 1389.839
89.77700, 1809.366
91.01200, 2472.189
92.24600, 3083.237
93.48000, 4054.419
94.71400, 4640.652
95.94800, 4610.865
97.18200, 4535.022
98.41600, 4024.121
99.64900, 3655.128
100.8830, 3521.008
102.1160, 4156.730
103.3490, 4519.270
104.5820, 5503.605
105.8150, 6643.717
107.0470, 8532.584
108.2800, 10814.20
109.5120, 13483.53
110.7440, 15001.59
111.9760, 12684.34
113.2080, 9561.782
114.4400, 7702.902
115.6710, 6593.686
116.9030, 6296.129
118.1340, 6228.218
119.3650, 6037.944
120.5960, 6059.298
121.8270, 5994.275
123.0580, 5995.863
124.2880, 5916.054
125.5190, 5821.842
126.7490, 5266.219
127.9790, 4540.083
129.2090, 3885.141
130.4390, 3286.374
131.6680, 2722.761
132.8980, 2252.296
134.1270, 1897.985
135.3560, 1741.667
136.5850, 1688.105
137.8140, 1819.834
139.0430, 2014.527
140.2710, 2423.957
141.5000, 2484.314
142.7280, 2890.233
143.9560, 2772.824
145.1840, 2959.738
146.4120, 3110.952
147.6390, 3518.472
148.8670, 4208.306
150.0940, 5194.465
151.3210, 6241.961
152.5490, 7154.797
153.7750, 7779.976
155.0020, 8181.502
156.2290, 8953.373
157.4550, 9658.586
158.6810, 9596.150
159.9080, 8607.056
161.1340, 7717.310
162.3590, 7049.906
163.5850, 7209.847
164.8110, 7771.128
166.0360, 9436.751
167.2610, 11770.71
168.4860, 14861.01
169.7110, 18903.65
170.9360, 21981.61
172.1610, 22785.92
173.3850, 19936.56
174.6100, 16102.53
175.8340, 12457.82
177.0580, 9752.445
178.2820, 7216.398
179.5050, 5295.670
180.7290, 3918.265
181.9520, 2790.179
183.1760, 1905.412
184.3990, 1302.961
185.6220, 1009.822
186.8450, 886.9961
188.0670, 831.4854
189.2900, 1173.292
190.5120, 1662.403
191.7340, 2530.817
192.9560, 3928.532
194.1780, 5443.546
195.4000, 6435.856
196.6220, 6172.458
197.8430, 5233.354
199.0640, 4730.535
200.2860, 4759.005
201.5070, 5341.057
202.7270, 6397.956
203.9480, 7828.668
205.1690, 9304.160
206.3890, 10668.47
207.6090, 12232.73
208.8290, 13661.57
210.0490, 14963.62
211.2690, 16121.13
212.4890, 16443.01
213.7080, 15936.61
214.9280, 15381.01
216.1470, 13969.42
217.3660, 12549.57
218.5850, 10996.26
219.8030, 9738.377
221.0220, 8492.191
222.2400, 7108.486
223.4590, 5721.991
224.6770, 4521.345
225.8950, 3490.754
227.1120, 2828.452
228.3300, 2090.555
229.5480, 1591.965
230.7650, 1222.381
231.9820, 819.1221
233.1990, 710.6357
234.4160, 582.6011
235.6330, 692.3530
236.8490, 705.3374
238.0660, 1240.631
239.2820, 1657.933
240.4980, 2311.235
241.7140, 2825.572
242.9300, 3303.317
244.1460, 3678.476
245.3610, 4049.034
246.5770, 4624.978
247.7920, 5192.272
249.0070, 5331.888
250.2220, 5643.783
251.4370, 6041.931
252.6510, 6282.329
253.8660, 6674.972
255.0800, 6827.856
256.2940, 6913.979
257.5080, 6435.341
258.7220, 6277.936
259.9360, 6385.762
261.1490, 6339.974
262.3630, 6787.093
263.5760, 6972.593
264.7890, 7493.315
266.0020, 8450.254
267.2150, 9326.406
268.4270, 11033.77
269.6400, 11982.57
270.8520, 13347.13
272.0640, 13666.12
273.2760, 13996.19
274.4880, 14064.69
275.7000, 13571.29
276.9120, 12309.07
278.1230, 11295.06
279.3340, 9901.248
280.5450, 8587.634
281.7560, 6992.217
282.9670, 5704.999
284.1780, 4656.978
285.3880, 4087.152
286.5980, 3650.519
287.8090, 3602.074
289.0190, 3945.820
290.2290, 4552.752
291.4380, 5701.870
292.6480, 7110.173
293.8570, 8723.662
295.0670, 10522.33
296.2760, 12550.18
297.4850, 14288.22
298.6930, 15711.43
299.9020, 16774.81
301.1110, 18053.38
302.3190, 17896.13
303.5270, 18082.04
304.7350, 18400.13
305.9430, 18062.39
307.1510, 17568.81
308.3580, 16718.41
309.5660, 14986.18
310.7730, 13132.10
311.9800, 11102.20
313.1870, 10194.46
314.3940, 9572.872
315.6010, 9956.450
316.8070, 10842.19
318.0130, 12013.08
319.2200, 12972.13
320.4260, 13126.69
321.6310, 11990.05
322.8370, 9919.559
324.0430, 7597.221
325.2480, 5763.030
326.4540, 4265.990
327.6590, 3331.096
328.8640, 2551.347
330.0680, 2325.741
331.2730, 2183.280
332.4780, 2059.958
333.6820, 1980.779
334.8860, 2147.737
336.0900, 2522.833
337.2940, 3247.066
338.4980, 4268.434
339.7010, 5512.936
340.9050, 7398.569
342.1080, 9744.334
343.3110, 12502.23
344.5140, 15272.25
345.7170, 16824.40
346.9200, 16434.73
348.1220, 16555.24
349.3240, 14354.93
350.5270, 13954.83
351.7290, 14040.39
352.9310, 14136.89
354.1320, 13000.22
355.3340, 11089.62
356.5350, 8613.389
357.7370, 6387.219
358.9380, 4440.099
360.1390, 3101.224
361.3400, 1723.858
362.5400, 991.6079
363.7410, 229.5098
364.9410, 95.43848
366.1410, 331.2544
367.3410, 542.9951
368.5410, 587.7314
369.7410, 579.4688
370.9400, 436.2114
372.1400, 161.9077
373.3390, 24.47949
374.5380, 147.1079
375.7370, 127.8804
376.9360, 98.18604
378.1350, 44.09375
379.3330, 10.12842
380.5310, 283.4775
381.7300, 803.0420
382.9280, 1480.091
384.1260, 2456.924
385.3230, 3987.718
386.5210, 5778.716
387.7180, 8154.961
388.9160, 10088.19
390.1130, 11726.05
391.3100, 12862.17
392.5060, 13785.99
393.7030, 14179.33
394.9000, 13882.05
396.0960, 12614.88
397.2920, 10831.80
398.4880, 8838.828
399.6840, 7261.950
400.8800, 6143.166
402.0750, 5060.475
403.2710, 4313.878
404.4660, 3619.373
405.6610, 2909.960
406.8560, 2366.637
408.0510, 1993.403
409.2450, 1852.258
410.4400, 1931.203
411.6340, 2189.235
412.8280, 2689.353
414.0220, 3490.559
415.2160, 4745.849
416.4100, 6965.225
417.6030, 8877.687
418.7970, 10506.23
419.9900, 10912.86
421.1830, 10408.57
422.3760, 10194.36
423.5690, 10913.23
424.7610, 12318.18
425.9540, 14249.21
427.1460, 16252.32
428.3380, 18869.50
429.5300, 20662.76
430.7220, 21933.10
431.9140, 21536.51
433.1050, 19728.99
434.2970, 16511.55
435.4880, 13171.18
436.6790, 10320.88
437.8700, 7683.641
439.0610, 6044.475
440.2510, 5072.376
441.4420, 4450.344
442.6320, 4595.376
443.8220, 5232.474
445.0120, 5766.636
446.2020, 5640.857
447.3910, 5026.141
448.5810, 3854.486
449.7700, 2516.890
450.9600, 1726.353
452.1490, 1023.872
453.3370, 707.4482
454.5260, 507.0806
455.7150, 752.7676
456.9030, 579.5083
458.0910, 434.3018
459.2800, 291.1475
460.4670, 225.0439
461.6550, 183.9907
462.8430, 56.98633
464.0300, 81.02051
465.2180, 143.0981
466.4050, 142.2217
467.5920, 569.3916
468.7790, 954.6060
469.9650, 1399.864
471.1520, 1711.166
472.3380, 1866.509
473.5250, 1708.894
474.7110, 1437.318
475.8970, 978.7837
477.0820, 796.2871
478.2680, 682.8291
479.4540, 856.4077
480.6390, 1247.023
481.8240, 1843.673
483.0090, 2499.357
484.1940, 3376.077
485.3780, 4075.828
486.5630, 4453.612
487.7470, 4018.427
488.9320, 2966.273
490.1160, 1738.291
491.3000, 880.4985
492.4830, 191.8081
493.6670, 263.2002
494.8500, 407.4390
496.0340, 465.6299
497.2170, 664.4438
498.4000, 579.3325
499.5820, 420.7388
500.7650, 330.3989
501.9480, 192.2700
503.1300, 39.71240
504.3120, 241.6553
505.4940, 366.6138
506.6760, 509.5845
507.8580, 692.2744
509.0390, 838.8872
510.2210, 878.6890
511.4020, 944.5283
512.5830, 995.6260
513.7640, 987.9531
514.9450, 1029.861
516.1250, 1031.518
517.3060, 968.4092
518.4860, 819.9844
519.6660, 587.0762
520.8460, 517.3188
522.0260, 329.3960
523.2060, 104.5840
524.3850, 12.23096
525.5650, 158.1128
526.7440, 153.1138
527.9230, 374.2573
529.1020, 425.6528
530.2810, 387.3311
531.4590, 326.2749
532.6380, 207.4556
533.8160, 96.81543
534.9940, 56.69678
536.1720, 265.1562
537.3500, 439.6108
538.5270, 938.0610
539.7050, 1384.506
540.8820, 2036.944
542.0590, 2726.377
543.2360, 3684.805
544.4130, 4520.239
545.5900, 5439.669
546.7660, 5981.167
547.9430, 6075.722
549.1190, 5577.348
550.2950, 5051.045
551.4710, 4059.833
552.6470, 3526.708
553.8220, 2943.654
554.9980, 2805.694
556.1730, 2961.814
557.3480, 3061.999
558.5230, 3641.248
559.6980, 4418.545
560.8730, 5172.896
562.0470, 5437.295
563.2220, 5496.739
564.3960, 4985.202
565.5700, 4500.697
566.7440, 3956.207
567.9170, 3792.728
569.0910, 3695.248
570.2640, 3864.755
571.4380, 4237.242
572.6110, 4577.707
573.7840, 5073.151
574.9570, 5070.573
576.1290, 5204.972
577.3020, 5075.347
578.4740, 4920.699
579.6460, 4805.027
580.8180, 4819.330
581.9900, 4736.606
583.1620, 5279.859
584.3330, 5731.084
585.5040, 6507.282
586.6760, 7669.455
587.8470, 8804.598
589.0180, 9834.710
590.1880, 10229.80
591.3590, 9981.855
592.5290, 9114.881
593.7000, 7547.879
594.8700, 6001.846
596.0400, 4772.781
597.2090, 3573.686
598.3790, 2737.558
599.5490, 2162.398
600.7180, 1881.205
601.8870, 1589.979
603.0560, 1598.720
604.2250, 1525.078
605.3940, 1854.746
606.5620, 2074.383
607.7300, 2417.986
608.8990, 2865.553
610.0670, 3222.084
611.2350, 3761.581
612.4020, 3877.039
613.5700, 4121.461
614.7370, 4046.847
615.9050, 4146.194
617.0720, 4054.503
618.2390, 4068.775
619.4060, 3918.008
620.5720, 3711.202
621.7390, 3489.355
622.9050, 3045.471
624.0710, 2383.547
625.2370, 1913.582
626.4030, 1361.577
627.5690, 856.5312
628.7340, 607.4448
629.9000, 444.3164
631.0650, 211.1436
632.2300, 174.2197
633.3950, 97.54004
634.5600, 112.6270
635.7240, 216.8765
636.8890, 166.4175
638.0530, 334.0107
639.2170, 442.3613
640.3810, 764.7900
641.5450, 999.3071
642.7080, 1177.722
643.8720, 1292.782
645.0350, 1505.869
646.1980, 1349.927
647.3610, 1364.954
648.5240, 1214.960
649.6870, 872.9712
650.8490, 597.0220
652.0120, 414.1201
653.1740, 205.3555
654.3360, 96.57959
655.4980, 4.805664
656.6600, 78.59668
657.8210, 12.28760
658.9830, 54.20557
660.1440, 141.1621
661.3050, 296.5195
662.4660, 475.8501
663.6270, 651.4336
664.7870, 1004.710
665.9480, 1352.173
667.1080, 1953.399
668.2680, 2528.294
669.4280, 3302.562
670.5880, 4266.934
671.7480, 5605.753
672.9070, 7167.408
674.0670, 9185.430
675.2260, 11028.02
676.3850, 12826.30
677.5440, 13811.56
678.7030, 13775.79
679.8610, 12604.00
681.0200, 10931.19
682.1780, 9153.643
683.3360, 7472.226
684.4940, 5820.871
685.6520, 4707.916
686.8090, 3969.493
687.9670, 3176.696
689.1240, 2929.889
690.2810, 2746.033
691.4380, 2486.301
692.5950, 2669.622
693.7520, 2709.604
694.9080, 2904.590
696.0650, 3372.836
697.2210, 3843.360
698.3770, 4550.589
699.5330, 5336.801
700.6880, 6495.485
701.8440, 7897.525
702.9990, 9510.525
704.1550, 11616.84
705.3100, 14611.69
706.4650, 18001.22
707.6190, 22226.94
708.7740, 27782.17
709.9290, 34042.55
711.0830, 40912.89
712.2370, 47425.19
713.3910, 53303.45
714.5450, 55891.68
715.6980, 55938.85
716.8520, 51503.99
718.0050, 45405.07
719.1580, 38090.13
720.3110, 31164.15
721.4640, 25327.13
722.6170, 20518.07
723.7700, 16496.97
724.9220, 13533.83
726.0740, 11124.65
727.2260, 9215.432
728.3780, 7900.177
729.5300, 6708.881
730.6810, 5570.550
731.8330, 4858.178
732.9840, 4186.770
734.1350, 3728.322
735.2860, 3297.839
736.4370, 2814.316
737.5880, 2627.759
738.7380, 2275.163
739.8880, 2111.530
741.0390, 1871.862
742.1890, 1715.158
743.3380, 1632.423
744.4880, 1399.653
745.6380, 1369.849
746.7870, 1367.010
747.9360, 1379.136
749.0850, 1295.227
750.2340, 1344.283
751.3830, 1356.306
752.5310, 1509.294
753.6800, 1495.249
754.8280, 1731.170
755.9760, 1901.060
757.1240, 2267.916
758.2720, 2630.739
759.4190, 2994.531
760.5670, 3427.291
761.7140, 4074.020
762.8610, 4717.719
764.0080, 5372.386
765.1550, 6115.022
766.3020, 6624.630
767.4480, 6963.208
768.5950, 7022.612
769.7410, 7171.829
770.8870, 6581.942
772.0330, 6561.372
773.1780, 5869.936
774.3240, 4726.321
775.4690, 4051.181
776.6140, 3389.916
777.7590, 2952.990
778.9040, 2478.178
780.0490, 2199.455
781.1940, 1949.792
782.3380, 1535.132
783.4820, 1167.450
784.6260, 1030.747
785.7700, 803.0210
786.9140, 710.2744
788.0580, 557.5059
789.2010, 432.7168
790.3450, 329.9058
791.4880, 190.4609
792.6310, 197.9951
793.7730, 74.19678
794.9160, 129.4785
796.0590, 7.937500
797.2010, 86.64502
798.3430, 21.92529
799.4850, 78.13232
800.6270, 5.281250
801.7690, 41.52930
802.9100, 38.65039
804.0520, 72.17480
805.1930, 93.05029
806.3340, 240.0342
807.4750, 287.1440
808.6160, 433.3716
809.7560, 581.7026
810.8970, 618.1089
812.0370, 581.5625
813.1770, 760.0293
814.3170, 689.4824
815.4570, 644.9233
816.5960, 452.3511
817.7360, 349.7676
818.8750, 94.17090
820.0140, 7.440430
821.1530, 61.90625
822.2920, 240.7642
823.4310, 202.5981
824.5690, 261.5742
825.7070, 262.7231
826.8460, 343.0454
827.9840, 330.5801
829.1220, 269.3228
830.2590, 361.2368
831.3970, 315.3721
832.5340, 257.7026
833.6710, 264.1973
834.8080, 197.8569
835.9450, 231.6475
837.0820, 209.5840
838.2190, 201.6533
839.3550, 107.8516
840.4910, 163.1270
841.6270, 94.50732
842.7630, 91.95557
843.8990, 48.46777
845.0350, 3.020508
846.1700, 131.4102
847.3060, 105.8389
848.4410, 979.2656
849.5760, 928.6924
850.7100, 838.1177
851.8450, 345.5435
852.9800, 357.9692
854.1140, 437.3950
855.2480, 420.8237
856.3820, 430.2529
857.5160, 490.6851
858.6500, 679.1191
859.7830, 611.5566
860.9170, 628.9976
862.0500, 876.4429
863.1830, 844.1445
864.3160, 891.3477
865.4480, 970.8076
866.5810, 1075.273
867.7130, 1091.745
868.8460, 1110.224
869.9780, 1175.710
871.1100, 1340.204
872.2410, 1258.707
873.3730, 1411.221
874.5050, 1397.743
875.6360, 1521.275
876.7670, 1600.816
877.8980, 1658.370
879.0290, 1600.939
880.1590, 1779.521
881.2900, 1713.124
882.4200, 1789.740
883.5500, 1822.367
884.6800, 1883.009
885.8100, 1800.663
886.9400, 1982.330
888.0690, 1955.016
889.1990, 2278.718
890.3280, 2520.435
891.4570, 2768.174
892.5860, 3112.941
893.7140, 3494.742
894.8430, 3987.570
895.9710, 4560.429
897.1000, 5216.315
898.2280, 5907.225
899.3560, 6699.157
900.4830, 7376.131
901.6110, 8380.140
902.7380, 9180.184
903.8660, 10215.26
904.9930, 11191.39
906.1200, 12080.56
907.2460, 12258.78
908.3730, 12075.06
909.5000, 11266.41
910.6260, 10364.81
911.7520, 9114.283
912.8780, 8146.787
914.0040, 7006.323
915.1290, 5991.893
916.2550, 5188.487
917.3800, 4457.117
918.5050, 3814.032
919.6300, 3286.380
920.7550, 2885.202
921.8800, 2505.953
923.0040, 2316.728
924.1290, 2183.534
925.2530, 2026.366
926.3770, 1975.231
927.5010, 1894.969
928.6250, 1972.807
929.7480, 1965.621
930.8720, 2187.376
931.9950, 2089.848
933.1180, 2139.415
934.2410, 2252.981
935.3640, 2196.568
936.4860, 2203.806
937.6090, 2780.998
938.7310, 3055.337
939.8530, 2872.430
940.9750, 2961.037
942.0970, 2587.506
943.2180, 2794.002
944.3400, 2932.521
945.4610, 3215.069
946.5820, 3513.649
947.7030, 4011.254
948.8240, 4457.889
949.9450, 4946.551
951.0650, 5562.239
952.1860, 6343.308
953.3060, 7283.705
954.4260, 8241.192
955.5460, 9319.552
956.6650, 10584.85
957.7850, 12409.76
958.9040, 14390.16
960.0230, 16890.93
961.1420, 19476.76
962.2610, 22543.64
963.3800, 25514.43
964.4990, 28104.18
965.6170, 29504.29
966.7350, 29697.41
967.8530, 28577.28
968.9710, 26669.89
970.0890, 24311.82
971.2070, 22523.79
972.3240, 21114.28
973.4410, 20418.44
974.5580, 20590.65
975.6750, 21152.55
976.7920, 22612.94
977.9090, 24292.66
979.0250, 26270.22
980.1410, 27602.26
981.2580, 28320.17
982.3740, 27939.14
983.4890, 26767.17
984.6050, 24999.24
985.7200, 23078.37
986.8360, 21559.54
987.9510, 19989.77
989.0660, 18921.06
990.1810, 18281.41
991.2950, 17779.80
992.4100, 17534.25
993.5240, 17418.75
994.6390, 17212.30
995.7530, 17494.91
996.8660, 17778.57
997.9800, 18387.28
999.0940, 18776.04
1000.207, 19400.85
1001.320, 19823.71
1002.433, 19952.63
1003.546, 20044.60
1004.659, 19672.63
1005.772, 19176.84
1006.884, 18019.27
1007.996, 16893.43
1009.108, 15227.66
1010.220, 13606.94
1011.332, 11786.55
1012.444, 10345.69
1013.555, 9146.597
1014.666, 7816.779
1015.777, 6715.316
1016.888, 5875.897
1017.999, 5100.616
1019.110, 4506.296
1020.220, 4162.025
1021.331, 3704.355
1022.441, 3443.515
1023.551, 3158.443
1024.661, 3175.382
1025.770, 3200.215
1026.880, 3360.021
1027.989, 3437.225
1029.098, 3619.350
1030.207, 3794.188
1031.316, 3751.813
1032.425, 3894.650
1033.533, 3765.646
1034.642, 3678.169
1035.750, 3681.809
1036.858, 3796.969
1037.966, 3824.927
1039.073, 3808.779
1040.181, 3934.377
1041.288, 4235.873
1042.396, 4258.947
1043.503, 4344.417
1044.610, 4335.021
1045.716, 4307.073
1046.823, 4369.048
1047.929, 4531.984
1049.036, 4720.803
1050.142, 4864.302
1051.248, 5309.010
1052.353, 5797.682
1053.459, 6194.698
1054.564, 6512.140
1055.670, 6729.018
1056.775, 7068.338
1057.880, 7184.228
1058.985, 7073.234
1060.089, 6918.951
1061.194, 6744.741
1062.298, 6385.498
1063.402, 5884.470
1064.506, 5492.332
1065.610, 4829.200
1066.713, 4191.890
1067.817, 3756.597
1068.920, 3236.379
1070.023, 2932.751
1071.126, 2664.627
1072.229, 2633.562
1073.332, 2634.537
1074.435, 2775.642
1075.537, 2996.711
1076.639, 3395.505
1077.741, 3706.088
1078.843, 4563.855
1079.945, 5369.028
1081.046, 6301.197
1082.148, 7567.829
1083.249, 8581.284
1084.350, 9404.503
1085.451, 9720.907
1086.551, 9476.318
1087.652, 8952.707
1088.752, 7849.385
1089.853, 6699.997
1090.953, 5742.677
1092.053, 4842.860
1093.152, 3968.670
1094.252, 3579.194
1095.351, 3123.351
1096.451, 2687.272
1097.550, 2388.706
1098.649, 2164.841
1099.748, 2088.052
1100.846, 1917.490
1101.945, 1899.724
1103.043, 1877.772
1104.141, 1912.715
1105.239, 1762.177
1106.337, 1841.870
1107.434, 1735.027
1108.532, 1698.631
1109.629, 1473.803
1110.726, 1438.810
1111.823, 1320.226
1112.920, 1126.086
1114.017, 989.6104
1115.113, 881.3745
1116.210, 721.8379
1117.306, 686.6006
1118.402, 636.1157
1119.498, 622.9385
1120.593, 587.4517
1121.689, 534.8633
1122.784, 537.8965
1123.879, 434.2871
1124.974, 411.3340
1126.069, 340.3232
1127.164, 364.3203
1128.259, 272.4014
1129.353, 259.0742
1130.447, 188.0625
1131.541, 167.1353
1132.635, 119.9170
1133.729, 92.03174
1134.822, 132.4807
1135.916, 7.523926
1137.009, 10.68994
1138.102, 21.70020
1139.195, 48.04370
1140.288, 78.14722
1141.380, 24.14087
1142.473, 19.21802
1143.565, 41.16431
1144.657, 28.38892
1145.749, 70.55811
1146.841, 7.341797
1147.932, 53.99463
1149.024, 4.220459
1150.115, 24.57568
1151.206, 12.30200
1152.297, 27.93848
1153.388, 17.84546
1154.479, 0.2880860
1155.569, 41.60596
1156.659, 87.31201
1157.750, 105.6133
1158.839, 68.03223
1159.929, 86.35693
1161.019, 54.60889
1162.108, 46.84692
1163.198, 21.85522
1164.287, 130.2703
1165.376, 61.42676
1166.465, 101.8452
1167.553, 90.53931
1168.642, 102.1609
1169.730, 36.73511
1170.818, 19.79004
1171.906, 47.05737
1172.994, 35.41772
1174.082, 113.7092
1175.170, 97.28369
1176.257, 50.06396
1177.344, 65.47827
1178.431, 62.44385
1179.518, 19.34717
1180.605, 64.78027
1181.691, 50.99561
1182.778, 48.06226
1183.864, 51.19141
1184.950, 2.679443
1186.036, 6.058105
1187.122, 32.82031
1188.207, 2.549561
1189.292, 39.12280
1190.378, 5.362793
1191.463, 62.77295
1192.548, 36.91602
1193.632, 68.35913
1194.717, 9.406982
1195.801, 12.31689
1196.886, 21.76489
1197.970, 40.63525
1199.054, 42.87646
1200.137, 21.45264
1201.221, 97.98975
1202.305, 53.32764
1203.388, 81.26685
1204.471, 7.762207
1205.554, 36.17310
1206.637, 46.58179
1207.719, 32.80957
1208.802, 5.013428
1209.884, 81.29199
1210.966, 20.43774
1212.048, 35.55151
1213.130, 44.18433
1214.212, 26.88086
1215.293, 57.98389
1216.374, 67.04419
1217.456, 105.0544
1218.536, 54.01538
1219.617, 62.94922
1220.698, 19.06348
1221.778, 7.954590
1222.859, 0.7519530
1223.939, 23.50439
1225.019, 1.634277
1226.099, 23.20581
1227.178, 21.34546
1228.258, 31.84790
1229.337, 34.37109
1230.417, 3.218262
1231.496, 71.12769
1232.574, 7.563477
1233.653, 120.6763
1234.732, 47.88330
1235.810, 24.04297
1236.888, 133.1458
