##NAMES=Axinite-(Fe)
##RRUFFID=R060558
##IDEAL CHEMISTRY=Ca_4_Fe^2+^_2_Al_4_[B_2_Si_8_O_30_](OH)_2_
##LOCALITY=unknown
##OWNER=RRUFF
##SOURCE=Gemological Institute of America
##DESCRIPTION=Brown flattened crystal
##STATUS=The identification of this mineral has been confirmed by X-ray diffraction and chemical analysis
##URL=rruff.info/R060558
##MEASURED CHEMISTRY=Ca_2.00_(Fe^2+^_0.60_Mg_0.35_Mn_0.05_)_Î£=1_Al_2.00_BSi_4.00_O_15_(OH) ; B not measured
##PIN_ID=M01972
##ORIENTATION=Laser parallel to (1 0 1). Fiducial mark perpendicular to laser is parallel to -b [0 -1 0]
130.1020, 0.0000000E+00
131.3430, 107.6851
132.5840, 118.3550
133.8240, 26.51904
135.0650, 7.190918
136.3050, 124.7051
137.5450, 434.1060
138.7850, 820.0078
140.0250, 1281.916
141.2640, 1823.743
142.5030, 2482.015
143.7430, 3234.279
144.9810, 3978.305
146.2200, 4778.892
147.4590, 6116.612
148.6970, 7182.539
149.9350, 8021.050
151.1730, 8453.725
152.4110, 8458.265
153.6480, 8160.470
154.8860, 7294.915
156.1230, 6497.714
157.3600, 5459.771
158.5960, 4876.188
159.8330, 4453.038
161.0690, 4357.704
162.3050, 4487.465
163.5410, 4897.704
164.7770, 5490.539
166.0130, 6368.213
167.2480, 7453.894
168.4830, 8189.718
169.7180, 8907.791
170.9530, 9286.217
172.1880, 8923.089
173.4220, 8266.484
174.6560, 7282.478
175.8900, 5763.132
177.1240, 4599.500
178.3580, 3256.628
179.5910, 2384.417
180.8250, 1739.219
182.0580, 1357.416
183.2900, 1150.850
184.5230, 999.5957
185.7560, 938.6411
186.9880, 971.5229
188.2200, 1032.139
189.4520, 1379.558
190.6830, 1841.403
191.9150, 2288.659
193.1460, 2408.291
194.3770, 2555.276
195.6080, 2447.657
196.8390, 2305.462
198.0700, 2105.696
199.3000, 1827.349
200.5300, 2003.402
201.7600, 2146.844
202.9900, 2545.658
204.2190, 2812.809
205.4490, 3061.184
206.6780, 3286.726
207.9070, 3499.591
209.1360, 3715.585
210.3640, 3859.929
211.5930, 3884.545
212.8210, 3865.461
214.0490, 3761.646
215.2770, 3594.104
216.5040, 3364.831
217.7320, 3069.818
218.9590, 2718.057
220.1860, 2355.536
221.4130, 1984.248
222.6400, 1459.185
223.8660, 1066.341
225.0920, 626.7109
226.3190, 271.2886
227.5450, 60.93018
228.7700, 352.9526
229.9960, 504.8081
231.2210, 580.5337
232.4460, 715.1328
233.6710, 635.6035
234.8960, 466.9453
236.1210, 414.1582
237.3450, 124.2407
238.5690, 102.8062
239.7930, 287.9824
241.0170, 551.2886
242.2410, 747.7241
243.4640, 1155.288
244.6870, 1344.981
245.9100, 1564.801
247.1330, 1817.420
248.3560, 1981.824
249.5780, 2218.025
250.8000, 2441.350
252.0230, 2648.799
253.2440, 2713.235
254.4660, 2700.274
255.6880, 2532.035
256.9090, 2652.014
258.1300, 2483.725
259.3510, 2653.308
260.5720, 2745.622
261.7920, 2720.536
263.0130, 2915.895
264.2330, 3179.529
265.4530, 3416.258
266.6730, 3621.065
267.8920, 3871.949
269.1120, 3978.907
270.3310, 3987.940
271.5500, 3843.044
272.7690, 3635.220
273.9880, 3442.467
275.2060, 3026.783
276.4240, 2713.167
277.6430, 2449.868
278.8600, 2160.753
280.0780, 2115.782
281.2960, 2018.751
282.5130, 2006.304
283.7300, 1839.417
284.9470, 1987.921
286.1640, 2028.762
287.3810, 2015.893
288.5970, 1897.281
289.8130, 2128.899
291.0290, 2110.714
292.2450, 2275.693
293.4610, 2781.813
294.6760, 3113.061
295.8910, 3491.423
297.1060, 4056.893
298.3210, 4463.461
299.5360, 5024.128
300.7510, 5625.886
301.9650, 6021.724
303.1790, 6232.574
304.3930, 6657.394
305.6070, 6679.194
306.8200, 6748.987
308.0340, 6357.782
309.2470, 5923.585
310.4600, 5256.404
311.6730, 4754.244
312.8850, 4174.110
314.0980, 3588.007
315.3100, 3082.937
316.5220, 2922.904
317.7340, 2859.910
318.9460, 2500.959
320.1570, 2469.050
321.3690, 2362.186
322.5800, 2074.369
323.7910, 1875.599
325.0010, 1718.877
326.2120, 1456.910
327.4220, 1398.236
328.6330, 1480.703
329.8430, 1477.702
331.0520, 1745.742
332.2620, 1874.885
333.4720, 2017.133
334.6810, 2313.481
335.8900, 2930.929
337.0990, 3581.472
338.3070, 4596.111
339.5160, 5300.843
340.7240, 6528.666
341.9320, 7734.580
343.1400, 8752.579
344.3480, 9290.667
345.5560, 9733.835
346.7630, 9769.087
347.9700, 9156.416
349.1770, 8461.825
350.3840, 7548.309
351.5910, 6727.871
352.7970, 5486.506
354.0040, 4521.217
355.2100, 3651.010
356.4160, 2793.878
357.6220, 1977.817
358.8270, 1349.827
360.0320, 832.9048
361.2380, 414.0479
362.4430, 243.2559
363.6470, 84.52637
364.8520, 128.8594
366.0560, 78.25391
367.2610, 178.7075
368.4650, 445.2236
369.6690, 588.8071
370.8720, 662.4556
372.0760, 888.1807
373.2790, 1087.207
374.4820, 1113.542
375.6850, 1190.653
376.8880, 1201.127
378.0910, 1137.526
379.2930, 1258.153
380.4950, 1716.833
381.6970, 2219.986
382.8990, 3029.335
384.1010, 3786.122
385.3020, 4989.302
386.5040, 6128.256
387.7050, 7165.994
388.9060, 8468.778
390.1060, 9517.606
391.3070, 10153.56
392.5070, 10385.00
393.7080, 9917.839
394.9080, 9062.803
396.1070, 7997.592
397.3070, 6951.925
398.5070, 5671.104
399.7060, 5009.966
400.9050, 4194.019
402.1040, 3739.951
403.3030, 3114.916
404.5010, 2827.909
405.7000, 2532.928
406.8980, 2238.970
408.0960, 2141.032
409.2940, 2352.115
410.4910, 2597.215
411.6890, 2827.333
412.8860, 3497.470
414.0830, 4134.622
415.2800, 4843.792
416.4770, 5694.977
417.6730, 6371.178
418.8690, 6471.393
420.0660, 6637.623
421.2620, 6441.869
422.4570, 6377.137
423.6530, 6169.437
424.8480, 6250.769
426.0440, 6218.141
427.2390, 6169.539
428.4340, 6103.958
429.6280, 5841.397
430.8230, 5518.854
432.0170, 5006.328
433.2110, 4388.815
434.4050, 3547.315
435.5990, 2845.828
436.7930, 2300.352
437.9860, 1838.886
439.1800, 1431.430
440.3730, 1191.981
441.5660, 1008.542
442.7580, 1007.108
443.9510, 860.6816
445.1430, 881.2603
446.3350, 888.8438
447.5270, 917.4321
448.7190, 786.0259
449.9110, 841.6230
451.1020, 763.2246
452.2930, 789.8306
453.4850, 788.4399
454.6750, 844.0527
455.8660, 920.6680
457.0570, 944.7505
458.2470, 1074.907
459.4370, 1020.530
460.6270, 1105.154
461.8170, 1107.778
463.0070, 1187.404
464.1960, 1194.029
465.3850, 1533.655
466.5750, 1495.279
467.7630, 1889.902
468.9520, 2077.524
470.1410, 2458.145
471.3290, 2630.767
472.5170, 3019.396
473.7050, 3218.032
474.8930, 3820.675
476.0810, 4396.324
477.2680, 5504.979
478.4560, 6922.639
479.6430, 8430.303
480.8300, 10023.97
482.0160, 12039.64
483.2030, 13883.32
484.3890, 15470.99
485.5760, 16267.67
486.7620, 15714.34
487.9480, 14319.02
489.1330, 12144.69
490.3190, 9726.362
491.5040, 7496.036
492.6890, 5490.703
493.8740, 3982.368
495.0590, 3240.262
496.2440, 2719.191
497.4280, 2261.702
498.6120, 2332.037
499.7960, 2280.145
500.9800, 2260.021
502.1640, 2505.919
503.3470, 2602.535
504.5310, 2725.143
505.7140, 3006.739
506.8970, 2808.326
508.0800, 2859.944
509.2620, 2542.565
510.4450, 2472.787
511.6270, 1964.319
512.8090, 1627.468
513.9910, 1181.603
515.1730, 798.1455
516.3550, 445.5566
517.5360, 177.7515
518.7170, 22.65039
519.8980, 213.7021
521.0790, 338.8169
522.2600, 419.8813
523.4400, 512.0205
524.6210, 537.6143
525.8010, 576.7432
526.9810, 532.4790
528.1610, 478.5020
529.3400, 424.7983
530.5200, 391.3804
531.6990, 326.2432
532.8780, 262.3530
534.0570, 188.6787
535.2360, 177.1826
536.4140, 81.85938
537.5930, 103.3398
538.7710, 146.5010
539.9490, 177.6294
541.1270, 265.2168
542.3040, 230.7993
543.4820, 350.8413
544.6590, 394.8560
545.8360, 443.8428
547.0130, 432.8013
548.1900, 437.7305
549.3670, 491.6309
550.5430, 512.5024
551.7190, 608.3442
552.8960, 622.1572
554.0710, 739.9419
555.2470, 875.6948
556.4230, 1243.422
557.5980, 1491.116
558.7730, 1910.782
559.9480, 2037.416
561.1230, 2275.017
562.2980, 2280.585
563.4720, 2315.120
564.6470, 2012.622
565.8210, 1817.090
566.9950, 1670.524
568.1690, 1592.923
569.3420, 1584.288
570.5160, 1670.617
571.6890, 1758.910
572.8620, 1860.167
574.0350, 2084.388
575.2080, 2208.571
576.3800, 2255.718
577.5530, 2391.827
578.7250, 2273.899
579.8970, 2399.934
581.0690, 2343.930
582.2410, 2367.887
583.4120, 2292.805
584.5830, 2313.685
585.7550, 2485.525
586.9260, 2539.325
588.0960, 2551.086
589.2670, 2627.807
590.4380, 2617.488
591.6080, 2323.128
592.7780, 2041.727
593.9480, 1809.285
595.1180, 1523.802
596.2870, 1417.277
597.4570, 1248.711
598.6260, 1073.103
599.7950, 1148.452
600.9640, 1092.759
602.1330, 1277.023
603.3010, 1445.245
604.4700, 1709.423
605.6380, 2037.559
606.8060, 2490.650
607.9740, 2952.698
609.1420, 3504.703
610.3090, 4249.662
611.4760, 4931.578
612.6440, 5726.449
613.8110, 6697.275
614.9770, 7658.057
616.1440, 8352.794
617.3110, 9122.486
618.4770, 9636.131
619.6430, 9752.732
620.8090, 9633.284
621.9750, 8965.791
623.1400, 7874.254
624.3060, 6760.669
625.4710, 5455.037
626.6360, 4140.359
627.8010, 3127.633
628.9660, 2246.860
630.1300, 1660.040
631.2950, 1254.172
632.4590, 821.1914
633.6230, 504.2939
634.7870, 350.2832
635.9510, 341.2212
637.1140, 182.1084
638.2780, 267.9277
639.4410, 295.6919
640.6040, 349.4019
641.7670, 343.0610
642.9290, 470.6680
644.0920, 443.2266
645.2540, 499.7363
646.4160, 482.1968
647.5780, 406.5562
648.7400, 424.2368
649.9020, 309.6309
651.0630, 224.0703
652.2250, 272.3042
653.3860, 164.6914
654.5470, 206.3506
655.7080, 280.8291
656.8680, 363.7617
658.0290, 456.1357
659.1890, 565.4160
660.3490, 666.3345
661.5090, 776.0220
662.6690, 982.7607
663.8280, 1237.797
664.9880, 1446.830
666.1470, 2003.661
667.3060, 2479.804
668.4650, 2951.779
669.6240, 3648.235
670.7820, 4362.021
671.9410, 5363.746
673.0990, 6130.336
674.2570, 7007.416
675.4150, 7596.083
676.5720, 7917.611
677.7300, 8040.292
678.8870, 7430.413
680.0450, 6932.670
681.2020, 5948.229
682.3590, 5044.581
683.5150, 4275.040
684.6720, 3623.445
685.8280, 3109.798
686.9840, 2612.100
688.1400, 2459.349
689.2960, 2263.546
690.4520, 2306.692
691.6070, 2302.836
692.7630, 2356.895
693.9180, 2659.886
695.0730, 2830.219
696.2280, 3249.108
697.3820, 3712.026
698.5370, 4392.813
699.6910, 5215.548
700.8450, 6278.235
701.9990, 7587.870
703.1530, 9215.454
704.3070, 11367.99
705.4600, 13791.47
706.6130, 16756.91
707.7660, 20392.29
708.9190, 23871.63
710.0720, 27364.91
711.2250, 30679.15
712.3770, 33230.34
713.5300, 34519.48
714.6820, 34328.57
715.8340, 32580.62
716.9850, 29622.62
718.1370, 25419.56
719.2880, 21591.46
720.4400, 17414.32
721.5910, 14098.13
722.7420, 11245.89
723.8930, 8966.606
725.0430, 7343.274
726.1940, 5870.898
727.3440, 4922.476
728.4940, 4073.009
729.6440, 3344.497
730.7940, 2757.940
731.9430, 2337.339
733.0930, 2057.693
734.2420, 1730.005
735.3910, 1568.273
736.5400, 1301.498
737.6890, 1023.680
738.8370, 995.8184
739.9860, 914.9155
741.1340, 766.9707
742.2820, 668.9844
743.4300, 617.9565
744.5780, 599.8877
745.7250, 573.7778
746.8730, 573.6279
748.0200, 581.4385
749.1670, 700.2090
750.3140, 718.9404
751.4610, 698.6333
752.6070, 869.2871
753.7540, 1005.903
754.9000, 1178.482
756.0460, 1342.022
757.1920, 1633.526
758.3380, 1761.995
759.4830, 2185.427
760.6280, 2409.824
761.7740, 2767.187
762.9190, 2970.513
764.0640, 3362.807
765.2080, 3674.066
766.3530, 3775.292
767.4970, 4009.486
768.6420, 3738.647
769.7860, 3602.778
770.9300, 3334.877
772.0730, 2820.945
773.2170, 2476.750
774.3600, 1985.485
775.5040, 1558.606
776.6470, 1459.867
777.7900, 976.3218
778.9320, 837.9727
780.0750, 705.5688
781.2170, 346.4126
782.3600, 289.2310
783.5020, 145.0244
784.6440, 11.79297
785.7850, 59.52197
786.9270, 184.9111
788.0680, 252.0415
789.2100, 315.5303
790.3510, 368.8091
791.4920, 361.2231
792.6320, 378.1948
793.7730, 373.1704
794.9130, 384.4233
796.0540, 384.2524
797.1940, 415.8960
798.3340, 463.5361
799.4730, 328.3535
800.6130, 431.2529
801.7520, 367.2627
802.8920, 361.3369
804.0310, 200.4624
805.1700, 149.5635
806.3090, 12.62305
807.4470, 183.4180
808.5860, 353.5776
809.7240, 475.8394
810.8620, 710.1880
812.0000, 908.6050
813.1380, 1217.088
814.2750, 1207.614
815.4130, 1247.139
816.5500, 1173.661
817.6870, 1043.180
818.8240, 715.6934
819.9610, 678.2046
821.0980, 589.7114
822.2340, 307.2148
823.3700, 229.7158
824.5070, 146.2148
825.6430, 130.7129
826.7780, 58.20996
827.9140, 12.70654
829.0500, 17.20068
830.1850, 112.6929
831.3200, 10.81396
832.4550, 51.67383
833.5900, 8.163574
834.7250, 81.65332
835.8590, 230.1470
836.9930, 128.6450
838.1280, 238.1484
839.2620, 243.6577
840.3950, 468.1729
841.5290, 458.6948
842.6630, 672.2246
843.7960, 717.7612
844.9290, 749.3076
846.0620, 1006.862
847.1950, 1025.427
848.3280, 1084.001
849.4600, 1335.587
850.5930, 1272.184
851.7250, 1390.792
852.8570, 1498.412
853.9890, 1374.046
855.1210, 1354.693
856.2520, 1274.354
857.3840, 1327.030
858.5150, 1395.721
859.6460, 1257.427
860.7770, 1371.149
861.9080, 1261.889
863.0380, 1344.646
864.1690, 1296.419
865.2990, 1121.211
866.4290, 1289.022
867.5590, 1053.853
868.6890, 1172.703
869.8190, 1079.574
870.9480, 1105.465
872.0770, 1029.377
873.2070, 1042.312
874.3360, 1173.270
875.4640, 1165.250
876.5930, 1239.254
877.7220, 1157.282
878.8500, 1140.334
879.9780, 1191.412
881.1060, 1187.275
882.2340, 1325.649
883.3620, 1318.811
884.4890, 1395.000
885.6170, 1555.217
886.7440, 1676.465
887.8710, 1820.750
888.9980, 2143.080
890.1240, 2385.451
891.2510, 2828.854
892.3770, 3016.304
893.5040, 3679.806
894.6300, 4060.351
895.7560, 4655.951
896.8810, 5269.601
898.0070, 5653.309
899.1330, 6128.069
900.2580, 6747.874
901.3830, 7022.732
902.5080, 7227.641
903.6330, 7433.592
904.7570, 7412.598
905.8820, 7180.674
907.0060, 6953.817
908.1300, 6615.030
909.2540, 6216.296
910.3780, 5795.639
911.5020, 5136.052
912.6250, 4614.540
913.7490, 4126.093
914.8720, 3624.686
915.9950, 3251.322
917.1180, 2827.051
918.2400, 2458.822
919.3630, 2276.680
920.4850, 2217.631
921.6080, 2071.280
922.7300, 2154.225
923.8520, 2184.122
924.9730, 2259.228
926.0950, 2327.191
927.2160, 2558.861
928.3380, 2803.708
929.4590, 2990.105
930.5800, 3111.053
931.7010, 3394.247
932.8210, 3326.713
933.9420, 3522.439
935.0620, 3455.903
936.1820, 3729.160
937.3020, 3685.680
938.4220, 3936.831
939.5420, 4061.326
940.6610, 4453.271
941.7810, 4868.000
942.9000, 5545.404
944.0190, 6236.883
945.1380, 7153.433
946.2570, 8314.047
947.3750, 9478.730
948.4940, 11020.51
949.6120, 12334.35
950.7300, 13805.28
951.8480, 15188.29
952.9660, 16384.36
954.0830, 17759.50
955.2010, 18933.71
956.3180, 20377.98
957.4350, 21966.33
958.5520, 23520.78
959.6690, 25570.30
960.7860, 27572.91
961.9020, 29314.59
963.0190, 30592.31
964.1350, 30903.12
965.2510, 30786.02
966.3670, 29443.61
967.4830, 27581.65
968.5980, 25311.69
969.7140, 22885.87
970.8290, 20513.14
971.9440, 19051.47
973.0590, 17567.87
974.1740, 17085.33
975.2880, 16680.88
976.4030, 16807.49
977.5170, 16611.17
978.6310, 16598.92
979.7450, 16361.73
980.8590, 16025.61
981.9730, 15193.56
983.0860, 14286.57
984.2000, 13311.65
985.3130, 12882.80
986.4260, 11722.01
987.5390, 11115.30
988.6520, 10642.65
989.7640, 10260.06
990.8770, 9888.547
991.9890, 9768.095
993.1010, 9703.713
994.2130, 9905.398
995.3250, 10061.15
996.4370, 10330.97
997.5480, 10533.86
998.6590, 11440.81
999.7710, 12071.84
1000.882, 12569.93
1001.993, 13362.09
1003.103, 13297.32
1004.214, 13160.62
1005.324, 13058.98
1006.434, 12402.40
1007.545, 11440.90
1008.655, 10505.46
1009.764, 9428.077
1010.874, 8312.770
1011.983, 7061.526
1013.093, 6203.367
1014.202, 5173.252
1015.311, 4392.088
1016.420, 3861.104
1017.528, 3333.321
1018.637, 2932.468
1019.745, 2654.192
1020.854, 2517.952
1021.962, 2317.770
1023.070, 2488.321
1024.177, 2148.113
1025.285, 2325.876
1026.392, 2113.827
1027.500, 2354.778
1028.607, 2212.395
1029.714, 2144.912
1030.821, 2060.783
1031.927, 1892.947
1033.034, 1735.741
1034.140, 1698.786
1035.246, 1527.056
1036.352, 1503.666
1037.458, 1598.021
1038.564, 1509.493
1039.670, 1526.884
1040.775, 1638.196
1041.880, 1679.478
1042.986, 1743.822
1044.090, 1725.032
1045.195, 1891.979
1046.300, 1930.533
1047.404, 2050.277
1048.509, 2135.041
1049.613, 2373.661
1050.717, 2626.885
1051.821, 2786.060
1052.925, 3098.203
1054.028, 3267.948
1055.132, 3479.161
1056.235, 3874.320
1057.338, 4080.021
1058.441, 4347.589
1059.544, 4417.031
1060.647, 4481.224
1061.749, 4359.739
1062.851, 4360.410
1063.954, 4030.818
1065.056, 3732.569
1066.158, 3470.705
1067.259, 3071.627
1068.361, 2828.683
1069.462, 2462.781
1070.564, 2430.680
1071.665, 2252.154
1072.766, 2212.304
1073.867, 2256.964
1074.967, 2386.698
1076.068, 2599.069
1077.168, 2973.609
1078.268, 3319.437
1079.368, 3601.972
1080.468, 4087.639
1081.568, 4375.867
1082.668, 4547.458
1083.767, 4592.968
1084.866, 4415.149
1085.966, 4160.021
1087.065, 3916.149
1088.163, 3266.859
1089.262, 2849.121
1090.361, 2408.628
1091.459, 2116.875
1092.557, 1955.067
1093.655, 1680.841
1094.753, 1573.432
1095.851, 1557.895
1096.949, 1525.612
1098.046, 1564.792
1099.143, 1928.247
1100.241, 1811.057
1101.338, 2087.484
1102.434, 2288.610
1103.531, 2447.064
1104.628, 2666.500
1105.724, 2658.839
1106.820, 2828.935
1107.916, 2812.649
1109.012, 2655.167
1110.108, 2417.613
1111.204, 2413.033
1112.299, 2300.470
1113.395, 1934.005
1114.490, 1776.497
1115.585, 1584.233
1116.680, 1450.928
1117.775, 1321.496
1118.869, 1187.667
1119.964, 1009.543
1121.058, 973.2686
1122.152, 785.8555
1123.246, 695.5146
1124.340, 636.4375
1125.434, 640.2734
1126.527, 523.0190
1127.620, 443.6021
1128.714, 387.9551
1129.807, 404.5991
1130.900, 413.4717
1131.992, 423.7490
1133.085, 263.4839
1134.178, 261.7388
1135.270, 169.3525
1136.362, 265.0171
1137.454, 226.6343
1138.546, 150.2524
1139.638, 217.8979
1140.729, 125.5181
1141.821, 120.6455
1142.912, 79.26465
1144.003, 5.881348
1145.094, 82.49609
1146.185, 47.89111
1147.276, 30.70752
1148.366, 8.696777
1149.456, 8.891602
1150.547, 29.49854
1151.637, 61.37402
1152.727, 106.8257
1153.816, 75.31787
1154.906, 17.83936
1155.995, 95.37256
1157.085, 114.9463
1158.174, 71.56982
1159.263, 119.2227
1160.352, 96.49512
1161.441, 115.7007
1162.529, 100.5205
1163.618, 52.39258
1164.706, 91.29639
1165.794, 74.58398
1166.882, 39.25342
1167.970, 85.28369
1169.058, 131.3691
1170.145, 126.5142
1171.232, 121.7593
1172.320, 54.08350
1173.407, 153.4526
1174.494, 71.86670
1175.580, 118.3047
1176.667, 76.91650
1177.754, 8.466797
1178.840, 10.90625
1179.926, 179.8145
1181.012, 6.341797
1182.098, 150.5298
1183.184, 14.48779
1184.269, 73.52100
1185.355, 29.60400
1186.440, 8.739258
1187.525, 44.91846
1188.610, 54.16260
1189.695, 17.52295
1190.780, 38.82861
1191.864, 39.24609
1192.949, 132.7329
1194.033, 28.34082
1195.117, 93.01611
1196.201, 30.79590
1197.285, 22.64746
1198.369, 11.57227
1199.452, 37.03760
1200.536, 6.575195
1201.619, 84.58057
1202.702, 55.46289
1203.785, 94.35059
1204.868, 92.81250
1205.950, 15.66943
1207.033, 61.63867
1208.115, 109.2920
1209.197, 70.08008
1210.279, 44.25000
1211.361, 56.21826
1212.443, 27.79443
1213.525, 13.14551
1214.606, 112.1304
1215.687, 82.48193
1216.769, 131.9170
1217.850, 63.20459
1218.930, 80.29590
1220.011, 22.54834
1221.092, 0.4892580
1222.172, 93.48242
1223.252, 11.27979
1224.333, 86.50342
1225.413, 94.16064
1226.492, 88.76367
1227.572, 112.5454
1228.652, 166.0391
1229.731, 95.51465
1230.810, 188.9990
1231.889, 40.54639
1232.968, 198.9219
1234.047, 211.3257
1235.126, 262.5049
1236.204, 73.64014
1237.283, 178.9463
1238.361, 220.9863
1239.439, 245.3062
1240.517, 271.0054
1241.595, 283.7471
1242.673, 244.7314
1243.750, 261.5430
1244.827, 209.3101
1245.905, 225.0322
1246.982, 260.8145
1248.059, 324.4419
1249.135, 280.0229
1250.212, 239.8423
1251.288, 278.3320
1252.365, 265.7852
1253.441, 233.1899
1254.517, 219.6885
1255.593, 259.0859
1256.669, 330.3442
1257.744, 192.5547
1258.820, 295.7104
1259.895, 244.8198
1260.970, 205.8794
1262.045, 178.8843
1263.120, 212.4536
1264.195, 322.7251
1265.270, 310.6465
1266.344, 381.4424
1267.418, 423.1904
1268.492, 323.2197
1269.566, 386.8701
1270.640, 237.4712
1271.714, 450.2134
1272.788, 435.7119
1273.861, 412.3691
1274.934, 407.8315
1276.007, 404.2920
1277.080, 399.8301
1278.153, 458.9683
1279.226, 342.1611
1280.299, 246.8198
1281.371, 376.4233
1282.443, 429.9800
1283.515, 381.9546
1284.587, 377.7466
1285.659, 349.3945
1286.731, 361.0356
1287.802, 426.5186
1288.874, 399.3457
1289.945, 391.2817
1291.016, 338.8750
1292.087, 382.1846
1293.158, 388.0107
1294.229, 398.4595
1295.299, 335.7925
1296.370, 443.6929
1297.440, 406.8584
1298.510, 314.1299
1299.580, 378.2705
1300.650, 348.4990
1301.720, 386.7666
1302.789, 285.5913
1303.859, 274.3330
1304.928, 289.9585
