##NAMES=Axinite-(Fe)
##RRUFFID=R040074
##IDEAL CHEMISTRY=Ca_4_Fe^2+^_2_Al_4_[B_2_Si_8_O_30_](OH)_2_
##LOCALITY=Luning, Nevada, USA
##OWNER=RRUFF
##SOURCE=University of Arizona Mineral Museum
##DESCRIPTION=Pale brown wedge-shaped crystal
##STATUS=The identification of this mineral has been confirmed by X-ray diffraction and chemical analysis
##URL=rruff.info/R040074
##MEASURED CHEMISTRY=(Ca_0.98_Mn_0.01_)_2_(Fe_0.41_Mg_0.39_Mn_0.20_)Al_1.95_B_1.20_Si_3.90_O_15_(OH)
##PIN_ID=L00197
##ORIENTATION=Laser parallel to c* (0 0 1). Fiducial mark perpendicular to laser is parallel to -a [-1 0 0]
91.398, 0.000
92.793, 5.876
94.188, 12.922
95.582, 138.724
96.976, 349.730
98.370, 510.520
99.764, 813.393
101.157, 1171.251
102.550, 1867.403
103.943, 2897.664
105.336, 4371.328
106.729, 5637.768
108.121, 6636.476
109.513, 6897.584
110.905, 6150.389
112.297, 5434.292
113.688, 4391.942
115.079, 3591.146
116.470, 2721.500
117.861, 2282.719
119.251, 1664.601
120.642, 1260.998
122.032, 917.801
123.422, 836.924
124.811, 512.301
126.201, 258.045
127.590, 76.267
128.979, 4.384
130.367, 88.377
131.756, 38.034
133.144, 17.701
134.532, 167.291
135.920, 325.933
137.307, 717.454
138.695, 1146.239
140.082, 1605.369
141.469, 2038.915
142.856, 2448.942
144.242, 2888.522
145.628, 3227.729
147.014, 3706.604
148.400, 4105.180
149.786, 4763.484
151.171, 5141.546
152.556, 5419.381
153.941, 5227.008
155.325, 4744.441
156.710, 4041.699
158.094, 3588.791
159.478, 3215.730
160.862, 2977.544
162.245, 2776.886
163.629, 2837.102
165.012, 2927.323
166.395, 3326.062
167.777, 3845.021
169.160, 4584.172
170.542, 5203.471
171.924, 5392.907
173.306, 5352.475
174.687, 4582.163
176.068, 3971.948
177.449, 3001.871
178.830, 2138.948
180.211, 1498.188
181.591, 925.591
182.972, 803.159
184.351, 611.890
185.731, 772.775
187.111, 1097.813
188.490, 1799.998
189.869, 2868.327
191.248, 3839.793
192.626, 4601.398
194.005, 4983.171
195.383, 4755.299
196.761, 4067.898
198.139, 3460.836
199.516, 3093.899
200.893, 3247.037
202.271, 3780.246
203.647, 4223.522
205.024, 4836.861
206.400, 5250.267
207.777, 5393.732
209.152, 5597.256
210.528, 5480.815
211.904, 5314.384
213.279, 5027.966
214.654, 4721.560
216.029, 4367.838
217.403, 3951.404
218.778, 3532.439
220.152, 2956.103
221.526, 2489.785
222.900, 1806.488
224.273, 1331.209
225.646, 808.950
227.019, 424.719
228.392, 23.563
229.765, 279.835
231.137, 457.056
232.509, 555.896
233.881, 537.947
235.253, 455.941
236.625, 244.923
237.996, 77.895
239.367, 271.152
240.738, 396.222
242.108, 533.350
243.479, 690.405
244.849, 664.962
246.219, 804.876
247.589, 985.440
248.958, 1216.977
250.328, 1555.524
251.697, 1851.085
253.065, 1976.656
254.434, 2177.236
255.803, 2095.825
257.171, 2247.036
258.539, 2364.458
259.906, 2738.799
261.274, 3233.585
262.641, 3708.714
264.008, 4724.117
265.375, 5529.742
266.742, 6515.548
268.108, 7331.497
269.475, 8087.565
270.840, 8393.739
272.206, 8140.008
273.572, 7936.355
274.937, 7322.776
276.302, 6539.161
277.667, 5565.547
279.032, 4801.974
280.396, 4058.434
281.760, 3364.922
283.125, 2981.433
284.488, 2516.963
285.852, 2428.510
287.215, 2123.071
288.578, 2300.643
289.941, 2455.227
291.304, 2580.812
292.666, 3057.977
294.029, 3335.659
295.391, 4004.646
296.753, 4619.913
298.114, 5228.778
299.476, 5869.554
300.837, 6526.749
302.198, 6922.942
303.558, 7493.438
304.919, 7990.410
306.279, 8176.679
307.639, 8102.771
308.999, 7728.839
310.359, 7214.882
311.718, 6440.903
313.077, 5846.905
314.436, 5432.891
315.795, 5688.878
317.154, 6094.899
318.512, 6570.941
319.870, 6766.969
321.228, 6652.987
322.586, 6368.991
323.943, 5404.980
325.300, 4680.709
326.657, 3865.725
328.014, 3410.063
329.371, 2954.146
330.727, 2742.251
332.083, 2555.376
333.439, 2472.528
334.795, 2686.711
336.150, 2874.920
337.506, 3379.192
338.861, 4433.514
340.215, 5627.883
341.570, 8082.309
342.924, 9886.764
344.279, 9761.245
345.633, 9885.749
346.986, 10020.266
348.340, 9314.796
349.693, 9119.334
351.046, 8923.879
352.399, 8518.429
353.752, 7792.983
355.104, 6747.542
356.457, 5332.104
357.809, 4056.669
359.160, 2971.628
360.512, 1929.269
361.863, 1314.324
363.214, 726.243
364.565, 557.303
365.916, 217.225
367.267, 187.490
368.617, 215.445
369.967, 273.533
371.317, 476.014
372.666, 510.125
374.016, 613.214
375.365, 597.567
376.714, 591.389
378.063, 628.645
379.411, 693.233
380.760, 888.454
382.108, 1182.969
383.456, 1751.614
384.803, 2528.878
386.151, 3657.688
387.498, 4933.835
388.845, 6562.993
390.192, 7819.101
391.539, 8254.509
392.885, 7922.067
394.231, 6949.318
395.577, 5717.133
396.923, 4395.079
398.269, 3597.697
399.614, 3203.050
400.959, 2746.856
402.304, 2539.949
403.649, 2496.020
404.993, 2096.065
406.337, 2040.089
407.681, 1951.091
409.025, 2248.074
410.369, 2919.039
411.712, 4000.986
413.055, 5964.916
414.398, 8028.825
415.741, 10392.718
417.084, 11246.591
418.426, 10930.442
419.768, 9664.282
421.110, 8068.104
422.452, 7011.907
423.793, 6375.685
425.134, 6459.438
426.475, 6453.166
427.816, 6506.864
429.157, 6150.533
430.497, 5924.174
431.837, 5207.783
433.177, 4241.359
434.517, 3484.904
435.857, 2625.416
437.196, 2136.894
438.535, 1789.338
439.874, 1601.749
441.213, 1972.124
442.551, 2187.465
443.889, 2455.771
445.227, 2666.391
446.565, 2378.625
447.903, 1984.822
449.240, 1407.982
450.577, 842.105
451.914, 457.190
453.251, 191.238
454.588, 72.242
455.924, 25.802
457.260, 103.921
458.596, 155.163
459.932, 181.555
461.267, 125.114
462.602, 109.811
463.938, 19.637
465.272, 155.456
466.607, 317.501
467.941, 616.508
469.276, 870.475
470.610, 1097.403
471.943, 1328.578
473.277, 1497.092
474.610, 1501.111
475.944, 1739.748
477.276, 2271.846
478.609, 3112.716
479.942, 4453.489
481.274, 6266.918
482.606, 9079.706
483.938, 11521.950
485.270, 12714.257
486.601, 13076.083
487.932, 11277.937
489.263, 8189.821
490.594, 5982.090
491.925, 3954.893
493.255, 2836.486
494.585, 2193.820
495.915, 1616.874
497.245, 1528.408
498.575, 1522.062
499.904, 1679.603
501.233, 1747.227
502.562, 2052.124
503.891, 2430.311
505.219, 2649.097
506.548, 2860.921
507.876, 2868.054
509.203, 2867.899
510.531, 2589.294
511.859, 2267.646
513.186, 1812.960
514.513, 1379.233
515.840, 948.492
517.166, 619.739
518.493, 355.960
519.819, 194.166
521.145, 131.321
522.470, 30.577
523.796, 64.574
525.121, 205.676
526.446, 147.416
527.771, 158.501
529.096, 176.701
530.421, 246.903
531.745, 81.951
533.069, 34.132
534.393, 94.576
535.716, 151.220
537.040, 265.803
538.363, 183.331
539.686, 267.800
541.009, 194.214
542.331, 163.569
543.654, 92.865
544.976, 140.094
546.298, 99.261
547.620, 7.638
548.941, 99.368
550.263, 20.307
551.584, 0.823
552.905, 13.954
554.225, 85.954
555.546, 228.959
556.866, 340.065
558.186, 460.108
559.506, 586.478
560.826, 685.688
562.145, 884.848
563.465, 974.957
564.784, 1131.015
566.103, 1385.022
567.421, 1696.980
568.740, 2248.885
570.058, 2704.739
571.376, 3131.544
572.694, 3510.297
574.011, 3858.998
575.329, 3987.646
576.646, 3726.244
577.963, 3364.790
579.279, 3104.285
580.596, 2748.727
581.912, 2724.118
583.228, 2807.456
584.544, 3071.742
585.860, 3584.977
587.175, 3963.159
588.491, 4181.288
589.806, 4319.365
591.121, 3867.391
592.435, 3285.363
593.750, 2610.283
595.064, 2061.150
596.378, 1514.965
597.692, 1091.728
599.006, 852.438
600.319, 701.096
601.632, 587.701
602.945, 392.253
604.258, 518.751
605.571, 480.195
606.883, 487.587
608.195, 819.927
609.507, 951.214
610.819, 1354.450
612.131, 1662.012
613.442, 1970.874
614.753, 2489.253
616.064, 2791.671
617.375, 3073.815
618.685, 3420.252
619.995, 3526.184
621.306, 3323.031
622.615, 2913.494
623.925, 2229.402
625.235, 1552.936
626.544, 1044.571
627.853, 627.158
629.162, 351.698
630.471, 261.301
631.779, 131.055
633.087, 29.349
634.395, 132.643
635.703, 95.652
637.011, 176.588
638.318, 80.950
639.625, 202.852
640.932, 348.558
642.239, 357.001
643.546, 586.024
644.852, 535.266
646.158, 554.905
647.464, 435.939
648.770, 322.772
650.076, 178.221
651.381, 73.201
652.686, 128.673
653.991, 61.122
655.296, 16.068
656.600, 15.141
657.905, 33.339
659.209, 48.327
660.513, 65.898
661.817, 122.383
663.120, 213.793
664.423, 367.651
665.726, 424.422
667.029, 785.649
668.332, 1010.014
669.635, 1295.359
670.937, 1838.013
672.239, 2412.296
673.541, 3040.520
674.842, 3695.240
676.144, 3765.696
677.445, 3909.277
678.746, 3492.340
680.047, 3027.142
681.348, 2508.086
682.648, 2040.294
683.948, 1638.458
685.248, 1366.508
686.548, 1154.366
687.848, 981.772
689.147, 897.488
690.447, 835.167
691.746, 842.521
693.044, 978.349
694.343, 1031.683
695.641, 1350.625
696.940, 1486.875
698.238, 1858.771
699.535, 2162.478
700.833, 2715.506
702.130, 3462.929
703.427, 4403.954
704.724, 5591.911
706.021, 7122.856
707.318, 9032.279
708.614, 11480.567
709.910, 14978.004
711.206, 18038.627
712.502, 21100.193
713.798, 22492.186
715.093, 22564.631
716.388, 20907.057
717.683, 17649.436
718.978, 14951.782
720.272, 11594.081
721.567, 9276.340
722.861, 7108.560
724.155, 5710.740
725.448, 4572.880
726.742, 3604.980
728.035, 2967.042
729.328, 2402.064
730.621, 2006.049
731.914, 1762.996
733.206, 1384.904
734.499, 1360.776
735.791, 1043.610
737.083, 843.408
738.374, 854.168
739.666, 640.893
740.957, 602.581
742.248, 582.234
743.539, 584.853
744.830, 542.435
746.120, 576.981
747.410, 483.495
748.701, 490.974
749.990, 563.418
751.280, 583.342
752.570, 789.206
753.859, 778.551
755.148, 997.862
756.437, 1186.142
757.725, 1462.389
759.014, 1700.253
760.302, 2080.437
761.590, 2497.589
762.878, 2878.711
764.166, 3339.802
765.453, 3700.862
766.740, 3802.893
768.027, 4062.897
769.314, 3793.877
770.601, 3634.852
771.887, 3395.842
773.174, 2805.941
774.460, 2387.917
775.745, 1635.993
777.031, 1399.088
778.316, 1072.177
779.602, 820.242
780.887, 646.654
782.172, 374.296
783.456, 373.283
784.741, 239.958
786.025, 189.229
787.309, 11.929
788.593, 5.938
789.876, 55.586
791.160, 98.971
792.443, 165.358
793.726, 223.515
795.009, 206.162
796.291, 267.391
797.574, 182.825
798.856, 235.893
800.138, 228.118
801.420, 204.497
802.702, 187.375
803.983, 71.897
805.264, 60.710
806.545, 156.518
807.826, 330.552
809.107, 582.048
810.387, 961.370
811.667, 1106.750
812.947, 1358.992
814.227, 1328.904
815.507, 1079.473
816.786, 1000.386
818.065, 721.205
819.344, 515.661
820.623, 264.349
821.902, 87.433
823.180, 19.022
824.459, 3.551
825.737, 122.421
827.014, 139.463
828.292, 81.583
829.569, 137.750
830.847, 11.992
832.124, 11.249
833.401, 32.517
834.677, 86.780
835.954, 95.949
837.230, 9.747
838.506, 133.594
839.782, 170.498
841.057, 313.464
842.333, 358.512
843.608, 537.598
844.883, 700.729
846.158, 794.863
847.433, 960.012
848.707, 1139.160
849.981, 1147.310
851.255, 1101.506
852.529, 1201.726
853.803, 1205.950
855.076, 1211.201
856.350, 1009.465
857.623, 889.746
858.895, 948.051
860.168, 917.365
861.441, 912.715
862.713, 728.133
863.985, 805.613
865.257, 953.146
866.528, 761.704
867.800, 844.287
869.071, 877.891
870.342, 897.500
871.613, 1041.153
872.884, 957.814
874.154, 1034.493
875.425, 1169.224
876.695, 1223.960
877.965, 1297.732
879.234, 1331.524
880.504, 1488.683
881.773, 1505.128
883.042, 1814.949
884.311, 1974.781
885.580, 2154.629
886.848, 2294.492
888.117, 2824.369
889.385, 3104.258
890.653, 3744.153
891.920, 4424.057
893.188, 5213.973
894.455, 5973.896
895.722, 6823.831
896.989, 7893.776
898.256, 8793.729
899.523, 9423.695
900.789, 10133.671
902.055, 10293.656
903.321, 10203.654
904.587, 10833.663
905.852, 10213.689
907.118, 10113.727
908.383, 9683.775
909.648, 9423.838
910.913, 8893.914
912.177, 7964.008
913.442, 7214.109
914.706, 6294.226
915.970, 5574.355
917.233, 4894.498
918.497, 4164.653
919.760, 3874.821
921.024, 3515.005
922.287, 3385.199
923.550, 3145.408
924.812, 3115.629
926.075, 3105.861
927.337, 3176.105
928.599, 3276.361
929.861, 3496.629
931.122, 3486.904
932.384, 3697.191
933.645, 3617.486
934.906, 3637.790
936.167, 3558.104
937.428, 3708.314
938.688, 3758.332
939.948, 3987.464
941.208, 4316.424
942.468, 4612.062
943.728, 5105.268
944.987, 5704.359
946.247, 6609.865
947.506, 7436.525
948.765, 8579.407
950.023, 10047.676
951.282, 10562.688
952.540, 12068.263
953.798, 12415.402
955.056, 13043.707
956.314, 13559.353
957.572, 14209.424
958.829, 15129.941
960.086, 16560.680
961.343, 18091.484
962.600, 19922.336
963.856, 20133.242
965.113, 20654.205
966.369, 19765.201
967.625, 18016.225
968.881, 16817.281
970.136, 14558.351
971.392, 13709.438
972.647, 13280.544
973.902, 12911.469
975.157, 13631.376
976.411, 14161.935
977.666, 15106.820
978.920, 15790.729
980.174, 15738.098
981.428, 15332.297
982.682, 14832.652
983.935, 14599.250
985.188, 14107.060
986.441, 13550.283
987.694, 13231.563
988.947, 12042.521
990.199, 11493.869
991.452, 11715.435
992.704, 11477.024
993.956, 11518.469
995.207, 10914.135
996.459, 10665.641
997.710, 11089.740
998.961, 11451.309
1000.212, 12082.938
1001.463, 13255.359
1002.714, 13991.982
1003.964, 14444.070
1005.214, 14500.405
1006.464, 14033.460
1007.714, 13437.631
1008.964, 11839.823
1010.213, 10112.162
1011.462, 8758.438
1012.711, 7091.482
1013.960, 6311.924
1015.209, 5113.446
1016.457, 4360.443
1017.705, 4317.305
1018.954, 3833.406
1020.201, 3026.504
1021.449, 2667.987
1022.697, 2491.379
1023.944, 2576.951
1025.191, 2550.548
1026.438, 2512.844
1027.685, 2553.039
1028.931, 2478.708
1030.177, 2271.374
1031.423, 2024.463
1032.669, 1649.204
1033.915, 1732.626
1035.161, 1427.719
1036.406, 1401.930
1037.651, 1226.479
1038.896, 1119.629
1040.141, 1132.640
1041.386, 1125.760
1042.630, 1018.775
1043.874, 1141.951
1045.118, 1035.026
1046.362, 1008.172
1047.606, 1151.133
1048.849, 1124.419
1050.092, 1197.522
1051.336, 1180.529
1052.578, 1253.774
1053.821, 1336.926
1055.064, 1361.645
1056.306, 1554.522
1057.548, 1627.681
1058.790, 1511.693
1060.032, 1854.672
1061.273, 1728.053
1062.515, 1811.102
1063.756, 1764.182
1064.997, 1627.662
1066.237, 1600.771
1067.478, 1273.886
1068.718, 1207.356
1069.959, 1170.377
1071.199, 1083.362
1072.438, 1076.516
1073.678, 1079.475
1074.918, 1072.252
1076.157, 1355.082
1077.396, 1347.849
1078.635, 1550.661
1079.873, 1963.074
1081.112, 2135.352
1082.350, 2517.494
1083.588, 2689.626
1084.826, 2702.121
1086.064, 2554.142
1087.301, 2166.119
1088.539, 1898.256
1089.776, 1689.370
1091.013, 1352.167
1092.250, 1234.075
1093.486, 1185.985
1094.723, 947.909
1095.959, 1009.838
1097.195, 951.771
1098.431, 1045.694
1099.666, 1057.665
1100.902, 1129.660
1102.137, 1351.642
1103.372, 1513.626
1104.607, 1576.170
1105.842, 1828.279
1107.076, 1820.158
1108.311, 1821.989
1109.545, 1763.777
1110.779, 1485.511
1112.012, 1647.195
1113.246, 1338.831
1114.479, 1150.417
1115.712, 1081.952
1116.945, 913.368
1118.178, 834.728
1119.411, 836.031
1120.643, 757.251
1121.875, 724.080
1123.108, 799.557
1124.339, 600.843
1125.571, 481.836
1126.802, 322.802
1128.034, 353.932
1129.265, 234.837
1130.496, 245.687
1131.727, 246.439
1132.957, 67.114
1134.187, 197.695
1135.418, 132.664
1136.648, 87.692
1137.877, 192.773
1139.107, 47.890
1140.336, 53.028
1141.566, 118.207
1142.795, 76.682
1144.023, 208.432
1145.252, 46.455
1146.480, 138.691
1147.709, 113.788
1148.937, 171.248
1150.165, 76.360
1151.392, 38.498
1152.620, 66.707
1153.847, 11.974
1155.074, 27.301
1156.301, 57.328
1157.528, 31.968
1158.755, 53.398
1159.981, 158.779
1161.207, 114.782
1162.433, 129.507
1163.659, 54.845
1164.885, 50.163
1166.110, 35.466
1167.336, 19.251
1168.561, 116.025
1169.786, 18.712
1171.010, 16.544
1172.235, 141.780
1173.459, 182.999
1174.683, 82.202
1175.907, 7.389
1177.131, 127.448
1178.355, 72.310
1179.578, 17.201
1180.801, 62.126
1182.024, 17.096
1183.247, 42.113
1184.470, 37.187
1185.692, 112.312
1186.915, 137.502
1188.137, 132.756
1189.359, 158.075
1190.580, 143.434
1191.802, 168.101
1193.023, 164.355
1194.244, 219.918
1195.465, 165.562
1196.686, 211.292
1197.907, 247.119
1199.127, 203.047
1200.347, 239.085
1201.567, 105.243
1202.787, 401.528
1204.007, 277.950
1205.226, 164.517
1206.446, 351.241
1207.665, 268.092
1208.884, 385.055
1210.102, 381.671
1211.321, 288.307
1212.539, 416.314
1213.758, 427.596
1214.976, 260.238
1216.193, 394.412
1217.411, 386.827
1218.628, 316.142
1219.846, 380.023
1221.063, 327.052
1222.280, 244.793
1223.496, 225.446
1224.713, 171.027
1225.929, 250.625
1227.145, 250.720
1228.361, 279.512
1229.577, 245.918
1230.793, 105.058
1232.008, 290.209
1233.223, 299.586
1234.438, 143.401
1235.653, 256.689
1236.868, 169.503
1238.082, 251.815
1239.297, 234.165
1240.511, 204.992
1241.725, 320.687
1242.938, 247.102
1244.152, 5.882
1245.365, 254.835
1246.578, 140.979
1247.791, 186.072
1249.004, 242.696
1250.217, 27.690
1251.429, 73.960
1252.642, 269.116
1253.854, 147.808
1255.066, 237.780
1256.277, 105.196
1257.489, 233.838
1258.700, 112.665
1259.911, 91.399
1261.122, 279.888
1262.333, 292.370
1263.544, 230.702
1264.754, 237.309
1265.964, 127.531
1267.174, 34.896
1268.384, 131.775
1269.594, 1.865
1270.803, 203.696
1272.013, 210.790
1273.222, 1.838
1274.431, 85.090
1275.640, 35.260
1276.848, 51.907
1278.057, 0.730
1279.265, 0.000
##END=



