##NAMES=Axinite-(Fe)
##RRUFFID=R060183
##IDEAL CHEMISTRY=Ca_4_Fe^2+^_2_Al_4_[B_2_Si_8_O_30_](OH)_2_
##LOCALITY=Skagit Bluffs, near Manning Park, British Columbia, Canada
##OWNER=RRUFF
##SOURCE=Lloyd Twaites
##DESCRIPTION=Light-pink transparent axe-head-shaped single crystal
##STATUS=The identification of this mineral has been confirmed by X-ray diffraction and chemical analysis
##URL=rruff.info/R060183
##MEASURED CHEMISTRY=Ca_2.00_(Fe^2+^_0.58_Mn_0.23_Mg_0.19_)Al_2.00_B_1.00_Si_4.00_O_15_(OH)
##PIN_ID=L01743
##ORIENTATION=Laser parallel to (0 1 1). Fiducial mark perpendicular to laser is parallel to -a [-1 0 0]
52.67100, 0.0000000E+00
53.91000, 79.49780
55.14900, 143.3177
56.38700, 247.6634
57.62600, 262.1067
58.86400, 314.2895
60.10300, 364.3512
61.34100, 273.2469
62.57900, 169.9896
63.81700, 87.43640
65.05400, 8.604736
66.29200, 44.04382
67.52900, 70.51013
68.76700, 69.14673
70.00400, 49.19519
71.24100, 8.440796
72.47700, 70.58142
73.71400, 154.4385
74.95100, 237.7991
76.18700, 404.7754
77.42300, 424.9365
78.65900, 560.8291
79.89500, 650.2808
81.13100, 867.1421
82.36700, 1297.281
83.60200, 1758.583
84.83700, 2041.945
86.07200, 2175.278
87.30800, 2546.511
88.54200, 3032.594
89.77700, 3757.476
91.01200, 4812.057
92.24600, 5899.204
93.48000, 7000.801
94.71400, 8283.748
95.94800, 9600.979
97.18200, 10787.69
98.41600, 12164.36
99.64900, 13940.12
100.8830, 15596.93
102.1160, 17074.74
103.3490, 19025.53
104.5820, 21728.29
105.8150, 25539.98
107.0470, 29463.61
108.2800, 32231.14
109.5120, 30447.56
110.7440, 24371.85
111.9760, 18720.02
113.2080, 14236.04
114.4400, 11169.89
115.6710, 9033.568
116.9030, 7166.067
118.1340, 5526.374
119.3650, 4498.524
120.5960, 3805.579
121.8270, 3204.580
123.0580, 3133.522
124.2880, 3101.380
125.5190, 2655.129
126.7490, 2612.600
127.9790, 2898.316
129.2090, 3138.248
130.4390, 3525.370
131.6680, 4197.658
132.8980, 4766.101
134.1270, 5641.686
135.3560, 6835.494
136.5850, 8266.627
137.8140, 9146.174
139.0430, 10053.28
140.2710, 10137.13
141.5000, 9650.062
142.7280, 9188.895
143.9560, 9145.397
145.1840, 9276.146
146.4120, 9862.330
147.6390, 10365.95
148.8670, 10486.02
150.0940, 9954.532
151.3210, 8992.493
152.5490, 7784.901
153.7750, 7042.764
155.0020, 6620.074
156.2290, 6444.839
157.4550, 6178.057
158.6810, 6037.727
159.9080, 6076.846
161.1340, 6474.126
162.3590, 6944.434
163.5850, 7892.902
164.8110, 8912.813
166.0360, 10240.17
167.2610, 11936.96
168.4860, 13804.20
169.7110, 14921.88
170.9360, 15041.99
172.1610, 14100.53
173.3850, 12545.50
174.6100, 10695.89
175.8340, 8558.716
177.0580, 7248.956
178.2820, 5794.622
179.5050, 4685.705
180.7290, 3651.203
181.9520, 3106.152
183.1760, 2762.894
184.3990, 3039.766
185.6220, 3162.026
186.8450, 3429.770
188.0670, 4064.835
189.2900, 4758.998
190.5120, 6078.823
191.7340, 7517.979
192.9560, 8489.434
194.1780, 8724.188
195.4000, 8684.233
196.6220, 8797.573
197.8430, 9531.205
199.0640, 10534.12
200.2860, 12325.47
201.5070, 14434.54
202.7270, 16811.33
203.9480, 18611.83
205.1690, 19537.04
206.3890, 19484.88
207.6090, 18482.53
208.8290, 17121.82
210.0490, 15341.38
211.2690, 13322.21
212.4890, 11695.46
213.7080, 9823.496
214.9280, 8134.476
216.1470, 6676.351
217.3660, 5495.172
218.5850, 4461.636
219.8030, 3479.644
221.0220, 2463.645
222.2400, 1691.127
223.4590, 1064.744
224.6770, 622.1494
225.8950, 136.7480
227.1120, 98.28564
228.3300, 208.8667
229.5480, 404.0229
230.7650, 454.7720
231.9820, 367.1284
233.1990, 140.0908
234.4160, 13.65234
235.6330, 409.1846
236.8490, 980.4131
238.0660, 1302.027
239.2820, 2042.020
240.4980, 2605.385
241.7140, 3139.715
242.9300, 3779.207
244.1460, 4206.654
245.3610, 4471.447
246.5770, 4768.580
247.7920, 4909.053
249.0070, 5187.854
250.2220, 5261.986
251.4370, 5796.443
252.6510, 6298.223
253.8660, 6691.318
255.0800, 6606.728
256.2940, 6588.447
257.5080, 6497.474
258.7220, 7211.802
259.9360, 7836.429
261.1490, 7864.354
262.3630, 8153.572
263.5760, 9495.078
264.7890, 10956.87
266.0020, 12391.95
267.2150, 14383.30
268.4270, 16222.93
269.6400, 18253.83
270.8520, 20033.00
272.0640, 21173.44
273.2760, 21743.13
274.4880, 21107.09
275.7000, 20118.30
276.9120, 18532.77
278.1230, 16505.51
279.3340, 14683.50
280.5450, 12718.75
281.7560, 11361.27
282.9670, 10360.04
284.1780, 9744.061
285.3880, 9184.339
286.5980, 8996.861
287.8090, 8777.575
289.0190, 8883.453
290.2290, 9225.568
291.4380, 9820.929
292.6480, 10615.54
293.8570, 11433.39
295.0670, 12499.49
296.2760, 13732.83
297.4850, 15027.41
298.6930, 16521.22
299.9020, 18122.28
301.1110, 19836.57
302.3190, 21726.08
303.5270, 23910.84
304.7350, 25201.82
305.9430, 25190.03
307.1510, 23674.46
308.3580, 21154.12
309.5660, 17806.44
310.7730, 15203.13
311.9800, 13191.41
313.1870, 11943.61
314.3940, 10724.90
315.6010, 10591.52
316.8070, 10450.12
318.0130, 10161.12
319.2200, 9635.292
320.4260, 8793.262
321.6310, 7943.515
322.8370, 7200.598
324.0430, 6907.039
325.2480, 6532.789
326.4540, 6701.977
327.6590, 6569.806
328.8640, 6240.806
330.0680, 5575.972
331.2730, 5167.299
332.4780, 4443.775
333.6820, 4123.402
334.8860, 4230.171
336.0900, 4832.080
337.2940, 5613.127
338.4980, 6917.311
339.7010, 8440.631
340.9050, 10158.08
342.1080, 12343.67
343.3110, 13641.40
344.5140, 14739.29
345.7170, 15338.46
346.9200, 15800.94
348.1220, 16632.77
349.3240, 17926.95
350.5270, 18251.48
351.7290, 17231.33
352.9310, 14778.43
354.1320, 11849.79
355.3340, 9027.352
356.5350, 6743.130
357.7370, 4807.131
358.9380, 3416.348
360.1390, 2259.775
361.3400, 1361.407
362.5400, 786.2334
363.7410, 293.2461
364.9410, 59.55664
366.1410, 99.19922
367.3410, 252.6914
368.5410, 166.0625
369.7410, 37.28711
370.9400, 41.71191
372.1400, 34.20312
373.3390, 165.7588
374.5380, 339.3203
375.7370, 383.0889
376.9360, 640.9648
378.1350, 1007.467
379.3330, 1813.156
380.5310, 2849.234
381.7300, 3772.496
382.9280, 5351.923
384.1260, 6806.507
385.3230, 8824.240
386.5210, 10940.12
387.7180, 12743.16
388.9160, 13761.33
390.1130, 13553.66
391.3100, 12398.13
392.5060, 10702.73
393.7030, 8837.479
394.9000, 7126.365
396.0960, 5803.385
397.2920, 4588.541
398.4880, 3771.830
399.6840, 3034.250
400.8800, 2718.801
402.0750, 2515.479
403.2710, 2454.282
404.4660, 3690.213
405.6610, 3502.267
406.8560, 4592.441
408.0510, 6430.740
409.2450, 8407.157
410.4400, 10733.70
411.6340, 13834.35
412.8280, 17688.12
414.0220, 22253.02
415.2160, 25788.02
416.4100, 26845.14
417.6030, 24965.37
418.7970, 21540.71
419.9900, 18576.16
421.1830, 17070.72
422.3760, 16027.39
423.5690, 15812.17
424.7610, 15604.04
425.9540, 15894.03
427.1460, 15850.11
428.3380, 14964.29
429.5300, 13806.58
430.7220, 12075.96
431.9140, 10625.44
433.1050, 8698.010
434.2970, 6858.678
435.4880, 5680.436
436.6790, 4734.285
437.8700, 4316.225
439.0610, 4211.253
440.2510, 4473.367
441.4420, 4757.566
442.6320, 5143.851
443.8220, 5330.217
445.0120, 4671.664
446.2020, 3730.190
447.3910, 2601.796
448.5810, 1761.478
449.7700, 1087.235
450.9600, 450.0684
452.1490, 3.027344
453.3370, 280.1133
454.5260, 410.3154
455.7150, 583.6943
456.9030, 730.3369
458.0910, 846.3174
459.2800, 888.5034
460.4670, 989.5020
461.6550, 864.7842
462.8430, 819.4854
464.0300, 714.4468
465.2180, 636.0400
466.4050, 445.8096
467.5920, 187.8057
468.7790, 63.08789
469.9650, 578.9824
471.1520, 974.9297
472.3380, 1615.930
473.5250, 2418.982
474.7110, 3522.084
475.8970, 4801.236
477.0820, 6516.747
478.2680, 8489.688
479.4540, 10692.98
480.6390, 13289.33
481.8240, 15987.71
483.0090, 18178.15
484.1940, 18522.62
485.3780, 16534.04
486.5630, 13361.06
487.7470, 10215.01
488.9320, 7819.346
490.1160, 5686.977
491.3000, 4379.282
492.4830, 3520.325
493.6670, 2895.470
494.8500, 2677.503
496.0340, 2773.736
497.2170, 3111.036
498.4000, 3412.880
499.5820, 3884.740
500.7650, 4602.617
501.9480, 5012.507
503.1300, 5939.411
504.3120, 6568.327
505.4940, 7308.254
506.6760, 8513.190
507.8580, 9019.670
509.0390, 8494.188
510.2210, 8172.688
511.4020, 7533.123
512.5830, 6856.535
513.7640, 5713.364
514.9450, 4848.890
516.1250, 3852.882
517.3060, 2791.747
518.4860, 2205.834
519.6660, 1659.101
520.8460, 1298.219
522.0260, 994.5176
523.2060, 737.2959
524.3850, 677.2646
525.5650, 728.7544
526.7440, 698.2290
527.9230, 698.6860
529.1020, 934.1216
530.2810, 1049.535
531.4590, 1149.924
532.6380, 1320.288
533.8160, 1483.628
534.9940, 1663.940
536.1720, 1676.226
537.3500, 1868.482
538.5270, 2073.709
539.7050, 2036.906
540.8820, 2278.072
542.0590, 2443.206
543.2360, 2428.306
544.4130, 2527.372
545.5900, 2477.419
546.7660, 2520.476
547.9430, 2436.563
549.1190, 2079.688
550.2950, 2096.906
551.4710, 2012.205
552.6470, 1966.594
553.8220, 2237.037
554.9980, 2396.492
556.1730, 2719.920
557.3480, 3104.398
558.5230, 3364.873
559.6980, 3671.359
560.8730, 3996.843
562.0470, 4210.307
563.2220, 4454.728
564.3960, 4721.099
565.5700, 5383.420
566.7440, 5951.691
567.9170, 6815.910
569.0910, 7714.078
570.2640, 8380.190
571.4380, 8939.251
572.6110, 9349.256
573.7840, 9448.202
574.9570, 9093.098
576.1290, 8769.934
577.3020, 8501.711
578.4740, 8123.431
579.6460, 8100.091
580.8180, 8259.691
581.9900, 8634.229
583.1620, 9395.707
584.3330, 10237.12
585.5040, 11205.47
586.6760, 11943.76
587.8470, 12460.98
589.0180, 11838.14
590.1880, 11050.24
591.3590, 9560.263
592.5290, 8272.222
593.7000, 6887.677
594.8700, 5570.906
596.0400, 4486.703
597.2090, 3615.729
598.3790, 3015.806
599.5490, 2422.708
600.7180, 1948.772
601.8870, 1802.572
603.0560, 1559.348
604.2250, 1489.464
605.3940, 1310.437
606.5620, 1374.719
607.7300, 1307.779
608.8990, 1500.664
610.0670, 1597.246
611.2350, 1879.316
612.4020, 2082.342
613.5700, 2150.324
614.7370, 2330.262
615.9050, 2233.154
617.0720, 2278.002
618.2390, 2192.802
619.4060, 2191.557
620.5720, 1763.265
621.7390, 1498.925
622.9050, 1019.537
624.0710, 774.1011
625.2370, 410.6167
626.4030, 123.0713
627.5690, 0.5966800
628.7340, 215.4424
629.9000, 250.5806
631.0650, 276.0298
632.2300, 270.8047
633.3950, 191.9023
634.5600, 80.71777
635.7240, 193.1963
636.8890, 466.5698
638.0530, 546.8838
639.2170, 950.1431
640.3810, 1095.350
641.5450, 1123.503
642.7080, 1269.604
643.8720, 1224.650
645.0350, 1126.643
646.1980, 1053.582
647.3610, 883.4668
648.5240, 634.3071
649.6870, 269.1089
650.8490, 257.8560
652.0120, 17.41162
653.1740, 118.1304
654.3360, 240.4590
655.4980, 213.7139
656.6600, 160.4287
657.8210, 176.3174
658.9830, 95.64307
660.1440, 54.79492
661.3050, 167.7568
662.4660, 240.9780
663.6270, 392.4336
664.7870, 853.9829
665.9480, 1226.577
667.1080, 1857.065
668.2680, 2497.164
669.4280, 3064.200
670.5880, 4239.173
671.7480, 5112.083
672.9070, 6044.932
674.0670, 7169.715
675.2260, 7927.437
676.3850, 8311.099
677.5440, 8092.694
678.7030, 7410.230
679.8610, 6607.703
681.0200, 5524.115
682.1780, 4891.465
683.3360, 4055.753
684.4940, 3325.092
685.6520, 3025.557
686.8090, 2572.761
687.9670, 2355.964
689.1240, 2567.966
690.2810, 2395.386
691.4380, 2567.572
692.5950, 2778.293
693.7520, 3213.143
694.9080, 3617.138
696.0650, 4296.209
697.2210, 5236.852
698.3770, 6024.391
699.5330, 7246.328
700.6880, 8732.780
701.8440, 10874.35
702.9990, 13339.49
704.1550, 16472.56
705.3100, 19951.57
706.4650, 24453.50
707.6190, 29332.36
708.7740, 34402.16
709.9290, 39443.88
711.0830, 44458.53
712.2370, 47900.11
713.3910, 49280.63
714.5450, 48914.07
715.6980, 45758.46
716.8520, 41136.77
718.0050, 35331.02
719.1580, 29868.21
720.3110, 24770.32
721.4640, 20405.37
722.6170, 16944.36
723.7700, 13886.27
724.9220, 11391.13
726.0740, 9455.922
727.2260, 7952.650
728.3780, 6772.319
729.5300, 5736.922
730.6810, 5022.465
731.8330, 4338.947
732.9840, 3768.400
734.1350, 3328.885
735.2860, 2893.434
736.4370, 2718.088
737.5880, 2434.887
738.7380, 2159.859
739.8880, 1922.018
741.0390, 1791.389
742.1890, 1780.943
743.3380, 1644.672
744.4880, 1466.551
745.6380, 1569.562
746.7870, 1511.658
747.9360, 1620.783
749.0850, 1694.263
750.2340, 1791.926
751.3830, 1926.918
752.5310, 2106.857
753.6800, 2307.744
754.8280, 2597.580
755.9760, 3144.364
757.1240, 3409.099
758.2720, 4171.782
759.4190, 4769.417
760.5670, 5681.002
761.7140, 6309.540
762.8610, 7125.030
764.0080, 7755.577
765.1550, 8389.504
766.3020, 8836.515
767.4480, 8621.121
768.5950, 8363.429
769.7410, 7576.056
770.8870, 7112.938
772.0330, 6151.714
773.1780, 5313.589
774.3240, 4635.256
775.4690, 3884.847
776.6140, 3280.883
777.7590, 2775.893
778.9040, 2176.874
780.0490, 1946.829
781.1940, 1558.758
782.3380, 1278.661
783.4820, 1039.540
784.6260, 814.4277
785.7700, 621.2256
786.9140, 508.0342
788.0580, 395.2104
789.2010, 302.1313
790.3450, 174.3403
791.4880, 57.20312
792.6310, 21.66260
793.7730, 64.02686
794.9160, 75.29639
796.0590, 99.81396
797.2010, 196.5527
798.3430, 235.2192
799.4850, 363.1577
800.6270, 228.7031
801.7690, 49.53027
802.9100, 36.07715
804.0520, 35.67578
805.1930, 202.2666
806.3340, 580.8574
807.4750, 949.4492
808.6160, 1347.042
809.7560, 1577.638
810.8970, 1695.236
812.0370, 1758.837
813.1770, 1752.442
814.3170, 1447.054
815.4570, 1201.670
816.5960, 770.2915
817.7360, 672.9204
818.8750, 360.5557
820.0140, 98.20020
821.1530, 54.14746
822.2920, 180.5156
823.4310, 264.9668
824.5690, 302.5391
825.7070, 526.2500
826.8460, 473.2158
827.9840, 521.4062
829.1220, 390.8447
830.2590, 231.4590
831.3970, 80.16504
832.5340, 393.8877
833.6710, 189.7803
834.8080, 260.7373
835.9450, 203.7920
837.0820, 148.9141
838.2190, 12.07227
839.3550, 91.78125
840.4910, 287.6572
841.6270, 307.5547
842.7630, 293.4756
843.8990, 654.4199
845.0350, 869.3896
846.1700, 850.3828
847.3060, 1111.403
848.4410, 1063.451
849.5760, 1263.525
850.7100, 1441.628
851.8450, 1217.760
852.9800, 1447.921
854.1140, 1396.113
855.2480, 1413.336
856.3820, 1321.592
857.5160, 1360.880
858.6500, 1340.201
859.7830, 1374.558
860.9170, 1343.948
862.0500, 1472.374
863.1830, 1555.837
864.3160, 1666.336
865.4480, 1537.873
866.5810, 1726.449
867.7130, 1692.065
868.8460, 1825.721
869.9780, 1766.416
871.1100, 1709.151
872.2410, 1808.930
873.3730, 1830.000
874.5050, 1921.281
875.6360, 2056.512
876.7670, 2207.454
877.8980, 2426.435
879.0290, 2705.462
880.1590, 2816.526
881.2900, 3137.824
882.4200, 3495.151
883.5500, 3777.041
884.6800, 4399.324
885.8100, 4897.658
886.9400, 5536.048
888.0690, 6255.488
889.1990, 7112.982
890.3280, 8217.530
891.4570, 9476.132
892.5860, 10853.80
893.7140, 12050.55
894.8430, 13750.37
895.9710, 14944.25
897.1000, 16177.23
898.2280, 16911.83
899.3560, 17507.42
900.4830, 17746.62
901.6110, 17785.93
902.7380, 17713.40
903.8660, 17169.08
904.9930, 16963.97
906.1200, 16590.09
907.2460, 16177.43
908.3730, 15523.98
909.5000, 14935.63
910.6260, 13825.41
911.7520, 12877.25
912.8780, 11784.17
914.0040, 10697.17
915.1290, 9416.288
916.2550, 8574.472
917.3800, 7776.746
918.5050, 7089.104
919.6300, 6718.518
920.7550, 6131.042
921.8800, 5932.633
923.0040, 5743.316
924.1290, 5922.094
925.2530, 5866.904
926.3770, 6204.107
927.5010, 6335.836
928.6250, 6048.393
929.7480, 6425.293
930.8720, 6279.269
931.9950, 6058.572
933.1180, 6005.635
934.2410, 5523.935
935.3640, 5234.537
936.4860, 4938.893
937.6090, 4812.166
938.7310, 4760.398
939.8530, 4915.748
940.9750, 5085.510
942.0970, 5463.340
943.2180, 5978.244
944.3400, 6452.221
945.4610, 7361.270
946.5820, 8056.390
947.7030, 8877.585
948.8240, 9697.852
949.9450, 10586.69
951.0650, 11683.60
952.1860, 12570.08
953.3060, 13623.65
954.4260, 14850.30
955.5460, 15790.03
956.6650, 16907.73
957.7850, 18456.31
958.9040, 20131.18
960.0230, 22153.05
961.1420, 23708.15
962.2610, 25002.86
963.3800, 25368.83
964.4990, 25126.29
965.6170, 24344.66
966.7350, 23109.89
967.8530, 21910.06
968.9710, 20971.68
970.0890, 20311.42
971.2070, 20218.78
972.3240, 20493.64
973.4410, 21475.40
974.5580, 22917.60
975.6750, 24458.88
976.7920, 26073.26
977.9090, 27295.72
979.0250, 28095.27
980.1410, 28168.91
981.2580, 27535.63
982.3740, 26973.43
983.4890, 25792.32
984.6050, 24721.31
985.7200, 24089.38
986.8360, 23318.54
987.9510, 23251.78
989.0660, 23478.11
990.1810, 23362.53
991.2950, 23321.03
992.4100, 23420.62
993.5240, 23052.28
994.6390, 23427.04
995.7530, 23626.88
996.8660, 24128.80
997.9800, 24708.81
999.0940, 25565.90
1000.207, 26689.08
1001.320, 27696.33
1002.433, 28382.67
1003.546, 28802.10
1004.659, 28436.60
1005.772, 27306.36
1006.884, 25613.04
1007.996, 23708.95
1009.108, 20877.78
1010.220, 18406.70
1011.332, 15904.70
1012.444, 13803.04
1013.555, 11813.21
1014.666, 10186.12
1015.777, 8770.482
1016.888, 7686.896
1017.999, 7000.445
1019.110, 6357.453
1020.220, 5974.100
1021.331, 5840.886
1022.441, 5777.905
1023.551, 5930.393
1024.661, 5997.067
1025.770, 5797.504
1026.880, 5929.895
1027.989, 5591.684
1029.098, 5272.238
1030.207, 4859.523
1031.316, 4454.066
1032.425, 4038.759
1033.533, 3360.145
1034.642, 3084.920
1035.750, 2804.494
1036.858, 2489.645
1037.966, 2479.749
1039.073, 2389.082
1040.181, 2164.117
1041.288, 2224.870
1042.396, 2224.052
1043.503, 2172.031
1044.610, 2049.447
1045.716, 2192.475
1046.823, 2156.081
1047.929, 2245.526
1049.036, 2337.439
1050.142, 2402.912
1051.248, 2644.721
1052.353, 2763.376
1053.459, 2960.049
1054.564, 2968.857
1055.670, 3053.375
1056.775, 3096.383
1057.880, 2980.207
1058.985, 2882.240
1060.089, 2737.398
1061.194, 2480.062
1062.298, 2183.320
1063.402, 1888.986
1064.506, 1724.443
1065.610, 1497.668
1066.713, 1351.131
1067.817, 1277.029
1068.920, 1126.306
1070.023, 1187.553
1071.126, 1230.535
1072.229, 1349.497
1073.332, 1534.173
1074.435, 1731.747
1075.537, 1877.442
1076.639, 2261.312
1077.741, 2630.836
1078.843, 2941.030
1079.945, 3578.850
1081.046, 3883.544
1082.148, 4208.760
1083.249, 4337.339
1084.350, 4193.532
1085.451, 3763.083
1086.551, 3476.641
1087.652, 3100.150
1088.752, 2711.535
1089.853, 2590.343
1090.953, 2280.766
1092.053, 2090.834
1093.152, 1911.790
1094.252, 1833.338
1095.351, 1742.553
1096.451, 1816.204
1097.550, 1952.872
1098.649, 2052.267
1099.748, 2153.566
1100.846, 2455.480
1101.945, 2509.903
1103.043, 2797.469
1104.141, 2853.120
1105.239, 2919.167
1106.337, 2930.554
1107.434, 2776.691
1108.532, 2735.354
1109.629, 2530.331
1110.726, 2350.462
1111.823, 1994.610
1112.920, 1829.740
1114.017, 1647.250
1115.113, 1499.072
1116.210, 1231.267
1117.306, 1201.916
1118.402, 1049.896
1119.498, 876.0854
1120.593, 850.3467
1121.689, 709.7617
1122.784, 655.1582
1123.879, 510.1279
1124.974, 409.3418
1126.069, 282.4414
1127.164, 334.4482
1128.259, 275.0645
1129.353, 219.8242
1130.447, 254.9097
1131.541, 223.5654
1132.635, 213.4121
1133.729, 39.79346
1134.822, 83.68799
1135.916, 119.3188
1137.009, 9.691406
1138.102, 50.25244
1139.195, 7.487793
1140.288, 60.35254
1141.380, 43.58105
1142.473, 41.56250
1143.565, 54.98828
1144.657, 55.86768
1145.749, 90.39111
1146.841, 72.66406
1147.932, 136.2168
1149.024, 93.71240
1150.115, 77.40137
1151.206, 88.13428
1152.297, 64.75635
1153.388, 66.61865
1154.479, 73.45068
1155.569, 51.16992
1156.659, 134.0542
1157.750, 113.0952
1158.839, 131.1240
1159.929, 91.32617
1161.019, 194.3638
1162.108, 130.6631
1163.198, 128.9712
1164.287, 56.36475
1165.376, 58.60400
1166.465, 178.9009
1167.553, 168.3057
1168.642, 131.9155
1169.730, 99.97217
1170.818, 139.3564
1171.906, 115.3218
1172.994, 38.91357
1174.082, 159.6616
1175.170, 14.97559
1176.257, 58.00342
1177.344, 95.64453
1178.431, 201.3379
1179.518, 14.28320
1180.605, 99.50000
1181.691, 69.78516
1182.778, 49.44629
1183.864, 172.9648
1184.950, 3.150391
1186.036, 84.86328
1187.122, 25.97852
1188.207, 11.81689
1189.292, 68.40234
1190.378, 31.38525
1191.463, 40.70557
1192.548, 79.16113
1193.632, 33.20508
1194.717, 84.37061
1195.801, 4.579102
1196.886, 20.64453
1197.970, 81.48779
1199.054, 44.61084
1200.137, 5.618164
1201.221, 127.3315
1202.305, 67.03027
1203.388, 11.50928
1204.471, 106.2979
1205.554, 80.68164
1206.637, 87.11523
1207.719, 110.1470
1208.802, 84.12354
1209.884, 103.1904
1210.966, 115.5273
1212.048, 95.56055
1213.130, 140.7412
1214.212, 226.1372
1215.293, 43.16211
1216.374, 69.25684
1217.456, 29.20312
1218.536, 113.7256
1219.617, 158.2407
1220.698, 85.63818
1221.778, 106.1323
1222.859, 82.38477
1223.939, 49.94189
1225.019, 62.51855
1226.099, 37.06885
1227.178, 62.22656
1228.258, 136.0513
1229.337, 144.9277
1230.417, 184.7080
1231.496, 112.2988
1232.574, 151.8135
1233.653, 153.2778
