##NAMES=Axinite-(Fe)
##RRUFFID=R060194
##IDEAL CHEMISTRY=Ca_4_Fe^2+^_2_Al_4_[B_2_Si_8_O_30_](OH)_2_
##LOCALITY=near Dalbandi, Baluchistan Province, Pakistan
##OWNER=RRUFF
##SOURCE=Herbert Obodda
##DESCRIPTION=Brown transparent wedge-shaped single crystal
##STATUS=The identification of this mineral has been confirmed by X-ray diffraction and chemical analysis
##URL=rruff.info/R060194
##MEASURED CHEMISTRY=Ca_2.00_(Fe^2+^_0.66_Mg_0.30_Mn_0.04_)Al_2.00_BSi_4.00_O_15_(OH)
##PIN_ID=L00543
##ORIENTATION=Laser parallel to (-1 0 -1). Fiducial mark perpendicular to laser is parallel to b [0 1 0]
53.91000, 0.0000000E+00
55.14900, 30.27814
56.38700, 45.00955
57.62600, 73.09857
58.86400, 112.2939
60.10300, 168.9327
61.34100, 190.5800
62.57900, 130.6839
63.81700, 99.34241
65.05400, 106.8588
66.29200, 37.05200
67.52900, 13.86670
68.76700, 8.161377
70.00400, 50.78333
71.24100, 113.5845
72.47700, 11.43005
73.71400, 65.80481
74.95100, 113.2469
76.18700, 36.01599
77.42300, 37.88806
78.65900, 48.39099
79.89500, 79.36707
81.13100, 167.7104
82.36700, 219.3308
83.60200, 337.1512
84.83700, 545.1055
86.07200, 655.1362
87.30800, 863.1926
88.54200, 947.2324
89.77700, 1196.221
91.01200, 1472.129
92.24600, 1873.902
93.48000, 2474.477
94.71400, 2930.792
95.94800, 3635.797
97.18200, 4627.449
98.41600, 5898.860
99.64900, 7570.937
100.8830, 9356.859
102.1160, 11546.25
103.3490, 13276.10
104.5820, 15939.41
105.8150, 19866.16
107.0470, 24315.35
108.2800, 29278.98
109.5120, 32596.04
110.7440, 31023.52
111.9760, 25082.43
113.2080, 18489.75
114.4400, 13682.50
115.6710, 10275.65
116.9030, 8154.213
118.1340, 6654.181
119.3650, 5537.549
120.5960, 4767.314
121.8270, 4245.490
123.0580, 3957.101
124.2880, 3631.149
125.5190, 3310.628
126.7490, 3006.528
127.9790, 2727.776
129.2090, 2825.154
130.4390, 3022.647
131.6680, 3228.242
132.8980, 3617.932
134.1270, 4319.694
135.3560, 5219.517
136.5850, 6386.479
137.8140, 7757.580
139.0430, 9358.766
140.2710, 10591.16
141.5000, 11027.91
142.7280, 10872.79
143.9560, 9736.956
145.1840, 8508.086
146.4120, 7600.663
147.6390, 6805.114
148.8670, 6671.791
150.0940, 6464.699
151.3210, 6534.840
152.5490, 6484.213
153.7750, 6170.822
155.0020, 5935.666
156.2290, 5948.748
157.4550, 6066.062
158.6810, 5939.616
159.9080, 6044.406
161.1340, 5960.438
162.3590, 6180.713
163.5850, 6729.234
164.8110, 7436.002
166.0360, 8498.015
167.2610, 9756.269
168.4860, 11137.76
169.7110, 12654.50
170.9360, 13287.49
172.1610, 13106.70
173.3850, 11938.15
174.6100, 10266.84
175.8340, 8643.757
177.0580, 6893.903
178.2820, 5389.277
179.5050, 3950.880
180.7290, 2882.709
181.9520, 2214.764
183.1760, 1611.043
184.3990, 1066.546
185.6220, 828.2710
186.8450, 749.2832
188.0670, 623.8118
189.2900, 708.0024
190.5120, 711.8311
191.7340, 1058.083
192.9560, 1381.533
194.1780, 1669.171
195.4000, 2080.995
196.6220, 2327.004
197.8430, 2831.196
199.0640, 3336.570
200.2860, 4173.126
201.5070, 5173.745
202.7270, 6227.211
203.9480, 7445.501
205.1690, 8246.605
206.3890, 8869.715
207.6090, 9106.588
208.8290, 9043.338
210.0490, 8746.258
211.2690, 8379.943
212.4890, 7810.260
213.7080, 6948.646
214.9280, 6350.463
216.1470, 5107.480
217.3660, 4359.162
218.5850, 3612.150
219.8030, 2788.437
221.0220, 2260.589
222.2400, 1660.170
223.4590, 1221.597
224.6770, 750.1440
225.8950, 517.5103
227.1120, 184.3271
228.3300, 74.63477
229.5480, 113.6514
230.7650, 196.4419
231.9820, 321.4385
233.1990, 356.4707
234.4160, 281.2559
235.6330, 236.8511
236.8490, 143.2554
238.0660, 35.55859
239.2820, 285.6069
240.4980, 585.8770
241.7140, 967.3530
242.9300, 1333.030
244.1460, 1763.901
245.3610, 2249.961
246.5770, 2641.202
247.7920, 2949.621
249.0070, 3489.216
250.2220, 4040.983
251.4370, 4810.924
252.6510, 5631.036
253.8660, 6673.315
255.0800, 7484.763
256.2940, 8132.374
257.5080, 8373.151
258.7220, 8708.090
259.9360, 9224.194
261.1490, 9900.459
262.3630, 10320.88
263.5760, 11557.51
264.7890, 13301.33
266.0020, 15363.38
267.2150, 17500.64
268.4270, 20118.16
269.6400, 22424.90
270.8520, 24551.83
272.0640, 26132.91
273.2760, 27049.15
274.4880, 27002.52
275.7000, 26237.04
276.9120, 24608.69
278.1230, 22113.49
279.3340, 19796.42
280.5450, 16831.50
281.7560, 14666.72
282.9670, 12559.07
284.1780, 11315.57
285.3880, 10565.20
286.5980, 10127.97
287.8090, 9923.885
289.0190, 10068.89
290.2290, 10006.92
291.4380, 10587.02
292.6480, 11072.23
293.8570, 11867.58
295.0670, 12721.06
296.2760, 13676.67
297.4850, 14422.42
298.6930, 15100.30
299.9020, 15541.30
301.1110, 15989.45
302.3190, 16251.72
303.5270, 16207.11
304.7350, 16410.64
305.9430, 16405.29
307.1510, 16027.06
308.3580, 14947.96
309.5660, 13365.99
310.7730, 11100.14
311.9800, 9159.409
313.1870, 7413.798
314.3940, 6067.309
315.6010, 5252.938
316.8070, 4661.313
318.0130, 4258.425
319.2200, 3895.244
320.4260, 3670.502
321.6310, 3510.721
322.8370, 3437.664
324.0430, 3531.568
325.2480, 3844.916
326.4540, 4136.986
327.6590, 4770.095
328.8640, 5289.941
330.0680, 5752.888
331.2730, 5766.936
332.4780, 5312.084
333.6820, 4754.327
334.8860, 4289.667
336.0900, 3922.099
337.2940, 4027.620
338.4980, 4529.231
339.7010, 5392.932
340.9050, 6670.718
342.1080, 8359.595
343.3110, 10126.56
344.5140, 11809.64
345.7170, 13359.88
346.9200, 14252.33
348.1220, 14997.99
349.3240, 15815.87
350.5270, 16655.95
351.7290, 17125.17
352.9310, 17382.53
354.1320, 16107.02
355.3340, 13453.62
356.5350, 10662.54
357.7370, 7886.979
358.9380, 5790.423
360.1390, 4088.531
361.3400, 2782.762
362.5400, 2012.105
363.7410, 1340.561
364.9410, 844.1274
366.1410, 479.8145
367.3410, 189.6289
368.5410, 4.553711
369.7410, 100.4209
370.9400, 166.3193
372.1400, 225.1631
373.3390, 201.9712
374.5380, 209.1792
375.7370, 114.1406
376.9360, 76.51562
378.1350, 184.0278
379.3330, 350.9971
380.5310, 752.3423
381.7300, 1138.901
382.9280, 1783.815
384.1260, 2668.740
385.3230, 3405.135
386.5210, 4402.293
387.7180, 5561.613
388.9160, 6913.929
390.1130, 7643.334
391.3100, 7708.830
392.5060, 7219.417
393.7030, 5914.087
394.9000, 4607.848
396.0960, 3374.693
397.2920, 2495.626
398.4880, 2134.643
399.6840, 1825.742
400.8800, 1769.926
402.0750, 1838.192
403.2710, 1952.741
404.4660, 2092.169
405.6610, 2504.269
406.8560, 2988.371
408.0510, 3864.300
409.2450, 4996.915
410.4400, 6495.083
411.6340, 8349.464
412.8280, 10399.52
414.0220, 13817.63
415.2160, 18982.57
416.4100, 22572.74
417.6030, 25911.98
418.7970, 26841.30
419.9900, 23692.68
421.1830, 19924.13
422.3760, 17251.65
423.5690, 15799.23
424.7610, 15199.87
425.9540, 15335.58
427.1460, 15278.36
428.3380, 15091.20
429.5300, 14479.10
430.7220, 13501.06
431.9140, 12114.09
433.1050, 10296.17
434.2970, 8650.314
435.4880, 7048.517
436.6790, 6086.778
437.8700, 5797.099
439.0610, 5977.477
440.2510, 6743.912
441.4420, 7935.401
442.6320, 9556.949
443.8220, 11487.55
445.0120, 12579.21
446.2020, 12244.91
447.3910, 10477.67
448.5810, 7857.484
449.7700, 5509.347
450.9600, 3535.261
452.1490, 2380.223
453.3370, 1552.235
454.5260, 992.2949
455.7150, 658.4023
456.9030, 432.5562
458.0910, 180.7563
459.2800, 22.00195
460.4670, 179.7202
461.6550, 225.4941
462.8430, 428.3438
464.0300, 406.3643
465.2180, 414.5469
466.4050, 409.8979
467.5920, 362.4175
468.7790, 207.0820
469.9650, 13.17822
471.1520, 363.4580
472.3380, 633.7754
473.5250, 1091.131
474.7110, 1658.524
475.8970, 2370.953
477.0820, 3515.418
478.2680, 4493.197
479.4540, 5906.455
480.6390, 7241.024
481.8240, 9050.628
483.0090, 11135.27
484.1940, 12882.93
485.3780, 13848.67
486.5630, 13327.57
487.7470, 11039.71
488.9320, 7953.568
490.1160, 5226.109
491.3000, 3238.188
492.4830, 2115.447
493.6670, 1244.458
494.8500, 784.3438
496.0340, 474.5034
497.2170, 221.4517
498.4000, 58.41797
499.5820, 28.37549
500.7650, 122.3110
501.9480, 208.2549
503.1300, 321.2134
504.3120, 495.1860
505.4940, 722.1729
506.6760, 960.1729
507.8580, 1220.185
509.0390, 1426.212
510.2210, 1835.253
511.4020, 1991.162
512.5830, 2104.542
513.7640, 2061.783
514.9450, 1867.850
516.1250, 1483.630
517.3060, 1159.090
518.4860, 824.1123
519.6660, 528.2261
520.8460, 396.7163
522.0260, 205.0503
523.2060, 25.77539
524.3850, 11.49805
525.5650, 27.19385
526.7440, 102.8477
527.9230, 118.4888
529.1020, 174.1196
530.2810, 338.7500
531.4590, 530.3818
532.6380, 635.0142
533.8160, 862.6475
534.9940, 958.2803
536.1720, 1027.913
537.3500, 935.5435
538.5270, 781.1724
539.7050, 648.7988
540.8820, 441.4224
542.0590, 423.0420
543.2360, 246.6582
544.4130, 146.2690
545.5900, 273.8647
546.7660, 183.4702
547.9430, 21.89209
549.1190, 50.27734
550.2950, 161.6802
551.4710, 117.1704
552.6470, 237.7158
553.8220, 178.3789
554.9980, 40.14551
556.1730, 111.0693
557.3480, 420.3335
558.5230, 670.6582
559.6980, 836.0259
560.8730, 1240.413
562.0470, 1429.799
563.2220, 1515.172
564.3960, 2184.531
565.5700, 1824.877
566.7440, 1779.208
567.9170, 2060.524
569.0910, 2498.824
570.2640, 2889.109
571.4380, 3564.376
572.6110, 4088.628
573.7840, 4413.861
574.9570, 4463.078
576.1290, 4415.275
577.3020, 4177.453
578.4740, 4045.613
579.6460, 4057.753
580.8180, 4222.872
581.9900, 4505.972
583.1620, 5215.051
584.3330, 5965.106
585.5040, 7006.142
586.6760, 8166.155
587.8470, 9199.145
589.0180, 10187.11
590.1880, 10405.05
591.3590, 9991.975
592.5290, 8915.868
593.7000, 7460.739
594.8700, 6011.585
596.0400, 4545.405
597.2090, 3554.199
598.3790, 2718.968
599.5490, 2035.708
600.7180, 1679.796
601.8870, 1237.237
603.0560, 1072.058
604.2250, 781.5293
605.3940, 670.1248
606.5620, 636.0847
607.7300, 683.1680
608.8990, 718.8916
610.0670, 809.9795
611.2350, 1024.107
612.4020, 1056.583
613.5700, 1277.038
614.7370, 1316.471
615.9050, 1389.882
617.0720, 1370.271
618.2390, 1398.638
619.4060, 1189.981
620.5720, 1117.302
621.7390, 856.5999
622.9050, 683.8735
624.0710, 455.1235
625.2370, 171.3489
626.4030, 20.53906
627.5690, 182.3474
628.7340, 256.5796
629.9000, 202.7014
631.0650, 274.1814
632.2300, 148.8911
633.3950, 11.76587
634.5600, 128.2651
635.7240, 241.2502
636.8890, 496.2056
638.0530, 791.1345
639.2170, 1097.850
640.3810, 1533.141
641.5450, 1768.527
642.7080, 2123.350
643.8720, 2238.145
645.0350, 2279.914
646.1980, 2241.656
647.3610, 2045.372
648.5240, 1693.570
649.6870, 1364.739
650.8490, 984.3777
652.0120, 744.9863
653.1740, 611.1174
654.3360, 349.1443
655.4980, 224.6282
656.6600, 239.7161
657.8210, 177.0632
658.9830, 142.4209
660.1440, 249.8066
661.3050, 276.7856
662.4660, 487.7832
663.6270, 636.5747
664.7870, 932.7583
665.9480, 1254.193
667.1080, 1640.108
668.2680, 2150.317
669.4280, 2839.422
670.5880, 3712.587
671.7480, 4551.719
672.9070, 5542.815
674.0670, 6659.876
675.2260, 7616.902
676.3850, 8366.893
677.5440, 8396.848
678.7030, 8020.768
679.8610, 6959.653
681.0200, 6104.503
682.1780, 4851.320
683.3360, 3987.100
684.4940, 3126.931
685.6520, 2640.312
686.8090, 2199.261
687.9670, 2055.507
689.1240, 1945.854
690.2810, 1955.410
691.4380, 2104.023
692.5950, 2261.954
693.7520, 2523.048
694.9080, 2897.397
696.0650, 3108.024
697.2210, 3893.123
698.3770, 4641.306
699.5330, 5604.619
700.6880, 6864.601
701.8440, 8375.795
702.9990, 10368.95
704.1550, 12811.07
705.3100, 15838.15
706.4650, 19703.19
707.6190, 24411.18
708.7740, 29252.14
709.9290, 35008.07
711.0830, 40827.95
712.2370, 45537.80
713.3910, 49011.61
714.5450, 49242.38
715.6980, 47318.11
716.8520, 42234.82
718.0050, 36466.46
719.1580, 30001.09
720.3110, 24467.67
721.4640, 19932.22
722.6170, 16013.73
723.7700, 12867.21
724.9220, 10688.64
726.0740, 8977.045
727.2260, 7404.411
728.3780, 6161.743
729.5300, 5157.038
730.6810, 4572.298
731.8330, 3818.523
732.9840, 3324.713
734.1350, 2900.869
735.2860, 2431.991
736.4370, 2187.078
737.5880, 2009.132
738.7380, 1705.151
739.8880, 1475.145
741.0390, 1387.153
742.1890, 1047.187
743.3380, 1030.295
744.4880, 990.4741
745.6380, 820.7258
746.7870, 784.0498
747.9360, 689.4351
749.0850, 741.8467
750.2340, 637.2371
751.3830, 634.5967
752.5310, 680.9258
753.6800, 825.2251
754.8280, 699.4941
755.9760, 916.7334
757.1240, 970.9436
758.2720, 1199.125
759.4190, 1384.277
760.5670, 1551.401
761.7140, 1945.497
762.8610, 2210.566
764.0080, 2434.577
765.1550, 2655.419
766.3020, 2879.036
767.4480, 2963.929
768.5950, 3059.148
769.7410, 2911.833
770.8870, 2646.340
772.0330, 2408.100
773.1780, 2132.985
774.3240, 1752.601
775.4690, 1486.430
776.6140, 1155.242
777.7590, 985.0508
778.9040, 819.8633
780.0490, 665.6650
781.1940, 498.4514
782.3380, 383.2234
783.4820, 301.9810
784.6260, 264.7251
785.7700, 96.45557
786.9140, 94.16724
788.0580, 55.86011
789.2010, 14.47070
790.3450, 119.8569
791.4880, 167.3530
792.6310, 159.9829
793.7730, 91.55273
794.9160, 145.1062
796.0590, 67.84253
797.2010, 182.4463
798.3430, 130.5183
799.4850, 3.460693
800.6270, 50.79053
801.7690, 29.16284
802.9100, 99.44531
804.0520, 159.0657
805.1930, 352.6870
806.3340, 467.3086
807.4750, 614.9253
808.6160, 852.5364
809.7560, 1211.142
810.8970, 1377.744
812.0370, 1581.340
813.1770, 1552.934
814.3170, 1649.522
815.4570, 1412.109
816.5960, 1075.693
817.7360, 894.2739
818.8750, 541.8538
820.0140, 307.4324
821.1530, 17.00977
822.2920, 36.41357
823.4310, 156.8694
824.5690, 226.4141
825.7070, 306.0461
826.8460, 257.7991
827.9840, 300.6187
829.1220, 294.5359
830.2590, 245.5168
831.3970, 315.5486
832.5340, 334.6997
833.6710, 268.0107
834.8080, 208.4604
835.9450, 116.0151
837.0820, 44.62524
838.2190, 32.92969
839.3550, 37.12427
840.4910, 185.5090
841.6270, 327.9011
842.7630, 398.3008
843.8990, 617.7092
845.0350, 679.1260
846.1700, 937.5525
847.3060, 1191.988
848.4410, 1382.434
849.5760, 1557.891
850.7100, 1756.358
851.8450, 1753.837
852.9800, 1886.329
854.1140, 1819.833
855.2480, 1830.349
856.3820, 1667.879
857.5160, 1579.423
858.6500, 1511.981
859.7830, 1326.553
860.9170, 1340.141
862.0500, 1263.745
863.1830, 1250.364
864.3160, 1209.000
865.4480, 1150.654
866.5810, 1222.324
867.7130, 1250.012
868.8460, 1228.718
869.9780, 1280.444
871.1100, 1336.192
872.2410, 1437.027
873.3730, 1554.747
874.5050, 1733.558
875.6360, 1910.391
876.7670, 2128.245
877.8980, 2186.122
879.0290, 2478.020
880.1590, 2589.943
881.2900, 2961.903
882.4200, 3224.893
883.5500, 3454.908
884.6800, 3877.954
885.8100, 4243.023
886.9400, 4672.121
888.0690, 5366.246
889.1990, 6111.393
890.3280, 6982.567
891.4570, 8050.775
892.5860, 8886.021
893.7140, 10208.31
894.8430, 11692.64
895.9710, 12663.01
897.1000, 13649.42
898.2280, 14456.89
899.3560, 14615.40
900.4830, 14609.96
901.6110, 14173.58
902.7380, 13482.31
903.8660, 12832.20
904.9930, 12096.22
906.1200, 11697.39
907.2460, 11357.68
908.3730, 10922.06
909.5000, 10891.48
910.6260, 10602.96
911.7520, 10016.47
912.8780, 9277.047
914.0040, 8498.671
915.1290, 7704.347
916.2550, 6694.063
917.3800, 6060.819
918.5050, 5511.634
919.6300, 4903.507
920.7550, 4416.430
921.8800, 4250.892
923.0040, 4123.415
924.1290, 4202.494
925.2530, 4260.628
926.3770, 4489.278
927.5010, 4684.066
928.6250, 5032.453
929.7480, 5271.275
930.8720, 5506.872
931.9950, 5554.475
933.1180, 5540.063
934.2410, 5183.061
935.3640, 4717.057
936.4860, 4302.378
937.6090, 3962.148
938.7310, 3727.763
939.8530, 3477.531
940.9750, 3442.344
942.0970, 3471.205
943.2180, 3715.117
944.3400, 3860.076
945.4610, 4100.087
946.5820, 4662.153
947.7030, 5172.278
948.8240, 5525.453
949.9450, 6296.673
951.0650, 6878.939
952.1860, 7509.260
953.3060, 8171.631
954.4260, 8743.054
955.5460, 9510.530
956.6650, 9844.771
957.7850, 10471.68
958.9040, 11233.45
960.0230, 12165.02
961.1420, 13320.77
962.2610, 14628.72
963.3800, 15673.15
964.4990, 16258.14
965.6170, 16859.39
966.7350, 16700.43
967.8530, 16066.45
968.9710, 15676.85
970.0890, 15469.19
971.2070, 15270.42
972.3240, 15912.00
973.4410, 16951.39
974.5580, 18426.83
975.6750, 20676.32
976.7920, 22954.88
977.9090, 25341.49
979.0250, 27390.16
980.1410, 28780.88
981.2580, 29191.66
982.3740, 28549.50
983.4890, 27127.38
984.6050, 25541.33
985.7200, 23819.33
986.8360, 22468.39
987.9510, 21843.50
989.0660, 21405.67
990.1810, 21280.89
991.2950, 21817.17
992.4100, 22351.51
993.5240, 22520.90
994.6390, 22686.34
995.7530, 22861.85
996.8660, 22649.41
997.9800, 22913.03
999.0940, 23016.70
1000.207, 23077.42
1001.320, 23405.20
1002.433, 23588.03
1003.546, 23345.92
1004.659, 22735.43
1005.772, 21899.43
1006.884, 20569.47
1007.996, 19005.14
1009.108, 16755.29
1010.220, 14618.56
1011.332, 12517.90
1012.444, 10824.21
1013.555, 9272.201
1014.666, 7938.582
1015.777, 6768.898
1016.888, 5838.125
1017.999, 4947.283
1019.110, 4520.929
1020.220, 3838.647
1021.331, 3508.578
1022.441, 3165.389
1023.551, 2760.308
1024.661, 2755.448
1025.770, 2605.053
1026.880, 2523.012
1027.989, 2335.299
1029.098, 2242.482
1030.207, 2197.363
1031.316, 1909.659
1032.425, 1763.928
1033.533, 1682.359
1034.642, 1584.320
1035.750, 1430.430
1036.858, 1412.109
1037.966, 1414.773
1039.073, 1276.712
1040.181, 1426.762
1041.288, 1386.089
1042.396, 1390.018
1043.503, 1434.477
1044.610, 1487.945
1045.716, 1481.843
1046.823, 1463.019
1047.929, 1528.479
1049.036, 1584.044
1050.142, 1713.224
1051.248, 1994.287
1052.353, 1887.781
1053.459, 2125.823
1054.564, 2325.960
1055.670, 2269.797
1056.775, 2472.575
1057.880, 2417.101
1058.985, 2434.727
1060.089, 2419.184
1061.194, 2308.264
1062.298, 2224.614
1063.402, 1951.362
1064.506, 1705.589
1065.610, 1530.839
1066.713, 1327.220
1067.817, 1140.708
1068.920, 921.4751
1070.023, 808.8889
1071.126, 791.7935
1072.229, 723.1350
1073.332, 748.9058
1074.435, 724.9727
1075.537, 720.9153
1076.639, 858.0215
1077.741, 994.5215
1078.843, 1089.756
1079.945, 1275.696
1081.046, 1535.597
1082.148, 1708.468
1083.249, 1853.983
1084.350, 1966.450
1085.451, 1973.573
1086.551, 1764.249
1087.652, 1637.121
1088.752, 1318.771
1089.853, 1196.968
1090.953, 1060.872
1092.053, 1015.658
1093.152, 927.1099
1094.252, 903.3945
1095.351, 831.8240
1096.451, 884.3545
1097.550, 876.7583
1098.649, 1014.935
1099.748, 1161.728
1100.846, 1201.244
1101.945, 1392.824
1103.043, 1559.028
1104.141, 1658.196
1105.239, 1871.933
1106.337, 1923.596
1107.434, 1941.336
1108.532, 1878.162
1109.629, 1901.146
1110.726, 1715.313
1111.823, 1436.151
1112.920, 1347.027
1114.017, 1269.757
1115.113, 1095.769
1116.210, 984.5505
1117.306, 883.4053
1118.402, 852.2300
1119.498, 698.9253
1120.593, 599.9561
1121.689, 544.7480
1122.784, 570.6853
1123.879, 457.4043
1124.974, 484.6116
1126.069, 371.3413
1127.164, 275.5422
1128.259, 355.3025
1129.353, 206.4622
1130.447, 147.2026
1131.541, 104.9453
1132.635, 55.68945
1133.729, 80.43433
1134.822, 99.17969
1135.916, 35.07471
1137.009, 11.66309
1138.102, 20.59302
1139.195, 32.58716
1140.288, 45.27539
1141.380, 0.9987790
1142.473, 3.277344
1143.565, 10.43945
1144.657, 31.84741
1145.749, 95.14551
1146.841, 67.47607
1147.932, 32.83057
1149.024, 58.19849
1150.115, 4.411133
1151.206, 66.98413
1152.297, 9.409424
1153.388, 3.171387
1154.479, 39.27393
1155.569, 42.68433
1156.659, 90.17236
1157.750, 76.86377
1158.839, 95.01392
1159.929, 56.89966
1161.019, 98.55469
1162.108, 102.2456
1163.198, 83.01050
1164.287, 66.79468
1165.376, 56.47437
1166.465, 18.37671
1167.553, 94.20728
1168.642, 107.1519
1169.730, 61.05518
1170.818, 107.9575
1171.906, 46.02271
1172.994, 53.02759
1174.082, 27.03589
1175.170, 56.42920
1176.257, 108.5693
1177.344, 46.79541
1178.431, 64.80347
1179.518, 16.25415
1180.605, 23.68750
1181.691, 83.19336
1182.778, 71.81445
1183.864, 46.39624
1184.950, 45.60815
1186.036, 70.43896
1187.122, 51.32886
1188.207, 29.12720
1189.292, 43.19312
1190.378, 19.91577
1191.463, 39.24121
1192.548, 18.54980
1193.632, 44.35254
1194.717, 29.20459
1195.801, 11.05811
1196.886, 33.86743
1197.970, 3.305908
1199.054, 5.568115
1200.137, 46.13037
1201.221, 34.94922
1202.305, 61.44922
1203.388, 44.86743
1204.471, 39.29395
1205.554, 21.68701
1206.637, 44.01025
1207.719, 15.30884
1208.802, 22.55542
1209.884, 5.011230
1210.966, 34.30908
1212.048, 68.36597
1213.130, 103.6238
1214.212, 28.65674
1215.293, 17.72900
1216.374, 101.6423
1217.456, 26.52686
1218.536, 33.32422
1219.617, 46.17383
1220.698, 57.02734
1221.778, 17.68091
1222.859, 21.36475
1223.939, 40.89673
1225.019, 34.75122
1226.099, 99.17236
1227.178, 69.58081
1228.258, 51.91431
1229.337, 107.1941
1230.417, 29.43262
1231.496, 157.6062
1232.574, 67.74146
1233.653, 111.8240
1234.732, 88.86328
1235.810, 184.8533
1236.888, 171.8042
