##NAMES=Axinite-(Fe)
##RRUFFID=R050026
##IDEAL CHEMISTRY=Ca_4_Fe^2+^_2_Al_4_[B_2_Si_8_O_30_](OH)_2_
##LOCALITY=Pouyva mine, Polar Urals, Western Siberian Region, Russia
##OWNER=RRUFF
##SOURCE=Rock Currier
##DESCRIPTION=Brown transparent flat crystal
##STATUS=The identification of this mineral has been confirmed by X-ray diffraction and chemical analysis
##URL=rruff.info/R050026
##MEASURED CHEMISTRY=Ca_2.00_(Fe^2+^_0.61_Mn_0.26_Mg_0.13_)Al_2.00_BSi_4_O_15_(OH)
##PIN_ID=L00219
##ORIENTATION=Laser parallel to (1 1 0). Fiducial mark perpendicular to laser is parallel to c [0 0 1]
88.260, 0.000
89.663, 3.200
91.065, 23.600
92.466, 3.766
93.868, 81.990
95.269, 128.890
96.670, 299.573
98.070, 528.096
99.471, 650.187
100.871, 720.193
102.271, 859.473
103.670, 996.463
105.070, 1221.192
106.469, 1876.182
107.868, 3482.277
109.267, 3480.498
110.665, 3028.789
112.063, 2800.048
113.461, 2168.829
114.859, 1887.082
116.256, 1467.739
117.653, 1168.079
119.050, 859.326
120.447, 748.662
121.843, 587.237
123.240, 464.173
124.636, 315.292
126.031, 287.005
127.427, 371.770
128.822, 530.323
130.217, 837.683
131.612, 1178.883
133.006, 1618.952
134.400, 2230.917
135.794, 2848.461
137.188, 3418.090
138.581, 3618.838
139.975, 3323.593
141.368, 2866.648
142.760, 2320.994
144.153, 1853.614
145.545, 1441.498
146.937, 1182.633
148.329, 995.010
149.720, 927.615
151.112, 935.440
152.503, 1098.476
153.893, 1044.718
155.284, 1071.145
156.674, 768.743
158.064, 467.530
159.454, 147.560
160.843, 21.866
162.233, 37.832
163.622, 46.155
165.011, 407.695
166.399, 837.838
167.787, 1480.045
169.175, 2058.428
170.563, 2678.981
171.951, 2956.680
173.338, 2972.450
174.725, 2731.323
176.112, 2214.309
177.499, 1705.417
178.885, 1092.648
180.271, 636.005
181.657, 108.485
183.043, 168.913
184.428, 406.191
185.813, 398.355
187.198, 262.410
188.583, 166.643
189.967, 582.800
191.351, 1072.054
192.735, 1343.404
194.119, 1252.847
195.502, 860.380
196.885, 548.985
198.268, 629.656
199.651, 866.391
201.033, 1551.192
202.415, 2444.060
203.797, 3660.995
205.179, 4726.998
206.561, 5917.068
207.942, 6767.203
209.323, 7647.337
210.703, 8287.519
212.084, 8757.768
213.464, 9268.088
214.844, 9488.478
216.224, 9448.935
217.603, 8939.478
218.983, 8130.105
220.362, 6550.393
221.741, 5120.487
223.119, 3641.679
224.497, 2555.116
225.875, 1758.981
227.253, 1110.387
228.631, 717.496
230.008, 407.558
231.385, 188.419
232.762, 78.761
234.139, 32.145
235.515, 32.430
236.891, 95.037
238.267, 36.455
239.643, 14.095
241.018, 29.685
242.393, 23.684
243.768, 172.987
245.143, 401.692
246.517, 889.426
247.891, 1663.192
249.265, 2875.991
250.639, 4148.829
252.012, 5871.701
253.386, 7124.616
254.759, 7715.393
256.131, 8115.956
257.504, 7947.309
258.876, 7888.967
260.248, 7910.915
261.620, 8603.076
262.991, 9395.413
264.363, 9997.902
265.734, 10700.512
267.104, 10843.233
268.475, 11016.045
269.845, 10568.926
271.215, 10311.879
272.585, 10024.889
273.955, 9287.943
275.324, 8641.042
276.693, 7754.183
278.062, 6917.365
279.431, 6100.537
280.799, 5363.706
282.167, 4946.876
283.535, 4552.051
284.903, 4488.240
286.270, 4521.444
287.638, 4523.667
289.005, 4507.911
290.371, 4676.165
291.738, 4617.308
293.104, 4520.481
294.470, 4379.686
295.836, 4211.923
297.201, 3746.193
298.567, 3379.496
299.932, 3065.833
301.296, 2832.067
302.661, 2610.673
304.025, 2636.133
305.389, 2680.655
306.753, 2574.235
308.117, 2622.874
309.480, 2613.569
310.843, 2828.322
312.206, 3354.130
313.569, 4288.992
314.931, 5608.908
316.293, 7141.877
317.655, 8494.899
319.017, 9307.973
320.378, 9451.094
321.740, 8804.270
323.101, 7937.494
324.461, 7110.769
325.822, 6343.709
327.182, 5893.962
328.542, 5613.865
329.902, 5597.304
331.261, 5690.781
332.621, 5984.302
333.980, 6485.810
335.339, 7011.480
336.697, 8005.133
338.056, 9068.829
339.414, 10272.567
340.772, 10986.348
342.129, 11140.168
343.487, 10414.029
344.844, 9330.513
346.201, 7637.039
347.557, 6583.116
348.914, 5434.177
350.270, 4895.560
351.626, 4021.602
352.982, 3348.735
354.337, 2620.906
355.693, 1898.916
357.048, 1291.925
358.402, 900.016
359.757, 590.908
361.111, 340.540
362.465, 187.239
363.819, 92.207
365.173, 35.953
366.526, 6.108
367.879, 22.474
369.232, 54.645
370.585, 16.950
371.937, 36.476
373.290, 198.116
374.642, 212.734
375.993, 477.378
377.345, 690.047
378.696, 1039.741
380.047, 1597.460
381.398, 2271.202
382.748, 3314.968
384.099, 4319.759
385.449, 5307.577
386.799, 6152.420
388.148, 6047.287
389.497, 5682.176
390.847, 4575.084
392.196, 3737.009
393.544, 2895.942
394.893, 2249.883
396.241, 1856.839
397.589, 1661.811
398.936, 1565.999
400.284, 1583.001
401.631, 1714.110
402.978, 1808.141
404.325, 1966.186
405.672, 2078.724
407.018, 2335.796
408.364, 2702.882
409.710, 3185.981
411.055, 3815.094
412.401, 4613.221
413.746, 5830.358
415.091, 7355.510
416.435, 9300.672
417.780, 11625.861
419.124, 14231.073
420.468, 16656.303
421.812, 18321.557
423.155, 19026.824
424.498, 18212.107
425.842, 16687.414
427.184, 14172.726
428.527, 12068.056
429.869, 9833.400
431.211, 8008.758
432.553, 6464.126
433.895, 5509.507
435.236, 5063.899
436.577, 5071.305
437.918, 5725.722
439.259, 7101.149
440.599, 8816.586
441.940, 10682.034
443.280, 12277.494
444.619, 12322.963
445.959, 11168.444
447.298, 9073.934
448.637, 6689.437
449.976, 4819.949
451.315, 3458.470
452.653, 2318.000
453.991, 1670.541
455.329, 1101.092
456.667, 806.652
458.004, 576.222
459.341, 300.801
460.678, 290.390
462.015, 117.989
463.352, 97.602
464.688, 144.235
466.024, 157.897
467.360, 317.605
468.695, 468.352
470.031, 689.155
471.366, 982.010
472.701, 1365.923
474.035, 2015.900
475.370, 2811.940
476.704, 4059.048
478.038, 5575.208
479.372, 7211.433
480.705, 8957.711
482.038, 10044.047
483.371, 10250.456
484.704, 10136.913
486.037, 8363.431
487.369, 6340.007
488.701, 4687.647
490.033, 3328.367
491.365, 2384.125
492.696, 1728.916
494.027, 1165.736
495.358, 913.573
496.689, 758.418
498.019, 481.267
499.350, 377.120
500.680, 290.976
502.009, 124.836
503.339, 105.699
504.668, 25.437
505.997, 24.598
507.326, 4.214
508.655, 18.058
509.983, 64.006
511.311, 41.054
512.639, 92.166
513.967, 83.282
515.295, 20.601
516.622, 98.513
517.949, 145.926
519.276, 268.581
520.602, 278.827
521.929, 326.245
523.255, 408.857
524.581, 260.709
525.906, 246.725
527.232, 225.088
528.557, 73.127
529.882, 4.492
531.207, 177.085
532.531, 302.337
533.855, 313.923
535.179, 467.506
536.503, 388.085
537.827, 437.659
539.150, 282.228
540.473, 197.793
541.796, 204.353
543.119, 153.907
544.441, 78.456
545.764, 83.000
547.086, 160.538
548.407, 197.069
549.729, 278.595
551.050, 377.113
552.371, 607.625
553.692, 872.131
555.013, 1331.629
556.333, 1679.121
557.653, 2376.605
558.973, 2842.087
560.293, 3117.560
561.612, 3304.032
562.932, 3227.495
564.251, 3215.951
565.569, 3280.402
566.888, 3498.844
568.206, 4028.277
569.524, 4366.702
570.842, 4909.118
572.160, 5064.525
573.477, 5007.922
574.795, 4677.311
576.112, 3994.688
577.428, 3665.058
578.745, 3068.416
580.061, 2861.765
581.377, 2780.103
582.693, 2779.431
584.009, 2816.749
585.324, 3042.054
586.639, 3073.349
587.954, 3159.633
589.269, 2703.906
590.583, 2396.167
591.897, 1937.416
593.212, 1475.654
594.525, 1260.879
595.839, 986.092
597.152, 836.293
598.465, 732.482
599.778, 757.763
601.091, 742.927
602.403, 898.077
603.716, 991.215
605.028, 1140.339
606.339, 1466.450
607.651, 1773.548
608.962, 2035.632
610.273, 2586.703
611.584, 2931.760
612.895, 3362.802
614.205, 3731.831
615.515, 3925.845
616.825, 4174.844
618.135, 4179.898
619.444, 3928.226
620.754, 3688.856
622.063, 2955.532
623.372, 2428.684
624.680, 1992.679
625.989, 1593.858
627.297, 1387.233
628.605, 1168.111
629.912, 1153.585
631.220, 1248.471
632.527, 1277.392
633.834, 1602.854
635.141, 1868.786
636.447, 2316.648
637.754, 2685.615
639.060, 3224.200
640.366, 3544.798
641.671, 3886.680
642.977, 4018.021
644.282, 3823.487
645.587, 3647.393
646.892, 3113.702
648.196, 2665.879
649.501, 2181.573
650.805, 1802.596
652.109, 1437.384
653.412, 1269.231
654.716, 1127.581
656.019, 1049.899
657.322, 1000.187
658.625, 1071.442
659.927, 1143.667
661.230, 1254.859
662.532, 1491.440
663.834, 1720.986
665.135, 1982.726
666.437, 2472.462
667.738, 3027.715
669.039, 3781.123
670.340, 4740.616
671.640, 5793.680
672.940, 7513.032
674.241, 8489.255
675.540, 9612.280
676.840, 9677.509
678.139, 9292.001
679.439, 8263.430
680.738, 6889.591
682.036, 5721.978
683.335, 4585.177
684.633, 3791.682
685.931, 3136.705
687.229, 2753.547
688.527, 2597.121
689.824, 2413.681
691.121, 2447.217
692.418, 2453.730
693.715, 2687.219
695.012, 2959.685
696.308, 3396.128
697.604, 3841.547
698.900, 4730.944
700.195, 5402.316
701.491, 6775.666
702.786, 8218.990
704.081, 10272.296
705.376, 12795.576
706.670, 15738.832
707.964, 20382.068
709.259, 24685.277
710.552, 29278.463
711.846, 32781.629
713.139, 34204.770
714.433, 33787.895
715.726, 29540.990
717.018, 26024.062
718.311, 20807.119
719.603, 16730.150
720.895, 13303.154
722.187, 10386.142
723.479, 8209.102
724.770, 6602.042
726.061, 5421.960
727.352, 4414.856
728.643, 3613.730
729.934, 3115.582
731.224, 2497.412
732.514, 2158.221
733.804, 1841.008
735.094, 1413.772
736.383, 1349.516
737.672, 1182.238
738.961, 962.939
740.250, 839.618
741.539, 695.277
742.827, 621.914
744.115, 552.530
745.403, 473.125
746.691, 424.700
747.978, 361.253
749.265, 247.786
750.552, 297.299
751.839, 241.791
753.126, 251.263
754.412, 159.714
755.698, 233.145
756.984, 213.555
758.270, 182.946
759.555, 205.316
760.840, 247.667
762.125, 183.998
763.410, 290.309
764.695, 294.601
765.979, 304.873
767.263, 272.126
768.547, 259.590
769.831, 200.577
771.114, 189.773
772.398, 158.952
773.681, 100.110
774.964, 69.247
776.246, 23.358
777.529, 3.569
778.811, 65.547
780.093, 47.608
781.375, 110.743
782.656, 97.985
783.937, 124.326
785.219, 147.780
786.499, 149.359
787.780, 159.062
789.060, 119.894
790.341, 151.835
791.621, 122.900
792.901, 134.073
794.180, 199.360
795.459, 93.794
796.739, 166.320
798.017, 137.973
799.296, 114.740
800.575, 170.605
801.853, 74.599
803.131, 68.670
804.409, 43.813
805.686, 10.016
806.964, 41.742
808.241, 186.482
809.518, 267.208
810.795, 272.921
812.071, 333.622
813.347, 234.310
814.623, 273.986
815.899, 207.650
817.175, 146.317
818.450, 8.987
819.726, 18.356
821.001, 45.271
822.275, 14.885
823.550, 5.484
824.824, 58.064
826.098, 25.634
827.372, 55.206
828.646, 89.804
829.920, 105.442
831.193, 142.282
832.466, 204.938
833.739, 220.814
835.011, 286.800
836.284, 360.862
837.556, 454.994
838.828, 506.189
840.100, 622.412
841.371, 729.641
842.642, 869.865
843.914, 1029.085
845.184, 1237.300
846.455, 1399.510
847.726, 1688.713
848.996, 1849.913
850.266, 2184.108
851.536, 2423.299
852.805, 2545.491
854.075, 2693.683
855.344, 2787.726
856.613, 2786.071
857.881, 2865.266
859.150, 2891.461
860.418, 2831.682
861.686, 2955.899
862.954, 2970.573
864.222, 3114.354
865.489, 3065.582
866.756, 3132.807
868.023, 3112.043
869.290, 3172.280
870.557, 3188.187
871.823, 3094.767
873.089, 3201.018
874.355, 3283.277
875.621, 3231.537
876.886, 3376.797
878.152, 3611.065
879.417, 3615.334
880.682, 3854.604
881.946, 3973.892
883.211, 4407.187
884.475, 4613.489
885.739, 5242.796
887.003, 5628.113
888.266, 6255.433
889.530, 7146.757
890.793, 8067.084
892.056, 9257.411
893.318, 10617.748
894.581, 12278.087
895.843, 14328.431
897.105, 16378.793
898.367, 19039.172
899.629, 21619.553
900.890, 22939.945
902.152, 23978.838
903.413, 24052.654
904.673, 23851.148
905.934, 22191.562
907.194, 20181.887
908.454, 17752.322
909.714, 15762.761
910.974, 13603.215
912.234, 11873.673
913.493, 10224.138
914.752, 8824.606
916.011, 7605.082
917.270, 6795.574
918.528, 6162.084
919.786, 5588.600
921.044, 5018.121
922.302, 4956.653
923.560, 4527.196
924.817, 4516.688
926.074, 4401.901
927.331, 4346.803
928.588, 4227.652
929.844, 4176.016
931.101, 4236.531
932.357, 4193.215
933.613, 4114.984
934.868, 4313.601
936.124, 4336.620
937.379, 4491.219
938.634, 4768.784
939.889, 4826.800
941.144, 5297.339
942.398, 5669.946
943.652, 6243.438
944.906, 7000.309
946.160, 7616.165
947.414, 8658.729
948.667, 9246.833
949.920, 10346.810
951.173, 11248.335
952.426, 12176.451
953.678, 13170.696
954.931, 14765.432
956.183, 16271.824
957.435, 18890.449
958.686, 21381.010
959.938, 24212.055
961.189, 26233.125
962.440, 27294.223
963.691, 27275.346
964.941, 25856.486
966.192, 24327.656
967.442, 22828.854
968.692, 22060.074
969.942, 22030.727
971.191, 22760.014
972.441, 23711.098
973.690, 26142.020
974.939, 28302.844
976.187, 29714.092
977.436, 30935.244
978.684, 29716.549
979.932, 29157.998
981.180, 26659.477
982.428, 25210.969
983.675, 23602.508
984.922, 22054.053
986.169, 21556.133
987.416, 20667.787
988.663, 20129.404
989.909, 19941.666
991.155, 19433.631
992.401, 19425.596
993.647, 19597.635
994.893, 19689.525
996.138, 20011.275
997.383, 19793.104
998.628, 19265.113
999.873, 18514.850
1001.117, 17429.250
1002.362, 16101.787
1003.606, 14455.038
1004.850, 12797.842
1006.093, 11560.808
1007.337, 9983.796
1008.580, 8886.633
1009.823, 7834.912
1011.066, 6856.974
1012.308, 6125.706
1013.551, 5486.035
1014.793, 4815.173
1016.035, 4510.410
1017.277, 4052.431
1018.518, 3803.951
1019.760, 3579.543
1021.001, 3494.790
1022.242, 3346.559
1023.483, 3307.855
1024.723, 3167.635
1025.964, 3209.788
1027.204, 2901.981
1028.444, 2803.389
1029.683, 2609.969
1030.923, 2329.531
1032.162, 2235.875
1033.401, 2059.221
1034.640, 1975.317
1035.879, 1936.345
1037.117, 1725.850
1038.355, 1842.410
1039.593, 1819.263
1040.831, 1773.860
1042.069, 1714.288
1043.306, 1569.515
1044.544, 1558.800
1045.781, 1535.573
1047.017, 1457.833
1048.254, 1464.981
1049.490, 1425.892
1050.726, 1432.633
1051.962, 1483.244
1053.198, 1442.029
1054.434, 1511.903
1055.669, 1458.569
1056.904, 1404.389
1058.139, 1350.760
1059.374, 1236.839
1060.608, 1140.709
1061.843, 1064.640
1063.077, 954.750
1064.311, 900.664
1065.544, 839.476
1066.778, 857.017
1068.011, 842.009
1069.244, 670.983
1070.477, 790.910
1071.710, 767.180
1072.942, 883.242
1074.174, 867.924
1075.406, 902.094
1076.638, 1073.335
1077.870, 1135.529
1079.101, 1252.080
1080.332, 1276.708
1081.563, 1242.876
1082.794, 1163.600
1084.025, 1158.958
1085.255, 988.785
1086.485, 840.980
1087.715, 720.689
1088.945, 637.444
1090.175, 575.817
1091.404, 534.814
1092.633, 509.635
1093.862, 497.663
1095.091, 457.782
1096.319, 434.298
1097.548, 432.661
1098.776, 370.925
1100.004, 506.137
1101.231, 360.341
1102.459, 467.902
1103.686, 467.154
1104.913, 409.633
1106.140, 368.503
1107.367, 400.095
1108.593, 326.558
1109.819, 383.266
1111.046, 241.760
1112.271, 253.236
1113.497, 271.806
1114.722, 202.579
1115.948, 287.136
1117.173, 201.528
1118.398, 191.845
1119.622, 201.291
1120.847, 168.027
1122.071, 166.040
1123.295, 150.494
1124.519, 93.001
1125.742, 57.917
1126.966, 81.333
1128.189, 24.046
1129.412, 43.615
1130.635, 3.259
1131.857, 34.709
1133.080, 27.675
1134.302, 4.104
1135.524, 4.942
1136.746, 30.451
1137.967, 17.903
1139.188, 16.390
1140.410, 18.849
1141.631, 9.823
1142.851, 7.979
1144.072, 1.871
1145.292, 12.262
1146.512, 2.552
1147.732, 20.680
1148.952, 27.172
1150.172, 45.486
1151.391, 32.661
1152.610, 35.639
1153.829, 34.922
1155.048, 29.552
1156.266, 47.947
1157.484, 16.351
1158.702, 66.804
1159.920, 36.869
1161.138, 6.156
1162.356, 1.969
1163.573, 66.355
1164.790, 10.801
1166.007, 11.933
1167.224, 66.105
1168.440, 13.985
1169.656, 45.314
1170.872, 5.467
1172.088, 5.801
1173.304, 39.387
1174.519, 3.485
1175.735, 2.179
1176.950, 74.599
1178.165, 18.265
1179.379, 36.102
1180.594, 10.865
1181.808, 27.845
1183.022, 16.874
1184.236, 19.877
1185.449, 0.993
1186.663, 13.049
1187.876, 10.951
1189.089, 5.906
1190.302, 5.968
1191.515, 6.691
1192.727, 21.637
1193.939, 18.635
1195.151, 13.463
1196.363, 34.271
1197.575, 5.967
1198.786, 8.104
1199.997, 15.614
1201.208, 17.554
1202.419, 12.009
1203.630, 3.477
1204.840, 23.521
1206.051, 51.006
1207.261, 37.404
1208.470, 14.964
1209.680, 56.378
1210.889, 30.000
1212.099, 24.666
1213.308, 50.603
1214.516, 59.866
1215.725, 4.102
1216.933, 0.470
1218.142, 12.134
1219.350, 12.012
1220.557, 39.134
1221.765, 28.275
1222.972, 46.492
1224.180, 20.802
1225.387, 21.039
1226.593, 11.066
1227.800, 23.250
1229.006, 11.246
1230.213, 25.591
1231.419, 0.317
1232.624, 37.204
1233.830, 44.117
1235.035, 18.036
1236.241, 61.855
1237.446, 16.649
1238.650, 14.416
1239.855, 43.145
1241.059, 8.975
1242.264, 39.662
1243.468, 51.319
1244.671, 20.957
1245.875, 96.565
1247.078, 16.674
1248.282, 106.897
1249.485, 61.413
1250.687, 40.093
1251.890, 53.558
1253.092, 78.999
1254.295, 50.496
1255.497, 77.946
1256.699, 85.308
1257.900, 66.774
1259.102, 53.125
1260.303, 74.848
1261.504, 117.142
1262.705, 14.347
1263.905, 45.586
1265.106, 132.708
1266.306, 66.784
1267.506, 119.814
1268.706, 109.803
1269.905, 58.759
1271.105, 135.679
1272.304, 74.545
1273.503, 102.368
1274.702, 86.157
1275.900, 133.902
1277.099, 95.622
1278.297, 105.798
1279.495, 59.386
1280.693, 98.999
1281.891, 111.958
1283.088, 120.261
1284.285, 113.495
1285.482, 61.632
1286.679, 35.919
1287.876, 57.463
1289.072, 97.791
1290.268, 74.998
1291.464, 79.297
1292.660, 20.213
1293.856, 85.809
1295.051, 72.660
1296.247, 28.959
1297.442, 36.080
1298.637, 19.167
1299.831, 35.526
1301.026, 16.302
1302.220, 25.284
1303.414, 51.586
1304.608, 17.282
1305.802, 53.157
1306.995, 68.012
1308.188, 67.984
1309.381, 49.515
1310.574, 51.006
1311.767, 23.280
1312.960, 53.899
1314.152, 14.541
1315.344, 48.131
1316.536, 67.595
1317.728, 39.295
1318.919, 70.835
1320.110, 52.333
1321.301, 62.693
1322.492, 79.215
1323.683, 65.703
1324.874, 24.428
1326.064, 104.263
1327.254, 30.560
1328.444, 83.791
1329.634, 64.741
1330.823, 83.960
1332.013, 73.289
1333.202, 88.842
1334.391, 79.291
1335.580, 38.241
1336.768, 61.832
1337.956, 44.383
1339.145, 99.161
1340.333, 89.098
1341.520, 66.153
1342.708, 88.035
1343.895, 64.802
1345.083, 112.933
1346.270, 166.563
1347.456, 41.793
1348.643, 102.303
1349.829, 136.012
1351.016, 87.647
1352.202, 118.095
1353.387, 67.725
1354.573, 121.447
1355.759, 153.471
1356.944, 122.990
1358.129, 162.515
1359.314, 73.137
1360.498, 87.348
1361.683, 197.758
1362.867, 179.541
1364.051, 81.831
1365.235, 148.045
1366.419, 64.364
1367.602, 76.281
1368.785, 121.810
1369.968, 77.166
1371.151, 103.003
1372.334, 128.031
1373.517, 83.402
1374.699, 154.143
1375.881, 108.667
1377.063, 102.037
1378.245, 181.066
1379.426, 136.504
1380.608, 139.527
1381.789, 152.280
1382.970, 86.325
1384.150, 113.613
1385.331, 130.185
1386.511, 114.947
1387.691, 142.261
1388.871, 73.977
1390.051, 105.879
1391.231, 139.384
1392.410, 69.006
1393.589, 150.159
1394.768, 129.320
1395.947, 93.652
1397.126, 98.817
1398.304, 115.355
1399.483, 81.537
1400.661, 101.752
1401.838, 30.695
1403.016, 97.182
1404.194, 120.215
1405.371, 89.370
1406.548, 123.498
1407.725, 126.030
1408.901, 104.278
1410.078, 130.794
1411.254, 128.148
1412.430, 100.432
1413.606, 128.633
1414.782, 121.074
1415.958, 116.190
1417.133, 119.048
1418.308, 112.776
1419.483, 112.905
1420.658, 100.446
1421.832, 101.198
1423.007, 82.750
1424.181, 60.393
1425.355, 83.300
1426.529, 114.229
1427.702, 91.056
1428.876, 38.572
1430.049, 98.208
1431.222, 48.533
1432.395, 142.577
1433.567, 47.373
1434.740, 63.008
1435.912, 107.161
1437.084, 63.900
1438.256, 64.744
1439.428, 64.537
1440.599, 33.138
1441.770, 88.777
1442.942, 113.240
1444.112, 72.894
1445.283, 90.729
1446.454, 65.455
1447.624, 38.298
1448.794, 66.867
1449.964, 41.611
1451.134, 30.291
1452.303, 72.455
1453.473, 58.596
1454.642, 108.091
1455.811, 81.170
1456.980, 15.204
1458.148, 77.269
1459.317, 33.410
1460.485, 5.511
1461.653, 31.920
1462.821, 41.411
1463.989, 56.970
1465.156, 50.652
1466.323, 32.367
1467.490, 71.103
1468.657, 113.881
1469.824, 37.485
1470.991, 31.307
1472.157, 95.678
1473.323, 33.203
1474.489, 68.647
1475.655, 88.411
1476.820, 8.194
1477.986, 74.488
1479.151, 51.280
1480.316, 57.071
1481.481, 83.484
1482.645, 34.470
1483.810, 44.254
1484.974, 46.074
1486.138, 78.199
1487.302, 85.679
1488.465, 66.131
1489.629, 60.077
1490.792, 90.722
1491.955, 47.533
1493.118, 100.193
