##NAMES=Axinite-(Fe)
##RRUFFID=R050026
##IDEAL CHEMISTRY=Ca_4_Fe^2+^_2_Al_4_[B_2_Si_8_O_30_](OH)_2_
##LOCALITY=Pouyva mine, Polar Urals, Western Siberian Region, Russia
##OWNER=RRUFF
##SOURCE=Rock Currier
##DESCRIPTION=Brown transparent flat crystal
##STATUS=The identification of this mineral has been confirmed by X-ray diffraction and chemical analysis
##URL=rruff.info/R050026
##MEASURED CHEMISTRY=Ca_2.00_(Fe^2+^_0.61_Mn_0.26_Mg_0.13_)Al_2.00_BSi_4_O_15_(OH)
##PIN_ID=L00053
##ORIENTATION=Laser parallel to (0 1 1). Fiducial mark perpendicular to laser is parallel to a [1 0 0]
91.284, 0.000
92.678, 0.883
94.071, 28.886
95.465, 113.295
96.858, 186.305
98.251, 219.994
99.644, 307.840
101.036, 293.472
102.428, 355.227
103.820, 438.005
105.212, 735.915
106.604, 1328.302
107.995, 2146.795
109.387, 3532.201
110.777, 4545.986
112.168, 5218.170
113.559, 4762.440
114.949, 3344.101
116.339, 2379.424
117.729, 1548.148
119.119, 1050.626
120.508, 685.056
121.897, 371.603
123.286, 240.397
124.675, 164.552
126.063, 83.155
127.452, 14.336
128.840, 46.214
130.228, 4.243
131.615, 5.001
133.003, 12.021
134.390, 59.281
135.777, 210.296
137.164, 226.593
138.550, 656.138
139.937, 1023.625
141.323, 1419.027
142.709, 1510.299
144.094, 1318.697
145.480, 1270.219
146.865, 964.867
148.250, 1011.645
149.635, 1039.544
151.019, 1353.555
152.403, 1695.668
153.788, 1697.879
155.171, 1538.189
156.555, 1114.600
157.939, 945.095
159.322, 770.657
160.705, 708.291
162.088, 757.134
163.470, 728.171
164.853, 902.505
166.235, 1117.925
167.617, 1698.360
168.998, 2248.809
170.380, 3173.267
171.761, 4142.735
173.142, 4411.209
174.523, 4441.693
175.904, 3717.211
177.284, 2943.774
178.664, 1937.388
180.044, 1259.051
181.424, 830.760
182.803, 287.514
184.183, 110.308
185.562, 105.862
186.940, 239.002
188.319, 222.115
189.698, 104.205
191.076, 69.728
192.454, 390.678
193.831, 1026.643
195.209, 1416.616
196.586, 1697.581
197.963, 1447.629
199.340, 1070.807
200.717, 1003.103
202.093, 1045.550
203.470, 1497.073
204.846, 1811.616
206.221, 2621.154
207.597, 3502.672
208.972, 4529.171
210.347, 5789.653
211.722, 6308.115
213.097, 6922.560
214.472, 6327.000
215.846, 5795.524
217.220, 4903.182
218.594, 4026.975
219.967, 3687.834
221.341, 2886.657
222.714, 2499.168
224.087, 1806.488
225.460, 1212.800
226.832, 830.111
228.204, 524.437
229.577, 346.134
230.948, 120.129
232.320, 162.176
233.692, 54.754
235.063, 61.507
236.434, 80.745
237.805, 100.974
239.175, 155.946
240.545, 219.917
241.916, 279.858
243.286, 251.780
244.655, 284.680
246.025, 402.552
247.394, 463.396
248.763, 715.215
250.132, 774.011
251.501, 1131.783
252.869, 1436.533
254.237, 1912.259
255.605, 2619.961
256.973, 2855.438
258.340, 3142.288
259.708, 2532.350
261.075, 2140.539
262.442, 1913.809
263.808, 1653.128
265.175, 1834.475
266.541, 1765.836
267.907, 2334.192
269.273, 2753.533
270.639, 3369.854
272.004, 4274.153
273.369, 4825.431
274.734, 5951.685
276.099, 6229.901
277.463, 6759.065
278.828, 6564.099
280.192, 5969.119
281.556, 5441.088
282.919, 4154.012
284.283, 3687.896
285.646, 2928.742
287.009, 2748.555
288.372, 2632.337
289.734, 2706.092
291.097, 3170.820
292.459, 3149.524
293.821, 3799.206
295.183, 4145.555
296.544, 4522.180
297.905, 5036.525
299.266, 4710.993
300.627, 5122.996
301.988, 4601.113
303.348, 4491.991
304.709, 4347.662
306.069, 4342.968
307.428, 4570.578
308.788, 4232.398
310.147, 4294.339
311.507, 3888.200
312.865, 3913.499
314.224, 4352.561
315.583, 4841.231
316.941, 6281.023
318.299, 7467.386
319.657, 9111.258
321.015, 9865.028
322.372, 9318.788
323.729, 8462.542
325.086, 6375.290
326.443, 5204.030
327.800, 3873.754
329.156, 3172.462
330.512, 2807.160
331.868, 2266.848
333.224, 2155.750
334.579, 1906.275
335.935, 2015.622
337.290, 2175.261
338.645, 2540.084
339.999, 3263.801
341.354, 4272.283
342.708, 6115.454
344.062, 7129.088
345.416, 8084.591
346.769, 7612.125
348.123, 6133.917
349.476, 5257.226
350.829, 3846.822
352.182, 3371.608
353.534, 2792.900
354.887, 2353.661
356.239, 1921.387
357.591, 1332.018
358.942, 1100.834
360.294, 722.429
361.645, 460.530
362.996, 358.679
364.347, 223.422
365.698, 185.798
367.048, 60.930
368.398, 48.906
369.748, 32.059
371.098, 49.042
372.448, 33.465
373.797, 100.924
375.146, 44.188
376.495, 40.725
377.844, 34.319
379.192, 126.337
380.540, 195.333
381.889, 361.308
383.236, 488.262
384.584, 891.195
385.932, 1265.108
387.279, 1810.002
388.626, 2764.878
389.973, 3320.734
391.319, 3187.571
392.666, 2905.387
394.012, 2478.171
395.358, 2542.897
396.704, 1824.161
398.049, 1569.389
399.394, 1209.714
400.740, 984.103
402.084, 901.637
403.429, 744.153
404.774, 665.650
406.118, 583.129
407.462, 585.623
408.806, 661.031
410.150, 701.455
411.493, 897.861
412.836, 1056.248
414.179, 1536.617
415.522, 2027.968
416.865, 3085.300
418.207, 3799.614
419.549, 4181.908
420.891, 4692.179
422.233, 4044.428
423.575, 3905.653
424.916, 4026.852
426.257, 4361.026
427.598, 4927.175
428.939, 5309.299
430.279, 6421.398
431.619, 6441.472
432.959, 6622.519
434.299, 6158.543
435.639, 4990.538
436.978, 4227.510
438.318, 3095.456
439.657, 2585.377
440.996, 2331.273
442.334, 2211.145
443.673, 2651.993
445.011, 2818.815
446.349, 3227.614
447.687, 2982.388
449.024, 2302.138
450.361, 1901.864
451.699, 1092.566
453.036, 929.243
454.372, 559.897
455.709, 425.527
457.045, 343.135
458.381, 144.719
459.717, 166.279
461.053, 17.171
462.388, 18.323
463.724, 18.222
465.059, 70.821
466.394, 3.501
467.728, 72.226
469.063, 12.031
470.397, 77.886
471.731, 92.824
473.065, 17.146
474.398, 16.918
475.732, 58.966
477.065, 46.821
478.398, 93.646
479.731, 208.445
481.063, 272.226
482.396, 479.985
483.728, 509.724
485.060, 841.444
486.391, 807.142
487.723, 793.825
489.054, 746.493
490.385, 405.142
491.716, 278.791
493.047, 172.419
494.377, 53.032
495.708, 72.617
497.038, 64.826
498.368, 36.343
499.697, 82.919
501.027, 111.579
502.356, 59.337
503.685, 99.166
505.014, 2.086
506.342, 35.046
507.671, 14.937
508.999, 45.887
510.327, 12.152
511.655, 74.867
512.982, 62.946
514.310, 108.040
515.637, 143.131
516.964, 13.212
518.291, 112.299
519.617, 12.383
520.944, 53.464
522.270, 35.449
523.596, 45.414
524.921, 19.532
526.247, 36.698
527.572, 53.227
528.897, 29.993
530.222, 54.413
531.547, 119.387
532.871, 86.811
534.196, 227.497
535.520, 287.098
536.844, 345.549
538.167, 454.929
539.491, 572.250
540.814, 886.840
542.137, 1008.612
543.460, 1357.367
544.783, 1637.103
546.105, 1765.820
547.427, 2210.519
548.749, 1957.199
550.071, 2059.862
551.393, 1791.506
552.714, 1496.131
554.035, 1590.740
555.356, 1373.330
556.677, 1500.904
557.998, 1618.463
559.318, 1774.006
560.638, 2110.532
561.958, 2160.042
563.278, 2192.535
564.597, 1766.011
565.917, 1638.469
567.236, 1437.911
568.555, 1205.336
569.874, 1280.746
571.192, 1218.138
572.511, 1318.513
573.829, 1369.873
575.147, 1207.215
576.464, 1309.542
577.782, 1125.852
579.099, 1053.146
580.416, 1063.424
581.733, 945.686
583.050, 1160.932
584.366, 1062.162
585.683, 1276.376
586.999, 1440.575
588.315, 1603.758
589.630, 1926.926
590.946, 1715.079
592.261, 1689.216
593.576, 1359.338
594.891, 1011.445
596.206, 862.538
597.520, 529.615
598.834, 471.678
600.148, 403.727
601.462, 258.760
602.776, 336.779
604.089, 188.784
605.402, 305.775
606.715, 270.752
608.028, 165.714
609.341, 314.663
610.653, 248.599
611.965, 402.520
613.277, 420.428
614.589, 479.322
615.901, 636.203
617.212, 601.667
618.523, 784.209
619.834, 769.628
621.145, 826.902
622.456, 884.249
623.766, 715.294
625.076, 665.564
626.386, 435.521
627.696, 344.260
629.006, 322.867
630.315, 198.543
631.624, 235.771
632.933, 173.227
634.242, 261.059
635.551, 354.759
636.859, 325.875
638.167, 599.105
639.475, 700.792
640.783, 858.469
642.090, 1072.578
643.398, 1162.209
644.705, 1378.982
646.012, 1308.613
647.318, 1272.721
648.625, 1202.045
649.931, 841.666
651.237, 809.660
652.543, 564.404
653.849, 468.309
655.155, 339.903
656.460, 268.293
657.765, 275.771
659.070, 150.464
660.375, 97.450
661.679, 173.954
662.984, 100.569
664.288, 196.135
665.592, 204.423
666.895, 254.120
668.199, 471.611
669.502, 482.975
670.805, 834.366
672.108, 846.201
673.411, 1324.938
674.713, 1694.084
676.016, 2121.638
677.318, 2829.598
678.620, 2736.542
679.921, 2824.861
681.223, 2679.444
682.524, 2116.680
683.825, 1947.204
685.126, 1389.585
686.427, 1202.445
687.727, 965.336
689.028, 778.561
690.328, 815.609
691.628, 656.822
692.927, 762.573
694.227, 718.116
695.526, 681.660
696.825, 1024.201
698.124, 975.739
699.423, 1280.270
700.721, 1519.796
702.020, 1750.318
703.318, 2473.835
704.616, 2745.347
705.913, 3636.854
707.211, 4675.358
708.508, 5659.855
709.805, 7715.351
711.102, 9373.841
712.399, 11802.326
713.695, 14180.810
714.992, 15239.286
716.288, 15317.511
717.584, 14846.232
718.879, 13144.697
720.175, 11033.164
721.470, 8251.623
722.765, 7360.082
724.060, 5400.537
725.355, 4446.989
726.649, 3813.438
727.944, 2928.885
729.238, 2575.329
730.532, 2098.771
731.825, 1770.210
733.119, 1667.647
734.412, 1312.083
735.705, 1276.517
736.998, 1030.949
738.291, 931.379
739.584, 938.808
740.876, 770.235
742.168, 750.709
743.460, 838.086
744.752, 594.510
746.043, 631.933
747.334, 451.355
748.626, 558.776
749.916, 467.198
751.207, 510.618
752.498, 555.038
753.788, 441.458
755.078, 582.878
756.368, 583.298
757.658, 688.718
758.947, 818.138
760.237, 752.559
761.526, 1033.980
762.815, 1163.402
764.104, 1251.825
765.392, 1650.249
766.680, 1555.673
767.969, 1876.099
769.257, 1929.526
770.544, 1769.954
771.832, 1818.384
773.119, 1477.817
774.406, 1391.253
775.693, 1185.706
776.980, 819.169
778.267, 934.649
779.553, 606.162
780.839, 597.689
782.125, 553.248
783.411, 363.824
784.697, 418.434
785.982, 226.082
787.267, 235.740
788.552, 161.416
789.837, 81.022
791.122, 218.790
792.406, 8.514
793.690, 82.178
794.974, 95.874
796.258, 3.427
797.542, 48.271
798.825, 18.028
800.108, 15.335
801.391, 4.650
802.674, 2.082
803.957, 49.679
805.239, 27.672
806.522, 16.967
807.804, 67.613
809.085, 48.266
810.367, 182.951
811.649, 188.659
812.930, 194.403
814.211, 253.190
815.492, 183.007
816.772, 188.864
818.053, 134.735
819.333, 30.630
820.613, 60.535
821.893, 107.551
823.173, 59.677
824.452, 5.827
825.732, 80.976
827.011, 44.160
828.290, 146.362
829.568, 76.629
830.847, 111.930
832.125, 120.280
833.403, 7.683
834.681, 94.071
835.959, 50.481
837.236, 51.907
838.514, 128.336
839.791, 0.823
841.068, 56.305
842.345, 17.806
843.621, 46.689
844.898, 49.807
846.174, 0.315
847.450, 59.178
848.726, 45.678
850.001, 112.186
851.277, 5.700
852.552, 144.219
853.827, 138.746
855.102, 80.278
856.376, 242.818
857.651, 151.365
858.925, 287.918
860.199, 272.479
861.473, 228.047
862.746, 382.622
864.020, 342.205
865.293, 390.795
866.566, 410.398
867.839, 352.009
869.112, 500.628
870.384, 497.255
871.656, 420.890
872.928, 560.544
874.200, 392.207
875.472, 525.877
876.744, 406.573
878.015, 379.277
879.286, 591.990
880.557, 331.716
881.828, 469.449
883.098, 469.203
884.369, 422.966
885.639, 496.738
886.909, 379.521
888.178, 447.312
889.448, 483.113
890.717, 403.926
891.987, 474.748
893.256, 476.579
894.524, 477.419
895.793, 646.270
897.061, 585.147
898.330, 697.034
899.598, 694.930
900.865, 800.836
902.133, 874.752
903.401, 866.685
904.668, 925.629
905.935, 902.582
907.202, 845.546
908.468, 836.520
909.735, 613.506
911.001, 624.508
912.267, 574.520
913.533, 480.552
914.799, 526.594
916.064, 406.646
917.330, 419.715
918.595, 466.794
919.860, 341.884
921.124, 514.984
922.389, 481.094
923.653, 504.223
924.918, 691.362
926.182, 546.512
927.445, 729.684
928.709, 752.867
929.972, 773.080
931.236, 892.309
932.499, 833.549
933.761, 941.814
935.024, 923.090
936.286, 851.376
937.549, 991.679
938.811, 819.991
940.073, 1009.313
941.334, 992.646
942.596, 917.988
943.857, 1167.351
945.118, 1246.085
946.379, 1372.467
947.640, 1722.860
948.900, 1789.854
950.161, 2076.267
951.421, 2252.575
952.681, 2458.029
953.940, 3002.007
955.200, 3054.772
956.459, 3877.243
957.719, 4454.122
958.978, 4872.617
960.236, 6365.123
961.495, 6988.642
962.753, 8048.170
964.012, 9357.712
965.270, 8937.267
966.527, 9756.830
967.785, 8916.405
969.043, 7665.989
970.300, 7765.585
971.557, 6495.191
972.814, 6754.806
974.071, 6658.006
975.327, 6574.224
976.583, 7813.327
977.840, 7798.240
979.095, 8485.405
980.351, 8846.251
981.607, 8081.489
982.862, 8174.537
984.117, 7127.082
985.372, 6033.196
986.627, 5899.575
987.882, 4797.523
989.136, 4545.417
990.390, 4186.596
991.644, 3720.110
992.898, 3826.835
994.152, 3359.616
995.405, 3366.454
996.659, 3574.004
997.912, 3236.645
999.165, 3610.524
1000.417, 3597.677
1001.670, 3582.597
1002.922, 3834.530
1004.174, 3423.476
1005.426, 3652.436
1006.678, 3375.409
1007.930, 2999.398
1009.181, 3031.403
1010.432, 2386.419
1011.683, 2228.471
1012.934, 1993.535
1014.185, 1574.612
1015.435, 1583.707
1016.685, 1248.936
1017.935, 1183.062
1019.185, 1079.690
1020.435, 837.401
1021.684, 895.576
1022.934, 849.134
1024.183, 747.335
1025.432, 876.555
1026.680, 762.633
1027.929, 840.878
1029.177, 863.302
1030.425, 692.094
1031.673, 870.397
1032.921, 791.206
1034.169, 712.540
1035.416, 877.889
1036.663, 650.551
1037.911, 775.925
1039.157, 883.356
1040.404, 741.069
1041.650, 1028.482
1042.897, 840.936
1044.143, 913.374
1045.389, 1075.822
1046.634, 1002.266
1047.880, 1216.735
1049.125, 1233.218
1050.371, 1287.710
1051.615, 1620.211
1052.860, 1531.334
1054.105, 1824.955
1055.349, 2157.490
1056.593, 1996.095
1057.837, 2260.649
1059.081, 2047.740
1060.325, 1982.438
1061.568, 1958.021
1062.812, 1542.632
1064.055, 1617.238
1065.298, 1360.853
1066.540, 1033.961
1067.783, 1143.593
1069.025, 947.234
1070.267, 1058.883
1071.509, 1047.541
1072.751, 954.988
1073.993, 1151.663
1075.234, 1307.345
1076.475, 1374.631
1077.716, 1849.329
1078.957, 1842.596
1080.198, 2379.778
1081.438, 2827.497
1082.679, 2973.728
1083.919, 3490.460
1085.159, 3262.199
1086.398, 2993.459
1087.638, 2906.217
1088.877, 2222.997
1090.116, 2114.825
1091.355, 1826.600
1092.594, 1410.778
1093.833, 1482.608
1095.071, 1018.404
1096.309, 939.342
1097.547, 907.148
1098.785, 635.072
1100.023, 744.097
1101.260, 646.929
1102.498, 509.113
1103.735, 635.963
1104.972, 429.839
1106.208, 449.377
1107.445, 397.271
1108.681, 286.263
1109.918, 398.394
1111.154, 340.301
1112.389, 574.971
1113.625, 493.316
1114.860, 409.562
1116.096, 400.242
1117.331, 227.189
1118.566, 113.120
1119.800, 248.506
1121.035, 105.444
1122.269, 108.396
1123.503, 196.391
1124.737, 78.382
1125.971, 100.143
1127.205, 159.165
1128.438, 65.202
1129.671, 194.413
1130.904, 63.513
1132.137, 50.789
1133.370, 143.181
1134.602, 9.649
1135.834, 37.700
1137.066, 92.987
1138.298, 42.211
1139.530, 95.769
1140.762, 11.030
1141.993, 2.084
1143.224, 60.163
1144.455, 45.555
1145.686, 145.011
1146.917, 38.295
1148.147, 14.421
1149.377, 163.439
1150.607, 9.719
1151.837, 94.005
1153.067, 59.423
1154.296, 14.702
1155.526, 101.987
1156.755, 52.472
1157.984, 62.839
1159.213, 102.146
1160.441, 24.564
1161.670, 67.900
1162.898, 93.185
1164.126, 32.305
1165.354, 55.229
1166.581, 22.903
1167.809, 1.852
1169.036, 80.654
1170.263, 50.764
1171.490, 43.531
1172.717, 40.193
1173.943, 72.468
1175.170, 24.825
1176.396, 5.065
1177.622, 13.760
1178.848, 112.073
1180.073, 45.803
1181.299, 61.313
1182.524, 47.147
1183.749, 7.242
1184.974, 73.053
1186.199, 0.268
1187.423, 6.548
1188.648, 127.976
1189.872, 2.180
1191.096, 34.720
1192.320, 37.028
1193.543, 63.902
1194.767, 95.108
1195.990, 16.814
1197.213, 53.811
1198.436, 88.826
1199.659, 23.585
1200.881, 2.376
1202.104, 82.520
1203.326, 9.742
1204.548, 58.683
1205.770, 3.973
1206.991, 13.052
1208.213, 99.851
1209.434, 26.206
1210.655, 82.663
1211.876, 88.637
1213.096, 16.432
1214.317, 97.398
1215.537, 52.332
1216.757, 58.146
1217.977, 155.952
1219.197, 18.969
1220.417, 65.803
1221.636, 91.566
1222.855, 30.680
1224.074, 80.042
1225.293, 61.173
1226.512, 11.495
1227.731, 110.145
1228.949, 43.146
1230.167, 72.496
1231.385, 104.078
1232.603, 9.871
1233.820, 82.676
1235.038, 54.212
1236.255, 45.785
1237.472, 120.299
1238.689, 22.194
1239.906, 52.425
1241.122, 122.902
1242.338, 32.371
1243.555, 99.833
1244.771, 41.285
1245.986, 1.080
1247.202, 95.346
1248.417, 19.764
1249.633, 90.258
1250.848, 129.656
1252.063, 11.190
1253.277, 91.568
1254.492, 52.934
1255.706, 31.492
1256.920, 178.839
1258.134, 11.176
1259.348, 26.591
1260.562, 154.902
1261.775, 41.280
1262.988, 77.563
1264.201, 125.836
1265.414, 24.358
1266.627, 116.590
1267.839, 83.811
1269.052, 82.015
1270.264, 189.179
1271.476, 16.331
1272.688, 129.711
1273.899, 111.819
1275.111, 59.903
1276.322, 146.971
1277.533, 59.017
1278.744, 47.102
1279.955, 153.085
1281.165, 58.908
1282.376, 77.844
1283.586, 143.763
1284.796, 43.658
1286.006, 119.551
1287.215, 21.411
1288.425, 21.242
1289.634, 117.060
1290.843, 46.472
1292.052, 117.252
1293.261, 105.014
1294.469, 28.500
1295.678, 112.405
1296.886, 102.096
1298.094, 70.771
1299.302, 112.430
1300.509, 17.071
1301.717, 59.691
1302.924, 84.295
1304.131, 50.117
1305.338, 72.432
1306.545, 91.953
1307.752, 18.458
1308.958, 12.942
1310.164, 53.288
1311.370, 42.733
1312.576, 132.159
1313.782, 5.478
1314.987, 49.903
1316.193, 88.896
1317.398, 7.240
1318.603, 77.558
1319.807, 76.010
1321.012, 50.710
1322.216, 71.493
1323.421, 26.210
1324.625, 3.590
1325.829, 16.921
1327.032, 23.297
1328.236, 33.890
1329.439, 60.345
1330.642, 76.332
1331.845, 82.085
1333.048, 4.118
1334.251, 74.159
1335.453, 36.183
1336.656, 55.194
1337.858, 102.182
1339.060, 115.387
1340.261, 22.344
1341.463, 124.282
1342.664, 98.205
1343.866, 27.114
1345.067, 160.396
1346.267, 59.176
1347.468, 49.036
1348.669, 122.740
1349.869, 38.570
1351.069, 120.858
1352.269, 114.824
1353.469, 10.608
1354.668, 132.360
1355.868, 75.114
1357.067, 83.854
1358.266, 143.096
1359.465, 74.803
1360.664, 140.498
1361.862, 168.181
1363.061, 46.852
1364.259, 158.692
1365.457, 109.323
1366.655, 138.900
1367.852, 190.865
1369.050, 80.453
1370.247, 90.416
1371.444, 154.452
1372.641, 73.939
1373.838, 76.906
1375.035, 89.594
1376.231, 4.967
1377.427, 136.866
1378.623, 117.122
1379.819, 78.539
1381.015, 186.571
1382.211, 95.953
1383.406, 57.215
1384.601, 166.223
1385.796, 108.205
1386.991, 117.520
1388.185, 151.105
1389.380, 46.016
1390.574, 156.417
1391.768, 140.244
1392.962, 68.192
1394.156, 168.824
1395.350, 54.920
1396.543, 145.976
1397.736, 181.151
1398.929, 46.016
1400.122, 109.840
1401.315, 150.536
1402.507, 68.198
1403.700, 135.749
1404.892, 70.681
1406.084, 96.546
1407.276, 196.024
1408.467, 33.305
1409.659, 98.034
1410.850, 154.566
1412.041, 92.661
1413.232, 131.533
1414.423, 143.790
1415.614, 28.246
1416.804, 161.744
1417.994, 139.044
1419.184, 93.830
1420.374, 237.950
1421.564, 46.049
1422.753, 145.093
1423.943, 150.414
1425.132, 82.772
1426.321, 131.424
1427.510, 147.170
1428.698, 54.276
1429.887, 180.860
1431.075, 84.772
1432.263, 87.712
1433.451, 142.689
1434.639, 85.851
1435.827, 90.047
1437.014, 173.904
1438.201, 13.950
1439.388, 126.426
1440.575, 142.025
1441.762, 55.786
1442.949, 210.014
1444.135, 80.732
1445.321, 69.325
1446.507, 190.084
1447.693, 78.630
1448.879, 128.502
1450.064, 159.253
1451.250, 46.886
1452.435, 145.294
1453.620, 121.932
1454.805, 97.515
1455.989, 172.633
1457.174, 141.918
1458.358, 82.010
1459.542, 190.364
1460.726, 76.185
1461.910, 122.186
1463.093, 152.153
1464.277, 12.273
1465.460, 113.704
1466.643, 108.783
1467.826, 23.965
1469.009, 156.467
1470.191, 58.687
1471.373, 54.761
1472.556, 247.174
1473.738, 36.635
1474.919, 89.086
1476.101, 162.597
1477.283, 23.106
1478.464, 158.633
1479.645, 138.486
1480.826, 1.978
1482.007, 146.549
1483.187, 124.067
1484.368, 55.569
1485.548, 177.153
1486.728, 65.727
1487.908, 104.294
1489.088, 173.877
1490.268, 13.519
1491.447, 70.126
1492.626, 167.264
1493.805, 2.994
1494.984, 110.547
1496.163, 120.404
1497.341, 33.304
1498.520, 194.237
1499.698, 68.978
1500.876, 40.432
1502.054, 169.411
1503.232, 60.434
1504.409, 33.502
1505.586, 142.833
1506.763, 16.271
1507.940, 76.342
1509.117, 83.256
1510.294, 8.898
1511.470, 100.361
1512.647, 89.275
1513.823, 37.470
1514.999, 140.536
1516.174, 0.837
1517.350, 57.331
