##NAMES=Axinite-(Fe)
##RRUFFID=R060194
##IDEAL CHEMISTRY=Ca_4_Fe^2+^_2_Al_4_[B_2_Si_8_O_30_](OH)_2_
##LOCALITY=near Dalbandi, Baluchistan Province, Pakistan
##OWNER=RRUFF
##SOURCE=Herbert Obodda
##DESCRIPTION=Brown transparent wedge-shaped single crystal
##STATUS=The identification of this mineral has been confirmed by X-ray diffraction and chemical analysis
##URL=rruff.info/R060194
##MEASURED CHEMISTRY=Ca_2.00_(Fe^2+^_0.66_Mg_0.30_Mn_0.04_)Al_2.00_BSi_4.00_O_15_(OH)
##PIN_ID=L01255
##ORIENTATION=Laser parallel to (-1 0 -1). Fiducial mark perpendicular to laser is parallel to -b [0 -1 0]
53.91000, 0.0000000E+00
55.14900, 80.92981
56.38700, 186.1143
57.62600, 325.2484
58.86400, 386.3514
60.10300, 582.9163
61.34100, 664.1355
62.57900, 463.7327
63.81700, 269.2769
65.05400, 60.06927
66.29200, 69.40881
67.52900, 140.6915
68.76700, 101.2927
70.00400, 255.3171
71.24100, 361.7175
72.47700, 159.5356
73.71400, 28.57080
74.95100, 68.05249
76.18700, 202.0747
77.42300, 462.2029
78.65900, 390.1750
79.89500, 593.7588
81.13100, 822.7515
82.36700, 1212.973
83.60200, 1669.266
84.83700, 2071.276
86.07200, 2697.520
87.30800, 3059.244
88.54200, 3508.562
89.77700, 4053.380
91.01200, 4731.613
92.24600, 5586.119
93.48000, 6502.724
94.71400, 7021.263
95.94800, 7342.603
97.18200, 7588.677
98.41600, 7510.435
99.64900, 7569.805
100.8830, 7727.730
102.1160, 7946.155
103.3490, 7879.062
104.5820, 8390.014
105.8150, 8816.567
107.0470, 9162.950
108.2800, 9186.739
109.5120, 9630.252
110.7440, 9907.232
111.9760, 10178.61
113.2080, 10684.90
114.4400, 10761.88
115.6710, 11216.97
116.9030, 11244.19
118.1340, 10775.60
119.3650, 10736.19
120.5960, 10481.94
121.8270, 10479.84
123.0580, 10246.87
124.2880, 10050.65
125.5190, 9840.028
126.7490, 9597.619
127.9790, 9251.872
129.2090, 8995.455
130.4390, 8603.317
131.6680, 8441.407
132.8980, 8297.709
134.1270, 8020.133
135.3560, 7714.631
136.5850, 7937.519
137.8140, 8026.045
139.0430, 8314.373
140.2710, 8861.521
141.5000, 9222.316
142.7280, 9412.638
143.9560, 9568.491
145.1840, 9529.887
146.4120, 9596.852
147.6390, 10297.40
148.8670, 10893.55
150.0940, 11846.32
151.3210, 13013.72
152.5490, 13706.77
153.7750, 13598.47
155.0020, 12492.82
156.2290, 11516.84
157.4550, 10723.53
158.6810, 10175.88
159.9080, 9490.898
161.1340, 9230.581
162.3590, 9007.932
163.5850, 8865.943
164.8110, 9412.612
166.0360, 9906.941
167.2610, 10490.92
168.4860, 11226.56
169.7110, 12364.84
170.9360, 13374.77
172.1610, 14390.35
173.3850, 14006.57
174.6100, 13332.44
175.8340, 12139.93
177.0580, 11096.06
178.2820, 9772.825
179.5050, 8819.216
180.7290, 7738.232
181.9520, 6966.867
183.1760, 6367.124
184.3990, 5835.996
185.6220, 5517.479
186.8450, 5279.572
188.0670, 4897.271
189.2900, 5069.572
190.5120, 5057.471
191.7340, 5047.967
192.9560, 5187.053
194.1780, 5367.725
195.4000, 5148.984
196.6220, 5319.817
197.8430, 4979.230
199.0640, 4969.212
200.2860, 5180.762
201.5070, 5291.955
202.7270, 5547.629
203.9480, 5925.802
205.1690, 6048.324
206.3890, 6423.555
207.6090, 6612.725
208.8290, 7136.242
210.0490, 7848.398
211.2690, 8166.545
212.4890, 8609.130
213.7080, 9139.709
214.9280, 9072.261
216.1470, 8925.217
217.3660, 8873.622
218.5850, 8863.418
219.8030, 8702.793
221.0220, 7944.287
222.2400, 7545.787
223.4590, 6851.812
224.6770, 5713.795
225.8950, 5043.777
227.1120, 4511.740
228.3300, 3813.889
229.5480, 3393.506
230.7650, 3144.777
231.9820, 2906.869
233.1990, 2988.407
234.4160, 2856.736
235.6330, 3018.764
236.8490, 3153.501
238.0660, 3397.930
239.2820, 3741.042
240.4980, 4038.840
241.7140, 4225.373
242.9300, 4442.586
244.1460, 4544.502
245.3610, 4383.098
246.5770, 4434.354
247.7920, 4473.254
249.0070, 4584.785
250.2220, 4597.934
251.4370, 4921.658
252.6510, 5428.963
253.8660, 5519.824
255.0800, 6087.199
256.2940, 6060.102
257.5080, 6206.500
258.7220, 6845.402
259.9360, 6307.471
261.1490, 6962.604
262.3630, 5784.863
263.5760, 5445.555
264.7890, 5715.672
266.0020, 6258.219
267.2150, 6745.199
268.4270, 7064.598
269.6400, 7537.400
270.8520, 8075.607
272.0640, 8202.213
273.2760, 8452.219
274.4880, 8397.613
275.7000, 8432.400
276.9120, 8159.582
278.1230, 7797.152
279.3340, 7171.113
280.5450, 6679.469
281.7560, 6233.215
282.9670, 5517.350
284.1780, 5176.877
285.3880, 5214.789
286.5980, 4700.986
287.8090, 4534.762
289.0190, 4246.818
290.2290, 4196.252
291.4380, 4174.059
292.6480, 3989.246
293.8570, 4058.801
295.0670, 4190.727
296.2760, 4446.021
297.4850, 4361.682
298.6930, 4444.707
299.9020, 4751.090
301.1110, 4669.836
302.3190, 4754.936
303.5270, 5157.391
304.7350, 5261.199
305.9430, 5012.357
307.1510, 5257.861
308.3580, 5156.713
309.5660, 5061.902
310.7730, 4865.434
311.9800, 4850.305
313.1870, 4833.508
314.3940, 5144.057
315.6010, 5880.951
316.8070, 6741.180
318.0130, 7528.762
319.2200, 8342.672
320.4260, 8768.908
321.6310, 8558.457
322.8370, 7820.328
324.0430, 6901.510
325.2480, 6034.006
326.4540, 5375.809
327.6590, 4725.922
328.8640, 4470.340
330.0680, 3986.059
331.2730, 4203.078
332.4780, 3779.395
333.6820, 4089.008
334.8860, 3933.914
336.0900, 4095.111
337.2940, 4656.598
338.4980, 5562.371
339.7010, 6172.430
340.9050, 7510.770
342.1080, 9057.389
343.3110, 10199.29
344.5140, 11497.46
345.7170, 11732.91
346.9200, 10915.71
348.1220, 9979.891
349.3240, 8816.434
350.5270, 7631.346
351.7290, 6474.635
352.9310, 5267.301
354.1320, 4372.354
355.3340, 3401.785
356.5350, 2125.594
357.7370, 1503.793
358.9380, 825.3945
360.1390, 462.3984
361.3400, 157.7793
362.5400, 243.4902
363.7410, 449.4395
364.9410, 566.1074
366.1410, 604.5176
367.3410, 750.6836
368.5410, 602.6406
369.7410, 573.3613
370.9400, 301.8398
372.1400, 208.9648
373.3390, 47.69922
374.5380, 224.5918
375.7370, 292.4043
376.9360, 401.9355
378.1350, 319.0176
379.3330, 212.8008
380.5310, 411.8301
381.7300, 788.7344
382.9280, 1226.650
384.1260, 1778.125
385.3230, 2520.105
386.5210, 3205.029
387.7180, 4227.191
388.9160, 5117.824
390.1130, 5841.523
391.3100, 6371.600
392.5060, 6659.832
393.7030, 6389.336
394.9000, 5968.414
396.0960, 5234.418
397.2920, 4461.898
398.4880, 3603.045
399.6840, 2832.219
400.8800, 2547.398
402.0750, 2118.711
403.2710, 1793.721
404.4660, 1583.951
405.6610, 1187.545
406.8560, 1077.365
408.0510, 1060.416
409.2450, 823.4199
410.4400, 851.3848
411.6340, 1113.338
412.8280, 1465.277
414.0220, 1696.432
415.2160, 2293.803
416.4100, 2827.387
417.6030, 3411.182
418.7970, 4205.189
419.9900, 4901.402
421.1830, 5242.822
422.3760, 5650.449
423.5690, 6544.275
424.7610, 7255.305
425.9540, 7999.535
427.1460, 8328.961
428.3380, 8735.578
429.5300, 8668.396
430.7220, 8459.402
431.9140, 7959.598
433.1050, 6758.980
434.2970, 5675.553
435.4880, 4980.305
436.6790, 3689.246
437.8700, 3157.363
439.0610, 2412.660
440.2510, 2298.135
441.4420, 2336.783
442.6320, 2574.609
443.8220, 2443.604
445.0120, 3007.766
446.2020, 2989.102
447.3910, 2598.602
448.5810, 2125.264
449.7700, 1820.090
450.9600, 1540.076
452.1490, 1238.223
453.3370, 1033.529
454.5260, 978.9883
455.7150, 638.6055
456.9030, 806.0547
458.0910, 642.9570
459.2800, 520.7793
460.4670, 530.8789
461.6550, 474.1836
462.8430, 363.6855
464.0300, 306.3242
465.2180, 298.1074
466.4050, 444.0273
467.5920, 630.0820
468.7790, 880.2715
469.9650, 1122.604
471.1520, 1484.068
472.3380, 1495.666
473.5250, 1768.391
474.7110, 1801.240
475.8970, 2059.219
477.0820, 2713.316
478.2680, 3052.535
479.4540, 4111.875
480.6390, 5294.336
481.8240, 6547.908
483.0090, 8281.602
484.1940, 9657.406
485.3780, 10830.32
486.5630, 11327.35
487.7470, 10100.48
488.9320, 8257.727
490.1160, 6377.074
491.3000, 4475.527
492.4830, 3024.080
493.6670, 2042.359
494.8500, 1667.105
496.0340, 1280.393
497.2170, 885.4395
498.4000, 708.4688
499.5820, 585.5840
500.7650, 656.7891
501.9480, 580.0820
503.1300, 584.4609
504.3120, 577.1074
505.4940, 706.9629
506.6760, 525.2734
507.8580, 649.0977
509.0390, 615.0254
510.2210, 529.2617
511.4020, 311.3652
512.5830, 270.3418
513.7640, 26.59570
514.9450, 52.35938
516.1250, 36.30469
517.3060, 227.1289
518.4860, 208.7695
519.6660, 187.4863
520.8460, 353.4727
522.0260, 437.6543
523.2060, 405.0137
524.3850, 393.5020
525.5650, 447.3574
526.7440, 663.9023
527.9230, 469.8906
529.1020, 592.0625
530.2810, 516.5410
531.4590, 452.2734
532.6380, 412.2656
533.8160, 368.5156
534.9940, 327.0137
536.1720, 162.7168
537.3500, 225.5820
538.5270, 96.63672
539.7050, 29.17773
540.8820, 18.08398
542.0590, 89.55078
543.2360, 34.12891
544.4130, 162.6230
545.5900, 348.0781
546.7660, 474.5410
547.9430, 453.0273
549.1190, 632.5352
550.2950, 332.0918
551.4710, 307.6523
552.6470, 427.2090
553.8220, 740.7969
554.9980, 624.4062
556.1730, 1001.031
557.3480, 1359.670
558.5230, 1529.336
559.6980, 1981.016
560.8730, 2223.713
562.0470, 2505.426
563.2220, 2765.145
564.3960, 2764.871
565.5700, 2338.596
566.7440, 2144.322
567.9170, 2122.047
569.0910, 2193.770
570.2640, 2306.488
571.4380, 2402.201
572.6110, 2641.908
573.7840, 2912.607
574.9570, 3108.297
576.1290, 3094.977
577.3020, 3046.645
578.4740, 2788.297
579.6460, 2716.941
580.8180, 2237.568
581.9900, 2117.180
583.1620, 1995.773
584.3330, 1668.348
585.5040, 1570.904
586.6760, 1425.439
587.8470, 1617.951
589.0180, 1516.441
590.1880, 1770.908
591.3590, 1319.348
592.5290, 1295.764
593.7000, 1024.152
594.8700, 984.5117
596.0400, 802.8457
597.2090, 567.1465
598.3790, 507.4004
599.5490, 573.5898
600.7180, 435.7285
601.8870, 572.7852
603.0560, 789.7871
604.2250, 911.7539
605.3940, 920.6836
606.5620, 1351.572
607.7300, 1505.426
608.8990, 1982.264
610.0670, 2463.184
611.2350, 3129.914
612.4020, 3700.045
613.5700, 4521.688
614.7370, 4932.480
615.9050, 6076.033
617.0720, 6886.543
618.2390, 7781.002
619.4060, 7984.414
620.5720, 8052.777
621.7390, 7993.092
622.9050, 7635.355
624.0710, 6304.566
625.2370, 5129.727
626.4030, 3979.832
627.5690, 3144.885
628.7340, 2340.885
629.9000, 1728.828
631.0650, 1371.715
632.2300, 1023.545
633.3950, 782.3203
634.5600, 902.0273
635.7240, 722.6777
636.8890, 856.2539
638.0530, 926.7676
639.2170, 1134.219
640.3810, 1150.609
641.5450, 1389.129
642.7080, 1676.961
643.8720, 1845.025
645.0350, 1574.080
646.1980, 1873.631
647.3610, 1677.172
648.5240, 1486.006
649.6870, 1440.025
650.8490, 1176.871
652.0120, 1148.000
653.1740, 940.2715
654.3360, 901.9824
655.4980, 866.5547
656.6600, 786.6602
657.8210, 685.8516
658.9830, 689.8613
660.1440, 1012.238
661.3050, 889.4766
662.4660, 1102.020
663.6270, 1394.664
664.7870, 1398.000
665.9480, 1688.973
667.1080, 1842.969
668.2680, 2276.168
669.4280, 2856.818
670.5880, 3471.121
671.7480, 4383.758
672.9070, 4826.891
674.0670, 6773.006
675.2260, 6746.004
676.3850, 7126.605
677.5440, 7631.473
678.7030, 7286.035
679.8610, 6937.117
681.0200, 6251.346
682.1780, 5250.742
683.3360, 4470.178
684.4940, 3551.084
685.6520, 3117.939
686.8090, 2567.795
687.9670, 2371.238
689.1240, 2055.717
690.2810, 2130.205
691.4380, 2283.689
692.5950, 2302.650
693.7520, 2300.973
694.9080, 2528.920
696.0650, 2808.936
697.2210, 3334.959
698.3770, 3553.381
699.5330, 4204.328
700.6880, 5176.639
701.8440, 5884.473
702.9990, 6947.527
704.1550, 8551.629
705.3100, 10449.20
706.4650, 12594.69
707.6190, 15327.25
708.7740, 17963.60
709.9290, 21063.88
711.0830, 24545.11
712.2370, 27715.25
713.3910, 29910.33
714.5450, 30617.33
715.6980, 30056.26
716.8520, 27606.13
718.0050, 24309.92
719.1580, 20750.65
720.3110, 17085.30
721.4640, 13958.88
722.6170, 11490.40
723.7700, 9006.844
724.9220, 7240.219
726.0740, 6084.521
727.2260, 4906.758
728.3780, 4169.924
729.5300, 3352.023
730.6810, 3096.053
731.8330, 2558.010
732.9840, 2360.898
734.1350, 1939.719
735.2860, 1704.471
736.4370, 1494.471
737.5880, 1229.604
738.7380, 1240.893
739.8880, 919.4883
741.0390, 866.9531
742.1890, 905.2988
743.3380, 799.0410
744.4880, 911.7930
745.6380, 715.9395
746.7870, 652.0215
747.9360, 391.0391
749.0850, 735.9668
750.2340, 560.8340
751.3830, 748.6270
752.5310, 603.3574
753.6800, 814.0234
754.8280, 713.6230
755.9760, 960.1582
757.1240, 846.6328
758.2720, 1126.045
759.4190, 1093.393
760.5670, 1091.680
761.7140, 1464.900
762.8610, 1620.064
764.0080, 1724.166
765.1550, 1929.207
766.3020, 1954.186
767.4480, 1982.105
768.5950, 1970.486
769.7410, 1837.768
770.8870, 1742.512
772.0330, 1629.568
773.1780, 1346.195
774.3240, 1199.324
775.4690, 1035.729
776.6140, 660.1836
777.7590, 676.5820
778.9040, 385.9277
780.0490, 456.2051
781.1940, 79.42578
782.3380, 44.53516
783.4820, 177.5273
784.6260, 10.56445
785.7700, 34.79883
786.9140, 8.812500
788.0580, 56.70703
789.2010, 303.3906
790.3450, 213.3613
791.4880, 97.81055
792.6310, 537.7324
793.7730, 246.6367
794.9160, 119.2793
796.0590, 271.8535
797.2010, 414.5352
798.3430, 216.1562
799.4850, 272.7891
800.6270, 240.4707
801.7690, 108.2520
802.9100, 430.0566
804.0520, 343.0410
805.1930, 218.1016
806.3340, 19.77930
807.4750, 72.23438
808.6160, 115.7891
809.7560, 423.9082
810.8970, 430.1348
812.0370, 598.4590
813.1770, 680.8770
814.3170, 908.3535
815.4570, 766.9023
816.5960, 813.4961
817.7360, 907.1074
818.8750, 828.7500
820.0140, 461.3984
821.1530, 596.0684
822.2920, 397.7402
823.4310, 333.3828
824.5690, 195.9941
825.7070, 67.43555
826.8460, 76.04297
827.9840, 94.48828
829.1220, 58.09766
830.2590, 142.2402
831.3970, 53.54102
832.5340, 150.7969
833.6710, 23.98242
834.8080, 74.17969
835.9450, 31.69336
837.0820, 59.37305
838.2190, 102.4043
839.3550, 220.4023
840.4910, 186.3730
841.6270, 456.3164
842.7630, 621.2383
843.8990, 249.1387
845.0350, 668.0156
846.1700, 638.8770
847.3060, 736.7168
848.4410, 756.5371
849.5760, 942.3418
850.7100, 1039.748
851.8450, 1307.898
852.9800, 1246.652
854.1140, 1391.391
855.2480, 1327.117
856.3820, 1461.824
857.5160, 1470.521
858.6500, 1487.207
859.7830, 1510.281
860.9170, 1519.400
862.0500, 1532.191
863.1830, 1567.832
864.3160, 1690.463
865.4480, 1771.086
866.5810, 1655.701
867.7130, 1653.307
868.8460, 1535.906
869.9780, 1479.504
871.1100, 1517.094
872.2410, 1274.678
873.3730, 1390.270
874.5050, 1503.883
875.6360, 1375.502
876.7670, 1425.143
877.8980, 1506.816
879.0290, 1481.486
880.1590, 1643.158
881.2900, 1505.828
882.4200, 1593.502
883.5500, 1703.148
884.6800, 1504.672
885.8100, 1901.350
886.9400, 1700.590
888.0690, 1923.271
889.1990, 2099.768
890.3280, 2364.469
891.4570, 2591.172
892.5860, 2949.883
893.7140, 3097.600
894.8430, 3660.324
895.9710, 3908.061
897.1000, 4406.811
898.2280, 5018.584
899.3560, 5454.383
900.4830, 5887.211
901.6110, 6388.076
902.7380, 6930.996
903.8660, 6849.949
904.9930, 7353.910
906.1200, 7564.887
907.2460, 7345.910
908.3730, 7252.955
909.5000, 6823.016
910.6260, 6214.111
911.7520, 5634.227
912.8780, 4917.379
914.0040, 4233.561
915.1290, 3912.578
916.2550, 3364.244
917.3800, 2892.676
918.5050, 2619.117
919.6300, 2168.061
920.7550, 2075.023
921.8800, 2040.691
923.0040, 2060.188
924.1290, 2016.615
925.2530, 2098.350
926.3770, 2106.682
927.5010, 2113.518
928.6250, 2413.020
929.7480, 2588.043
930.8720, 2737.344
931.9950, 2889.381
933.1180, 3176.770
934.2410, 2891.938
935.3640, 3148.820
936.4860, 2960.992
937.6090, 3051.719
938.7310, 3209.510
939.8530, 3291.033
940.9750, 3336.664
942.0970, 3631.854
943.2180, 3831.168
944.3400, 4439.324
945.4610, 5039.854
946.5820, 5625.480
947.7030, 6489.746
948.8240, 7528.967
949.9450, 8366.785
951.0650, 9427.650
952.1860, 10593.56
953.3060, 11744.54
954.4260, 12840.59
955.5460, 13694.71
956.6650, 14949.92
957.7850, 16377.17
958.9040, 17837.27
960.0230, 19527.76
961.1420, 21813.21
962.2610, 23742.90
963.3800, 25780.85
964.4990, 27049.53
965.6170, 27272.07
966.7350, 27150.97
967.8530, 25479.79
968.9710, 23379.59
970.0890, 21640.97
971.2070, 19246.81
972.3240, 18010.28
973.4410, 16485.20
974.5580, 16052.91
975.6750, 15853.55
976.7920, 16004.71
977.9090, 16324.95
979.0250, 16826.11
980.1410, 17006.45
981.2580, 16835.88
982.3740, 16296.38
983.4890, 15514.92
984.6050, 14655.55
985.7200, 13627.24
986.8360, 13068.20
987.9510, 12118.79
989.0660, 11924.64
990.1810, 11352.57
991.2950, 10945.56
992.4100, 10363.61
993.5240, 10239.75
994.6390, 9946.945
995.7530, 9677.199
996.8660, 9476.512
997.9800, 9253.883
999.0940, 9420.318
1000.207, 9613.809
1001.320, 9346.359
1002.433, 9223.977
1003.546, 9188.996
1004.659, 8880.734
1005.772, 8624.527
1006.884, 8297.383
1007.996, 7587.910
1009.108, 6977.883
1010.220, 6408.918
1011.332, 5853.076
1012.444, 4934.232
1013.555, 4479.447
1014.666, 3890.723
1015.777, 3574.061
1016.888, 3177.596
1017.999, 3124.910
1019.110, 2430.438
1020.220, 2594.025
1021.331, 2014.674
1022.441, 1731.250
1023.551, 1743.021
1024.661, 1769.857
1025.770, 1755.754
1026.880, 1503.713
1027.989, 1682.729
1029.098, 1488.822
1030.207, 1555.217
1031.316, 1282.180
1032.425, 1386.834
1033.533, 1497.467
1034.642, 1428.416
1035.750, 1329.713
1036.858, 1454.748
1037.966, 1626.332
1039.073, 1642.986
1040.181, 1754.988
1041.288, 1981.760
1042.396, 1989.924
1043.503, 1953.588
1044.610, 2140.547
1045.716, 2209.391
1046.823, 2282.871
1047.929, 2367.535
1049.036, 2470.373
1050.142, 2601.424
1051.248, 2898.949
1052.353, 3153.379
1053.459, 3447.662
1054.564, 3585.121
1055.670, 3825.994
1056.775, 4021.426
1057.880, 4202.197
1058.985, 4139.930
1060.089, 4568.580
1061.194, 4397.023
1062.298, 4380.623
1063.402, 4127.898
1064.506, 4163.762
1065.610, 3875.730
1066.713, 3751.576
1067.817, 3321.262
1068.920, 2929.760
1070.023, 2540.406
1071.126, 2253.160
1072.229, 2152.541
1073.332, 2166.645
1074.435, 2087.998
1075.537, 2019.301
1076.639, 2470.691
1077.741, 2800.164
1078.843, 2930.656
1079.945, 3387.207
1081.046, 3781.090
1082.148, 4167.855
1083.249, 4508.523
1084.350, 4431.230
1085.451, 4641.844
1086.551, 4449.750
1087.652, 4349.016
1088.752, 3608.980
1089.853, 3263.891
1090.953, 2637.070
1092.053, 2191.059
1093.152, 2085.090
1094.252, 1646.070
1095.351, 1736.211
1096.451, 1218.398
1097.550, 1282.652
1098.649, 1383.945
1099.748, 1273.648
1100.846, 1484.023
1101.945, 1402.449
1103.043, 1599.043
1104.141, 1699.559
1105.239, 1807.125
1106.337, 1691.273
1107.434, 1729.797
1108.532, 1773.469
1109.629, 1635.199
1110.726, 1641.930
1111.823, 1510.691
1112.920, 1300.895
1114.017, 1481.715
1115.113, 1074.586
1116.210, 1417.758
1117.306, 1351.664
1118.402, 1527.785
1119.498, 1408.746
1120.593, 1464.734
1121.689, 1260.238
1122.784, 1460.637
1123.879, 1247.699
1124.974, 1107.246
1126.069, 1156.359
1127.164, 1019.492
1128.259, 849.1211
1129.353, 314.8320
1130.447, 473.3281
1131.541, 261.6055
1132.635, 131.3984
1133.729, 320.7227
1134.822, 29.98828
1135.916, 194.0547
1137.009, 275.3750
1138.102, 132.7188
1139.195, 119.9180
1140.288, 230.5195
1141.380, 19.89062
1142.473, 180.2734
1143.565, 44.08594
1144.657, 76.48438
1145.749, 83.45703
1146.841, 150.8828
1147.932, 122.4453
1149.024, 114.2500
1150.115, 43.37891
1151.206, 67.89062
1152.297, 38.49219
1153.388, 46.03906
1154.479, 34.66406
1155.569, 33.15234
1156.659, 65.12500
1157.750, 24.56250
1158.839, 63.14844
1159.929, 6.707031
1161.019, 81.62109
1162.108, 66.64062
1163.198, 106.8984
1164.287, 125.8867
1165.376, 148.3281
1166.465, 219.8555
1167.553, 102.7422
1168.642, 40.62109
1169.730, 70.09766
1170.818, 166.5117
1171.906, 11.90625
1172.994, 9.785156
1174.082, 75.54297
1175.170, 26.33984
1176.257, 92.49219
1177.344, 82.24609
1178.431, 38.21484
1179.518, 13.01562
1180.605, 181.6055
1181.691, 169.5039
1182.778, 132.3281
1183.864, 76.38281
1184.950, 13.47656
1186.036, 42.05859
1187.122, 67.71094
1188.207, 102.8828
1189.292, 81.10938
1190.378, 107.3945
1191.463, 195.7422
1192.548, 94.79688
1193.632, 37.50000
1194.717, 180.8125
1195.801, 44.29688
1196.886, 257.2344
1197.970, 13.22266
1199.054, 39.51562
1200.137, 251.2852
1201.221, 94.60938
1202.305, 4.140625
1203.388, 87.07422
1204.471, 30.26562
1205.554, 266.8477
1206.637, 128.0000
1207.719, 41.48828
1208.802, 142.5977
1209.884, 47.67188
1210.966, 11.75781
1212.048, 43.80078
1213.130, 64.03906
1214.212, 95.03906
1215.293, 10.01562
1216.374, 88.05469
1217.456, 27.62500
1218.536, 68.40234
1219.617, 87.24609
1220.698, 56.90625
1221.778, 203.5430
1222.859, 185.5820
1223.939, 24.73828
1225.019, 189.4609
1226.099, 147.5820
1227.178, 210.0703
1228.258, 146.9609
1229.337, 45.39844
1230.417, 311.7891
1231.496, 361.1602
1232.574, 96.49609
1233.653, 290.8047
1234.732, 231.3203
1235.810, 53.57031
1236.888, 47.77344
