##NAMES=Axinite-(Fe)
##RRUFFID=R050061
##IDEAL CHEMISTRY=Ca_4_Fe^2+^_2_Al_4_[B_2_Si_8_O_30_](OH)_2_
##LOCALITY=Jamestown, California, USA
##OWNER=RRUFF
##SOURCE=Rock Currier
##DESCRIPTION=Brown colored axe-head-shaped single crystals
##STATUS=The identification of this mineral has been confirmed by X-ray diffraction and chemical analysis
##URL=rruff.info/R050061
##MEASURED CHEMISTRY=Ca_2.00_(Fe^2+^_0.73_Mg_0.20_Mn_0.07_)Al_2.00_BSi_4_O_15_(OH)
##PIN_ID=L00531
##ORIENTATION=Laser parallel to (1 1 0). Fiducial mark perpendicular to laser is parallel to -c [0 0 -1]
92.466, 0.000
93.868, 37.553
95.269, 3.475
96.670, 58.563
98.070, 143.579
99.471, 143.376
100.871, 385.676
102.271, 748.935
103.670, 1210.997
105.070, 2010.735
106.469, 2916.005
107.868, 3442.071
109.267, 3392.041
110.665, 3020.448
112.063, 2879.971
113.461, 2107.206
114.859, 1601.289
116.256, 1400.654
117.653, 483.604
119.050, 339.785
120.447, 652.044
121.843, 642.256
123.240, 883.318
124.636, 765.146
126.031, 695.670
127.427, 660.961
128.822, 356.084
130.217, 321.165
131.612, 7.250
133.006, 141.624
134.400, 158.430
135.794, 34.163
137.188, 68.184
138.581, 256.615
139.975, 590.137
141.368, 829.756
142.760, 1419.477
144.153, 2603.305
145.545, 4266.238
146.937, 6393.275
148.329, 8950.422
149.720, 11547.680
151.112, 12525.053
152.503, 12602.542
153.893, 9990.149
155.284, 7597.866
156.674, 5975.702
158.064, 4893.651
159.454, 4351.729
160.843, 4117.810
162.233, 4329.177
163.622, 4598.465
165.011, 5535.153
166.399, 6922.147
167.787, 8719.435
169.175, 11026.998
170.563, 12954.812
171.951, 14432.855
173.338, 14331.118
174.725, 13419.589
176.112, 11378.207
177.499, 8906.859
178.885, 7345.584
180.271, 5444.400
181.657, 4033.318
183.043, 2839.342
184.428, 2251.479
185.813, 1864.731
187.198, 1865.089
188.583, 2567.552
189.967, 3123.121
191.351, 4318.801
192.735, 4968.588
194.119, 5088.484
195.502, 4248.486
196.885, 2675.476
198.268, 1972.511
199.651, 1503.653
201.033, 1755.900
202.415, 2241.250
203.797, 2798.701
205.179, 3660.251
206.561, 4150.898
207.942, 4791.642
209.323, 5052.479
210.703, 5003.403
212.084, 4754.401
213.464, 4325.471
214.844, 4176.613
216.224, 3437.826
217.603, 3119.108
218.983, 2620.460
220.362, 2131.879
221.741, 1697.367
223.119, 991.938
224.497, 548.784
225.875, 55.304
227.253, 41.379
228.631, 344.253
230.008, 399.367
231.385, 319.657
232.762, 354.547
234.139, 183.920
235.515, 56.577
236.891, 504.058
238.267, 931.538
239.643, 1531.078
241.018, 2318.702
242.393, 2933.429
243.768, 3830.142
245.143, 4175.561
246.517, 4680.715
247.891, 4945.819
249.265, 5050.907
250.639, 5375.980
252.012, 5251.035
253.386, 5346.071
254.759, 5071.091
256.131, 4716.091
257.504, 4281.073
258.876, 3601.199
260.248, 3572.162
261.620, 3523.686
262.991, 3955.680
264.363, 4268.020
265.734, 4860.633
267.104, 5543.484
268.475, 6096.542
269.845, 6869.733
271.215, 7083.053
272.585, 7716.500
273.955, 7530.068
275.324, 7333.754
276.693, 7177.551
278.062, 6611.444
279.431, 6705.047
280.799, 6658.719
282.167, 7012.499
283.535, 7176.380
284.903, 6920.358
286.270, 6774.425
287.638, 6058.580
289.005, 5702.813
290.371, 5037.128
291.738, 4581.516
293.104, 4655.961
294.470, 4450.445
295.836, 4854.969
297.201, 5159.481
298.567, 6138.805
299.932, 7097.470
301.296, 8350.972
302.661, 10235.686
304.025, 11760.434
305.389, 13275.217
306.753, 13730.038
308.117, 13314.893
309.480, 11589.777
310.843, 8954.700
312.206, 7029.650
313.569, 5124.635
314.931, 4099.647
316.293, 3298.692
317.655, 2828.768
319.017, 2606.871
320.378, 2165.005
321.740, 2038.168
323.101, 2013.359
324.461, 2093.580
325.822, 2458.656
327.182, 2590.438
328.542, 3133.020
329.902, 2990.638
331.261, 2840.290
332.621, 2285.977
333.980, 1667.696
335.339, 1391.447
336.697, 1280.229
338.056, 1721.039
339.414, 2430.877
340.772, 3415.742
342.129, 4667.634
343.487, 6032.553
344.844, 7327.498
346.201, 7652.468
347.557, 8677.461
348.914, 9112.479
350.270, 9747.823
351.626, 9924.837
352.982, 8808.383
354.337, 7500.311
355.693, 5267.806
357.048, 3734.203
358.402, 2419.410
359.757, 1586.064
361.111, 1005.081
362.465, 502.005
363.819, 348.073
365.173, 221.669
366.526, 20.058
367.879, 29.092
369.232, 31.978
370.585, 28.322
371.937, 14.083
373.290, 32.158
374.642, 262.214
375.993, 276.266
377.345, 669.312
378.696, 784.355
380.047, 1330.676
381.398, 1837.389
382.748, 2632.918
384.099, 3869.007
385.449, 5309.422
386.799, 7659.049
388.148, 10118.660
389.497, 13061.803
390.847, 15057.766
392.196, 15933.033
393.544, 15640.439
394.893, 13091.844
396.241, 10701.047
397.589, 8008.812
398.936, 5563.436
400.284, 3959.033
401.631, 2641.601
402.978, 1869.140
404.325, 1335.649
405.672, 997.129
407.018, 845.579
408.364, 621.000
409.710, 906.392
411.055, 1071.755
412.401, 1651.091
413.746, 2391.399
415.091, 3216.678
416.435, 4350.928
417.780, 4835.148
419.124, 5189.340
420.468, 4953.504
421.812, 4727.659
423.155, 4861.807
424.498, 4895.942
425.842, 5410.060
427.184, 5294.160
428.527, 5458.244
429.869, 5252.305
431.211, 4736.348
432.553, 4290.366
433.895, 3481.363
435.236, 3069.335
436.577, 2354.283
437.918, 1635.207
439.259, 1451.104
440.599, 952.974
441.940, 771.819
443.280, 707.638
444.619, 570.430
445.959, 619.195
447.298, 586.932
448.637, 706.640
449.976, 878.319
451.315, 943.968
452.653, 1243.586
453.991, 1297.174
455.329, 1527.730
456.667, 1529.255
458.004, 1645.748
459.341, 1442.208
460.678, 1287.659
462.015, 1173.104
463.352, 1111.521
464.688, 1179.903
466.024, 1384.252
467.360, 1510.566
468.695, 1809.845
470.031, 1969.088
471.366, 2279.296
472.701, 2369.476
474.035, 3009.647
475.370, 3749.791
476.704, 5117.971
478.038, 7351.193
479.372, 10474.463
480.705, 15387.809
482.038, 21051.209
483.371, 26644.719
484.704, 32708.305
486.037, 31911.990
487.369, 28615.783
488.701, 21719.666
490.033, 15153.657
491.365, 10667.740
492.696, 7371.860
494.027, 5506.030
495.358, 3968.166
496.689, 3052.262
498.019, 2541.318
499.350, 1924.334
500.680, 1809.310
502.009, 1341.245
503.339, 1155.139
504.668, 1178.991
505.997, 865.801
507.326, 900.569
508.655, 583.294
509.983, 350.978
511.311, 203.612
512.639, 0.816
513.967, 132.662
515.295, 379.121
516.622, 360.200
517.949, 419.597
519.276, 489.343
520.602, 414.472
521.929, 475.950
523.255, 429.810
524.581, 374.027
525.906, 368.573
527.232, 190.460
528.557, 131.664
529.882, 143.344
531.207, 120.925
532.531, 428.531
533.855, 453.058
535.179, 592.503
536.503, 607.902
537.827, 486.254
539.150, 352.562
540.473, 217.819
541.796, 85.013
543.119, 141.116
544.441, 57.144
545.764, 80.072
547.086, 79.909
548.407, 2.654
549.729, 190.272
551.050, 69.829
552.371, 390.357
553.692, 395.915
555.013, 616.485
556.333, 1009.079
557.653, 1554.660
558.973, 2134.194
560.293, 2483.684
561.612, 2786.129
562.932, 2875.529
564.251, 2561.884
565.569, 2516.195
566.888, 2364.460
568.206, 2611.682
569.524, 2798.857
570.842, 3221.990
572.160, 3775.077
573.477, 4097.121
574.795, 4429.120
576.112, 4517.076
577.428, 4314.985
578.745, 4173.853
580.061, 3801.676
581.377, 3587.456
582.693, 3280.192
584.009, 3283.884
585.324, 3625.532
586.639, 3662.137
587.954, 4030.698
589.269, 4043.217
590.583, 3720.691
591.897, 3539.122
593.212, 2915.511
594.525, 2541.855
595.839, 1934.158
597.152, 1626.417
598.465, 1609.633
599.778, 1421.808
601.091, 1523.938
602.403, 1538.028
603.716, 1661.075
605.028, 2174.080
606.339, 2490.043
607.651, 3215.964
608.962, 4060.845
610.273, 5198.683
611.584, 6685.480
612.895, 8042.237
614.205, 10238.954
615.515, 12065.628
616.825, 14202.260
618.135, 16928.855
619.444, 17605.410
620.754, 18451.918
622.063, 16478.396
623.372, 13854.829
624.680, 11141.225
625.989, 7867.580
627.297, 5873.896
628.605, 3976.174
629.912, 2811.006
631.220, 2016.416
632.527, 1234.361
633.834, 1142.498
635.141, 766.572
636.447, 672.269
637.754, 594.797
639.060, 541.798
640.366, 676.728
641.671, 787.134
642.977, 889.317
644.282, 1024.406
645.587, 950.117
646.892, 1098.377
648.196, 919.398
649.501, 903.522
650.805, 953.219
652.109, 787.785
653.412, 975.186
654.716, 832.530
656.019, 931.820
657.322, 1026.055
658.625, 1080.234
659.927, 1376.360
661.230, 1487.432
662.532, 1752.450
663.834, 2162.415
665.135, 2431.326
666.437, 3061.185
667.738, 3670.689
669.039, 4553.496
670.340, 5779.737
671.640, 7087.569
672.940, 9439.803
674.241, 10793.104
675.540, 13062.569
676.840, 14008.082
678.139, 13807.678
679.439, 12913.338
680.738, 10881.828
682.036, 9243.766
683.335, 7585.999
684.633, 6249.513
685.931, 5486.853
687.229, 4747.980
688.527, 4558.623
689.824, 4222.923
691.121, 4237.216
692.418, 4581.489
693.715, 4685.740
695.012, 5189.968
696.308, 5923.890
697.604, 6456.393
698.900, 7866.053
700.195, 8877.127
701.491, 10935.849
702.786, 13395.330
704.081, 16024.798
705.376, 20310.707
706.670, 24482.676
707.964, 31691.805
709.259, 39165.746
710.552, 46659.723
711.846, 54493.711
713.139, 57657.707
714.433, 58941.680
715.726, 53685.633
717.018, 46639.586
718.311, 39173.520
719.603, 30857.449
720.895, 24371.361
722.187, 19465.262
723.479, 14979.157
724.770, 12383.041
726.061, 9786.916
727.352, 7980.783
728.643, 6684.644
729.934, 5548.496
731.224, 4822.343
732.514, 4106.183
733.804, 3528.018
735.094, 2910.848
736.383, 2629.673
737.672, 2421.495
738.961, 1964.313
740.250, 1941.129
741.539, 1870.943
742.827, 1569.755
744.115, 1655.567
745.403, 1448.378
746.691, 1352.189
747.978, 1448.001
749.265, 1315.814
750.552, 1585.629
751.839, 1466.447
753.126, 1684.268
754.412, 2037.092
755.698, 2112.920
756.984, 2510.752
758.270, 2716.590
759.555, 3164.434
760.840, 3790.283
762.125, 4084.139
763.410, 4838.001
764.695, 5221.874
765.979, 5335.753
767.263, 5489.642
768.547, 5023.538
769.831, 4727.446
771.114, 3941.363
772.398, 3290.292
773.681, 2700.232
774.964, 1989.186
776.246, 1659.150
777.529, 1239.129
778.811, 845.121
780.093, 645.127
781.375, 346.148
782.656, 353.185
783.937, 19.237
785.219, 73.710
786.499, 13.302
787.780, 264.686
789.060, 282.803
790.341, 312.061
791.621, 423.470
792.901, 338.089
794.180, 546.871
795.459, 445.924
796.739, 509.194
798.017, 574.712
799.296, 476.510
800.575, 568.535
801.853, 488.833
803.131, 298.359
804.409, 346.014
805.686, 18.182
806.964, 246.396
808.241, 807.638
809.518, 1450.907
810.795, 1951.205
812.071, 2867.533
813.347, 2881.890
814.623, 3080.278
815.899, 2844.696
817.175, 2268.148
818.450, 1964.632
819.726, 1483.150
821.001, 1132.702
822.275, 983.290
823.550, 599.923
824.824, 531.634
826.098, 336.457
827.372, 214.459
828.646, 328.636
829.920, 14.997
831.193, 96.571
832.466, 114.330
833.739, 56.296
835.011, 94.460
836.284, 46.806
837.556, 57.333
838.828, 241.997
840.100, 133.779
841.371, 346.620
842.642, 294.522
843.914, 553.469
845.184, 666.460
846.455, 663.495
847.726, 902.576
848.996, 811.701
850.266, 943.875
851.536, 1123.104
852.805, 955.403
854.075, 1120.763
855.344, 1041.198
856.613, 853.705
857.881, 1087.290
859.150, 881.965
860.418, 928.703
861.686, 908.516
862.954, 1014.381
864.222, 1055.316
865.489, 978.311
866.756, 1134.361
868.023, 997.506
869.290, 925.706
870.557, 1022.968
871.823, 881.296
873.089, 905.684
874.355, 1075.149
875.621, 849.704
876.886, 1098.328
878.152, 1226.030
879.417, 1099.793
880.682, 1351.648
881.946, 1202.577
883.211, 1697.565
884.475, 1785.639
885.739, 2052.797
887.003, 2592.015
888.266, 2830.329
889.530, 3560.703
890.793, 4327.145
892.056, 4923.678
893.318, 6100.281
894.581, 6866.986
895.843, 7893.772
897.105, 8830.624
898.367, 9157.566
899.629, 9874.575
900.890, 9451.654
902.152, 9638.835
903.413, 9696.083
904.673, 9123.400
905.934, 9250.794
907.194, 9038.254
908.454, 8345.802
909.714, 8103.417
910.974, 7421.095
912.234, 6858.849
913.493, 6226.667
914.752, 5334.573
916.011, 4842.552
917.270, 4420.596
918.528, 4148.734
919.786, 3996.938
921.044, 3925.459
922.302, 4203.596
923.560, 4212.042
924.817, 4600.576
926.074, 5179.175
927.331, 5647.841
928.588, 6346.597
929.844, 6675.420
931.101, 6914.315
932.357, 7073.302
933.613, 6472.356
934.868, 6591.489
936.124, 6520.113
937.379, 6534.190
938.634, 7142.782
939.889, 7166.210
941.144, 8088.732
942.398, 9099.689
943.652, 10053.848
944.906, 12193.569
946.160, 13740.413
947.414, 16183.805
948.667, 18333.469
949.920, 20449.256
951.173, 23051.461
952.426, 24778.156
953.678, 25930.123
954.931, 28634.033
956.183, 29045.414
957.435, 32335.955
958.686, 35896.711
959.938, 39047.547
961.189, 43288.480
962.440, 45469.527
963.691, 45800.672
964.941, 44351.895
966.192, 39643.223
967.442, 35014.629
968.692, 30966.145
969.942, 26267.752
971.191, 24079.451
972.441, 21061.248
973.690, 20583.137
974.939, 20395.117
976.187, 19827.188
977.436, 20699.348
978.684, 19631.602
979.932, 19283.943
981.180, 18045.842
982.428, 16428.357
983.675, 15380.962
984.922, 13993.646
986.169, 13246.416
987.416, 13019.272
988.663, 12232.217
989.909, 12335.241
991.155, 12178.352
992.401, 11931.545
993.647, 12434.818
994.893, 12468.169
996.138, 13121.607
997.383, 14135.128
998.628, 14878.726
999.873, 16532.408
1001.117, 16976.180
1002.362, 17340.033
1003.606, 18173.977
1004.850, 16988.002
1006.093, 16202.123
1007.337, 15017.639
1008.580, 12821.929
1009.823, 11556.712
1011.066, 9781.245
1012.308, 8315.806
1013.551, 7563.889
1014.793, 6090.479
1016.035, 5695.581
1017.277, 4969.855
1018.518, 4175.223
1019.760, 4121.463
1021.001, 3529.196
1022.242, 3415.411
1023.483, 3255.359
1024.723, 2736.221
1025.964, 2946.420
1027.204, 2584.481
1028.444, 2423.281
1029.683, 2497.306
1030.923, 2275.543
1032.162, 2342.478
1033.401, 2259.438
1034.640, 2109.108
1035.879, 2434.152
1037.117, 2281.882
1038.355, 2611.063
1039.593, 2716.078
1040.831, 2515.915
1042.069, 2856.990
1043.306, 2695.966
1044.544, 2816.118
1045.781, 3154.789
1047.017, 3187.966
1048.254, 3725.354
1049.490, 4184.119
1050.726, 4439.633
1051.962, 5056.536
1053.198, 5275.321
1054.434, 5765.070
1055.669, 5962.193
1056.904, 5895.267
1058.139, 6292.438
1059.374, 6039.686
1060.608, 5589.434
1061.843, 5626.765
1063.077, 4839.365
1064.311, 4497.762
1065.544, 4015.249
1066.778, 3449.609
1068.011, 3567.199
1069.244, 3136.726
1070.477, 3125.991
1071.710, 3349.770
1072.942, 3252.380
1074.174, 3760.213
1075.406, 4078.091
1076.638, 4451.496
1077.870, 5389.462
1079.101, 5618.288
1080.332, 6071.957
1081.563, 6360.056
1082.794, 5980.952
1084.025, 5592.642
1085.255, 4821.269
1086.485, 3883.706
1087.715, 3612.076
1088.945, 2930.540
1090.175, 2849.990
1091.404, 2671.693
1092.633, 2466.000
1093.862, 2717.220
1095.091, 2714.382
1096.319, 3093.229
1097.548, 3737.714
1098.776, 4297.717
1100.004, 4540.680
1101.231, 5180.690
1102.459, 5432.644
1103.686, 6284.113
1104.913, 5894.507
1106.140, 5727.948
1107.367, 5688.406
1108.593, 4918.890
1109.819, 4844.449
1111.046, 4135.059
1112.271, 3546.040
1113.497, 3436.249
1114.722, 2727.948
1115.948, 2612.814
1117.173, 2328.174
1118.398, 1876.002
1119.622, 2008.369
1120.847, 1667.186
1122.071, 1403.098
1123.295, 1463.140
1124.519, 1123.991
1125.742, 1082.285
1126.966, 1047.735
1128.189, 755.566
1129.412, 876.733
1130.635, 789.843
1131.857, 642.721
1133.080, 731.336
1134.302, 522.244
1135.524, 564.826
1136.746, 617.130
1137.967, 347.062
1139.188, 497.386
1140.410, 421.334
1141.631, 265.501
1142.851, 414.216
1144.072, 180.337
1145.292, 217.050
1146.512, 247.563
1147.732, 67.652
1148.952, 232.609
1150.172, 77.124
1151.391, 15.817
1152.610, 192.698
1153.829, 60.543
1155.048, 55.352
1156.266, 23.739
1157.484, 1.150
1158.702, 36.866
1159.920, 108.421
1161.138, 68.774
1162.356, 15.650
1163.573, 217.495
1164.790, 19.047
1166.007, 44.791
1167.224, 79.121
1168.440, 37.047
1169.656, 118.151
1170.872, 169.004
1172.088, 75.424
1173.304, 109.870
1174.519, 36.452
1175.735, 156.412
1176.950, 83.292
1178.165, 1.037
1179.379, 127.570
1180.594, 119.060
1181.808, 31.516
1183.022, 163.346
1184.236, 64.882
1185.449, 36.732
1186.663, 121.815
1187.876, 32.043
1189.089, 165.066
1190.302, 83.193
1191.515, 8.856
1192.727, 110.108
1193.939, 3.424
1195.151, 28.359
1196.363, 137.545
1197.575, 18.410
1198.786, 20.361
1199.997, 34.974
1201.208, 20.935
1202.419, 82.772
1203.630, 73.383
1204.840, 28.855
1206.051, 20.718
1207.261, 52.324
1208.470, 60.238
1209.680, 10.696
1210.889, 75.894
1212.099, 79.512
1213.308, 91.253
1214.516, 3.111
1215.725, 85.479
1216.933, 51.101
1218.142, 37.710
1219.350, 91.756
1220.557, 88.187
1221.765, 42.417
1222.972, 89.894
1224.180, 43.168
1225.387, 38.839
1226.593, 117.301
1227.800, 10.613
1229.006, 0.220
1230.213, 71.188
1231.419, 6.229
1232.624, 104.620
1233.830, 150.576
1235.035, 44.586
1236.241, 174.098
1237.446, 56.029
1238.650, 19.620
1239.855, 146.147
1241.059, 37.634
1242.264, 156.069
1243.468, 112.454
1244.671, 31.368
1245.875, 200.685
1247.078, 66.909
1248.282, 87.661
1249.485, 186.759
1250.687, 43.812
1251.890, 195.251
1253.092, 246.189
1254.295, 10.252
1255.497, 187.225
1256.699, 145.996
1257.900, 136.553
1259.102, 198.227
1260.303, 79.828
1261.504, 98.520
1262.705, 196.987
1263.905, 104.473
1265.106, 217.888
1266.306, 204.130
1267.506, 126.288
1268.706, 235.598
1269.905, 176.585
1271.105, 168.495
1272.304, 390.309
1273.503, 204.047
1274.702, 215.710
1275.900, 289.284
1277.099, 175.771
1278.297, 280.187
1279.495, 132.534
1280.693, 214.837
1281.891, 351.019
1283.088, 151.128
1284.285, 312.302
1285.482, 251.253
1286.679, 194.139
1287.876, 271.200
1289.072, 199.948
1290.268, 155.621
1291.464, 291.328
1292.660, 105.866
1293.856, 161.386
1295.051, 213.771
1296.247, 60.089
1297.442, 213.087
1298.637, 148.933
1299.831, 85.021
1301.026, 228.781
1302.220, 59.646
1303.414, 161.494
1304.608, 160.836
1305.802, 186.668
1306.995, 103.998
1308.188, 157.164
1309.381, 91.248
1310.574, 202.898
1311.767, 126.627
1312.960, 132.878
1314.152, 238.584
1315.344, 94.197
1316.536, 128.472
1317.728, 185.880
1318.919, 71.552
1320.110, 195.012
1321.301, 172.243
1322.492, 166.781
1323.683, 248.292
1324.874, 92.092
1326.064, 109.521
1327.254, 262.828
1328.444, 136.124
1329.634, 164.588
1330.823, 164.484
1332.013, 91.892
1333.202, 267.396
1334.391, 117.726
1335.580, 117.536
1336.768, 262.841
1337.956, 183.922
1339.145, 212.626
1340.333, 170.761
1341.520, 140.323
1342.708, 265.000
1343.895, 158.706
1345.083, 122.031
1346.270, 291.402
1347.456, 192.672
1348.643, 196.861
1349.829, 317.655
1351.016, 179.755
1352.202, 276.570
1353.387, 196.619
1354.573, 138.532
1355.759, 297.570
1356.944, 235.493
1358.129, 132.355
1359.314, 336.468
1360.498, 136.105
1361.683, 265.863
1362.867, 344.454
1364.051, 364.933
1365.235, 316.260
1366.419, 313.293
1367.602, 113.807
1368.785, 281.474
1369.968, 194.732
1371.151, 130.164
1372.334, 304.803
1373.517, 117.031
1374.699, 262.965
1375.881, 200.464
1377.063, 210.667
1378.245, 293.161
1379.426, 161.697
1380.608, 242.806
1381.789, 241.507
1382.970, 372.368
1384.150, 230.436
1385.331, 248.423
1386.511, 108.043
1387.691, 212.430
1388.871, 272.458
1390.051, 105.776
1391.231, 264.280
1392.410, 263.385
1393.589, 122.128
1394.768, 292.981
1395.947, 180.643
1397.126, 185.270
1398.304, 274.204
1399.483, 75.422
1400.661, 213.290
1401.838, 307.447
1403.016, 180.625
1404.194, 272.952
1405.371, 191.086
1406.548, 189.106
1407.725, 270.516
1408.901, 197.412
1410.078, 132.262
1411.254, 306.777
1412.430, 180.743
1413.606, 278.706
1414.782, 215.007
1415.958, 193.939
1417.133, 304.490
1418.308, 173.556
1419.483, 158.486
1420.658, 316.875
1421.832, 134.699
1423.007, 182.675
1424.181, 251.167
1425.355, 103.954
1426.529, 234.896
1427.702, 220.056
1428.876, 72.787
1430.049, 218.370
1431.222, 142.599
1432.395, 99.991
1433.567, 177.309
1434.740, 107.401
1435.912, 196.354
1437.084, 207.879
1438.256, 0.698
1439.428, 262.840
1440.599, 132.474
1441.770, 73.099
1442.942, 248.229
1444.112, 177.261
1445.283, 100.473
1446.454, 157.641
1447.624, 102.884
1448.794, 202.597
1449.964, 294.812
1451.134, 11.899
1452.303, 210.523
1453.473, 203.065
1454.642, 44.813
1455.811, 145.375
1456.980, 171.034
1458.148, 83.254
1459.317, 235.301
1460.485, 73.883
1461.653, 91.356
1462.821, 214.378
1463.989, 95.896
1465.156, 207.186
1466.323, 156.604
1467.490, 12.791
1468.657, 171.884
1469.824, 148.537
1470.991, 2.961
1472.157, 281.914
1473.323, 114.068
1474.489, 151.685
1475.655, 225.411
1476.820, 79.343
