##NAMES=Axinite-(Fe)
##RRUFFID=R060558
##IDEAL CHEMISTRY=Ca_4_Fe^2+^_2_Al_4_[B_2_Si_8_O_30_](OH)_2_
##LOCALITY=unknown
##OWNER=RRUFF
##SOURCE=Gemological Institute of America
##DESCRIPTION=Brown flattened crystal
##STATUS=The identification of this mineral has been confirmed by X-ray diffraction and chemical analysis
##URL=rruff.info/R060558
##MEASURED CHEMISTRY=Ca_2.00_(Fe^2+^_0.60_Mg_0.35_Mn_0.05_)_Î£=1_Al_2.00_BSi_4.00_O_15_(OH) ; B not measured
##PIN_ID=M00962
##ORIENTATION=Laser parallel to a* (1 0 0). Fiducial mark perpendicular to laser is parallel to b [0 1 0]
102.7490, 0.0000000E+00
103.9940, 204.8032
105.2390, 472.3486
106.4840, 958.4297
107.7290, 1222.042
108.9740, 1138.521
110.2180, 929.5220
111.4620, 885.6914
112.7060, 991.1333
113.9500, 1086.482
115.1940, 1110.901
116.4370, 1007.895
117.6800, 906.6802
118.9230, 802.5610
120.1660, 560.9087
121.4090, 578.5889
122.6510, 444.5176
123.8940, 242.0374
125.1360, 46.56812
126.3770, 41.84058
127.6190, 22.20972
128.8600, 29.36792
130.1020, 33.17725
131.3430, 4.475098
132.5840, 48.68066
133.8240, 183.5657
135.0650, 381.0347
136.3050, 558.2979
137.5450, 811.3643
138.7850, 1108.271
140.0250, 1091.050
141.2640, 1104.725
142.5030, 994.3186
143.7430, 1057.780
144.9810, 1093.939
146.2200, 1149.692
147.4590, 1299.969
148.6970, 1364.382
149.9350, 1576.992
151.1730, 1718.794
152.4110, 1641.778
153.6480, 1621.936
154.8860, 1395.261
156.1230, 1224.747
157.3600, 1084.387
158.5960, 872.1772
159.8330, 687.1118
161.0690, 706.1807
162.3050, 734.3682
163.5410, 740.6682
164.7770, 846.0784
166.0130, 1059.597
167.2480, 1224.224
168.4830, 1599.956
169.7180, 1747.920
170.9530, 1841.143
172.1880, 1708.458
173.4220, 1682.862
174.6560, 1483.362
175.8900, 1205.973
177.1240, 937.6836
178.3580, 630.4751
179.5910, 393.3618
180.8250, 189.3464
182.0580, 70.42578
183.2900, 96.40430
184.5230, 140.6619
185.7560, 99.15356
186.9880, 80.14771
188.2200, 159.9480
189.4520, 121.4414
190.6830, 30.91455
191.9150, 68.66455
193.1460, 240.3140
194.3770, 218.0322
195.6080, 158.8179
196.8390, 206.6699
198.0700, 368.6423
199.3000, 570.3887
200.5300, 856.5474
201.7600, 1178.601
202.9900, 1545.702
204.2190, 1876.852
205.4490, 2352.049
206.6780, 2871.295
207.9070, 3117.590
209.1360, 3506.934
210.3640, 3787.326
211.5930, 4052.769
212.8210, 4226.260
214.0490, 4267.797
215.2770, 4260.387
216.5040, 4148.022
217.7320, 3802.586
218.9590, 3425.052
220.1860, 2982.394
221.4130, 2452.727
222.6400, 2026.116
223.8660, 1572.562
225.0920, 1170.064
226.3190, 782.6211
227.5450, 608.2339
228.7700, 458.9009
229.9960, 304.6211
231.2210, 164.3950
232.4460, 95.22119
233.6710, 154.0996
234.8960, 43.12451
236.1210, 202.2295
237.3450, 361.6899
238.5690, 321.2202
239.7930, 331.2217
241.0170, 315.2734
242.2410, 329.3462
243.4640, 458.7080
244.6870, 430.2544
245.9100, 513.0796
247.1330, 690.1279
248.3560, 937.3623
249.5780, 1269.654
250.8000, 1675.784
252.0230, 1869.506
253.2440, 2217.522
254.4660, 2393.697
255.6880, 2513.982
256.9090, 2513.320
258.1300, 2522.665
259.3510, 2883.026
260.5720, 2995.408
261.7920, 3004.813
263.0130, 3225.056
264.2330, 3412.156
265.4530, 3732.294
266.6730, 4201.475
267.8920, 4392.699
269.1120, 4625.962
270.3310, 4760.039
271.5500, 4832.582
272.7690, 4729.900
273.9880, 4480.050
275.2060, 4161.171
276.4240, 3818.852
277.6430, 3353.284
278.8600, 2925.598
280.0780, 2677.987
281.2960, 2320.395
282.5130, 2246.824
283.7300, 1927.277
284.9470, 1911.751
286.1640, 1834.250
287.3810, 1758.772
288.5970, 1704.319
289.8130, 1587.892
291.0290, 1599.251
292.2450, 1595.468
293.4610, 1539.466
294.6760, 1385.475
295.8910, 1331.526
297.1060, 1396.621
298.3210, 1237.757
299.5360, 1241.933
300.7510, 1182.150
301.9650, 1080.407
303.1790, 1106.702
304.3930, 1247.034
305.6070, 1305.405
306.8200, 1444.812
308.0340, 1579.255
309.2470, 1793.733
310.4600, 2132.248
311.6730, 2488.795
312.8850, 2936.376
314.0980, 3439.993
315.3100, 4000.645
316.5220, 4726.328
317.7340, 5374.042
318.9460, 5410.786
320.1570, 5476.560
321.3690, 5106.364
322.5800, 4546.198
323.7910, 4073.060
325.0010, 3660.951
326.2120, 3214.871
327.4220, 2851.817
328.6330, 2566.791
329.8430, 2455.552
331.0520, 2439.701
332.2620, 2550.500
333.4720, 2652.508
334.6810, 2893.774
335.8900, 3230.553
337.0990, 3599.611
338.3070, 4184.796
339.5160, 4874.008
340.7240, 5551.244
341.9320, 6154.507
343.1400, 6820.795
344.3480, 6558.107
345.5560, 6338.442
346.7630, 5681.803
347.9700, 5003.188
349.1770, 4231.596
350.3840, 3378.028
351.5910, 2700.484
352.7970, 2092.964
354.0040, 1609.466
355.2100, 1164.991
356.4160, 932.5386
357.6220, 596.1084
358.8270, 375.7002
360.0320, 156.3145
361.2380, 134.9502
362.4430, 32.60742
363.6470, 49.70508
364.8520, 53.98340
366.0560, 105.2964
367.2610, 166.5684
368.4650, 82.84375
369.6690, 14.10791
370.8720, 32.35010
372.0760, 54.42676
373.2790, 87.22656
374.4820, 95.04932
375.6850, 206.8936
376.8880, 230.7607
378.0910, 286.1167
379.2930, 445.8760
380.4950, 632.9111
381.6970, 929.8247
382.8990, 1172.076
384.1010, 1522.412
385.3020, 1924.423
386.5040, 2207.255
387.7050, 2417.004
388.9060, 2610.337
390.1060, 2608.540
391.3070, 2489.581
392.5070, 2255.316
393.7080, 2052.385
394.9080, 1760.670
396.1070, 1388.704
397.3070, 1319.219
398.5070, 1176.352
399.7060, 1139.767
400.9050, 1081.926
402.1040, 1076.288
403.3030, 1067.706
404.5010, 1010.904
405.7000, 943.1143
406.8980, 976.3369
408.0960, 999.5732
409.2940, 1038.822
410.4910, 1259.086
411.6890, 1521.362
412.8860, 1722.652
414.0830, 2198.955
415.2800, 2777.271
416.4770, 3342.599
417.6730, 3860.938
418.8690, 4497.302
420.0660, 4986.685
421.2620, 5706.087
422.4570, 6398.511
423.6530, 7020.947
424.8480, 7208.396
426.0440, 7384.856
427.2390, 7217.328
428.4340, 6844.812
429.6280, 6341.307
430.8230, 5554.813
432.0170, 4770.332
433.2110, 3960.861
434.4050, 3189.401
435.5990, 2775.953
436.7930, 2386.499
437.9860, 2256.094
439.1800, 2143.685
440.3730, 2265.288
441.5660, 2489.903
442.7580, 2693.533
443.9510, 2990.175
445.1430, 2920.827
446.3350, 2680.490
447.5270, 2242.167
448.7190, 1757.854
449.9110, 1403.553
451.1020, 1157.263
452.2930, 752.9829
453.4850, 543.7129
454.6750, 382.4536
455.8660, 320.2046
457.0570, 362.9648
458.2470, 187.9648
459.4370, 277.7441
460.6270, 146.5327
461.8170, 113.3306
463.0070, 275.1367
464.1960, 195.9517
465.3850, 306.7759
466.5750, 340.6079
467.7630, 488.4482
468.9520, 552.2964
470.1410, 640.1528
471.3290, 731.0166
472.5170, 918.8887
473.7050, 966.7954
474.8930, 1097.748
476.0810, 1411.734
477.2680, 1741.750
478.4560, 2136.817
479.6430, 2522.920
480.8300, 3195.041
482.0160, 3786.168
483.2030, 4442.299
484.3890, 4903.437
485.5760, 4835.579
486.7620, 4409.726
487.9480, 3744.878
489.1330, 3161.036
490.3190, 2557.197
491.5040, 1917.362
492.6890, 1317.532
493.8740, 951.7056
495.0590, 724.8828
496.2440, 584.0640
497.4280, 514.2480
498.6120, 364.4360
499.7960, 280.3838
500.9800, 325.8208
502.1640, 150.0200
503.3470, 170.2251
504.5310, 228.4419
505.7140, 181.6909
506.8970, 161.9722
508.0800, 99.25488
509.2620, 143.4761
510.4450, 78.68018
511.6270, 82.89209
512.8090, 85.08252
513.9910, 134.9517
515.1730, 109.0864
516.3550, 76.84521
517.5360, 65.37158
518.7170, 34.96289
519.8980, 26.41943
521.0790, 31.77539
522.2600, 51.11377
523.4400, 144.4658
524.6210, 180.8726
525.8010, 165.3511
526.9810, 238.8887
528.1610, 139.5254
529.3400, 169.2148
530.5200, 113.9800
531.6990, 190.8003
532.8780, 45.26758
534.0570, 22.66455
535.2360, 80.37451
536.4140, 22.41162
537.5930, 6.442383
538.7710, 0.5415040
539.9490, 135.4570
541.1270, 29.54785
542.3040, 81.41309
543.4820, 4.371094
544.6590, 25.31152
545.8360, 65.24512
547.0130, 99.17480
548.1900, 99.61084
549.3670, 94.03516
550.5430, 127.9658
551.7190, 81.89795
552.8960, 154.8257
554.0710, 213.7495
555.2470, 358.6699
556.4230, 531.5854
557.5980, 690.5151
558.7730, 918.4399
559.9480, 1126.360
561.1230, 1196.275
562.2980, 1291.184
563.4720, 1331.086
564.6470, 1329.983
565.8210, 1313.874
566.9950, 1360.758
568.1690, 1415.636
569.3420, 1534.507
570.5160, 1685.372
571.6890, 1912.229
572.8620, 1878.079
574.0350, 1880.922
575.2080, 1977.757
576.3800, 1849.585
577.5530, 1750.405
578.7250, 1501.217
579.8970, 1165.021
581.0690, 1090.817
582.2410, 992.6045
583.4120, 896.3833
584.5830, 809.1533
585.7550, 823.9146
586.9260, 759.6665
588.0960, 783.4092
589.2670, 751.1431
590.4380, 735.8677
591.6080, 658.5825
592.7780, 369.2871
593.9480, 352.9814
595.1180, 284.6660
596.2870, 165.3408
597.4570, 207.0054
598.6260, 57.65869
599.7950, 181.2988
600.9640, 213.9282
602.1330, 153.5464
603.3010, 330.1533
604.4700, 334.7495
605.6380, 510.4922
606.8060, 652.0664
607.9740, 768.6279
609.1420, 1018.178
610.3090, 1191.892
611.4760, 1500.491
612.6440, 1687.005
613.8110, 2046.506
614.9770, 2200.996
616.1440, 2467.473
617.3110, 2680.936
618.4770, 2925.386
619.6430, 2947.823
620.8090, 2844.246
621.9750, 2559.655
623.1400, 2243.050
624.3060, 1779.431
625.4710, 1496.797
626.6360, 1181.149
627.8010, 949.4863
628.9660, 707.8086
630.1300, 475.1167
631.2950, 469.4097
632.4590, 449.6885
633.6230, 373.9517
634.7870, 503.1997
635.9510, 476.4326
637.1140, 624.6504
638.2780, 723.8735
639.4410, 812.0605
640.6040, 962.2314
641.7670, 1040.955
642.9290, 1157.842
644.0920, 1235.662
645.2540, 1274.435
646.4160, 1113.604
647.5780, 911.7515
648.7400, 873.3975
649.9020, 700.2793
651.0630, 512.0273
652.2250, 492.8901
653.3860, 523.7002
654.5470, 536.8291
655.7080, 536.3257
656.8680, 471.6401
658.0290, 497.1025
659.1890, 477.9849
660.3490, 460.7202
661.5090, 491.3872
662.6690, 543.9619
663.8280, 558.4482
664.9880, 695.8711
666.1470, 845.7480
667.3060, 1057.486
668.4650, 1396.295
669.6240, 1596.596
670.7820, 1950.984
671.9410, 2332.225
673.0990, 2663.101
674.2570, 3082.070
675.4150, 3346.697
676.5720, 3565.099
677.7300, 3477.750
678.8870, 3234.914
680.0450, 2951.454
681.2020, 2423.704
682.3590, 2149.200
683.5150, 1799.486
684.6720, 1531.827
685.8280, 1234.259
686.9840, 1089.699
688.1400, 910.2891
689.2960, 932.7026
690.4520, 864.7563
691.6070, 896.1914
692.7630, 980.5654
693.9180, 1008.013
695.0730, 1072.291
696.2280, 1254.614
697.3820, 1435.830
698.5370, 1680.023
699.6910, 1987.194
700.8450, 2405.344
701.9990, 2856.471
703.1530, 3468.576
704.3070, 4214.660
705.4600, 5170.720
706.6130, 6366.758
707.7660, 7514.775
708.9190, 9086.769
710.0720, 10479.74
711.2250, 12100.69
712.3770, 13189.62
713.5300, 13702.53
714.6820, 13646.41
715.8340, 12685.27
716.9850, 11265.11
718.1370, 9573.930
719.2880, 8109.726
720.4400, 6471.500
721.5910, 5198.252
722.7420, 4177.983
723.8930, 3436.690
725.0430, 2762.379
726.1940, 2192.043
727.3440, 1895.687
728.4940, 1543.309
729.6440, 1343.908
730.7940, 1054.487
731.9430, 897.0430
733.0930, 710.5786
734.2420, 591.4053
735.3910, 489.5264
736.5400, 444.0571
737.6890, 391.2773
738.8370, 351.7065
739.9860, 421.1147
741.1340, 328.5015
742.2820, 229.8682
743.4300, 134.2134
744.5780, 284.5366
745.7250, 238.8398
746.8730, 192.1216
748.0200, 127.3833
749.1670, 151.6230
750.3140, 226.8413
751.4610, 251.0396
752.6070, 173.2178
753.7540, 304.3760
754.9000, 307.5142
756.0460, 310.6328
757.1920, 381.7314
758.3380, 388.8110
759.4830, 347.8706
760.6280, 370.9111
761.7740, 469.9326
762.9190, 518.9341
764.0640, 570.9165
765.2080, 618.8799
766.3530, 619.5161
767.4970, 628.7520
768.6420, 561.6592
769.7860, 442.5483
770.9300, 307.4199
772.0730, 437.2734
773.2170, 411.1094
774.3600, 239.9272
775.5040, 144.7280
776.6470, 185.5103
777.7900, 177.2754
778.9320, 55.02344
780.0750, 42.74854
781.2170, 12.44385
782.3600, 67.88574
783.5020, 11.29639
784.6440, 11.75293
785.7850, 4.636230
786.9270, 72.80176
788.0680, 7.424805
789.2100, 79.08984
790.3510, 41.83545
791.4920, 50.64062
792.6320, 108.5098
793.7730, 181.4731
794.9130, 205.5674
796.0540, 62.80615
797.1940, 156.1123
798.3340, 138.5225
799.4730, 60.02490
800.6130, 95.57227
801.7520, 101.1582
802.8920, 126.7744
804.0310, 120.4390
805.1700, 103.8506
806.3090, 79.59277
807.4470, 43.60303
808.5860, 7.636230
809.7240, 52.90869
810.8620, 108.1665
812.0000, 104.4263
813.1380, 185.6738
814.2750, 102.9111
815.4130, 218.1426
816.5500, 206.3711
817.6870, 107.5879
818.8240, 133.8096
819.9610, 148.0205
821.0980, 52.22754
822.2340, 90.42529
823.3700, 69.61279
824.5070, 30.20996
825.6430, 60.93408
826.7780, 7.931641
827.9140, 41.18213
829.0500, 48.28613
830.1850, 23.37988
831.3200, 56.46387
832.4550, 67.46094
833.5900, 87.56689
834.7250, 85.58643
835.8590, 181.5981
836.9930, 97.60254
838.1280, 69.59912
839.2620, 179.5884
840.3950, 161.5703
841.5290, 272.5459
842.6630, 306.5146
843.7960, 374.4771
844.9290, 482.4331
846.0620, 559.3833
847.1950, 651.3271
848.3280, 711.2661
849.4600, 847.1997
850.5930, 806.1279
851.7250, 924.0508
852.8570, 911.9688
853.9890, 1007.883
855.1210, 1030.753
856.2520, 1088.487
857.3840, 1123.645
858.5150, 1137.419
859.6460, 1065.823
860.7770, 1104.458
861.9080, 1098.914
863.0380, 1091.543
864.1690, 1145.687
865.2990, 1086.482
866.4290, 1139.643
867.5590, 1147.950
868.6890, 1176.783
869.8190, 1161.165
870.9480, 1159.265
872.0770, 1201.831
873.2070, 1219.783
874.3360, 1199.064
875.4640, 1229.205
876.5930, 1168.479
877.7220, 1187.512
878.8500, 1240.947
879.9780, 1222.307
881.1060, 1199.286
882.2340, 1247.907
883.3620, 1290.141
884.4890, 1393.895
885.6170, 1493.755
886.7440, 1575.688
887.8710, 1660.647
888.9980, 1811.608
890.1240, 1948.583
891.2510, 2261.564
892.3770, 2621.561
893.5040, 2937.559
894.6300, 3259.559
895.7560, 3684.562
896.8810, 4188.568
898.0070, 4745.581
899.1330, 5293.597
900.2580, 5994.619
901.3830, 6678.661
902.5080, 7334.705
903.6330, 8081.792
904.7570, 8434.919
905.8820, 8469.079
907.0060, 8481.245
908.1300, 8243.414
909.2540, 7632.593
910.3780, 7111.776
911.5020, 6544.952
912.6250, 5534.155
913.7490, 4971.364
914.8720, 4266.010
915.9950, 3721.490
917.1180, 3262.052
918.2400, 2795.651
919.3630, 2381.869
920.4850, 2119.104
921.6080, 1893.835
922.7300, 1610.339
923.8520, 1549.001
924.9730, 1543.220
926.0950, 1455.830
927.2160, 1375.942
928.3380, 1284.479
929.4590, 1267.496
930.5800, 1338.087
931.7010, 1391.723
932.8210, 1300.573
933.9420, 1403.612
935.0620, 1337.654
936.1820, 1491.543
937.3020, 1456.159
938.4220, 1520.248
939.5420, 1616.816
940.6610, 1659.505
941.7810, 1901.801
942.9000, 2060.453
944.0190, 2206.396
945.1380, 2587.879
946.2570, 2997.590
947.3750, 3357.320
948.4940, 3643.067
949.6120, 4102.834
950.7300, 4691.630
951.8480, 5245.445
952.9660, 5841.279
954.0830, 6259.136
955.2010, 6878.014
956.3180, 7580.798
957.4350, 8235.724
958.5520, 9271.640
959.6690, 10242.40
960.7860, 11270.34
961.9020, 12336.65
963.0190, 13085.58
964.1350, 13251.58
965.2510, 13272.49
966.3670, 12964.59
967.4830, 12339.64
968.5980, 11582.81
969.7140, 10506.98
970.8290, 9801.187
971.9440, 9731.411
973.0590, 9516.654
974.1740, 9594.921
975.2880, 9802.208
976.4030, 10294.52
977.5170, 10916.86
978.6310, 11124.22
979.7450, 11409.60
980.8590, 10855.00
981.9730, 10614.42
983.0860, 9933.865
984.2000, 9485.327
985.3130, 8881.820
986.4260, 8605.329
987.5390, 8330.894
988.6520, 8048.477
989.7640, 8077.083
990.8770, 7772.709
991.9890, 7743.358
993.1010, 7458.028
994.2130, 7435.721
995.3250, 7152.435
996.4370, 7058.171
997.5480, 6883.928
998.6590, 6962.707
999.7710, 7089.186
1000.882, 6933.009
1001.993, 6734.854
1003.103, 6433.161
1004.214, 6018.056
1005.324, 5516.972
1006.434, 5097.911
1007.545, 4586.081
1008.655, 4079.062
1009.764, 3583.999
1010.874, 3148.031
1011.983, 2802.075
1013.093, 2410.140
1014.202, 1982.227
1015.311, 1725.335
1016.420, 1502.260
1017.528, 1422.410
1018.637, 1242.581
1019.745, 1104.772
1020.854, 1009.302
1021.962, 1001.535
1023.070, 951.2759
1024.177, 886.4810
1025.285, 938.0083
1026.392, 838.3208
1027.500, 856.6538
1028.607, 878.0059
1029.714, 820.3940
1030.821, 756.7856
1031.927, 710.8096
1033.034, 707.2461
1034.140, 647.1182
1035.246, 566.5938
1036.352, 582.1572
1037.458, 615.1758
1038.564, 570.4214
1039.670, 514.2656
1040.775, 537.8320
1041.880, 488.6641
1042.986, 499.2788
1044.090, 583.5547
1045.195, 593.2231
1046.300, 582.8765
1047.404, 567.5469
1048.509, 663.6284
1049.613, 788.9482
1050.717, 762.6978
1051.821, 737.7427
1052.925, 906.5562
1054.028, 818.8232
1055.132, 1027.509
1056.235, 1164.555
1057.338, 1232.048
1058.441, 1083.584
1059.544, 1165.726
1060.647, 1126.520
1061.749, 1096.607
1062.851, 1335.240
1063.954, 1075.150
1065.056, 1023.472
1066.158, 964.3384
1067.259, 777.8242
1068.361, 783.3081
1069.462, 670.8403
1070.564, 539.4907
1071.665, 566.1812
1072.766, 490.8706
1073.867, 499.6079
1074.967, 521.9038
1076.068, 642.7144
1077.168, 693.0381
1078.268, 827.5693
1079.368, 888.4229
1080.468, 899.3047
1081.568, 1143.180
1082.668, 1234.763
1083.767, 1188.661
1084.866, 1159.850
1085.966, 1239.280
1087.065, 983.5986
1088.163, 899.1060
1089.262, 682.6318
1090.361, 572.8267
1091.459, 455.8848
1092.557, 346.0645
1093.655, 383.4800
1094.753, 211.4966
1095.851, 283.9175
1096.949, 260.0249
1098.046, 119.8730
1099.143, 292.7246
1100.241, 191.8833
1101.338, 283.9717
1102.434, 281.0674
1103.531, 324.1704
1104.628, 342.1196
1105.724, 296.9512
1106.820, 347.0747
1107.916, 385.3677
1109.012, 376.2520
1110.108, 276.6465
1111.204, 344.7944
1112.299, 262.9482
1113.395, 284.1821
1114.490, 291.5244
1115.585, 145.7241
1116.680, 187.8989
1117.775, 137.0796
1118.869, 119.2876
1119.964, 134.5869
1121.058, 33.77979
1122.152, 66.53613
1123.246, 81.62207
1124.340, 61.82568
1125.434, 90.06787
1126.527, 55.27686
1127.620, 79.58301
1128.714, 104.8052
1129.807, 68.49609
1130.900, 59.28418
1131.992, 19.03027
1133.085, 5.359375
1134.178, 23.12061
1135.270, 30.24414
1136.362, 109.4702
1137.454, 57.84424
1138.546, 129.9292
1139.638, 62.25635
1140.729, 75.38721
1141.821, 2.758301
1142.912, 14.90234
1144.003, 49.04688
1145.094, 26.19043
1146.185, 45.41211
1147.276, 28.37988
1148.366, 54.75293
1149.456, 52.88379
1150.547, 6.014160
1151.637, 102.8584
1152.727, 86.22021
1153.816, 55.70312
1154.906, 26.65283
1155.995, 49.60693
1157.085, 66.40674
1158.174, 61.41748
1159.263, 85.42529
1160.352, 2.430176
1161.441, 34.43066
1162.529, 14.57227
1163.618, 120.7949
1164.706, 60.22266
1165.794, 15.72461
1166.882, 148.3330
1167.970, 122.4736
1169.058, 113.6836
1170.145, 75.03955
1171.232, 32.87354
1172.320, 0.4125980
1173.407, 14.29102
1174.494, 24.01123
1175.580, 13.67676
1176.667, 25.34668
1177.754, 49.00977
1178.840, 16.33203
1179.926, 82.69482
1181.012, 27.91357
1182.098, 75.51172
1183.184, 62.00928
1184.269, 1.477051
1185.355, 2.020996
1186.440, 5.496094
1187.525, 1.032227
1188.610, 103.4150
1189.695, 27.85254
1190.780, 124.4287
1191.864, 108.9780
1192.949, 70.43652
1194.033, 40.99658
1195.117, 108.4619
1196.201, 21.23828
1197.285, 48.02832
1198.369, 69.28369
1199.452, 106.5273
1200.536, 45.96924
1201.619, 51.18896
1202.702, 86.39600
1203.785, 86.59033
1204.868, 32.20410
1205.950, 110.9331
1207.033, 21.05713
1208.115, 17.16162
1209.197, 144.2461
1210.279, 72.31689
1211.361, 113.3730
1212.443, 14.58398
1213.525, 139.4199
1214.606, 35.41016
1215.687, 28.44873
1216.769, 33.40137
1217.850, 6.686523
1218.930, 29.41064
1220.011, 43.29639
1221.092, 70.16455
1222.172, 137.0371
1223.252, 23.05322
1224.333, 96.73877
1225.413, 14.61230
1226.492, 80.36572
1227.572, 8.102539
1228.652, 8.807129
1229.731, 82.48682
1230.810, 152.1426
1231.889, 112.7832
1232.968, 147.4082
1234.047, 54.01758
1235.126, 56.56494
1236.204, 117.1782
1237.283, 6.731934
1238.361, 153.2505
1239.439, 139.7910
1240.517, 163.2954
1241.595, 180.7803
1242.673, 97.23145
1243.750, 73.86475
1244.827, 110.2925
1245.905, 36.69092
1246.982, 122.0635
1248.059, 66.58057
1249.135, 94.69824
1250.212, 200.0776
1251.288, 162.3208
1252.365, 60.54688
1253.441, 141.8501
1254.517, 117.0737
1255.593, 176.2427
1256.669, 108.1924
1257.744, 163.3257
1258.820, 138.4414
1259.895, 65.80469
1260.970, 106.3745
1262.045, 107.0942
1263.120, 77.13232
1264.195, 41.85498
1265.270, 206.9995
1266.344, 100.9702
1267.418, 152.9609
1268.492, 128.6846
1269.566, 88.67627
1270.640, 137.6470
1271.714, 178.5835
1272.788, 191.4531
1273.861, 169.3047
1274.934, 114.1392
1276.007, 117.9541
1277.080, 164.9829
1278.153, 196.7612
1279.226, 147.6387
1280.299, 180.7993
1281.371, 153.7886
