##NAMES=Axinite-(Fe)
##RRUFFID=R060183
##IDEAL CHEMISTRY=Ca_4_Fe^2+^_2_Al_4_[B_2_Si_8_O_30_](OH)_2_
##LOCALITY=Skagit Bluffs, near Manning Park, British Columbia, Canada
##OWNER=RRUFF
##SOURCE=Lloyd Twaites
##DESCRIPTION=Light-pink transparent axe-head-shaped single crystal
##STATUS=The identification of this mineral has been confirmed by X-ray diffraction and chemical analysis
##URL=rruff.info/R060183
##MEASURED CHEMISTRY=Ca_2.00_(Fe^2+^_0.58_Mn_0.23_Mg_0.19_)Al_2.00_B_1.00_Si_4.00_O_15_(OH)
##PIN_ID=L01391
##ORIENTATION=Laser parallel to -a* (-1 0 0). Fiducial mark perpendicular to laser is parallel to -b [0 -1 0]
52.67100, 0.0000000E+00
53.91000, 48.07486
55.14900, 238.4083
56.38700, 1492.975
57.62600, 165.3612
58.86400, 222.7018
60.10300, 320.1794
61.34100, 211.4580
62.57900, 121.7740
63.81700, 34.97015
65.05400, 4.151489
66.29200, 53.81860
67.52900, 76.25916
68.76700, 4.688171
70.00400, 33.33423
71.24100, 128.7212
72.47700, 43.21643
73.71400, 85.01550
74.95100, 228.9597
76.18700, 329.9152
77.42300, 416.7600
78.65900, 424.3842
79.89500, 512.6877
81.13100, 795.5823
82.36700, 1096.988
83.60200, 1480.835
84.83700, 1566.058
86.07200, 1623.599
87.30800, 1836.407
88.54200, 2170.433
89.77700, 2644.631
91.01200, 3197.932
92.24600, 3591.246
93.48000, 3880.496
94.71400, 4134.615
95.94800, 4521.590
97.18200, 4820.258
98.41600, 5326.073
99.64900, 5543.723
100.8830, 5928.727
102.1160, 6379.666
103.3490, 6669.312
104.5820, 7501.645
105.8150, 8795.649
107.0470, 10457.31
108.2800, 12125.61
109.5120, 11937.53
110.7440, 9579.073
111.9760, 8228.212
113.2080, 7768.945
114.4400, 7267.261
115.6710, 7218.146
116.9030, 6652.594
118.1340, 6086.594
119.3650, 5881.139
120.5960, 5532.222
121.8270, 5442.833
123.0580, 5207.489
124.2880, 5047.233
125.5190, 4949.759
126.7490, 4765.322
127.9790, 4823.024
129.2090, 4679.843
130.4390, 4806.761
131.6680, 4750.769
132.8980, 4984.840
134.1270, 5088.952
135.3560, 5495.216
136.5850, 5863.875
137.8140, 6170.119
139.0430, 6242.974
140.2710, 5963.369
141.5000, 5418.192
142.7280, 4942.282
143.9560, 4622.591
145.1840, 4237.128
146.4120, 4146.902
147.6390, 4064.921
148.8670, 3939.195
150.0940, 3908.732
151.3210, 4102.538
152.5490, 4216.615
153.7750, 4280.970
155.0020, 4400.604
156.2290, 4146.521
157.4550, 3743.726
158.6810, 3368.218
159.9080, 3155.000
161.1340, 3087.858
162.3590, 3228.432
163.5850, 3284.079
164.8110, 3606.013
166.0360, 3972.230
167.2610, 4255.733
168.4860, 4624.520
169.7110, 4789.588
170.9360, 4716.463
172.1610, 4651.566
173.3850, 4248.474
174.6100, 3844.655
175.8340, 3343.115
177.0580, 2957.848
178.2820, 2474.852
179.5050, 2047.127
180.7290, 1661.672
181.9520, 1512.485
183.1760, 1432.562
184.3990, 1249.906
185.6220, 1337.511
186.8450, 1345.376
188.0670, 1584.501
189.2900, 1733.882
190.5120, 2074.520
191.7340, 2319.410
192.9560, 2471.553
194.1780, 2290.945
195.4000, 2217.585
196.6220, 2360.472
197.8430, 2346.603
199.0640, 2645.975
200.2860, 3032.449
201.5070, 3472.756
202.7270, 3949.870
203.9480, 4309.636
205.1690, 4656.484
206.3890, 5046.922
207.6090, 5426.135
208.8290, 5741.398
210.0490, 6102.665
211.2690, 6191.052
212.4890, 6282.654
213.7080, 6153.976
214.9280, 6068.979
216.1470, 5834.162
217.3660, 5379.277
218.5850, 4801.781
219.8030, 4168.300
221.0220, 3390.328
222.2400, 2758.165
223.4590, 2164.125
224.6770, 1679.176
225.8950, 1363.714
227.1120, 1037.020
228.3300, 845.0278
229.5480, 686.9951
230.7650, 625.3818
231.9820, 637.8252
233.1990, 696.5381
234.4160, 736.5312
235.6330, 827.8013
236.8490, 1003.371
238.0660, 983.2520
239.2820, 1001.476
240.4980, 1239.021
241.7140, 1236.893
242.9300, 1278.106
244.1460, 1570.615
245.3610, 1716.423
246.5770, 2082.534
247.7920, 2522.906
249.0070, 2899.542
250.2220, 3541.420
251.4370, 4278.530
252.6510, 4929.905
253.8660, 5512.521
255.0800, 5614.395
256.2940, 5658.528
257.5080, 5883.923
258.7220, 6153.087
259.9360, 6372.554
261.1490, 6797.585
262.3630, 7080.950
263.5760, 7298.523
264.7890, 7898.298
266.0020, 8478.260
267.2150, 8840.399
268.4270, 9073.722
269.6400, 9250.219
270.8520, 9362.886
272.0640, 9395.728
273.2760, 9282.736
274.4880, 9100.916
275.7000, 8566.265
276.9120, 7776.785
278.1230, 7137.473
279.3340, 6301.330
280.5450, 5999.356
281.7560, 5390.551
282.9670, 4893.914
284.1780, 4950.443
285.3880, 4661.133
286.5980, 4620.985
287.8090, 4671.995
289.0190, 4627.162
290.2290, 4769.487
291.4380, 4876.968
292.6480, 4903.604
293.8570, 4684.396
295.0670, 4564.340
296.2760, 4424.438
297.4850, 4392.686
298.6930, 4149.086
299.9020, 4029.636
301.1110, 3732.334
302.3190, 3729.180
303.5270, 3713.172
304.7350, 3779.310
305.9430, 3634.592
307.1510, 3478.017
308.3580, 3301.584
309.5660, 3414.292
310.7730, 3523.141
311.9800, 3647.128
313.1870, 4134.252
314.3940, 4682.514
315.6010, 5300.911
316.8070, 5848.443
318.0130, 6117.107
319.2200, 5844.905
320.4260, 5775.833
321.6310, 5045.893
322.8370, 4730.081
324.0430, 4316.395
325.2480, 4067.838
326.4540, 3844.405
327.6590, 3746.168
328.8640, 3742.075
330.0680, 3813.854
331.2730, 4020.917
332.4780, 4282.098
333.6820, 4698.399
334.8860, 5108.818
336.0900, 5710.358
337.2940, 6651.012
338.4980, 7210.782
339.7010, 8000.667
340.9050, 8286.664
342.1080, 8387.775
343.3110, 7890.996
344.5140, 7086.330
345.7170, 6518.817
346.9200, 6168.458
348.1220, 5587.255
349.3240, 5109.208
350.5270, 4489.320
351.7290, 3883.590
352.9310, 3175.020
354.1320, 2411.609
355.3340, 1887.359
356.5350, 1216.271
357.7370, 695.4902
358.9380, 398.7349
360.1390, 115.1445
361.3400, 73.29834
362.5400, 282.6064
363.7410, 386.3550
364.9410, 442.0103
366.1410, 478.1602
367.3410, 471.2949
368.5410, 411.4155
369.7410, 414.5029
370.9400, 345.6592
372.1400, 298.5664
373.3390, 192.5093
374.5380, 76.35938
375.7370, 56.90625
376.9360, 324.3022
378.1350, 490.1235
379.3330, 1008.127
380.5310, 1382.002
381.7300, 2012.739
382.9280, 2591.217
384.1260, 3240.438
385.3230, 3807.254
386.5210, 4310.247
387.7180, 4326.129
388.9160, 4400.142
390.1130, 4245.758
391.3100, 3940.873
392.5060, 3565.702
393.7030, 3096.458
394.9000, 2756.207
396.0960, 2452.375
397.2920, 2254.001
398.4880, 2050.918
399.6840, 1971.268
400.8800, 1853.873
402.0750, 1520.058
403.2710, 1675.652
404.4660, 1623.409
405.6610, 1933.300
406.8560, 2164.756
408.0510, 2553.889
409.2450, 2972.669
410.4400, 3532.204
411.6340, 4268.662
412.8280, 5205.206
414.0220, 6160.833
415.2160, 6986.542
416.4100, 7694.333
417.6030, 8622.204
418.7970, 9476.156
419.9900, 10281.19
421.1830, 10753.30
422.3760, 10789.48
423.5690, 10319.75
424.7610, 9649.085
425.9540, 8798.501
427.1460, 7698.987
428.3380, 6942.549
429.5300, 6045.185
430.7220, 5276.891
431.9140, 4745.668
433.1050, 4267.515
434.2970, 4139.432
435.4880, 4289.416
436.6790, 4549.470
437.8700, 5156.588
439.0610, 6059.774
440.2510, 7227.025
441.4420, 8132.340
442.6320, 8731.718
443.8220, 8287.160
445.0120, 7299.666
446.2020, 6143.231
447.3910, 5169.856
448.5810, 3978.544
449.7700, 3207.289
450.9600, 2477.092
452.1490, 1832.953
453.3370, 1565.871
454.5260, 1187.845
455.7150, 952.8740
456.9030, 762.9570
458.0910, 485.0942
459.2800, 479.2847
460.4670, 299.5269
461.6550, 270.8213
462.8430, 223.1660
464.0300, 227.0771
465.2180, 293.9043
466.4050, 374.4976
467.5920, 488.0386
468.7790, 662.6265
469.9650, 779.2632
471.1520, 976.9482
472.3380, 1240.680
473.5250, 1518.458
474.7110, 1841.282
475.8970, 2447.148
477.0820, 3252.059
478.2680, 3873.010
479.4540, 4672.003
480.6390, 5169.036
481.8240, 5543.107
483.0090, 5604.218
484.1940, 5270.367
485.3780, 4565.553
486.5630, 3750.776
487.7470, 2917.035
488.9320, 2340.330
490.1160, 1598.658
491.3000, 1187.020
492.4830, 680.4146
493.6670, 535.8408
494.8500, 238.2974
496.0340, 262.7837
497.2170, 233.3013
498.4000, 246.8467
499.5820, 181.4243
500.7650, 275.0435
501.9480, 350.7036
503.1300, 419.4004
504.3120, 568.5166
505.4940, 712.4082
506.6760, 890.1099
507.8580, 1081.713
509.0390, 1318.914
510.2210, 1253.386
511.4020, 1367.143
512.5830, 1159.787
513.7640, 1075.040
514.9450, 978.9634
516.1250, 639.2773
517.3060, 519.5503
518.4860, 293.1167
519.6660, 29.77100
520.8460, 31.47607
522.0260, 91.78613
523.2060, 158.0889
524.3850, 302.4570
525.5650, 224.9600
526.7440, 264.5859
527.9230, 331.3433
529.1020, 154.2788
530.2810, 186.3145
531.4590, 209.4795
532.6380, 57.78906
533.8160, 67.17236
534.9940, 11.36182
536.1720, 35.84814
537.3500, 96.70361
538.5270, 12.35840
539.7050, 102.0723
540.8820, 105.8901
542.0590, 123.8130
543.2360, 130.3052
544.4130, 13.99121
545.5900, 48.17969
546.7660, 81.43408
547.9430, 60.21826
549.1190, 72.83691
550.2950, 205.4512
551.4710, 236.0708
552.6470, 436.6914
553.8220, 620.3203
554.9980, 830.9487
556.1730, 1086.576
557.3480, 1373.200
558.5230, 1436.822
559.6980, 1578.439
560.8730, 1590.052
562.0470, 1666.659
563.2220, 1779.261
564.3960, 1843.854
565.5700, 1930.990
566.7440, 2032.051
567.9170, 2093.594
569.0910, 2216.156
570.2640, 2314.709
571.4380, 2381.254
572.6110, 2345.130
573.7840, 2304.310
574.9570, 2174.820
576.1290, 2109.319
577.3020, 1972.806
578.4740, 1840.279
579.6460, 1859.739
580.8180, 1952.186
581.9900, 2041.617
583.1620, 2172.033
584.3330, 2230.435
585.5040, 2409.820
586.6760, 2516.189
587.8470, 2531.542
589.0180, 2419.877
590.1880, 2058.193
591.3590, 1754.493
592.5290, 1462.773
593.7000, 1224.034
594.8700, 1015.028
596.0400, 869.4961
597.2090, 726.6968
598.3790, 593.8765
599.5490, 585.0347
600.7180, 567.8818
601.8870, 807.2852
603.0560, 733.3765
604.2250, 968.4443
605.3940, 1221.489
606.5620, 1326.510
607.7300, 1606.506
608.8990, 1857.593
610.0670, 2047.792
611.2350, 2165.293
612.4020, 2312.543
613.5700, 2369.813
614.7370, 2396.028
615.9050, 2267.923
617.0720, 2322.807
618.2390, 2133.566
619.4060, 2086.296
620.5720, 1705.997
621.7390, 1565.670
622.9050, 1191.313
624.0710, 992.9272
625.2370, 954.5107
626.4030, 685.0635
627.5690, 709.5854
628.7340, 645.0762
629.9000, 466.5356
631.0650, 716.9634
632.2300, 705.3589
633.3950, 947.7222
634.5600, 1068.053
635.7240, 1108.351
636.8890, 1386.027
638.0530, 1712.258
639.2170, 1878.444
640.3810, 2234.310
641.5450, 2338.656
642.7080, 2509.384
643.8720, 2384.348
645.0350, 2256.306
646.1980, 2061.764
647.3610, 1791.707
648.5240, 1552.257
649.6870, 1259.114
650.8490, 1170.391
652.0120, 950.9106
653.1740, 868.9341
654.3360, 794.3247
655.4980, 712.1821
656.6600, 654.1768
657.8210, 622.5527
658.9830, 622.3457
660.1440, 741.5620
661.3050, 770.7461
662.4660, 941.2739
663.6270, 1179.056
664.7870, 1351.940
665.9480, 1579.703
667.1080, 1981.035
668.2680, 2384.159
669.4280, 2992.871
670.5880, 3774.482
671.7480, 4323.742
672.9070, 5154.417
674.0670, 5660.909
675.2260, 6072.708
676.3850, 6123.401
677.5440, 6158.736
678.7030, 5563.283
679.8610, 4925.814
681.0200, 4298.337
682.1780, 3809.396
683.3360, 3153.138
684.4940, 2687.852
685.6520, 2199.865
686.8090, 2017.264
687.9670, 1781.278
689.1240, 1709.262
690.2810, 1556.923
691.4380, 1704.352
692.5950, 1756.771
693.7520, 1800.605
694.9080, 2096.525
696.0650, 2350.117
697.2210, 2661.936
698.3770, 3220.446
699.5330, 3666.915
700.6880, 4542.344
701.8440, 5494.730
702.9990, 6687.077
704.1550, 8336.382
705.3100, 10168.65
706.4650, 12191.87
707.6190, 14743.05
708.7740, 17310.19
709.9290, 19935.29
711.0830, 22094.35
712.2370, 23832.37
713.3910, 24379.35
714.5450, 23720.29
715.6980, 22214.18
716.8520, 19963.03
718.0050, 17563.85
719.1580, 14962.62
720.3110, 12318.34
721.4640, 10110.04
722.6170, 8230.686
723.7700, 6750.293
724.9220, 5396.859
726.0740, 4559.387
727.2260, 3637.872
728.3780, 3186.317
729.5300, 2594.722
730.6810, 2167.086
731.8330, 1821.410
732.9840, 1602.693
734.1350, 1287.936
735.2860, 1166.140
736.4370, 1139.302
737.5880, 857.4253
738.7380, 767.5088
739.8880, 782.5527
741.0390, 591.5571
742.1890, 473.5215
743.3380, 520.4473
744.4880, 461.3340
745.6380, 315.1816
746.7870, 273.9902
747.9360, 248.7593
749.0850, 207.9731
750.2340, 233.1689
751.3830, 225.8101
752.5310, 227.4087
753.6800, 273.9653
754.8280, 268.4834
755.9760, 292.9624
757.1240, 318.4038
758.2720, 346.8081
759.4190, 398.1748
760.5670, 454.5054
761.7140, 389.7993
762.8610, 652.0562
764.0080, 524.2769
765.1550, 624.4614
766.3020, 570.6104
767.4480, 481.7236
768.5950, 511.8018
769.7410, 578.8447
770.8870, 479.8525
772.0330, 471.8257
773.1780, 391.7646
774.3240, 183.6689
775.4690, 284.5352
776.6140, 121.3677
777.7590, 14.15674
778.9040, 25.87500
780.0490, 40.52979
781.1940, 6.874512
782.3380, 56.35840
783.4820, 17.94727
784.6260, 90.62012
785.7700, 101.4150
786.9140, 91.43018
788.0580, 67.37646
789.2010, 88.52441
790.3450, 129.7886
791.4880, 153.1914
792.6310, 82.74268
793.7730, 230.4048
794.9160, 143.2544
796.0590, 200.2446
797.2010, 198.4033
798.3430, 137.7109
799.4850, 78.13379
800.6270, 112.6113
801.7690, 130.1426
802.9100, 38.70068
804.0520, 93.25342
805.1930, 45.81836
806.3340, 22.35205
807.4750, 17.11621
808.6160, 62.61719
809.7560, 71.16406
810.8970, 264.7222
812.0370, 119.3013
813.1770, 233.8809
814.3170, 233.4600
815.4570, 49.06885
816.5960, 28.68262
817.7360, 5.320801
818.8750, 16.01953
820.0140, 37.85449
821.1530, 76.65479
822.2920, 69.00439
823.4310, 30.37793
824.5690, 13.74463
825.7070, 109.1279
826.8460, 35.57861
827.9840, 1.928711
829.1220, 25.59277
830.2590, 67.84668
831.3970, 34.26562
832.5340, 112.6631
833.6710, 32.04150
834.8080, 239.3994
835.9450, 201.7397
837.0820, 164.0625
838.2190, 287.3691
839.3550, 368.6602
840.4910, 366.9351
841.6270, 512.1948
842.7630, 622.4385
843.8990, 791.6685
845.0350, 891.9702
846.1700, 1019.973
847.3060, 1099.273
848.4410, 1247.448
849.5760, 1330.611
850.7100, 1427.761
851.8450, 1494.899
852.9800, 1569.025
854.1140, 1600.805
855.2480, 1640.245
856.3820, 1630.339
857.5160, 1712.423
858.6500, 1710.497
859.7830, 1753.866
860.9170, 1811.618
862.0500, 1795.666
863.1830, 1828.705
864.3160, 1775.737
865.4480, 1880.761
866.5810, 1871.778
867.7130, 2123.788
868.8460, 2004.792
869.9780, 2150.790
871.1100, 2192.782
872.2410, 2172.782
873.3730, 2256.787
874.5050, 2250.786
875.6360, 2312.793
876.7670, 2387.796
877.8980, 2510.804
879.0290, 2498.809
880.1590, 2535.821
881.2900, 2675.831
882.4200, 2844.847
883.5500, 3027.749
884.6800, 3204.516
885.8100, 3466.954
886.9400, 3922.616
888.0690, 4130.234
889.1990, 4562.882
890.3280, 5110.829
891.4570, 5757.765
892.5860, 6509.800
893.7140, 7289.838
894.8430, 8122.875
895.9710, 9049.929
897.1000, 10105.98
898.2280, 10911.07
899.3560, 11949.16
900.4830, 12522.26
901.6110, 13099.37
902.7380, 13283.50
903.8660, 13074.63
904.9930, 12476.77
906.1200, 11738.93
907.2460, 10881.08
908.3730, 10058.25
909.5000, 9196.418
910.6260, 8048.226
911.7520, 7414.466
912.8780, 6575.733
914.0040, 5995.152
915.1290, 5436.229
916.2550, 4931.897
917.3800, 4351.310
918.5050, 4093.721
919.6300, 3638.642
920.7550, 3453.119
921.8800, 3210.020
923.0040, 3075.674
924.1290, 2907.959
925.2530, 2851.028
926.3770, 2594.646
927.5010, 2521.913
928.6250, 2455.754
929.7480, 2448.452
930.8720, 2535.764
931.9950, 2409.633
933.1180, 2398.762
934.2410, 2405.845
935.3640, 2353.816
936.4860, 2534.798
937.6090, 2286.829
938.7310, 2372.750
939.8530, 2705.408
940.9750, 2800.193
942.0970, 3057.625
943.2180, 3290.119
944.3400, 3518.457
945.4610, 3829.972
946.5820, 4226.049
947.7030, 4843.980
948.8240, 5242.113
949.9450, 5707.276
951.0650, 6301.875
952.1860, 6770.295
953.3060, 7273.378
954.4260, 7886.760
955.5460, 8897.957
956.6650, 9751.875
957.7850, 10816.42
958.9040, 12050.52
960.0230, 13174.52
961.1420, 14358.97
962.2610, 15127.17
963.3800, 15540.93
964.4990, 15633.85
965.6170, 15285.34
966.7350, 15076.75
967.8530, 15097.48
968.9710, 14494.98
970.0890, 14239.79
971.2070, 14744.63
972.3240, 15186.52
973.4410, 16325.44
974.5580, 17537.39
975.6750, 18743.39
976.7920, 19833.43
977.9090, 20850.51
979.0250, 21245.62
980.1410, 21109.78
981.2580, 20205.98
982.3740, 19280.21
983.4890, 18138.48
984.6050, 17228.79
985.7200, 16153.13
986.8360, 15451.51
987.9510, 14830.92
989.0660, 14386.36
990.1810, 13888.84
991.2950, 13879.37
992.4100, 13692.93
993.5240, 13587.52
994.6390, 13559.14
995.7530, 13586.80
996.8660, 13696.50
997.9800, 13609.23
999.0940, 13247.99
1000.207, 13090.79
1001.320, 12567.62
1002.433, 11891.49
1003.546, 11318.39
1004.659, 10167.33
1005.772, 9476.968
1006.884, 8415.958
1007.996, 7584.004
1009.108, 6906.217
1010.220, 6148.331
1011.332, 5368.371
1012.444, 4785.555
1013.555, 4229.757
1014.666, 3654.009
1015.777, 3316.021
1016.888, 2855.681
1017.999, 2698.578
1019.110, 2407.975
1020.220, 2273.408
1021.331, 2138.311
1022.441, 2024.818
1023.551, 1895.559
1024.661, 1953.136
1025.770, 1830.756
1026.880, 1704.403
1027.989, 1530.085
1029.098, 1591.905
1030.207, 1594.654
1031.316, 1469.182
1032.425, 1498.850
1033.533, 1386.986
1034.642, 1325.272
1035.750, 1340.084
1036.858, 1367.133
1037.966, 1380.115
1039.073, 1331.131
1040.181, 1372.180
1041.288, 1327.202
1042.396, 1242.315
1043.503, 1324.990
1044.610, 1362.778
1045.716, 1448.854
1046.823, 1378.101
1047.929, 1358.821
1049.036, 1486.427
1050.142, 1479.923
1051.248, 1562.175
1052.353, 1759.242
1053.459, 1871.044
1054.564, 1720.060
1055.670, 1885.560
1056.775, 1817.870
1057.880, 1726.729
1058.985, 1635.488
1060.089, 1613.500
1061.194, 1432.800
1062.298, 1272.969
1063.402, 1232.009
1064.506, 963.3652
1065.610, 1032.412
1066.713, 709.2041
1067.817, 748.8311
1068.920, 726.2246
1070.023, 715.0381
1071.126, 778.8721
1072.229, 714.0293
1073.332, 816.9893
1074.435, 728.2334
1075.537, 835.2734
1076.639, 1068.566
1077.741, 1176.885
1078.843, 1387.389
1079.945, 1468.548
1081.046, 1481.729
1082.148, 1547.649
1083.249, 1557.279
1084.350, 1545.445
1085.451, 1410.414
1086.551, 1293.729
1087.652, 1090.079
1088.752, 930.2266
1089.853, 912.6113
1090.953, 709.5420
1092.053, 593.1396
1093.152, 544.7129
1094.252, 625.3086
1095.351, 479.1660
1096.451, 508.3408
1097.550, 409.2490
1098.649, 544.1660
1099.748, 516.9072
1100.846, 481.8203
1101.945, 453.0615
1103.043, 437.0947
1104.141, 416.5020
1105.239, 403.3809
1106.337, 404.6279
1107.434, 395.2031
1108.532, 435.6250
1109.629, 458.8350
1110.726, 436.7383
1111.823, 298.7324
1112.920, 264.5674
1114.017, 285.5986
1115.113, 333.4492
1116.210, 236.4180
1117.306, 170.4717
1118.402, 364.4209
1119.498, 283.4229
1120.593, 257.4365
1121.689, 307.2510
1122.784, 379.9277
1123.879, 274.2549
1124.974, 243.3184
1126.069, 127.3809
1127.164, 182.4541
1128.259, 31.54004
1129.353, 57.62988
1130.447, 40.17871
1131.541, 153.1250
1132.635, 33.28809
1133.729, 26.47461
1134.822, 24.60156
1135.916, 21.74121
1137.009, 96.09961
1138.102, 77.95898
1139.195, 9.678711
1140.288, 80.03613
1141.380, 79.14258
1142.473, 71.73730
1143.565, 47.36914
1144.657, 72.40137
1145.749, 41.69141
1146.841, 63.67969
1147.932, 18.59473
1149.024, 26.51074
1150.115, 35.83008
1151.206, 31.58789
1152.297, 20.85547
1153.388, 44.24609
1154.479, 43.66309
1155.569, 37.38867
1156.659, 4.790039
1157.750, 240.0625
1158.839, 120.8555
1159.929, 60.81836
1161.019, 69.22070
1162.108, 120.6738
1163.198, 27.62793
1164.287, 9.656250
1165.376, 39.66699
1166.465, 84.73926
1167.553, 0.8271480
1168.642, 10.07812
1169.730, 22.01953
1170.818, 27.91797
1171.906, 23.18652
1172.994, 42.69531
1174.082, 163.4268
1175.170, 51.63672
1176.257, 37.87695
1177.344, 59.85938
1178.431, 75.98242
1179.518, 0.2978520
1180.605, 18.59277
1181.691, 29.93750
1182.778, 24.30859
1183.864, 65.70312
1184.950, 0.8554690
1186.036, 71.60156
1187.122, 50.10938
1188.207, 68.33887
1189.292, 84.21973
1190.378, 48.22754
1191.463, 103.4053
1192.548, 69.59570
1193.632, 30.12500
1194.717, 36.11621
1195.801, 7.541992
1196.886, 16.90430
1197.970, 94.09375
1199.054, 70.62207
1200.137, 35.48730
1201.221, 82.57910
1202.305, 12.34082
1203.388, 53.69824
1204.471, 73.27832
1205.554, 68.28223
1206.637, 32.39551
1207.719, 34.30762
1208.802, 31.16504
1209.884, 76.12012
1210.966, 80.96973
1212.048, 28.24902
1213.130, 33.94727
1214.212, 9.116211
1215.293, 33.65820
1216.374, 27.33105
1217.456, 102.9746
1218.536, 18.46094
1219.617, 12.10840
1220.698, 48.81641
1221.778, 87.31836
1222.859, 2.824219
1223.939, 113.6084
1225.019, 33.36621
1226.099, 54.74316
1227.178, 74.09863
1228.258, 18.78809
1229.337, 207.0801
1230.417, 94.43555
1231.496, 0.3212890
1232.574, 87.86621
1233.653, 3.971680
