##NAMES=Axinite-(Fe)
##RRUFFID=R060558
##IDEAL CHEMISTRY=Ca_4_Fe^2+^_2_Al_4_[B_2_Si_8_O_30_](OH)_2_
##LOCALITY=unknown
##OWNER=RRUFF
##SOURCE=Gemological Institute of America
##DESCRIPTION=Brown flattened crystal
##STATUS=The identification of this mineral has been confirmed by X-ray diffraction and chemical analysis
##URL=rruff.info/R060558
##MEASURED CHEMISTRY=Ca_2.00_(Fe^2+^_0.60_Mg_0.35_Mn_0.05_)_Î£=1_Al_2.00_BSi_4.00_O_15_(OH) ; B not measured
##PIN_ID=M01035
##ORIENTATION=Laser parallel to c* (0 0 1). Fiducial mark perpendicular to laser is parallel to a [1 0 0]
126.5330, 0.0000000E+00
127.7670, 48.57153
129.0000, 135.2939
130.2340, 179.2368
131.4670, 193.8477
132.7000, 69.68457
133.9330, 37.84497
135.1660, 9.868652
136.3990, 63.16504
137.6310, 134.4827
138.8640, 292.4041
140.0960, 567.6018
141.3280, 709.9626
142.5600, 903.2300
143.7910, 1085.930
145.0230, 1145.932
146.2540, 1130.158
147.4850, 1325.521
148.7160, 1476.938
149.9470, 1747.329
151.1780, 1952.627
152.4080, 2155.777
153.6380, 2398.726
154.8690, 2643.429
156.0980, 2793.820
157.3280, 3057.239
158.5580, 3314.341
159.7870, 3619.243
161.0170, 3847.805
162.2460, 3956.989
163.4750, 4233.758
164.7030, 4257.070
165.9320, 4613.869
167.1600, 5224.113
168.3890, 6115.774
169.6170, 7203.821
170.8450, 7618.233
172.0730, 7608.996
173.3000, 7110.085
174.5280, 6240.497
175.7550, 5002.235
176.9820, 3760.302
178.2090, 2764.689
179.4350, 1929.381
180.6620, 1222.360
181.8880, 695.6182
183.1150, 305.1436
184.3410, 103.9324
185.5670, 55.00122
186.7920, 82.66016
188.0180, 94.01636
189.2430, 23.67749
190.4690, 141.0439
191.6940, 409.9646
192.9180, 772.0786
194.1430, 1013.384
195.3680, 1324.873
196.5920, 1392.542
197.8160, 1375.385
199.0400, 1518.396
200.2640, 1605.544
201.4880, 1779.726
202.7110, 2105.894
203.9350, 2620.018
205.1580, 3041.116
206.3810, 3519.254
207.6040, 4052.440
208.8270, 4594.684
210.0490, 5109.992
211.2710, 5603.372
212.4940, 5946.825
213.7160, 6167.358
214.9370, 6083.975
216.1590, 5882.675
217.3810, 5580.460
218.6020, 5036.333
219.8230, 4466.295
221.0440, 4010.391
222.2650, 3354.731
223.4860, 2798.386
224.7060, 2370.388
225.9260, 1753.607
227.1470, 1420.931
228.3670, 1117.327
229.5860, 767.7910
230.8060, 518.2991
232.0260, 423.8687
233.2450, 208.5112
234.4640, 154.2271
235.6830, 32.01465
236.9020, 34.87524
238.1200, 126.8066
239.3390, 260.8096
240.5570, 410.9631
241.7750, 623.2781
242.9930, 864.4456
244.2110, 1163.582
245.4290, 1510.786
246.6460, 1908.041
247.8630, 2249.349
249.0810, 2494.034
250.2980, 2832.831
251.5140, 3030.862
252.7310, 3164.124
253.9470, 3238.408
255.1640, 3214.747
256.3800, 3164.141
257.5960, 3003.602
258.8120, 2987.136
260.0270, 3269.783
261.2430, 3547.480
262.4580, 3583.224
263.6730, 3790.014
264.8880, 4075.849
266.1030, 4565.728
267.3170, 4915.648
268.5320, 5223.614
269.7460, 5274.621
270.9600, 5356.986
272.1740, 5299.621
273.3880, 5126.514
274.6010, 4914.490
275.8150, 4531.856
277.0280, 4125.958
278.2410, 3660.595
279.4540, 3327.915
280.6670, 2861.755
281.8790, 2580.695
283.0920, 2269.445
284.3040, 2076.404
285.5160, 1984.550
286.7280, 2035.871
287.9400, 2315.357
289.1510, 2670.996
290.3630, 3165.777
291.5740, 3863.697
292.7850, 4562.750
293.9960, 5513.928
295.2070, 6480.230
296.4170, 7372.649
297.6280, 8173.182
298.8380, 9024.823
300.0480, 9826.571
301.2580, 10090.42
302.4680, 10445.35
303.6770, 10236.32
304.8870, 9939.387
306.0960, 9823.540
307.3050, 9187.781
308.5140, 8438.109
309.7230, 7851.521
310.9310, 6983.013
312.1400, 6212.582
313.3480, 5465.766
314.5560, 4744.474
315.7640, 4247.640
316.9720, 3984.407
318.1790, 3819.828
319.3870, 3548.104
320.5940, 3372.579
321.8010, 3016.323
323.0080, 2682.732
324.2150, 2274.537
325.4210, 1881.834
326.6280, 1520.188
327.8340, 1236.435
329.0400, 877.0564
330.2460, 833.5693
331.4510, 656.5225
332.6570, 676.0293
333.8620, 817.3540
335.0680, 856.8672
336.2730, 1079.615
337.4780, 1277.406
338.6820, 1729.237
339.8870, 2025.109
341.0910, 2508.020
342.2950, 3112.969
343.5000, 3855.956
344.7030, 4621.979
345.9070, 5172.040
347.1110, 5622.136
348.3140, 5933.270
349.5170, 6241.438
350.7200, 6537.656
351.9230, 6803.977
353.1260, 6941.293
354.3290, 6872.324
355.5310, 6433.475
356.7330, 5671.747
357.9350, 4647.814
359.1370, 3668.303
360.3390, 2635.273
361.5400, 1865.850
362.7420, 1231.456
363.9430, 820.0913
365.1440, 483.7563
366.3450, 245.4497
367.5460, 96.17090
368.7460, 63.91748
369.9470, 89.31128
371.1470, 133.5293
372.3470, 153.7393
373.5470, 164.9136
374.7460, 126.0537
375.9460, 14.15771
377.1450, 20.19897
378.3450, 152.7788
379.5440, 474.7776
380.7430, 677.7969
381.9410, 1096.836
383.1400, 1495.895
384.3380, 2141.973
385.5370, 2796.486
386.7350, 3711.784
387.9320, 4502.932
389.1300, 5308.086
390.3280, 5906.949
391.5250, 6384.117
392.7220, 6724.299
393.9190, 6537.476
395.1160, 6217.607
396.3130, 5775.692
397.5100, 4904.783
398.7060, 4129.886
399.9020, 3409.001
401.0980, 2805.891
402.2940, 2254.589
403.4900, 1850.417
404.6860, 1448.578
405.8810, 1202.749
407.0760, 1018.336
408.2710, 940.1221
409.4660, 912.3237
410.6610, 990.5352
411.8550, 1146.756
413.0500, 1261.988
414.2440, 1566.228
415.4380, 1793.479
416.6320, 2397.738
417.8260, 2863.020
419.0190, 3333.326
420.2130, 3785.660
421.4060, 4235.028
422.5990, 4684.425
423.7920, 5310.884
424.9850, 5842.333
426.1770, 6677.840
427.3700, 7465.373
428.5620, 8312.932
429.7540, 8787.514
430.9460, 9140.117
432.1380, 8892.743
433.3290, 8420.395
434.5210, 7466.064
435.7120, 6370.754
436.9030, 5358.464
438.0940, 4313.193
439.2850, 3603.941
440.4750, 2973.708
441.6660, 2667.491
442.8560, 2540.291
444.0460, 2508.108
445.2360, 2390.940
446.4260, 2354.789
447.6160, 2049.651
448.8050, 1623.529
449.9940, 1342.421
451.1830, 850.3264
452.3720, 695.2451
453.5610, 314.1763
454.7500, 224.1199
455.9380, 11.07544
457.1260, 53.96704
458.3150, 77.03687
459.5020, 102.1475
460.6900, 145.3113
461.8780, 106.5505
463.0650, 174.8472
464.2530, 148.2363
465.4400, 30.70581
466.6270, 56.19775
467.8130, 159.2751
469.0000, 188.7556
470.1870, 182.2434
471.3730, 313.7388
472.5590, 357.2407
473.7450, 291.7495
474.9310, 455.2681
476.1160, 344.7976
477.3020, 249.3396
478.4870, 285.8882
479.6720, 374.4421
480.8570, 556.0010
482.0420, 737.5647
483.2270, 1030.133
484.4110, 1365.706
485.5960, 1641.283
486.7800, 1720.863
487.9640, 1537.447
489.1480, 1276.035
490.3310, 973.6833
491.5150, 563.2771
492.6980, 312.8706
493.8810, 26.39819
495.0640, 140.9465
496.2470, 197.6096
497.4300, 229.4722
498.6120, 214.2546
499.7950, 177.9988
500.9770, 21.21484
502.1590, 5.707031
503.3410, 103.6030
504.5220, 283.4983
505.7040, 386.3936
506.8850, 508.2878
508.0660, 606.1816
509.2470, 822.0737
510.4280, 870.9653
511.6090, 958.8555
512.7890, 1073.118
513.9700, 1059.604
515.1500, 1091.630
516.3300, 1036.533
517.5100, 871.8235
518.6900, 825.2676
519.8690, 651.8450
521.0490, 592.7168
522.2280, 420.5867
523.4070, 367.4526
524.5860, 221.3145
525.7640, 129.1721
526.9430, 68.02539
528.1210, 42.86841
529.3000, 95.69385
530.4780, 23.51318
531.6560, 23.69312
532.8330, 116.0508
534.0110, 191.7893
535.1880, 253.5229
536.3650, 480.2520
537.5430, 561.9761
538.7190, 818.6953
539.8960, 1019.410
541.0730, 1212.120
542.2490, 1672.825
543.4250, 1989.525
544.6020, 2204.220
545.7780, 2426.910
546.9530, 2433.595
548.1290, 2413.287
549.3040, 2344.008
550.4800, 2233.764
551.6550, 2059.534
552.8300, 1835.343
554.0040, 1813.172
555.1790, 1821.028
556.3540, 1967.878
557.5280, 2087.723
558.7020, 2346.573
559.8760, 2635.440
561.0500, 2976.318
562.2230, 3062.214
563.3970, 3066.118
564.5700, 2952.026
565.7430, 2840.949
566.9160, 2696.897
568.0890, 2654.861
569.2620, 2566.858
570.4340, 2715.855
571.6070, 2791.852
572.7790, 3035.854
573.9510, 3103.853
575.1230, 3237.858
576.2940, 3338.860
577.4660, 3509.876
578.6370, 3375.894
579.8080, 3602.926
580.9790, 3670.948
582.1500, 3840.967
583.3210, 4213.974
584.4910, 4740.973
585.6620, 5207.962
586.8320, 5584.942
588.0020, 6117.911
589.1720, 6358.868
590.3410, 6588.819
591.5110, 6263.755
592.6800, 5918.682
593.8500, 5135.599
595.0190, 4435.504
596.1880, 3668.399
597.3560, 2959.744
598.5250, 2458.627
599.6930, 2094.115
600.8620, 1900.060
602.0300, 1647.407
603.1970, 1596.957
604.3650, 1684.363
605.5330, 1698.346
606.7000, 1801.104
607.8680, 1948.363
609.0350, 2085.151
610.2020, 2205.932
611.3680, 2403.704
612.5350, 2379.469
613.7010, 2508.224
614.8680, 2471.971
616.0340, 2428.711
617.2000, 2112.441
618.3660, 2042.163
619.5310, 1876.876
620.6970, 1624.581
621.8620, 1412.276
623.0270, 1142.963
624.1920, 986.6406
625.3570, 731.3096
626.5220, 592.9688
627.6860, 443.6191
628.8500, 331.2603
630.0140, 91.89209
631.1780, 149.5132
632.3420, 14.12500
633.5060, 17.29419
634.6700, 3.809326
635.8330, 5.310303
636.9960, 5.488037
638.1590, 88.18335
639.3220, 180.7837
640.4850, 161.6152
641.6470, 374.0505
642.8100, 369.0315
643.9720, 425.4312
645.1340, 312.8264
646.2960, 374.2166
647.4570, 313.6011
648.6190, 300.9810
649.7800, 237.3557
650.9420, 130.7253
652.1030, 22.08960
653.2640, 9.540283
654.4240, 132.1685
655.5850, 139.8542
656.7450, 116.5996
657.9060, 148.3191
659.0660, 18.79004
660.2260, 94.89380
661.3850, 153.1733
662.5450, 290.2666
663.7040, 598.3550
664.8640, 733.4377
666.0230, 1092.516
667.1820, 1367.172
668.3410, 1989.055
669.4990, 2552.099
670.6580, 3218.145
671.8160, 4018.490
672.9740, 4793.538
674.1320, 5598.582
675.2900, 6293.622
676.4480, 6784.657
677.6050, 6951.687
678.7630, 6740.713
679.9200, 6211.735
681.0770, 5376.753
682.2340, 4538.766
683.3900, 3719.776
684.5470, 3048.781
685.7030, 2558.782
686.8590, 2017.178
688.0150, 1801.072
689.1710, 1588.083
690.3270, 1338.124
691.4830, 1417.116
692.6380, 1330.083
693.7930, 1555.985
694.9480, 1698.944
696.1030, 1878.915
697.2580, 2108.892
698.4130, 2558.764
699.5670, 3000.314
700.7210, 3740.807
701.8750, 4688.598
703.0290, 5705.452
704.1830, 7023.439
705.3370, 8778.184
706.4900, 11017.36
707.6430, 13365.37
708.7970, 16231.65
709.9490, 19389.00
711.1020, 22190.24
712.2550, 24715.19
713.4070, 26910.92
714.5600, 27592.77
715.7120, 26797.24
716.8640, 25085.34
718.0160, 22212.01
719.1670, 18914.78
720.3190, 15845.22
721.4700, 12819.97
722.6210, 10425.71
723.7720, 8433.442
724.9230, 6812.161
726.0740, 5535.870
727.2250, 4650.567
728.3750, 3864.256
729.5250, 3380.934
730.6750, 2858.602
731.8250, 2366.260
732.9750, 2033.908
734.1240, 1746.546
735.2740, 1532.175
736.4230, 1346.799
737.5720, 1124.432
738.7210, 1135.081
739.8700, 929.7529
741.0190, 875.4580
742.1670, 788.1875
743.3150, 675.9587
744.4630, 665.7654
745.6110, 608.5781
746.7590, 617.4041
747.9070, 623.5208
749.0540, 617.0293
750.2020, 682.8296
751.3490, 742.6211
752.4960, 804.4048
753.6430, 947.4377
754.7890, 1112.947
755.9360, 1267.706
757.0820, 1385.457
758.2280, 1576.199
759.3740, 1923.935
760.5200, 2224.662
761.6660, 2404.382
762.8120, 2700.094
763.9570, 2952.799
765.1020, 3219.496
766.2470, 3466.187
767.3920, 3621.869
768.5370, 3664.487
769.6810, 3654.156
770.8260, 3286.821
771.9700, 3150.548
773.1140, 2856.137
774.2580, 2401.990
775.4020, 2025.974
776.5460, 1663.800
777.6890, 1424.691
778.8320, 1099.636
779.9750, 921.5964
781.1180, 738.5642
782.2610, 679.5281
783.4040, 582.4868
784.5460, 536.4414
785.6890, 395.3918
786.8310, 254.3381
787.9730, 260.2803
789.1150, 189.2188
790.2560, 132.9814
791.3980, 188.5427
792.5390, 65.55054
793.6810, 80.07300
794.8220, 34.05322
795.9630, 43.04126
797.1030, 54.49731
798.2440, 18.64551
799.3840, 95.55542
800.5240, 105.4641
801.6650, 134.3716
802.8040, 241.2781
803.9440, 287.1836
805.0840, 440.0913
806.2230, 497.0049
807.3630, 537.9185
808.5020, 687.8416
809.6410, 730.7871
810.7790, 699.7322
811.9180, 702.6770
813.0570, 692.6213
814.1950, 534.5654
815.3330, 442.5093
816.4710, 315.4531
817.6090, 207.3972
818.7470, 144.3413
819.8840, 75.28564
821.0220, 44.23022
822.1590, 42.17480
823.2960, 28.87988
824.4330, 116.9585
825.5690, 135.1069
826.7060, 56.33447
827.8420, 151.5991
828.9790, 87.95117
830.1150, 103.3567
831.2510, 16.17676
832.3860, 11.71069
833.5220, 25.75684
834.6570, 73.24390
835.7930, 52.77466
836.9280, 84.33838
838.0630, 41.95068
839.1980, 26.58936
840.3320, 78.24634
841.4670, 106.9478
842.6010, 82.70850
843.7350, 144.5151
844.8690, 20.39941
846.0030, 22.29663
847.1370, 38.20728
848.2700, 17.13843
849.4040, 48.07983
850.5370, 17.04565
851.6700, 78.02051
852.8030, 40.03442
853.9360, 83.06787
855.0680, 22.85767
856.2000, 14.21216
857.3330, 62.71289
858.4650, 33.64282
859.5970, 114.5774
860.7290, 73.51709
861.8600, 198.4622
862.9920, 130.4124
864.1230, 302.3684
865.2540, 207.3298
866.3850, 208.2971
867.5160, 209.2705
868.6460, 244.2500
869.7770, 224.2358
870.9070, 257.2283
872.0370, 296.2271
873.1670, 309.2329
874.2970, 374.2451
875.4270, 420.2644
876.5570, 374.2905
877.6860, 370.3293
878.8150, 407.3772
879.9440, 459.4316
881.0730, 508.4927
882.2020, 564.5605
883.3300, 557.6504
884.4590, 580.7642
885.5870, 708.9006
886.7150, 708.0469
887.8430, 906.2026
888.9710, 956.3655
890.0990, 1149.536
891.2260, 1297.714
892.3530, 1464.900
893.4810, 1722.094
894.6080, 2107.296
895.7340, 2302.505
896.8610, 2630.724
897.9880, 2948.960
899.1140, 3218.208
900.2400, 3529.465
901.3660, 3920.731
902.4920, 4152.006
903.6180, 4335.296
904.7430, 4506.597
905.8690, 4577.908
906.9940, 4362.237
908.1190, 4223.621
909.2440, 3832.040
910.3690, 3370.490
911.4930, 2965.973
912.6180, 2552.470
913.7420, 2213.617
914.8660, 1868.511
915.9900, 1632.061
917.1140, 1389.619
918.2380, 1208.061
919.3610, 1052.779
920.4850, 919.3975
921.6080, 781.0247
922.7310, 707.6724
923.8540, 739.3384
924.9760, 771.0142
926.0990, 753.7009
927.2210, 728.4058
928.3440, 715.1602
929.4660, 756.9812
930.5880, 732.7676
931.7090, 746.6926
932.8310, 738.6521
933.9520, 777.4409
935.0740, 784.4204
936.1950, 902.4104
937.3160, 818.4111
938.4360, 755.4221
939.5570, 892.4443
940.6780, 804.4797
941.7980, 928.5256
942.9180, 977.5820
944.0380, 1072.649
945.1580, 1148.727
946.2780, 1254.815
947.3970, 1433.915
948.5170, 1617.025
949.6360, 1825.146
950.7550, 2029.278
951.8740, 2285.422
952.9930, 2639.576
954.1110, 3066.741
955.2300, 3500.917
956.3480, 4322.105
957.4660, 4910.305
958.5840, 5864.123
959.7020, 6882.451
960.8190, 8073.670
961.9370, 9025.874
963.0540, 10187.14
964.1710, 10958.44
965.2880, 11497.84
966.4050, 11530.18
967.5220, 11431.52
968.6380, 10852.87
969.7550, 10550.32
970.8710, 10151.12
971.9870, 9876.990
973.1030, 10032.57
974.2190, 10436.09
975.3340, 11013.49
976.4500, 11731.16
977.5650, 12601.42
978.6800, 13212.86
979.7950, 13828.03
980.9100, 13725.16
982.0250, 13515.40
983.1390, 12910.94
984.2530, 12029.74
985.3680, 11286.42
986.4820, 10497.49
987.5950, 9746.941
988.7090, 9097.831
989.8230, 8795.628
990.9360, 8459.762
992.0490, 8226.599
993.1620, 8143.455
994.2750, 8137.332
995.3880, 8378.233
996.5010, 8585.150
997.6130, 9055.091
998.7250, 9274.048
999.8370, 9661.029
1000.949, 9968.043
1002.061, 10028.08
1003.173, 10182.14
1004.284, 10147.21
1005.396, 9939.309
1006.507, 9327.420
1007.618, 8663.553
1008.729, 7746.707
1009.839, 7089.878
1010.950, 6385.267
1012.060, 5521.880
1013.171, 4744.111
1014.281, 4010.360
1015.391, 3581.630
1016.500, 3038.258
1017.610, 2685.329
1018.719, 2364.094
1019.829, 2062.844
1020.938, 1797.626
1022.047, 1772.007
1023.156, 1545.405
1024.264, 1524.822
1025.373, 1601.256
1026.481, 1566.707
1027.589, 1543.178
1028.697, 1672.667
1029.805, 1752.203
1030.913, 1703.566
1032.020, 1709.719
1033.128, 1665.316
1034.235, 1742.896
1035.342, 1661.492
1036.449, 1767.400
1037.556, 1754.033
1038.663, 1720.684
1039.769, 1772.353
1040.875, 1770.973
1041.981, 1819.650
1043.087, 1768.033
1044.193, 1834.697
1045.299, 1819.029
1046.404, 1712.648
1047.510, 1856.655
1048.615, 1803.302
1049.720, 1830.119
1050.825, 2032.986
1051.930, 2127.258
1053.034, 2277.905
1054.139, 2422.787
1055.243, 2482.057
1056.347, 2603.900
1057.451, 2697.824
1058.555, 2713.859
1059.658, 2707.950
1060.762, 2660.782
1061.865, 2571.272
1062.968, 2410.374
1064.071, 2271.924
1065.174, 2172.151
1066.277, 1824.180
1067.380, 1692.215
1068.482, 1490.261
1069.584, 1353.338
1070.686, 1246.444
1071.788, 1207.039
1072.890, 1210.484
1073.992, 1286.306
1075.093, 1373.419
1076.194, 1564.537
1077.295, 1784.664
1078.396, 2179.938
1079.497, 2337.085
1080.598, 2808.306
1081.698, 3274.470
1082.799, 3496.766
1083.899, 3704.020
1084.999, 3844.209
1086.099, 3678.463
1087.199, 3496.670
1088.298, 3118.926
1089.398, 2835.428
1090.497, 2403.191
1091.596, 2062.719
1092.695, 1819.114
1093.794, 1666.646
1094.892, 1321.175
1095.991, 1324.709
1097.089, 1174.127
1098.187, 1135.811
1099.285, 1048.309
1100.383, 994.0098
1101.481, 973.3550
1102.579, 987.6157
1103.676, 950.2517
1104.773, 960.8564
1105.870, 965.7451
1106.967, 933.8438
1108.064, 937.2039
1109.161, 839.4751
1110.257, 746.0918
1111.353, 649.1609
1112.449, 674.9922
1113.545, 602.3203
1114.641, 527.4717
1115.737, 438.5640
1116.832, 362.6487
1117.928, 363.6790
1119.023, 257.6450
1120.118, 324.6541
1121.213, 239.8040
1122.308, 181.7637
1123.402, 165.8716
1124.497, 151.8599
1125.591, 110.3469
1126.685, 139.7458
1127.779, 123.7036
1128.873, 140.0305
1129.967, 88.95654
1131.060, 103.1968
1132.153, 39.10254
1133.247, 81.42407
1134.340, 82.39600
1135.433, 18.37988
1136.525, 24.30298
1137.618, 37.56787
1138.710, 25.48804
1139.802, 54.64624
1140.895, 90.76978
1141.987, 40.92212
1143.078, 19.02148
1144.170, 33.87183
1145.261, 104.8911
1146.353, 49.87500
1147.444, 74.97949
1148.535, 80.90747
1149.626, 74.91016
1150.716, 16.93384
1151.807, 17.05664
1152.897, 28.77881
1153.988, 33.70117
1155.078, 32.42480
1156.168, 47.23901
1157.257, 51.15820
1158.347, 73.24414
1159.436, 26.15161
1160.526, 0.4335940
1161.615, 40.65869
1162.704, 17.79761
1163.793, 0.1806640
1164.881, 4.021240
1165.970, 6.969238
1167.058, 28.13159
1168.147, 13.06714
1169.235, 7.182617
1170.323, 32.39062
1171.410, 98.92432
1172.498, 35.11133
1173.585, 29.45117
1174.673, 48.88770
1175.760, 10.22583
1176.847, 29.76440
1177.934, 19.07422
1179.020, 44.24463
1180.107, 37.14502
1181.193, 12.87964
1182.279, 51.48267
1183.365, 56.52344
1184.451, 36.69580
1185.537, 32.72998
1186.623, 25.03760
1187.708, 51.54102
1188.793, 10.98926
1189.878, 33.37231
1190.963, 50.63672
1192.048, 47.14429
1193.133, 13.05811
1194.217, 1.255859
1195.302, 72.47852
1196.386, 43.58179
1197.470, 53.84375
1198.554, 58.08862
1199.638, 45.11060
1200.721, 42.22949
1201.805, 23.66772
1202.888, 7.652832
1203.971, 82.68188
1205.054, 56.79346
1206.137, 104.7368
1207.219, 81.66846
1208.302, 29.58740
1209.384, 87.53223
1210.466, 49.43701
1211.548, 81.31592
1212.630, 39.18213
1213.712, 52.70288
1214.794, 75.87207
1215.875, 59.69678
1216.956, 77.50806
1218.037, 66.30615
1219.118, 27.09009
1220.199, 1.142578
1221.280, 29.59717
1222.360, 57.32593
1223.441, 6.114990
1224.521, 9.095947
1225.601, 58.57178
1226.681, 52.79590
1227.760, 45.77783
1228.840, 94.33398
1229.919, 47.87476
1230.999, 31.39771
1232.078, 21.09912
1233.157, 80.36035
1234.236, 106.8030
1235.314, 45.22974
1236.393, 7.637207
1237.471, 27.98486
1238.549, 9.656494
1239.627, 1.631592
1240.705, 12.88501
1241.783, 94.10864
1242.860, 35.31421
1243.938, 46.49707
1245.015, 50.34155
1246.092, 57.76221
1247.169, 67.01221
1248.246, 89.07471
1249.323, 83.11841
1250.399, 62.14233
1251.475, 103.1453
1252.552, 70.12842
1253.628, 100.0906
1254.703, 41.10229
1255.779, 46.02026
1256.855, 110.9141
1257.930, 51.79004
1259.005, 131.6426
1260.080, 38.47681
1261.155, 18.71484
1262.230, 55.04272
1263.305, 112.8130
1264.379, 110.5273
1265.454, 136.2217
1266.528, 61.89551
1267.602, 132.5464
1268.676, 75.17749
1269.750, 79.78613
1270.823, 60.37476
1271.897, 135.7463
1272.970, 154.8896
1274.043, 99.64575
1275.116, 108.2800
1276.189, 75.80249
1277.261, 78.06982
1278.334, 82.74414
1279.406, 76.74780
1280.478, 98.98779
1281.550, 107.1309
1282.622, 111.3357
1283.694, 107.8184
1284.766, 111.1313
1285.837, 85.42407
1286.908, 60.69849
1287.979, 87.19507
1289.050, 46.42554
1290.121, 85.60254
1291.192, 89.94995
1292.262, 67.50391
1293.333, 90.60889
1294.403, 70.34424
1295.473, 75.82568
1296.543, 45.60938
1297.613, 50.66309
1298.682, 44.89014
1299.752, 116.6980
1300.821, 69.74927
