##NAMES=Axinite-(Fe)
##RRUFFID=R040074
##IDEAL CHEMISTRY=Ca_4_Fe^2+^_2_Al_4_[B_2_Si_8_O_30_](OH)_2_
##LOCALITY=Luning, Nevada, USA
##OWNER=RRUFF
##SOURCE=University of Arizona Mineral Museum
##DESCRIPTION=Pale brown wedge-shaped crystal
##STATUS=The identification of this mineral has been confirmed by X-ray diffraction and chemical analysis
##URL=rruff.info/R040074
##MEASURED CHEMISTRY=(Ca_0.98_Mn_0.01_)_2_(Fe_0.41_Mg_0.39_Mn_0.20_)Al_1.95_B_1.20_Si_3.90_O_15_(OH)
##PIN_ID=M00342
##ORIENTATION=Laser parallel to -a* (-1 0 0). Fiducial mark perpendicular to laser is parallel to b [0 1 0]
99.453, 0.000
100.848, 19.065
102.242, 363.628
103.636, 906.241
105.030, 2319.039
106.423, 3773.906
107.817, 5688.677
109.210, 9293.694
110.603, 9535.095
111.996, 8756.473
113.388, 8010.211
114.780, 7030.857
116.172, 6695.354
117.564, 6022.344
118.956, 5300.609
120.347, 4441.097
121.738, 4217.451
123.129, 3412.798
124.519, 3068.379
125.910, 2215.850
127.300, 1816.488
128.690, 1421.364
130.080, 891.351
131.469, 847.159
132.858, 260.867
134.248, 204.104
135.636, 364.180
137.025, 531.511
138.413, 1256.445
139.801, 1989.282
141.189, 2809.321
142.577, 3524.342
143.964, 4383.820
145.352, 4577.888
146.739, 4714.107
148.125, 4981.029
149.512, 4968.709
150.898, 5316.967
152.284, 4975.862
153.670, 4815.361
155.056, 4135.427
156.441, 3916.031
157.827, 3497.149
159.212, 3158.758
160.596, 2960.857
161.981, 2823.450
163.365, 2976.473
164.749, 3149.824
166.133, 4498.270
167.517, 6143.159
168.900, 8045.629
170.283, 9138.562
171.666, 9491.931
173.049, 8585.721
174.431, 7009.912
175.813, 5454.477
177.195, 3899.394
178.577, 2474.652
179.959, 1410.237
181.340, 626.140
182.721, 47.671
184.102, 451.189
185.483, 634.324
186.863, 817.043
188.244, 919.340
189.624, 501.221
191.003, 192.697
192.383, 416.212
193.762, 565.492
195.141, 575.111
196.520, 485.046
197.899, 165.274
199.277, 195.775
200.656, 326.536
202.034, 737.542
203.411, 1168.778
204.789, 2010.185
206.166, 2911.690
207.543, 3893.292
208.920, 5034.986
210.297, 6066.779
211.673, 6848.668
213.049, 7450.655
214.425, 7832.743
215.801, 7914.927
217.176, 7187.198
218.552, 6389.754
219.927, 5532.751
221.302, 4336.191
222.676, 3489.942
224.051, 2353.715
225.425, 1816.789
226.799, 1088.658
228.173, 579.730
229.546, 170.827
230.919, 97.887
232.292, 236.356
233.665, 174.251
235.038, 278.559
236.410, 409.670
237.782, 936.388
239.154, 1100.862
240.526, 1375.414
241.898, 1690.027
243.269, 1714.698
244.640, 2279.428
246.011, 2074.215
247.381, 2389.057
248.752, 2703.770
250.122, 3248.316
251.492, 3602.924
252.861, 4177.592
254.231, 4552.314
255.600, 4617.098
256.969, 4601.935
258.338, 4596.824
259.707, 4471.770
261.075, 4556.764
262.443, 4841.811
263.811, 5746.903
265.179, 6251.725
266.546, 7577.986
267.914, 8346.229
269.281, 9535.497
270.647, 10045.500
272.014, 10766.031
273.380, 11316.952
274.747, 10858.161
276.113, 10639.572
277.478, 9721.107
278.844, 8892.689
280.209, 7674.294
281.574, 6385.898
282.939, 5377.490
284.304, 4749.059
285.668, 4110.592
287.032, 4221.934
288.396, 4252.998
289.760, 4593.828
291.123, 4944.453
292.487, 5474.905
293.850, 6205.209
295.212, 6725.381
296.575, 7675.442
297.937, 7885.401
299.300, 8295.255
300.662, 8095.020
302.023, 8204.705
303.385, 7984.491
304.746, 7384.047
306.107, 7343.320
307.468, 6461.137
308.829, 6376.976
310.189, 5991.953
311.549, 6117.027
312.909, 6642.199
314.269, 7497.456
315.629, 9032.809
316.988, 10558.249
318.347, 12023.771
319.706, 13009.375
321.065, 13035.055
322.423, 12030.814
323.781, 10366.648
325.139, 8982.550
326.497, 7378.527
327.855, 6064.572
329.212, 5400.686
330.569, 4776.559
331.926, 4512.354
333.283, 4628.431
334.639, 4788.599
335.995, 5375.367
337.351, 6304.894
338.707, 7660.256
340.063, 9384.661
341.418, 11414.927
342.773, 13072.287
344.128, 13810.854
345.483, 14088.160
346.837, 12483.336
348.192, 11352.552
349.546, 9631.359
350.899, 8278.688
352.253, 7119.988
353.606, 6277.617
354.960, 5274.562
356.313, 3731.947
357.665, 2719.443
359.018, 1718.034
360.370, 1170.896
361.722, 599.696
363.074, 327.744
364.426, 210.235
365.777, 69.809
367.128, 104.804
368.479, 255.053
369.830, 490.627
371.181, 853.336
372.531, 993.273
373.881, 1110.322
375.231, 1128.966
376.581, 1038.081
377.930, 1085.986
379.280, 883.288
380.629, 1150.606
381.977, 1387.939
383.326, 2105.286
384.674, 3132.642
386.023, 4000.008
387.370, 5577.381
388.718, 6414.766
390.066, 7162.167
391.413, 7459.588
392.760, 7347.028
394.107, 6715.598
395.454, 5905.672
396.800, 5259.822
398.146, 4537.326
399.492, 4164.836
400.838, 3752.354
402.184, 3529.872
403.529, 3167.396
404.874, 2724.922
406.219, 2432.450
407.564, 2009.980
408.908, 1837.511
410.252, 2105.044
411.596, 2192.578
412.940, 3030.114
414.284, 3867.652
415.627, 4705.190
416.970, 5962.730
418.313, 6290.270
419.656, 6887.809
420.999, 7085.346
422.341, 7512.883
423.683, 8400.420
425.025, 8917.951
426.367, 10005.481
427.708, 10383.015
429.049, 11560.550
430.390, 11838.068
431.731, 11745.571
433.072, 11063.052
434.412, 9640.509
435.752, 8407.934
437.092, 6595.336
438.432, 5422.708
439.772, 5210.049
441.111, 4767.357
442.450, 5144.637
443.789, 5461.881
445.127, 5419.095
446.466, 4996.275
447.804, 4313.423
449.142, 3230.537
450.480, 2457.621
451.817, 1814.674
453.155, 1511.697
454.492, 1158.690
455.829, 1135.654
457.166, 1032.590
458.502, 929.496
459.838, 666.374
461.175, 483.224
462.510, 400.045
463.846, 246.839
465.181, 353.603
466.517, 350.338
467.852, 747.048
469.186, 1263.737
470.521, 1000.419
471.855, 1297.096
473.190, 1034.591
474.523, 1151.633
475.857, 1029.759
477.191, 1046.533
478.524, 1423.354
479.857, 1680.229
481.190, 2217.179
482.523, 2884.175
483.855, 3161.307
485.187, 3698.495
486.519, 3175.801
487.851, 2783.234
489.183, 1850.684
490.514, 1178.246
491.845, 645.841
493.176, 293.471
494.507, 18.834
495.837, 281.196
497.168, 163.748
498.498, 95.389
499.828, 237.591
501.157, 169.762
502.487, 121.783
503.816, 25.784
505.145, 162.475
506.474, 99.135
507.802, 325.823
509.131, 152.652
510.459, 239.679
511.787, 226.953
513.115, 284.494
514.442, 372.277
515.770, 260.136
517.097, 247.998
518.424, 75.859
519.750, 26.320
521.077, 71.467
522.403, 104.945
523.729, 333.167
525.055, 275.799
526.381, 378.651
527.706, 451.783
529.031, 535.230
530.356, 329.042
531.681, 443.110
533.006, 77.496
534.330, 102.008
535.654, 93.342
536.978, 298.640
538.302, 733.897
539.625, 999.122
540.949, 1324.311
542.272, 1649.465
543.595, 2214.585
544.917, 2229.670
546.240, 2414.719
547.562, 2429.730
548.884, 2114.707
550.206, 2299.647
551.527, 1824.551
552.849, 2019.416
554.170, 1994.288
555.491, 2699.201
556.812, 3034.141
558.132, 3799.042
559.453, 4343.904
560.773, 4698.725
562.093, 4713.510
563.412, 4138.252
564.732, 3462.956
566.051, 3177.620
567.370, 2452.244
568.689, 2626.827
570.008, 2291.369
571.326, 2575.869
572.644, 2740.329
573.963, 2604.747
575.280, 2659.123
576.598, 2263.457
577.915, 2277.749
579.233, 2231.998
580.550, 2046.205
581.866, 2270.369
583.183, 2184.489
584.499, 2588.567
585.815, 3012.601
587.131, 2926.590
588.447, 3410.535
589.763, 3304.436
591.078, 2828.293
592.393, 2572.104
593.708, 1845.870
595.022, 1619.983
596.337, 1093.661
597.651, 1037.293
598.965, 1020.882
600.279, 924.424
601.593, 947.919
602.906, 791.370
604.219, 814.775
605.532, 1288.135
606.845, 1391.449
608.158, 1844.719
609.470, 1807.941
610.782, 2081.119
612.094, 2174.250
613.406, 2187.334
614.718, 2420.373
616.029, 2493.365
617.340, 2626.312
618.651, 2879.213
619.962, 2662.066
621.272, 2894.875
622.582, 2387.467
623.892, 2160.180
625.202, 1773.214
626.512, 965.834
627.821, 1019.421
629.131, 642.929
630.440, 367.233
631.749, 486.459
633.057, 232.744
634.366, 722.457
635.674, 677.963
636.982, 1054.288
638.290, 1507.088
639.597, 1681.934
640.905, 2148.957
642.212, 2287.376
643.519, 2739.830
644.825, 2825.035
646.132, 2483.502
647.438, 2465.445
648.744, 1887.567
650.050, 1700.589
651.356, 1431.204
652.662, 890.142
653.967, 1043.227
655.272, 531.576
656.577, 633.647
657.882, 566.668
659.186, 483.823
660.490, 544.127
661.794, 752.957
663.098, 823.038
664.402, 1043.741
665.705, 1214.973
667.009, 1768.472
668.312, 2022.619
669.614, 2764.535
670.917, 3537.645
672.219, 4490.129
673.522, 6207.404
674.824, 6703.672
676.125, 7913.307
677.427, 8219.947
678.728, 7789.232
680.030, 7149.361
681.331, 5934.943
682.631, 5163.451
683.932, 4085.630
685.232, 3282.849
686.532, 2934.190
687.832, 2338.577
689.132, 2265.484
690.432, 2035.240
691.731, 2033.367
693.030, 2110.983
694.329, 2219.771
695.628, 2469.127
696.926, 2908.424
698.224, 3177.666
699.522, 4036.854
700.820, 4575.986
702.118, 5955.064
703.415, 7554.086
704.713, 9063.056
706.010, 11551.967
707.307, 14240.824
708.603, 18969.633
709.900, 23228.379
711.196, 28207.074
712.492, 32645.715
713.788, 35264.301
715.083, 36322.828
716.379, 33051.312
717.674, 29849.738
718.969, 24918.107
720.264, 19806.426
721.558, 16014.687
722.853, 12812.895
724.147, 10021.053
725.441, 8239.155
726.735, 6527.205
728.028, 5385.205
729.322, 4303.150
730.615, 3631.045
731.908, 2888.886
733.201, 2646.676
734.493, 2274.414
735.785, 1752.100
737.078, 1509.734
738.370, 1467.316
739.661, 974.850
740.953, 1222.330
742.244, 1079.762
743.535, 747.143
744.826, 994.473
746.117, 551.752
747.407, 798.982
748.698, 806.164
749.988, 443.297
751.278, 810.375
752.567, 687.406
753.857, 774.385
755.146, 1001.318
756.435, 948.201
757.724, 1415.039
759.013, 1191.826
760.301, 1338.564
761.590, 1725.258
762.878, 1771.902
764.165, 2168.498
765.453, 2525.051
766.741, 2481.555
768.028, 2678.012
769.315, 2524.420
770.602, 2500.785
771.888, 2137.102
773.175, 1863.375
774.461, 1359.602
775.747, 1075.781
777.033, 911.920
778.319, 658.010
779.604, 414.059
780.889, 500.057
782.174, 256.012
783.459, 261.914
784.744, 87.762
786.028, 27.268
787.312, 18.066
788.596, 197.758
789.880, 132.361
791.164, 147.129
792.447, 252.066
793.730, 127.227
795.013, 482.549
796.296, 188.211
797.579, 414.062
798.861, 460.221
800.143, 36.707
801.425, 413.297
802.707, 100.191
803.989, 117.223
805.270, 244.396
806.551, 58.223
807.832, 20.812
809.113, 333.424
810.394, 465.006
811.674, 467.049
812.954, 808.922
814.234, 360.521
815.514, 542.424
816.794, 575.131
818.073, 167.807
819.352, 260.443
820.631, 16.955
821.910, 24.424
823.189, 8.031
824.467, 329.568
825.745, 2.600
827.023, 85.291
828.301, 73.281
829.578, 128.639
830.856, 169.477
832.133, 132.328
833.410, 104.102
834.687, 115.902
835.963, 237.777
837.240, 169.715
838.516, 221.758
839.792, 503.910
841.068, 286.199
842.343, 708.586
843.618, 581.086
844.894, 923.607
846.169, 956.174
847.443, 1028.723
848.718, 1321.277
849.992, 1363.811
851.266, 1526.320
852.540, 1758.809
853.814, 1561.273
855.088, 1663.721
856.361, 1396.152
857.634, 1628.562
858.907, 1860.992
860.180, 1683.400
861.453, 1775.809
862.725, 1718.199
863.997, 1870.568
865.269, 1932.965
866.541, 1905.312
867.812, 1877.744
869.084, 1900.188
870.355, 1852.613
871.626, 1895.033
872.897, 1927.439
874.167, 1950.508
875.438, 2068.367
876.708, 2074.631
877.978, 2187.012
879.248, 2319.387
880.517, 2111.746
881.787, 2334.117
883.056, 2096.484
884.325, 2398.838
885.594, 2221.188
886.862, 2393.527
888.130, 2485.852
889.399, 2548.166
890.667, 3090.469
891.934, 3272.775
893.202, 3385.076
894.469, 4057.373
895.737, 4369.703
897.004, 5052.025
898.270, 5694.336
899.537, 6406.676
900.803, 7189.002
902.070, 7291.326
903.336, 7490.273
904.601, 7765.580
905.867, 7097.898
907.132, 6860.203
908.398, 6252.502
909.663, 5514.795
910.928, 4967.078
912.192, 4269.361
913.457, 4061.639
914.721, 3633.904
915.985, 3086.170
917.249, 2938.428
918.512, 3260.676
919.776, 2712.926
921.039, 2575.168
922.302, 2207.410
923.565, 2649.650
924.827, 2261.883
926.090, 2644.117
927.352, 2806.350
928.614, 2648.574
929.876, 3060.820
931.138, 2733.061
932.399, 3144.934
933.660, 3177.172
934.922, 2838.391
936.182, 3219.646
937.443, 3140.045
938.704, 3105.477
939.964, 3523.799
941.224, 3128.633
942.484, 3497.623
943.744, 3855.762
945.003, 3997.371
946.262, 4786.889
947.521, 5024.184
948.780, 5750.031
950.039, 6371.809
951.298, 6950.785
952.556, 7846.447
953.814, 8378.594
955.072, 8830.510
956.330, 10401.482
957.587, 10904.602
958.845, 13935.324
960.102, 16205.367
961.359, 16147.402
962.615, 17599.895
963.872, 19012.420
965.128, 19214.961
966.384, 19087.256
967.640, 17999.840
968.896, 17062.438
970.152, 16474.043
971.407, 15766.062
972.662, 16355.039
973.917, 16153.668
975.172, 17684.408
976.427, 18594.141
977.681, 19094.799
978.935, 20000.531
980.189, 19126.756
981.443, 19118.504
982.697, 17115.773
983.950, 15857.625
985.203, 14631.906
986.456, 13463.762
987.709, 12546.168
988.962, 11961.088
990.214, 10903.516
991.467, 10836.482
992.719, 10331.412
993.971, 9924.457
995.222, 9937.770
996.474, 9814.043
997.725, 10047.699
998.976, 10396.773
1000.227, 10460.480
1001.478, 11124.336
1002.728, 10358.078
1003.978, 10081.295
1005.229, 9815.562
1006.479, 8700.486
1007.728, 8203.766
1008.978, 7296.762
1010.227, 6310.098
1011.476, 5738.289
1012.725, 4912.324
1013.974, 4396.326
1015.223, 3819.398
1016.471, 3268.660
1017.719, 3392.262
1018.967, 2734.562
1020.215, 2358.145
1021.462, 2495.021
1022.710, 2129.285
1023.957, 2383.445
1025.204, 2215.107
1026.451, 1789.414
1027.697, 2293.984
1028.944, 1700.213
1030.190, 1924.098
1031.436, 2203.768
1032.682, 1739.875
1033.928, 2273.869
1035.173, 2320.121
1036.418, 2114.555
1037.663, 2808.449
1038.908, 2463.396
1040.153, 2917.303
1041.398, 2975.320
1042.642, 2890.959
1043.886, 3306.010
1045.130, 2800.898
1046.374, 2995.623
1047.617, 3500.070
1048.860, 3032.842
1050.104, 3646.840
1051.347, 3502.533
1052.589, 3719.264
1053.832, 4353.637
1055.074, 4229.828
1056.316, 4843.820
1057.558, 4727.973
1058.800, 4893.266
1060.042, 5397.258
1061.283, 4972.908
1062.524, 4847.945
1063.765, 4921.934
1065.006, 4077.250
1066.247, 3861.527
1067.487, 3465.857
1068.728, 2951.748
1069.968, 3155.768
1071.208, 2681.258
1072.447, 2937.004
1073.687, 3111.000
1074.926, 3136.850
1076.165, 3701.160
1077.404, 3995.688
1078.643, 4455.840
1079.881, 5189.805
1081.120, 5574.744
1082.358, 6230.238
1083.596, 6594.359
1084.834, 6479.414
1086.071, 6083.393
1087.309, 5228.100
1088.546, 4433.910
1089.783, 4077.953
1091.020, 3021.980
1092.256, 3170.031
1093.493, 2604.156
1094.729, 1980.152
1095.965, 1965.668
1097.201, 1390.633
1098.436, 1479.039
1099.672, 1503.762
1100.907, 1029.014
1102.142, 1206.371
1103.377, 1111.207
1104.612, 938.158
1105.846, 1283.867
1107.081, 778.828
1108.315, 745.410
1109.549, 700.740
1110.782, 386.117
1112.016, 713.502
1113.249, 268.428
1114.483, 194.701
1115.716, 450.246
1116.948, 236.170
1118.181, 602.982
1119.413, 437.873
1120.646, 123.227
1121.878, 449.998
1123.110, 164.736
1124.341, 250.574
1125.573, 466.428
1126.804, 1.293
1128.035, 267.824
1129.266, 313.512
1130.497, 181.744
1131.727, 306.090
1132.957, 78.924
1134.188, 156.670
1135.418, 122.855
1136.647, 82.131
1137.877, 258.611
1139.106, 174.229
1140.335, 61.367
1141.564, 205.609
1142.793, 100.324
1144.022, 83.543
1145.250, 35.562
1146.479, 142.674
1147.707, 48.188
1148.934, 25.322
1150.162, 60.301
1151.390, 287.973
1152.617, 7.062
1153.844, 31.232
1155.071, 337.188
1156.298, 198.973
1157.524, 218.416
1158.751, 105.281
1159.977, 69.170
1161.203, 125.871
1162.428, 179.701
1163.654, 111.129
1164.879, 256.070
1166.105, 319.908
1167.330, 333.189
1168.555, 52.627
1169.779, 141.193
1171.004, 178.311
1172.228, 137.689
1173.452, 156.150
1174.676, 121.637
1175.900, 25.311
1177.123, 299.250
1178.346, 89.244
1179.570, 16.422
1180.793, 309.691
1182.015, 17.031
1183.238, 215.711
1184.460, 438.211
1185.683, 140.834
1186.905, 403.855
1188.126, 38.766
1189.348, 13.521
1190.569, 147.576
1191.791, 141.742
1193.012, 249.090
1194.233, 323.826
1195.453, 103.207
1196.674, 577.299
1197.894, 39.287
1199.114, 0.344
1200.334, 360.697
1201.554, 12.912
1202.774, 723.271
1203.993, 425.943
1205.212, 157.479
1206.431, 817.246
1207.650, 81.857
1208.869, 231.980
1210.087, 531.471
1211.305, 196.213
1212.524, 445.516
1213.741, 436.885
1214.959, 67.646
1216.177, 606.664
1217.394, 168.021
1218.611, 107.537
1219.828, 546.256
1221.045, 87.275
1222.261, 455.797
1223.478, 404.256
1224.694, 23.334
1225.910, 544.977
1227.126, 315.424
1228.342, 185.680
1229.557, 513.596
1230.772, 293.885
1231.987, 553.033
1233.202, 380.648
1234.417, 134.494
1235.631, 561.908
1236.846, 750.463
1238.060, 29.816
1239.274, 666.988
1240.488, 165.605
1241.701, 292.691
1242.915, 459.609
1244.128, 37.912
1245.341, 564.637
1246.554, 471.246
1247.767, 90.002
1248.979, 716.438
1250.191, 152.906
1251.403, 441.719
1252.615, 757.883
1253.827, 75.428
1255.039, 551.568
1256.250, 537.408
1257.461, 125.555
1258.672, 641.678
1259.883, 317.203
1261.094, 500.494
1262.304, 405.764
1263.514, 202.346
1264.724, 648.660
1265.934, 533.564
1267.144, 209.115
1268.354, 934.076
1269.563, 418.623
1270.772, 434.293
1271.981, 668.748
1273.190, 272.396
1274.398, 478.807
1275.607, 792.561
1276.815, 119.779
1278.023, 624.215
1279.231, 464.975
1280.439, 319.654
1281.646, 592.674
1282.853, 32.686
1284.060, 426.520
1285.267, 768.988
1286.474, 70.873
1287.681, 613.027
1288.887, 264.770
1290.093, 193.773
1291.299, 686.168
1292.505, 21.822
1293.711, 132.705
1294.916, 463.670
1296.121, 104.221
1297.327, 446.246
1298.531, 246.031
1299.736, 75.057
1300.941, 678.508
1302.145, 99.215
1303.349, 159.461
1304.553, 455.422
1305.757, 245.283
1306.961, 434.211
1308.164, 44.199
1309.367, 77.873
1310.570, 447.457
1311.773, 52.152
1312.976, 326.846
1314.178, 395.920
1315.381, 53.865
1316.583, 321.795
1317.785, 322.211
1318.987, 100.289
1320.188, 476.740
1321.390, 171.977
1322.591, 40.586
1323.792, 461.496
1324.993, 56.428
1326.193, 313.342
1327.394, 418.133
1328.594, 225.695
1329.794, 410.865
1330.994, 296.248
1332.194, 12.529
1333.394, 424.555
1334.593, 128.818
1335.792, 46.475
1336.991, 698.939
1338.190, 63.693
1339.389, 188.598
1340.587, 745.504
1341.786, 300.533
1342.984, 663.727
1344.182, 475.746
1345.379, 209.984
1346.577, 592.195
1347.774, 136.471
1348.972, 270.443
1350.169, 703.143
1351.365, 27.002
1352.562, 539.061
1353.759, 701.805
1354.955, 144.736
1356.151, 837.262
1357.347, 200.168
1358.543, 272.873
1359.738, 823.875
1360.934, 166.623
1362.129, 497.779
1363.324, 838.559
1364.519, 170.980
1365.713, 841.439
1366.908, 691.090
1368.102, 62.654
1369.296, 638.518
1370.490, 182.031
1371.684, 192.959
1372.877, 842.404
1374.071, 162.945
1375.264, 311.793
1376.457, 651.188
1377.650, 0.541
1378.843, 1427.145
1380.035, 362.553
1381.227, 209.967
1382.419, 987.119
1383.611, 291.688
1384.803, 636.973
1385.995, 853.182
1387.186, 310.553
1388.377, 645.617
1389.568, 850.182
1390.759, 93.867
1391.950, 891.473
1393.140, 626.229
1394.331, 160.193
1395.521, 1055.654
1396.711, 510.877
1397.900, 404.135
1399.090, 1156.656
1400.279, 181.178
1401.469, 544.584
1402.658, 701.307
1403.847, 28.680
1405.035, 873.676
1406.224, 305.518
1407.412, 327.812
1408.600, 796.258
1409.788, 456.549
1410.976, 564.387
1412.164, 909.645
1413.351, 280.889
1414.538, 535.387
1415.725, 811.508
1416.912, 118.387
1418.099, 923.215
1419.285, 491.668
1420.472, 334.127
1421.658, 959.115
1422.844, 203.498
1424.030, 641.432
1425.215, 889.955
1426.401, 229.451
1427.586, 614.236
1428.771, 600.057
1429.956, 130.797
1431.141, 958.854
1432.325, 427.902
1433.510, 214.289
1434.694, 987.139
1435.878, 558.773
1437.062, 417.621
1438.245, 880.529
1439.429, 212.982
1440.612, 797.586
1441.795, 775.148
1442.978, 9.420
1444.161, 1260.209
1445.343, 513.848
1446.526, 287.586
1447.708, 1207.775
1448.890, 362.729
1450.072, 597.512
1451.253, 980.055
1452.435, 343.139
1453.616, 856.068
1454.797, 911.861
1455.978, 29.971
1457.159, 1248.518
1458.340, 581.156
1459.520, 362.287
1460.700, 1198.518
1461.880, 611.877
1463.060, 480.516
1464.240, 1169.129
1465.420, 217.943
1466.599, 765.855
1467.778, 1066.688
1468.957, 271.178
1470.136, 1198.521
1471.315, 715.434
1472.493, 466.854
1473.671, 1184.760
1474.849, 590.797
1476.027, 441.078
1477.205, 1268.027
1478.383, 147.645
1479.560, 714.887
1480.737, 975.604
1481.914, 175.082
1483.091, 1222.316
1484.268, 660.854
1485.444, 320.520
