##NAMES=Axinite-(Fe)
##RRUFFID=R060194
##IDEAL CHEMISTRY=Ca_4_Fe^2+^_2_Al_4_[B_2_Si_8_O_30_](OH)_2_
##LOCALITY=near Dalbandi, Baluchistan Province, Pakistan
##OWNER=RRUFF
##SOURCE=Herbert Obodda
##DESCRIPTION=Brown transparent wedge-shaped single crystal
##STATUS=The identification of this mineral has been confirmed by X-ray diffraction and chemical analysis
##URL=rruff.info/R060194
##MEASURED CHEMISTRY=Ca_2.00_(Fe^2+^_0.66_Mg_0.30_Mn_0.04_)Al_2.00_BSi_4.00_O_15_(OH)
##PIN_ID=L01255
##ORIENTATION=Laser parallel to (-1 0 -1). Fiducial mark perpendicular to laser is parallel to -b [0 -1 0]
53.91000, 0.0000000E+00
55.14900, 73.82056
56.38700, 168.3247
57.62600, 251.1247
58.86400, 274.2035
60.10300, 473.0532
61.34100, 519.3777
62.57900, 383.9786
63.81700, 194.5555
65.05400, 67.49597
66.29200, 54.52930
67.52900, 127.8981
68.76700, 2.984863
70.00400, 55.56860
71.24100, 25.49915
72.47700, 47.12305
73.71400, 49.99304
74.95100, 150.6660
76.18700, 279.8823
77.42300, 374.4116
78.65900, 498.0491
79.89500, 647.6123
81.13100, 1011.942
82.36700, 1442.897
83.60200, 1916.352
84.83700, 2296.049
86.07200, 2720.328
87.30800, 3118.662
88.54200, 3515.113
89.77700, 3926.611
91.01200, 4469.086
92.24600, 4909.121
93.48000, 5858.474
94.71400, 5793.110
95.94800, 6229.218
97.18200, 6430.742
98.41600, 6483.645
99.64900, 6628.878
100.8830, 6818.392
102.1160, 6646.146
103.3490, 6569.111
104.5820, 6970.252
105.8150, 7924.548
107.0470, 9017.970
108.2800, 8823.942
109.5120, 8434.066
110.7440, 8573.818
111.9760, 6800.565
113.2080, 6442.354
114.4400, 6498.165
115.6710, 6869.984
116.9030, 6652.798
118.1340, 6482.597
119.3650, 6420.366
120.5960, 6290.090
121.8270, 6332.762
123.0580, 6354.366
124.2880, 6270.476
125.5190, 6358.337
126.7490, 6216.678
127.9790, 6151.761
129.2090, 6222.112
130.4390, 6053.685
131.6680, 6065.445
132.8980, 5868.378
134.1270, 5926.419
135.3560, 6163.539
136.5850, 6066.952
137.8140, 6369.812
139.0430, 6750.289
140.2710, 7544.452
141.5000, 8004.263
142.7280, 8244.597
143.9560, 8377.385
145.1840, 8508.636
146.4120, 8458.371
147.6390, 8875.604
148.8670, 9432.350
150.0940, 10507.61
151.3210, 12034.41
152.5490, 12941.74
153.7750, 12646.61
155.0020, 11876.03
156.2290, 10452.99
157.4550, 9505.495
158.6810, 8578.549
159.9080, 8140.151
161.1340, 7510.305
162.3590, 7357.001
163.5850, 7402.244
164.8110, 7370.031
166.0360, 7679.358
167.2610, 7746.223
168.4860, 7911.625
169.7110, 8707.560
170.9360, 9612.027
172.1610, 10497.02
173.3850, 11290.55
174.6100, 11485.60
175.8340, 11117.17
177.0580, 10277.26
178.2820, 9360.871
179.5050, 8391.996
180.7290, 7404.634
181.9520, 6438.776
183.1760, 5948.426
184.3990, 5124.578
185.6220, 4830.230
186.8450, 4526.381
188.0670, 3952.024
189.2900, 3904.158
190.5120, 3582.777
191.7340, 3591.883
192.9560, 3445.469
194.1780, 3534.461
195.4000, 4207.067
196.6220, 3485.075
197.8430, 4171.547
199.0640, 3436.482
200.2860, 3541.880
201.5070, 3784.059
202.7270, 4118.743
203.9480, 4516.988
205.1690, 4576.732
206.3890, 4961.036
207.6090, 5561.807
208.8290, 6042.406
210.0490, 6867.343
211.2690, 7590.633
212.4890, 8034.051
213.7080, 8395.244
214.9280, 8560.438
216.1470, 8973.324
217.3660, 8905.657
218.5850, 9141.950
219.8030, 8923.759
221.0220, 8464.855
222.2400, 7840.439
223.4590, 6917.893
224.6770, 5820.043
225.8950, 5085.537
227.1120, 4056.562
228.3300, 3757.796
229.5480, 3086.294
230.7650, 2656.689
231.9820, 2644.211
233.1990, 2548.271
234.4160, 2078.966
235.6330, 2147.303
236.8490, 2077.259
238.0660, 2053.825
239.2820, 2129.988
240.4980, 2186.134
241.7140, 2309.342
242.9300, 2465.826
244.1460, 2631.152
245.3610, 2865.983
246.5770, 3059.307
247.7920, 3279.105
249.0070, 3543.344
250.2220, 3910.019
251.4370, 4467.115
252.6510, 5084.613
253.8660, 5712.519
255.0800, 6324.844
256.2940, 6982.573
257.5080, 6651.708
258.7220, 7256.249
259.9360, 7746.183
261.1490, 6453.499
262.3630, 5631.186
263.5760, 5836.241
264.7890, 6152.662
266.0020, 6263.436
267.2150, 6377.557
268.4270, 6521.012
269.6400, 6593.803
270.8520, 6687.919
272.0640, 6465.360
273.2760, 6445.121
274.4880, 6115.201
275.7000, 5500.599
276.9120, 5221.311
278.1230, 4923.344
279.3340, 4345.691
280.5450, 4122.357
281.7560, 3789.340
282.9670, 3872.639
284.1780, 3925.253
285.3880, 3839.182
286.5980, 3817.418
287.8090, 3653.963
289.0190, 3230.814
290.2290, 2880.972
291.4380, 2913.430
292.6480, 2617.188
293.8570, 2379.248
295.0670, 2300.605
296.2760, 2577.258
297.4850, 2504.205
298.6930, 2758.443
299.9020, 2920.973
301.1110, 3235.791
302.3190, 3506.893
303.5270, 3893.280
304.7350, 4324.949
305.9430, 4747.898
307.1510, 5155.125
308.3580, 5496.627
309.5660, 5319.404
310.7730, 5251.453
311.9800, 4814.771
313.1870, 4922.357
314.3940, 4884.208
315.6010, 5084.324
316.8070, 5410.700
318.0130, 5987.338
319.2200, 6947.231
320.4260, 7384.381
321.6310, 7295.783
322.8370, 6781.439
324.0430, 5922.341
325.2480, 5321.494
326.4540, 4672.892
327.6590, 4062.532
328.8640, 3912.415
330.0680, 3797.538
331.2730, 3470.898
332.4780, 3837.496
333.6820, 3601.326
334.8860, 3821.389
336.0900, 4028.682
337.2940, 4337.203
338.4980, 4951.949
339.7010, 5550.923
340.9050, 6501.115
342.1080, 7608.531
343.3110, 8852.163
344.5140, 10085.02
345.7170, 10435.08
346.9200, 10448.44
348.1220, 9496.083
349.3240, 8759.021
350.5270, 7641.258
351.7290, 6934.790
352.9310, 5639.621
354.1320, 4352.756
355.3340, 3303.190
356.5350, 2395.926
357.7370, 1570.971
358.9380, 882.3350
360.1390, 595.0234
361.3400, 325.9971
362.5400, 7.255859
363.7410, 227.2090
364.9410, 367.4297
366.1410, 451.2754
367.3410, 539.9814
368.5410, 539.2422
369.7410, 485.8359
370.9400, 518.5391
372.1400, 276.3203
373.3390, 254.5430
374.5380, 64.63770
375.7370, 9.461914
376.9360, 151.8457
378.1350, 516.6533
379.3330, 563.4326
380.5310, 1010.732
381.7300, 1544.239
382.9280, 1956.954
384.1260, 2653.001
385.3230, 3466.967
386.5210, 4228.363
387.7180, 5243.302
388.9160, 5916.988
390.1130, 6555.702
391.3100, 7213.011
392.5060, 7389.885
393.7030, 7226.889
394.9000, 6876.601
396.0960, 6057.092
397.2920, 4856.133
398.4880, 3967.638
399.6840, 2925.422
400.8800, 2407.118
402.0750, 2055.629
403.2710, 1422.630
404.4660, 1396.691
405.6610, 1309.604
406.8560, 1083.500
408.0510, 903.2139
409.2450, 1240.939
410.4400, 1246.928
411.6340, 1430.521
412.8280, 1763.283
414.0220, 2001.209
415.2160, 2697.299
416.4100, 3365.549
417.6030, 4346.957
418.7970, 5153.527
419.9900, 6176.254
421.1830, 7213.135
422.3760, 8419.170
423.5690, 9562.359
424.7610, 10761.70
425.9540, 11572.18
427.1460, 12288.82
428.3380, 12461.60
429.5300, 12067.53
430.7220, 11175.59
431.9140, 9752.807
433.1050, 8208.156
434.2970, 6773.645
435.4880, 5214.270
436.6790, 4138.031
437.8700, 3365.926
439.0610, 2666.953
440.2510, 2268.113
441.4420, 1956.398
442.6320, 1779.814
443.8220, 1821.355
445.0120, 1877.023
446.2020, 1838.812
447.3910, 1873.723
448.5810, 1525.756
449.7700, 1601.906
450.9600, 1379.174
452.1490, 1276.559
453.3370, 1337.059
454.5260, 1281.672
455.7150, 1236.395
456.9030, 1297.229
458.0910, 1316.172
459.2800, 1422.223
460.4670, 1276.379
461.6550, 1044.641
462.8430, 1432.004
464.0300, 1099.469
465.2180, 1019.035
466.4050, 1093.703
467.5920, 1272.467
468.7790, 1581.326
469.9650, 1487.281
471.1520, 2017.328
472.3380, 2508.469
473.5250, 2615.701
474.7110, 3471.021
475.8970, 4010.434
477.0820, 5075.930
478.2680, 6226.512
479.4540, 7597.178
480.6390, 9027.930
481.8240, 11424.76
483.0090, 13795.67
484.1940, 16560.66
485.3780, 18558.73
486.5630, 19610.88
487.7470, 17666.10
488.9320, 14936.40
490.1160, 11737.76
491.3000, 8737.203
492.4830, 6483.711
493.6670, 4564.287
494.8500, 3496.928
496.0340, 3022.635
497.2170, 2361.402
498.4000, 1919.232
499.5820, 1823.121
500.7650, 1330.068
501.9480, 1200.076
503.1300, 951.1543
504.3120, 727.3008
505.4940, 537.4492
506.6760, 385.1777
507.8580, 149.3711
509.0390, 194.7754
510.2210, 101.9980
511.4020, 58.80078
512.5830, 146.3223
513.7640, 400.7441
514.9450, 312.8496
516.1250, 400.6074
517.3060, 483.7324
518.4860, 444.4688
519.6660, 492.9668
520.8460, 551.0605
522.0260, 482.0996
523.2060, 476.2480
524.3850, 453.5312
525.5650, 364.8281
526.7440, 320.4414
527.9230, 229.1562
529.1020, 175.8887
530.2810, 181.7207
531.4590, 137.6855
532.6380, 85.84375
533.8160, 62.00195
534.9940, 46.73242
536.1720, 106.6895
537.3500, 209.0254
538.5270, 143.6406
539.7050, 69.22070
540.8820, 117.7344
542.0590, 81.35938
543.2360, 94.09961
544.4130, 114.9355
545.5900, 176.2148
546.7660, 222.4531
547.9430, 234.4941
549.1190, 217.8516
550.2950, 303.0078
551.4710, 305.1504
552.6470, 426.2734
553.8220, 538.4004
554.9980, 780.5293
556.1730, 1062.703
557.3480, 1436.803
558.5230, 1834.941
559.6980, 2341.078
560.8730, 2900.213
562.0470, 3178.340
563.2220, 3510.459
564.3960, 3224.568
565.5700, 2994.668
566.7440, 2784.758
567.9170, 2887.836
569.0910, 2603.902
570.2640, 2797.953
571.4380, 2728.992
572.6110, 2887.014
573.7840, 3177.018
574.9570, 3122.006
576.1290, 3162.787
577.3020, 3270.926
578.4740, 2935.855
579.6460, 2914.766
580.8180, 2638.652
581.9900, 2349.518
583.1620, 2261.359
584.3330, 2073.174
585.5040, 1846.965
586.6760, 1699.729
587.8470, 1915.465
589.0180, 1929.176
590.1880, 1754.854
591.3590, 1684.506
592.5290, 1427.127
593.7000, 1127.715
594.8700, 974.2734
596.0400, 1045.797
597.2090, 1216.289
598.3790, 998.7441
599.5490, 1075.166
600.7180, 1034.553
601.8870, 1148.900
603.0560, 1402.213
604.2250, 1720.486
605.3940, 1862.719
606.5620, 2427.914
607.7300, 2856.068
608.8990, 3364.182
610.0670, 4388.256
611.2350, 4971.285
612.4020, 6225.270
613.5700, 7164.213
614.7370, 8361.113
615.9050, 9581.967
617.0720, 11007.78
618.2390, 12168.54
619.4060, 13154.25
620.5720, 13681.92
621.7390, 13406.54
622.9050, 12256.11
624.0710, 10761.64
625.2370, 8624.109
626.4030, 6992.531
627.5690, 5451.902
628.7340, 4213.893
629.9000, 3189.490
631.0650, 2477.703
632.2300, 1986.865
633.3950, 1664.973
634.5600, 1516.027
635.7240, 1460.025
636.8890, 1345.969
638.0530, 1277.859
639.2170, 1691.691
640.3810, 1636.707
641.5450, 1626.201
642.7080, 1748.660
643.8720, 1744.375
645.0350, 1892.541
646.1980, 1895.387
647.3610, 1875.617
648.5240, 1700.385
649.6870, 1320.938
650.8490, 1459.691
652.0120, 1306.906
653.1740, 1164.701
654.3360, 1237.344
655.4980, 1075.010
656.6600, 1122.277
657.8210, 1175.398
658.9830, 1375.258
660.1440, 1329.879
661.3050, 1644.410
662.4660, 1754.996
663.6270, 2003.223
664.7870, 2241.084
665.9480, 2576.498
667.1080, 3026.408
668.2680, 3521.621
669.4280, 4351.199
670.5880, 5156.539
671.7480, 5862.861
672.9070, 6923.320
674.0670, 8350.273
675.2260, 9502.230
676.3850, 10530.61
677.5440, 11019.34
678.7030, 10952.64
679.8610, 10083.61
681.0200, 9145.422
682.1780, 7792.443
683.3360, 6721.770
684.4940, 5658.723
685.6520, 4935.730
686.8090, 4341.150
687.9670, 4047.115
689.1240, 3655.064
690.2810, 3441.078
691.4380, 3579.877
692.5950, 3486.578
693.7520, 3774.061
694.9080, 4081.557
696.0650, 4321.549
697.2210, 4811.105
698.3770, 5517.719
699.5330, 6166.713
700.6880, 7245.410
701.8440, 8643.045
702.9990, 10203.62
704.1550, 12055.12
705.3100, 14401.57
706.4650, 17190.96
707.6190, 20312.28
708.7740, 24134.54
709.9290, 27590.74
711.0830, 31733.88
712.2370, 35588.95
713.3910, 38233.95
714.5450, 39158.90
715.6980, 38363.79
716.8520, 35392.61
718.0050, 31114.39
719.1580, 26591.09
720.3110, 21721.74
721.4640, 17692.32
722.6170, 14087.84
723.7700, 11093.30
724.9220, 8979.699
726.0740, 7376.039
727.2260, 6161.318
728.3780, 5071.537
729.5300, 4220.697
730.6810, 3787.797
731.8330, 3265.838
732.9840, 2669.820
734.1350, 2522.744
735.2860, 2034.609
736.4370, 1925.416
737.5880, 1481.166
738.7380, 1367.857
739.8880, 1362.490
741.0390, 1238.066
742.1890, 1290.586
743.3380, 996.0488
744.4880, 803.4551
745.6380, 926.8047
746.7870, 1116.102
747.9360, 817.3418
749.0850, 850.5254
750.2340, 918.6562
751.3830, 1027.730
752.5310, 1013.400
753.6800, 819.7168
754.8280, 1030.633
755.9760, 1092.494
757.1240, 1134.303
758.2720, 1335.061
759.4190, 1585.766
760.5670, 1611.422
761.7140, 1709.025
762.8610, 1762.578
764.0080, 1830.084
765.1550, 1926.539
766.3020, 1981.945
767.4480, 1976.305
768.5950, 1941.613
769.7410, 1886.879
770.8870, 1553.096
772.0330, 1491.264
773.1780, 1189.389
774.3240, 1191.467
775.4690, 899.5020
776.6140, 745.4902
777.7590, 473.4375
778.9040, 388.3359
780.0490, 152.1836
781.1940, 182.9531
782.3380, 59.34766
783.4820, 89.81250
784.6260, 131.4473
785.7700, 66.28320
786.9140, 66.26367
788.0580, 266.4004
789.2010, 110.7363
790.3450, 278.2012
791.4880, 147.8574
792.6310, 428.5820
793.7730, 281.5332
794.9160, 330.6152
796.0590, 506.8281
797.2010, 319.2715
798.3430, 413.8262
799.4850, 503.5312
800.6270, 422.4414
801.7690, 325.5156
802.9100, 372.7012
804.0520, 301.0430
805.1930, 218.5098
806.3340, 91.07422
807.4750, 23.31836
808.6160, 148.7305
809.7560, 348.1836
810.8970, 436.6797
812.0370, 649.1855
813.1770, 1005.709
814.3170, 1119.238
815.4570, 1006.758
816.5960, 913.2773
817.7360, 1122.818
818.8750, 807.3672
820.0140, 639.9316
821.1530, 734.5176
822.2920, 399.1152
823.4310, 246.7168
824.5690, 154.3203
825.7070, 63.91406
826.8460, 208.5000
827.9840, 216.0762
829.1220, 125.6484
830.2590, 142.2012
831.3970, 12.73633
832.5340, 47.24414
833.6710, 84.72656
834.8080, 63.19336
835.9450, 149.4512
837.0820, 307.0762
838.2190, 288.5020
839.3550, 345.9180
840.4910, 405.3281
841.6270, 305.7305
842.7630, 497.1270
843.8990, 502.5176
845.0350, 504.9043
846.1700, 620.2891
847.3060, 907.6680
848.4410, 968.0430
849.5760, 1198.418
850.7100, 1473.791
851.8450, 1592.164
852.9800, 1565.535
854.1140, 1629.908
855.2480, 1784.283
856.3820, 1816.660
857.5160, 1932.039
858.6500, 1893.422
859.7830, 2058.811
860.9170, 2044.203
862.0500, 2056.598
863.1830, 2089.004
864.3160, 2149.414
865.4480, 2213.832
866.5810, 2270.260
867.7130, 1983.697
868.8460, 2001.145
869.9780, 1999.605
871.1100, 2124.076
872.2410, 1957.561
873.3730, 2004.055
874.5050, 1805.564
875.6360, 1938.088
876.7670, 1858.627
877.8980, 1785.184
879.0290, 1857.758
880.1590, 1860.354
881.2900, 1624.965
882.4200, 1828.598
883.5500, 2050.246
884.6800, 1971.916
885.8100, 2323.604
886.9400, 2183.312
888.0690, 2396.047
889.1990, 2813.818
890.3280, 3335.619
891.4570, 3518.480
892.5860, 4184.367
893.7140, 4470.287
894.8430, 5148.246
895.9710, 5903.232
897.1000, 6923.279
898.2280, 7718.357
899.3560, 8506.781
900.4830, 9289.662
901.6110, 9997.875
902.7380, 10819.12
903.8660, 11489.41
904.9930, 12137.73
906.1200, 12486.08
907.2460, 12547.47
908.3730, 11977.90
909.5000, 11299.35
910.6260, 10383.88
911.7520, 9463.453
912.8780, 8467.066
914.0040, 7471.566
915.1290, 6361.570
916.2550, 5544.590
917.3800, 4878.348
918.5050, 4305.637
919.6300, 3922.230
920.7550, 3403.439
921.8800, 3099.967
923.0040, 3037.764
924.1290, 2924.248
925.2530, 2839.762
926.3770, 2742.039
927.5010, 2859.438
928.6250, 3003.229
929.7480, 3180.186
930.8720, 3433.346
931.9950, 3699.740
933.1180, 3595.195
934.2410, 3648.045
935.3640, 3479.541
936.4860, 3755.414
937.6090, 3753.664
938.7310, 4122.250
939.8530, 4210.635
940.9750, 4643.559
942.0970, 5072.809
943.2180, 5618.775
944.3400, 6528.955
945.4610, 7429.611
946.5820, 8421.420
947.7030, 9556.150
948.8240, 10755.94
949.9450, 12079.35
951.0650, 13491.24
952.1860, 15058.90
953.3060, 16697.97
954.4260, 18374.33
955.5460, 20085.75
956.6650, 21866.25
957.7850, 23650.82
958.9040, 25781.37
960.0230, 27953.58
961.1420, 31115.18
962.2610, 33175.96
963.3800, 35455.88
964.4990, 37370.45
965.6170, 37599.25
966.7350, 37200.05
967.8530, 34942.38
968.9710, 32189.15
970.0890, 29259.88
971.2070, 26177.24
972.3240, 23927.91
973.4410, 21643.65
974.5580, 20989.49
975.6750, 20109.40
976.7920, 20231.38
977.9090, 20381.43
979.0250, 20599.58
980.1410, 20639.79
981.2580, 20626.11
982.3740, 19974.50
983.4890, 19172.96
984.6050, 18168.51
985.7200, 16983.13
986.8360, 16303.84
987.9510, 16149.64
989.0660, 15525.52
990.1810, 15342.49
991.2950, 15291.55
992.4100, 14982.68
993.5240, 14692.89
994.6390, 13943.20
995.7530, 13300.57
996.8660, 12860.05
997.9800, 12480.63
999.0940, 12552.34
1000.207, 12108.16
1001.320, 12423.08
1002.433, 12055.09
1003.546, 12104.18
1004.659, 11809.34
1005.772, 11110.59
1006.884, 10353.92
1007.996, 9764.328
1009.108, 8884.812
1010.220, 7959.387
1011.332, 7130.781
1012.444, 6360.512
1013.555, 5652.961
1014.666, 5062.566
1015.777, 4344.832
1016.888, 4032.883
1017.999, 3564.016
1019.110, 3097.223
1020.220, 2878.510
1021.331, 2509.998
1022.441, 2322.957
1023.551, 2077.441
1024.661, 1723.363
1025.770, 1747.336
1026.880, 1859.801
1027.989, 1821.771
1029.098, 1561.680
1030.207, 1572.059
1031.316, 1542.596
1032.425, 1292.367
1033.533, 1271.529
1034.642, 1233.332
1035.750, 1462.730
1036.858, 1443.742
1037.966, 1493.436
1039.073, 1778.861
1040.181, 1519.207
1041.288, 1570.953
1042.396, 1535.771
1043.503, 1745.662
1044.610, 1987.285
1045.716, 2087.379
1046.823, 2555.518
1047.929, 2535.021
1049.036, 2652.275
1050.142, 3033.008
1051.248, 3382.439
1052.353, 3502.377
1053.459, 4175.516
1054.564, 4339.830
1055.670, 4870.344
1056.775, 4981.051
1057.880, 5357.820
1058.985, 5703.594
1060.089, 5531.844
1061.194, 5809.430
1062.298, 5492.719
1063.402, 5470.262
1064.506, 5202.031
1065.610, 4757.379
1066.713, 4455.949
1067.817, 3968.869
1068.920, 3404.010
1070.023, 3246.352
1071.126, 3113.225
1072.229, 2588.928
1073.332, 2553.580
1074.435, 2801.516
1075.537, 2681.492
1076.639, 2922.457
1077.741, 2807.207
1078.843, 3334.195
1079.945, 3628.402
1081.046, 3748.295
1082.148, 4179.855
1083.249, 4271.660
1084.350, 4718.225
1085.451, 4164.967
1086.551, 4279.633
1087.652, 4178.346
1088.752, 3408.227
1089.853, 2732.164
1090.953, 2332.783
1092.053, 1930.838
1093.152, 1525.799
1094.252, 1545.656
1095.351, 1476.705
1096.451, 1345.799
1097.550, 1397.938
1098.649, 1390.133
1099.748, 1401.365
1100.846, 1533.645
1101.945, 1612.621
1103.043, 1565.986
1104.141, 1775.393
1105.239, 1836.533
1106.337, 2181.146
1107.434, 2030.791
1108.532, 2092.348
1109.629, 2055.049
1110.726, 2022.678
1111.823, 1711.598
1112.920, 1767.648
1114.017, 1568.379
1115.113, 1655.139
1116.210, 1383.936
1117.306, 1345.764
1118.402, 1304.809
1119.498, 1281.580
1120.593, 1215.691
1121.689, 1136.584
1122.784, 1102.994
1123.879, 1051.449
1124.974, 1035.914
1126.069, 905.6914
1127.164, 747.3965
1128.259, 681.1035
1129.353, 454.8242
1130.447, 344.5117
1131.541, 339.6172
1132.635, 159.4355
1133.729, 415.4434
1134.822, 208.0352
1135.916, 200.4609
1137.009, 303.0059
1138.102, 257.3105
1139.195, 62.74023
1140.288, 312.0781
1141.380, 152.8555
1142.473, 52.77148
1143.565, 235.6016
1144.657, 45.35742
1145.749, 56.03906
1146.841, 40.44531
1147.932, 79.86523
1149.024, 72.30469
1150.115, 122.7520
1151.206, 54.38477
1152.297, 7.128906
1153.388, 132.6523
1154.479, 52.13867
1155.569, 231.6914
1156.659, 18.31641
1157.750, 38.93750
1158.839, 137.5605
1159.929, 49.78125
1161.019, 199.8027
1162.108, 24.51758
1163.198, 117.2344
1164.287, 164.9824
1165.376, 23.78516
1166.465, 41.62109
1167.553, 83.43750
1168.642, 101.7188
1169.730, 57.87500
1170.818, 54.96875
1171.906, 24.34570
1172.994, 104.4805
1174.082, 173.2578
1175.170, 72.08984
1176.257, 30.06250
1177.344, 355.8496
1178.431, 34.00391
1179.518, 63.97852
1180.605, 76.32617
1181.691, 206.4375
1182.778, 1.804688
1183.864, 50.71289
1184.950, 2.003906
1186.036, 147.9922
1187.122, 64.39062
1188.207, 59.83594
1189.292, 104.3281
1190.378, 185.8379
1191.463, 138.2617
1192.548, 127.2148
1193.632, 77.93555
1194.717, 75.87695
1195.801, 46.88672
1196.886, 156.4160
1197.970, 107.3984
1199.054, 63.35156
1200.137, 196.1211
1201.221, 27.86328
1202.305, 216.5781
1203.388, 171.7344
1204.471, 28.16797
1205.554, 8.533203
1206.637, 4.820313
1207.719, 39.54297
1208.802, 18.22656
1209.884, 1.181641
1210.966, 27.39844
1212.048, 18.56445
1213.130, 36.89062
1214.212, 175.7480
1215.293, 74.78320
1216.374, 133.7832
1217.456, 156.7480
1218.536, 88.67969
1219.617, 36.63477
1220.698, 102.4434
1221.778, 41.51758
1222.859, 128.1719
1223.939, 193.1602
1225.019, 334.2734
1226.099, 206.6738
1227.178, 319.0352
1228.258, 147.3594
1229.337, 347.6465
1230.417, 251.8965
1231.496, 107.1074
1232.574, 296.2715
1233.653, 229.3945
1234.732, 103.4805
1235.810, 115.7207
1236.888, 166.7051
