##NAMES=Axinite-(Fe)
##RRUFFID=R050061
##IDEAL CHEMISTRY=Ca_4_Fe^2+^_2_Al_4_[B_2_Si_8_O_30_](OH)_2_
##LOCALITY=Jamestown, California, USA
##OWNER=RRUFF
##SOURCE=Rock Currier
##DESCRIPTION=Brown colored axe-head-shaped single crystals
##STATUS=The identification of this mineral has been confirmed by X-ray diffraction and chemical analysis
##URL=rruff.info/R050061
##MEASURED CHEMISTRY=Ca_2.00_(Fe^2+^_0.73_Mg_0.20_Mn_0.07_)Al_2.00_BSi_4_O_15_(OH)
##PIN_ID=L00381
##ORIENTATION=Laser parallel to a* (1 0 0). Fiducial mark perpendicular to laser is parallel to b [0 1 0]
89.663, 0.000
91.065, 95.838
92.466, 11.733
93.868, 171.029
95.269, 185.323
96.670, 461.534
98.070, 940.079
99.471, 1115.233
100.871, 1345.825
102.271, 1557.497
103.670, 2121.145
105.070, 3087.732
106.469, 4588.343
107.868, 5680.682
109.267, 6073.726
110.665, 5795.968
112.063, 4407.233
113.461, 3490.439
114.859, 2687.608
116.256, 2230.303
117.653, 1844.319
119.050, 1538.565
120.447, 1498.604
121.843, 1406.961
123.240, 1391.399
124.636, 1049.736
126.031, 861.892
127.427, 669.639
128.822, 414.459
130.217, 488.753
131.612, 375.728
133.006, 573.628
134.400, 1073.511
135.794, 1921.174
137.188, 2730.805
138.581, 3171.307
139.975, 3346.615
141.368, 2766.531
142.760, 2292.675
144.153, 1913.903
145.545, 1691.422
146.937, 1656.402
148.329, 1644.263
149.720, 1913.010
151.112, 1745.648
152.503, 1650.183
153.893, 1242.618
155.284, 1035.951
156.674, 714.142
158.064, 534.629
159.454, 439.840
160.843, 442.929
162.233, 650.799
163.622, 702.851
165.011, 1089.284
166.399, 1526.659
167.787, 2069.102
169.175, 2789.595
170.563, 2916.165
171.951, 2877.766
173.338, 2415.463
174.725, 1837.445
176.112, 1353.715
177.499, 845.271
178.885, 485.101
180.271, 147.187
181.657, 15.488
183.043, 209.940
184.428, 231.191
185.813, 298.257
187.198, 270.160
188.583, 194.918
189.967, 62.547
191.351, 312.936
192.735, 471.517
194.119, 624.186
195.502, 525.940
196.885, 335.779
198.268, 501.658
199.651, 611.546
201.033, 1125.425
202.415, 1577.294
203.797, 2255.149
205.179, 2983.994
206.561, 3239.825
207.942, 3571.618
209.323, 3474.343
210.703, 3556.017
212.084, 3449.658
213.464, 3282.278
214.844, 3279.887
216.224, 3042.476
217.603, 3107.029
218.983, 2876.403
220.362, 2322.272
221.741, 1736.515
223.119, 1086.279
224.497, 672.934
225.875, 284.578
227.253, 117.133
228.631, 84.694
230.008, 150.896
231.385, 147.212
232.762, 192.544
234.139, 48.029
235.515, 89.438
236.891, 203.485
238.267, 344.505
239.643, 436.655
241.018, 672.937
242.393, 615.260
243.768, 724.382
245.143, 581.226
246.517, 613.888
247.891, 634.523
249.265, 778.157
250.639, 1206.792
252.012, 1705.428
253.386, 2552.067
254.759, 2982.710
256.131, 3278.926
257.504, 3164.022
258.876, 2715.928
260.248, 2600.493
261.620, 2581.148
262.991, 2932.838
264.363, 3271.514
265.734, 3860.144
267.104, 4664.707
268.475, 5210.175
269.845, 6142.522
271.215, 6604.732
272.585, 7456.801
273.955, 7548.717
275.324, 7600.478
276.693, 7522.085
278.062, 6693.541
279.431, 6214.812
280.799, 5172.827
282.167, 4450.595
283.535, 3925.134
284.903, 3517.467
286.270, 3681.607
287.638, 3551.573
289.005, 3660.369
290.371, 3566.952
291.738, 3762.306
293.104, 3852.478
294.470, 3824.497
295.836, 3999.374
297.201, 3654.215
298.567, 3675.163
299.932, 3313.595
301.296, 3133.523
302.661, 3183.060
304.025, 3195.392
305.389, 3366.185
306.753, 3248.396
308.117, 3308.346
309.480, 3104.866
310.843, 2802.357
312.206, 3040.830
313.569, 3239.284
314.931, 4116.720
316.293, 5081.137
317.655, 6091.538
319.017, 6887.921
320.378, 6543.289
321.740, 6145.367
323.101, 5096.661
324.461, 4436.999
325.822, 3942.559
327.182, 3624.921
328.542, 3733.273
329.902, 3522.541
331.261, 3594.807
332.621, 3404.075
333.980, 3396.804
335.339, 3565.859
336.697, 3813.036
338.056, 4584.960
339.414, 5308.900
340.772, 6437.262
342.129, 7451.671
343.487, 7764.178
344.844, 7992.142
346.201, 6783.534
347.557, 6002.865
348.914, 5058.998
350.270, 4484.051
351.626, 4205.996
352.982, 3581.785
354.337, 3079.002
355.693, 2159.244
357.048, 1612.942
358.402, 1204.355
359.757, 754.364
361.111, 526.990
362.465, 259.606
363.819, 233.696
365.173, 144.995
366.526, 93.138
367.879, 65.703
369.232, 51.210
370.585, 143.963
371.937, 108.113
373.290, 230.565
374.642, 252.160
375.993, 292.041
377.345, 326.635
378.696, 404.157
380.047, 485.708
381.398, 691.501
382.748, 1044.872
384.099, 1525.533
385.449, 1995.065
386.799, 2829.956
388.148, 3067.625
389.497, 3342.503
390.847, 3139.385
392.196, 2633.635
393.544, 2577.936
394.893, 1907.308
396.241, 2272.239
397.589, 892.603
398.936, 713.303
400.284, 746.240
401.631, 665.488
402.978, 823.227
404.325, 670.961
405.672, 802.461
407.018, 830.270
408.364, 882.645
409.710, 1194.166
411.055, 1482.784
412.401, 2102.572
413.746, 2796.354
415.091, 4039.131
416.435, 5537.903
417.780, 6107.669
419.124, 6693.394
420.468, 6308.083
421.812, 6467.731
423.155, 6456.338
424.498, 6420.901
425.842, 6851.423
427.184, 6209.901
428.527, 6049.335
429.869, 5358.727
431.211, 4550.076
432.553, 3876.382
433.895, 2873.646
435.236, 2509.868
436.577, 2061.049
437.918, 1988.189
439.259, 2264.290
440.599, 2731.351
441.940, 3903.694
443.280, 4742.878
444.619, 5499.542
445.959, 5486.047
447.298, 4331.389
448.637, 3256.858
449.976, 2138.814
451.315, 1484.588
452.653, 1001.329
453.991, 708.039
455.329, 574.717
456.667, 383.365
458.004, 284.983
459.341, 227.571
460.678, 75.127
462.015, 96.646
463.352, 5.132
464.688, 53.583
466.024, 41.005
467.360, 157.401
468.695, 205.776
470.031, 311.137
471.366, 381.771
472.701, 360.275
474.035, 349.697
475.370, 378.078
476.704, 467.428
478.038, 719.784
479.372, 908.166
480.705, 1454.566
482.038, 1903.972
483.371, 2427.403
484.704, 2998.839
486.037, 2665.292
487.369, 2231.781
488.701, 1479.271
490.033, 856.781
491.365, 554.292
492.696, 320.809
494.027, 148.329
495.358, 69.896
496.689, 40.263
498.019, 99.781
499.350, 95.227
500.680, 231.802
502.009, 198.495
503.339, 332.895
504.668, 384.839
505.997, 529.247
507.326, 708.698
508.655, 734.243
509.983, 1000.887
511.311, 1047.654
512.639, 1142.528
513.967, 1167.512
515.295, 936.557
516.622, 866.620
517.949, 560.695
519.276, 347.762
520.602, 263.840
521.929, 68.917
523.255, 65.214
524.581, 65.601
525.906, 94.842
527.232, 101.496
528.557, 116.474
529.882, 56.683
531.207, 27.237
532.531, 136.953
533.855, 99.028
535.179, 26.576
536.503, 91.583
537.827, 35.275
539.150, 35.844
540.473, 40.298
541.796, 81.793
543.119, 70.353
544.441, 115.970
545.764, 89.670
547.086, 122.439
548.407, 127.292
549.729, 113.762
551.050, 165.218
552.371, 39.262
553.692, 87.274
555.013, 61.721
556.333, 175.782
557.653, 323.873
558.973, 556.007
560.293, 666.139
561.612, 846.263
562.932, 923.376
564.251, 817.475
565.569, 991.560
566.888, 928.630
568.206, 1167.686
569.524, 1396.729
570.842, 1578.757
572.160, 1904.770
573.477, 1858.768
574.795, 1937.750
576.112, 1713.717
577.428, 1396.668
578.745, 1282.604
580.061, 1026.524
581.377, 935.430
582.693, 878.321
584.009, 1001.196
585.324, 1208.057
586.639, 1267.903
587.954, 1594.735
589.269, 1514.551
590.583, 1475.354
591.897, 1429.142
593.212, 1020.917
594.525, 824.677
595.839, 525.423
597.152, 378.155
598.465, 276.874
599.778, 110.579
601.091, 139.268
602.403, 14.942
603.716, 43.596
605.028, 73.231
606.339, 33.850
607.651, 147.450
608.962, 201.036
610.273, 332.609
611.584, 509.170
612.895, 591.718
614.205, 844.253
615.515, 825.776
616.825, 936.190
618.135, 1031.361
619.444, 924.890
620.754, 885.872
622.063, 738.208
623.372, 579.078
624.680, 428.450
625.989, 198.306
627.297, 212.233
628.605, 103.806
629.912, 130.447
631.220, 158.180
632.527, 167.834
633.834, 314.628
635.141, 363.725
636.447, 543.906
637.754, 744.956
639.060, 946.998
640.366, 1275.502
641.671, 1364.242
642.977, 1659.189
644.282, 1657.601
645.587, 1600.495
646.892, 1560.113
648.196, 1149.859
649.501, 1013.129
650.805, 833.290
652.109, 571.971
653.412, 507.313
654.716, 347.521
656.019, 295.968
657.322, 200.385
658.625, 168.361
659.927, 248.186
661.230, 102.210
662.532, 238.214
663.834, 258.201
665.135, 258.172
666.437, 422.292
667.738, 426.559
669.039, 654.607
670.340, 797.287
671.640, 1006.012
672.940, 1577.050
674.241, 1762.051
675.540, 2274.127
676.840, 2452.182
678.139, 2346.254
679.439, 2203.847
680.738, 1756.412
682.036, 1435.000
683.335, 1149.715
684.633, 908.978
685.931, 736.270
687.229, 565.287
688.527, 565.879
689.824, 502.139
691.121, 569.229
692.418, 607.004
693.715, 635.038
695.012, 806.116
696.308, 869.136
697.604, 975.887
698.900, 1282.033
700.195, 1434.864
701.491, 2000.801
702.786, 2385.361
704.081, 3033.837
705.376, 3980.983
706.670, 5087.970
707.964, 6540.681
709.259, 8076.273
710.552, 9870.852
711.846, 11960.596
713.139, 12440.806
714.433, 13401.162
715.726, 11891.503
717.018, 10251.833
718.311, 8732.145
719.603, 6656.446
720.895, 5746.732
722.187, 4578.003
723.479, 3240.262
724.770, 2747.508
726.061, 2091.740
727.352, 1784.958
728.643, 1480.163
729.934, 1174.354
731.224, 1091.533
732.514, 846.699
733.804, 762.852
735.094, 646.992
736.383, 514.119
737.672, 479.234
738.961, 365.336
740.250, 375.426
741.539, 278.503
742.827, 239.113
744.115, 233.792
745.403, 187.663
746.691, 188.692
747.978, 244.709
749.265, 165.714
750.552, 210.708
751.839, 166.691
753.126, 223.661
754.412, 258.621
755.698, 209.247
756.984, 371.986
758.270, 338.196
759.555, 423.518
760.840, 550.957
762.125, 523.223
763.410, 740.957
764.695, 717.831
765.979, 793.694
767.263, 839.548
768.547, 684.391
769.831, 750.225
771.114, 585.049
772.398, 522.864
773.681, 422.670
774.964, 303.471
776.246, 256.266
777.529, 200.058
778.811, 153.845
780.093, 106.628
781.375, 9.404
782.656, 55.163
783.937, 34.622
785.219, 80.815
786.499, 16.223
787.780, 82.626
789.060, 56.051
790.341, 137.528
791.621, 104.099
792.901, 56.747
794.180, 128.446
795.459, 37.233
796.739, 73.061
798.017, 128.948
799.296, 8.922
800.575, 85.921
801.853, 24.984
803.131, 50.079
804.409, 33.219
805.686, 113.605
806.964, 72.425
808.241, 163.242
809.518, 240.056
810.795, 229.867
812.071, 402.528
813.347, 279.051
814.623, 283.849
815.899, 242.091
817.175, 114.878
818.450, 98.659
819.726, 14.436
821.001, 11.795
822.275, 18.955
823.550, 70.301
824.824, 22.605
826.098, 61.932
827.372, 62.302
828.646, 5.285
829.920, 65.136
831.193, 3.400
832.466, 38.073
833.739, 2.571
835.011, 75.923
836.284, 48.434
837.556, 135.970
838.828, 196.532
840.100, 183.125
841.371, 268.733
842.642, 274.350
843.914, 408.965
845.184, 452.582
846.455, 538.199
847.726, 804.820
848.996, 804.504
850.266, 993.094
851.536, 944.750
852.805, 921.429
854.075, 985.134
855.344, 921.873
856.613, 957.638
857.881, 1027.444
859.150, 895.286
860.418, 1005.161
861.686, 949.083
862.954, 970.020
864.222, 1076.990
865.489, 988.972
866.756, 1071.955
868.023, 1060.954
869.290, 1026.954
870.557, 1152.965
871.823, 1164.979
873.089, 1240.996
874.355, 1284.021
875.621, 1257.049
876.886, 1430.086
878.152, 1440.132
879.417, 1566.180
880.682, 1713.235
881.946, 1602.292
883.211, 1842.353
884.475, 1877.419
885.739, 1982.494
887.003, 2211.579
888.266, 2200.670
889.530, 2571.766
890.793, 2769.864
892.056, 3010.965
893.318, 3493.069
894.581, 3690.177
895.843, 4161.291
897.105, 4688.411
898.367, 5173.542
899.629, 5083.676
900.890, 4951.827
902.152, 5261.996
903.413, 5483.167
904.673, 5207.354
905.934, 5635.547
907.194, 5362.741
908.454, 5171.944
909.714, 5040.150
910.974, 4403.369
912.234, 4157.594
913.493, 3568.839
914.752, 3103.102
916.011, 2741.370
917.270, 2391.652
918.528, 2150.939
919.786, 1959.735
921.044, 1720.536
922.302, 1798.848
923.560, 1592.165
924.817, 1703.487
926.074, 1801.816
927.331, 1726.155
928.588, 1903.513
929.844, 1843.877
931.101, 1858.257
932.357, 1965.649
933.613, 1669.174
934.868, 1763.414
936.124, 1687.580
937.379, 1697.651
938.634, 1854.801
939.889, 1734.807
941.144, 1929.503
942.398, 2078.113
943.652, 2166.849
944.906, 2619.588
946.160, 2731.865
947.414, 3226.903
948.667, 3531.732
949.920, 3781.093
951.173, 4469.969
952.426, 4587.116
953.678, 4913.133
954.931, 5638.628
956.183, 5769.234
957.435, 7000.852
958.686, 7740.484
959.938, 8580.129
961.189, 9799.788
962.440, 9989.463
963.691, 10239.149
964.941, 10168.851
966.192, 9068.567
967.442, 8768.299
968.692, 8078.048
969.942, 7637.813
971.191, 8057.423
972.441, 7815.886
973.690, 8995.562
974.939, 9600.602
976.187, 10148.589
977.436, 11484.257
978.684, 10689.963
979.932, 10949.584
981.180, 10155.225
982.428, 9154.840
983.675, 8862.234
984.922, 7991.637
986.169, 7711.594
987.416, 7811.566
988.663, 7371.555
989.909, 7851.560
991.155, 7511.580
992.401, 7131.615
993.647, 7391.665
994.893, 6921.731
996.138, 7001.813
997.383, 6962.268
998.628, 6620.379
999.873, 6992.514
1001.117, 6560.655
1002.362, 6262.812
1003.606, 6206.059
1004.850, 5366.268
1006.093, 5030.473
1007.337, 4501.709
1008.580, 3648.944
1009.823, 3376.200
1011.066, 2683.470
1012.308, 2379.755
1013.551, 2173.580
1014.793, 1712.632
1016.035, 1770.964
1017.277, 1467.907
1018.518, 1359.271
1019.760, 1351.776
1021.001, 1152.456
1022.242, 1280.000
1023.483, 1233.256
1024.723, 1073.687
1025.964, 1266.917
1027.204, 1119.758
1028.444, 1049.230
1029.683, 1041.809
1030.923, 830.314
1032.162, 842.141
1033.401, 739.946
1034.640, 623.126
1035.879, 670.116
1037.117, 538.438
1038.355, 606.077
1039.593, 647.693
1040.831, 581.313
1042.069, 688.918
1043.306, 574.572
1044.544, 598.699
1045.781, 712.852
1047.017, 607.853
1048.254, 764.509
1049.490, 794.129
1050.726, 754.845
1051.962, 920.560
1053.198, 850.661
1054.434, 924.414
1055.669, 902.180
1056.904, 814.907
1058.139, 921.640
1059.374, 816.710
1060.608, 785.611
1061.843, 773.381
1063.077, 605.245
1064.311, 651.048
1065.544, 569.756
1066.778, 415.604
1068.011, 489.407
1069.244, 406.807
1070.477, 449.797
1071.710, 511.674
1072.942, 403.660
1074.174, 539.500
1075.406, 587.418
1076.638, 646.151
1077.870, 802.073
1079.101, 840.474
1080.332, 961.304
1081.563, 1021.184
1082.794, 882.494
1084.025, 949.439
1085.255, 768.132
1086.485, 656.226
1087.715, 646.181
1088.945, 470.169
1090.175, 458.585
1091.404, 415.720
1092.633, 376.934
1093.862, 397.093
1095.091, 352.305
1096.319, 366.416
1097.548, 409.825
1098.776, 399.293
1100.004, 476.725
1101.231, 476.316
1102.459, 543.068
1103.686, 597.601
1104.913, 547.026
1106.140, 538.661
1107.367, 512.244
1108.593, 393.630
1109.819, 416.747
1111.046, 260.134
1112.271, 293.684
1113.497, 350.138
1114.722, 194.944
1115.948, 241.316
1117.173, 212.268
1118.398, 214.787
1119.622, 186.545
1120.847, 158.053
1122.071, 146.571
1123.295, 170.061
1124.519, 66.508
1125.742, 166.849
1126.966, 125.384
1128.189, 32.874
1129.412, 70.981
1130.635, 33.523
1131.857, 43.090
1133.080, 69.891
1134.302, 44.444
1135.524, 55.806
1136.746, 59.403
1137.967, 21.062
1139.188, 36.799
1140.410, 53.414
1141.631, 3.266
1142.851, 60.183
1144.072, 18.195
1145.292, 49.564
1146.512, 1.418
1147.732, 6.047
1148.952, 26.844
1150.172, 35.490
1151.391, 0.606
1152.610, 6.607
1153.829, 32.834
1155.048, 59.013
1156.266, 14.902
1157.484, 11.664
1158.702, 79.903
1159.920, 39.328
1161.138, 42.157
1162.356, 27.605
1163.573, 71.591
1164.790, 21.293
1166.007, 46.033
1167.224, 10.593
1168.440, 5.807
1169.656, 39.439
1170.872, 19.075
1172.088, 37.122
1173.304, 29.758
1174.519, 42.677
1175.735, 23.727
1176.950, 3.906
1178.165, 7.516
1179.379, 6.327
1180.594, 30.940
1181.808, 26.833
1183.022, 14.548
1184.236, 1.754
1185.449, 8.892
1186.663, 11.988
1187.876, 20.571
1189.089, 11.885
1190.302, 7.025
1191.515, 6.833
1192.727, 20.762
1193.939, 62.529
1195.151, 45.133
1196.363, 45.960
1197.575, 24.048
1198.786, 34.852
1199.997, 22.154
1201.208, 22.313
1202.419, 35.384
1203.630, 47.426
1204.840, 1.633
1206.051, 6.499
1207.261, 40.651
1208.470, 25.569
1209.680, 39.214
1210.889, 21.907
1212.099, 34.927
1213.308, 48.749
1214.516, 15.237
1215.725, 11.458
1216.933, 40.190
1218.142, 16.957
1219.350, 68.613
1220.557, 4.744
1221.765, 33.122
1222.972, 43.462
1224.180, 26.758
1225.387, 1.220
1226.593, 85.669
1227.800, 7.730
1229.006, 52.748
1230.213, 3.213
1231.419, 2.344
1232.624, 85.079
1233.830, 79.491
1235.035, 13.893
1236.241, 53.279
1237.446, 44.660
1238.650, 2.018
1239.855, 64.518
1241.059, 4.835
1242.264, 31.494
1243.468, 29.027
1244.671, 41.868
1245.875, 25.124
1247.078, 1.642
1248.282, 2.623
1249.485, 68.816
1250.687, 29.121
1251.890, 34.294
1253.092, 83.437
1254.295, 13.765
1255.497, 104.874
1256.699, 48.964
1257.900, 73.265
1259.102, 26.322
1260.303, 10.468
1261.504, 22.160
1262.705, 63.642
1263.905, 31.617
1265.106, 70.571
1266.306, 69.494
1267.506, 82.393
1268.706, 108.263
1269.905, 16.112
1271.105, 86.052
1272.304, 120.843
1273.503, 25.700
1274.702, 92.493
1275.900, 90.215
1277.099, 43.910
1278.297, 95.605
1279.495, 20.253
1280.693, 86.021
1281.891, 71.625
1283.088, 53.228
1284.285, 82.840
1285.482, 43.381
1286.679, 39.900
1287.876, 81.426
1289.072, 51.542
1290.268, 44.173
1291.464, 78.590
1292.660, 48.994
1293.856, 69.411
1295.051, 41.700
1296.247, 27.101
1297.442, 90.433
1298.637, 9.711
1299.831, 8.982
1301.026, 49.722
1302.220, 25.944
1303.414, 49.359
1304.608, 3.013
1305.802, 44.434
1306.995, 41.715
1308.188, 4.229
1309.381, 8.315
1310.574, 81.586
1311.767, 34.340
1312.960, 95.297
1314.152, 53.458
1315.344, 2.433
1316.536, 81.599
1317.728, 59.143
1318.919, 38.046
1320.110, 34.903
1321.301, 8.756
1322.492, 43.279
1323.683, 58.007
1324.874, 11.156
1326.064, 69.503
1327.254, 61.495
1328.444, 96.160
1329.634, 62.890
1330.823, 42.558
1332.013, 51.232
1333.202, 112.845
1334.391, 74.978
1335.580, 100.077
1336.768, 45.395
1337.956, 38.965
1339.145, 56.559
1340.333, 85.135
1341.520, 60.614
1342.708, 73.711
1343.895, 39.127
1345.083, 53.519
1346.270, 57.941
1347.456, 2.557
1348.643, 94.502
1349.829, 104.716
1351.016, 35.052
1352.202, 123.284
1353.387, 65.674
1354.573, 68.042
1355.759, 68.257
1356.944, 29.507
1358.129, 95.146
1359.314, 76.227
1360.498, 65.372
1361.683, 150.393
1362.867, 112.210
1364.051, 256.619
1365.235, 125.923
1366.419, 36.326
1367.602, 87.878
1368.785, 16.991
1369.968, 60.142
1371.151, 114.681
1372.334, 119.815
1373.517, 144.278
1374.699, 86.357
1375.881, 167.962
1377.063, 88.753
1378.245, 110.596
1379.426, 78.355
1380.608, 150.856
1381.789, 40.887
1382.970, 81.353
1384.150, 77.592
1385.331, 142.494
1386.511, 38.985
1387.691, 96.091
1388.871, 98.970
1390.051, 65.981
1391.231, 143.261
1392.410, 48.673
1393.589, 75.038
1394.768, 85.731
1395.947, 30.001
1397.126, 94.965
1398.304, 110.149
1399.483, 25.963
1400.661, 97.640
1401.838, 50.172
1403.016, 36.547
1404.194, 76.098
1405.371, 93.421
1406.548, 107.380
1407.725, 71.655
1408.901, 103.109
1410.078, 121.193
1411.254, 128.997
1412.430, 34.919
1413.606, 111.912
1414.782, 44.288
1415.958, 50.722
1417.133, 103.643
1418.308, 74.170
1419.483, 55.083
1420.658, 65.092
1421.832, 24.390
1423.007, 91.256
1424.181, 53.431
1425.355, 45.718
1426.529, 125.293
1427.702, 108.416
1428.876, 49.513
1430.049, 90.276
1431.222, 11.189
1432.395, 99.555
1433.567, 58.486
1434.740, 44.533
1435.912, 51.219
1437.084, 31.488
1438.256, 47.642
1439.428, 131.956
1440.599, 56.897
1441.770, 7.474
1442.942, 99.668
1444.112, 3.996
1445.283, 93.307
1446.454, 67.572
1447.624, 12.787
1448.794, 86.659
1449.964, 47.830
1451.134, 4.403
1452.303, 117.602
1453.473, 27.386
1454.642, 70.397
1455.811, 89.910
1456.980, 68.310
1458.148, 76.951
1459.317, 66.410
1460.485, 26.264
1461.653, 70.177
1462.821, 137.140
1463.989, 0.820
1465.156, 90.473
1466.323, 37.542
1467.490, 62.581
1468.657, 133.247
1469.824, 28.129
1470.991, 103.226
1472.157, 119.231
1473.323, 46.749
1474.489, 60.771
1475.655, 136.594
1476.820, 20.664
1477.986, 43.854
1479.151, 55.051
1480.316, 17.066
1481.481, 79.428
1482.645, 31.891
1483.810, 37.443
1484.974, 141.345
1486.138, 87.277
1487.302, 13.863
1488.465, 55.799
1489.629, 64.625
1490.792, 86.416
1491.955, 93.372
1493.118, 10.795
1494.281, 80.625
1495.443, 85.833
1496.606, 49.717
1497.768, 115.858
1498.930, 28.642
1500.091, 53.623
1501.253, 113.540
1502.414, 39.544
1503.575, 87.064
1504.736, 26.982
1505.897, 2.024
1507.058, 90.153
1508.218, 58.128
1509.379, 23.342
1510.539, 46.888
1511.698, 0.031
1512.858, 0.000
##END=



