##NAMES=Axinite-(Fe)
##RRUFFID=R050061
##IDEAL CHEMISTRY=Ca_4_Fe^2+^_2_Al_4_[B_2_Si_8_O_30_](OH)_2_
##LOCALITY=Jamestown, California, USA
##OWNER=RRUFF
##SOURCE=Rock Currier
##DESCRIPTION=Brown colored axe-head-shaped single crystals
##STATUS=The identification of this mineral has been confirmed by X-ray diffraction and chemical analysis
##URL=rruff.info/R050061
##MEASURED CHEMISTRY=Ca_2.00_(Fe^2+^_0.73_Mg_0.20_Mn_0.07_)Al_2.00_BSi_4_O_15_(OH)
##PIN_ID=L00318
##ORIENTATION=Laser parallel to (0 1 1). Fiducial mark perpendicular to laser is parallel to a [1 0 0]
96.670, 0.000
98.070, 28.998
99.471, 2.618
100.871, 10.952
102.271, 26.799
103.670, 211.681
105.070, 787.926
106.469, 1690.252
107.868, 2547.263
109.267, 3262.956
110.665, 3517.438
112.063, 3554.377
113.461, 3152.445
114.859, 2901.472
116.256, 2383.355
117.653, 2129.466
119.050, 2003.129
120.447, 2043.278
121.843, 2085.040
123.240, 2089.003
124.636, 1890.618
126.031, 1708.347
127.427, 1530.570
128.822, 1281.609
130.217, 1521.998
131.612, 1687.377
133.006, 1859.750
134.400, 2485.658
135.794, 3110.603
137.188, 3626.793
138.581, 3886.421
139.975, 3817.516
141.368, 3700.130
142.760, 3122.910
144.153, 2644.469
145.545, 2156.533
146.937, 2056.762
148.329, 1845.042
149.720, 1967.766
151.112, 2126.432
152.503, 2307.049
153.893, 2475.624
155.284, 2443.167
156.674, 2316.682
158.064, 1880.174
159.454, 1468.651
160.843, 1114.110
162.233, 902.516
163.622, 859.144
165.011, 1214.049
166.399, 1715.633
167.787, 2269.771
169.175, 2530.034
170.563, 2912.460
171.951, 2985.625
173.338, 2714.402
174.725, 2335.311
176.112, 1860.340
177.499, 1331.484
178.885, 918.740
180.271, 514.128
181.657, 69.725
183.043, 108.456
184.428, 319.405
185.813, 323.125
187.198, 272.623
188.583, 124.911
189.967, 208.002
191.351, 634.103
192.735, 740.377
194.119, 665.811
195.502, 626.390
196.885, 393.105
198.268, 381.947
199.651, 326.905
201.033, 599.970
202.415, 1149.123
203.797, 1637.324
205.179, 2309.568
206.561, 3121.853
207.942, 3754.179
209.323, 4370.545
210.703, 4646.950
212.084, 5039.396
213.464, 5141.878
214.844, 5134.390
216.224, 5076.921
217.603, 4769.467
218.983, 4380.038
220.362, 3782.662
221.741, 2956.401
223.119, 2185.009
224.497, 1553.067
225.875, 899.627
227.253, 568.123
228.631, 259.664
230.008, 10.250
231.385, 21.116
232.762, 163.998
234.139, 176.851
235.515, 120.683
236.891, 134.442
238.267, 101.358
239.643, 70.234
241.018, 50.009
242.393, 73.484
243.768, 171.234
245.143, 242.268
246.517, 514.521
247.891, 908.723
249.265, 1592.665
250.639, 2367.400
252.012, 3314.016
253.386, 4208.630
254.759, 4845.266
256.131, 5227.929
257.504, 5450.620
258.876, 5263.338
260.248, 5216.080
261.620, 5648.850
262.991, 6065.065
264.363, 6651.657
265.734, 7268.440
267.104, 8015.563
268.475, 8683.068
269.845, 9010.722
271.215, 9378.472
272.585, 9726.287
273.955, 9774.137
275.324, 9551.986
276.693, 8979.812
278.062, 8257.602
279.431, 7365.347
280.799, 6553.045
282.167, 5610.688
283.535, 5188.276
284.903, 4785.754
286.270, 4753.071
287.638, 4850.245
289.005, 4907.291
290.371, 5134.222
291.738, 5191.050
293.104, 5467.787
294.470, 5604.441
295.836, 5441.017
297.201, 5247.509
298.567, 4863.904
299.932, 4488.210
301.296, 4098.436
302.661, 4062.588
304.025, 3878.672
305.389, 3739.335
306.753, 3624.041
308.117, 3266.088
309.480, 2867.120
310.843, 2773.159
312.206, 2527.206
313.569, 2670.254
314.931, 3040.314
316.293, 3655.385
317.655, 4080.466
319.017, 4318.558
320.378, 4472.662
321.740, 4283.777
323.101, 3858.903
324.461, 3556.042
325.822, 3456.193
327.182, 3360.356
328.542, 3310.477
329.902, 3356.815
331.261, 3480.021
332.621, 3581.439
333.980, 3744.774
335.339, 3992.116
336.697, 4426.483
338.056, 5108.880
339.414, 5903.285
340.772, 6827.853
342.129, 7432.769
343.487, 7682.853
344.844, 7736.937
346.201, 7085.358
347.557, 6643.053
348.914, 6187.703
350.270, 5692.308
351.626, 5270.268
352.982, 4736.676
354.337, 3981.862
355.693, 3106.567
357.048, 2307.291
358.402, 1637.033
359.757, 1194.793
361.111, 716.482
362.465, 478.516
363.819, 267.656
365.173, 153.818
366.526, 77.746
367.879, 25.807
369.232, 40.983
370.585, 50.487
371.937, 33.237
373.290, 117.133
374.642, 253.042
375.993, 301.963
377.345, 416.972
378.696, 632.916
380.047, 946.497
381.398, 1413.937
382.748, 1954.096
384.099, 2659.342
385.449, 3472.301
386.799, 4319.872
388.148, 4574.509
389.497, 4762.209
390.847, 4540.015
392.196, 4194.714
393.544, 3646.091
394.893, 3081.158
396.241, 2504.316
397.589, 2152.752
398.936, 1797.820
400.284, 1566.136
401.631, 1461.465
402.978, 1465.200
404.325, 1467.177
405.672, 1545.685
407.018, 1678.274
408.364, 1800.176
409.710, 2069.323
411.055, 2516.475
412.401, 3153.632
413.746, 4095.795
415.091, 4956.963
416.435, 6308.138
417.780, 7512.320
419.124, 8886.508
420.468, 10380.699
421.812, 11414.899
423.155, 12409.104
424.498, 12463.314
425.842, 12177.516
427.184, 11011.709
428.527, 9785.896
429.869, 8290.067
431.211, 6884.226
432.553, 5668.370
433.895, 4714.498
435.236, 4195.611
436.577, 4037.709
437.918, 4284.789
439.259, 5318.854
440.599, 6662.903
441.940, 8496.934
443.280, 10250.949
444.619, 10824.950
445.959, 10418.932
447.298, 9122.903
448.637, 7126.855
449.976, 5370.796
451.315, 3815.721
452.653, 2875.632
453.991, 2052.531
455.329, 1537.417
456.667, 1338.290
458.004, 1023.151
459.341, 829.999
460.678, 582.835
462.015, 438.660
463.352, 354.474
464.688, 261.277
466.024, 237.071
467.360, 299.876
468.695, 476.708
470.031, 617.562
471.366, 1057.444
472.701, 1128.352
474.035, 1310.288
475.370, 1687.236
476.704, 2376.219
478.038, 3188.222
479.372, 4218.260
480.705, 5520.334
482.038, 6494.440
483.371, 7218.582
484.704, 7792.760
486.037, 6616.983
487.369, 5421.242
488.701, 4242.541
490.033, 3054.871
491.365, 2044.224
492.696, 1303.587
494.027, 880.953
495.358, 527.318
496.689, 257.682
498.019, 202.045
499.350, 8.593
500.680, 12.245
502.009, 19.913
503.339, 102.601
504.668, 14.648
505.997, 12.889
507.326, 190.146
508.655, 324.475
509.983, 489.934
511.311, 689.515
512.639, 831.227
513.967, 914.024
515.295, 803.840
516.622, 762.667
517.949, 555.494
519.276, 374.325
520.602, 307.163
521.929, 70.996
523.255, 8.823
524.581, 10.363
525.906, 117.562
527.232, 55.146
528.557, 104.004
529.882, 12.894
531.207, 3.229
532.531, 179.267
533.855, 180.652
535.179, 238.194
536.503, 147.729
537.827, 198.255
539.150, 22.773
540.473, 17.721
541.796, 148.248
543.119, 128.877
544.441, 139.598
545.764, 228.416
547.086, 117.379
548.407, 213.428
549.729, 214.616
551.050, 169.942
552.371, 99.381
553.692, 59.878
555.013, 165.595
556.333, 335.125
557.653, 688.713
558.973, 1053.345
560.293, 1338.023
561.612, 1598.740
562.932, 1633.484
564.251, 1659.229
565.569, 1555.972
566.888, 1615.707
568.206, 1775.432
569.524, 1877.146
570.842, 2213.849
572.160, 2368.542
573.477, 2568.224
574.795, 2553.895
576.112, 2384.554
577.428, 2346.202
578.745, 2112.838
580.061, 2021.462
581.377, 2042.075
582.693, 2066.676
584.009, 2309.265
585.324, 2629.843
586.639, 2789.408
587.954, 3098.961
589.269, 3123.502
590.583, 2918.030
591.897, 2630.547
593.212, 2160.051
594.525, 1649.543
595.839, 1174.023
597.152, 909.491
598.465, 752.946
599.778, 586.389
601.091, 476.820
602.403, 483.238
603.716, 527.644
605.028, 622.344
606.339, 875.419
607.651, 992.789
608.962, 1235.145
610.273, 1541.490
611.584, 1802.822
612.895, 2054.142
614.205, 2174.448
615.515, 2361.743
616.825, 2394.026
618.135, 2313.295
619.444, 2114.553
620.754, 1995.801
622.063, 1701.093
623.372, 1386.496
624.680, 1140.163
625.989, 872.190
627.297, 754.439
628.605, 642.425
629.912, 593.642
631.220, 619.409
632.527, 636.524
633.834, 814.837
635.141, 1007.943
636.447, 1271.683
637.754, 1638.106
639.060, 1962.902
640.366, 2236.957
641.671, 2699.954
642.977, 2784.781
644.282, 2963.674
645.587, 2880.523
646.892, 2585.320
648.196, 2305.627
649.501, 1868.069
650.805, 1631.307
652.109, 1244.397
653.412, 1077.209
654.716, 922.999
656.019, 736.767
657.322, 792.531
658.625, 699.138
659.927, 668.399
661.230, 785.497
662.532, 832.597
663.834, 1023.780
665.135, 1155.781
666.437, 1407.198
667.738, 1814.063
669.039, 2259.804
670.340, 2919.132
671.640, 3594.802
672.940, 4812.317
674.241, 5615.366
675.540, 6600.383
676.840, 7124.875
678.139, 7137.301
679.439, 6539.470
680.738, 5719.118
682.036, 4774.862
683.335, 3946.033
684.633, 3224.060
685.931, 2638.961
687.229, 2321.521
688.527, 1998.825
689.824, 1941.969
691.121, 1908.091
692.418, 1817.188
693.715, 1988.183
695.012, 2098.230
696.308, 2396.628
697.604, 2726.414
698.900, 3188.948
700.195, 3767.642
701.491, 4582.609
702.786, 5670.951
704.081, 7010.218
705.376, 8797.415
706.670, 10954.495
707.964, 14024.347
709.259, 17568.596
710.552, 21265.295
711.846, 24437.041
713.139, 26558.797
714.433, 26740.531
715.726, 24572.250
717.018, 22183.953
718.311, 18215.639
719.603, 15077.301
720.895, 11838.947
722.187, 9470.576
723.479, 7362.186
724.770, 5913.776
726.061, 4870.350
727.352, 3912.906
728.643, 3198.443
729.934, 2720.963
731.224, 2147.465
732.514, 2038.948
733.804, 1620.415
735.094, 1266.864
736.383, 1271.295
737.672, 1022.708
738.961, 847.104
740.250, 762.483
741.539, 677.845
742.827, 532.189
744.115, 481.517
745.403, 418.827
746.691, 357.120
747.978, 323.397
749.265, 324.657
750.552, 337.900
751.839, 344.126
753.126, 299.337
754.412, 310.530
755.698, 292.708
756.984, 340.870
758.270, 303.015
759.555, 313.144
760.840, 365.256
762.125, 352.354
763.410, 376.436
764.695, 377.293
765.979, 412.551
767.263, 373.586
768.547, 388.606
769.831, 403.610
771.114, 273.600
772.398, 263.573
773.681, 203.532
774.964, 151.477
776.246, 137.407
777.529, 106.321
778.811, 34.780
780.093, 72.939
781.375, 45.173
782.656, 73.469
783.937, 61.841
785.219, 71.283
786.499, 13.798
787.780, 97.358
789.060, 47.004
790.341, 105.711
791.621, 101.509
792.901, 92.395
794.180, 113.363
795.459, 113.425
796.739, 143.580
798.017, 113.843
799.296, 130.198
800.575, 98.652
801.853, 60.190
803.131, 15.790
804.409, 25.573
805.686, 52.918
806.964, 129.250
808.241, 149.572
809.518, 201.883
810.795, 224.183
812.071, 290.479
813.347, 283.772
814.623, 185.064
815.899, 175.377
817.175, 66.683
818.450, 8.981
819.726, 15.737
821.001, 15.515
822.275, 71.246
823.550, 50.064
824.824, 40.926
826.098, 39.830
827.372, 0.771
828.646, 18.730
829.920, 27.715
831.193, 53.269
832.466, 20.247
833.739, 87.217
835.011, 26.816
836.284, 171.134
837.556, 120.117
838.828, 228.117
840.100, 212.145
841.371, 328.178
842.642, 385.212
843.914, 471.241
845.184, 736.267
846.455, 816.287
847.726, 971.304
848.996, 1166.316
850.266, 1299.330
851.536, 1402.353
852.805, 1605.420
854.075, 1596.526
855.344, 1680.685
856.613, 1666.907
857.881, 1816.174
859.150, 1823.503
860.418, 1689.897
861.686, 1776.344
862.954, 1921.829
864.222, 1839.335
865.489, 1908.860
866.756, 1971.384
868.023, 2015.917
869.290, 2057.469
870.557, 1994.031
871.823, 2160.598
873.089, 2101.175
874.355, 2253.754
875.621, 2299.337
876.886, 2458.921
878.152, 2769.506
879.417, 2658.099
880.682, 2918.691
881.946, 2935.285
883.211, 3201.880
884.475, 3287.478
885.739, 3624.077
887.003, 3900.678
888.266, 4341.278
889.530, 4891.883
890.793, 5579.490
892.056, 6149.099
893.318, 7018.724
894.581, 8058.350
895.843, 8907.983
897.105, 9897.622
898.367, 11097.271
899.629, 11926.924
900.890, 12736.576
902.152, 14346.232
903.413, 14915.897
904.673, 15265.572
905.934, 15105.252
907.194, 14704.935
908.454, 13384.621
909.714, 11984.312
910.974, 10884.011
912.234, 9323.713
913.493, 8083.426
914.752, 6933.145
916.011, 5872.875
917.270, 5329.610
918.528, 4512.350
919.786, 4132.106
921.044, 3524.867
922.302, 3423.651
923.560, 3141.442
924.817, 3065.249
926.074, 3008.075
927.331, 2946.917
928.588, 2993.727
929.844, 2944.417
931.101, 2871.840
932.357, 2922.896
933.613, 2748.731
934.868, 2769.823
936.124, 2766.679
937.379, 2798.979
938.634, 2845.929
939.889, 2970.978
941.144, 3000.624
942.398, 3298.935
943.652, 3514.557
944.906, 3723.801
946.160, 4188.781
947.414, 4631.813
948.667, 4866.014
949.920, 5651.142
951.173, 5955.310
952.426, 6537.540
953.678, 7242.256
954.931, 8079.831
956.183, 8929.615
957.435, 10249.540
958.686, 11929.740
959.938, 13679.964
961.189, 15140.204
962.440, 16800.467
963.691, 17460.740
964.941, 17411.037
966.192, 16981.354
967.442, 15691.682
968.692, 15681.916
969.942, 15181.893
971.191, 15510.451
972.441, 16220.556
973.690, 17485.781
974.939, 19612.416
976.187, 21379.703
977.436, 22907.139
978.684, 23547.035
979.932, 23455.955
981.180, 21764.406
982.428, 20754.920
983.675, 18725.324
984.922, 17675.941
986.169, 16524.789
987.416, 15745.838
988.663, 15307.052
989.909, 14867.755
991.155, 15018.597
992.401, 14859.343
993.647, 14870.110
994.893, 15411.111
996.138, 15241.920
997.383, 15472.750
998.628, 15613.602
999.873, 15174.687
1001.117, 14576.024
1002.362, 13326.947
1003.606, 12427.880
1004.850, 11211.153
1006.093, 9762.135
1007.337, 8954.826
1008.580, 7655.908
1009.823, 6617.275
1011.066, 5898.768
1012.308, 5064.808
1013.551, 4534.919
1014.793, 3894.361
1016.035, 3555.514
1017.277, 3231.219
1018.518, 2790.570
1019.760, 2629.222
1021.001, 2473.658
1022.242, 2283.154
1023.483, 2369.879
1024.723, 2169.006
1025.964, 2124.323
1027.204, 2089.069
1028.444, 2032.677
1029.683, 1968.054
1030.923, 1861.465
1032.162, 1684.969
1033.401, 1563.517
1034.640, 1508.964
1035.879, 1476.429
1037.117, 1443.911
1038.355, 1435.615
1039.593, 1435.131
1040.831, 1422.763
1042.069, 1397.135
1043.306, 1351.702
1044.544, 1315.245
1045.781, 1286.998
1047.017, 1296.455
1048.254, 1271.082
1049.490, 1319.723
1050.726, 1402.405
1051.962, 1381.365
1053.198, 1486.720
1054.434, 1493.505
1055.669, 1452.255
1056.904, 1470.079
1058.139, 1438.948
1059.374, 1313.798
1060.608, 1221.572
1061.843, 1122.115
1063.077, 1041.977
1064.311, 845.128
1065.544, 831.077
1066.778, 704.036
1068.011, 676.987
1069.244, 566.991
1070.477, 628.963
1071.710, 587.991
1072.942, 606.102
1074.174, 627.136
1075.406, 720.090
1076.638, 740.075
1077.870, 808.179
1079.101, 935.149
1080.332, 986.284
1081.563, 1078.871
1082.794, 1167.980
1084.025, 1000.234
1085.255, 990.503
1086.485, 819.482
1087.715, 727.846
1088.945, 655.225
1090.175, 581.003
1091.404, 482.515
1092.633, 473.937
1093.862, 395.507
1095.091, 450.157
1096.319, 385.156
1097.548, 335.909
1098.776, 404.654
1100.004, 456.969
1101.231, 427.861
1102.459, 384.778
1103.686, 456.643
1104.913, 442.524
1106.140, 388.442
1107.367, 394.653
1108.593, 367.475
1109.819, 315.610
1111.046, 303.907
1112.271, 236.364
1113.497, 243.370
1114.722, 238.344
1115.948, 207.330
1117.173, 179.183
1118.398, 144.200
1119.622, 125.078
1120.847, 114.918
1122.071, 110.980
1123.295, 27.010
1124.519, 54.100
1125.742, 52.177
1126.966, 83.834
1128.189, 22.129
1129.412, 77.148
1130.635, 46.402
1131.857, 7.659
1133.080, 32.628
1134.302, 22.053
1135.524, 27.026
1136.746, 97.852
1137.967, 8.125
1139.188, 19.173
1140.410, 85.059
1141.631, 12.865
1142.851, 91.296
1144.072, 41.317
1145.292, 3.529
1146.512, 12.187
1147.732, 20.770
1148.952, 1.421
1150.172, 66.849
1151.391, 64.986
1152.610, 20.589
1153.829, 50.294
1155.048, 2.573
1156.266, 14.369
1157.484, 17.286
1158.702, 31.243
1159.920, 92.339
1161.138, 90.854
1162.356, 15.144
1163.573, 59.755
1164.790, 85.752
1166.007, 55.439
1167.224, 32.099
1168.440, 50.591
1169.656, 13.828
1170.872, 22.789
1172.088, 17.190
1173.304, 11.772
1174.519, 29.152
1175.735, 7.474
1176.950, 2.251
1178.165, 0.951
1179.379, 1.615
1180.594, 56.194
1181.808, 32.775
1183.022, 42.717
1184.236, 2.412
1185.449, 7.848
1186.663, 1.392
1187.876, 47.117
1189.089, 11.392
1190.302, 14.771
1191.515, 7.872
1192.727, 30.403
1193.939, 33.189
1195.151, 43.825
1196.363, 16.824
1197.575, 1.614
1198.786, 21.879
1199.997, 9.748
1201.208, 23.262
1202.419, 10.985
1203.630, 9.382
1204.840, 14.904
1206.051, 62.563
1207.261, 18.076
1208.470, 27.602
1209.680, 9.986
1210.889, 16.406
1212.099, 18.691
1213.308, 20.038
1214.516, 17.203
1215.725, 50.467
1216.933, 20.711
1218.142, 19.125
1219.350, 32.993
1220.557, 30.902
1221.765, 46.511
1222.972, 24.491
1224.180, 60.552
1225.387, 30.586
1226.593, 4.348
1227.800, 57.583
1229.006, 34.523
1230.213, 41.424
1231.419, 11.307
1232.624, 37.173
1233.830, 46.026
1235.035, 20.889
1236.241, 36.716
1237.446, 70.528
1238.650, 47.311
1239.855, 41.080
1241.059, 25.826
1242.264, 44.649
1243.468, 59.356
1244.671, 28.950
1245.875, 49.950
1247.078, 53.596
1248.282, 2.726
1249.485, 71.927
1250.687, 66.521
1251.890, 10.628
1253.092, 96.198
1254.295, 42.707
1255.497, 89.291
1256.699, 90.840
1257.900, 63.284
1259.102, 73.877
1260.303, 73.304
1261.504, 120.716
1262.705, 72.154
1263.905, 110.493
1265.106, 27.934
1266.306, 77.210
1267.506, 91.454
1268.706, 90.758
1269.905, 83.933
1271.105, 40.067
1272.304, 3.170
1273.503, 117.233
1274.702, 66.438
1275.900, 67.462
1277.099, 34.427
1278.297, 64.361
1279.495, 149.875
1280.693, 38.221
1281.891, 159.161
1283.088, 67.859
1284.285, 39.648
1285.482, 115.410
1286.679, 94.931
1287.876, 139.631
1289.072, 84.306
1290.268, 73.953
1291.464, 63.362
1292.660, 88.512
1293.856, 63.070
1295.051, 95.614
1296.247, 1.814
1297.442, 100.299
1298.637, 45.066
1299.831, 77.440
1301.026, 9.521
1302.220, 109.470
1303.414, 18.865
1304.608, 14.184
1305.802, 103.165
1306.995, 27.428
1308.188, 93.132
1309.381, 18.819
1310.574, 44.920
1311.767, 35.865
1312.960, 46.742
1314.152, 20.375
1315.344, 25.596
1316.536, 57.617
1317.728, 27.197
1318.919, 1.906
1320.110, 20.833
1321.301, 90.717
1322.492, 36.498
1323.683, 84.225
1324.874, 35.043
1326.064, 44.833
1327.254, 68.598
1328.444, 39.151
1329.634, 35.865
1330.823, 97.454
1332.013, 25.295
1333.202, 62.934
1334.391, 95.587
1335.580, 74.148
1336.768, 97.747
1337.956, 85.293
1339.145, 42.816
1340.333, 57.289
1341.520, 108.476
1342.708, 15.260
1343.895, 96.673
1345.083, 57.044
1346.270, 139.333
1347.456, 86.571
1348.643, 60.819
1349.829, 146.144
1351.016, 53.683
1352.202, 96.898
1353.387, 94.814
1354.573, 131.363
1355.759, 165.459
1356.944, 121.556
1358.129, 91.594
1359.314, 127.655
1360.498, 201.676
1361.683, 126.586
1362.867, 143.568
1364.051, 42.625
1365.235, 116.616
1366.419, 84.480
1367.602, 87.562
1368.785, 76.394
1369.968, 153.793
1371.151, 94.789
1372.334, 147.527
1373.517, 105.132
1374.699, 116.371
1375.881, 115.897
1377.063, 95.785
1378.245, 101.526
1379.426, 104.881
1380.608, 123.919
1381.789, 131.484
1382.970, 116.017
1384.150, 73.174
1385.331, 114.568
1386.511, 162.167
1387.691, 46.499
1388.871, 104.966
1390.051, 86.372
1391.231, 84.646
1392.410, 94.906
1393.589, 21.404
1394.768, 85.079
1395.947, 128.830
1397.126, 70.618
1398.304, 72.812
1399.483, 109.660
1400.661, 51.670
1401.838, 86.587
1403.016, 85.061
1404.194, 73.328
1405.371, 143.548
1406.548, 55.932
1407.725, 96.496
1408.901, 119.363
1410.078, 57.382
1411.254, 91.308
1412.430, 79.006
1413.606, 111.905
1414.782, 119.288
1415.958, 32.085
1417.133, 61.530
1418.308, 115.238
1419.483, 92.453
1420.658, 141.982
1421.832, 147.969
1423.007, 39.975
1424.181, 100.326
1425.355, 83.056
1426.529, 112.869
1427.702, 165.653
1428.876, 104.704
1430.049, 159.068
1431.222, 151.832
1432.395, 125.293
1433.567, 95.875
1434.740, 121.051
1435.912, 135.928
1437.084, 140.751
1438.256, 106.327
1439.428, 122.247
1440.599, 177.749
1441.770, 115.360
1442.942, 102.232
1444.112, 189.118
1445.283, 97.956
1446.454, 65.672
1447.624, 192.401
1448.794, 164.110
1449.964, 173.574
1451.134, 119.647
1452.303, 70.058
1453.473, 133.372
1454.642, 132.410
1455.811, 110.546
1456.980, 147.661
1458.148, 114.442
1459.317, 127.370
1460.485, 116.194
1461.653, 85.394
1462.821, 134.408
1463.989, 109.785
1465.156, 37.707
1466.323, 105.112
1467.490, 119.627
1468.657, 24.879
1469.824, 146.450
1470.991, 74.020
1472.157, 62.643
1473.323, 46.264
1474.489, 29.896
1475.655, 53.512
1476.820, 33.119
1477.986, 68.719
1479.151, 72.298
1480.316, 76.855
1481.481, 40.394
1482.645, 80.937
1483.810, 5.492
1484.974, 73.119
1486.138, 83.791
1487.302, 40.529
1488.465, 36.323
1489.629, 18.172
1490.792, 57.068
1491.955, 101.889
1493.118, 40.853
1494.281, 7.151
1495.443, 31.882
1496.606, 41.961
1497.768, 54.104
1498.930, 66.663
1500.091, 14.915
1501.253, 25.243
1502.414, 42.531
1503.575, 45.016
