##NAMES=Axinite-(Fe)
##RRUFFID=R050061
##IDEAL CHEMISTRY=Ca_4_Fe^2+^_2_Al_4_[B_2_Si_8_O_30_](OH)_2_
##LOCALITY=Jamestown, California, USA
##OWNER=RRUFF
##SOURCE=Rock Currier
##DESCRIPTION=Brown colored axe-head-shaped single crystals
##STATUS=The identification of this mineral has been confirmed by X-ray diffraction and chemical analysis
##URL=rruff.info/R050061
##MEASURED CHEMISTRY=Ca_2.00_(Fe^2+^_0.73_Mg_0.20_Mn_0.07_)Al_2.00_BSi_4_O_15_(OH)
##PIN_ID=L00381
##ORIENTATION=Laser parallel to a* (1 0 0). Fiducial mark perpendicular to laser is parallel to b [0 1 0]
88.260, 0.000
89.663, 10.037
91.065, 3.140
92.466, 97.498
93.868, 262.383
95.269, 422.446
96.670, 727.045
98.070, 1265.673
99.471, 1601.657
100.871, 2024.285
102.271, 2381.729
103.670, 3250.426
105.070, 4307.624
106.469, 5732.663
107.868, 6418.198
109.267, 6361.281
110.665, 5497.433
112.063, 3755.054
113.461, 2781.252
114.859, 1970.875
116.256, 1400.810
117.653, 892.978
119.050, 603.321
120.447, 449.794
121.843, 370.367
123.240, 364.034
124.636, 92.386
126.031, 38.467
127.427, 4.267
128.822, 53.836
130.217, 10.144
131.612, 54.103
133.006, 47.637
134.400, 30.322
135.794, 187.832
137.188, 374.945
138.581, 447.704
139.975, 627.149
141.368, 594.317
142.760, 793.235
144.153, 1282.930
145.545, 1962.426
146.937, 2771.742
148.329, 3714.899
149.720, 4555.914
151.112, 4621.796
152.503, 4481.561
153.893, 3479.220
155.284, 2538.784
156.674, 1872.263
158.064, 1459.880
159.454, 1420.738
160.843, 1347.600
162.233, 1696.161
163.622, 1875.633
165.011, 2389.289
166.399, 3297.081
167.787, 4576.987
169.175, 6078.004
170.563, 6945.124
171.951, 7412.347
173.338, 6509.679
174.725, 5407.138
176.112, 4045.724
177.499, 2724.437
178.885, 2008.273
180.271, 1326.229
181.657, 919.299
183.043, 594.475
184.428, 619.747
185.813, 673.111
187.198, 1094.569
188.583, 1844.116
189.967, 2734.749
191.351, 4315.493
192.735, 5224.348
194.119, 5273.230
195.502, 4441.175
196.885, 3494.192
198.268, 3461.275
199.651, 3709.425
201.033, 4796.638
202.415, 6147.914
203.797, 7387.250
205.179, 8226.650
206.561, 8296.111
207.942, 7925.625
209.323, 6935.176
210.703, 5894.761
212.084, 4937.379
213.464, 4005.036
214.844, 3399.730
216.224, 2877.465
217.603, 2625.241
218.983, 2251.060
220.362, 1861.917
221.741, 1400.817
223.119, 868.757
224.497, 602.737
225.875, 148.758
227.253, 46.883
228.631, 101.847
230.008, 264.413
231.385, 295.897
232.762, 406.338
234.139, 263.744
235.515, 255.111
236.891, 12.428
238.267, 64.308
239.643, 427.098
241.018, 827.943
242.393, 948.779
243.768, 1229.413
245.143, 1317.809
246.517, 1499.145
247.891, 1445.514
249.265, 1435.914
250.639, 1728.345
252.012, 1870.806
253.386, 2153.295
254.759, 2318.130
256.131, 2278.422
257.504, 1910.981
258.876, 1643.772
260.248, 1541.702
261.620, 1585.764
262.991, 1894.822
264.363, 2103.976
265.734, 2582.143
267.104, 3214.315
268.475, 3777.498
269.845, 4496.695
271.215, 4890.907
272.585, 5390.137
273.955, 5132.352
275.324, 4894.428
276.693, 4277.309
278.062, 3613.217
279.431, 3053.150
280.799, 2626.107
282.167, 2348.087
283.535, 2142.087
284.903, 2013.106
286.270, 1975.143
287.638, 1831.199
289.005, 1880.271
290.371, 1880.339
291.738, 2015.694
293.104, 2183.337
294.470, 2507.279
295.836, 3022.116
297.201, 3438.129
298.567, 4082.736
299.932, 4898.100
301.296, 6201.052
302.661, 7802.998
304.025, 9224.939
305.389, 10776.881
306.753, 10908.821
308.117, 10550.760
309.480, 8812.698
310.843, 6894.642
312.206, 5406.585
313.569, 4178.540
314.931, 3674.536
316.293, 3363.567
317.655, 3277.645
319.017, 3192.770
320.378, 2926.923
321.740, 2561.122
323.101, 2053.343
324.461, 1758.307
325.822, 1605.813
327.182, 1400.988
328.542, 1472.160
329.902, 1248.357
331.261, 1239.586
332.621, 1138.859
333.980, 1159.189
335.339, 1360.585
336.697, 1629.034
338.056, 2337.550
339.414, 3209.124
340.772, 4500.772
342.129, 5633.470
343.487, 6635.203
344.844, 7316.982
346.201, 6838.782
347.557, 6690.601
348.914, 6742.435
350.270, 7074.286
351.626, 7226.150
352.982, 6518.030
354.337, 5459.924
355.693, 4026.832
357.048, 2911.753
358.402, 2022.686
359.757, 1379.631
361.111, 959.846
362.465, 610.173
363.819, 577.662
365.173, 338.273
366.526, 382.187
367.879, 473.216
369.232, 446.490
370.585, 557.464
371.937, 603.020
373.290, 639.665
374.642, 694.753
375.993, 704.085
377.345, 784.298
378.696, 740.887
380.047, 1094.690
381.398, 1331.733
382.748, 1951.668
384.099, 2855.506
385.449, 3915.129
386.799, 5790.782
388.148, 7403.706
389.497, 9107.800
390.847, 9261.212
392.196, 8783.509
393.544, 7766.882
394.893, 6016.861
396.241, 4887.565
397.589, 3797.847
398.936, 2986.937
400.284, 2537.669
401.631, 2016.014
402.978, 1684.532
404.325, 1499.180
405.672, 1363.257
407.018, 1288.333
408.364, 1430.407
409.710, 1805.479
411.055, 2369.550
412.401, 3665.618
413.746, 5557.684
415.091, 8199.747
416.435, 10901.809
417.780, 11403.865
419.124, 10815.917
420.468, 8307.964
421.812, 6380.001
423.155, 5402.032
424.498, 4627.051
425.842, 4762.062
427.184, 4528.061
428.527, 4622.050
429.869, 4226.029
431.211, 3471.995
432.553, 2848.951
433.895, 2024.895
435.236, 1566.828
436.577, 1054.748
437.918, 744.657
439.259, 790.556
440.599, 700.443
441.940, 845.319
443.280, 972.185
444.619, 1119.037
445.959, 1050.877
447.298, 738.706
448.637, 526.521
449.976, 265.324
451.315, 88.113
452.653, 7.889
453.991, 69.351
455.329, 67.634
456.667, 46.948
458.004, 1.708
459.341, 15.638
460.678, 0.008
462.015, 124.634
463.352, 170.247
464.688, 328.845
466.024, 501.429
467.360, 788.998
468.695, 1006.551
470.031, 1135.091
471.366, 1652.614
472.701, 2212.392
474.035, 1571.568
475.370, 1702.034
476.704, 2186.232
478.038, 3078.692
479.372, 4287.712
480.705, 6339.596
482.038, 8740.062
483.371, 11306.077
484.704, 13570.968
486.037, 12492.915
487.369, 10654.812
488.701, 7506.775
490.033, 5154.215
491.365, 3465.862
492.696, 2471.840
494.027, 2027.606
495.358, 1703.045
496.689, 1542.200
498.019, 1644.727
499.350, 1652.608
500.680, 1989.371
502.009, 2194.355
503.339, 2556.754
504.668, 2823.425
505.997, 3038.214
507.326, 3068.868
508.655, 3021.803
509.983, 2851.876
511.311, 2505.924
512.639, 2115.946
513.967, 1615.969
515.295, 1142.972
516.622, 854.965
517.949, 501.948
519.276, 323.916
520.602, 177.872
521.929, 25.196
523.255, 4.681
524.581, 44.491
525.906, 48.743
527.232, 50.073
528.557, 53.484
529.882, 80.018
531.207, 43.484
532.531, 162.907
533.855, 172.298
535.179, 178.657
536.503, 208.984
537.827, 127.281
539.150, 102.543
540.473, 81.770
541.796, 31.957
543.119, 101.097
544.441, 47.201
545.764, 46.259
547.086, 94.274
548.407, 28.249
549.729, 55.176
551.050, 88.940
552.371, 108.125
553.692, 84.350
555.013, 109.591
556.333, 22.836
557.653, 5.924
558.973, 175.702
560.293, 188.459
561.612, 386.183
562.932, 448.875
564.251, 461.536
565.569, 724.165
566.888, 803.763
568.206, 1141.328
569.524, 1354.862
570.842, 1696.363
572.160, 2008.833
573.477, 2040.272
574.795, 2161.678
576.112, 1989.052
577.428, 1774.393
578.745, 1718.703
580.061, 1523.979
581.377, 1608.224
582.693, 1818.437
584.009, 2222.616
585.324, 2707.764
586.639, 3152.878
587.954, 3828.961
589.269, 3943.011
590.583, 3807.027
591.897, 3447.013
593.212, 2759.965
594.525, 2345.884
595.839, 1707.771
597.152, 1299.625
598.465, 1093.447
599.778, 831.236
601.091, 741.993
602.403, 630.717
603.716, 651.408
605.028, 747.067
606.339, 748.694
607.651, 1008.288
608.962, 1139.850
610.273, 1416.378
611.584, 1713.564
612.895, 1835.845
614.205, 2144.187
615.515, 2149.771
616.825, 2446.761
618.135, 2588.399
619.444, 2512.297
620.754, 2564.570
622.063, 2027.811
623.372, 1684.021
624.680, 1201.199
625.989, 733.346
627.297, 570.460
628.605, 322.544
629.912, 162.597
631.220, 47.615
632.527, 82.414
633.834, 46.554
635.141, 98.786
636.447, 92.138
637.754, 26.604
639.060, 84.153
640.366, 10.921
641.671, 6.951
642.977, 107.418
644.282, 119.096
645.587, 110.225
646.892, 215.821
648.196, 78.719
649.501, 0.676
650.805, 43.781
652.109, 86.940
653.412, 35.219
654.716, 89.590
656.019, 64.083
657.322, 126.684
658.625, 35.424
659.927, 22.743
661.230, 32.150
662.532, 100.867
663.834, 153.848
665.135, 177.796
666.437, 420.713
667.738, 558.600
669.039, 819.458
670.340, 1116.928
671.640, 1476.317
672.940, 2122.314
674.241, 2551.701
675.540, 3165.718
676.840, 3351.711
678.139, 3304.134
679.439, 3084.938
680.738, 2417.032
682.036, 2057.976
683.335, 1680.178
684.633, 1339.837
685.931, 1178.062
687.229, 910.568
688.527, 912.475
689.824, 808.537
691.121, 791.609
692.418, 886.682
693.715, 976.854
695.012, 1106.633
696.308, 1318.177
697.604, 1538.462
698.900, 1920.836
700.195, 2194.288
701.491, 2880.935
702.786, 3567.531
704.081, 4499.835
705.376, 5964.953
706.670, 7654.921
707.964, 9704.898
709.259, 12029.915
710.552, 14916.386
711.846, 17731.236
713.139, 18641.492
714.433, 19333.516
715.726, 17238.164
717.018, 15072.842
718.311, 12627.760
719.603, 9742.658
720.895, 7897.542
722.187, 6282.407
723.479, 4978.255
724.770, 4203.087
726.061, 3357.903
727.352, 2877.703
728.643, 2383.486
729.934, 1910.256
731.224, 1716.008
732.514, 1449.748
733.804, 1305.472
735.094, 1100.183
736.383, 977.880
737.672, 981.563
738.961, 816.234
740.250, 752.892
741.539, 807.537
742.827, 620.170
744.115, 788.792
745.403, 577.402
746.691, 762.001
747.978, 738.590
749.265, 708.168
750.552, 982.737
751.839, 1021.296
753.126, 1134.846
754.412, 1275.387
755.698, 1419.919
756.984, 1868.442
758.270, 2003.958
759.555, 2517.465
760.840, 3015.965
762.125, 3451.458
763.410, 4242.944
764.695, 4512.423
765.979, 4756.897
767.263, 4924.367
768.547, 4620.847
769.831, 4523.339
771.114, 3761.834
772.398, 3274.328
773.681, 2822.821
774.964, 2250.313
776.246, 1946.803
777.529, 1500.288
778.811, 1217.770
780.093, 1077.249
781.375, 778.727
782.656, 780.203
783.937, 544.676
785.219, 468.879
786.499, 416.667
787.780, 209.149
789.060, 192.882
790.341, 155.338
791.621, 34.217
792.901, 82.217
794.180, 85.384
795.459, 11.562
796.739, 74.639
798.017, 139.801
799.296, 16.043
800.575, 141.186
801.853, 44.933
803.131, 47.907
804.409, 14.231
805.686, 127.643
806.964, 110.833
808.241, 296.299
809.518, 447.382
810.795, 564.102
812.071, 939.930
813.347, 1051.528
814.623, 792.699
815.899, 660.592
817.175, 459.355
818.450, 333.537
819.726, 220.844
821.001, 26.297
822.275, 33.765
823.550, 154.750
824.824, 59.299
826.098, 101.847
827.372, 112.407
828.646, 79.983
829.920, 105.564
831.193, 44.157
832.466, 87.740
833.739, 44.308
835.011, 24.145
836.284, 29.356
837.556, 9.816
838.828, 101.769
840.100, 20.403
841.371, 202.062
842.642, 235.750
843.914, 337.462
845.184, 414.197
846.455, 480.955
847.726, 610.743
848.996, 590.556
850.266, 703.396
851.536, 620.266
852.805, 509.169
854.075, 501.105
855.344, 391.075
856.613, 325.079
857.881, 370.117
859.150, 243.190
860.418, 270.294
861.686, 204.467
862.954, 141.711
864.222, 297.027
865.489, 195.423
866.756, 349.868
868.023, 287.368
869.290, 321.907
870.557, 391.500
871.823, 377.146
873.089, 406.831
874.355, 594.565
875.621, 513.342
876.886, 742.157
878.152, 753.018
879.417, 804.906
880.682, 1019.840
881.946, 1000.816
883.211, 1298.823
884.475, 1342.879
885.739, 1501.971
887.003, 1775.092
888.266, 1873.275
889.530, 2353.494
890.793, 2746.751
892.056, 2902.042
893.318, 3596.367
894.581, 3930.735
895.843, 4618.142
897.105, 5074.586
898.367, 5381.083
899.629, 5957.625
900.890, 5844.219
902.152, 6600.861
903.413, 6947.537
904.673, 7104.245
905.934, 7910.986
907.194, 8117.761
908.454, 8224.568
909.714, 8321.408
910.974, 7438.282
912.234, 7105.195
913.493, 6062.143
914.752, 5129.138
916.011, 4466.168
917.270, 3698.231
918.528, 3274.345
919.786, 3024.492
921.044, 2503.672
922.302, 2622.887
923.560, 2277.136
924.817, 2187.425
926.074, 2336.748
927.331, 2235.105
928.588, 2339.516
929.844, 2335.960
931.101, 2237.441
932.357, 2366.968
933.613, 2244.529
934.868, 2401.133
936.124, 2415.772
937.379, 2513.448
938.634, 2817.182
939.889, 2894.990
941.144, 3176.864
942.398, 3744.819
943.652, 4081.854
944.906, 5008.951
946.160, 5343.233
947.414, 6270.856
948.667, 6975.877
949.920, 7607.688
951.173, 8776.055
952.426, 9127.957
953.678, 9774.559
954.931, 10991.104
956.183, 11289.047
957.435, 13297.663
958.686, 14626.369
959.938, 16165.137
961.189, 18273.994
962.440, 18602.928
963.691, 18561.953
964.941, 17701.043
966.192, 15590.190
967.442, 14039.403
968.692, 12228.658
969.942, 10737.950
971.191, 10367.280
972.441, 9406.663
973.690, 9876.081
974.939, 10049.898
976.187, 10327.809
977.436, 11024.115
978.684, 10390.042
979.932, 10617.348
981.180, 9813.684
982.428, 9092.351
983.675, 9069.538
984.922, 8488.295
986.169, 8408.100
987.416, 8707.368
988.663, 8567.078
989.909, 9136.997
991.155, 9236.952
992.401, 9236.944
993.647, 9836.976
994.893, 9777.039
996.138, 10437.138
997.383, 11168.445
998.628, 11798.623
999.873, 13248.861
1001.117, 13429.565
1002.362, 13889.849
1003.606, 14061.099
1004.850, 12781.991
1006.093, 12142.519
1007.337, 10574.236
1008.580, 8844.695
1009.823, 7805.199
1011.066, 6406.108
1012.308, 5476.922
1013.551, 4689.014
1014.793, 3762.464
1016.035, 3583.148
1017.277, 3008.021
1018.518, 2723.686
1019.760, 2693.399
1021.001, 2593.710
1022.242, 2840.021
1023.483, 2913.703
1024.723, 2809.476
1025.964, 3074.724
1027.204, 2768.089
1028.444, 2640.081
1029.683, 2422.611
1030.923, 1894.568
1032.162, 1755.650
1033.401, 1373.346
1034.640, 1197.402
1035.879, 1250.649
1037.117, 910.882
1038.355, 1016.029
1039.593, 890.046
1040.831, 743.527
1042.069, 858.688
1043.306, 854.235
1044.544, 789.851
1045.781, 1009.883
1047.017, 688.658
1048.254, 892.162
1049.490, 833.188
1050.726, 866.104
1051.962, 1066.674
1053.198, 883.368
1054.434, 967.905
1055.669, 913.433
1056.904, 800.099
1058.139, 935.703
1059.374, 804.289
1060.608, 784.248
1061.843, 723.076
1063.077, 619.089
1064.311, 709.883
1065.544, 594.554
1066.778, 521.746
1068.011, 663.475
1069.244, 514.189
1070.477, 590.073
1071.710, 650.815
1072.942, 721.784
1074.174, 940.633
1075.406, 996.604
1076.638, 1113.638
1077.870, 1538.453
1079.101, 1577.503
1080.332, 1748.164
1081.563, 1873.013
1082.794, 1677.740
1084.025, 1706.694
1085.255, 1348.614
1086.485, 1247.019
1087.715, 1118.920
1088.945, 826.830
1090.175, 794.663
1091.404, 706.627
1092.633, 673.241
1093.862, 710.391
1095.091, 659.389
1096.319, 731.301
1097.548, 914.421
1098.776, 840.912
1100.004, 1065.421
1101.231, 1269.486
1102.459, 1216.913
1103.686, 1537.250
1104.913, 1384.372
1106.140, 1354.429
1107.367, 1375.604
1108.593, 1040.786
1109.819, 1114.644
1111.046, 849.751
1112.271, 793.013
1113.497, 726.522
1114.722, 559.045
1115.948, 607.893
1117.173, 565.381
1118.398, 356.586
1119.622, 534.440
1120.847, 376.572
1122.071, 321.726
1123.295, 361.884
1124.519, 237.084
1125.742, 253.995
1126.966, 251.472
1128.189, 118.621
1129.412, 170.633
1130.635, 89.866
1131.857, 189.264
1133.080, 799.229
1134.302, 762.581
1135.524, 963.224
1136.746, 177.078
1137.967, 18.214
1139.188, 146.888
1140.410, 95.232
1141.631, 34.720
1142.851, 152.183
1144.072, 34.562
1145.292, 68.109
1146.512, 1.255
1147.732, 15.707
1148.952, 20.980
1150.172, 25.795
1151.391, 16.122
1152.610, 4.275
1153.829, 31.279
1155.048, 16.033
1156.266, 18.285
1157.484, 9.334
1158.702, 5.374
1159.920, 30.636
1161.138, 34.876
1162.356, 31.864
1163.573, 54.973
1164.790, 33.707
1166.007, 96.819
1167.224, 88.809
1168.440, 39.369
1169.656, 75.592
1170.872, 43.665
1172.088, 33.567
1173.304, 49.909
1174.519, 56.011
1175.735, 48.980
1176.950, 38.439
1178.165, 45.367
1179.379, 63.183
1180.594, 3.841
1181.808, 19.284
1183.022, 99.499
1184.236, 1.225
1185.449, 13.535
1186.663, 16.469
1187.876, 2.641
1189.089, 18.042
1190.302, 4.209
1191.515, 4.983
1192.727, 49.674
1193.939, 28.291
1195.151, 51.267
1196.363, 32.462
1197.575, 54.121
1198.786, 33.801
1199.997, 76.588
1201.208, 118.387
1202.419, 60.520
1203.630, 82.421
1204.840, 93.961
1206.051, 7.735
1207.261, 49.096
1208.470, 23.408
1209.680, 69.927
1210.889, 111.558
1212.099, 23.319
1213.308, 103.727
1214.516, 112.897
1215.725, 78.014
1216.933, 172.970
1218.142, 20.361
1219.350, 103.248
1220.557, 79.104
1221.765, 28.947
1222.972, 184.810
1224.180, 78.628
1225.387, 4.582
1226.593, 206.056
1227.800, 13.285
1229.006, 120.988
1230.213, 133.516
1231.419, 12.502
1232.624, 172.974
1233.830, 164.423
1235.035, 45.854
1236.241, 143.208
1237.446, 58.531
1238.650, 105.821
1239.855, 150.097
1241.059, 50.359
1242.264, 131.553
1243.468, 78.714
1244.671, 79.201
1245.875, 209.298
1247.078, 94.362
1248.282, 112.802
1249.485, 167.780
1250.687, 25.723
1251.890, 159.620
1253.092, 159.479
1254.295, 71.748
1255.497, 243.533
1256.699, 146.280
1257.900, 101.268
1259.102, 100.942
1260.303, 77.681
1261.504, 108.013
1262.705, 166.562
1263.905, 2.710
1265.106, 185.744
1266.306, 66.149
1267.506, 67.907
1268.706, 179.202
1269.905, 83.455
1271.105, 123.817
1272.304, 235.976
1273.503, 41.095
1274.702, 186.176
1275.900, 149.184
1277.099, 87.148
1278.297, 160.064
1279.495, 111.936
1280.693, 95.450
1281.891, 229.237
1283.088, 109.970
1284.285, 158.650
1285.482, 130.285
1286.679, 132.880
1287.876, 175.433
1289.072, 54.771
1290.268, 77.287
1291.464, 249.679
1292.660, 104.598
1293.856, 166.928
1295.051, 103.291
1296.247, 90.006
1297.442, 208.133
1298.637, 132.995
1299.831, 32.106
1301.026, 169.204
1302.220, 31.850
1303.414, 90.581
1304.608, 43.049
1305.802, 84.131
1306.995, 132.970
1308.188, 112.613
1309.381, 67.453
1310.574, 124.233
1311.767, 75.401
1312.960, 140.559
1314.152, 103.542
1315.344, 31.211
1316.536, 125.393
1317.728, 83.442
1318.919, 2.846
1320.110, 118.696
1321.301, 78.102
1322.492, 38.369
1323.683, 129.009
1324.874, 45.275
1326.064, 145.338
1327.254, 105.522
1328.444, 12.649
1329.634, 150.893
1330.823, 104.659
1332.013, 19.734
1333.202, 164.406
1334.391, 17.857
1335.580, 64.157
1336.768, 155.561
1337.956, 26.218
1339.145, 96.341
1340.333, 132.559
1341.520, 103.106
1342.708, 76.515
1343.895, 72.981
1345.083, 39.521
1346.270, 55.253
1347.456, 105.343
1348.643, 62.780
1349.829, 130.830
1351.016, 90.992
1352.202, 112.955
1353.387, 57.123
1354.573, 149.400
1355.759, 161.141
1356.944, 113.332
1358.129, 119.521
1359.314, 212.490
1360.498, 57.585
1361.683, 190.436
1362.867, 173.432
1364.051, 8.753
1365.235, 189.981
1366.419, 121.914
1367.602, 120.596
1368.785, 160.651
1369.968, 35.601
1371.151, 104.562
1372.334, 189.334
1373.517, 44.942
1374.699, 126.958
1375.881, 126.497
1377.063, 124.161
1378.245, 229.245
1379.426, 170.357
1380.608, 158.625
1381.789, 131.396
1382.970, 128.183
1384.150, 140.003
1385.331, 185.031
1386.511, 55.719
1387.691, 147.602
1388.871, 145.059
1390.051, 43.335
1391.231, 180.622
1392.410, 180.788
1393.589, 140.874
1394.768, 148.999
1395.947, 36.852
1397.126, 147.804
1398.304, 139.422
1399.483, 54.747
1400.661, 190.919
1401.838, 95.104
1403.016, 8.486
1404.194, 164.338
1405.371, 61.812
1406.548, 157.181
1407.725, 209.092
1408.901, 27.076
1410.078, 152.604
1411.254, 236.030
1412.430, 61.858
1413.606, 108.328
1414.782, 158.546
1415.958, 90.979
1417.133, 214.410
1418.308, 310.262
1419.483, 173.430
1420.658, 209.045
1421.832, 5.478
1423.007, 80.991
1424.181, 128.682
1425.355, 90.447
1426.529, 182.623
1427.702, 121.075
1428.876, 101.133
1430.049, 148.159
1431.222, 58.729
1432.395, 97.539
1433.567, 170.562
1434.740, 101.421
1435.912, 137.908
1437.084, 113.388
1438.256, 53.201
1439.428, 174.824
1440.599, 144.230
1441.770, 52.603
1442.942, 174.637
1444.112, 59.149
1445.283, 51.450
1446.454, 163.716
1447.624, 104.000
1448.794, 113.100
1449.964, 172.233
1451.134, 52.483
1452.303, 229.513
1453.473, 112.469
1454.642, 3.386
1455.811, 172.175
1456.980, 99.290
1458.148, 46.752
1459.317, 209.544
1460.485, 88.592
1461.653, 91.157
1462.821, 274.858
1463.989, 67.133
1465.156, 152.800
1466.323, 204.609
1467.490, 4.443
1468.657, 181.137
1469.824, 50.000
1470.991, 50.898
1472.157, 201.789
1473.323, 58.497
1474.489, 80.389
1475.655, 137.246
1476.820, 38.931
1477.986, 125.711
1479.151, 125.638
1480.316, 64.448
1481.481, 83.318
1482.645, 136.177
1483.810, 18.930
1484.974, 168.972
1486.138, 40.889
1487.302, 53.919
1488.465, 162.038
1489.629, 102.205
1490.792, 85.656
1491.955, 150.953
1493.118, 25.279
1494.281, 104.651
1495.443, 74.074
