##NAMES=Axinite-(Fe)
##RRUFFID=R060183
##IDEAL CHEMISTRY=Ca_4_Fe^2+^_2_Al_4_[B_2_Si_8_O_30_](OH)_2_
##LOCALITY=Skagit Bluffs, near Manning Park, British Columbia, Canada
##OWNER=RRUFF
##SOURCE=Lloyd Twaites
##DESCRIPTION=Light-pink transparent axe-head-shaped single crystal
##STATUS=The identification of this mineral has been confirmed by X-ray diffraction and chemical analysis
##URL=rruff.info/R060183
##MEASURED CHEMISTRY=Ca_2.00_(Fe^2+^_0.58_Mn_0.23_Mg_0.19_)Al_2.00_B_1.00_Si_4.00_O_15_(OH)
##PIN_ID=L00798
##ORIENTATION=Laser parallel to -b* (0 -1 0). Fiducial mark perpendicular to laser is parallel to -c [0 0 -1]
52.67100, 0.0000000E+00
53.91000, 65.25787
55.14900, 110.2543
56.38700, 134.8623
57.62600, 178.4819
58.86400, 238.0089
60.10300, 336.7416
61.34100, 369.2422
62.57900, 315.8334
63.81700, 255.9644
65.05400, 121.6223
66.29200, 79.37079
67.52900, 0.1112670
68.76700, 3.278137
70.00400, 57.15161
71.24100, 0.9565430
72.47700, 89.49658
73.71400, 98.68396
74.95100, 31.65955
76.18700, 110.4567
77.42300, 206.5563
78.65900, 175.5378
79.89500, 260.3088
81.13100, 307.7850
82.36700, 583.8898
83.60200, 928.5542
84.83700, 1281.716
86.07200, 1530.317
87.30800, 1877.308
88.54200, 2409.643
89.77700, 3065.280
91.01200, 3847.146
92.24600, 4754.155
93.48000, 5803.220
94.71400, 6435.264
95.94800, 6900.249
97.18200, 7161.183
98.41600, 7014.057
99.64900, 7443.832
100.8830, 7670.474
102.1160, 8018.952
103.3490, 8271.240
104.5820, 8856.313
105.8150, 9415.157
107.0470, 10113.75
108.2800, 10722.07
109.5120, 10119.11
110.7440, 7879.847
111.9760, 6222.276
113.2080, 5300.382
114.4400, 4771.153
115.6710, 4492.580
116.9030, 4343.649
118.1340, 4058.354
119.3650, 3974.686
120.5960, 3902.648
121.8270, 3885.242
123.0580, 3997.455
124.2880, 4097.279
125.5190, 3759.705
126.7490, 3817.635
127.9790, 3547.783
129.2090, 3281.117
130.4390, 3099.610
131.6680, 2890.246
132.8980, 2767.005
134.1270, 2799.858
135.3560, 2845.805
136.5850, 3063.922
137.8140, 3487.494
139.0430, 3630.865
140.2710, 3909.948
141.5000, 3930.642
142.7280, 4075.846
143.9560, 4385.324
145.1840, 4797.068
146.4120, 5876.087
147.6390, 7023.389
148.8670, 7837.994
150.0940, 8252.904
151.3210, 8279.132
152.5490, 8363.677
153.7750, 8605.544
155.0020, 9045.730
156.2290, 9330.243
157.4550, 8761.076
158.6810, 8337.238
159.9080, 7933.726
161.1340, 8056.542
162.3590, 8496.683
163.5850, 9247.146
164.8110, 10507.94
166.0360, 12329.05
167.2610, 14702.49
168.4860, 16699.25
169.7110, 17577.34
170.9360, 16856.75
172.1610, 15073.47
173.3850, 12848.52
174.6100, 10561.89
175.8340, 8519.579
177.0580, 6892.580
178.2820, 5378.900
179.5050, 3990.535
180.7290, 3129.480
181.9520, 2438.740
183.1760, 2049.308
184.3990, 1782.196
185.6220, 1715.490
186.8450, 1549.334
188.0670, 1829.661
189.2900, 2104.312
190.5120, 2743.252
191.7340, 3265.482
192.9560, 3616.999
194.1780, 3782.801
195.4000, 3927.887
196.6220, 4104.256
197.8430, 4663.903
199.0640, 5555.832
200.2860, 6825.973
201.5070, 8118.775
202.7270, 9965.213
203.9480, 11308.23
205.1690, 12633.96
206.3890, 13655.40
207.6090, 14374.69
208.8290, 14491.79
210.0490, 14597.89
211.2690, 13696.87
212.4890, 12668.72
213.7080, 11309.22
214.9280, 10007.12
216.1470, 8345.993
217.3660, 7145.605
218.5850, 6022.911
219.8030, 4905.935
221.0220, 3923.193
222.2400, 3058.161
223.4590, 2348.144
224.6770, 1680.839
225.8950, 1407.349
227.1120, 1095.613
228.3300, 727.1978
229.5480, 452.7412
230.7650, 348.7729
231.9820, 368.1240
233.1990, 558.8892
234.4160, 731.9668
235.6330, 1022.979
236.8490, 1423.077
238.0660, 1827.156
239.2820, 2488.638
240.4980, 3118.501
241.7140, 3963.776
242.9300, 4631.468
244.1460, 5208.565
245.3610, 5596.425
246.5770, 5923.826
247.7920, 5936.925
249.0070, 5917.282
250.2220, 5680.898
251.4370, 5610.765
252.6510, 5550.885
253.8660, 5038.250
255.0800, 4710.862
256.2940, 4369.714
257.5080, 4065.806
258.7220, 4060.153
259.9360, 4063.904
261.1490, 4308.486
262.3630, 4548.506
263.5760, 5023.753
264.7890, 5621.222
266.0020, 6432.913
267.2150, 7104.821
268.4270, 7997.944
269.6400, 8541.282
270.8520, 9246.830
272.0640, 9596.588
273.2760, 9476.553
274.4880, 8940.724
275.7000, 8311.097
276.9120, 7479.679
278.1230, 6541.469
279.3340, 5643.460
280.5450, 4844.658
281.7560, 4492.062
282.9670, 4118.671
284.1780, 3873.482
285.3880, 4033.494
286.5980, 4349.703
287.8090, 5020.106
289.0190, 5785.704
290.2290, 6906.493
291.4380, 8049.473
292.6480, 9351.644
293.8570, 11138.01
295.0670, 12526.55
296.2760, 13907.29
297.4850, 15198.21
298.6930, 16621.32
299.9020, 17706.61
301.1110, 18834.09
302.3190, 19841.74
303.5270, 20743.58
304.7350, 21296.59
305.9430, 20561.79
307.1510, 18568.16
308.3580, 16501.71
309.5660, 14256.43
310.7730, 12093.33
311.9800, 10694.40
313.1870, 9521.637
314.3940, 8859.282
315.6010, 8492.299
316.8070, 8322.524
318.0130, 8032.644
319.2200, 7428.383
320.4260, 6518.493
321.6310, 5451.528
322.8370, 4281.087
324.0430, 3490.806
325.2480, 2910.682
326.4540, 2544.714
327.6590, 2300.900
328.8640, 2054.242
330.0680, 1768.734
331.2730, 1733.378
332.4780, 1655.170
333.6820, 1840.107
334.8860, 1999.192
336.0900, 2696.419
337.2940, 3507.790
338.4980, 4513.304
339.7010, 5711.957
340.9050, 6910.751
342.1080, 8508.684
343.3110, 9734.752
344.5140, 10435.96
345.7170, 11277.35
346.9200, 12047.93
348.1220, 13115.74
349.3240, 14131.78
350.5270, 14588.93
351.7290, 14004.69
352.9310, 12272.33
354.1320, 10077.90
355.3340, 7709.102
356.5350, 5929.453
357.7370, 4131.001
358.9380, 2844.739
360.1390, 1628.676
361.3400, 892.8027
362.5400, 356.1260
363.7410, 51.37598
364.9410, 412.6992
366.1410, 454.9355
367.3410, 626.0957
368.5410, 584.2363
369.7410, 497.3184
370.9400, 431.2949
372.1400, 349.1553
373.3390, 514.8975
374.5380, 312.5684
375.7370, 109.1172
376.9360, 193.4912
378.1350, 599.2656
379.3330, 1277.195
380.5310, 2212.062
381.7300, 3302.381
382.9280, 4861.929
384.1260, 6544.775
385.3230, 8211.766
386.5210, 10192.30
387.7180, 11459.49
388.9160, 12360.13
390.1130, 12788.74
391.3100, 12780.52
392.5060, 12426.01
393.7030, 11334.62
394.9000, 9956.355
396.0960, 8350.218
397.2920, 7013.205
398.4880, 5793.316
399.6840, 4949.549
400.8800, 3983.906
402.0750, 3365.381
403.2710, 2680.978
404.4660, 2304.691
405.6610, 2178.522
406.8560, 2139.473
408.0510, 2340.539
409.2450, 2651.721
410.4400, 3322.019
411.6340, 3943.432
412.8280, 5203.959
414.0220, 6543.600
415.2160, 7646.354
416.4100, 8616.220
417.6030, 8801.196
418.7970, 8893.287
419.9900, 9262.484
421.1830, 10201.79
422.3760, 11129.21
423.5690, 12231.73
424.7610, 13548.36
425.9540, 14432.10
427.1460, 14911.94
428.3380, 15205.88
429.5300, 14307.93
430.7220, 12867.08
431.9140, 11112.33
433.1050, 9598.681
434.2970, 7518.131
435.4880, 6279.677
436.6790, 5359.318
437.8700, 4853.058
439.0610, 4700.893
440.2510, 4866.820
441.4420, 5101.843
442.6320, 5318.958
443.8220, 5079.162
445.0120, 4749.459
446.2020, 3632.843
447.3910, 2803.316
448.5810, 2119.878
449.7700, 1462.525
450.9600, 1023.259
452.1490, 682.0771
453.3370, 563.9775
454.5260, 366.9629
455.7150, 373.0303
456.9030, 31.17773
458.0910, 3.386719
459.2800, 170.3555
460.4670, 222.1191
461.6550, 188.9277
462.8430, 130.7695
464.0300, 58.62109
465.2180, 175.5439
466.4050, 416.7832
467.5920, 710.0947
468.7790, 822.4795
469.9650, 971.9355
471.1520, 1009.464
472.3380, 799.0596
473.5250, 809.7256
474.7110, 851.4600
475.8970, 1178.237
477.0820, 1542.129
478.2680, 2241.062
479.4540, 2888.060
480.6390, 3776.123
481.8240, 4785.248
483.0090, 5423.436
484.1940, 5347.687
485.3780, 4781.996
486.5630, 3691.367
487.7470, 2464.797
488.9320, 1573.673
490.1160, 938.4512
491.3000, 375.2710
492.4830, 118.6704
493.6670, 146.7134
494.8500, 173.2080
496.0340, 6.581543
497.2170, 65.30469
498.4000, 401.8379
499.5820, 662.4165
500.7650, 953.0386
501.9480, 1450.704
503.1300, 1762.411
504.3120, 2225.159
505.4940, 2481.946
506.6760, 3028.076
507.8580, 3153.896
509.0390, 3362.035
510.2210, 3390.871
511.4020, 3367.454
512.5830, 3090.171
513.7640, 2799.778
514.9450, 2303.119
516.1250, 1679.631
517.3060, 1251.462
518.4860, 974.8115
519.6660, 659.3096
520.8460, 222.6353
522.0260, 70.96484
523.2060, 129.5728
524.3850, 359.2407
525.5650, 291.0547
526.7440, 423.0293
527.9230, 466.2295
529.1020, 419.6821
530.2810, 269.3706
531.4590, 196.2222
532.6380, 12.20312
533.8160, 264.7710
534.9940, 447.7637
536.1720, 788.7749
537.3500, 1188.804
538.5270, 1545.849
539.7050, 2053.913
540.8820, 2592.992
542.0590, 3036.117
543.2360, 3362.279
544.4130, 3509.511
545.5900, 3687.805
546.7660, 3435.181
547.9430, 3326.644
549.1190, 3053.199
550.2950, 2906.865
551.4710, 2728.650
552.6470, 2869.528
553.8220, 3111.506
554.9980, 3457.556
556.1730, 4026.670
557.3480, 4681.857
558.5230, 5104.120
559.6980, 5241.443
560.8730, 5186.815
562.0470, 4928.233
563.2220, 4724.679
564.3960, 4433.142
565.5700, 4386.609
566.7440, 4601.076
567.9170, 4706.542
569.0910, 5063.006
570.2640, 5629.465
571.4380, 5726.922
572.6110, 5869.375
573.7840, 6020.821
574.9570, 6156.265
576.1290, 6165.699
577.3020, 6186.126
578.4740, 6591.546
579.6460, 6995.859
580.8180, 7450.360
581.9900, 8365.751
583.1620, 9350.134
584.3330, 10435.50
585.5040, 11417.86
586.6760, 12084.21
587.8470, 12290.54
589.0180, 11688.86
590.1880, 10790.16
591.3590, 9353.452
592.5290, 7878.726
593.7000, 6392.982
594.8700, 5316.222
596.0400, 4356.444
597.2090, 3734.648
598.3790, 3258.600
599.5490, 3021.328
600.7180, 2917.999
601.8870, 2921.922
603.0560, 2964.365
604.2250, 3282.585
605.3940, 3751.021
606.5620, 3863.072
607.7300, 4314.103
608.8990, 4458.113
610.0670, 4550.104
611.2350, 4489.073
612.4020, 4539.021
613.5700, 4320.946
614.7370, 4226.849
615.9050, 3905.727
617.0720, 3997.582
618.2390, 3576.412
619.4060, 3332.218
620.5720, 2793.999
621.7390, 2543.753
622.9050, 1829.480
624.0710, 1491.182
625.2370, 1066.855
626.4030, 569.5010
627.5690, 413.1191
628.7340, 127.7075
629.9000, 73.22510
631.0650, 7.345703
632.2300, 67.04199
633.3950, 35.76904
634.5600, 10.01611
635.7240, 153.0220
636.8890, 195.6733
638.0530, 395.9922
639.2170, 387.7422
640.3810, 569.4619
641.5450, 696.1514
642.7080, 615.8096
643.8720, 694.4360
645.0350, 589.0317
646.1980, 492.5952
647.3610, 268.1323
648.5240, 91.67627
649.6870, 41.19971
650.8490, 66.25830
652.0120, 143.7778
653.1740, 96.68311
654.3360, 5.506836
655.4980, 52.39893
656.6600, 8.765625
657.8210, 96.22607
658.9830, 212.1025
660.1440, 441.5996
661.3050, 810.1001
662.4660, 978.6240
663.6270, 1517.252
664.7870, 1877.197
665.9480, 2645.652
667.1080, 3423.638
668.2680, 4264.125
669.4280, 5551.443
670.5880, 6908.419
671.7480, 8402.542
672.9070, 9854.573
674.0670, 11399.01
675.2260, 12365.42
676.3850, 12792.80
677.5440, 12580.14
678.7030, 11599.65
679.8610, 10264.22
681.0200, 8736.467
682.1780, 7492.763
683.3360, 6085.218
684.4940, 5084.863
685.6520, 4477.971
686.8090, 3939.659
687.9670, 3610.059
689.1240, 3446.688
690.2810, 3328.439
691.4380, 3504.723
692.5950, 3570.890
693.7520, 3986.510
694.9080, 4520.304
696.0650, 5172.598
697.2210, 5956.647
698.3770, 7015.305
699.5330, 8475.708
700.6880, 10295.31
701.8440, 12292.63
702.9990, 15052.04
704.1550, 18664.99
705.3100, 22564.56
706.4650, 27172.90
707.6190, 32324.18
708.7740, 37742.41
709.9290, 43110.62
711.0830, 48046.75
712.2370, 50967.84
713.3910, 51739.88
714.5450, 50112.88
715.6980, 46269.81
716.8520, 41041.69
718.0050, 35238.55
719.1580, 29347.34
720.3110, 24299.09
721.4640, 19952.78
722.6170, 16319.43
723.7700, 13378.03
724.9220, 11187.58
726.0740, 9408.072
727.2260, 7726.526
728.3780, 6691.930
729.5300, 5650.285
730.6810, 5010.591
731.8330, 4365.849
732.9840, 3981.059
734.1350, 3455.221
735.2860, 3173.335
736.4370, 2826.401
737.5880, 2573.430
738.7380, 2258.427
739.8880, 2070.426
741.0390, 1910.438
742.1890, 1803.459
743.3380, 1692.477
744.4880, 1604.478
745.6380, 1634.432
746.7870, 1667.339
747.9360, 1654.772
749.0850, 1609.018
750.2340, 1736.789
751.3830, 1833.515
752.5310, 1960.195
753.6800, 2107.831
754.8280, 2339.422
755.9760, 2692.969
757.1240, 3070.472
758.2720, 3581.931
759.4190, 4129.346
760.5670, 4557.719
761.7140, 5197.046
762.8610, 5756.333
764.0080, 5967.577
765.1550, 6459.779
766.3020, 6703.941
767.4480, 6608.672
768.5950, 6351.519
769.7410, 5891.339
770.8870, 5226.594
772.0330, 4727.640
773.1780, 4141.749
774.3240, 3491.519
775.4690, 2954.339
776.6140, 2641.343
777.7590, 2018.312
778.9040, 1822.250
780.0490, 1601.153
781.1940, 1202.024
782.3380, 1104.862
783.4820, 934.6675
784.6260, 761.4419
785.7700, 742.1367
786.9140, 468.8501
788.0580, 321.6748
789.2010, 306.4150
790.3450, 167.5728
791.4880, 131.4419
792.6310, 121.6045
793.7730, 34.97461
794.9160, 15.13672
796.0590, 30.21924
797.2010, 37.67480
798.3430, 103.4219
799.4850, 118.2842
800.6270, 31.22656
801.7690, 135.1880
802.9100, 66.83301
804.0520, 32.91602
805.1930, 94.08936
806.3340, 220.3730
807.4750, 250.0820
808.6160, 390.0527
809.7560, 401.7402
810.8970, 519.2681
812.0370, 573.7754
813.1770, 362.2632
814.3170, 317.7314
815.4570, 150.1807
816.5960, 122.6089
817.7360, 65.98535
818.8750, 36.65869
820.0140, 168.3945
821.1530, 141.2603
822.2920, 230.2422
823.4310, 241.3853
824.5690, 270.6934
825.7070, 340.1821
826.8460, 387.8862
827.9840, 279.8296
829.1220, 323.9536
830.2590, 206.2808
831.3970, 195.7476
832.5340, 222.3472
833.6710, 253.0918
834.8080, 185.9956
835.9450, 153.0225
837.0820, 143.1538
838.2190, 78.17676
839.3550, 50.19385
840.4910, 16.99463
841.6270, 62.64404
842.7630, 103.2822
843.8990, 216.9111
845.0350, 284.5327
846.1700, 303.1479
847.3060, 353.7559
848.4410, 391.3574
849.5760, 498.9531
850.7100, 571.5444
851.8450, 612.1309
852.9800, 811.7129
854.1140, 735.2920
855.2480, 849.8672
856.3820, 754.4404
857.5160, 892.0117
858.6500, 955.5815
859.7830, 1117.150
860.9170, 1141.719
862.0500, 1254.288
863.1830, 1334.857
864.3160, 1374.428
865.4480, 1397.000
866.5810, 1540.574
867.7130, 1441.151
868.8460, 1547.732
869.9780, 1473.316
871.1100, 1612.905
872.2410, 1524.499
873.3730, 1509.099
874.5050, 1594.703
875.6360, 1627.316
876.7670, 1694.942
877.8980, 1640.577
879.0290, 1753.072
880.1590, 1855.014
881.2900, 1964.632
882.4200, 2093.354
883.5500, 2293.089
884.6800, 2485.212
885.8100, 2734.585
886.9400, 3017.349
888.0690, 3371.126
889.1990, 3789.919
890.3280, 4272.728
891.4570, 4831.560
892.5860, 5527.417
893.7140, 6256.298
894.8430, 7369.210
895.9710, 8127.152
897.1000, 9060.123
898.2280, 10009.13
899.3560, 10676.18
900.4830, 11400.26
901.6110, 11894.38
902.7380, 12083.53
903.8660, 12112.76
904.9930, 11582.06
906.1200, 10793.43
907.2460, 10226.90
908.3730, 9333.471
909.5000, 8230.150
910.6260, 7371.877
911.7520, 6609.687
912.8780, 5682.534
914.0040, 4984.435
915.1290, 4458.365
916.2550, 4013.311
917.3800, 3486.285
918.5050, 3079.293
919.6300, 2881.345
920.7550, 2819.420
921.8800, 2664.533
923.0040, 2653.693
924.1290, 2524.882
925.2530, 2606.150
926.3770, 2504.798
927.5010, 2679.343
928.6250, 2756.954
929.7480, 2754.515
930.8720, 2607.777
931.9950, 2626.603
933.1180, 2643.785
934.2410, 2676.974
935.3640, 2609.286
936.4860, 2345.304
937.6090, 2510.858
938.7310, 2417.743
939.8530, 2450.223
940.9750, 2710.539
942.0970, 2927.645
943.2180, 3081.784
944.3400, 3409.971
945.4610, 3700.192
946.5820, 4032.445
947.7030, 4530.735
948.8240, 5069.053
949.9450, 5638.402
951.0650, 6227.597
952.1860, 7142.721
953.3060, 8226.198
954.4260, 9308.632
955.5460, 10781.92
956.6650, 12486.02
957.7850, 14653.66
958.9040, 16641.72
960.0230, 18776.09
961.1420, 21030.23
962.2610, 22218.52
963.3800, 23066.75
964.4990, 23264.38
965.6170, 22584.56
966.7350, 21539.58
967.8530, 20359.10
968.9710, 19701.87
970.0890, 19287.04
971.2070, 19619.46
972.3240, 20200.69
973.4410, 21201.20
974.5580, 22889.62
975.6750, 24443.52
976.7920, 25965.79
977.9090, 26696.31
979.0250, 27192.86
980.1410, 27248.48
981.2580, 26250.14
982.3740, 24949.87
983.4890, 23734.64
984.6050, 22354.46
985.7200, 21478.33
986.8360, 20474.27
987.9510, 19801.26
989.0660, 19312.31
990.1810, 19228.43
991.2950, 19536.58
992.4100, 19505.80
993.5240, 19792.08
994.6390, 20321.42
995.7530, 20922.81
996.8660, 21333.26
997.9800, 22157.77
999.0940, 22524.33
1000.207, 22861.95
1001.320, 22916.62
1002.433, 22877.34
1003.546, 22329.12
1004.659, 21465.95
1005.772, 20038.89
1006.884, 18533.83
1007.996, 16690.83
1009.108, 14820.10
1010.220, 13129.64
1011.332, 11470.81
1012.444, 10035.25
1013.555, 8701.283
1014.666, 7570.764
1015.777, 6778.923
1016.888, 5954.039
1017.999, 5378.536
1019.110, 4928.071
1020.220, 4690.659
1021.331, 4454.816
1022.441, 4236.365
1023.551, 4217.903
1024.661, 4371.808
1025.770, 4188.111
1026.880, 4298.719
1027.989, 4067.976
1029.098, 3941.738
1030.207, 3809.164
1031.316, 3744.724
1032.425, 3667.622
1033.533, 3520.958
1034.642, 3572.384
1035.750, 3601.797
1036.858, 3581.025
1037.966, 3710.590
1039.073, 3865.896
1040.181, 3919.986
1041.288, 4132.722
1042.396, 4075.513
1043.503, 4110.814
1044.610, 4267.745
1045.716, 4476.772
1046.823, 4821.174
1047.929, 5105.089
1049.036, 5406.965
1050.142, 5959.317
1051.248, 6533.101
1052.353, 7024.078
1053.459, 7318.146
1054.564, 7585.286
1055.670, 8056.438
1056.775, 7965.625
1057.880, 7865.503
1058.985, 7473.219
1060.089, 6969.531
1061.194, 6248.964
1062.298, 5545.361
1063.402, 5052.840
1064.506, 4389.339
1065.610, 4012.901
1066.713, 3521.184
1067.817, 3214.875
1068.920, 3113.903
1070.023, 2895.737
1071.126, 2941.655
1072.229, 2926.612
1073.332, 3149.836
1074.435, 3450.003
1075.537, 3899.839
1076.639, 4435.808
1077.741, 5164.210
1078.843, 5856.658
1079.945, 6512.131
1081.046, 7083.342
1082.148, 7341.695
1083.249, 7579.164
1084.350, 7098.001
1085.451, 6570.103
1086.551, 6040.731
1087.652, 5242.293
1088.752, 4536.814
1089.853, 3732.054
1090.953, 3472.757
1092.053, 3044.535
1093.152, 2829.333
1094.252, 2519.913
1095.351, 2441.461
1096.451, 2326.801
1097.550, 2248.059
1098.649, 2290.375
1099.748, 2268.820
1100.846, 2127.456
1101.945, 2214.617
1103.043, 2252.553
1104.141, 2083.778
1105.239, 2107.088
1106.337, 2055.371
1107.434, 1891.621
1108.532, 1835.963
1109.629, 1751.124
1110.726, 1595.130
1111.823, 1457.681
1112.920, 1310.641
1114.017, 1133.817
1115.113, 993.2183
1116.210, 911.3872
1117.306, 848.4014
1118.402, 662.6079
1119.498, 709.6021
1120.593, 506.1553
1121.689, 600.3931
1122.784, 558.8647
1123.879, 634.0049
1124.974, 460.3574
1126.069, 369.9546
1127.164, 445.4194
1128.259, 251.0879
1129.353, 165.1094
1130.447, 193.6602
1131.541, 145.8530
1132.635, 189.6611
1133.729, 66.37598
1134.822, 145.2324
1135.916, 13.84375
1137.009, 2.432617
1138.102, 168.2642
1139.195, 31.98389
1140.288, 13.03223
1141.380, 60.16406
1142.473, 14.50195
1143.565, 165.6621
1144.657, 66.34229
1145.749, 47.79883
1146.841, 89.45850
1147.932, 30.54443
1149.024, 6.386719
1150.115, 23.65527
1151.206, 30.06738
1152.297, 21.53223
1153.388, 31.88770
1154.479, 29.01514
1155.569, 62.65381
1156.659, 69.39893
1157.750, 73.45508
1158.839, 84.60986
1159.929, 92.06592
1161.019, 61.76562
1162.108, 100.7134
1163.198, 131.2422
1164.287, 77.84570
1165.376, 72.33008
1166.465, 102.3843
1167.553, 160.4478
1168.642, 47.75000
1169.730, 76.59131
1170.818, 53.79199
1171.906, 125.9458
1172.994, 171.8286
1174.082, 49.94238
1175.170, 184.9438
1176.257, 72.33350
1177.344, 123.7017
1178.431, 14.21924
1179.518, 49.26855
1180.605, 3.029297
1181.691, 39.37354
1182.778, 71.86475
1183.864, 32.51367
1184.950, 21.54639
1186.036, 66.41406
1187.122, 43.05078
1188.207, 6.192871
1189.292, 21.68213
1190.378, 63.35156
1191.463, 3.163574
1192.548, 61.15527
1193.632, 9.021973
1194.717, 51.60449
1195.801, 47.51807
1196.886, 30.47949
1197.970, 107.8809
1199.054, 33.48779
1200.137, 109.3506
1201.221, 95.83594
1202.305, 99.29736
1203.388, 18.73730
1204.471, 27.44971
1205.554, 32.13232
1206.637, 20.41602
1207.719, 24.82666
1208.802, 52.03320
1209.884, 28.20898
1210.966, 157.5698
1212.048, 82.67969
1213.130, 71.93848
1214.212, 55.38525
1215.293, 23.61328
1216.374, 19.34033
1217.456, 5.237305
1218.536, 145.0757
1219.617, 62.88525
1220.698, 136.6572
1221.778, 32.39844
1222.859, 16.09082
1223.939, 74.72363
1225.019, 84.43262
1226.099, 36.99121
1227.178, 4.496582
1228.258, 72.99512
1229.337, 73.38867
1230.417, 170.7383
1231.496, 97.05078
1232.574, 144.3711
1233.653, 110.6030
