##NAMES=Axinite-(Fe)
##RRUFFID=R060558
##IDEAL CHEMISTRY=Ca_4_Fe^2+^_2_Al_4_[B_2_Si_8_O_30_](OH)_2_
##LOCALITY=unknown
##OWNER=RRUFF
##SOURCE=Gemological Institute of America
##DESCRIPTION=Brown flattened crystal
##STATUS=The identification of this mineral has been confirmed by X-ray diffraction and chemical analysis
##URL=rruff.info/R060558
##MEASURED CHEMISTRY=Ca_2.00_(Fe^2+^_0.60_Mg_0.35_Mn_0.05_)_Î£=1_Al_2.00_BSi_4.00_O_15_(OH) ; B not measured
##PIN_ID=M00962
##ORIENTATION=Laser parallel to a* (1 0 0). Fiducial mark perpendicular to laser is parallel to b [0 1 0]
94.02500, 0.0000000E+00
95.27200, 3.253296
96.51900, 101.0125
97.76500, 240.6704
99.01100, 302.4744
100.2570, 230.4214
101.5030, 249.8875
102.7490, 441.8574
103.9940, 472.9385
105.2390, 598.4336
106.4840, 699.0430
107.7290, 775.9609
108.9740, 750.5605
110.2180, 860.8008
111.4620, 918.2490
112.7060, 985.5110
113.9500, 1083.860
115.1940, 1042.835
116.4370, 1018.381
117.6800, 927.5801
118.9230, 793.7231
120.1660, 747.5896
121.4090, 643.2515
122.6510, 600.7676
123.8940, 363.1829
125.1360, 159.5344
126.3770, 102.8511
127.6190, 55.15503
128.8600, 13.47217
130.1020, 49.84180
131.3430, 30.27441
132.5840, 19.76953
133.8240, 47.32544
135.0650, 207.9446
136.3050, 435.6287
137.5450, 667.3813
138.7850, 930.7942
140.0250, 964.1174
141.2640, 963.7012
142.5030, 925.9971
143.7430, 844.7563
144.9810, 872.7070
146.2200, 863.8418
147.4590, 931.1526
148.6970, 1127.633
149.9350, 1243.277
151.1730, 1364.079
152.4110, 1400.033
153.6480, 1233.134
154.8860, 1210.374
156.1230, 1091.739
157.3600, 921.2263
158.5960, 769.8328
159.8330, 537.5557
161.0690, 494.3923
162.3050, 492.3579
163.5410, 470.7031
164.7770, 528.3171
166.0130, 643.0127
167.2480, 875.7947
168.4830, 1136.645
169.7180, 1449.497
170.9530, 1694.381
172.1880, 1588.309
173.4220, 1425.290
174.6560, 1278.331
175.8900, 1130.435
177.1240, 868.6045
178.3580, 621.8423
179.5910, 419.1484
180.8250, 246.5239
182.0580, 112.9675
183.2900, 4.521484
184.5230, 71.94360
185.7560, 180.2998
186.9880, 214.5901
188.2200, 183.8159
189.4520, 85.97754
190.6830, 33.07520
191.9150, 126.8855
193.1460, 245.8970
194.3770, 166.9604
195.6080, 207.0747
196.8390, 154.2410
198.0700, 169.4587
199.3000, 283.7278
200.5300, 370.0483
201.7600, 707.4199
202.9900, 956.8420
204.2190, 1246.315
205.4490, 1689.838
206.6780, 2078.411
207.9070, 2398.032
209.1360, 2723.767
210.3640, 3057.423
211.5930, 3242.190
212.8210, 3395.004
214.0490, 3580.794
215.2770, 3581.451
216.5040, 3494.080
217.7320, 3414.754
218.9590, 3087.481
220.1860, 2794.259
221.4130, 2167.088
222.6400, 1659.967
223.8660, 1397.895
225.0920, 1003.873
226.3190, 659.8979
227.5450, 521.9709
228.7700, 341.0911
229.9960, 250.8311
231.2210, 82.40698
232.4460, 71.31470
233.6710, 82.68579
234.8960, 73.82251
236.1210, 11.00708
237.3450, 72.27515
238.5690, 263.6426
239.7930, 277.1770
241.0170, 319.9238
242.2410, 288.2214
243.4640, 228.4927
244.6870, 390.3923
245.9100, 349.6055
247.1330, 435.0588
248.3560, 588.7146
249.5780, 729.5295
250.8000, 1063.484
252.0230, 1513.561
253.2440, 1798.751
254.4660, 2016.042
255.6880, 2086.423
256.9090, 2122.883
258.1300, 2088.417
259.3510, 2254.030
260.5720, 2306.708
261.7920, 2291.452
263.0130, 2480.253
264.2330, 2753.115
265.4530, 3032.015
266.6730, 3337.945
267.8920, 3616.905
269.1120, 3856.898
270.3310, 3989.924
271.5500, 4091.980
272.7690, 4095.072
273.9880, 3930.195
275.2060, 3708.351
276.4240, 3420.540
277.6430, 3059.762
278.8600, 2660.016
280.0780, 2251.302
281.2960, 2042.620
282.5130, 1773.969
283.7300, 1706.349
284.9470, 1660.759
286.1640, 1566.196
287.3810, 1511.520
288.5970, 1479.002
289.8130, 1482.750
291.0290, 1390.896
292.2450, 1351.080
293.4610, 1229.302
294.6760, 1264.560
295.8910, 1168.854
297.1060, 1162.185
298.3210, 1099.550
299.5360, 991.9492
300.7510, 936.3818
301.9650, 921.1772
303.1790, 901.3447
304.3930, 949.8743
305.6070, 998.4346
306.8200, 1075.026
308.0340, 1090.647
309.2470, 1272.298
310.4600, 1455.977
311.6730, 1555.682
312.8850, 1850.414
314.0980, 2182.171
315.3100, 2683.954
316.5220, 3271.763
317.7340, 3962.597
318.9460, 4394.457
320.1570, 4648.341
321.3690, 4412.250
322.5800, 3937.184
323.7910, 3447.142
325.0010, 2950.125
326.2120, 2521.131
327.4220, 2271.160
328.6330, 2016.212
329.8430, 1974.108
331.0520, 1850.665
332.2620, 1982.145
333.4720, 1980.851
334.6810, 2103.225
335.8900, 2307.318
337.0990, 2460.515
338.3070, 2861.744
339.5160, 3415.994
340.7240, 4005.265
341.9320, 4498.557
343.1400, 5199.871
344.3480, 5400.203
345.5560, 5393.556
346.7630, 4860.929
347.9700, 4307.321
349.1770, 3672.732
350.3840, 2989.162
351.5910, 2479.611
352.7970, 1950.079
354.0040, 1508.564
355.2100, 1106.069
356.4160, 791.7712
357.6220, 610.1311
358.8270, 343.6885
360.0320, 214.2632
361.2380, 130.8560
362.4430, 28.46704
363.6470, 43.78955
364.8520, 70.26367
366.0560, 142.6184
367.2610, 99.98169
368.4650, 84.34717
369.6690, 64.71069
370.8720, 69.06812
372.0760, 9.579102
373.2790, 59.24316
374.4820, 63.92432
375.6850, 154.9353
376.8880, 138.9475
378.0910, 232.4260
379.2930, 284.4475
380.4950, 422.4250
381.6970, 579.9062
382.8990, 755.0371
384.1010, 1123.280
385.3020, 1413.394
386.5040, 1710.750
387.7050, 2116.572
388.9060, 2255.337
390.1060, 2339.629
391.3070, 2299.099
392.5070, 2143.644
393.7080, 1846.503
394.9080, 1538.379
396.1070, 1214.271
397.3070, 1121.358
398.5070, 913.7524
399.7060, 911.8784
400.9050, 817.8286
402.1040, 832.7913
403.3030, 852.1504
404.5010, 776.1392
405.7000, 756.1453
406.8980, 762.1575
408.0960, 750.1218
409.2940, 897.1567
410.4910, 923.2026
411.6890, 1121.259
412.8860, 1307.326
414.0830, 1564.404
415.2800, 2033.492
416.4770, 2451.590
417.6730, 2965.697
418.8690, 3561.814
420.0660, 4027.941
421.2620, 4442.077
422.4570, 5144.221
423.6530, 5697.376
424.8480, 6260.538
426.0440, 6602.709
427.2390, 6568.888
428.4340, 6243.076
429.6280, 5761.271
430.8230, 4921.474
432.0170, 4340.687
433.2110, 3519.907
434.4050, 2922.136
435.5990, 2365.375
436.7930, 1990.622
437.9860, 1761.878
439.1800, 1699.142
440.3730, 1795.414
441.5660, 1943.693
442.7580, 2220.981
443.9510, 2657.275
445.1430, 2843.577
446.3350, 2625.887
447.5270, 2416.202
448.7190, 1840.525
449.9110, 1450.854
451.1020, 1048.189
452.2930, 783.5308
453.4850, 516.8782
454.6750, 456.2314
455.8660, 416.5896
457.0570, 292.9536
458.2470, 263.3230
459.4370, 246.6970
460.6270, 172.0762
461.8170, 176.4602
463.0070, 146.8486
464.1960, 179.2412
465.3850, 173.6379
466.5750, 296.0391
467.7630, 372.4438
468.9520, 417.8523
470.1410, 554.2646
471.3290, 665.6802
472.5170, 704.0989
473.7050, 777.5220
474.8930, 773.9600
476.0810, 1017.433
477.2680, 1345.951
478.4560, 1585.504
479.6430, 1979.074
480.8300, 2532.651
482.0160, 3103.230
483.2030, 3774.811
484.3890, 4421.394
485.5760, 4591.976
486.7620, 4391.561
487.9480, 3759.148
489.1330, 2916.735
490.3190, 2385.323
491.5040, 1747.913
492.6890, 1299.502
493.8740, 992.0918
495.0590, 741.6821
496.2440, 525.2725
497.4280, 460.8625
498.6120, 400.4526
499.7960, 336.0422
500.9800, 311.6331
502.1640, 199.2263
503.3470, 175.8220
504.5310, 127.4197
505.7140, 150.0203
506.8970, 89.17017
508.0800, 115.1843
509.2620, 56.66699
510.4450, 55.30469
511.6270, 106.7068
512.8090, 50.03223
513.9910, 85.18262
515.1730, 88.95508
516.3550, 69.76050
517.5360, 28.60059
518.7170, 3.470459
519.8980, 53.64697
521.0790, 3.226563
522.2600, 44.88306
523.4400, 68.00537
524.6210, 173.1414
525.8010, 126.3550
526.9810, 107.6184
528.1610, 78.93896
529.3400, 133.2966
530.5200, 99.72095
531.6990, 139.2188
532.8780, 45.80981
534.0570, 30.44604
535.2360, 82.87891
536.4140, 95.20020
537.5930, 79.51733
538.7710, 47.83057
539.9490, 35.13672
541.1270, 48.43335
542.3040, 85.72241
543.4820, 92.00659
544.6590, 6.713623
545.8360, 91.54565
547.0130, 19.80933
548.1900, 78.06323
549.3670, 22.31250
550.5430, 124.5466
551.7190, 122.7788
552.8960, 77.00537
554.0710, 201.2263
555.2470, 233.4421
556.4230, 301.6521
557.5980, 473.8557
558.7730, 700.0535
559.9480, 941.2444
561.1230, 1011.429
562.2980, 1215.606
563.4720, 1203.777
564.6470, 1234.940
565.8210, 1142.096
566.9950, 1103.245
568.1690, 1163.386
569.3420, 1229.521
570.5160, 1328.646
571.6890, 1485.765
572.8620, 1677.875
574.0350, 1684.978
575.2080, 1752.073
576.3800, 1708.159
577.5530, 1579.236
578.7250, 1338.305
579.8970, 1155.366
581.0690, 988.4182
582.2410, 960.4614
583.4120, 827.4954
584.5830, 787.5205
585.7550, 755.5366
586.9260, 757.5430
588.0960, 745.5405
589.2670, 732.5283
590.4380, 683.5063
591.6080, 625.4749
592.7780, 390.4336
593.9480, 350.3821
595.1180, 263.3208
596.2870, 151.2495
597.4570, 215.1677
598.6260, 178.0759
599.7950, 159.9734
600.9640, 135.8606
602.1330, 176.7368
603.3010, 229.6028
604.4700, 314.4578
605.6380, 350.3018
606.8060, 426.1348
607.9740, 609.9570
609.1420, 802.7681
610.3090, 969.5676
611.4760, 1204.356
612.6440, 1367.133
613.8110, 1569.898
614.9770, 1775.652
616.1440, 2079.395
617.3110, 2298.125
618.4770, 2473.843
619.6430, 2529.548
620.8090, 2511.242
621.9750, 2327.922
623.1400, 2047.590
624.3060, 1720.245
625.4710, 1313.887
626.6360, 1044.516
627.8010, 775.1321
628.9660, 589.7351
630.1300, 490.3247
631.2950, 382.9016
632.4590, 377.4648
633.6230, 378.0151
634.7870, 385.5518
635.9510, 429.0750
637.1140, 479.5847
638.2780, 534.0811
639.4410, 625.5637
640.6040, 737.3013
641.7670, 850.4719
642.9290, 947.4949
644.0920, 985.4155
645.2540, 978.7112
646.4160, 944.1111
647.5780, 946.7866
648.7400, 812.1572
649.9020, 640.0503
651.0630, 602.9553
652.2250, 490.9729
653.3860, 455.4690
654.5470, 362.3491
655.7080, 337.5454
656.8680, 368.1162
658.0290, 284.3140
659.1890, 220.8035
660.3490, 329.4841
661.5090, 363.0618
662.6690, 378.5571
663.8280, 445.1572
664.9880, 601.3247
666.1470, 770.1704
667.3060, 892.1050
668.4650, 1000.153
669.6240, 1170.472
670.7820, 1508.646
671.9410, 1811.622
673.0990, 2232.072
674.2570, 2543.448
675.4150, 3023.509
676.5720, 3231.553
677.7300, 3244.580
678.8870, 3033.409
680.0450, 2673.927
681.2020, 2259.712
682.3590, 1980.668
683.5150, 1592.606
684.6720, 1297.698
685.8280, 1136.391
686.9840, 943.2319
688.1400, 881.2583
689.2960, 812.2471
690.4520, 737.5769
691.6070, 710.4116
692.7630, 841.2573
693.9180, 835.2114
695.0730, 928.9741
696.2280, 980.8115
697.3820, 1166.539
698.5370, 1346.249
699.6910, 1512.941
700.8450, 1903.616
701.9990, 2208.273
703.1530, 2591.913
704.3070, 3212.535
705.4600, 3919.140
706.6130, 4796.726
707.7660, 5824.296
708.9190, 7051.848
710.0720, 8486.382
711.2250, 10040.90
712.3770, 11053.40
713.5300, 12262.88
714.6820, 12111.35
715.8340, 11693.79
716.9850, 10321.22
718.1370, 8768.639
719.2880, 7390.035
720.4400, 6020.414
721.5910, 4745.777
722.7420, 3665.121
723.8930, 3054.449
725.0430, 2458.760
726.1940, 2047.054
727.3440, 1644.331
728.4940, 1352.591
729.6440, 1069.834
730.7940, 923.0610
731.9430, 834.2712
733.0930, 718.4644
734.2420, 617.6418
735.3910, 589.8022
736.5400, 499.9460
737.6890, 435.0737
738.8370, 383.1848
739.9860, 330.0720
741.1340, 276.3591
742.2820, 253.4221
743.4300, 234.4688
744.5780, 198.4998
745.7250, 141.5151
746.8730, 178.5146
748.0200, 131.4988
749.1670, 146.4668
750.3140, 165.4197
751.4610, 217.3569
752.6070, 225.2791
753.7540, 250.1860
754.9000, 200.0781
756.0460, 277.9553
757.1920, 322.8174
758.3380, 262.6650
759.4830, 305.4978
760.6280, 329.3164
761.7740, 336.6440
762.9190, 361.9094
764.0640, 405.6848
765.2080, 381.4458
766.3530, 430.1924
767.4970, 432.9253
768.6420, 363.6448
769.7860, 328.3503
770.9300, 282.0422
772.0730, 299.7205
773.2170, 254.3855
774.3600, 215.1277
775.5040, 167.6763
776.6470, 124.3022
777.7900, 63.91528
778.9320, 30.51270
780.0750, 37.09058
781.2170, 41.64966
782.3600, 20.53369
783.5020, 15.71216
784.6440, 7.790039
785.7850, 35.32715
786.9270, 59.91284
788.0680, 60.56006
789.2100, 78.83521
790.3510, 103.0474
791.4920, 93.90918
792.6320, 99.84912
793.7730, 106.7683
794.9130, 106.9182
796.0540, 81.15771
797.1940, 108.4036
798.3340, 101.7109
799.4730, 84.08887
800.6130, 126.5161
801.7520, 99.00732
802.8920, 112.5203
804.0310, 49.07349
805.1700, 71.63745
806.3090, 68.23145
807.4470, 70.16187
808.5860, 19.58057
809.7240, 85.03247
810.8620, 118.4968
812.0000, 86.96973
813.1380, 147.4341
814.2750, 181.8899
815.4130, 213.3379
816.5500, 186.7788
817.6870, 117.2146
818.8240, 134.6440
819.9610, 81.06592
821.0980, 20.51953
822.2340, 25.11694
823.3700, 12.74023
824.5070, 15.62305
825.6430, 28.97803
826.7780, 5.669678
827.9140, 39.66992
829.0500, 31.00317
830.1850, 5.330078
831.3200, 67.64819
832.4550, 14.96118
833.5900, 56.26733
834.7250, 137.5688
835.8590, 78.86475
836.9930, 100.1562
838.1280, 65.44263
839.2620, 80.72485
840.3950, 211.0024
841.5290, 186.2759
842.6630, 289.5449
843.7960, 291.8105
844.9290, 369.0723
846.0620, 470.3308
847.1950, 533.5859
848.3280, 599.8376
849.4600, 648.0864
850.5930, 697.3323
851.7250, 785.5754
852.8570, 852.8159
853.9890, 884.0542
855.1210, 953.6914
856.2520, 985.0686
857.3840, 1032.757
858.5150, 1009.988
859.6460, 1000.217
860.7770, 918.4451
861.9080, 954.6716
863.0380, 998.8975
864.1690, 974.1238
865.2990, 1096.350
866.4290, 1027.581
867.5590, 1083.812
868.6890, 1000.042
869.8190, 1028.273
870.9480, 991.5068
872.0770, 991.7419
873.2070, 977.9771
874.3360, 965.2156
875.4640, 966.4673
876.5930, 1098.720
877.7220, 1032.974
878.8500, 1060.229
879.9780, 1095.490
881.1060, 1057.753
882.2340, 1150.020
883.3620, 1077.288
884.4890, 1201.568
885.6170, 1127.854
886.7440, 1338.165
887.8710, 1362.479
888.9980, 1508.813
890.1240, 1664.152
891.2510, 1859.494
892.3770, 2123.842
893.5040, 2369.194
894.6300, 2732.552
895.7560, 3083.912
896.8810, 3546.277
898.0070, 3890.647
899.1330, 4483.022
900.2580, 4954.408
901.3830, 5667.810
902.5080, 6107.223
903.6330, 6956.653
904.7570, 7312.086
905.8820, 7587.532
907.0060, 7692.981
908.1300, 7424.437
909.2540, 6963.914
910.3780, 6413.396
911.5020, 5755.900
912.6250, 4986.410
913.7490, 4463.657
914.8720, 3863.463
915.9950, 3388.416
917.1180, 2926.464
918.2400, 2490.145
919.3630, 2181.715
920.4850, 1901.302
921.6080, 1688.622
922.7300, 1553.733
923.8520, 1390.845
924.9730, 1289.219
926.0950, 1257.388
927.2160, 1149.576
928.3380, 1126.463
929.4590, 1114.970
930.5800, 1095.540
931.7010, 1140.789
932.8210, 1168.389
933.9420, 1136.471
935.0620, 1146.723
936.1820, 1136.377
937.3020, 1201.833
938.4220, 1219.509
939.5420, 1286.236
940.6610, 1414.621
941.7810, 1537.290
942.9000, 1637.185
944.0190, 1826.774
945.1380, 2085.726
946.2570, 2429.695
947.3750, 2598.679
948.4940, 2966.680
949.6120, 3174.697
950.7300, 3764.731
951.8480, 4162.780
952.9660, 4432.846
954.0830, 4946.927
955.2010, 5396.042
956.3180, 5857.620
957.4350, 6258.995
958.5520, 6985.215
959.6690, 7919.254
960.7860, 8887.400
961.9020, 9803.148
963.0190, 10487.39
964.1350, 11001.63
965.2510, 11105.75
966.3670, 11042.07
967.4830, 10856.31
968.5980, 9603.658
969.7140, 8689.025
970.8290, 8184.411
971.9440, 7781.812
973.0590, 7668.232
974.1740, 7685.670
975.2880, 8105.125
976.4030, 8411.598
977.5170, 9005.090
978.6310, 9279.599
979.7450, 9581.132
980.8590, 9504.679
981.9730, 9269.247
983.0860, 8736.831
984.2000, 8161.434
985.3130, 7638.055
986.4260, 7287.693
987.5390, 7054.351
988.6520, 6881.027
989.7640, 6965.722
990.8770, 6696.435
991.9890, 6740.167
993.1010, 6459.917
994.2130, 6296.683
995.3250, 6202.470
996.4370, 5959.274
997.5480, 5980.317
998.6590, 6049.249
999.7710, 5881.075
1000.882, 6099.955
1001.993, 5908.933
1003.103, 5756.848
1004.214, 5425.308
1005.324, 4927.307
1006.434, 4548.282
1007.545, 4082.739
1008.655, 3683.379
1009.764, 3158.425
1010.874, 2817.473
1011.983, 2494.539
1013.093, 2206.454
1014.202, 1804.555
1015.311, 1652.014
1016.420, 1333.151
1017.528, 1256.243
1018.637, 1197.043
1019.745, 1030.609
1020.854, 949.8157
1021.962, 895.8245
1023.070, 792.3828
1024.177, 859.6763
1025.285, 822.5112
1026.392, 782.8052
1027.500, 793.2603
1028.607, 808.6099
1029.714, 829.9546
1030.821, 761.3533
1031.927, 688.9570
1033.034, 676.8069
1034.140, 617.1765
1035.246, 593.2917
1036.352, 525.5813
1037.458, 511.3101
1038.564, 474.4673
1039.670, 479.8413
1040.775, 453.3452
1041.880, 445.6128
1042.986, 509.1479
1044.090, 531.2720
1045.195, 456.8369
1046.300, 524.4165
1047.404, 519.0125
1048.509, 571.1631
1049.613, 600.7949
1050.717, 666.0073
1051.821, 674.6746
1052.925, 750.1853
1054.028, 805.8977
1055.132, 920.1780
1056.235, 958.2905
1057.338, 1016.850
1058.441, 1052.763
1059.544, 1084.032
1060.647, 1119.288
1061.749, 1091.296
1062.851, 1053.613
1063.954, 970.4839
1065.056, 898.8843
1066.158, 793.0845
1067.259, 728.9038
1068.361, 592.6411
1069.462, 598.6980
1070.564, 546.0830
1071.665, 506.5498
1072.766, 533.5813
1073.867, 528.2944
1074.967, 556.2974
1076.068, 550.1482
1077.168, 646.7949
1078.268, 670.4778
1079.368, 746.0706
1080.468, 794.8108
1081.568, 901.4966
1082.668, 959.2742
1083.767, 1019.899
1084.866, 924.5342
1085.966, 941.1802
1087.065, 781.8569
1088.163, 742.5757
1089.262, 631.8940
1090.361, 408.5942
1091.459, 431.3572
1092.557, 336.5630
1093.655, 306.9060
1094.753, 246.2522
1095.851, 250.0029
1096.949, 252.7617
1098.046, 264.5288
1099.143, 251.3032
1100.241, 215.0854
1101.338, 266.8743
1102.434, 274.8232
1103.531, 313.6255
1104.628, 228.4353
1105.724, 242.2520
1106.820, 323.0757
1107.916, 261.9058
1109.012, 346.2468
1110.108, 203.0889
1111.204, 215.6255
1112.299, 180.4783
1113.395, 136.3364
1114.490, 173.1992
1115.585, 138.3101
1116.680, 114.9895
1117.775, 117.9651
1118.869, 110.9216
1119.964, 86.04712
1121.058, 144.0718
1122.152, 84.05298
1123.246, 59.95093
1124.340, 79.90942
1125.434, 35.81470
1126.527, 58.77002
1127.620, 54.92456
1128.714, 13.09229
1129.807, 6.006592
1130.900, 36.00024
1131.992, 25.00269
1133.085, 5.025879
1134.178, 17.91431
1135.270, 22.11206
1136.362, 2.193359
1137.454, 53.04346
1138.546, 19.03491
1139.638, 64.05981
1140.729, 0.8347170
1141.821, 74.73071
1142.912, 22.62793
1144.003, 26.42310
1145.094, 32.46899
1146.185, 12.63794
1147.276, 8.254883
1148.366, 45.85205
1149.456, 18.97021
1150.547, 99.10156
1151.637, 5.719727
1152.727, 72.02026
1153.816, 9.234375
1154.906, 0.5476070
1155.995, 14.40625
1157.085, 3.367920
1158.174, 2.840576
1159.263, 1.835938
1160.352, 3.114990
1161.441, 1.608643
1162.529, 3.629883
1163.618, 26.87354
1164.706, 39.13354
1165.794, 23.97754
1166.882, 46.70312
1167.970, 11.04614
1169.058, 10.28345
1170.145, 1.406738
1171.232, 72.06177
1172.320, 57.28613
1173.407, 23.32910
1174.494, 53.05811
1175.580, 125.5193
1176.667, 17.09326
1177.754, 29.66333
1178.840, 17.76318
1179.926, 26.78418
1181.012, 48.67285
1182.098, 52.83398
1183.184, 3.663574
1184.269, 33.82544
1185.355, 13.66235
1186.440, 65.80225
1187.525, 26.29517
1188.610, 13.81812
1189.695, 103.7363
1190.780, 70.29907
1191.864, 49.07495
1192.949, 52.60815
1194.033, 3.740723
1195.117, 15.22144
1196.201, 73.46802
1197.285, 123.1587
1198.369, 36.38940
1199.452, 8.388184
1200.536, 141.8618
1201.619, 37.05029
1202.702, 13.22949
1203.785, 24.10156
1204.868, 15.25342
1205.950, 26.45728
1207.033, 33.41064
1208.115, 31.62231
1209.197, 53.83252
1210.279, 31.92334
1211.361, 39.00146
1212.443, 33.06885
1213.525, 131.1235
1214.606, 86.44629
1215.687, 106.6926
1216.769, 36.28491
1217.850, 52.69165
1218.930, 29.20801
1220.011, 153.7141
1221.092, 57.62500
1222.172, 9.475830
1223.252, 26.40039
1224.333, 27.25903
1225.413, 97.10010
1226.492, 115.9294
1227.572, 84.74707
1228.652, 129.5691
1229.731, 145.3625
1230.810, 123.2351
1231.889, 49.91504
1232.968, 102.6799
1234.047, 116.6199
1235.126, 133.4500
1236.204, 175.4636
1237.283, 96.17065
1238.361, 38.91748
1239.439, 120.5991
1240.517, 34.26807
1241.595, 133.9170
1242.673, 129.5532
1243.750, 120.1763
1244.827, 85.78662
1245.905, 86.70166
1246.982, 69.95996
1248.059, 76.53809
1249.135, 57.09424
1250.212, 66.63525
1251.288, 76.16113
1252.365, 122.6726
1253.441, 85.17065
1254.517, 113.6543
1255.593, 89.12402
1256.669, 61.58154
1257.744, 86.63599
1258.820, 69.48633
1259.895, 84.17480
1260.970, 83.19507
1262.045, 92.10083
1263.120, 100.4016
1264.195, 93.76855
1265.270, 138.6501
1266.344, 26.94263
1267.418, 110.2981
1268.492, 94.13354
1269.566, 144.7900
1270.640, 124.3127
1271.714, 113.5681
1272.788, 95.80957
1273.861, 111.5332
