##NAMES=Axinite-(Fe)
##RRUFFID=R060558
##IDEAL CHEMISTRY=Ca_4_Fe^2+^_2_Al_4_[B_2_Si_8_O_30_](OH)_2_
##LOCALITY=unknown
##OWNER=RRUFF
##SOURCE=Gemological Institute of America
##DESCRIPTION=Brown flattened crystal
##STATUS=The identification of this mineral has been confirmed by X-ray diffraction and chemical analysis
##URL=rruff.info/R060558
##MEASURED CHEMISTRY=Ca_2.00_(Fe^2+^_0.60_Mg_0.35_Mn_0.05_)_Î£=1_Al_2.00_BSi_4.00_O_15_(OH) ; B not measured
##PIN_ID=M01661
##ORIENTATION=Laser parallel to (1 1 0). Fiducial mark perpendicular to laser is parallel to c [0 0 1]
91.53100, 0.0000000E+00
92.77800, 81.22949
94.02500, 677.1995
95.27200, 1255.454
96.51900, 2214.267
97.76500, 3169.044
99.01100, 4142.314
100.2570, 4992.132
101.5030, 5871.142
102.7490, 6951.917
103.9940, 8184.081
105.2390, 9735.453
106.4840, 10785.57
107.7290, 11004.22
108.9740, 10007.97
110.2180, 7942.592
111.4620, 6180.503
112.7060, 4544.783
113.9500, 3283.063
115.1940, 2304.216
116.4370, 1528.067
117.6800, 1028.470
118.9230, 733.3005
120.1660, 422.6013
121.4090, 387.8394
122.6510, 176.3989
123.8940, 20.07202
125.1360, 123.1946
126.3770, 237.4258
127.6190, 206.5291
128.8600, 174.0679
130.1020, 160.8997
131.3430, 88.04639
132.5840, 129.5312
133.8240, 5.618896
135.0650, 100.3706
136.3050, 284.6924
137.5450, 679.5515
138.7850, 934.8862
140.0250, 1094.655
141.2640, 1322.847
142.5030, 1403.453
143.7430, 1565.468
144.9810, 1628.887
146.2200, 1818.703
147.4590, 2175.912
148.6970, 2578.519
149.9350, 3062.562
151.1730, 3502.070
152.4110, 3804.035
153.6480, 4227.445
154.8860, 4591.287
156.1230, 4742.549
157.3600, 4781.220
158.5960, 4555.292
159.8330, 4315.754
161.0690, 4336.409
162.3050, 4211.297
163.5410, 4270.707
164.7770, 4589.350
166.0130, 4951.841
167.2480, 5472.619
168.4830, 6044.728
169.7180, 6593.161
170.9530, 6839.901
172.1880, 6481.913
173.4220, 5958.178
174.6560, 5054.667
175.8900, 4140.319
177.1240, 3228.105
178.3580, 2565.032
179.5910, 1797.110
180.8250, 1387.346
182.0580, 1120.701
183.2900, 1146.869
184.5230, 1226.750
185.7560, 1399.496
186.9880, 1506.244
188.2200, 1626.196
189.4520, 1939.364
190.6830, 2410.749
191.9150, 3041.351
193.1460, 3567.170
194.3770, 3912.204
195.6080, 4087.454
196.8390, 4431.921
198.0700, 4933.602
199.3000, 5588.496
200.5300, 6314.603
201.7600, 7168.919
202.9900, 8057.439
204.2190, 8816.342
205.4490, 9197.893
206.6780, 9341.230
207.9070, 9034.333
209.1360, 8665.992
210.3640, 8139.886
211.5930, 7473.929
212.8210, 6787.122
214.0490, 6180.468
215.2770, 5380.963
216.5040, 4734.610
217.7320, 4120.408
218.9590, 3383.355
220.1860, 2888.454
221.4130, 2202.704
222.6400, 1866.111
223.8660, 1314.674
225.0920, 964.3970
226.3190, 638.2783
227.5450, 374.3198
228.7700, 145.5193
229.9960, 32.12354
231.2210, 136.6094
232.4460, 226.4902
233.6710, 315.1099
234.8960, 219.7634
236.1210, 162.6868
237.3450, 7.420654
238.5690, 259.6301
239.7930, 468.8640
241.0170, 780.9802
242.2410, 1157.934
243.4640, 1568.287
244.6870, 2012.794
245.9100, 2254.297
247.1330, 2700.763
248.3560, 2908.081
249.5780, 3214.069
250.8000, 3483.769
252.0230, 3839.282
253.2440, 4053.689
254.4660, 4201.042
255.6880, 4400.165
256.9090, 4713.543
258.1300, 4980.042
259.3510, 5392.767
260.5720, 5727.217
261.7920, 6106.915
263.0130, 6650.852
264.2330, 7391.023
265.4530, 8168.418
266.6730, 8893.030
267.8920, 9633.857
269.1120, 10105.89
270.3310, 10365.98
271.5500, 10021.73
272.7690, 9715.470
273.9880, 8769.937
275.2060, 7994.159
276.4240, 6973.172
277.6430, 5851.750
278.8600, 5056.622
280.0780, 4131.601
281.2960, 3475.448
282.5130, 2940.418
283.7300, 2692.544
284.9470, 2589.822
286.1640, 2742.252
287.3810, 3094.832
288.5970, 3741.557
289.8130, 4527.429
291.0290, 5389.447
292.2450, 6752.604
293.4610, 7892.905
294.6760, 9431.343
295.8910, 10927.92
297.1060, 12486.63
298.3210, 13993.48
299.5360, 15226.46
300.7510, 16594.57
301.9650, 17594.80
303.1790, 18498.16
304.3930, 18910.66
305.6070, 18966.27
306.8200, 18924.00
308.0340, 17847.85
309.2470, 16430.74
310.4600, 14332.62
311.6730, 12209.58
312.8850, 10110.67
314.0980, 7999.684
315.3100, 6230.500
316.5220, 4868.041
317.7340, 3631.828
318.9460, 2714.468
320.1570, 1931.138
321.3690, 1510.566
322.5800, 1150.347
323.7910, 886.6523
325.0010, 708.9297
326.2120, 620.3970
327.4220, 707.7666
328.6330, 666.2354
329.8430, 798.8042
331.0520, 885.4746
332.2620, 949.2471
333.4720, 1214.122
334.6810, 1415.099
335.8900, 1792.176
337.0990, 2237.354
338.3070, 2903.630
339.5160, 3830.005
340.7240, 4929.477
341.9320, 6058.046
343.1400, 7737.708
344.3480, 9290.475
345.5560, 10924.35
346.7630, 12259.36
347.9700, 13523.52
349.1770, 15047.85
350.3840, 16671.35
351.5910, 17652.01
352.7970, 17616.83
354.0040, 16967.80
355.2100, 15341.91
356.4160, 13042.16
357.6220, 10539.52
358.8270, 8375.982
360.0320, 6311.531
361.2380, 4744.163
362.4430, 3506.873
363.6470, 2501.667
364.8520, 1807.554
366.0560, 1258.530
367.2610, 845.5889
368.4650, 622.7607
369.6690, 375.0293
370.8720, 139.4072
372.0760, 121.9175
373.2790, 30.55273
374.4820, 50.68164
375.6850, 0.1821290
376.8880, 78.36621
378.0910, 206.2979
379.2930, 382.0742
380.4950, 767.3452
381.6970, 1102.456
382.8990, 1777.714
384.1010, 2553.080
385.3020, 3226.526
386.5040, 4231.041
387.7050, 5322.621
388.9060, 6326.264
390.1060, 7207.970
391.3070, 7724.735
392.5070, 7766.566
393.7080, 7122.457
394.9080, 6317.412
396.1070, 5249.431
397.3070, 4309.517
398.5070, 3496.668
399.7060, 2825.887
400.9050, 2366.172
402.1040, 2085.529
403.3030, 1966.963
404.5010, 2005.476
405.7000, 2178.067
406.8980, 2550.737
408.0960, 3166.484
409.2940, 4152.309
410.4910, 5245.208
411.6890, 6558.181
412.8860, 8348.229
414.0830, 10378.35
415.2800, 12820.54
416.4770, 15510.83
417.6730, 17412.25
418.8690, 17482.82
420.0660, 16855.54
421.2620, 15872.39
422.4570, 14835.36
423.6530, 14437.43
424.8480, 14034.62
426.0440, 14119.87
427.2390, 14460.19
428.4340, 14425.58
429.6280, 13804.02
430.8230, 12705.54
432.0170, 10994.10
433.2110, 9088.729
434.4050, 7559.416
435.5990, 6091.161
436.7930, 5164.962
437.9860, 4543.821
439.1800, 4445.736
440.3730, 4754.706
441.5660, 5230.729
442.7580, 5924.807
443.9510, 6719.937
445.1430, 7036.119
446.3350, 6689.352
447.5270, 5834.636
448.7190, 4582.969
449.9110, 3392.353
451.1020, 2359.783
452.2930, 1461.262
453.4850, 838.7886
454.6750, 409.3621
455.8660, 147.9822
457.0570, 157.3516
458.2470, 325.7065
459.4370, 390.1577
460.6270, 476.7373
461.8170, 504.4888
463.0070, 552.4280
464.1960, 510.5796
465.3850, 461.9246
466.5750, 364.4404
467.7630, 212.0811
468.9520, 14.77710
470.1410, 185.5483
471.3290, 456.9126
472.5170, 751.3142
473.7050, 1287.753
474.8930, 1681.229
476.0810, 2305.740
477.2680, 3192.288
478.4560, 4238.869
479.6430, 5465.486
480.8300, 6917.135
482.0160, 8476.817
483.2030, 10289.53
484.3890, 11723.28
485.5760, 12488.06
486.7620, 12023.74
487.9480, 10220.11
489.1330, 8507.161
490.3190, 6496.252
491.5040, 4890.646
492.6890, 3558.895
493.8740, 2726.381
495.0590, 2182.913
496.2440, 1966.985
497.4280, 1885.306
498.6120, 1893.754
499.7960, 2028.683
500.9800, 2225.481
502.1640, 2403.256
503.3470, 2695.949
504.5310, 2824.878
505.7140, 2889.023
506.8970, 2966.593
508.0800, 3052.360
509.2620, 3059.877
510.4450, 3049.225
511.6270, 2903.088
512.8090, 2596.059
513.9910, 2343.589
515.1730, 2012.843
516.3550, 1708.461
517.5360, 1379.161
518.7170, 1279.111
519.8980, 1027.708
521.0790, 843.6443
522.2600, 673.0154
523.4400, 550.3948
524.6210, 436.6497
525.8010, 387.9724
526.9810, 393.2922
528.1610, 340.6091
529.3400, 408.9224
530.5200, 365.2314
531.6990, 422.5359
532.8780, 540.8354
534.0570, 534.1294
535.2360, 708.4177
536.4140, 780.6992
537.5930, 864.9746
538.7710, 951.2422
539.9490, 1016.502
541.1270, 1089.753
542.3040, 1125.996
543.4820, 1255.230
544.6590, 1272.455
545.8360, 1252.688
547.0130, 1204.937
548.1900, 1071.214
549.3670, 951.5264
550.5430, 790.8806
551.7190, 592.2710
552.8960, 495.7185
554.0710, 471.2136
555.2470, 332.7534
556.4230, 319.3210
557.5980, 349.9131
558.7730, 377.5325
559.9480, 429.1614
561.1230, 442.7856
562.2980, 395.3955
563.4720, 511.9861
564.6470, 428.5566
565.8210, 554.1062
566.9950, 604.6343
568.1690, 672.1406
569.3420, 845.6243
570.5160, 953.0845
571.6890, 1174.522
572.8620, 1389.935
574.0350, 1679.324
575.2080, 1938.688
576.3800, 2494.027
577.5530, 2860.340
578.7250, 3426.625
579.8970, 4078.886
581.0690, 4845.034
582.2410, 5892.325
583.4120, 6793.502
584.5830, 8024.651
585.7550, 9388.772
586.9260, 10765.86
588.0960, 11987.92
589.2670, 12679.96
590.4380, 12859.96
591.6080, 12286.93
592.7780, 11003.87
593.9480, 9558.771
595.1180, 8130.648
596.2870, 6604.492
597.4570, 5435.301
598.6260, 4470.262
599.7950, 3650.505
600.9640, 3088.105
602.1330, 2669.539
603.3010, 2373.197
604.4700, 2054.905
605.6380, 1978.931
606.8060, 1944.683
607.9740, 1876.986
609.1420, 2026.395
610.3090, 2038.688
611.4760, 2183.154
612.6440, 2318.595
613.8110, 2237.011
614.9770, 2191.401
616.1440, 2111.765
617.3110, 1906.103
618.4770, 1613.414
619.6430, 1327.699
620.8090, 1099.956
621.9750, 907.1855
623.1400, 694.3877
624.3060, 472.5615
625.4710, 276.7070
626.6360, 130.8242
627.8010, 41.90234
628.9660, 52.08496
630.1300, 115.0645
631.2950, 166.4390
632.4590, 178.8672
633.6230, 197.4788
634.7870, 181.2849
635.9510, 125.2766
637.1140, 128.4255
638.2780, 129.7336
639.4410, 25.20215
640.6040, 48.22388
641.7670, 49.58130
642.9290, 114.8701
644.0920, 154.1101
645.2540, 100.3093
646.4160, 34.45581
647.5780, 53.52588
648.7400, 90.52808
649.9020, 43.52661
651.0630, 12.30176
652.2250, 36.95825
653.3860, 125.3325
654.5470, 104.8677
655.7080, 126.5532
656.8680, 98.39941
658.0290, 8.614990
659.1890, 61.54126
660.3490, 117.4014
661.5090, 231.2109
662.6690, 349.9856
663.8280, 627.7273
664.9880, 763.4358
666.1470, 1093.111
667.3060, 1539.753
668.4650, 2062.362
669.6240, 2597.938
670.7820, 3175.480
671.9410, 4041.990
673.0990, 4937.466
674.2570, 5643.909
675.4150, 6334.320
676.5720, 6755.697
677.7300, 6692.042
678.8870, 6333.353
680.0450, 5776.632
681.2020, 5038.878
682.3590, 4174.092
683.5150, 3379.271
684.6720, 2838.065
685.8280, 2348.812
686.9840, 2073.176
688.1400, 1761.443
689.2960, 1659.492
690.4520, 1570.313
691.6070, 1610.058
692.7630, 1646.764
693.9180, 1812.814
695.0730, 2047.886
696.2280, 2328.240
697.3820, 2697.454
698.5370, 3178.580
699.6910, 3856.551
700.8450, 4673.760
701.9990, 5837.359
703.1530, 7057.917
704.3070, 8829.436
705.4600, 10782.92
706.6130, 13616.36
707.7660, 16472.76
708.9190, 19833.12
710.0720, 23533.45
711.2250, 27075.74
712.3770, 30314.00
713.5300, 32583.20
714.6820, 32731.38
715.8340, 31294.51
716.9850, 28629.61
718.1370, 24937.68
719.2880, 21091.70
720.4400, 17639.69
721.5910, 14314.64
722.7420, 11691.56
723.8930, 9588.438
725.0430, 7926.281
726.1940, 6518.088
727.3440, 5669.860
728.4940, 4816.598
729.6440, 4066.301
730.7940, 3553.968
731.9430, 3263.602
733.0930, 2791.200
734.2420, 2447.765
735.3910, 2180.297
736.5400, 1971.795
737.6890, 1846.294
738.8370, 1669.830
739.9860, 1586.420
741.1340, 1507.085
742.2820, 1340.833
743.4300, 1293.678
744.5780, 1297.608
745.7250, 1187.613
746.8730, 1290.670
748.0200, 1329.744
749.1670, 1269.795
750.3140, 1384.817
751.4610, 1464.809
752.6070, 1606.771
753.7540, 1752.704
754.9000, 1977.608
756.0460, 2245.482
757.1920, 2633.328
758.3380, 2944.145
759.4830, 3431.935
760.6280, 3987.696
761.7740, 4429.430
762.9190, 5001.137
764.0640, 5474.816
765.2080, 5979.592
766.3530, 6231.686
767.4970, 6270.104
768.6420, 6375.487
769.7860, 6002.567
770.9300, 5586.794
772.0730, 5079.786
773.2170, 4508.735
774.3600, 3956.145
775.5040, 3473.308
776.6470, 2840.344
777.7900, 2466.901
778.9320, 2113.591
780.0750, 1807.303
781.2170, 1581.098
782.3600, 1403.657
783.5020, 1158.000
784.6440, 1027.918
785.7850, 904.6389
786.9270, 765.6082
788.0680, 673.2217
789.2100, 541.3704
790.3510, 496.8843
791.4920, 468.8376
792.6320, 389.0657
793.7730, 310.9282
794.9130, 232.5579
796.0540, 134.9082
797.1940, 156.8022
798.3340, 204.3777
799.4730, 208.5559
800.6130, 174.8169
801.7520, 239.0266
802.8920, 202.2327
804.0310, 326.5947
805.1700, 238.8533
806.3090, 276.1125
807.4470, 435.3723
808.5860, 493.6326
809.7240, 608.8940
810.8620, 686.1572
812.0000, 764.4219
813.1380, 675.6887
814.2750, 595.9580
815.4130, 490.2302
816.5500, 414.5051
817.6870, 218.7837
818.8240, 114.0657
819.9610, 15.35181
821.0980, 74.35889
822.2340, 109.1028
823.3700, 153.8960
824.5070, 185.7615
825.6430, 215.7146
826.7780, 197.7710
827.9140, 277.9197
829.0500, 247.2021
830.1850, 238.6011
831.3200, 177.1111
832.4550, 167.6284
833.5900, 183.3582
834.7250, 117.0962
835.8590, 64.87793
836.9930, 22.24316
838.1280, 46.03516
839.2620, 74.73584
840.3950, 146.9573
841.5290, 241.1895
842.6630, 244.4321
843.7960, 335.6860
844.9290, 409.9517
846.0620, 395.2288
847.1950, 536.5188
848.3280, 625.8208
849.4600, 705.1360
850.5930, 683.4648
851.7250, 814.8069
852.8570, 829.1631
853.9890, 791.5337
855.1210, 627.9194
856.2520, 695.3213
857.3840, 635.7402
858.5150, 681.1750
859.6460, 611.6262
860.7770, 594.0964
861.9080, 562.5835
863.0380, 610.0942
864.1690, 552.6318
865.2990, 536.1919
866.4290, 552.7712
867.5590, 429.3696
868.6890, 472.9922
869.8190, 425.6484
870.9480, 521.3318
872.0770, 443.0452
873.2070, 473.7930
874.3360, 513.5676
875.4640, 542.3726
876.5930, 616.2058
877.7220, 694.0664
878.8500, 676.9500
879.9780, 812.8535
881.1060, 895.7896
882.2340, 1019.760
883.3620, 1317.760
884.4890, 1601.790
885.6170, 1779.840
886.7440, 2058.910
887.8710, 2510.998
888.9980, 2893.107
890.1240, 3402.248
891.2510, 3825.415
892.3770, 4534.613
893.5040, 5215.835
894.6300, 6048.093
895.7560, 6517.381
896.8810, 7350.705
898.0070, 7716.061
899.1330, 8231.438
900.2580, 8290.842
901.3830, 8180.278
902.5080, 8290.766
903.6330, 8154.326
904.7570, 8102.985
905.8820, 7814.749
907.0060, 7887.616
908.1300, 7862.600
909.2540, 7726.696
910.3780, 7410.882
911.5020, 7095.179
912.6250, 6470.569
913.7490, 5941.029
914.8720, 5324.544
915.9950, 4634.113
917.1180, 3997.726
918.2400, 3503.370
919.3630, 3179.055
920.4850, 2843.801
921.6080, 2632.592
922.7300, 2312.430
923.8520, 2245.341
924.9730, 2076.307
926.0950, 1881.341
927.2160, 1891.467
928.3380, 1826.681
929.4590, 1763.930
930.5800, 1772.388
931.7010, 1726.842
932.8210, 1723.341
933.9420, 1761.876
935.0620, 1810.441
936.1820, 1780.037
937.3020, 1749.661
938.4220, 1772.312
939.5420, 1954.993
940.6610, 2057.702
941.7810, 2157.439
942.9000, 2348.205
944.0190, 2424.998
945.1380, 2620.823
946.2570, 2928.678
947.3750, 3299.576
948.4940, 3602.508
949.6120, 4001.480
950.7300, 4398.483
951.8480, 4750.518
952.9660, 5298.589
954.0830, 5812.691
955.2010, 6419.828
956.3180, 7137.353
957.4350, 8115.922
958.5520, 9141.876
959.6690, 10277.92
960.7860, 11559.19
961.9020, 12665.68
963.0190, 13626.26
964.1350, 14053.87
965.2510, 14592.15
966.3670, 14377.40
967.4830, 13999.37
968.5980, 13535.47
969.7140, 13028.67
970.8290, 13057.01
971.9440, 13200.12
973.0590, 13917.84
974.1740, 14800.60
975.2880, 16195.39
976.4030, 17621.22
977.5170, 19218.09
978.6310, 20219.00
979.7450, 20894.94
980.8590, 21190.92
981.9730, 20571.95
983.0860, 19760.00
984.2000, 18768.10
985.3130, 17519.22
986.4260, 16390.39
987.5390, 15767.60
988.6520, 15405.88
989.7640, 15119.25
990.8770, 15229.87
991.9890, 15667.22
993.1010, 16153.67
994.2130, 16784.44
995.3250, 17662.92
996.4370, 18414.79
997.5480, 19509.21
998.6590, 20510.73
999.7710, 21677.46
1000.882, 22649.13
1001.993, 23249.92
1003.103, 23879.75
1004.214, 23652.07
1005.324, 23127.07
1006.434, 22168.96
1007.545, 20108.21
1008.655, 18093.15
1009.764, 16009.75
1010.874, 13889.26
1011.983, 11846.73
1013.093, 10101.82
1014.202, 8685.647
1015.311, 7349.082
1016.420, 6225.468
1017.528, 5497.018
1018.637, 4825.188
1019.745, 4381.388
1020.854, 4050.619
1021.962, 3871.881
1023.070, 3710.576
1024.177, 3774.849
1025.285, 3707.403
1026.392, 3786.286
1027.500, 3676.755
1028.607, 3695.200
1029.714, 3428.317
1030.821, 3161.914
1031.927, 2868.445
1033.034, 2519.768
1034.140, 2178.734
1035.246, 1951.586
1036.352, 1680.361
1037.458, 1438.576
1038.564, 1349.517
1039.670, 1165.828
1040.775, 971.3953
1041.880, 954.7065
1042.986, 874.6304
1044.090, 742.4683
1045.195, 738.9614
1046.300, 679.9536
1047.404, 626.1558
1048.509, 578.4937
1049.613, 464.3062
1050.717, 526.2754
1051.821, 635.2786
1052.925, 516.8960
1054.028, 553.9253
1055.132, 591.8582
1056.235, 576.3965
1057.338, 612.5781
1058.441, 533.7612
1059.544, 497.8853
1060.647, 518.2432
1061.749, 559.3428
1062.851, 541.8594
1063.954, 470.1765
1065.056, 412.3831
1066.158, 366.6052
1067.259, 334.1223
1068.361, 287.6965
1069.462, 285.0752
1070.564, 289.3728
1071.665, 263.7810
1072.766, 379.0852
1073.867, 298.4016
1074.967, 452.7336
1076.068, 464.0793
1077.168, 573.8999
1078.268, 560.6729
1079.368, 652.4592
1080.468, 740.0105
1081.568, 811.9749
1082.668, 846.8269
1083.767, 881.8662
1084.866, 845.2019
1085.966, 814.2520
1087.065, 728.0605
1088.163, 681.2473
1089.262, 606.4878
1090.361, 529.5786
1091.459, 460.2200
1092.557, 347.6709
1093.655, 293.9441
1094.753, 231.3484
1095.851, 217.9612
1096.949, 230.4622
1098.046, 222.8103
1099.143, 127.2314
1100.241, 81.72729
1101.338, 169.8733
1102.434, 113.5332
1103.531, 161.1538
1104.628, 56.40405
1105.724, 108.7666
1106.820, 45.02661
1107.916, 106.3987
1109.012, 163.9922
1110.108, 138.8088
1111.204, 66.02612
1112.299, 60.18408
1113.395, 22.34399
1114.490, 16.67896
1115.585, 38.08789
1116.680, 72.49512
1117.775, 102.0322
1118.869, 15.19360
1119.964, 0.4802250
1121.058, 6.320313
1122.152, 16.16309
1123.246, 21.44849
1124.340, 2.322510
1125.434, 17.04614
1126.527, 1.488525
1127.620, 44.37402
1128.714, 55.06665
1129.807, 32.81689
1130.900, 5.701660
1131.992, 0.5207520
1133.085, 34.43677
1134.178, 73.21729
1135.270, 43.18994
1136.362, 55.11597
1137.454, 69.09302
1138.546, 37.14648
1139.638, 49.19507
1140.729, 40.89551
1141.821, 37.71362
1142.912, 13.60205
1144.003, 0.4545900
1145.094, 56.57373
1146.185, 64.68799
1147.276, 45.92578
1148.366, 47.19385
1149.456, 20.50708
1150.547, 12.19922
1151.637, 9.014893
1152.727, 9.688477
1153.816, 41.64233
1154.906, 16.01050
1155.995, 36.27344
1157.085, 5.541504
1158.174, 47.73926
1159.263, 29.88989
1160.352, 39.07251
1161.441, 29.31543
1162.529, 25.44702
1163.618, 5.917480
1164.706, 1.751221
1165.794, 27.52954
1166.882, 8.948242
1167.970, 46.42993
1169.058, 8.825684
1170.145, 2.563232
1171.232, 16.12939
1172.320, 26.65796
1173.407, 14.87573
1174.494, 64.27905
1175.580, 6.535645
1176.667, 0.2983400
1177.754, 18.23169
1178.840, 19.00122
1179.926, 9.409912
1181.012, 37.75391
1182.098, 5.989258
1183.184, 18.78735
1184.269, 57.20898
1185.355, 5.670898
1186.440, 21.59058
1187.525, 35.49341
1188.610, 38.91040
1189.695, 94.83203
1190.780, 34.61328
1191.864, 16.00732
1192.949, 32.86890
1194.033, 43.97876
1195.117, 68.82593
1196.201, 68.61987
1197.285, 40.51526
1198.369, 40.12415
1199.452, 53.95752
1200.536, 72.64258
1201.619, 57.36389
1202.702, 98.04114
1203.785, 89.50940
1204.868, 84.94214
1205.950, 86.48596
1207.033, 44.89368
1208.115, 48.56287
1209.197, 14.00269
1210.279, 27.39490
1211.361, 0.7324220
1212.443, 51.99792
1213.525, 46.28455
1214.606, 14.49866
1215.687, 48.72961
1216.769, 27.89819
1217.850, 52.00891
1218.930, 31.06665
1220.011, 79.09082
1221.092, 95.09131
1222.172, 21.20056
1223.252, 57.15491
1224.333, 55.21155
1225.413, 24.09106
1226.492, 28.93091
1227.572, 70.73340
1228.652, 70.36145
1229.731, 69.69653
1230.810, 114.0083
1231.889, 67.69763
1232.968, 71.38110
1234.047, 107.0092
1235.126, 93.61743
1236.204, 109.1979
1237.283, 95.75171
1238.361, 79.27698
1239.439, 68.77319
1240.517, 127.2373
1241.595, 144.7206
1242.673, 150.1819
1243.750, 108.5648
1244.827, 100.9932
1245.905, 102.3187
1246.982, 91.61499
1248.059, 155.8809
1249.135, 115.2063
1250.212, 153.4803
1251.288, 156.6633
1252.365, 89.52014
1253.441, 137.6481
1254.517, 126.8057
1255.593, 96.52734
1256.669, 185.5814
1257.744, 118.3027
1258.820, 122.3944
1259.895, 151.4930
1260.970, 135.4130
1262.045, 158.2711
1263.120, 122.1697
1264.195, 176.0211
1265.270, 141.2911
1266.344, 145.8517
1267.418, 163.5919
1268.492, 97.92114
1269.566, 121.5593
1270.640, 94.69421
