##NAMES=Axinite-(Fe)
##RRUFFID=R050026
##IDEAL CHEMISTRY=Ca_4_Fe^2+^_2_Al_4_[B_2_Si_8_O_30_](OH)_2_
##LOCALITY=Pouyva mine, Polar Urals, Western Siberian Region, Russia
##OWNER=RRUFF
##SOURCE=Rock Currier
##DESCRIPTION=Brown transparent flat crystal
##STATUS=The identification of this mineral has been confirmed by X-ray diffraction and chemical analysis
##URL=rruff.info/R050026
##MEASURED CHEMISTRY=Ca_2.00_(Fe^2+^_0.61_Mn_0.26_Mg_0.13_)Al_2.00_BSi_4_O_15_(OH)
##PIN_ID=L00137
##ORIENTATION=Laser parallel to (1 0 1). Fiducial mark perpendicular to laser is parallel to b* (0 1 0)
86.858, 0.000
88.260, 31.265
89.663, 6.230
91.065, 117.902
92.466, 240.360
93.868, 364.373
95.269, 358.528
96.670, 539.905
98.070, 617.973
99.471, 784.759
100.871, 707.987
102.271, 799.438
103.670, 791.781
105.070, 860.417
106.469, 978.676
107.868, 870.467
109.267, 958.239
110.665, 866.771
112.063, 719.502
113.461, 676.430
114.859, 517.121
116.256, 482.778
117.653, 260.146
119.050, 207.708
120.447, 215.787
121.843, 231.729
123.240, 339.455
124.636, 253.794
126.031, 373.875
127.427, 391.017
128.822, 332.487
130.217, 221.451
131.612, 69.072
133.006, 25.477
134.400, 26.409
135.794, 128.020
137.188, 197.645
138.581, 307.351
139.975, 264.260
141.368, 261.027
142.760, 353.709
144.153, 419.211
145.545, 726.938
146.937, 878.586
148.329, 1373.444
149.720, 1627.161
151.112, 1627.741
152.503, 1327.190
153.893, 792.508
155.284, 557.552
156.674, 400.332
158.064, 387.095
159.454, 292.496
160.843, 273.628
162.233, 295.525
163.622, 290.833
165.011, 480.864
166.399, 665.779
167.787, 1191.842
169.175, 1269.836
170.563, 1667.654
171.951, 1560.699
173.338, 1308.952
174.725, 1231.398
176.112, 1007.021
177.499, 876.803
178.885, 629.727
180.271, 427.774
181.657, 242.932
183.043, 86.179
184.428, 50.501
185.813, 13.883
187.198, 22.889
188.583, 0.246
189.967, 5.716
191.351, 72.802
192.735, 111.326
194.119, 173.866
195.502, 57.690
196.885, 123.265
198.268, 83.880
199.651, 166.548
201.033, 43.258
202.415, 63.988
203.797, 262.191
205.179, 378.346
206.561, 644.428
207.942, 762.411
209.323, 886.306
210.703, 1080.144
212.084, 978.930
213.464, 1167.667
214.844, 1111.356
216.224, 1279.999
217.603, 1315.580
218.983, 1241.039
220.362, 1066.318
221.741, 587.405
223.119, 398.414
224.497, 150.456
225.875, 39.194
227.253, 23.202
228.631, 70.119
230.008, 81.426
231.385, 100.616
232.762, 54.433
234.139, 0.293
235.515, 99.257
236.891, 226.568
238.267, 368.514
239.643, 502.568
241.018, 550.467
242.393, 630.145
243.768, 699.640
245.143, 638.061
246.517, 622.452
247.891, 521.164
249.265, 526.142
250.639, 536.819
252.012, 612.136
253.386, 742.719
254.759, 733.845
256.131, 1014.057
257.504, 729.760
258.876, 675.387
260.248, 578.905
261.620, 771.294
262.991, 749.439
264.363, 970.644
265.734, 919.569
267.104, 877.317
268.475, 971.886
269.845, 1036.279
271.215, 1163.500
272.585, 1253.545
273.955, 1240.421
275.324, 1276.877
276.693, 1294.429
278.062, 1185.571
279.431, 1137.531
280.799, 984.292
282.167, 965.862
283.535, 866.267
284.903, 940.518
286.270, 803.625
287.638, 788.580
289.005, 746.345
290.371, 670.902
291.738, 725.467
293.104, 638.729
294.470, 647.908
295.836, 580.877
297.201, 593.039
298.567, 605.433
299.932, 632.470
301.296, 741.573
302.661, 797.468
304.025, 934.465
305.389, 1139.892
306.753, 1116.675
308.117, 1180.192
309.480, 908.358
310.843, 924.047
312.206, 818.692
313.569, 935.308
314.931, 1144.893
316.293, 1368.448
317.655, 1749.975
319.017, 1806.472
320.378, 1998.881
321.740, 1788.515
323.101, 1551.775
324.461, 1516.996
325.822, 1316.755
327.182, 1435.653
328.542, 1332.511
329.902, 1282.443
331.261, 1311.092
332.621, 1219.728
333.980, 1382.349
335.339, 1417.958
336.697, 1724.553
338.056, 1957.316
339.414, 2278.882
340.772, 2733.431
342.129, 2627.964
343.487, 2615.623
344.844, 2223.629
346.201, 1822.247
347.557, 1611.952
348.914, 1375.653
350.270, 1494.642
351.626, 1299.971
352.982, 1122.488
354.337, 856.909
355.693, 563.739
357.048, 451.295
358.402, 245.537
359.757, 230.062
361.111, 87.310
362.465, 77.450
363.819, 58.884
365.173, 48.648
366.526, 79.438
367.879, 58.353
369.232, 145.667
370.585, 162.262
371.937, 202.115
373.290, 284.503
374.642, 227.050
375.993, 270.607
377.345, 244.133
378.696, 254.617
380.047, 314.805
381.398, 398.642
382.748, 596.943
384.099, 650.259
385.449, 980.365
386.799, 1166.775
388.148, 1291.654
389.497, 1539.332
390.847, 1383.952
392.196, 1530.604
393.544, 1343.424
394.893, 1055.991
396.241, 943.475
397.589, 665.383
398.936, 638.148
400.284, 461.194
401.631, 444.967
402.978, 387.299
404.325, 252.829
405.672, 311.377
407.018, 211.914
408.364, 277.441
409.710, 251.959
411.055, 295.365
412.401, 467.792
413.746, 504.262
415.091, 813.738
416.435, 935.170
417.780, 1214.560
419.124, 1383.905
420.468, 1469.206
421.812, 1859.464
423.155, 1779.678
424.498, 1968.849
425.842, 1951.978
427.184, 1819.065
428.527, 1899.111
429.869, 1485.117
431.211, 1397.083
432.553, 1022.009
433.895, 777.897
435.236, 704.748
436.577, 498.576
437.918, 503.712
439.259, 427.542
440.599, 567.641
441.940, 634.831
443.280, 660.695
444.619, 657.793
445.959, 581.142
447.298, 538.692
448.637, 409.212
449.976, 308.703
451.315, 291.166
452.653, 210.600
453.991, 258.006
455.329, 243.385
456.667, 213.739
458.004, 191.066
459.341, 105.371
460.678, 160.659
462.015, 85.890
463.352, 146.140
464.688, 129.368
466.024, 167.573
467.360, 335.758
468.695, 271.937
470.031, 409.114
471.366, 400.287
472.701, 391.468
474.035, 507.747
475.370, 463.930
476.704, 676.119
478.038, 860.306
479.372, 1203.501
480.705, 1743.750
482.038, 2095.955
483.371, 2699.175
484.704, 2624.398
486.037, 2337.640
487.369, 1927.896
488.701, 1166.170
490.033, 888.458
491.365, 530.744
492.696, 424.038
494.027, 261.445
495.358, 216.914
496.689, 234.392
498.019, 148.939
499.350, 324.469
500.680, 212.995
502.009, 198.278
503.339, 149.690
504.668, 99.877
505.997, 158.052
507.326, 109.222
508.655, 126.396
509.983, 203.577
511.311, 45.774
512.639, 113.991
513.967, 52.225
515.295, 14.476
516.622, 21.727
517.949, 23.062
519.276, 50.717
520.602, 64.397
521.929, 54.861
523.255, 45.327
524.581, 87.800
525.906, 4.342
527.232, 77.602
528.557, 40.094
529.882, 79.969
531.207, 32.831
532.531, 22.551
533.855, 26.943
535.179, 10.403
536.503, 11.925
537.827, 15.328
539.150, 14.644
540.473, 11.543
541.796, 41.479
543.119, 32.488
544.441, 77.483
545.764, 54.465
547.086, 29.437
548.407, 98.406
549.729, 73.382
551.050, 82.378
552.371, 116.405
553.692, 133.470
555.013, 247.576
556.333, 226.713
557.653, 370.865
558.973, 494.019
560.293, 471.170
561.612, 622.316
562.932, 486.453
564.251, 546.290
565.569, 523.371
566.888, 540.034
568.206, 671.969
569.524, 715.797
570.842, 934.804
572.160, 905.877
573.477, 880.941
574.795, 977.996
576.112, 721.042
577.428, 729.078
578.745, 579.106
580.061, 499.125
581.377, 443.136
582.693, 340.138
584.009, 393.133
585.324, 353.119
586.639, 343.097
587.954, 354.068
589.269, 235.047
590.583, 275.003
591.897, 162.951
593.212, 155.958
594.525, 103.892
595.839, 20.819
597.152, 84.736
598.465, 11.646
599.778, 1.433
601.091, 50.455
602.403, 41.335
603.716, 125.207
605.028, 116.072
606.339, 188.931
607.651, 265.784
608.962, 340.632
610.273, 522.474
611.584, 605.126
612.895, 837.956
614.205, 1068.751
615.515, 1190.425
616.825, 1558.008
618.135, 1578.235
619.444, 1746.696
620.754, 1661.848
622.063, 1309.255
623.372, 1162.684
624.680, 701.262
625.989, 563.337
627.297, 371.781
628.605, 243.537
629.912, 170.917
631.220, 77.347
632.527, 145.966
633.834, 122.462
635.141, 112.137
636.447, 149.260
637.754, 102.377
639.060, 201.695
640.366, 209.835
641.671, 223.026
642.977, 331.425
644.282, 301.202
645.587, 310.992
646.892, 258.978
648.196, 188.971
649.501, 164.045
650.805, 115.131
652.109, 96.880
653.412, 91.560
654.716, 71.178
656.019, 71.603
657.322, 81.199
658.625, 111.784
659.927, 89.360
661.230, 155.772
662.532, 166.974
663.834, 157.417
665.135, 270.654
666.437, 284.960
667.738, 345.483
669.039, 467.447
670.340, 554.730
671.640, 816.716
672.940, 942.596
674.241, 1161.447
675.540, 1456.471
676.840, 1466.148
678.139, 1594.002
679.439, 1351.448
680.738, 1148.428
682.036, 990.828
683.335, 729.483
684.633, 671.531
685.931, 513.804
687.229, 456.712
688.527, 457.334
689.824, 382.394
691.121, 429.268
692.418, 365.106
693.715, 407.950
695.012, 562.809
696.308, 516.939
697.604, 733.395
698.900, 781.362
700.195, 921.289
701.491, 1211.403
702.786, 1489.626
704.081, 1818.328
705.376, 2310.524
706.670, 2946.614
707.964, 3500.740
709.259, 3957.005
710.552, 5302.339
711.846, 5715.675
713.139, 6282.002
714.433, 6603.322
715.726, 5399.636
717.018, 5004.941
718.311, 3864.240
719.603, 3029.530
720.895, 2509.814
722.187, 1759.092
723.479, 1525.364
724.770, 1116.630
726.061, 963.890
727.352, 801.143
728.643, 579.388
729.934, 542.627
731.224, 418.859
732.514, 360.085
733.804, 355.303
735.094, 246.514
736.383, 213.719
737.672, 187.917
738.961, 130.109
740.250, 153.294
741.539, 103.473
742.827, 163.645
744.115, 75.810
745.403, 109.969
746.691, 139.122
747.978, 62.269
749.265, 102.408
750.552, 107.529
751.839, 81.298
753.126, 110.333
754.412, 70.059
755.698, 149.653
756.984, 147.537
758.270, 136.379
759.555, 182.471
760.840, 160.558
762.125, 212.639
763.410, 238.714
764.695, 274.784
765.979, 319.848
767.263, 266.907
768.547, 283.962
769.831, 268.011
771.114, 170.055
772.398, 191.095
773.681, 101.133
774.964, 103.167
776.246, 66.198
777.529, 44.227
778.811, 47.251
780.093, 23.729
781.375, 29.735
782.656, 18.770
783.937, 76.829
785.219, 45.942
786.499, 49.189
787.780, 63.379
789.060, 34.615
790.341, 73.882
791.621, 42.201
792.901, 77.609
794.180, 91.017
795.459, 28.484
796.739, 79.979
798.017, 54.528
799.296, 71.117
800.575, 58.755
801.853, 10.436
803.131, 61.133
804.409, 5.127
805.686, 21.255
806.964, 34.305
808.241, 132.332
809.518, 114.272
810.795, 212.215
812.071, 270.197
813.347, 182.306
814.623, 228.321
815.899, 175.547
817.175, 141.772
818.450, 137.994
819.726, 46.215
821.001, 45.435
822.275, 60.652
823.550, 22.869
824.824, 39.889
826.098, 16.301
827.372, 43.517
828.646, 38.734
829.920, 34.956
831.193, 43.188
832.466, 34.044
833.739, 48.822
835.011, 39.964
836.284, 59.254
837.556, 98.547
838.828, 71.857
840.100, 91.176
841.371, 84.514
842.642, 120.859
843.914, 149.210
845.184, 135.567
846.455, 200.925
847.726, 220.284
848.996, 193.645
850.266, 326.010
851.536, 230.378
852.805, 291.750
854.075, 315.124
855.344, 240.499
856.613, 333.874
857.881, 297.253
859.150, 296.631
860.418, 328.012
861.686, 252.394
862.954, 356.776
864.222, 341.158
865.489, 338.540
866.756, 420.927
868.023, 325.313
869.290, 361.711
870.557, 327.112
871.823, 292.512
873.089, 353.917
874.355, 324.323
875.621, 334.730
876.886, 341.138
878.152, 310.549
879.417, 402.961
880.682, 329.382
881.946, 401.804
883.211, 442.227
884.475, 401.652
885.739, 487.077
887.003, 512.504
888.266, 582.932
889.530, 671.362
890.793, 693.794
892.056, 899.227
893.318, 925.663
894.581, 1052.103
895.843, 1396.548
897.105, 1321.990
898.367, 1640.452
899.629, 1763.916
900.890, 1734.320
902.152, 1991.792
903.413, 2056.265
904.673, 2133.743
905.934, 2145.224
907.194, 1498.686
908.454, 1773.176
909.714, 1615.668
910.974, 1444.165
912.234, 1510.664
913.493, 1193.168
914.752, 988.680
916.011, 1143.195
917.270, 1421.715
918.528, 1204.237
919.786, 962.771
921.044, 1063.315
922.302, 726.862
923.560, 701.422
924.817, 833.991
926.074, 782.569
927.331, 898.153
928.588, 988.741
929.844, 879.250
931.101, 962.777
932.357, 888.085
933.613, 887.023
934.868, 964.648
936.124, 862.648
937.379, 998.597
938.634, 1010.355
939.889, 1143.236
941.144, 1258.941
942.398, 1285.198
943.652, 1509.461
944.906, 1782.526
946.160, 1906.770
947.414, 2371.961
948.667, 2361.945
949.920, 2842.552
951.173, 3067.144
952.426, 2996.546
953.678, 3578.940
954.931, 3564.253
956.183, 3956.554
957.435, 4771.192
958.686, 4786.903
959.938, 5823.674
961.189, 6002.455
962.440, 5819.246
963.691, 6113.047
964.941, 5161.861
966.192, 4771.685
967.442, 4296.519
968.692, 3530.362
969.942, 3652.214
971.191, 3223.077
972.441, 3218.949
973.690, 3426.835
974.939, 3255.701
976.187, 3578.613
977.436, 3421.479
978.684, 3240.410
979.932, 3339.349
981.180, 2743.298
982.428, 2844.257
983.675, 2671.224
984.922, 2397.200
986.169, 2646.187
987.416, 2346.182
988.663, 2348.189
989.909, 2305.204
991.155, 2006.230
992.401, 2114.262
993.647, 1916.306
994.893, 1845.357
996.138, 2080.417
997.383, 1852.485
998.628, 1963.567
999.873, 1952.382
1001.117, 1787.481
1002.362, 2013.984
1003.606, 1712.213
1004.850, 1621.387
1006.093, 1551.522
1007.337, 1257.896
1008.580, 1251.049
1009.823, 1087.400
1011.066, 905.572
1012.308, 889.759
1013.551, 699.954
1014.793, 684.163
1016.035, 625.366
1017.277, 509.592
1018.518, 554.259
1019.760, 458.866
1021.001, 401.121
1022.242, 488.039
1023.483, 344.502
1024.723, 398.791
1025.964, 335.257
1027.204, 307.855
1028.444, 413.172
1029.683, 358.274
1030.923, 405.607
1032.162, 370.950
1033.401, 337.302
1034.640, 411.661
1035.879, 344.029
1037.117, 373.405
1038.355, 465.840
1039.593, 429.231
1040.831, 507.628
1042.069, 542.225
1043.306, 504.102
1044.544, 584.058
1045.781, 527.261
1047.017, 645.995
1048.254, 731.438
1049.490, 708.670
1050.726, 890.128
1051.962, 876.593
1053.198, 926.065
1054.434, 1031.543
1055.669, 799.030
1056.904, 907.523
1058.139, 870.025
1059.374, 683.575
1060.608, 723.091
1061.843, 552.240
1063.077, 535.724
1064.311, 558.260
1065.544, 429.325
1066.778, 477.894
1068.011, 523.209
1069.244, 414.438
1070.477, 554.035
1071.710, 422.019
1072.942, 516.848
1074.174, 599.594
1075.406, 585.943
1076.638, 670.677
1077.870, 721.681
1079.101, 712.542
1080.332, 821.906
1081.563, 673.535
1082.794, 715.196
1084.025, 619.858
1085.255, 481.706
1086.485, 542.419
1087.715, 354.154
1088.945, 326.960
1090.175, 396.739
1091.404, 303.630
1092.633, 337.497
1093.862, 316.484
1095.091, 285.473
1096.319, 353.447
1097.548, 305.481
1098.776, 383.438
1100.004, 424.439
1101.231, 407.544
1102.459, 448.659
1103.686, 423.702
1104.913, 373.849
1106.140, 442.657
1107.367, 313.800
1108.593, 331.860
1109.819, 336.965
1111.046, 214.116
1112.271, 270.831
1113.497, 181.903
1114.722, 201.186
1115.948, 221.360
1117.173, 161.501
1118.398, 172.996
1119.622, 215.081
1120.847, 164.474
1122.071, 159.101
1123.295, 94.321
1124.519, 130.417
1125.742, 109.576
1126.966, 67.675
1128.189, 96.901
1129.412, 79.044
1130.635, 62.147
1131.857, 56.341
1133.080, 23.572
1134.302, 51.883
1135.524, 31.563
1136.746, 26.690
1137.967, 55.900
1139.188, 35.009
1140.410, 47.279
1141.631, 48.431
1142.851, 18.618
1144.072, 15.730
1145.292, 35.823
1146.512, 26.052
1147.732, 6.574
1148.952, 17.263
1150.172, 7.163
1151.391, 3.555
1152.610, 6.316
1153.829, 11.510
1155.048, 12.923
1156.266, 9.758
1157.484, 9.737
1158.702, 2.043
1159.920, 23.310
1161.138, 6.828
1162.356, 27.085
1163.573, 30.114
1164.790, 50.724
1166.007, 13.387
1167.224, 17.407
1168.440, 19.155
1169.656, 8.116
1170.872, 1.283
1172.088, 7.109
1173.304, 10.256
1174.519, 32.187
1175.735, 35.689
1176.950, 41.429
1178.165, 28.860
1179.379, 27.145
1180.594, 4.164
1181.808, 13.290
1183.022, 1.306
1184.236, 1.642
1185.449, 9.404
1186.663, 39.373
1187.876, 4.591
1189.089, 9.484
1190.302, 10.482
1191.515, 46.509
1192.727, 5.505
1193.939, 26.760
1195.151, 13.335
1196.363, 17.603
1197.575, 13.570
1198.786, 33.451
1199.997, 33.385
1201.208, 11.550
1202.419, 50.451
1203.630, 49.613
1204.840, 3.518
1206.051, 23.578
1207.261, 7.471
1208.470, 12.404
1209.680, 34.419
1210.889, 4.723
1212.099, 14.084
1213.308, 23.846
1214.516, 22.025
1215.725, 14.972
1216.933, 33.201
1218.142, 14.372
1219.350, 12.639
1220.557, 5.943
1221.765, 5.448
1222.972, 15.584
1224.180, 26.099
1225.387, 32.750
1226.593, 49.498
1227.800, 26.416
1229.006, 57.047
1230.213, 7.865
1231.419, 41.479
1232.624, 49.087
1233.830, 7.233
1235.035, 53.354
1236.241, 14.931
1237.446, 6.305
1238.650, 12.420
1239.855, 14.970
1241.059, 21.539
1242.264, 16.075
1243.468, 39.777
1244.671, 4.222
1245.875, 18.283
1247.078, 18.796
1248.282, 47.286
1249.485, 19.767
1250.687, 1.226
1251.890, 23.754
1253.092, 49.248
1254.295, 35.699
1255.497, 26.161
1256.699, 4.575
1257.900, 69.975
1259.102, 17.367
1260.303, 25.802
1261.504, 35.175
1262.705, 11.534
1263.905, 14.372
1265.106, 4.709
1266.306, 8.177
1267.506, 25.244
1268.706, 53.528
1269.905, 38.865
1271.105, 61.121
1272.304, 27.365
1273.503, 45.593
1274.702, 59.804
1275.900, 35.034
1277.099, 29.288
1278.297, 24.453
1279.495, 11.606
1280.693, 53.797
1281.891, 34.925
1283.088, 89.042
1284.285, 29.147
1285.482, 50.242
1286.679, 42.407
1287.876, 66.477
1289.072, 4.536
1290.268, 58.579
1291.464, 14.883
1292.660, 47.897
1293.856, 69.534
1295.051, 29.413
1296.247, 39.380
1297.442, 44.371
1298.637, 22.092
1299.831, 28.032
1301.026, 19.773
1302.220, 0.688
1303.414, 31.631
1304.608, 2.485
1305.802, 64.382
1306.995, 36.253
1308.188, 43.094
1309.381, 23.559
1310.574, 8.054
1311.767, 18.852
1312.960, 61.016
1314.152, 3.402
1315.344, 29.352
1316.536, 32.245
1317.728, 5.319
1318.919, 37.393
1320.110, 34.317
1321.301, 16.004
1322.492, 22.700
1323.683, 53.357
1324.874, 33.002
1326.064, 54.635
1327.254, 45.255
1328.444, 45.812
1329.634, 77.431
1330.823, 47.019
1332.013, 33.401
1333.202, 51.521
1334.391, 55.537
1335.580, 39.302
1336.768, 17.533
1337.956, 60.048
1339.145, 48.787
1340.333, 41.280
1341.520, 66.762
1342.708, 47.266
1343.895, 20.724
1345.083, 53.187
1346.270, 20.622
1347.456, 50.039
1348.643, 26.402
1349.829, 36.795
1351.016, 24.550
1352.202, 68.967
1353.387, 50.327
1354.573, 93.154
1355.759, 22.050
1356.944, 49.617
1358.129, 21.266
1359.314, 40.562
1360.498, 31.446
1361.683, 49.495
1362.867, 53.718
1364.051, 93.115
1365.235, 89.233
1366.419, 45.043
1367.602, 103.237
1368.785, 27.432
1369.968, 13.598
1371.151, 56.729
1372.334, 18.876
1373.517, 73.831
1374.699, 81.922
1375.881, 31.993
1377.063, 51.771
1378.245, 75.433
1379.426, 17.974
1380.608, 20.558
1381.789, 56.235
1382.970, 43.739
1384.150, 92.323
1385.331, 19.091
1386.511, 4.689
1387.691, 82.518
1388.871, 45.890
1390.051, 64.296
1391.231, 57.394
1392.410, 48.713
1393.589, 28.055
1394.768, 34.535
1395.947, 42.703
1397.126, 38.026
1398.304, 59.042
1399.483, 57.717
1400.661, 88.955
1401.838, 34.050
1403.016, 49.274
1404.194, 65.327
1405.371, 27.868
1406.548, 44.884
1407.725, 12.893
1408.901, 20.371
1410.078, 51.420
1411.254, 24.416
1412.430, 54.355
1413.606, 63.950
1414.782, 54.471
1415.958, 54.625
1417.133, 30.175
1418.308, 17.900
1419.483, 78.081
1420.658, 60.564
1421.832, 22.238
1423.007, 59.930
1424.181, 42.717
1425.355, 87.289
1426.529, 84.983
1427.702, 14.297
1428.876, 49.963
1430.049, 43.722
1431.222, 75.014
1432.395, 38.238
1433.567, 52.486
1434.740, 23.853
1435.912, 32.532
1437.084, 20.733
1438.256, 22.782
1439.428, 40.487
1440.599, 33.276
1441.770, 58.017
1442.942, 58.605
1444.112, 16.827
1445.283, 76.189
1446.454, 33.755
1447.624, 51.474
1448.794, 56.425
1449.964, 11.036
1451.134, 15.294
1452.303, 65.848
1453.473, 16.374
1454.642, 35.938
1455.811, 35.188
1456.980, 2.428
1458.148, 50.069
1459.317, 46.410
1460.485, 49.859
1461.653, 85.111
1462.821, 14.663
1463.989, 66.918
1465.156, 70.360
1466.323, 37.838
1467.490, 37.043
1468.657, 44.577
1469.824, 13.947
1470.991, 18.562
1472.157, 45.694
1473.323, 13.185
1474.489, 21.678
1475.655, 40.086
1476.820, 29.452
1477.986, 53.859
1479.151, 13.347
1480.316, 54.650
1481.481, 68.129
1482.645, 8.605
1483.810, 66.614
1484.974, 11.967
1486.138, 45.459
1487.302, 49.384
1488.465, 17.818
1489.629, 22.139
1490.792, 55.618
1491.955, 35.100
1493.118, 31.455
1494.281, 82.930
1495.443, 6.734
1496.606, 27.739
1497.768, 38.093
1498.930, 9.013
1500.091, 36.718
1501.253, 10.061
1502.414, 35.649
1503.575, 62.263
1504.736, 28.897
1505.897, 24.446
1507.058, 31.085
1508.218, 3.118
1509.379, 22.736
1510.539, 30.822
1511.698, 0.125
1512.858, 41.221
1514.018, 4.878
1515.177, 0.000
##END=



