##NAMES=Axinite-(Fe)
##RRUFFID=R060194
##IDEAL CHEMISTRY=Ca_4_Fe^2+^_2_Al_4_[B_2_Si_8_O_30_](OH)_2_
##LOCALITY=near Dalbandi, Baluchistan Province, Pakistan
##OWNER=RRUFF
##SOURCE=Herbert Obodda
##DESCRIPTION=Brown transparent wedge-shaped single crystal
##STATUS=The identification of this mineral has been confirmed by X-ray diffraction and chemical analysis
##URL=rruff.info/R060194
##MEASURED CHEMISTRY=Ca_2.00_(Fe^2+^_0.66_Mg_0.30_Mn_0.04_)Al_2.00_BSi_4.00_O_15_(OH)
##PIN_ID=L00952
##ORIENTATION=Laser parallel to (1 1 0). Fiducial mark perpendicular to laser is parallel to -c [0 0 -1]
53.91000, 0.0000000E+00
55.14900, 57.30383
56.38700, 151.1438
57.62600, 175.5986
58.86400, 265.6822
60.10300, 336.5320
61.34100, 223.1370
62.57900, 83.61243
63.81700, 3.041260
65.05400, 60.35986
66.29200, 91.91956
67.52900, 52.27417
68.76700, 94.07153
70.00400, 442.6680
71.24100, 786.1199
72.47700, 777.0808
73.71400, 814.2351
74.95100, 1015.273
76.18700, 1354.910
77.42300, 1641.898
78.65900, 1770.020
79.89500, 1760.075
81.13100, 2118.893
82.36700, 2343.319
83.60200, 2898.216
84.83700, 3161.097
86.07200, 3453.470
87.30800, 3824.588
88.54200, 4050.274
89.77700, 4314.935
91.01200, 4773.493
92.24600, 5308.823
93.48000, 5968.783
94.71400, 5991.239
95.94800, 6102.103
97.18200, 6094.348
98.41600, 5914.943
99.64900, 5837.830
100.8830, 5888.957
102.1160, 5911.273
103.3490, 5736.744
104.5820, 5780.333
105.8150, 6208.013
107.0470, 6917.759
108.2800, 9300.544
109.5120, 8508.118
110.7440, 11318.15
111.9760, 7935.935
113.2080, 6552.678
114.4400, 6101.365
115.6710, 6139.978
116.9030, 6086.504
118.1340, 5706.926
119.3650, 5317.229
120.5960, 4987.401
121.8270, 4698.427
123.0580, 4565.294
124.2880, 4369.085
125.5190, 4225.160
126.7490, 4144.811
127.9790, 4001.763
129.2090, 3890.871
130.4390, 3800.107
131.6680, 3731.460
132.8980, 3784.914
134.1270, 3636.459
135.3560, 3587.210
136.5850, 3691.320
137.8140, 3876.111
139.0430, 4066.804
140.2710, 4679.292
141.5000, 5218.340
142.7280, 5524.362
143.9560, 6150.628
145.1840, 6600.836
146.4120, 7334.439
147.6390, 8578.456
148.8670, 10087.90
150.0940, 11639.79
151.3210, 12867.14
152.5490, 13752.95
153.7750, 13207.22
155.0020, 11515.96
156.2290, 10174.18
157.4550, 8838.863
158.6810, 7616.029
159.9080, 6826.667
161.1340, 6274.772
162.3590, 5955.373
163.5850, 6052.436
164.8110, 6481.966
166.0360, 7105.964
167.2610, 7849.425
168.4860, 8632.349
169.7110, 10039.73
170.9360, 11101.56
172.1610, 12180.85
173.3850, 12355.59
174.6100, 11765.78
175.8340, 10923.41
177.0580, 9399.474
178.2820, 8109.980
179.5050, 6506.920
180.7290, 5470.291
181.9520, 4404.087
183.1760, 3537.309
184.3990, 2831.951
185.6220, 2680.011
186.8450, 2304.483
188.0670, 2175.367
189.2900, 2061.656
190.5120, 2308.349
191.7340, 2504.440
192.9560, 2837.928
194.1780, 2986.809
195.4000, 3286.076
196.6220, 3029.729
197.8430, 2825.763
199.0640, 2872.173
200.2860, 2911.957
201.5070, 3319.972
202.7270, 3678.480
203.9480, 4341.758
205.1690, 4689.650
206.3890, 5170.348
207.6090, 5762.869
208.8290, 6473.779
210.0490, 6965.115
211.2690, 7615.067
212.4890, 7962.943
213.7080, 8194.765
214.9280, 8374.956
216.1470, 8595.879
217.3660, 8486.486
218.5850, 8351.403
219.8030, 8076.709
221.0220, 7357.617
222.2400, 6643.947
223.4590, 5511.908
224.6770, 4510.945
225.8950, 3637.166
227.1120, 2755.814
228.3300, 2154.075
229.5480, 1612.038
230.7650, 1221.618
231.9820, 971.4697
233.1990, 775.8896
234.4160, 592.8496
235.6330, 419.3877
236.8490, 496.5117
238.0660, 572.2148
239.2820, 518.4688
240.4980, 707.2822
241.7140, 739.6396
242.9300, 896.5400
244.1460, 1165.648
245.3610, 1405.745
246.5770, 1806.253
247.7920, 2146.084
249.0070, 2587.352
250.2220, 3123.008
251.4370, 3640.047
252.6510, 4463.454
253.8660, 5160.234
255.0800, 5240.381
256.2940, 5478.891
257.5080, 5489.761
258.7220, 5570.816
259.9360, 5729.021
261.1490, 5585.684
262.3630, 5683.709
263.5760, 5601.617
264.7890, 5466.174
266.0020, 5683.372
267.2150, 5788.865
268.4270, 5954.636
269.6400, 6163.674
270.8520, 5878.980
272.0640, 5787.545
273.2760, 5717.371
274.4880, 5234.454
275.7000, 4868.793
276.9120, 4461.385
278.1230, 3995.235
279.3340, 3810.339
280.5450, 3402.699
281.7560, 3357.311
282.9670, 3345.178
284.1780, 3220.296
285.3880, 3103.688
286.5980, 3040.266
287.8090, 2756.113
289.0190, 2574.200
290.2290, 2341.524
291.4380, 2125.084
292.6480, 1990.880
293.8570, 2044.907
295.0670, 2044.166
296.2760, 2262.653
297.4850, 2376.369
298.6930, 2888.311
299.9020, 3382.475
301.1110, 3747.861
302.3190, 4451.467
303.5270, 4793.289
304.7350, 5626.328
305.9430, 6010.580
307.1510, 6295.043
308.3580, 6640.720
309.5660, 6501.600
310.7730, 6476.688
311.9800, 5950.977
313.1870, 5980.467
314.3940, 5930.158
315.6010, 6325.048
316.8070, 6866.132
318.0130, 7230.409
319.2200, 7340.878
320.4260, 7551.537
321.6310, 6879.383
322.8370, 6265.414
324.0430, 5442.630
325.2480, 4854.027
326.4540, 4227.605
327.6590, 3915.361
328.8640, 3594.293
330.0680, 3623.400
331.2730, 3678.679
332.4780, 3941.128
333.6820, 4367.746
334.8860, 4864.533
336.0900, 5875.480
337.2940, 6620.595
338.4980, 7863.872
339.7010, 9096.307
340.9050, 10501.90
342.1080, 12139.65
343.3110, 13274.55
344.5140, 13768.61
345.7170, 13582.82
346.9200, 12566.25
348.1220, 11215.91
349.3240, 9737.806
350.5270, 8137.932
351.7290, 6499.285
352.9310, 5313.873
354.1320, 4107.693
355.3340, 2928.745
356.5350, 2042.034
357.7370, 1177.557
358.9380, 642.3105
360.1390, 255.2793
361.3400, 17.45508
362.5400, 401.1670
363.7410, 528.6631
364.9410, 587.0684
366.1410, 779.4033
367.3410, 752.7285
368.5410, 566.0381
369.7410, 584.2803
370.9400, 313.4609
372.1400, 189.5117
373.3390, 150.6650
374.5380, 16.23926
375.7370, 94.78613
376.9360, 243.5879
378.1350, 450.2754
379.3330, 972.0801
380.5310, 1332.916
381.7300, 2014.682
382.9280, 2961.288
384.1260, 3832.760
385.3230, 4906.647
386.5210, 5940.244
387.7180, 7082.043
388.9160, 8365.465
390.1130, 9078.973
391.3100, 9217.180
392.5060, 9285.361
393.7030, 8630.087
394.9000, 7610.918
396.0960, 6761.465
397.2920, 5585.523
398.4880, 4706.060
399.6840, 3817.920
400.8800, 3324.969
402.0750, 2721.854
403.2710, 2361.952
404.4660, 1840.289
405.6610, 1710.310
406.8560, 1527.330
408.0510, 1412.548
409.2450, 1623.452
410.4400, 1790.937
411.6340, 1950.544
412.8280, 2484.995
414.0220, 3328.536
415.2160, 4317.166
416.4100, 5352.886
417.6030, 7539.690
418.7970, 9628.580
419.9900, 9472.555
421.1830, 9033.608
422.3760, 9670.741
423.5690, 10516.95
424.7610, 11162.25
425.9540, 11725.61
427.1460, 11678.05
428.3380, 11435.57
429.5300, 10774.16
430.7220, 9715.812
431.9140, 8350.539
433.1050, 6867.332
434.2970, 5556.191
435.4880, 4527.113
436.6790, 3482.101
437.8700, 2673.148
439.0610, 2207.258
440.2510, 1599.425
441.4420, 1487.650
442.6320, 1348.932
443.8220, 1439.269
445.0120, 1342.658
446.2020, 1225.101
447.3910, 1011.594
448.5810, 923.1367
449.7700, 838.7275
450.9600, 734.3652
452.1490, 637.0488
453.3370, 808.7754
454.5260, 700.5469
455.7150, 790.3594
456.9030, 867.2119
458.0910, 916.1045
459.2800, 1014.034
460.4670, 1089.001
461.6550, 1203.003
462.8430, 1357.039
464.0300, 1551.107
465.2180, 1781.209
466.4050, 2023.340
467.5920, 2484.500
468.7790, 2963.688
469.9650, 3256.904
471.1520, 3683.146
472.3380, 3913.411
473.5250, 4276.699
474.7110, 4868.012
475.8970, 5957.344
477.0820, 7167.695
478.2680, 8832.066
479.4540, 10828.45
480.6390, 12888.86
481.8240, 15599.28
483.0090, 18348.71
484.1940, 20518.16
485.3780, 21670.62
486.5630, 20758.09
487.7470, 18463.58
488.9320, 15151.06
490.1160, 12234.55
491.3000, 9360.061
492.4830, 7060.566
493.6670, 5510.074
494.8500, 4337.586
496.0340, 3456.096
497.2170, 3041.606
498.4000, 2707.113
499.5820, 2596.616
500.7650, 2471.112
501.9480, 2276.603
503.1300, 2222.082
504.3120, 2200.499
505.4940, 2015.241
506.6760, 1959.222
507.8580, 1710.212
509.0390, 1513.412
510.2210, 1313.590
511.4020, 1010.293
512.5830, 582.4600
513.7640, 369.8066
514.9450, 140.1338
516.1250, 79.34473
517.3060, 240.5430
518.4860, 365.2715
519.6660, 287.1641
520.8460, 469.2402
522.0260, 530.5029
523.2060, 539.0176
524.3850, 443.7725
525.5650, 502.7178
526.7440, 468.8955
527.9230, 474.3105
529.1020, 403.0176
530.2810, 305.0059
531.4590, 283.2852
532.6380, 152.8555
533.8160, 146.6592
534.9940, 38.30664
536.1720, 42.12891
537.3500, 94.80664
538.5270, 49.36328
539.7050, 65.77246
540.8820, 65.14746
542.0590, 67.16895
543.2360, 56.15234
544.4130, 98.98438
545.5900, 99.68066
546.7660, 188.2402
547.9430, 118.6934
549.1190, 120.0107
550.2950, 278.1943
551.4710, 266.2900
552.6470, 468.2939
553.8220, 534.2441
554.9980, 673.1436
556.1730, 1107.993
557.3480, 1234.792
558.5230, 1557.541
559.6980, 1993.235
560.8730, 2204.879
562.0470, 2223.468
563.2220, 2390.003
564.3960, 2245.483
565.5700, 2158.868
566.7440, 2103.275
567.9170, 2065.128
569.0910, 1954.842
570.2640, 2098.037
571.4380, 2072.175
572.6110, 2162.252
573.7840, 2459.269
574.9570, 2546.226
576.1290, 2398.122
577.3020, 2410.955
578.4740, 2280.728
579.6460, 2174.436
580.8180, 2176.080
581.9900, 2039.661
583.1620, 1946.178
584.3330, 1921.629
585.5040, 2023.015
586.6760, 2031.335
587.8470, 2034.586
589.0180, 2174.772
590.1880, 2125.891
591.3590, 1888.940
592.5290, 1788.922
593.7000, 1529.833
594.8700, 1426.366
596.0400, 1378.448
597.2090, 1220.151
598.3790, 1240.781
599.5490, 1209.342
600.7180, 1442.830
601.8870, 1553.247
603.0560, 1753.591
604.2250, 2142.862
605.3940, 2657.060
606.5620, 3227.184
607.7300, 3908.233
608.8990, 4603.209
610.0670, 5687.111
611.2350, 6867.938
612.4020, 8250.688
613.5700, 9642.364
614.7370, 10913.96
615.9050, 12268.49
617.0720, 13523.93
618.2390, 14527.30
619.4060, 15210.60
620.5720, 15033.81
621.7390, 14320.95
622.9050, 12951.01
624.0710, 10999.99
625.2370, 9224.896
626.4030, 7286.722
627.5690, 5872.469
628.7340, 4614.137
629.9000, 3658.725
631.0650, 2937.233
632.2300, 2433.663
633.3950, 1960.014
634.5600, 1701.285
635.7240, 1693.477
636.8890, 1645.588
638.0530, 1573.619
639.2170, 1807.568
640.3810, 1929.439
641.5450, 1880.229
642.7080, 2230.938
643.8720, 2334.345
645.0350, 2483.088
646.1980, 2359.576
647.3610, 2234.762
648.5240, 2145.930
649.6870, 2040.989
650.8490, 1947.360
652.0120, 1854.676
653.1740, 1778.562
654.3360, 1725.106
655.4980, 1651.363
656.6600, 1637.873
657.8210, 1528.663
658.9830, 1473.784
660.1440, 1469.775
661.3050, 1553.685
662.4660, 1716.861
663.6270, 1927.707
664.7870, 2277.776
665.9480, 2546.779
667.1080, 3139.459
668.2680, 3769.608
669.4280, 4286.115
670.5880, 5495.197
671.7480, 6329.996
672.9070, 7367.140
674.0670, 8485.359
675.2260, 9371.078
676.3850, 10115.73
677.5440, 9954.710
678.7030, 9539.216
679.8610, 8828.283
681.0200, 7801.062
682.1780, 6653.691
683.3360, 5634.516
684.4940, 4844.158
685.6520, 4152.594
686.8090, 3655.373
687.9670, 3271.183
689.1240, 2932.821
690.2810, 2896.801
691.4380, 2871.221
692.5950, 3187.544
693.7520, 3348.045
694.9080, 3769.475
696.0650, 4091.836
697.2210, 4699.128
698.3770, 5344.350
699.5330, 6325.505
700.6880, 7523.590
701.8440, 9012.606
702.9990, 10938.56
704.1550, 13380.02
705.3100, 16128.26
706.4650, 19536.01
707.6190, 23229.69
708.7740, 27483.31
709.9290, 31422.86
711.0830, 35692.35
712.2370, 38916.77
713.3910, 40762.13
714.5450, 40510.42
715.6980, 38821.66
716.8520, 34842.83
718.0050, 30734.94
719.1580, 25845.98
720.3110, 21084.97
721.4640, 17111.89
722.6170, 13919.76
723.7700, 11054.56
724.9220, 9122.303
726.0740, 7255.987
727.2260, 6086.613
728.3780, 5037.181
729.5300, 4197.691
730.6810, 3781.145
731.8330, 2969.541
732.9840, 2618.883
734.1350, 2189.168
735.2860, 1885.400
736.4370, 1628.576
737.5880, 1394.700
738.7380, 1205.768
739.8880, 1079.844
741.0390, 1031.749
742.1890, 926.6621
743.3380, 917.5225
744.4880, 896.3340
745.6380, 860.0957
746.7870, 750.8076
747.9360, 705.4717
749.0850, 786.0869
750.2340, 843.6572
751.3830, 929.1797
752.5310, 995.6562
753.6800, 1143.089
754.8280, 1204.478
755.9760, 1382.822
757.1240, 1608.125
758.2720, 1772.386
759.4190, 2135.604
760.5670, 2321.784
761.7140, 2648.924
762.8610, 2937.023
764.0080, 3325.086
765.1550, 3499.110
766.3020, 3486.100
767.4480, 3582.051
768.5950, 3417.970
769.7410, 3108.854
770.8870, 2815.704
772.0330, 2382.521
773.1780, 2107.378
774.3240, 1758.062
775.4690, 1497.786
776.6140, 1096.480
777.7590, 847.1465
778.9040, 775.7832
780.0490, 397.3945
781.1940, 227.9785
782.3380, 3.474609
783.4820, 67.03027
784.6260, 97.71973
785.7700, 228.5586
786.9140, 221.6113
788.0580, 260.8740
789.2010, 498.3623
790.3450, 382.2012
791.4880, 411.3252
792.6310, 479.7490
793.7730, 326.4863
794.9160, 347.3857
796.0590, 399.8477
797.2010, 207.7979
798.3430, 546.1006
799.4850, 442.5869
800.6270, 519.1816
801.7690, 536.9199
802.9100, 510.8311
804.0520, 449.6357
805.1930, 265.0410
806.3340, 182.2100
807.4750, 19.64258
808.6160, 275.6016
809.7560, 298.6836
810.8970, 672.8604
812.0370, 921.1318
813.1770, 1003.454
814.3170, 1208.828
815.4570, 1221.245
816.5960, 1244.714
817.7360, 1012.235
818.8750, 1336.809
820.0140, 1170.438
821.1530, 1051.123
822.2920, 1190.860
823.4310, 1196.648
824.5690, 847.4736
825.7070, 203.3516
826.8460, 255.2793
827.9840, 224.2383
829.1220, 233.2275
830.2590, 232.3701
831.3970, 133.2441
832.5340, 257.2705
833.6710, 246.3096
834.8080, 354.3613
835.9450, 391.4287
837.0820, 527.5098
838.2190, 566.6094
839.3550, 549.7236
840.4910, 692.8564
841.6270, 816.0078
842.7630, 959.1768
843.8990, 1120.366
845.0350, 1287.576
846.1700, 1447.809
847.3060, 1764.062
848.4410, 1909.340
849.5760, 2094.641
850.7100, 2263.966
851.8450, 2349.316
852.9800, 2421.693
854.1140, 2503.098
855.2480, 2710.528
856.3820, 2668.989
857.5160, 2709.479
858.6500, 2873.996
859.7830, 2877.546
860.9170, 2868.127
862.0500, 2871.740
863.1830, 2843.387
864.3160, 2843.066
865.4480, 2598.779
866.5810, 2652.529
867.7130, 2520.314
868.8460, 2265.137
869.9780, 2235.996
871.1100, 2191.891
872.2410, 2177.827
873.3730, 1981.801
874.5050, 1938.815
875.6360, 1996.871
876.7670, 1878.969
877.8980, 1936.108
879.0290, 1945.292
880.1590, 1968.520
881.2900, 2015.806
882.4200, 1901.165
883.5500, 2029.577
884.6800, 2059.074
885.8100, 2193.624
886.9400, 2487.264
888.0690, 2734.983
889.1990, 2942.774
890.3280, 3296.631
891.4570, 3685.918
892.5860, 4130.574
893.7140, 4673.680
894.8430, 5308.852
895.9710, 5993.084
897.1000, 6619.393
898.2280, 7524.764
899.3560, 8124.225
900.4830, 8797.794
901.6110, 9719.439
902.7380, 10182.17
903.8660, 10862.96
904.9930, 11286.85
906.1200, 11489.82
907.2460, 11469.86
908.3730, 10928.97
909.5000, 10158.16
910.6260, 9532.419
911.7520, 8829.763
912.8780, 7965.174
914.0040, 7025.649
915.1290, 6137.189
916.2550, 5473.796
917.3800, 4920.711
918.5050, 4283.334
919.6300, 3737.244
920.7550, 3230.496
921.8800, 3173.839
923.0040, 2986.916
924.1290, 2921.842
925.2530, 2957.188
926.3770, 3236.162
927.5010, 3394.628
928.6250, 3418.163
929.7480, 3666.933
930.8720, 3712.251
931.9950, 3989.925
933.1180, 4138.066
934.2410, 4255.345
935.3640, 4488.523
936.4860, 4728.293
937.6090, 4709.333
938.7310, 5248.393
939.8530, 5692.684
940.9750, 6061.957
942.0970, 6813.852
943.2180, 7687.710
944.3400, 8607.921
945.4610, 10055.27
946.5820, 11619.76
947.7030, 12979.38
948.8240, 14823.14
949.9450, 16833.99
951.0650, 18712.94
952.1860, 20790.00
953.3060, 22442.15
954.4260, 24340.40
955.5460, 26360.76
956.6650, 28731.23
957.7850, 31055.83
958.9040, 33933.55
960.0230, 36838.34
961.1420, 40219.23
962.2610, 43245.25
963.3800, 45239.37
964.4990, 46553.59
965.6170, 46198.91
966.7350, 44486.34
967.8530, 41713.88
968.9710, 38022.53
970.0890, 34057.27
971.2070, 30464.10
972.3240, 28038.04
973.4410, 25829.08
974.5580, 24656.53
975.6750, 24033.83
976.7920, 23672.77
977.9090, 23911.20
979.0250, 23710.73
980.1410, 23221.36
981.2580, 22872.09
982.3740, 22002.91
983.4890, 20826.83
984.6050, 19990.85
985.7200, 18743.98
986.8360, 17923.21
987.9510, 17310.53
989.0660, 16552.95
990.1810, 16338.47
991.2950, 15708.09
992.4100, 15505.80
993.5240, 15383.62
994.6390, 14731.53
995.7530, 14686.54
996.8660, 14542.65
997.9800, 14680.86
999.0940, 15069.16
1000.207, 15279.57
1001.320, 15661.07
1002.433, 15718.67
1003.546, 15605.36
1004.659, 15477.16
1005.772, 14647.05
1006.884, 13692.03
1007.996, 12412.12
1009.108, 11642.30
1010.220, 10153.58
1011.332, 8861.958
1012.444, 7828.432
1013.555, 6776.164
1014.666, 6087.247
1015.777, 5334.809
1016.888, 4926.115
1017.999, 4177.361
1019.110, 3733.511
1020.220, 3216.705
1021.331, 3207.458
1022.441, 2887.216
1023.551, 2730.033
1024.661, 2723.738
1025.770, 2683.498
1026.880, 2588.606
1027.989, 2535.577
1029.098, 2377.904
1030.207, 2223.393
1031.316, 2034.824
1032.425, 1847.990
1033.533, 1720.494
1034.642, 1544.341
1035.750, 1468.958
1036.858, 1248.017
1037.966, 1342.013
1039.073, 1426.431
1040.181, 1379.820
1041.288, 1234.597
1042.396, 1298.528
1043.503, 1531.464
1044.610, 1551.144
1045.716, 1812.645
1046.823, 1935.160
1047.929, 2233.640
1049.036, 2477.239
1050.142, 2827.902
1051.248, 3086.009
1052.353, 3358.398
1053.459, 3727.911
1054.564, 4035.346
1055.670, 4397.933
1056.775, 4575.291
1057.880, 5049.238
1058.985, 4964.707
1060.089, 4978.535
1061.194, 5069.558
1062.298, 4857.525
1063.402, 4648.708
1064.506, 4426.095
1065.610, 3996.611
1066.713, 3681.365
1067.817, 3363.042
1068.920, 3004.220
1070.023, 2704.777
1071.126, 2671.592
1072.229, 2599.180
1073.332, 2476.267
1074.435, 2624.402
1075.537, 2985.629
1076.639, 3053.684
1077.741, 3480.234
1078.843, 3931.113
1079.945, 4399.679
1081.046, 4704.771
1082.148, 5200.593
1083.249, 5453.464
1084.350, 5281.799
1085.451, 5228.768
1086.551, 4729.100
1087.652, 4218.351
1088.752, 3698.389
1089.853, 3077.828
1090.953, 2633.173
1092.053, 2358.418
1093.152, 1977.705
1094.252, 1883.645
1095.351, 1715.378
1096.451, 1702.024
1097.550, 1623.209
1098.649, 1668.700
1099.748, 1896.329
1100.846, 2050.936
1101.945, 2245.539
1103.043, 2456.179
1104.141, 2676.853
1105.239, 2865.334
1106.337, 3098.356
1107.434, 3172.134
1108.532, 3179.941
1109.629, 3140.783
1110.726, 2901.470
1111.823, 2799.479
1112.920, 2583.410
1114.017, 2113.371
1115.113, 2211.358
1116.210, 2003.374
1117.306, 1779.772
1118.402, 1778.841
1119.498, 1607.935
1120.593, 1467.364
1121.689, 1462.507
1122.784, 1735.671
1123.879, 1404.024
1124.974, 1326.233
1126.069, 1013.461
1127.164, 1003.711
1128.259, 774.9805
1129.353, 511.2686
1130.447, 497.5732
1131.541, 396.7588
1132.635, 450.0977
1133.729, 294.4541
1134.822, 211.8232
1135.916, 114.2090
1137.009, 160.6064
1138.102, 133.0166
1139.195, 104.0410
1140.288, 90.70117
1141.380, 48.04004
1142.473, 19.49512
1143.565, 16.33301
1144.657, 10.15820
1145.749, 102.6807
1146.841, 186.2217
1147.932, 59.81445
1149.024, 220.4160
1150.115, 54.08789
1151.206, 225.7715
1152.297, 178.5342
1153.388, 134.3564
1154.479, 109.2197
1155.569, 162.1172
1156.659, 98.64355
1157.750, 244.0615
1158.839, 71.15332
1159.929, 50.24023
1161.019, 120.3760
1162.108, 37.56348
1163.198, 168.7666
1164.287, 219.0039
1165.376, 102.3936
1166.465, 98.83301
1167.553, 74.32324
1168.642, 107.8555
1169.730, 127.4453
1170.818, 54.10840
1171.906, 59.19141
1172.994, 122.5176
1174.082, 17.69727
1175.170, 75.10059
1176.257, 15.95312
1177.344, 9.165039
1178.431, 14.26270
1179.518, 9.340820
1180.605, 48.60156
1181.691, 215.5977
1182.778, 4.737305
1183.864, 125.0869
1184.950, 68.10352
1186.036, 32.36719
1187.122, 48.68945
1188.207, 68.07910
1189.292, 69.55859
1190.378, 61.89551
1191.463, 81.67578
1192.548, 42.34473
1193.632, 7.907227
1194.717, 116.8936
1195.801, 144.8184
1196.886, 35.11621
1197.970, 71.99707
1199.054, 26.20801
1200.137, 42.49805
1201.221, 163.1523
1202.305, 87.77441
1203.388, 81.36133
1204.471, 28.09473
1205.554, 43.35059
1206.637, 106.7314
1207.719, 54.93164
1208.802, 72.71289
1209.884, 16.62305
1210.966, 53.63379
1212.048, 197.2324
1213.130, 208.0586
1214.212, 140.8457
1215.293, 233.5869
1216.374, 154.2881
1217.456, 92.94434
1218.536, 77.53711
1219.617, 18.73340
1220.698, 185.6611
1221.778, 304.2324
1222.859, 341.5811
1223.939, 54.59473
1225.019, 186.2930
1226.099, 150.1104
1227.178, 106.9932
1228.258, 297.4453
1229.337, 57.32520
1230.417, 243.9473
1231.496, 260.1328
1232.574, 354.2520
1233.653, 279.4775
1234.732, 256.8066
1235.810, 402.9961
1236.888, 455.6113
