##NAMES=Axinite-(Fe)
##RRUFFID=R040074
##IDEAL CHEMISTRY=Ca_4_Fe^2+^_2_Al_4_[B_2_Si_8_O_30_](OH)_2_
##LOCALITY=Luning, Nevada, USA
##OWNER=RRUFF
##SOURCE=University of Arizona Mineral Museum
##DESCRIPTION=Pale brown wedge-shaped crystal
##STATUS=The identification of this mineral has been confirmed by X-ray diffraction and chemical analysis
##URL=rruff.info/R040074
##MEASURED CHEMISTRY=(Ca_0.98_Mn_0.01_)_2_(Fe_0.41_Mg_0.39_Mn_0.20_)Al_1.95_B_1.20_Si_3.90_O_15_(OH)
##PIN_ID=L00239
##ORIENTATION=Laser parallel to b* (0 1 0). Fiducial mark perpendicular to laser is parallel to c [0 0 1]
81.628, 0.000
83.025, 136.603
84.421, 345.613
85.817, 17.880
87.213, 59.205
88.608, 35.942
90.003, 97.282
91.398, 324.587
92.793, 520.436
94.188, 1029.880
95.582, 1272.303
96.976, 1864.383
98.370, 2612.047
99.764, 3596.422
101.157, 5186.972
102.550, 7653.187
103.943, 11584.441
105.336, 16160.198
106.729, 20719.996
108.121, 26013.441
109.513, 26970.201
110.905, 19590.012
112.297, 12822.636
113.688, 8827.885
115.079, 6275.578
116.470, 4635.555
117.861, 3577.754
119.251, 2713.127
120.642, 2221.502
122.032, 1771.480
123.422, 1622.984
124.811, 1255.896
126.201, 1140.085
127.590, 1125.454
128.979, 1131.931
130.367, 1259.450
131.756, 1217.964
133.144, 1907.427
134.532, 2277.801
135.920, 3339.057
137.307, 4441.209
138.695, 5914.285
140.082, 7238.275
141.469, 8073.143
142.856, 8658.848
144.242, 8235.363
145.628, 7852.650
147.014, 7380.688
148.400, 7129.455
149.786, 7108.947
151.171, 7009.145
152.556, 7170.046
153.941, 6404.703
155.325, 6460.009
156.710, 5949.617
158.094, 5939.814
159.478, 5953.408
160.862, 5817.309
162.245, 5881.822
163.629, 6006.923
165.012, 6542.445
166.395, 7327.930
167.777, 8683.331
169.160, 9998.776
170.542, 10494.337
171.924, 10540.062
173.306, 9785.981
174.687, 8752.118
176.068, 7328.501
177.449, 5735.139
178.830, 4442.051
180.211, 3169.240
181.591, 2316.718
182.972, 1674.490
184.351, 1372.561
185.731, 1360.930
187.111, 1549.601
188.490, 2138.585
189.869, 2878.170
191.248, 3678.604
192.626, 4020.019
194.005, 4242.406
195.383, 3755.420
196.761, 3118.703
198.139, 3032.217
199.516, 3355.958
200.893, 3999.927
202.271, 4634.120
203.647, 5518.531
205.024, 6153.155
206.400, 6287.992
207.777, 6133.045
209.152, 5698.304
210.528, 5373.770
211.904, 4939.488
213.279, 4335.639
214.654, 3702.171
216.029, 3118.990
217.403, 2523.896
218.778, 1893.424
220.152, 1431.192
221.526, 899.531
222.900, 508.593
224.273, 408.269
225.646, 141.529
227.019, 71.033
228.392, 360.415
229.765, 359.675
231.137, 428.816
232.509, 437.840
233.881, 96.751
235.253, 15.549
236.625, 515.764
237.996, 897.149
239.367, 1528.529
240.738, 1929.908
242.108, 2461.385
243.479, 3172.964
244.849, 3234.643
246.219, 4156.419
247.589, 4343.335
248.958, 4929.443
250.328, 5385.096
251.697, 5779.343
253.065, 5944.613
254.434, 5803.451
255.803, 6053.141
257.171, 6203.605
258.539, 6784.775
259.906, 7746.600
261.274, 8949.026
262.641, 10692.021
264.008, 12605.536
265.375, 15049.545
266.742, 16894.021
268.108, 18728.930
269.475, 20204.254
270.840, 20709.969
272.206, 20326.047
273.572, 19222.494
274.937, 18189.271
276.302, 16296.367
277.667, 14243.779
279.032, 12481.490
280.396, 10859.483
281.760, 9887.756
283.125, 8816.285
284.488, 8015.067
285.852, 7874.083
287.215, 7223.328
288.578, 7402.789
289.941, 7452.465
291.304, 8042.345
292.666, 8692.429
294.029, 9313.575
295.391, 10398.225
296.753, 11041.110
298.114, 12015.261
299.476, 12629.415
300.837, 13114.206
302.198, 12891.566
303.558, 12898.897
304.919, 12862.481
306.279, 11780.604
307.639, 10725.681
308.999, 8868.112
310.359, 7050.327
311.718, 5342.675
313.077, 3745.151
314.436, 2917.764
315.795, 2240.506
317.154, 1943.421
318.512, 1776.437
319.870, 1639.502
321.228, 1842.553
322.586, 2015.634
323.943, 2458.820
325.300, 3092.111
326.657, 3825.508
328.014, 4499.006
329.371, 4552.602
330.727, 4556.297
332.083, 3970.091
333.439, 3273.984
334.795, 2617.977
336.150, 2152.066
337.506, 2146.266
338.861, 2362.380
340.215, 3048.861
341.570, 3859.127
342.924, 4998.318
344.279, 6053.444
345.633, 6663.616
346.986, 8101.021
348.340, 9279.690
349.693, 11106.494
351.046, 12554.018
352.399, 12732.737
353.752, 11924.439
355.104, 9639.667
356.457, 7379.558
357.809, 5073.020
359.160, 3273.348
360.512, 2215.523
361.863, 1302.065
363.214, 844.153
364.565, 507.524
365.916, 353.358
367.267, 176.714
368.617, 214.392
369.967, 270.236
371.317, 196.119
372.666, 442.037
374.016, 397.990
375.365, 553.977
376.714, 559.994
378.063, 516.040
379.411, 762.113
380.760, 888.211
382.108, 1234.334
383.456, 1880.477
384.803, 2846.642
386.151, 4192.819
387.498, 5499.010
388.845, 7504.803
390.192, 8370.457
391.539, 8491.421
392.885, 7462.367
394.231, 5971.609
395.577, 4600.608
396.923, 3326.051
398.269, 2832.136
399.614, 2488.379
400.959, 2274.623
402.304, 2190.871
403.649, 2057.119
404.993, 2203.368
406.337, 2459.617
407.681, 3115.865
409.025, 4352.114
410.369, 6028.432
411.712, 8974.821
413.055, 12981.290
414.398, 17687.838
415.741, 21114.465
417.084, 20661.145
418.426, 18377.879
419.768, 13884.665
421.110, 10691.499
422.452, 8618.378
423.793, 7655.295
425.134, 7922.250
426.475, 8279.237
427.816, 9206.261
429.157, 9223.309
430.497, 9280.384
431.837, 8577.486
433.177, 7094.609
434.517, 5851.754
435.857, 4268.914
437.196, 3356.092
438.535, 2723.283
439.874, 2270.487
441.213, 2767.703
442.551, 2564.928
443.889, 2922.160
445.227, 2669.398
446.565, 2116.643
447.903, 1493.889
449.240, 931.136
450.577, 458.385
451.914, 165.632
453.251, 72.876
454.588, 10.116
455.924, 242.663
457.260, 205.579
458.596, 388.618
459.932, 381.875
461.267, 385.350
462.602, 579.046
463.938, 413.068
465.272, 347.335
466.607, 251.811
467.941, 16.452
469.276, 48.871
470.610, 484.189
471.943, 629.512
473.277, 1065.095
474.610, 1302.805
475.944, 1969.405
477.276, 2947.152
478.609, 4162.693
479.942, 6428.324
481.274, 9024.030
482.606, 12499.873
483.938, 15065.768
485.270, 15081.747
486.601, 14157.765
487.932, 10063.798
489.263, 6629.900
490.594, 4355.979
491.925, 2502.043
493.255, 1648.077
494.585, 834.082
495.915, 470.053
497.245, 258.758
498.575, 84.663
499.904, 82.056
501.233, 151.684
502.562, 33.921
503.891, 60.275
505.219, 25.105
506.548, 90.392
507.876, 65.609
509.203, 120.036
510.531, 105.819
511.859, 80.825
513.186, 25.751
514.513, 26.782
515.840, 97.106
517.166, 150.217
518.493, 255.905
519.819, 281.824
521.145, 348.022
522.470, 114.497
523.796, 291.151
525.121, 168.096
526.446, 34.733
527.771, 32.559
529.096, 329.990
530.421, 362.490
531.745, 644.940
533.069, 707.341
534.393, 1049.691
535.716, 961.991
537.040, 1214.241
538.363, 956.440
539.686, 808.588
541.009, 540.683
542.331, 532.726
543.654, 394.715
544.976, 516.653
546.298, 368.538
547.620, 260.369
548.941, 562.143
550.263, 333.865
551.584, 585.556
552.905, 627.217
554.225, 1118.856
555.546, 1490.474
556.866, 1932.040
558.186, 2263.553
559.506, 2745.012
560.826, 2756.413
562.145, 2867.760
563.465, 2919.050
564.784, 3190.283
566.103, 3571.461
567.421, 4472.582
568.740, 5443.646
570.058, 6744.652
571.376, 7605.602
572.694, 8346.492
574.011, 8927.322
575.329, 8658.096
576.646, 8018.807
577.963, 7279.459
579.279, 6490.050
580.596, 6020.578
581.912, 5801.048
583.228, 6111.455
584.544, 6771.798
585.860, 7272.078
587.175, 8352.300
588.491, 8142.454
589.806, 7882.546
591.121, 6952.572
592.435, 5322.537
593.750, 4492.438
595.064, 3262.274
596.378, 2712.046
597.692, 2081.753
599.006, 1571.395
600.319, 1390.971
601.632, 1150.481
602.945, 899.929
604.258, 869.309
605.571, 848.622
606.883, 1007.870
608.195, 1017.054
609.507, 1336.170
610.819, 1465.219
612.131, 1804.203
613.442, 2292.250
614.753, 2746.918
616.064, 3483.471
617.375, 3828.876
618.685, 4084.385
619.995, 4068.643
621.306, 3641.881
622.615, 3384.522
623.925, 2511.010
625.235, 1643.047
626.544, 1150.829
627.853, 712.921
629.162, 515.004
630.471, 273.274
631.779, 173.449
633.087, 240.285
634.395, 33.207
635.703, 416.613
637.011, 400.452
638.318, 630.825
639.625, 1025.315
640.932, 1100.039
642.239, 1322.616
643.546, 1414.227
644.852, 1280.523
646.158, 1260.336
647.464, 967.732
648.770, 1038.150
650.076, 845.188
651.381, 552.159
652.686, 669.059
653.991, 335.889
655.296, 612.626
656.600, 397.473
657.905, 471.970
659.209, 592.703
660.513, 474.536
661.817, 770.454
663.120, 1051.346
664.423, 1305.023
665.726, 1797.457
667.029, 2031.768
668.332, 2965.383
669.635, 3847.810
670.937, 4697.265
672.239, 6306.105
673.541, 7097.385
674.842, 8635.088
676.144, 8262.555
677.445, 7931.537
678.746, 7024.833
680.047, 5686.199
681.348, 4753.969
682.648, 3769.359
683.948, 3144.850
685.248, 2681.634
686.548, 2325.821
687.848, 2281.032
689.147, 2166.194
690.447, 2311.309
691.746, 2336.375
693.044, 2491.395
694.343, 2936.367
695.641, 3361.294
696.940, 4676.174
698.238, 4881.006
699.535, 5645.795
700.833, 7370.541
702.130, 8525.240
703.427, 11059.896
704.724, 14263.579
706.021, 17628.146
707.318, 23082.648
708.614, 28437.129
709.910, 36181.566
711.206, 43145.969
712.502, 46830.324
713.798, 48434.625
715.093, 45268.910
716.388, 39793.137
717.683, 32677.332
718.978, 26211.480
720.272, 20655.600
721.567, 16129.667
722.861, 12313.701
724.155, 10297.696
725.448, 9111.656
726.742, 7165.578
728.035, 5319.462
729.328, 5603.312
730.621, 3747.124
731.914, 3160.901
733.206, 2624.645
734.499, 2538.352
735.791, 1872.027
737.083, 1465.668
738.374, 1359.275
739.666, 1322.853
740.957, 926.396
742.248, 869.908
743.539, 943.390
744.830, 736.841
746.120, 930.261
747.410, 603.651
748.701, 587.014
749.990, 740.347
751.280, 583.650
752.570, 986.927
753.859, 830.176
755.148, 873.398
756.437, 1226.594
757.725, 1139.764
759.014, 1462.907
760.302, 1686.026
761.590, 1879.120
762.878, 2612.189
764.166, 2635.235
765.453, 2868.259
766.740, 3151.258
768.027, 2794.234
769.314, 2787.197
770.601, 2330.205
771.887, 1963.249
773.174, 1416.376
774.460, 1139.588
775.745, 912.886
777.031, 556.322
778.316, 479.854
779.602, 423.467
780.887, 7.137
782.172, 19.226
783.456, 15.645
784.741, 117.876
786.025, 148.900
787.309, 257.893
788.593, 95.896
789.876, 475.125
791.160, 382.321
792.443, 329.760
793.726, 557.413
795.009, 245.396
796.291, 373.547
797.574, 201.929
798.856, 120.452
800.138, 339.070
801.420, 42.102
802.702, 36.738
803.983, 324.374
805.264, 605.478
806.545, 846.574
807.826, 1537.662
809.107, 1985.978
810.387, 2757.053
811.667, 3126.588
812.947, 2927.200
814.227, 3088.355
815.507, 2189.248
816.786, 1800.470
818.065, 1561.718
819.344, 912.977
820.623, 464.254
821.902, 475.540
823.180, 76.838
824.459, 198.155
825.737, 70.496
827.014, 20.865
828.292, 22.292
829.569, 136.199
830.847, 105.354
832.124, 172.973
833.401, 71.248
834.677, 20.527
835.954, 2.427
837.230, 154.416
838.506, 166.446
839.782, 68.536
841.057, 610.636
842.333, 312.741
843.608, 834.852
844.883, 916.970
846.158, 959.096
847.433, 1191.272
848.707, 1243.457
849.981, 1445.649
851.255, 1327.909
852.529, 1490.180
853.803, 1462.494
855.076, 1134.817
856.350, 1147.154
857.623, 1149.575
858.895, 982.012
860.168, 1344.461
861.441, 1106.926
862.713, 869.404
863.985, 1141.916
865.257, 1014.443
866.528, 966.986
867.800, 959.600
869.071, 964.514
870.342, 1234.918
871.613, 1167.654
872.884, 1380.408
874.154, 1703.209
875.425, 1596.035
876.695, 2158.883
877.965, 2051.801
879.234, 2274.736
880.504, 2907.750
881.773, 2770.785
883.042, 3543.846
884.311, 3557.002
885.580, 4480.180
886.848, 5243.387
888.117, 5686.662
889.385, 6919.957
890.653, 7933.293
891.920, 9456.650
893.188, 11360.037
894.455, 12533.453
895.722, 14426.918
896.989, 15800.402
898.256, 16403.922
899.523, 17367.463
900.789, 16561.061
902.055, 16524.678
903.321, 15088.326
904.587, 14652.000
905.852, 14195.701
907.118, 12749.432
908.383, 12533.193
909.648, 12166.979
910.913, 10570.797
912.177, 9834.648
913.442, 8758.527
914.706, 7712.439
915.970, 7176.383
917.233, 5990.352
918.497, 5744.355
919.760, 5518.387
921.024, 5082.449
922.287, 5516.541
923.550, 5210.662
924.812, 6154.816
926.075, 6558.996
927.337, 7123.207
928.599, 7767.445
929.861, 8091.711
931.122, 8056.004
932.384, 7870.316
933.645, 6952.047
934.906, 6922.227
936.167, 5912.727
937.428, 5657.012
938.688, 5449.355
939.948, 5124.994
941.208, 5500.920
942.468, 5583.447
943.728, 5771.922
944.987, 6693.832
946.247, 7151.588
947.506, 8499.078
948.765, 9428.688
950.023, 10379.230
951.282, 11325.051
952.540, 11617.320
953.798, 11841.973
955.056, 12113.574
956.314, 11418.514
957.572, 12093.492
958.829, 12118.508
960.086, 12873.559
961.343, 14088.658
962.600, 14213.789
963.856, 14458.963
965.113, 14384.174
966.369, 13389.414
967.625, 13014.691
968.881, 12239.996
970.136, 11705.332
971.392, 12820.703
972.647, 12936.098
973.902, 14671.529
975.157, 15656.988
976.411, 17582.479
977.666, 19635.092
978.920, 19660.645
980.174, 20216.215
981.428, 18975.182
982.682, 17810.826
983.935, 16867.830
985.188, 16061.266
986.441, 15377.053
987.694, 15492.793
988.947, 15008.684
990.199, 15154.615
991.452, 14691.324
992.704, 14327.354
993.956, 14103.598
995.207, 13409.725
996.459, 13725.902
997.710, 14091.771
998.961, 14148.047
1000.212, 15334.369
1001.463, 15814.359
1002.714, 16350.781
1003.964, 16524.744
1005.214, 15391.254
1006.464, 15078.352
1007.714, 13261.473
1008.964, 11618.131
1010.213, 10424.930
1011.462, 8182.164
1012.711, 7069.350
1013.960, 6169.953
1015.209, 4737.402
1016.457, 4634.584
1017.705, 3534.381
1018.954, 3381.408
1020.201, 3100.215
1021.449, 2472.881
1022.697, 2450.447
1023.944, 2114.625
1025.191, 1813.424
1026.438, 2071.436
1027.685, 1431.025
1028.931, 1628.428
1030.177, 1249.523
1031.423, 1207.891
1032.669, 1405.967
1033.915, 1241.824
1035.161, 1139.705
1036.406, 1329.047
1037.651, 1067.717
1038.896, 1615.502
1040.141, 1547.029
1041.386, 1655.350
1042.630, 1963.785
1043.874, 1444.209
1045.118, 1507.297
1046.362, 1415.383
1047.606, 1334.426
1048.849, 1552.891
1050.092, 1197.510
1051.336, 1345.803
1052.578, 1604.385
1053.821, 1122.787
1055.064, 1571.422
1056.306, 1509.938
1057.548, 1549.730
1058.790, 1518.361
1060.032, 1597.682
1061.273, 1576.781
1062.515, 1685.574
1063.756, 1385.512
1064.997, 1654.320
1066.237, 1293.047
1067.478, 782.176
1068.718, 1190.926
1069.959, 1010.004
1071.199, 1258.670
1072.438, 1287.334
1073.678, 1016.717
1074.918, 1535.316
1076.157, 1674.025
1077.396, 1792.684
1078.635, 2191.062
1079.873, 2230.223
1081.112, 2768.316
1082.350, 2896.186
1083.588, 2744.686
1084.826, 2782.438
1086.064, 2130.150
1087.301, 2187.818
1088.539, 1945.457
1089.776, 1313.150
1091.013, 1590.762
1092.250, 1318.482
1093.486, 1496.805
1094.723, 1564.646
1095.959, 1282.582
1097.195, 1791.482
1098.431, 2219.473
1099.666, 1997.455
1100.902, 2665.410
1102.137, 2923.375
1103.372, 3131.264
1104.607, 3869.094
1105.842, 3526.826
1107.076, 3885.826
1108.311, 3503.422
1109.545, 3010.957
1110.779, 3038.713
1112.012, 2416.107
1113.246, 2343.488
1114.479, 2170.719
1115.712, 1577.885
1116.945, 1614.984
1118.178, 1412.020
1119.411, 1258.916
1120.643, 1515.719
1121.875, 1012.443
1123.108, 1009.893
1124.339, 976.461
1125.571, 422.959
1126.802, 640.008
1128.034, 596.131
1129.265, 241.328
1130.496, 532.656
1131.727, 114.174
1132.957, 345.797
1134.187, 337.512
1135.418, 59.311
1136.648, 211.195
1137.877, 203.125
1139.107, 24.898
1140.336, 547.035
1141.566, 38.984
1142.795, 170.938
1144.023, 322.896
1145.252, 185.068
1146.480, 487.004
1147.709, 159.092
1148.937, 238.857
1150.165, 293.150
1151.392, 134.848
1152.620, 227.150
1153.847, 19.092
1155.074, 268.980
1156.301, 172.824
1157.528, 144.617
1158.755, 59.254
1159.981, 88.205
1161.207, 49.980
1162.433, 61.859
1163.659, 143.713
1164.885, 184.414
1166.110, 267.510
1167.336, 160.520
1168.561, 58.506
1169.786, 143.547
1171.010, 74.359
1172.235, 17.785
1173.459, 99.977
1174.683, 147.771
1175.907, 284.531
1177.131, 163.105
1178.355, 109.322
1179.578, 171.828
1180.801, 225.582
1182.024, 257.102
1183.247, 69.891
1184.470, 97.215
1185.692, 475.777
1186.915, 28.869
1188.137, 252.064
1189.359, 245.371
1190.580, 78.799
1191.802, 22.340
1193.023, 636.012
1194.244, 209.828
1195.465, 343.799
1196.686, 17.941
1197.907, 432.266
1199.127, 382.209
1200.347, 511.512
1201.567, 416.455
1202.787, 601.646
1204.007, 246.977
1205.226, 642.389
1206.446, 347.877
1207.665, 421.881
1208.884, 577.129
1210.102, 312.814
1211.321, 666.619
1212.539, 570.432
1213.758, 397.570
1214.976, 760.838
1216.193, 374.740
1217.411, 737.051
1218.628, 750.139
1219.846, 341.555
1221.063, 960.633
1222.280, 385.871
1223.496, 376.689
1224.713, 981.158
1225.929, 235.658
1227.145, 551.252
1228.361, 631.025
1229.577, 201.195
1230.793, 450.996
1232.008, 491.133
1233.223, 433.934
1234.438, 577.857
1235.653, 484.045
1236.868, 319.264
1238.082, 805.832
1239.297, 151.262
1240.511, 430.766
1241.725, 669.223
1242.938, 75.135
1244.152, 535.203
1245.365, 342.475
1246.578, 248.986
1247.791, 662.322
1249.004, 227.811
1250.217, 443.033
1251.429, 514.963
1252.642, 0.264
1253.854, 640.123
1255.066, 179.895
1256.277, 99.801
1257.489, 695.137
1258.700, 144.109
1259.911, 303.951
1261.122, 612.232
1262.333, 221.025
1263.544, 260.518
1264.754, 361.783
1265.964, 134.750
1267.174, 490.209
1268.384, 3.342
1269.594, 221.406
1270.803, 479.121
1272.013, 0.439
1273.222, 384.383
1274.431, 0.000
##END=



