##NAMES=Axinite-(Fe)
##RRUFFID=R040074
##IDEAL CHEMISTRY=Ca_4_Fe^2+^_2_Al_4_[B_2_Si_8_O_30_](OH)_2_
##LOCALITY=Luning, Nevada, USA
##OWNER=RRUFF
##SOURCE=University of Arizona Mineral Museum
##DESCRIPTION=Pale brown wedge-shaped crystal
##STATUS=The identification of this mineral has been confirmed by X-ray diffraction and chemical analysis
##URL=rruff.info/R040074
##MEASURED CHEMISTRY=(Ca_0.98_Mn_0.01_)_2_(Fe_0.41_Mg_0.39_Mn_0.20_)Al_1.95_B_1.20_Si_3.90_O_15_(OH)
##PIN_ID=L00178
##ORIENTATION=Laser parallel to (0 -1 -1). Fiducial mark perpendicular to laser is parallel to -a [-1 0 0]
90.003, 0.000
91.398, 13.017
92.793, 7.113
94.188, 190.906
95.582, 246.583
96.976, 562.295
98.370, 1048.788
99.764, 1711.582
101.157, 2626.028
102.550, 4091.581
103.943, 6595.277
105.336, 9877.649
106.729, 12749.007
108.121, 15454.378
109.513, 23219.355
110.905, 24631.230
112.297, 11718.773
113.688, 6537.164
115.079, 4416.037
116.470, 2895.142
117.861, 2045.307
119.251, 1262.421
120.642, 774.407
122.032, 465.214
123.422, 326.829
124.811, 44.360
126.201, 0.777
127.590, 84.942
128.979, 40.231
130.367, 66.520
131.756, 50.406
133.144, 178.738
134.532, 390.650
135.920, 858.300
137.307, 1505.817
138.695, 2223.317
140.082, 2915.901
141.469, 3318.656
142.856, 3610.652
144.242, 3381.974
145.628, 2852.687
147.014, 2572.846
148.400, 2288.498
149.786, 2289.684
151.171, 2434.438
152.556, 2658.790
153.941, 2826.771
155.325, 3504.404
156.710, 3082.597
158.094, 3186.333
159.478, 3180.493
160.862, 3210.757
162.245, 3199.344
163.629, 3226.228
165.012, 3338.520
166.395, 3665.010
167.777, 4241.636
169.160, 4978.358
170.542, 5655.168
171.924, 5952.063
173.306, 6069.076
174.687, 5576.302
176.068, 4673.749
177.449, 3701.413
178.830, 2824.289
180.211, 1952.364
181.591, 1558.628
182.972, 1232.069
184.351, 984.664
185.731, 1001.407
187.111, 1236.290
188.490, 1662.306
189.869, 2378.451
191.248, 3307.714
192.626, 3876.982
194.005, 3956.285
195.383, 3695.789
196.761, 3355.581
198.139, 3495.559
199.516, 3845.636
200.893, 4795.788
202.271, 5636.006
203.647, 6596.291
205.024, 7206.643
206.400, 7237.059
207.777, 6737.530
209.152, 6198.031
210.528, 5228.539
211.904, 4849.049
213.279, 4249.565
214.654, 3240.089
216.029, 2710.624
217.403, 2050.173
218.778, 1686.735
220.152, 1180.313
221.526, 854.913
222.900, 437.587
224.273, 237.446
225.646, 16.416
227.019, 56.954
228.392, 336.227
229.765, 365.322
231.137, 445.401
232.509, 440.480
233.881, 405.568
235.253, 314.665
236.625, 137.769
237.996, 139.118
239.367, 497.997
240.738, 916.812
242.108, 1218.332
243.479, 1802.276
244.849, 1989.591
246.219, 2527.444
247.589, 2760.224
248.958, 3238.030
250.328, 3727.865
251.697, 4117.724
253.065, 4287.609
254.434, 4407.518
255.803, 4522.326
257.171, 4726.684
258.539, 5221.392
259.906, 5826.457
261.274, 6681.612
262.641, 7956.817
264.008, 9152.049
265.375, 10237.267
266.742, 11412.427
268.108, 12287.538
269.475, 12942.613
270.840, 13127.658
272.206, 13032.673
273.572, 12807.630
274.937, 10772.219
276.302, 9476.589
277.667, 8170.948
279.032, 6805.292
280.396, 5859.618
281.760, 4823.922
283.125, 4448.206
284.488, 4112.468
285.852, 3906.708
287.215, 3940.927
288.578, 4175.125
289.941, 4499.229
291.304, 5102.913
292.666, 5801.313
294.029, 6432.405
295.391, 7332.287
296.753, 8117.012
298.114, 9033.044
299.476, 9703.479
300.837, 10375.263
302.198, 11041.955
303.558, 13569.498
304.919, 12244.231
306.279, 11398.595
307.639, 10692.471
308.999, 9335.729
310.359, 7868.988
311.718, 6422.250
313.077, 4875.526
314.436, 3808.829
315.795, 3173.165
317.154, 2587.531
318.512, 2314.881
319.870, 2015.222
321.228, 1901.539
322.586, 1945.714
323.943, 1954.443
325.300, 2086.493
326.657, 2320.871
328.014, 2718.837
329.371, 2664.800
330.727, 2734.791
332.083, 2540.807
333.439, 2329.854
334.795, 2107.953
336.150, 2093.087
337.506, 2334.282
338.861, 2753.545
340.215, 3575.864
341.570, 4517.234
342.924, 5348.631
344.279, 6430.050
345.633, 7231.486
346.986, 8262.933
348.340, 9444.392
349.693, 11216.117
351.046, 12718.434
352.399, 13371.900
353.752, 12408.724
355.104, 10587.344
356.457, 8228.895
357.809, 6192.065
359.160, 4359.555
360.512, 3140.651
361.863, 2461.086
363.214, 1757.795
364.565, 1415.792
365.916, 1079.658
367.267, 829.581
368.617, 804.432
369.967, 655.903
371.317, 596.800
372.666, 556.317
374.016, 655.829
375.365, 724.336
376.714, 713.839
378.063, 928.337
379.411, 1094.830
380.760, 1284.317
382.108, 1772.799
383.456, 2360.273
384.803, 3194.811
386.151, 4267.031
387.498, 5647.334
388.845, 7190.052
390.192, 8170.056
391.539, 8052.696
392.885, 6983.746
394.231, 5519.926
395.577, 4175.757
396.923, 3333.659
398.269, 3076.328
399.614, 2731.160
400.959, 2579.846
402.304, 2618.162
403.649, 2605.485
404.993, 2655.801
406.337, 2930.109
407.681, 3477.413
409.025, 4528.716
410.369, 6070.016
411.712, 8741.313
413.055, 12502.608
414.398, 16793.896
415.741, 20515.184
417.084, 20366.469
418.426, 17987.730
419.768, 14188.971
421.110, 11130.191
422.452, 9291.387
423.793, 8272.556
425.134, 8173.701
426.475, 8264.818
427.816, 8295.909
429.157, 7876.976
430.497, 7228.017
431.837, 6079.030
433.177, 4830.018
434.517, 3610.979
435.857, 2822.915
437.196, 2454.824
438.535, 2289.710
439.874, 2325.572
441.213, 2832.410
442.551, 3179.223
443.889, 3407.011
445.227, 3248.774
446.565, 2598.513
447.903, 2002.227
449.240, 1265.915
450.577, 754.578
451.914, 520.217
453.251, 310.833
454.588, 224.448
455.924, 35.051
457.260, 17.642
458.596, 27.802
459.932, 105.296
461.267, 127.880
462.602, 47.566
463.938, 62.312
465.272, 17.876
466.607, 63.153
467.941, 169.909
469.276, 411.138
470.610, 579.400
471.943, 892.096
473.277, 1327.921
474.610, 1597.452
475.944, 2261.341
477.276, 3283.727
478.609, 4617.288
479.942, 6540.754
481.274, 9011.673
482.606, 12032.051
483.938, 14462.203
485.270, 14132.372
486.601, 12492.575
487.932, 9023.141
489.263, 5983.630
490.594, 4024.661
491.925, 2560.639
493.255, 1823.844
494.585, 1295.195
495.915, 923.516
497.245, 725.249
498.575, 656.810
499.904, 614.178
501.233, 544.369
502.562, 583.606
503.891, 558.109
505.219, 546.713
506.548, 512.647
507.876, 398.553
509.203, 333.431
510.531, 194.280
511.859, 33.093
513.186, 39.135
514.513, 67.437
515.840, 113.821
517.166, 139.304
518.493, 207.905
519.819, 153.663
521.145, 254.558
522.470, 83.648
523.796, 183.842
525.121, 102.195
526.446, 87.336
527.771, 94.825
529.096, 159.272
530.421, 294.680
531.745, 545.054
533.069, 717.397
534.393, 880.709
535.716, 913.991
537.040, 940.242
538.363, 791.461
539.686, 758.648
541.009, 521.805
542.331, 510.929
543.654, 358.022
544.976, 345.082
546.298, 274.111
547.620, 183.111
548.941, 241.116
550.263, 217.137
551.584, 175.248
552.905, 151.453
554.225, 322.773
555.546, 588.212
556.866, 593.763
558.186, 628.399
559.506, 915.076
560.826, 797.733
562.145, 946.357
563.465, 1081.947
564.784, 1299.505
566.103, 1655.030
567.421, 1994.521
568.740, 2650.978
570.058, 3308.402
571.376, 3831.793
572.694, 4260.149
574.011, 4438.471
575.329, 4566.762
576.646, 4285.017
577.963, 4073.237
579.279, 4091.424
580.596, 4099.577
581.912, 4537.694
583.228, 5115.780
584.544, 6173.829
585.860, 7141.845
587.175, 8029.827
588.491, 8167.775
589.806, 7835.688
591.121, 6723.568
592.435, 5401.412
593.750, 4199.223
595.064, 3307.000
596.378, 2485.743
597.692, 1980.452
599.006, 1420.127
600.319, 1149.768
601.632, 976.374
602.945, 739.946
604.258, 743.484
605.571, 585.989
606.883, 661.460
608.195, 747.896
609.507, 724.299
610.819, 823.667
612.131, 932.984
613.442, 903.907
614.753, 1020.933
616.064, 979.782
617.375, 1103.605
618.685, 994.930
619.995, 1001.811
621.306, 716.691
622.615, 576.641
623.925, 292.322
625.235, 169.292
626.544, 68.674
627.853, 81.402
629.162, 88.585
630.471, 106.877
631.779, 166.291
633.087, 166.696
634.395, 155.848
635.703, 52.966
637.011, 13.182
638.318, 140.403
639.625, 291.278
640.932, 371.251
642.239, 421.988
643.546, 466.604
644.852, 327.735
646.158, 351.736
647.464, 217.637
648.770, 223.337
650.076, 104.994
651.381, 9.592
652.686, 69.094
653.991, 29.471
655.296, 75.151
656.600, 24.972
657.905, 6.906
659.209, 94.058
660.513, 120.962
661.817, 237.816
663.120, 410.627
664.423, 543.402
665.726, 867.141
667.029, 1119.590
668.332, 1510.422
669.635, 2071.709
670.937, 2620.976
672.239, 3606.206
673.541, 4205.125
674.842, 5020.918
676.144, 5022.257
677.445, 4684.663
678.746, 4120.156
680.047, 3396.460
681.348, 2548.331
682.648, 2145.302
683.948, 1660.185
685.248, 1467.110
686.548, 1181.384
687.848, 1127.202
689.147, 1187.369
690.447, 1100.509
691.746, 1190.623
693.044, 1333.709
694.343, 1368.771
695.641, 1716.805
696.940, 1991.814
698.238, 2568.799
699.535, 3010.757
700.833, 3904.624
702.130, 4828.417
703.427, 6261.891
704.724, 8134.967
706.021, 10178.265
707.318, 13131.440
708.614, 16924.426
709.910, 21447.285
711.206, 25900.842
712.502, 29054.551
713.798, 29648.242
715.093, 28211.900
716.388, 24235.539
717.683, 19489.150
718.978, 15962.736
720.272, 11946.296
721.567, 9639.833
722.861, 7353.344
724.155, 6026.833
725.448, 4820.298
726.742, 3793.738
728.035, 3237.156
729.328, 2578.551
730.621, 2149.924
731.914, 1916.274
733.206, 1489.603
734.499, 1471.911
735.791, 1135.196
737.083, 837.462
738.374, 849.706
739.666, 740.930
740.957, 561.134
742.248, 543.318
743.539, 572.482
744.830, 431.627
746.120, 376.753
747.410, 354.860
748.701, 349.949
749.990, 378.020
751.280, 366.072
752.570, 565.108
753.859, 538.126
755.148, 681.127
756.437, 780.112
757.725, 975.080
759.014, 1231.032
760.302, 1512.968
761.590, 1762.888
762.878, 2200.793
764.166, 2624.683
765.453, 3207.558
766.740, 3080.419
768.027, 2973.267
769.314, 2716.102
770.601, 2551.928
771.887, 2017.748
773.174, 1709.567
774.460, 1343.407
775.745, 996.273
777.031, 881.145
778.316, 710.025
779.602, 663.775
780.887, 301.006
782.172, 276.725
783.456, 126.377
784.741, 66.561
786.025, 90.580
787.309, 161.142
788.593, 94.300
789.876, 166.017
791.160, 189.987
792.443, 112.945
793.726, 252.421
795.009, 287.453
796.291, 269.364
797.574, 221.396
798.856, 183.543
800.138, 119.125
801.420, 3.315
802.702, 139.194
803.983, 211.101
805.264, 474.759
806.545, 787.250
807.826, 1190.748
809.107, 1537.812
810.387, 1893.027
811.667, 2021.412
812.947, 1977.953
814.227, 1678.426
815.507, 1316.611
816.786, 996.673
818.065, 698.384
819.344, 439.101
820.623, 168.824
821.902, 122.555
823.180, 23.705
824.459, 35.958
825.737, 83.189
827.014, 120.408
828.292, 88.618
829.569, 86.796
830.847, 22.925
832.124, 168.004
833.401, 1.976
834.677, 83.091
835.954, 188.231
837.230, 189.423
838.506, 369.631
839.782, 377.856
841.057, 668.111
842.333, 728.378
843.608, 877.657
844.883, 1137.969
846.158, 1265.292
847.433, 1524.635
848.707, 1609.991
849.981, 1499.358
851.255, 1523.778
852.529, 1531.210
853.803, 1369.656
855.076, 1316.116
856.350, 1105.590
857.623, 1140.109
858.895, 1050.647
860.168, 1184.214
861.441, 1083.818
862.713, 918.444
863.985, 1042.111
865.257, 1016.832
866.528, 902.567
867.800, 955.352
869.071, 1006.158
870.342, 968.984
871.613, 1165.859
872.884, 1161.776
874.154, 1338.729
875.425, 1339.734
876.695, 1604.761
877.965, 1791.823
879.234, 1856.923
880.504, 2290.047
881.773, 2273.221
883.042, 2756.413
884.311, 3079.637
885.580, 3572.893
886.848, 4076.173
888.117, 4759.477
889.385, 5422.803
890.653, 6566.159
891.920, 7559.540
893.188, 8932.944
894.455, 10126.372
895.722, 11259.849
896.989, 12493.346
898.256, 13046.878
899.523, 13260.438
900.789, 13334.027
902.055, 12677.638
903.321, 12201.283
904.587, 11874.947
905.852, 11108.647
907.118, 10822.374
908.383, 10056.120
909.648, 9749.896
910.913, 8733.697
912.177, 7857.527
913.442, 7101.379
914.706, 6195.260
915.970, 5449.168
917.233, 4653.105
918.497, 4037.067
919.760, 3941.057
921.024, 3335.073
922.287, 3509.117
923.550, 3303.189
924.812, 3367.289
926.075, 3601.414
927.337, 3805.568
928.599, 3889.749
929.861, 4163.957
931.122, 3868.190
932.384, 3892.451
933.645, 3616.741
934.906, 3481.064
936.167, 3245.448
937.428, 3059.896
938.688, 3114.417
939.948, 3238.861
941.208, 3407.983
942.468, 3633.076
943.728, 3756.752
944.987, 4285.400
946.247, 4785.381
947.506, 5563.258
948.765, 6292.365
950.023, 6984.584
951.282, 7219.285
952.540, 7818.105
953.798, 7683.019
955.056, 7788.123
956.314, 7743.264
957.572, 7988.440
958.829, 8313.679
960.086, 8808.965
961.343, 9624.318
962.600, 10089.756
963.856, 9935.260
965.113, 10170.824
966.369, 9486.434
967.625, 9212.078
968.881, 9297.753
970.136, 8813.461
971.392, 9759.195
972.647, 10464.955
973.902, 11750.748
975.157, 13115.934
976.411, 14350.789
977.666, 15643.886
978.920, 15975.361
980.174, 15648.346
981.428, 14901.461
982.682, 14116.900
983.935, 13122.914
985.188, 13079.196
986.441, 12405.265
987.694, 12911.355
988.947, 12797.475
990.199, 12543.619
991.452, 12863.215
992.704, 12399.408
993.956, 12475.628
995.207, 12526.747
996.459, 12553.015
997.710, 13290.958
998.961, 13597.297
1000.212, 14653.677
1001.463, 15859.105
1002.714, 16185.560
1003.964, 16622.053
1005.214, 15918.583
1006.464, 14775.150
1007.714, 13468.160
1008.964, 11355.229
1010.213, 9904.097
1011.462, 8144.947
1012.711, 6712.445
1013.960, 5793.871
1015.209, 4708.976
1016.457, 4195.898
1017.705, 3649.951
1018.954, 3137.767
1020.201, 2975.432
1021.449, 2489.287
1022.697, 2432.051
1023.944, 2243.035
1025.191, 2088.202
1026.438, 2145.705
1027.685, 1876.810
1028.931, 1658.204
1030.177, 1676.438
1031.423, 1390.545
1032.669, 1357.886
1033.915, 1197.424
1035.161, 1022.422
1036.406, 1035.770
1037.651, 742.671
1038.896, 795.512
1040.141, 768.661
1041.386, 832.359
1042.630, 790.936
1043.874, 781.399
1045.118, 663.131
1046.362, 759.991
1047.606, 748.379
1048.849, 807.046
1050.092, 853.274
1051.336, 756.226
1052.578, 832.943
1053.821, 816.221
1055.064, 633.286
1056.306, 761.241
1057.548, 702.264
1058.790, 625.320
1060.032, 643.381
1061.273, 451.969
1062.515, 622.100
1063.756, 492.268
1064.997, 455.337
1066.237, 481.573
1067.478, 331.847
1068.718, 490.127
1069.959, 425.442
1071.199, 408.893
1072.438, 418.222
1073.678, 377.725
1074.918, 321.045
1076.157, 523.398
1077.396, 359.719
1078.635, 409.008
1079.873, 533.269
1081.112, 523.481
1082.350, 590.632
1083.588, 431.887
1084.826, 636.899
1086.064, 496.842
1087.301, 437.709
1088.539, 533.502
1089.776, 426.324
1091.013, 392.412
1092.250, 430.268
1093.486, 494.145
1094.723, 555.043
1095.959, 672.940
1097.195, 787.862
1098.431, 1030.827
1099.666, 1044.822
1100.902, 1270.907
1102.137, 1518.923
1103.372, 1486.915
1104.607, 1784.887
1105.842, 1822.820
1107.076, 1870.724
1108.311, 1818.594
1109.545, 1586.425
1110.779, 1474.411
1112.012, 1402.165
1113.246, 1309.879
1114.479, 1107.551
1115.712, 874.188
1116.945, 715.792
1118.178, 683.398
1119.411, 711.935
1120.643, 839.438
1121.875, 820.909
1123.108, 517.348
1124.339, 523.759
1125.571, 385.146
1126.802, 202.515
1128.034, 414.867
1129.265, 78.204
1130.496, 343.527
1131.727, 139.825
1132.957, 20.903
1134.187, 215.540
1135.418, 65.763
1136.648, 48.963
1137.877, 158.145
1139.107, 82.689
1140.336, 83.420
1141.566, 105.514
1142.795, 102.405
1144.023, 174.662
1145.252, 46.214
1146.480, 34.957
1147.709, 19.102
1148.937, 158.700
1150.165, 94.523
1151.392, 31.752
1152.620, 10.977
1153.847, 84.163
1155.074, 106.673
1156.301, 7.513
1157.528, 35.405
1158.755, 64.357
1159.981, 8.332
1161.207, 68.334
1162.433, 124.370
1163.659, 37.593
1164.885, 102.435
1166.110, 0.442
1167.336, 4.562
1168.561, 91.436
1169.786, 71.445
1171.010, 40.457
1172.235, 104.453
1173.459, 29.559
1174.683, 34.416
1175.907, 36.364
1177.131, 19.706
1178.355, 74.205
1179.578, 105.901
1180.801, 4.029
1182.024, 0.564
1183.247, 37.753
1184.470, 61.784
1185.692, 72.293
1186.915, 28.734
1188.137, 45.270
1189.359, 171.577
1190.580, 63.927
1191.802, 21.688
1193.023, 125.740
1194.244, 24.211
1195.465, 77.724
1196.686, 62.277
1197.907, 157.874
1199.127, 93.520
1200.347, 128.217
1201.567, 56.967
1202.787, 312.775
1204.007, 209.650
1205.226, 215.593
1206.446, 286.612
1207.665, 151.709
1208.884, 367.891
1210.102, 385.162
1211.321, 142.528
1212.539, 298.319
1213.758, 296.877
1214.976, 269.885
1216.193, 352.565
1217.411, 234.571
1218.628, 310.910
1219.846, 207.829
1221.063, 315.151
1222.280, 303.473
1223.496, 324.820
1224.713, 340.739
1225.929, 290.255
1227.145, 239.412
1228.361, 315.489
1229.577, 178.934
1230.793, 216.416
1232.008, 329.880
1233.223, 189.114
1234.438, 229.067
1235.653, 191.960
1236.868, 92.718
1238.082, 304.484
1239.297, 186.214
1240.511, 181.988
1241.725, 286.960
1242.938, 141.946
1244.152, 213.337
1245.365, 270.044
1246.578, 91.018
1247.791, 201.200
1249.004, 158.193
1250.217, 102.165
1251.429, 221.061
1252.642, 148.372
1253.854, 142.425
1255.066, 139.697
1256.277, 38.078
1257.489, 324.155
1258.700, 184.209
1259.911, 86.913
1261.122, 262.157
1262.333, 196.314
1263.544, 34.115
1264.754, 244.118
1265.964, 182.079
1267.174, 153.521
1268.384, 133.434
1269.594, 50.759
1270.803, 281.979
1272.013, 187.274
1273.222, 33.095
1274.431, 195.835
1275.640, 36.979
1276.848, 134.917
1278.057, 198.521
1279.265, 6.638
1280.473, 309.538
1281.681, 109.289
1282.888, 50.745
1284.096, 198.990
1285.303, 9.523
1286.510, 140.522
1287.717, 170.477
1288.924, 0.000
##END=



