##NAMES=Axinite-(Fe)
##RRUFFID=R050026
##IDEAL CHEMISTRY=Ca_4_Fe^2+^_2_Al_4_[B_2_Si_8_O_30_](OH)_2_
##LOCALITY=Pouyva mine, Polar Urals, Western Siberian Region, Russia
##OWNER=RRUFF
##SOURCE=Rock Currier
##DESCRIPTION=Brown transparent flat crystal
##STATUS=The identification of this mineral has been confirmed by X-ray diffraction and chemical analysis
##URL=rruff.info/R050026
##MEASURED CHEMISTRY=Ca_2.00_(Fe^2+^_0.61_Mn_0.26_Mg_0.13_)Al_2.00_BSi_4_O_15_(OH)
##PIN_ID=L00535
##ORIENTATION=Laser parallel to -c* (0 0 -1). Fiducial mark perpendicular to laser is parallel to a [1 0 0]
88.260, 0.000
89.663, 2.475
91.065, 13.540
92.466, 82.785
93.868, 179.024
95.269, 246.897
96.670, 447.790
98.070, 698.542
99.471, 894.459
100.871, 988.632
102.271, 1080.579
103.670, 1368.433
105.070, 1716.257
106.469, 2505.246
107.868, 3140.063
109.267, 4611.682
110.665, 15743.449
112.063, 34693.215
113.461, 8153.320
114.859, 2307.670
116.256, 1274.196
117.653, 761.851
119.050, 403.599
120.447, 203.414
121.843, 107.276
123.240, 181.412
124.636, 11.090
126.031, 17.972
127.427, 15.653
128.822, 7.878
130.217, 0.585
131.612, 37.718
133.006, 17.230
134.400, 50.923
135.794, 211.779
137.188, 347.371
138.581, 398.728
139.975, 452.874
141.368, 518.834
142.760, 668.631
144.153, 936.282
145.545, 1381.801
146.937, 1783.201
148.329, 2153.494
149.720, 2445.688
151.112, 2326.795
152.503, 2275.818
153.893, 2124.766
155.284, 1137.648
156.674, 692.467
158.064, 551.579
159.454, 466.190
160.843, 497.193
162.233, 626.956
163.622, 764.567
165.011, 1097.267
166.399, 1620.043
167.787, 2102.880
169.175, 2562.774
170.563, 2965.724
171.951, 2867.727
173.338, 2570.792
174.725, 2226.927
176.112, 1707.139
177.499, 1258.424
178.885, 973.782
180.271, 629.210
181.657, 476.707
183.043, 348.266
184.428, 338.883
185.813, 402.556
187.198, 560.285
188.583, 854.067
189.967, 1178.902
191.351, 1693.787
192.735, 2032.771
194.119, 1935.823
195.502, 1544.945
196.885, 1246.106
198.268, 1217.304
199.651, 1402.538
201.033, 1801.806
202.415, 2289.107
203.797, 2957.442
205.179, 3331.809
206.561, 3394.206
207.942, 3318.627
209.323, 3066.062
210.703, 2759.510
212.084, 2338.972
213.464, 2071.449
214.844, 1803.943
216.224, 1710.456
217.603, 1557.987
218.983, 1406.538
220.362, 1067.107
221.741, 742.697
223.119, 473.305
224.497, 212.933
225.875, 59.579
227.253, 47.707
228.631, 135.883
230.008, 172.901
231.385, 197.841
232.762, 206.733
234.139, 135.609
235.515, 86.469
236.891, 71.692
238.267, 122.873
239.643, 271.073
241.018, 440.271
242.393, 524.323
243.768, 563.141
245.143, 563.782
246.517, 629.411
247.891, 583.057
249.265, 761.723
250.639, 802.406
252.012, 907.106
253.386, 1118.824
254.759, 1122.897
256.131, 1132.081
257.504, 943.562
258.876, 763.176
260.248, 644.884
261.620, 681.658
262.991, 754.484
264.363, 873.347
265.734, 1069.226
267.104, 1258.116
268.475, 1549.018
269.845, 1788.934
271.215, 2068.861
272.585, 2304.802
273.955, 2427.690
275.324, 2438.561
276.693, 2236.338
278.062, 1933.129
279.431, 1701.933
280.799, 1511.748
282.167, 1351.574
283.535, 1267.408
284.903, 1156.253
286.270, 1165.104
287.638, 1047.965
289.005, 1107.832
290.371, 1054.690
291.738, 1037.887
293.104, 1121.034
294.470, 1144.689
295.836, 1344.343
297.201, 1454.483
298.567, 1792.194
299.932, 2103.374
301.296, 2678.161
302.661, 3281.916
304.025, 3914.667
305.389, 4346.414
306.753, 4433.157
308.117, 4238.898
309.480, 3478.637
310.843, 2902.374
312.206, 2417.110
313.569, 2167.848
314.931, 2103.594
316.293, 2161.341
317.655, 2374.106
319.017, 2341.873
320.378, 2137.641
321.740, 1953.412
323.101, 1700.132
324.461, 1488.625
325.822, 1298.843
327.182, 1142.905
328.542, 1164.981
329.902, 1072.073
331.261, 1060.182
332.621, 1084.317
333.980, 1259.487
335.339, 1462.703
336.697, 1815.958
338.056, 2269.253
339.414, 2901.588
340.772, 3403.956
342.129, 3778.367
343.487, 3772.807
344.844, 3468.265
346.201, 3067.737
347.557, 2930.220
348.914, 2855.712
350.270, 2837.214
351.626, 2728.725
352.982, 2485.245
354.337, 2019.773
355.693, 1474.310
357.048, 1067.854
358.402, 708.406
359.757, 507.965
361.111, 324.665
362.465, 203.367
363.819, 145.192
365.173, 116.653
366.526, 130.808
367.879, 136.231
369.232, 228.394
370.585, 256.366
371.937, 291.053
373.290, 344.513
374.642, 393.337
375.993, 366.320
377.345, 418.945
378.696, 474.139
380.047, 624.950
381.398, 841.344
382.748, 1218.196
384.099, 1672.418
385.449, 2236.715
386.799, 3001.797
388.148, 3499.923
389.497, 3856.966
390.847, 3765.704
392.196, 3437.472
393.544, 2932.878
394.893, 2358.023
396.241, 1845.012
397.589, 1506.487
398.936, 1170.073
400.284, 963.723
401.631, 785.373
402.978, 632.024
404.325, 549.674
405.672, 553.324
407.018, 593.976
408.364, 691.629
409.710, 954.284
411.055, 1323.942
412.401, 1917.600
413.746, 2712.260
415.091, 3620.921
416.435, 4429.583
417.780, 4524.246
419.124, 4135.909
420.468, 3492.571
421.812, 3013.230
423.155, 2710.887
424.498, 2364.540
425.842, 2351.190
427.184, 2133.836
428.527, 2067.478
429.869, 1819.117
431.211, 1511.751
432.553, 1132.381
433.895, 911.006
435.236, 710.627
436.577, 503.244
437.918, 434.856
439.259, 475.464
440.599, 478.068
441.940, 578.667
443.280, 682.263
444.619, 689.853
445.959, 624.439
447.298, 395.020
448.637, 273.596
449.976, 171.167
451.315, 48.734
452.653, 12.294
453.991, 39.147
455.329, 26.611
456.667, 70.092
458.004, 8.613
459.341, 69.135
460.678, 8.694
462.015, 35.737
463.352, 69.162
464.688, 180.581
466.024, 254.995
467.360, 389.403
468.695, 471.806
470.031, 593.202
471.366, 705.593
472.701, 691.978
474.035, 770.051
475.370, 959.874
476.704, 1286.609
478.038, 1779.984
479.372, 2425.727
480.705, 3487.471
482.038, 4296.835
483.371, 5053.214
484.704, 5415.597
486.037, 4695.990
487.369, 3657.397
488.701, 2627.809
490.033, 1857.348
491.365, 1274.523
492.696, 951.744
494.027, 742.913
495.358, 656.099
496.689, 653.222
498.019, 669.983
499.350, 757.069
500.680, 851.722
502.009, 938.718
503.339, 1140.219
504.668, 1187.933
505.997, 1306.847
507.326, 1297.631
508.655, 1235.974
509.983, 1186.308
511.311, 1001.633
512.639, 882.954
513.967, 693.280
515.295, 503.604
516.622, 365.936
517.949, 203.262
519.276, 148.593
520.602, 74.926
521.929, 30.745
523.255, 16.449
524.581, 58.179
525.906, 68.963
527.232, 120.807
528.557, 52.739
529.882, 1.722
531.207, 60.731
532.531, 9.203
533.855, 60.118
535.179, 40.019
536.503, 114.906
537.827, 23.781
539.150, 66.639
540.473, 13.483
541.796, 58.309
543.119, 23.121
544.441, 18.915
545.764, 33.691
547.086, 30.451
548.407, 37.195
549.729, 8.922
551.050, 1.350
552.371, 42.396
553.692, 21.180
555.013, 110.007
556.333, 154.884
557.653, 219.793
558.973, 272.720
560.293, 360.635
561.612, 394.537
562.932, 433.427
564.251, 511.303
565.569, 604.167
566.888, 702.019
568.206, 899.856
569.524, 955.682
570.842, 1185.494
572.160, 1251.293
573.477, 1194.079
574.795, 1195.852
576.112, 1019.611
577.428, 994.358
578.745, 871.091
580.061, 816.811
581.377, 874.517
582.693, 915.210
584.009, 1087.889
585.324, 1319.555
586.639, 1436.207
587.954, 1520.846
589.269, 1481.471
590.583, 1328.083
591.897, 1134.681
593.212, 852.265
594.525, 703.836
595.839, 491.393
597.152, 473.936
598.465, 307.466
599.778, 323.982
601.091, 282.484
602.403, 224.972
603.716, 272.447
605.028, 319.908
606.339, 383.355
607.651, 494.789
608.962, 604.208
610.273, 742.614
611.584, 905.892
612.895, 1036.236
614.205, 1164.350
615.515, 1329.716
616.825, 1396.649
618.135, 1535.043
619.444, 1448.942
620.754, 1384.215
622.063, 1096.500
623.372, 835.772
624.680, 620.031
625.989, 353.276
627.297, 294.509
628.605, 126.728
629.912, 103.935
631.220, 19.128
632.527, 1.301
633.834, 37.447
635.141, 39.424
636.447, 35.656
637.754, 38.899
639.060, 109.837
640.366, 116.406
641.671, 159.835
642.977, 165.579
644.282, 146.320
645.587, 137.243
646.892, 95.351
648.196, 39.712
649.501, 4.608
650.805, 35.722
652.109, 83.893
653.412, 51.146
654.716, 61.465
656.019, 66.853
657.322, 28.314
658.625, 81.828
659.927, 26.423
661.230, 20.932
662.532, 47.258
663.834, 53.566
665.135, 120.854
666.437, 184.129
667.738, 307.389
669.039, 459.826
670.340, 597.276
671.640, 812.946
672.940, 1126.275
674.241, 1324.325
675.540, 1627.423
676.840, 1690.578
678.139, 1672.970
679.439, 1497.331
680.738, 1227.501
682.036, 1030.728
683.335, 772.253
684.633, 650.502
685.931, 510.002
687.229, 475.685
688.527, 429.646
689.824, 410.825
691.121, 418.632
692.418, 447.271
693.715, 520.260
695.012, 641.672
696.308, 791.458
697.604, 914.653
698.900, 1127.381
700.195, 1426.730
701.491, 1860.998
702.786, 2236.470
704.081, 2776.890
705.376, 3475.384
706.670, 4194.377
707.964, 5446.830
709.259, 6683.341
710.552, 8097.563
711.846, 8986.398
713.139, 9525.226
714.433, 9624.044
715.726, 8532.848
717.018, 7501.645
718.311, 6116.428
719.603, 4863.203
720.895, 3856.967
722.187, 3055.720
723.479, 2379.464
724.770, 1956.199
726.061, 1582.923
727.352, 1364.639
728.643, 1096.345
729.934, 950.042
731.224, 765.729
732.514, 690.408
733.804, 590.078
735.094, 487.740
736.383, 457.393
737.672, 421.037
738.961, 367.674
740.250, 313.302
741.539, 298.923
742.827, 274.536
744.115, 290.141
745.403, 260.739
746.691, 288.330
747.978, 297.913
749.265, 347.490
750.552, 413.059
751.839, 378.622
753.126, 445.178
754.412, 517.729
755.698, 649.272
756.984, 732.810
758.270, 866.342
759.555, 1037.868
760.840, 1282.388
762.125, 1380.903
763.410, 1669.412
764.695, 1819.915
765.979, 2009.414
767.263, 2000.908
768.547, 1911.407
769.831, 1787.909
771.114, 1517.424
772.398, 1384.937
773.681, 1088.464
774.964, 928.989
776.246, 763.510
777.529, 641.028
778.811, 483.541
780.093, 438.052
781.375, 345.558
782.656, 272.061
783.937, 192.561
785.219, 202.058
786.499, 100.859
787.780, 33.901
789.060, 26.020
790.341, 28.492
791.621, 47.412
792.901, 27.343
794.180, 69.910
795.459, 36.520
796.739, 58.154
798.017, 58.824
799.296, 30.529
800.575, 50.255
801.853, 39.128
803.131, 28.654
804.409, 21.762
805.686, 55.224
806.964, 104.664
808.241, 240.161
809.518, 340.017
810.795, 371.542
812.071, 447.495
813.347, 367.100
814.623, 366.195
815.899, 235.073
817.175, 166.745
818.450, 148.543
819.726, 48.777
821.001, 28.015
822.275, 35.742
823.550, 77.506
824.824, 42.295
826.098, 95.093
827.372, 28.923
828.646, 73.756
829.920, 75.611
831.193, 42.488
832.466, 42.371
833.739, 41.248
835.011, 24.880
836.284, 45.035
837.556, 95.223
838.828, 62.455
840.100, 89.715
841.371, 183.989
842.642, 147.293
843.914, 218.609
845.184, 269.933
846.455, 268.267
847.726, 358.608
848.996, 364.961
850.266, 417.322
851.536, 406.695
852.805, 367.078
854.075, 337.472
855.344, 327.879
856.613, 319.296
857.881, 285.724
859.150, 269.164
860.418, 247.630
861.686, 254.121
862.954, 257.623
864.222, 275.148
865.489, 257.685
866.756, 293.232
868.023, 284.792
869.290, 291.363
870.557, 345.950
871.823, 358.553
873.089, 401.166
874.355, 370.802
875.621, 390.454
876.886, 496.126
878.152, 513.822
879.417, 586.539
880.682, 661.274
881.946, 674.023
883.211, 825.784
884.475, 836.567
885.739, 973.361
887.003, 1124.167
888.266, 1205.994
889.530, 1437.835
890.793, 1633.708
892.056, 1803.595
893.318, 2027.495
894.581, 2359.419
895.843, 2663.358
897.105, 2863.314
898.367, 3086.296
899.629, 3375.291
900.890, 3358.307
902.152, 3725.344
903.413, 3632.395
904.673, 3618.471
905.934, 3723.560
907.194, 3561.663
908.454, 3462.779
909.714, 3200.910
910.974, 2948.056
912.234, 2636.217
913.493, 2343.391
914.752, 2014.582
916.011, 1792.787
917.270, 1616.008
918.528, 1588.243
919.786, 1378.493
921.044, 1245.763
922.302, 1304.047
923.560, 1250.345
924.817, 1300.662
926.074, 1298.994
927.331, 1295.354
928.588, 1369.729
929.844, 1324.119
931.101, 1435.525
932.357, 1427.945
933.613, 1406.380
934.868, 1503.840
936.124, 1538.314
937.379, 1639.807
938.634, 1827.318
939.889, 1942.852
941.144, 2177.402
942.398, 2438.986
943.652, 2755.407
944.906, 3205.138
946.160, 3495.242
947.414, 4053.488
948.667, 4410.426
949.920, 4815.368
951.173, 5257.132
952.426, 5583.714
953.678, 5963.042
954.931, 6560.056
956.183, 7010.851
957.435, 8039.685
958.686, 8799.576
959.938, 9749.506
961.189, 10309.484
962.440, 10419.510
963.691, 10009.569
964.941, 9309.680
966.192, 8229.826
967.442, 7340.000
968.692, 6620.192
969.942, 6030.406
971.191, 5789.636
972.441, 5636.885
973.690, 5872.958
974.939, 5987.026
976.187, 6051.874
977.436, 6176.070
978.684, 5879.546
979.932, 5804.981
981.180, 5258.361
982.428, 5071.376
983.675, 4888.429
984.922, 4537.563
986.169, 4679.013
987.416, 4674.480
988.663, 4618.967
989.909, 4750.473
991.155, 4636.995
992.401, 4616.537
993.647, 4812.097
994.893, 4923.675
996.138, 5269.272
997.383, 5460.885
998.628, 5877.517
999.873, 6369.167
1001.117, 6405.833
1002.362, 6431.562
1003.606, 6347.278
1004.850, 5735.999
1006.093, 5397.739
1007.337, 4599.501
1008.580, 4016.277
1009.823, 3449.938
1011.066, 2933.338
1012.308, 2565.179
1013.551, 2171.635
1014.793, 1871.511
1016.035, 1757.770
1017.277, 1548.018
1018.518, 1498.954
1019.760, 1491.416
1021.001, 1461.122
1022.242, 1522.115
1023.483, 1472.076
1024.723, 1497.910
1025.964, 1465.978
1027.204, 1297.800
1028.444, 1255.053
1029.683, 1023.685
1030.923, 953.181
1032.162, 882.306
1033.401, 737.594
1034.640, 683.746
1035.879, 664.922
1037.117, 569.728
1038.355, 577.599
1039.593, 617.104
1040.831, 579.620
1042.069, 642.853
1043.306, 531.885
1044.544, 580.548
1045.781, 650.593
1047.017, 597.782
1048.254, 706.077
1049.490, 713.976
1050.726, 716.398
1051.962, 775.728
1053.198, 787.665
1054.434, 817.017
1055.669, 749.390
1056.904, 729.807
1058.139, 753.277
1059.374, 632.054
1060.608, 630.491
1061.843, 581.928
1063.077, 514.875
1064.311, 530.329
1065.544, 476.141
1066.778, 472.656
1068.011, 532.121
1069.244, 500.885
1070.477, 605.368
1071.710, 581.860
1072.942, 719.384
1074.174, 795.960
1075.406, 852.497
1076.638, 1006.378
1077.870, 1103.912
1079.101, 1113.706
1080.332, 1236.350
1081.563, 1117.008
1082.794, 1045.693
1084.025, 980.284
1085.255, 812.641
1086.485, 740.335
1087.715, 652.933
1088.945, 566.604
1090.175, 593.279
1091.404, 545.895
1092.633, 497.732
1093.862, 566.638
1095.091, 508.437
1096.319, 578.009
1097.548, 642.728
1098.776, 653.588
1100.004, 755.385
1101.231, 737.163
1102.459, 749.537
1103.686, 805.357
1104.913, 742.171
1106.140, 761.723
1107.367, 693.598
1108.593, 608.515
1109.819, 596.596
1111.046, 457.427
1112.271, 452.325
1113.497, 418.162
1114.722, 358.365
1115.948, 334.457
1117.173, 339.302
1118.398, 307.206
1119.622, 416.183
1120.847, 390.031
1122.071, 295.179
1123.295, 182.115
1124.519, 162.077
1125.742, 210.430
1126.966, 135.337
1128.189, 106.292
1129.412, 76.542
1130.635, 54.479
1131.857, 95.484
1133.080, 49.433
1134.302, 61.485
1135.524, 88.696
1136.746, 39.650
1137.967, 33.595
1139.188, 4.953
1140.410, 85.039
1141.631, 54.374
1142.851, 20.457
1144.072, 6.391
1145.292, 36.466
1146.512, 8.490
1147.732, 18.416
1148.952, 2.269
1150.172, 0.687
1151.391, 21.103
1152.610, 15.636
1153.829, 1.601
1155.048, 8.732
1156.266, 59.520
1157.484, 37.995
1158.702, 13.172
1159.920, 52.588
1161.138, 7.672
1162.356, 11.328
1163.573, 10.329
1164.790, 11.333
1166.007, 30.938
1167.224, 17.045
1168.440, 6.369
1169.656, 51.750
1170.872, 16.525
1172.088, 35.463
1173.304, 46.648
1174.519, 36.751
1175.735, 26.037
1176.950, 6.298
1178.165, 31.584
1179.379, 33.837
1180.594, 14.715
1181.808, 5.611
1183.022, 23.854
1184.236, 8.194
1185.449, 65.318
1186.663, 0.765
1187.876, 26.755
1189.089, 39.709
1190.302, 1.247
1191.515, 6.654
1192.727, 40.127
1193.939, 24.308
1195.151, 18.233
1196.363, 25.938
1197.575, 28.802
1198.786, 32.801
1199.997, 46.424
1201.208, 29.330
1202.419, 22.584
1203.630, 13.827
1204.840, 5.089
1206.051, 29.391
1207.261, 32.607
1208.470, 4.011
1209.680, 36.142
1210.889, 8.325
1212.099, 28.430
1213.308, 75.522
1214.516, 6.313
1215.725, 51.863
1216.933, 72.982
1218.142, 0.812
1219.350, 34.200
1220.557, 31.801
1221.765, 14.302
1222.972, 63.246
1224.180, 19.314
1225.387, 33.277
1226.593, 33.695
1227.800, 15.101
1229.006, 55.896
1230.213, 7.836
1231.419, 36.961
1232.624, 62.901
1233.830, 47.830
1235.035, 49.617
1236.241, 70.392
1237.446, 2.493
1238.650, 28.323
1239.855, 41.053
1241.059, 9.886
1242.264, 115.586
1243.468, 44.617
1244.671, 64.547
1245.875, 111.207
1247.078, 20.037
1248.282, 73.745
1249.485, 80.365
1250.687, 17.059
1251.890, 66.842
1253.092, 58.412
1254.295, 38.012
1255.497, 95.553
1256.699, 68.095
1257.900, 89.821
1259.102, 34.315
1260.303, 41.913
1261.504, 86.373
1262.705, 73.817
1263.905, 57.336
1265.106, 91.743
1266.306, 42.130
1267.506, 75.490
1268.706, 71.823
1269.905, 35.138
1271.105, 92.440
1272.304, 84.688
1273.503, 44.026
1274.702, 103.228
1275.900, 81.411
1277.099, 103.718
1278.297, 72.859
1279.495, 50.981
1280.693, 97.186
1281.891, 120.270
1283.088, 42.336
1284.285, 66.381
1285.482, 44.408
1286.679, 67.459
1287.876, 105.446
1289.072, 69.413
1290.268, 81.386
1291.464, 113.316
1292.660, 47.228
1293.856, 97.076
1295.051, 41.939
1296.247, 36.794
1297.442, 93.628
1298.637, 62.439
1299.831, 29.237
1301.026, 34.143
1302.220, 4.694
1303.414, 46.227
1304.608, 41.327
1305.802, 63.007
1306.995, 63.477
1308.188, 14.223
1309.381, 22.384
1310.574, 75.462
1311.767, 4.290
1312.960, 73.827
1314.152, 35.393
1315.344, 8.082
1316.536, 67.531
1317.728, 49.220
1318.919, 73.475
1320.110, 61.358
1321.301, 4.361
1322.492, 106.732
1323.683, 95.936
1324.874, 36.271
1326.064, 94.577
1327.254, 57.250
1328.444, 32.853
1329.634, 63.818
1330.823, 68.769
1332.013, 62.999
1333.202, 70.510
1334.391, 42.302
1335.580, 47.708
1336.768, 57.965
1337.956, 50.113
1339.145, 124.649
1340.333, 16.657
1341.520, 46.731
1342.708, 100.228
1343.895, 6.270
1345.083, 66.285
1346.270, 68.261
1347.456, 61.170
1348.643, 47.765
1349.829, 65.697
1351.016, 30.622
1352.202, 92.033
1353.387, 63.932
1354.573, 87.465
1355.759, 94.288
1356.944, 59.157
1358.129, 49.720
1359.314, 60.606
1360.498, 39.388
1361.683, 130.130
1362.867, 104.890
1364.051, 40.602
1365.235, 115.958
1366.419, 41.649
1367.602, 63.065
1368.785, 9.615
1369.968, 21.141
1371.151, 38.629
1372.334, 49.372
1373.517, 20.021
1374.699, 41.447
1375.881, 41.815
1377.063, 75.060
1378.245, 144.109
1379.426, 16.598
1380.608, 50.798
1381.789, 105.515
1382.970, 43.799
1384.150, 84.213
1385.331, 16.066
1386.511, 23.193
1387.691, 98.953
1388.871, 31.800
1390.051, 52.684
1391.231, 70.414
1392.410, 49.274
1393.589, 29.740
1394.768, 73.283
1395.947, 60.142
1397.126, 76.918
1398.304, 66.458
1399.483, 26.785
1400.661, 104.917
1401.838, 40.500
1403.016, 97.934
1404.194, 102.133
1405.371, 46.105
1406.548, 70.848
1407.725, 115.017
1408.901, 61.634
1410.078, 123.042
1411.254, 71.028
1412.430, 51.250
1413.606, 79.172
1414.782, 28.643
1415.958, 64.878
1417.133, 115.759
1418.308, 18.035
1419.483, 83.379
1420.658, 53.180
1421.832, 24.701
1423.007, 78.767
1424.181, 75.840
1425.355, 59.593
1426.529, 106.560
1427.702, 37.161
1428.876, 48.297
1430.049, 92.416
1431.222, 40.516
1432.395, 80.482
1433.567, 73.305
1434.740, 97.440
1435.912, 86.517
1437.084, 73.390
1438.256, 48.276
1439.428, 92.222
1440.599, 58.183
1441.770, 59.295
1442.942, 93.585
1444.112, 4.967
1445.283, 71.585
1446.454, 57.691
1447.624, 16.133
1448.794, 104.644
1449.964, 51.880
1451.134, 62.246
1452.303, 58.543
1453.473, 51.165
1454.642, 82.500
1455.811, 89.145
1456.980, 66.286
1458.148, 68.654
1459.317, 71.285
1460.485, 32.656
1461.653, 73.287
1462.821, 53.972
1463.989, 79.704
1465.156, 122.242
1466.323, 54.685
1467.490, 67.566
1468.657, 99.128
1469.824, 41.997
1470.991, 49.719
1472.157, 94.585
1473.323, 12.366
1474.489, 108.220
1475.655, 92.057
1476.820, 40.887
1477.986, 99.717
1479.151, 31.764
1480.316, 46.608
1481.481, 84.346
1482.645, 19.042
1483.810, 57.757
1484.974, 90.485
1486.138, 14.758
1487.302, 80.956
1488.465, 77.739
1489.629, 45.526
1490.792, 107.326
1491.955, 47.126
1493.118, 58.917
1494.281, 101.082
1495.443, 39.800
1496.606, 59.517
1497.768, 73.425
1498.930, 16.223
1500.091, 29.886
1501.253, 35.098
1502.414, 2.163
1503.575, 78.028
1504.736, 45.698
1505.897, 48.987
1507.058, 86.604
1508.218, 24.653
1509.379, 31.248
1510.539, 83.959
1511.698, 0.246
1512.858, 0.000
##END=



