##NAMES=Axinite-(Fe)
##RRUFFID=R050026
##IDEAL CHEMISTRY=Ca_4_Fe^2+^_2_Al_4_[B_2_Si_8_O_30_](OH)_2_
##LOCALITY=Pouyva mine, Polar Urals, Western Siberian Region, Russia
##OWNER=RRUFF
##SOURCE=Rock Currier
##DESCRIPTION=Brown transparent flat crystal
##STATUS=The identification of this mineral has been confirmed by X-ray diffraction and chemical analysis
##URL=rruff.info/R050026
##MEASURED CHEMISTRY=Ca_2.00_(Fe^2+^_0.61_Mn_0.26_Mg_0.13_)Al_2.00_BSi_4_O_15_(OH)
##PIN_ID=L00053
##ORIENTATION=Laser parallel to (0 1 1). Fiducial mark perpendicular to laser is parallel to a [1 0 0]
91.284, 0.000
92.678, 2.902
94.071, 64.885
95.465, 128.263
96.858, 293.501
98.251, 391.783
99.644, 486.425
101.036, 709.272
102.428, 1290.947
103.820, 823.013
105.212, 995.335
106.604, 1422.824
107.995, 1946.420
109.387, 2952.407
110.777, 3624.290
112.168, 3896.809
113.559, 3451.427
114.949, 2387.774
116.339, 1695.127
117.729, 1070.165
119.119, 772.239
120.508, 374.417
121.897, 200.764
123.286, 75.337
124.675, 73.216
126.063, 106.557
127.452, 22.576
128.840, 73.947
130.228, 25.035
131.615, 4.560
133.003, 50.738
134.390, 165.705
135.777, 292.591
137.164, 499.036
138.550, 1076.553
139.937, 1212.652
141.323, 1516.631
142.709, 1486.238
144.094, 1215.265
145.480, 1137.858
146.865, 1008.068
148.250, 1134.926
149.635, 1248.458
151.019, 1465.682
152.403, 1408.617
153.788, 1100.278
155.171, 789.678
156.555, 572.829
157.939, 468.969
159.322, 366.657
160.705, 374.885
162.088, 423.670
163.470, 498.233
164.853, 585.683
166.235, 793.981
167.617, 941.698
168.998, 1344.033
170.380, 1786.524
171.761, 2285.976
173.142, 2475.386
174.523, 2530.802
175.904, 2060.353
177.284, 1653.040
178.664, 1205.855
180.044, 782.791
181.424, 617.834
182.803, 229.976
184.183, 178.204
185.562, 36.504
186.940, 97.869
188.319, 0.708
189.698, 61.765
191.076, 175.282
192.454, 428.826
193.831, 820.334
195.209, 1047.879
196.586, 1181.528
197.963, 987.328
199.340, 742.334
200.717, 775.495
202.093, 867.704
203.470, 1282.918
204.846, 1757.120
206.221, 2457.302
207.597, 2893.465
208.972, 3186.603
210.347, 3294.708
211.722, 2992.764
213.097, 2836.769
214.472, 2419.724
215.846, 2010.631
217.220, 1613.491
218.594, 1216.306
219.967, 1121.069
221.341, 784.728
222.714, 635.241
224.087, 370.618
225.460, 249.948
226.832, 85.243
228.204, 6.506
229.577, 45.062
230.948, 185.803
232.320, 205.286
233.692, 152.320
235.063, 150.470
236.434, 135.399
237.805, 80.917
239.175, 62.944
240.545, 11.889
241.916, 125.666
243.286, 186.304
244.655, 356.625
246.025, 392.628
247.394, 474.364
248.763, 589.926
250.132, 508.437
251.501, 664.918
252.869, 731.391
254.237, 845.855
255.605, 1056.310
256.973, 1189.161
258.340, 1300.036
259.708, 1024.097
261.075, 881.183
262.442, 894.250
263.808, 836.272
265.175, 988.238
266.541, 1039.119
267.907, 1349.900
269.273, 1678.588
270.639, 1930.187
272.004, 2422.697
273.369, 2782.116
274.734, 3387.391
276.099, 3427.388
277.463, 3590.270
278.828, 3475.085
280.192, 3115.829
281.556, 2829.487
282.919, 2209.063
284.283, 2042.560
285.646, 1725.981
287.009, 1626.329
288.372, 1589.523
289.734, 1462.613
291.097, 1604.745
292.459, 1442.413
293.821, 1671.982
295.183, 1712.190
296.544, 1845.045
297.905, 2104.485
299.266, 2058.827
300.627, 2380.296
301.988, 2446.639
303.348, 2842.649
304.709, 3250.642
306.069, 3620.407
307.428, 4212.735
308.788, 4123.043
310.147, 4044.035
311.507, 3368.788
312.865, 2780.386
314.224, 2506.639
315.583, 2101.444
316.941, 2327.996
318.299, 2381.509
319.657, 2739.984
321.015, 2803.420
322.372, 2648.814
323.729, 2534.126
325.086, 1950.252
326.443, 1834.982
327.800, 1522.385
329.156, 1562.525
330.512, 1574.507
331.868, 1352.442
333.224, 1299.358
334.579, 1029.264
335.935, 905.159
337.290, 917.044
338.645, 966.920
339.999, 1196.804
341.354, 1443.688
342.708, 2057.590
344.062, 2445.487
345.416, 2902.376
346.769, 3009.723
348.123, 2735.482
349.476, 2836.800
350.829, 2657.155
352.182, 2948.593
353.534, 2873.978
354.887, 2632.730
356.239, 2222.194
357.591, 1598.978
358.942, 1275.746
360.294, 863.497
361.645, 657.230
362.996, 504.946
364.347, 374.643
365.698, 306.320
367.048, 188.296
368.398, 173.358
369.748, 126.578
371.098, 105.657
372.448, 209.550
373.797, 154.509
375.146, 205.085
376.495, 157.564
377.844, 204.019
379.192, 249.450
380.540, 219.859
381.889, 337.246
383.236, 420.613
384.584, 560.963
385.932, 865.294
387.279, 1208.110
388.626, 1721.325
389.973, 1965.533
391.319, 2310.003
392.666, 2274.259
394.012, 2039.688
395.358, 1748.890
396.704, 1392.425
398.049, 1106.084
399.394, 779.702
400.740, 664.754
402.084, 513.955
403.429, 445.831
404.774, 413.693
406.118, 319.228
407.462, 389.754
408.806, 384.429
410.150, 513.436
411.493, 694.437
412.836, 896.429
414.179, 1435.415
415.522, 2110.393
416.865, 3233.364
418.207, 4103.327
419.549, 4284.262
420.891, 4162.166
422.233, 3258.040
423.575, 2861.884
424.916, 2544.696
426.257, 2572.477
427.598, 2788.228
428.939, 2762.948
430.279, 3066.639
431.619, 2777.299
432.959, 2636.931
434.299, 2243.533
435.639, 1792.106
436.978, 1436.652
438.318, 1015.170
439.657, 890.662
440.996, 791.127
442.334, 844.566
443.673, 1049.979
445.011, 1099.367
446.349, 1069.604
447.687, 1173.130
449.024, 857.442
450.361, 637.899
451.699, 350.164
453.036, 256.404
454.372, 141.628
455.709, 55.844
457.045, 51.033
458.381, 11.194
459.717, 10.676
461.053, 94.585
462.388, 62.577
463.724, 28.635
465.059, 143.740
466.394, 110.952
467.728, 105.251
469.063, 6.517
470.397, 38.501
471.731, 23.317
473.065, 42.136
474.398, 104.793
475.732, 203.410
477.065, 315.904
478.398, 451.806
479.731, 713.743
481.063, 949.124
482.396, 1475.491
483.728, 1812.842
485.060, 2384.189
486.391, 2509.519
487.723, 2229.842
489.054, 1888.157
490.385, 1176.464
491.716, 851.772
493.047, 571.067
494.377, 413.362
495.708, 391.809
497.038, 317.466
498.368, 375.123
499.697, 374.656
501.027, 490.878
502.356, 640.810
503.685, 666.168
505.014, 942.251
506.342, 1002.955
507.671, 1149.323
508.999, 1413.244
510.327, 1351.687
511.655, 1554.898
512.982, 1495.146
514.310, 1518.416
515.637, 1313.700
516.964, 1005.980
518.291, 869.261
519.617, 607.539
520.944, 473.819
522.270, 320.097
523.596, 232.373
524.921, 220.282
526.247, 139.902
527.572, 111.912
528.897, 66.793
530.222, 92.264
531.547, 128.473
532.871, 105.642
534.196, 189.344
535.520, 213.466
536.844, 214.188
538.167, 292.296
539.491, 260.596
540.814, 354.766
542.137, 359.420
543.460, 477.417
544.783, 521.500
546.105, 541.571
547.427, 687.632
548.749, 587.687
550.071, 634.743
551.393, 483.812
552.714, 437.910
554.035, 428.071
555.356, 447.302
556.677, 482.588
557.998, 514.929
559.318, 551.321
560.638, 747.749
561.958, 671.208
563.278, 764.679
564.597, 703.149
565.917, 747.606
567.236, 828.062
568.555, 776.508
569.874, 926.944
571.192, 1021.368
572.511, 1195.781
573.829, 1370.184
575.147, 1331.575
576.464, 1366.955
577.782, 1235.324
579.099, 1155.683
580.416, 1145.030
581.733, 966.367
583.050, 1127.693
584.366, 1101.008
585.683, 1337.313
586.999, 1495.608
588.315, 1650.892
589.630, 1894.166
590.946, 1726.430
592.261, 1695.684
593.576, 1447.928
594.891, 1105.162
596.206, 981.387
597.520, 636.602
598.834, 499.807
600.148, 401.003
601.462, 258.189
602.776, 275.366
604.089, 138.534
605.402, 202.692
606.715, 182.841
608.028, 110.981
609.341, 209.111
610.653, 163.232
611.965, 212.265
613.277, 209.816
614.589, 261.972
615.901, 356.089
617.212, 284.874
618.523, 360.145
619.834, 370.257
621.145, 324.390
622.456, 305.666
623.766, 180.730
625.076, 202.868
626.386, 79.382
627.696, 3.858
629.006, 35.596
630.315, 86.482
631.624, 36.479
632.933, 36.189
634.242, 34.511
635.551, 0.635
636.859, 2.769
638.167, 142.513
639.475, 151.190
640.783, 195.380
642.090, 273.369
643.398, 297.349
644.705, 352.405
646.012, 355.742
647.318, 337.320
648.625, 288.975
649.931, 165.790
651.237, 166.077
652.543, 63.832
653.849, 9.631
655.155, 6.422
656.460, 62.796
657.765, 42.057
659.070, 101.350
660.375, 28.706
661.679, 7.087
662.984, 82.483
664.288, 12.932
665.592, 4.397
666.895, 31.125
668.199, 98.345
669.502, 138.848
670.805, 295.012
672.108, 423.841
673.411, 604.624
674.713, 827.526
676.016, 1019.937
677.318, 1344.794
678.620, 1325.692
679.921, 1413.454
681.223, 1236.372
682.524, 985.708
683.825, 918.814
685.126, 597.190
686.427, 561.024
687.727, 419.830
689.028, 319.941
690.328, 372.961
691.628, 241.339
692.927, 347.789
694.227, 371.239
695.526, 361.688
696.825, 507.135
698.124, 471.581
699.423, 687.023
700.721, 747.459
702.020, 977.891
703.318, 1408.316
704.616, 1508.737
705.913, 2016.152
707.211, 2579.562
708.508, 3126.967
709.805, 4283.367
711.102, 5113.761
712.399, 6348.149
713.695, 7553.530
714.992, 8072.905
716.288, 8642.275
717.584, 7691.639
718.879, 6754.995
720.175, 5772.343
721.470, 4275.686
722.765, 3781.021
724.060, 2786.350
725.355, 2259.674
726.649, 1862.990
727.944, 1429.300
729.238, 1317.604
730.532, 990.902
731.825, 826.194
733.119, 778.479
734.412, 581.759
735.705, 548.033
736.998, 465.301
738.291, 395.563
739.584, 389.821
740.876, 308.072
742.168, 330.318
743.460, 276.559
744.752, 300.794
746.043, 243.024
747.334, 234.564
748.626, 262.469
749.916, 216.685
751.207, 209.895
752.498, 236.101
753.788, 183.302
755.078, 306.499
756.368, 290.691
757.658, 359.878
758.947, 452.061
760.237, 473.177
761.526, 735.352
762.815, 796.522
764.104, 926.521
765.392, 1187.684
766.680, 1181.842
767.969, 1370.998
769.257, 1427.151
770.544, 1254.306
771.832, 1352.460
773.119, 1106.618
774.406, 1023.780
775.693, 828.969
776.980, 646.178
778.267, 637.396
779.553, 453.655
780.839, 429.945
782.125, 363.146
783.411, 247.036
784.697, 286.088
785.982, 128.113
787.267, 191.274
788.552, 115.452
789.837, 83.731
791.122, 82.583
792.406, 6.378
793.690, 1.293
794.974, 8.025
796.258, 36.662
797.542, 13.623
798.825, 13.096
800.108, 13.831
801.391, 0.582
802.674, 36.342
803.957, 27.870
805.239, 30.919
806.522, 4.731
807.804, 48.287
809.085, 104.081
810.367, 180.864
811.649, 182.756
812.930, 234.948
814.211, 264.417
815.492, 149.448
816.772, 257.740
818.053, 123.400
819.333, 5.390
820.613, 74.824
821.893, 79.253
823.173, 68.116
824.452, 63.012
825.732, 73.940
827.011, 22.906
828.290, 59.882
829.568, 34.887
830.847, 59.909
832.125, 43.960
833.403, 42.031
834.681, 45.122
835.959, 17.233
837.236, 19.351
838.514, 6.476
839.791, 22.398
841.068, 17.722
842.345, 31.153
843.621, 57.032
844.898, 34.916
846.174, 148.803
847.450, 143.692
848.726, 133.585
850.001, 227.486
851.277, 186.390
852.552, 297.297
853.827, 305.207
855.102, 250.120
856.376, 291.044
857.651, 220.971
858.925, 331.902
860.199, 315.842
861.473, 267.784
862.746, 378.731
864.020, 295.681
865.293, 376.635
866.566, 336.596
867.839, 308.560
869.112, 451.543
870.384, 368.534
871.656, 347.528
872.928, 427.538
874.200, 357.554
875.472, 466.578
876.744, 431.605
878.015, 392.638
879.286, 536.675
880.557, 434.718
881.828, 533.767
883.098, 526.830
884.369, 593.897
885.639, 682.969
886.909, 705.047
888.178, 808.130
889.448, 870.225
890.717, 944.333
891.987, 1151.446
893.256, 1242.571
894.524, 1445.706
895.793, 1683.849
897.061, 1727.009
898.330, 2132.174
899.598, 2086.354
900.865, 2234.542
902.133, 2401.734
903.401, 2241.934
904.668, 2346.140
905.935, 2280.352
907.202, 2207.572
908.468, 2367.796
909.735, 2101.032
911.001, 2114.281
912.267, 2002.537
913.533, 1753.800
914.799, 1707.069
916.064, 1361.344
917.330, 1252.635
918.595, 1156.931
919.860, 954.240
921.124, 1022.555
922.389, 841.877
923.653, 849.208
924.918, 881.546
926.182, 769.891
927.445, 1000.245
928.709, 993.605
929.972, 967.979
931.236, 1099.359
932.499, 938.745
933.761, 1070.138
935.024, 981.539
936.286, 878.947
937.549, 930.363
938.811, 809.809
940.073, 832.271
941.334, 907.751
942.596, 797.248
943.857, 984.753
945.118, 972.842
946.379, 1074.538
947.640, 1262.734
948.900, 1298.380
950.161, 1504.793
951.421, 1672.884
952.681, 1720.944
953.940, 2054.779
955.200, 2066.540
956.459, 2306.144
957.719, 2636.279
958.978, 2819.949
960.236, 3453.578
961.495, 3750.217
962.753, 4210.865
964.012, 4842.540
965.270, 4598.246
966.527, 4932.989
967.785, 4526.752
969.043, 4096.527
970.300, 4086.334
971.557, 3445.159
972.814, 3630.996
974.071, 3606.137
975.327, 3708.999
976.583, 4203.204
977.840, 4297.745
979.095, 4768.337
980.351, 5045.812
981.607, 4676.784
982.862, 4740.313
984.117, 4362.805
985.372, 4076.439
986.627, 4035.917
987.882, 3579.987
989.136, 3783.970
990.390, 3730.581
991.644, 3567.562
992.898, 3813.698
994.152, 3524.725
995.405, 3639.747
996.659, 3784.781
997.912, 3568.825
999.165, 3969.879
1000.417, 3997.197
1001.670, 4129.274
1002.922, 4606.367
1004.174, 4248.466
1005.426, 4711.577
1006.678, 4414.338
1007.930, 3888.469
1009.181, 3866.652
1010.432, 3123.857
1011.683, 2776.018
1012.934, 2708.189
1014.185, 1948.416
1015.435, 1828.607
1016.685, 1521.191
1017.935, 1357.404
1019.185, 1348.251
1020.435, 1134.921
1021.684, 1104.170
1022.934, 1061.909
1024.183, 1050.744
1025.432, 1174.370
1026.680, 1111.658
1027.929, 1219.954
1029.177, 1233.262
1030.425, 1103.041
1031.673, 1020.366
1032.921, 940.739
1034.169, 777.082
1035.416, 778.434
1036.663, 621.795
1037.911, 678.164
1039.157, 602.219
1040.404, 611.197
1041.650, 609.593
1042.897, 600.544
1044.143, 609.541
1045.389, 636.758
1046.634, 589.591
1047.880, 652.029
1049.125, 599.674
1050.371, 624.198
1051.615, 801.664
1052.860, 723.380
1054.105, 820.866
1055.349, 883.360
1056.593, 914.998
1057.837, 957.505
1059.081, 824.760
1060.325, 768.135
1061.568, 800.663
1062.812, 667.248
1064.055, 653.795
1065.298, 551.349
1066.540, 439.445
1067.783, 532.061
1069.025, 368.699
1070.267, 392.346
1071.509, 480.929
1072.751, 398.931
1073.993, 509.525
1075.234, 480.180
1076.475, 529.190
1077.716, 716.860
1078.957, 724.791
1080.198, 835.511
1081.438, 975.135
1082.679, 961.802
1083.919, 1255.435
1085.159, 1074.073
1086.398, 1057.764
1087.638, 1047.441
1088.877, 799.115
1090.116, 771.895
1091.355, 641.597
1092.594, 561.384
1093.833, 582.124
1095.071, 432.875
1096.309, 405.715
1097.547, 442.404
1098.785, 351.904
1100.023, 448.621
1101.260, 416.342
1102.498, 399.693
1103.735, 462.900
1104.972, 434.711
1106.208, 474.523
1107.445, 483.294
1108.681, 381.200
1109.918, 434.119
1111.154, 374.904
1112.389, 273.762
1113.625, 338.625
1114.860, 220.415
1116.096, 231.509
1117.331, 185.447
1118.566, 142.240
1119.800, 168.731
1121.035, 116.527
1122.269, 107.323
1123.503, 133.252
1124.737, 76.091
1125.971, 158.028
1127.205, 107.925
1128.438, 39.877
1129.671, 103.009
1130.904, 38.915
1132.137, 26.888
1133.370, 76.284
1134.602, 17.227
1135.834, 56.284
1137.066, 47.336
1138.298, 41.300
1139.530, 81.455
1140.762, 45.897
1141.993, 1.230
1143.224, 25.128
1144.455, 19.177
1145.686, 51.363
1146.917, 28.513
1148.147, 32.527
1149.377, 64.224
1150.607, 1.419
1151.837, 5.366
1153.067, 17.758
1154.296, 37.023
1155.526, 17.046
1156.755, 1.819
1157.984, 25.845
1159.213, 30.157
1160.441, 10.055
1161.670, 1.910
1162.898, 45.204
1164.126, 11.528
1165.354, 23.610
1166.581, 64.362
1167.809, 11.486
1169.036, 17.100
1170.263, 44.918
1171.490, 12.944
1172.717, 8.455
1173.943, 3.470
1175.170, 6.415
1176.396, 28.733
1177.622, 9.331
1178.848, 15.509
1180.073, 34.635
1181.299, 15.232
1182.524, 15.195
1183.749, 22.190
1184.974, 46.993
1186.199, 26.962
1187.423, 25.239
1188.648, 22.850
1189.872, 23.646
1191.096, 7.740
1192.320, 10.970
1193.543, 36.248
1194.767, 43.436
1195.990, 32.204
1197.213, 6.353
1198.436, 30.695
1199.659, 0.849
1200.881, 34.425
1202.104, 78.950
1203.326, 3.779
1204.548, 38.342
1205.770, 5.837
1206.991, 23.251
1208.213, 68.215
1209.434, 24.475
1210.655, 43.926
1211.876, 39.466
1213.096, 16.099
1214.317, 26.314
1215.537, 8.000
1216.757, 23.508
1217.977, 55.886
1219.197, 3.469
1220.417, 56.826
1221.636, 30.244
1222.855, 4.688
1224.074, 31.015
1225.293, 9.666
1226.512, 22.631
1227.731, 88.920
1228.949, 39.217
1230.167, 52.599
1231.385, 68.858
1232.603, 39.239
1233.820, 44.487
1235.038, 46.738
1236.255, 24.806
1237.472, 45.023
1238.689, 26.324
1239.906, 39.524
1241.122, 38.732
1242.338, 19.097
1243.555, 79.084
1244.771, 3.230
1245.986, 58.513
1247.202, 90.629
1248.417, 25.251
1249.633, 11.833
1250.848, 48.907
1252.063, 49.984
1253.277, 88.040
1254.492, 34.126
1255.706, 32.244
1256.920, 65.269
1258.134, 49.284
1259.348, 14.519
1260.562, 94.453
1261.775, 22.417
1262.988, 34.365
1264.201, 87.298
1265.414, 10.219
1266.627, 114.124
1267.839, 72.021
1269.052, 46.392
1270.264, 118.262
1271.476, 54.118
1272.688, 69.027
1273.899, 57.848
1275.111, 31.654
1276.322, 112.445
1277.533, 64.221
1278.744, 20.985
1279.955, 124.733
1281.165, 53.467
1282.376, 56.493
1283.586, 80.192
1284.796, 38.877
1286.006, 35.648
1287.215, 45.348
1288.425, 15.076
1289.634, 61.533
1290.843, 38.119
1292.052, 41.760
1293.261, 110.304
1294.469, 12.581
1295.678, 36.115
1296.886, 81.609
1298.094, 25.092
1299.302, 34.600
1300.509, 46.416
1301.717, 38.857
1302.924, 68.296
1304.131, 57.930
1305.338, 92.442
1306.545, 49.939
1307.752, 39.052
1308.958, 28.490
1310.164, 36.443
1311.370, 4.763
1312.576, 72.443
1313.782, 11.297
1314.987, 44.616
1316.193, 40.389
1317.398, 11.064
1318.603, 44.939
1319.807, 41.148
1321.012, 16.342
1322.216, 41.521
1323.421, 60.218
1324.625, 55.362
1325.829, 45.453
1327.032, 32.569
1328.236, 29.675
1329.439, 57.757
1330.642, 25.826
1331.845, 69.203
1333.048, 18.651
1334.251, 4.674
1335.453, 27.520
1336.656, 41.464
1337.858, 49.173
1339.060, 49.576
1340.261, 3.258
1341.463, 77.992
1342.664, 1.841
1343.866, 11.258
1345.067, 60.387
1346.267, 78.256
1347.468, 20.112
1348.669, 59.429
1349.869, 20.259
1351.069, 48.334
1352.269, 92.284
1353.469, 14.923
1354.668, 70.805
1355.868, 46.567
1357.067, 80.317
1358.266, 74.518
1359.465, 20.292
1360.664, 38.942
1361.862, 79.612
1363.061, 25.279
1364.259, 135.520
1365.457, 51.161
1366.655, 42.733
1367.852, 123.933
1369.050, 71.691
1370.247, 74.946
1371.444, 78.541
1372.641, 62.049
1373.838, 39.402
1375.035, 78.722
1376.231, 36.038
1377.427, 80.328
1378.623, 64.480
1379.819, 0.420
1381.015, 83.528
1382.211, 42.927
1383.406, 89.130
1384.601, 56.008
1385.796, 82.024
1386.991, 57.002
1388.185, 108.941
1389.380, 26.624
1390.574, 112.311
1391.768, 59.148
1392.962, 81.332
1394.156, 98.154
1395.350, 58.983
1396.543, 84.774
1397.736, 52.374
1398.929, 41.609
1400.122, 97.310
1401.315, 94.996
1402.507, 22.244
1403.700, 81.814
1404.892, 58.119
1406.084, 72.543
1407.276, 75.834
1408.467, 88.856
1409.659, 89.884
1410.850, 56.092
1412.041, 0.520
1413.232, 57.567
1414.423, 100.202
1415.614, 38.051
1416.804, 123.264
1417.994, 83.515
1419.184, 71.539
1420.374, 130.939
1421.564, 86.084
1422.753, 111.943
1423.943, 58.782
1425.132, 5.586
1426.321, 86.995
1427.510, 123.719
1428.698, 23.765
1429.887, 137.878
1431.075, 42.274
1432.263, 43.491
1433.451, 59.147
1434.639, 27.680
1435.827, 58.784
1437.014, 92.795
1438.201, 36.967
1439.388, 82.408
1440.575, 47.166
1441.762, 31.170
1442.949, 55.089
1444.135, 89.197
1445.321, 27.264
1446.507, 80.126
1447.693, 3.088
1448.879, 119.154
1450.064, 145.925
1451.250, 41.817
1452.435, 83.701
1453.620, 80.269
1454.805, 49.143
1455.989, 105.018
1457.174, 23.824
1458.358, 84.328
1459.542, 117.087
1460.726, 75.361
1461.910, 57.105
1463.093, 68.855
1464.277, 39.577
1465.460, 51.941
1466.643, 106.420
1467.826, 51.119
1469.009, 102.815
1470.191, 29.499
1471.373, 34.220
1472.556, 82.896
1473.738, 63.210
1474.919, 51.884
1476.101, 126.382
1477.283, 27.197
1478.464, 71.928
1479.645, 33.578
1480.826, 41.355
1482.007, 44.897
1483.187, 31.046
1484.368, 56.777
1485.548, 73.497
1486.728, 40.206
1487.908, 59.670
1489.088, 52.365
1490.268, 7.940
1491.447, 102.779
1492.626, 97.538
1493.805, 76.271
1494.984, 43.081
1496.163, 53.919
1497.341, 26.743
1498.520, 63.601
1499.698, 77.472
1500.876, 6.484
1502.054, 72.529
1503.232, 17.641
1504.409, 30.841
1505.586, 62.350
1506.763, 23.767
1507.940, 44.044
1509.117, 83.314
1510.294, 1.109
1511.470, 18.816
1512.647, 5.381
1513.823, 2.309
1514.999, 24.811
1516.174, 0.000
##END=



