##NAMES=Axinite-(Fe)
##RRUFFID=R060558
##IDEAL CHEMISTRY=Ca_4_Fe^2+^_2_Al_4_[B_2_Si_8_O_30_](OH)_2_
##LOCALITY=unknown
##OWNER=RRUFF
##SOURCE=Gemological Institute of America
##DESCRIPTION=Brown flattened crystal
##STATUS=The identification of this mineral has been confirmed by X-ray diffraction and chemical analysis
##URL=rruff.info/R060558
##MEASURED CHEMISTRY=Ca_2.00_(Fe^2+^_0.60_Mg_0.35_Mn_0.05_)_Î£=1_Al_2.00_BSi_4.00_O_15_(OH) ; B not measured
##PIN_ID=M01160
##ORIENTATION=Laser parallel to b* (0 1 0). Fiducial mark perpendicular to laser is parallel to -c [0 0 -1]
97.76500, 0.0000000E+00
99.01100, 571.2939
100.2570, 1465.586
101.5030, 2372.739
102.7490, 3739.733
103.9940, 5718.958
105.2390, 8021.239
106.4840, 10610.26
107.7290, 11773.21
108.9740, 11450.62
110.2180, 9466.760
111.4620, 7491.693
112.7060, 5890.127
113.9500, 4890.674
115.1940, 3628.960
116.4370, 2739.234
117.6800, 1978.253
118.9230, 1352.188
120.1660, 1042.631
121.4090, 752.2434
122.6510, 518.7461
123.8940, 172.9160
125.1360, 62.42725
126.3770, 171.4272
127.6190, 296.1948
128.8600, 248.8218
130.1020, 241.3884
131.3430, 151.6050
132.5840, 33.47046
133.8240, 337.9521
135.0650, 687.5327
136.3050, 1162.262
137.5450, 1824.189
138.7850, 2552.349
140.0250, 3028.749
141.2640, 3360.388
142.5030, 3392.247
143.7430, 3289.266
144.9810, 3119.426
146.2200, 3073.741
147.4590, 3229.222
148.6970, 3500.881
149.9350, 3704.726
151.1730, 4090.764
152.4110, 4224.005
153.6480, 4277.480
154.8860, 3864.235
156.1230, 3529.285
157.3600, 3342.627
158.5960, 3138.252
159.8330, 2999.153
161.0690, 3070.323
162.3050, 3156.758
163.5410, 3353.612
164.7770, 3678.766
166.0130, 4255.266
167.2480, 5034.283
168.4830, 5828.974
169.7180, 6665.430
170.9530, 7110.205
172.1880, 6850.335
173.4220, 6424.975
174.6560, 5762.144
175.8900, 4614.790
177.1240, 3651.846
178.3580, 2693.253
179.5910, 1950.933
180.8250, 1277.773
182.0580, 892.7429
183.2900, 575.8525
184.5230, 461.0869
185.7560, 648.2788
186.9880, 746.0291
188.2200, 1192.262
189.4520, 1764.260
190.6830, 2706.415
191.9150, 3840.782
193.1460, 4826.362
194.3770, 5332.147
195.6080, 5120.137
196.8390, 4671.331
198.0700, 4418.727
199.3000, 4358.321
200.5300, 4686.112
201.7600, 5245.096
202.9900, 5999.271
204.2190, 6674.637
205.4490, 7362.195
206.6780, 7865.116
207.9070, 7707.584
209.1360, 7611.754
210.3640, 7176.589
211.5930, 6694.934
212.8210, 6246.501
214.0490, 5728.178
215.2770, 5061.962
216.5040, 4516.853
217.7320, 3958.853
218.9590, 3374.960
220.1860, 2913.175
221.4130, 2288.497
222.6400, 1702.925
223.8660, 1227.461
225.0920, 765.1047
226.3190, 422.8577
227.5450, 150.7209
228.7700, 92.30640
229.9960, 237.2249
231.2210, 375.0364
232.4460, 413.7419
233.6710, 468.3428
234.8960, 384.8401
236.1210, 286.2351
237.3450, 62.54175
238.5690, 247.0774
239.7930, 523.4453
241.0170, 713.6182
242.2410, 857.9106
243.4640, 1094.481
244.6870, 1154.305
245.9100, 1341.620
247.1330, 1517.901
248.3560, 1828.712
249.5780, 1995.484
250.8000, 2229.854
252.0230, 2689.761
253.2440, 3002.945
254.4660, 3357.162
255.6880, 3466.644
256.9090, 3625.598
258.1300, 3906.052
259.3510, 4192.322
260.5720, 4676.445
261.7920, 4880.819
263.0130, 5568.589
264.2330, 6349.556
265.4530, 7309.755
266.6730, 8760.168
267.8920, 9374.788
269.1120, 10403.90
270.3310, 11092.34
271.5500, 11644.48
272.7690, 11670.12
273.9880, 11402.21
275.2060, 10911.22
276.4240, 10010.08
277.6430, 8929.252
278.8600, 7914.812
280.0780, 6781.089
281.2960, 5807.100
282.5130, 4999.508
283.7300, 4377.016
284.9470, 4002.624
286.1640, 3864.331
287.3810, 3873.134
288.5970, 4009.034
289.8130, 4036.028
291.0290, 4196.117
292.2450, 4789.297
293.4610, 5165.573
294.6760, 5580.938
295.8910, 6299.397
297.1060, 6786.946
298.3210, 7421.583
299.5360, 8102.308
300.7510, 8561.121
301.9650, 8934.021
303.1790, 9634.007
304.3930, 9959.074
305.6070, 10356.22
306.8200, 10532.46
308.0340, 10501.76
309.2470, 10175.15
310.4600, 9514.588
311.6730, 8492.596
312.8850, 7769.153
314.0980, 7022.864
315.3100, 6661.988
316.5220, 6681.870
317.7340, 6718.313
318.9460, 6684.730
320.1570, 6662.962
321.3690, 6083.104
322.5800, 5395.164
323.7910, 4745.582
325.0010, 4187.394
326.2120, 3713.892
327.4220, 3311.456
328.6330, 3115.084
329.8430, 3037.776
331.0520, 2978.532
332.2620, 2873.350
333.4720, 2730.234
334.6810, 2631.186
335.8900, 2761.206
337.0990, 3101.294
338.3070, 3574.448
339.5160, 4312.668
340.7240, 5332.954
341.9320, 6535.303
343.1400, 7982.716
344.3480, 9065.191
345.5560, 9802.727
346.7630, 9997.335
347.9700, 9680.045
349.1770, 9374.857
350.3840, 9393.779
351.5910, 9612.812
352.7970, 9315.943
354.0040, 9004.146
355.2100, 8055.413
356.4160, 6643.726
357.6220, 5369.085
358.8270, 4115.487
360.0320, 3041.929
361.2380, 2157.413
362.4430, 1477.938
363.6470, 995.5029
364.8520, 639.1074
366.0560, 387.7510
367.2610, 307.4331
368.4650, 260.1528
369.6690, 140.9099
370.8720, 197.7048
372.0760, 275.5425
373.2790, 326.4578
374.4820, 357.1448
375.6850, 467.0000
376.8880, 446.7007
378.0910, 437.1528
379.2930, 564.3376
380.4950, 737.9219
381.6970, 1043.489
382.8990, 1551.679
384.1010, 2130.837
385.3020, 2901.695
386.5040, 3833.449
387.7050, 5090.152
388.9060, 6194.116
390.1060, 7263.999
391.3070, 8147.898
392.5070, 8331.069
393.7080, 7683.877
394.9080, 6815.685
396.1070, 5552.492
397.3070, 4542.301
398.5070, 3575.115
399.7060, 2939.940
400.9050, 2510.775
402.1040, 2360.625
403.3030, 2092.491
404.5010, 2039.378
405.7000, 1995.296
406.8980, 2009.251
408.0960, 2257.248
409.2940, 2751.283
410.4910, 3267.358
411.6890, 4185.470
412.8860, 5420.620
414.0830, 7260.806
415.2800, 9565.035
416.4770, 12203.32
417.6730, 14111.71
418.8690, 14784.22
420.0660, 13726.88
421.2620, 11846.67
422.4570, 10405.60
423.6530, 8992.631
424.8480, 8137.711
426.0440, 7479.827
427.2390, 7518.969
428.4340, 7318.138
429.6280, 7174.333
430.8230, 6757.361
432.0170, 6230.275
433.2110, 5637.065
434.4050, 4853.356
435.5990, 4025.671
436.7930, 3191.008
437.9860, 2573.365
439.1800, 2274.744
440.3730, 2128.143
441.5660, 2264.562
442.7580, 2649.000
443.9510, 2993.456
445.1430, 3194.929
446.3350, 3151.421
447.5270, 2764.929
448.7190, 2109.453
449.9110, 1509.992
451.1020, 960.5464
452.2930, 554.1152
453.4850, 209.6978
454.6750, 19.70630
455.8660, 186.1084
457.0570, 237.5786
458.2470, 289.1443
459.4370, 393.8340
460.6270, 447.7039
461.8170, 396.7837
463.0070, 439.0479
464.1960, 355.5200
465.3850, 304.1572
466.5750, 243.9336
467.7630, 57.81885
468.9520, 43.27881
470.1410, 243.3877
471.3290, 516.5071
472.5170, 664.6362
473.7050, 870.7751
474.8930, 1140.923
476.0810, 1457.079
477.2680, 1885.244
478.4560, 2599.415
479.6430, 3531.595
480.8300, 4641.781
482.0160, 6035.973
483.2030, 7868.171
484.3890, 9772.374
485.5760, 11357.58
486.7620, 11704.79
487.9480, 10668.01
489.1330, 8918.717
490.3190, 7023.323
491.5040, 5012.530
492.6890, 3519.781
493.8740, 2564.515
495.0590, 1937.107
496.2440, 1512.162
497.4280, 1284.085
498.6120, 1272.771
499.7960, 1386.980
500.9800, 1681.185
502.1640, 1757.384
503.3470, 2165.577
504.5310, 2433.766
505.7140, 2810.947
506.8970, 3153.122
508.0800, 3414.291
509.2620, 3526.452
510.4450, 3559.605
511.6270, 3477.751
512.8090, 3184.059
513.9910, 2712.417
515.1730, 2377.706
516.3550, 1727.271
517.5360, 1402.229
518.7170, 952.2153
519.8980, 583.7041
521.0790, 400.8621
522.2600, 306.5884
523.4400, 75.57446
524.6210, 47.06909
525.8010, 63.68359
526.9810, 56.91138
528.1610, 69.21826
529.3400, 34.62183
530.5200, 20.96313
531.6990, 52.31689
532.8780, 80.70190
534.0570, 126.0522
535.2360, 276.3784
536.4140, 390.6836
537.5930, 333.9678
538.7710, 369.2310
539.9490, 360.4724
541.1270, 348.6926
542.3040, 415.8906
543.4820, 378.0667
544.6590, 424.2202
545.8360, 437.3513
547.0130, 455.4595
548.1900, 443.5442
549.3670, 350.6226
550.5430, 260.7048
551.7190, 275.8047
552.8960, 256.9238
554.0710, 265.0698
555.2470, 289.2324
556.4230, 354.4028
557.5980, 581.5784
558.7730, 695.7480
559.9480, 808.8982
561.1230, 989.0303
562.2980, 1154.134
563.4720, 1225.207
564.6470, 1319.250
565.8210, 1485.261
566.9950, 1640.242
568.1690, 1912.190
569.3420, 2207.106
570.5160, 2576.990
571.6890, 3105.841
572.8620, 3513.659
574.0350, 3835.443
575.2080, 4010.193
576.3800, 3930.910
577.5530, 3954.592
578.7250, 3568.240
579.8970, 3398.852
581.0690, 3177.430
582.2410, 3159.972
583.4120, 3283.479
584.5830, 3400.949
585.7550, 3936.384
586.9260, 4306.782
588.0960, 4871.143
589.2670, 5268.467
590.4380, 5426.754
591.6080, 5307.005
592.7780, 4845.218
593.9480, 4188.391
595.1180, 3374.527
596.2870, 2665.875
597.4570, 2141.314
598.6260, 1642.375
599.7950, 1327.058
600.9640, 893.0303
602.1330, 721.4907
603.3010, 581.0229
604.4700, 438.7859
605.6380, 465.6824
606.8060, 366.6997
607.9740, 429.3994
609.1420, 613.7424
610.3090, 649.4348
611.4760, 777.0972
612.6440, 922.7300
613.8110, 1000.715
614.9770, 1123.313
616.1440, 1217.447
617.3110, 1300.959
618.4770, 1404.440
619.6430, 1442.890
620.8090, 1276.309
621.9750, 1212.697
623.1400, 1036.054
624.3060, 825.3794
625.4710, 546.6729
626.6360, 381.9348
627.8010, 214.1646
628.9660, 35.36230
630.1300, 79.49780
631.2950, 88.47632
632.4590, 104.5779
633.6230, 111.8118
634.7870, 93.18188
635.9510, 11.32104
637.1140, 34.75220
638.2780, 125.1228
639.4410, 348.4546
640.6040, 480.7537
641.7670, 576.0198
642.9290, 716.2529
644.0920, 763.4531
645.2540, 863.6201
646.4160, 717.7542
647.5780, 712.8550
648.7400, 560.9226
649.9020, 435.9573
651.0630, 274.9585
652.2250, 179.9265
653.3860, 89.85962
654.5470, 68.45923
655.7080, 88.21826
656.8680, 203.0850
658.0290, 149.2144
659.1890, 116.8140
660.3490, 40.87891
661.5090, 42.43579
662.6690, 37.51758
663.8280, 96.04639
664.9880, 215.0015
666.1470, 369.1006
667.3060, 572.7139
668.4650, 755.2231
669.6240, 1144.784
670.7820, 1450.079
671.9410, 1821.449
673.0990, 2307.776
674.2570, 2946.801
675.4150, 3469.149
676.5720, 3752.461
677.7300, 3836.589
678.8870, 3890.971
680.0450, 3467.170
681.2020, 3045.332
682.3590, 2465.457
683.5150, 2066.545
684.6720, 1666.596
685.8280, 1365.610
686.9840, 1139.588
688.1400, 923.7903
689.2960, 901.5007
690.4520, 840.4641
691.6070, 822.7930
692.7630, 1012.167
693.9180, 989.0085
695.0730, 1201.752
696.2280, 1484.074
697.3820, 1685.860
698.5370, 1923.639
699.6910, 2442.947
700.8450, 2925.468
701.9990, 3673.949
703.1530, 4541.391
704.3070, 5648.795
705.4600, 7122.858
706.6130, 8839.487
707.7660, 11002.78
708.9190, 13404.03
710.0720, 16521.24
711.2250, 19656.42
712.3770, 22451.55
713.5300, 24713.66
714.6820, 25737.72
715.8340, 25386.75
716.9850, 23579.74
718.1370, 20763.70
719.2880, 17529.62
720.4400, 14471.50
721.5910, 11855.35
722.7420, 9399.166
723.8930, 7594.946
725.0430, 6290.691
726.1940, 5044.402
727.3440, 4063.079
728.4940, 3491.723
729.6440, 3010.333
730.7940, 2608.910
731.9430, 2132.454
733.0930, 1799.965
734.2420, 1665.445
735.3910, 1397.898
736.5400, 1232.362
737.6890, 1133.849
738.8370, 951.3752
739.9860, 888.9685
741.1340, 851.6436
742.2820, 691.3870
743.4300, 614.2114
744.5780, 686.0950
745.7250, 644.0249
746.8730, 709.9858
748.0200, 686.9319
749.1670, 706.8496
750.3140, 798.7388
751.4610, 730.6001
752.6070, 881.4341
753.7540, 978.2407
754.9000, 1272.020
756.0460, 1336.773
757.1920, 1572.500
758.3380, 1808.201
759.4830, 2161.876
760.6280, 2447.526
761.7740, 2939.152
762.9190, 3252.752
764.0640, 3651.329
765.2080, 4162.881
766.3530, 4356.411
767.4970, 4585.429
768.6420, 4435.528
769.7860, 4543.008
770.9300, 4122.423
772.0730, 3739.333
773.2170, 3298.369
774.3600, 2804.920
775.5040, 2449.583
776.6470, 1984.462
777.7900, 1677.799
778.9320, 1380.120
780.0750, 1102.426
781.2170, 906.7168
782.3600, 743.9941
783.5020, 601.2571
784.6440, 449.5066
785.7850, 336.9102
786.9270, 283.9666
788.0680, 156.1777
789.2100, 97.37671
790.3510, 75.39404
791.4920, 16.34009
792.6320, 17.32471
793.7730, 51.99683
794.9130, 154.7444
796.0540, 204.5513
797.1940, 157.8674
798.3340, 171.8359
799.4730, 233.3440
800.6130, 117.1216
801.7520, 192.4160
802.8920, 144.5398
804.0310, 52.29077
805.1700, 12.03711
806.3090, 123.2437
807.4470, 258.5581
808.5860, 357.9036
809.7240, 614.2617
810.8620, 742.6282
812.0000, 987.9980
813.1380, 1107.370
814.2750, 1196.744
815.4130, 1006.121
816.5500, 942.5015
817.6870, 729.8855
818.8240, 667.2734
819.9610, 396.6655
821.0980, 299.0625
822.2340, 121.4646
823.3700, 29.87207
824.5070, 74.71436
825.6430, 122.3286
826.7780, 177.7402
827.9140, 185.7332
829.0500, 220.5542
830.1850, 182.4722
831.3200, 150.4658
832.4550, 145.5176
833.5900, 101.6233
834.7250, 39.76074
835.8590, 54.90308
836.9930, 37.94458
838.1280, 97.80298
839.2620, 119.6731
840.3950, 183.5544
841.5290, 240.4485
842.6630, 381.3550
843.7960, 403.2742
844.9290, 620.2070
846.0620, 705.1533
847.1950, 830.1145
848.3280, 885.0896
849.4600, 1046.080
850.5930, 1102.086
851.7250, 1153.108
852.8570, 1099.146
853.9890, 1071.200
855.1210, 1073.272
856.2520, 979.3606
857.3840, 906.4678
858.5150, 855.5928
859.6460, 847.7366
860.7770, 758.8997
861.9080, 769.0820
863.0380, 766.2837
864.1690, 725.5061
865.2990, 698.7490
866.4290, 790.0129
867.5590, 807.2983
868.6890, 808.6050
869.8190, 686.9338
870.9480, 737.2856
872.0770, 784.6599
873.2070, 876.0571
874.3360, 903.4790
875.4640, 947.9238
876.5930, 1067.393
877.7220, 1158.884
878.8500, 1249.401
879.9780, 1403.940
881.1060, 1530.509
882.2340, 1618.105
883.3620, 1747.729
884.4890, 1922.000
885.6170, 2121.368
886.7440, 2321.796
887.8710, 2629.558
888.9980, 2891.359
890.1240, 3213.191
891.2510, 3650.065
892.3770, 4151.988
893.5040, 4832.957
894.6300, 5363.960
895.7560, 6100.008
896.8810, 6902.093
898.0070, 7331.208
899.1330, 7891.369
900.2580, 8274.564
901.3830, 8694.806
902.5080, 8762.083
903.6330, 9084.420
904.7570, 9410.844
905.8820, 9580.353
907.0060, 9819.954
908.1300, 10100.66
909.2540, 10243.45
910.3780, 10113.31
911.5020, 9824.209
912.6250, 9356.173
913.7490, 8556.188
914.8720, 7650.255
915.9950, 6772.361
917.1180, 6014.505
918.2400, 5213.700
919.3630, 4483.934
920.4850, 4037.230
921.6080, 3522.560
922.7300, 3326.941
923.8520, 3075.371
924.9730, 2954.832
926.0950, 2969.337
927.2160, 3013.094
928.3380, 3016.260
929.4590, 3108.490
930.5800, 3235.917
931.7010, 3221.769
932.8210, 3239.030
933.9420, 3236.745
935.0620, 3122.946
936.1820, 3096.790
937.3020, 2865.070
938.4220, 2931.490
939.5420, 2836.737
940.6610, 2980.235
941.7810, 3195.775
942.9000, 3364.362
944.0190, 3630.990
945.1380, 3963.664
946.2570, 4475.396
947.3750, 5045.175
948.4940, 5632.996
949.6120, 6262.858
950.7300, 7022.763
951.8480, 7803.711
952.9660, 8347.708
954.0830, 9077.747
955.2010, 9646.831
956.3180, 10486.96
957.4350, 11170.12
958.5520, 11891.34
959.6690, 12974.33
960.7860, 14155.84
961.9020, 15125.09
963.0190, 16327.00
964.1350, 16834.87
965.2510, 17161.29
966.3670, 16867.82
967.4830, 16180.79
968.5980, 15049.29
969.7140, 13785.82
970.8290, 13059.82
971.9440, 12385.62
973.0590, 12074.48
974.1740, 12333.37
975.2880, 12697.32
976.4030, 13613.31
977.5170, 14459.36
978.6310, 15294.45
979.7450, 15921.59
980.8590, 15696.78
981.9730, 15555.03
983.0860, 14808.31
984.2000, 14095.65
985.3130, 13373.03
986.4260, 12563.46
987.5390, 12270.94
988.6520, 11904.46
989.7640, 12093.03
990.8770, 12158.65
991.9890, 12362.32
993.1010, 12239.04
994.2130, 12441.80
995.3250, 12620.61
996.4370, 12757.46
997.5480, 12999.37
998.6590, 13349.32
999.7710, 13956.32
1000.882, 14760.36
1001.993, 15283.46
1003.103, 15678.60
1004.214, 16112.78
1005.324, 16163.01
1006.434, 15838.28
1007.545, 14970.77
1008.655, 13452.13
1009.764, 12094.62
1010.874, 10546.08
1011.983, 9025.876
1013.093, 7825.418
1014.202, 6523.251
1015.311, 5577.749
1016.420, 4612.336
1017.528, 3924.748
1018.637, 3438.217
1019.745, 2970.754
1020.854, 2764.329
1021.962, 2522.417
1023.070, 2844.182
1024.177, 2511.084
1025.285, 3384.122
1026.392, 3916.996
1027.500, 3352.422
1028.607, 2729.589
1029.714, 2661.830
1030.821, 2502.915
1031.927, 2141.458
1033.034, 1906.753
1034.140, 1653.490
1035.246, 1422.611
1036.352, 1204.421
1037.458, 975.7300
1038.564, 813.0940
1039.670, 734.6572
1040.775, 792.5444
1041.880, 664.7168
1042.986, 652.0232
1044.090, 619.9465
1045.195, 607.6328
1046.300, 640.6892
1047.404, 689.6904
1048.509, 688.2593
1049.613, 711.3635
1050.717, 740.0945
1051.821, 730.6208
1052.925, 795.4570
1054.028, 806.5669
1055.132, 739.6836
1056.235, 860.8718
1057.338, 874.8914
1058.441, 878.8081
1059.544, 805.1340
1060.647, 840.6150
1061.749, 785.5679
1062.851, 748.9375
1063.954, 703.8521
1065.056, 645.5117
1066.158, 576.0898
1067.259, 481.2852
1068.361, 436.8772
1069.462, 402.0220
1070.564, 391.4014
1071.665, 395.8538
1072.766, 435.2405
1073.867, 494.9648
1074.967, 549.2168
1076.068, 678.1912
1077.168, 804.0520
1078.268, 983.7012
1079.368, 1157.001
1080.468, 1351.257
1081.568, 1526.278
1082.668, 1722.385
1083.767, 1805.862
1084.866, 1856.377
1085.966, 1852.758
1087.065, 1686.343
1088.163, 1435.589
1089.262, 1236.187
1090.361, 1123.558
1091.459, 913.8831
1092.557, 798.0059
1093.655, 702.3120
1094.753, 695.1621
1095.851, 633.2090
1096.949, 682.4146
1098.046, 713.7129
1099.143, 704.4839
1100.241, 926.2119
1101.338, 1049.416
1102.434, 1079.775
1103.531, 1144.637
1104.628, 1307.611
1105.724, 1359.302
1106.820, 1399.197
1107.916, 1477.190
1109.012, 1438.050
1110.108, 1298.026
1111.204, 1240.156
1112.299, 1205.395
1113.395, 1076.387
1114.490, 949.4783
1115.585, 845.5271
1116.680, 701.4727
1117.775, 631.2703
1118.869, 521.9819
1119.964, 472.7874
1121.058, 386.0769
1122.152, 396.1064
1123.246, 255.6128
1124.340, 285.7974
1125.434, 272.9084
1126.527, 235.7668
1127.620, 184.5356
1128.714, 155.8853
1129.807, 135.7512
1130.900, 164.4185
1131.992, 165.3022
1133.085, 72.81763
1134.178, 64.45605
1135.270, 11.26318
1136.362, 70.04541
1137.454, 86.88184
1138.546, 10.26440
1139.638, 67.45190
1140.729, 3.592529
1141.821, 14.41992
1142.912, 15.85620
1144.003, 35.73291
1145.094, 43.61841
1146.185, 32.86841
1147.276, 33.20605
1148.366, 50.61597
1149.456, 49.77588
1150.547, 68.57300
1151.637, 67.09717
1152.727, 72.94800
1153.816, 37.23779
1154.906, 75.72949
1155.995, 98.23438
1157.085, 93.34277
1158.174, 32.80225
1159.263, 77.57031
1160.352, 44.31079
1161.441, 20.15845
1162.529, 61.04053
1163.618, 38.98340
1164.706, 59.86890
1165.794, 31.92773
1166.882, 56.84570
1167.970, 62.70166
1169.058, 29.68262
1170.145, 46.78369
1171.232, 81.82227
1172.320, 20.65723
1173.407, 36.79517
1174.494, 4.067871
1175.580, 86.82153
1176.667, 74.92261
1177.754, 56.29883
1178.840, 13.60718
1179.926, 7.089600
1181.012, 48.27319
1182.098, 9.807129
1183.184, 92.56860
1184.269, 19.61279
1185.355, 45.77124
1186.440, 29.34302
1187.525, 45.86206
1188.610, 5.892334
1189.695, 5.112793
1190.780, 11.56580
1191.864, 20.57788
1192.949, 9.416260
1194.033, 44.40466
1195.117, 34.35107
1196.201, 43.18396
1197.285, 26.21948
1198.369, 130.5024
1199.452, 71.46484
1200.536, 72.23657
1201.619, 31.41980
1202.702, 14.08289
1203.785, 30.73462
1204.868, 20.22583
1205.950, 76.69006
1207.033, 33.08618
1208.115, 16.40051
1209.197, 25.91553
1210.279, 62.30090
1211.361, 99.52844
1212.443, 85.72729
1213.525, 59.10364
1214.606, 29.27612
1215.687, 69.37109
1216.769, 61.45825
1217.850, 86.59180
1218.930, 65.70752
1220.011, 81.67151
1221.092, 88.66406
1222.172, 26.56409
1223.252, 49.41675
1224.333, 37.29736
1225.413, 35.06470
1226.492, 33.94922
1227.572, 62.62170
1228.652, 93.25439
1229.731, 53.85205
1230.810, 75.53101
1231.889, 71.10168
1232.968, 101.5767
1234.047, 95.01599
1235.126, 133.4185
1236.204, 105.7864
1237.283, 100.3127
1238.361, 62.61047
1239.439, 105.8635
1240.517, 97.18848
1241.595, 92.36755
1242.673, 110.5110
1243.750, 104.6143
1244.827, 109.6796
1245.905, 119.7073
1246.982, 142.6975
1248.059, 165.6641
1249.135, 145.6423
1250.212, 83.52417
1251.288, 196.3619
1252.365, 93.16455
1253.441, 111.9241
1254.517, 118.6611
1255.593, 145.3545
1256.669, 167.0327
1257.744, 106.6466
1258.820, 148.2125
1259.895, 92.74048
1260.970, 148.2473
1262.045, 101.7019
1263.120, 204.1034
1264.195, 164.4956
1265.270, 170.8276
1266.344, 158.1577
1267.418, 156.6113
1268.492, 186.9164
1269.566, 145.1237
1270.640, 139.6688
1271.714, 184.8040
1272.788, 227.7074
1273.861, 200.8689
1274.934, 171.8322
1276.007, 188.9720
1277.080, 202.1438
