##NAMES=Axinite-(Fe)
##RRUFFID=R050061
##IDEAL CHEMISTRY=Ca_4_Fe^2+^_2_Al_4_[B_2_Si_8_O_30_](OH)_2_
##LOCALITY=Jamestown, California, USA
##OWNER=RRUFF
##SOURCE=Rock Currier
##DESCRIPTION=Brown colored axe-head-shaped single crystals
##STATUS=The identification of this mineral has been confirmed by X-ray diffraction and chemical analysis
##URL=rruff.info/R050061
##MEASURED CHEMISTRY=Ca_2.00_(Fe^2+^_0.73_Mg_0.20_Mn_0.07_)Al_2.00_BSi_4_O_15_(OH)
##PIN_ID=L00381
##ORIENTATION=Laser parallel to a* (1 0 0). Fiducial mark perpendicular to laser is parallel to b [0 1 0]
89.663, 0.000
91.065, 0.667
92.466, 8.232
93.868, 174.812
95.269, 198.543
96.670, 118.750
98.070, 387.358
99.471, 501.014
100.871, 609.939
102.271, 877.269
103.670, 1621.741
105.070, 2634.303
106.469, 4424.617
107.868, 5880.936
109.267, 6767.359
110.665, 6723.247
112.063, 5558.246
113.461, 4578.879
114.859, 3765.372
116.256, 3059.337
117.653, 2683.455
119.050, 2360.511
120.447, 2446.083
121.843, 2347.755
123.240, 2386.014
124.636, 1923.346
126.031, 1721.284
127.427, 1455.863
128.822, 1085.353
130.217, 1094.727
131.612, 1029.049
133.006, 1458.532
134.400, 2067.935
135.794, 3080.490
137.188, 3925.462
138.581, 4676.481
139.975, 4810.377
141.368, 4097.652
142.760, 3326.412
144.153, 2704.229
145.545, 2311.067
146.937, 2049.126
148.329, 1732.249
149.720, 1633.430
151.112, 1398.664
152.503, 1273.946
153.893, 1023.275
155.284, 948.641
156.674, 706.002
158.064, 575.396
159.454, 551.675
160.843, 521.616
162.233, 750.625
163.622, 872.866
165.011, 1238.579
166.399, 1616.294
167.787, 2132.550
169.175, 2632.039
170.563, 2701.470
171.951, 2782.938
173.338, 2355.493
174.725, 2011.297
176.112, 1502.365
177.499, 896.700
178.885, 634.292
180.271, 241.127
181.657, 42.189
183.043, 137.538
184.428, 262.071
185.813, 320.149
187.198, 360.623
188.583, 290.681
189.967, 231.614
191.351, 79.438
192.735, 23.838
194.119, 154.201
195.502, 130.641
196.885, 108.149
198.268, 169.722
199.651, 334.334
201.033, 556.950
202.415, 1007.562
203.797, 1472.161
205.179, 1960.743
206.561, 2409.309
207.942, 3042.849
209.323, 3283.359
210.703, 3520.846
212.084, 3632.309
213.464, 3456.763
214.844, 3396.232
216.224, 3202.715
217.603, 3116.187
218.983, 2761.562
220.362, 2295.532
221.741, 1736.862
223.119, 1170.604
224.497, 764.042
225.875, 464.398
227.253, 285.827
228.631, 124.459
230.008, 25.145
231.385, 27.437
232.762, 94.601
234.139, 7.056
235.515, 13.776
236.891, 126.200
238.267, 208.681
239.643, 219.258
241.018, 279.958
242.393, 236.758
243.768, 254.585
245.143, 265.276
246.517, 305.883
247.891, 490.468
249.265, 812.041
250.639, 1350.604
252.012, 2119.167
253.386, 3203.740
254.759, 3914.325
256.131, 4230.578
257.504, 4151.114
258.876, 3708.159
260.248, 3544.559
261.620, 3513.119
262.991, 3895.767
264.363, 4380.445
265.734, 5094.115
267.104, 6009.750
268.475, 6773.321
269.845, 7813.799
271.215, 8444.160
272.585, 9354.397
273.955, 9814.504
275.324, 10204.478
276.693, 9704.319
278.062, 8794.034
279.431, 8083.594
280.799, 6742.925
282.167, 5917.011
283.535, 5214.890
284.903, 4768.574
286.270, 4757.075
287.638, 4602.407
289.005, 4842.579
290.371, 4897.581
291.738, 4935.422
293.104, 5225.119
294.470, 5166.684
295.836, 5153.122
297.201, 4740.444
298.567, 4539.658
299.932, 3933.767
301.296, 3398.701
302.661, 3162.423
304.025, 2723.288
305.389, 2663.201
306.753, 2424.209
308.117, 2394.813
309.480, 2122.598
310.843, 2078.740
312.206, 2346.378
313.569, 2723.543
314.931, 3380.462
316.293, 5039.287
317.655, 5191.449
319.017, 5984.929
320.378, 5807.747
321.740, 5432.562
323.101, 4615.897
324.461, 4039.097
325.822, 3798.017
327.182, 3492.475
328.542, 3702.856
329.902, 3657.209
331.261, 3740.547
332.621, 3645.240
333.980, 3597.258
335.339, 3793.273
336.697, 4006.442
338.056, 4740.054
339.414, 5406.325
340.772, 6443.418
342.129, 7411.188
343.487, 7764.616
344.844, 7975.244
346.201, 6690.866
347.557, 5960.676
348.914, 4923.785
350.270, 4122.356
351.626, 3564.490
352.982, 2928.115
354.337, 2447.545
355.693, 1865.618
357.048, 1345.151
358.402, 1013.878
359.757, 649.160
361.111, 488.960
362.465, 268.067
363.819, 219.186
365.173, 94.532
366.526, 56.666
367.879, 48.795
369.232, 4.483
370.585, 65.333
371.937, 10.093
373.290, 71.398
374.642, 160.674
375.993, 143.881
377.345, 214.052
378.696, 292.386
380.047, 454.745
381.398, 565.347
382.748, 932.392
384.099, 1382.423
385.449, 1744.268
386.799, 2334.295
388.148, 2505.075
389.497, 2601.415
390.847, 2307.040
392.196, 1778.078
393.544, 1456.909
394.893, 978.740
396.241, 794.694
397.589, 550.735
398.936, 592.246
400.284, 622.718
401.631, 649.131
402.978, 786.658
404.325, 787.696
405.672, 904.418
407.018, 994.312
408.364, 1036.319
409.710, 1410.510
411.055, 1573.485
412.401, 2179.562
413.746, 2844.638
415.091, 3806.712
416.435, 4948.784
417.780, 5457.854
419.124, 6196.896
420.468, 6375.909
421.812, 6721.893
423.155, 7244.839
424.498, 7647.752
425.842, 7440.632
427.184, 6833.474
428.527, 6232.279
429.869, 5409.049
431.211, 4547.785
432.553, 4045.484
433.895, 3183.148
435.236, 2897.778
436.577, 2540.373
437.918, 2505.934
439.259, 3101.462
440.599, 3837.957
441.940, 5304.775
443.280, 6705.771
444.619, 7753.550
445.959, 7699.068
447.298, 6175.588
448.637, 4748.631
449.976, 3184.350
451.315, 2267.682
452.653, 1641.913
453.991, 1134.116
455.329, 929.294
456.667, 752.447
458.004, 623.574
459.341, 441.678
460.678, 260.757
462.015, 190.813
463.352, 60.847
464.688, 36.855
466.024, 74.156
467.360, 2.221
468.695, 49.695
470.031, 2.398
471.366, 126.494
472.701, 6.386
474.035, 117.286
475.370, 174.179
476.704, 276.093
478.038, 484.015
479.372, 688.958
480.705, 1099.926
482.038, 1394.898
483.371, 1650.897
484.704, 1669.928
486.037, 1675.929
487.369, 1406.984
488.701, 937.042
490.033, 504.119
491.365, 338.192
492.696, 91.262
494.027, 11.322
495.358, 12.366
496.689, 31.603
498.019, 18.599
499.350, 33.618
500.680, 1.223
502.009, 69.272
503.339, 114.197
504.668, 178.110
505.997, 280.025
507.326, 513.966
508.655, 709.977
509.983, 972.094
511.311, 1191.330
512.639, 1302.693
513.967, 1426.180
515.295, 1157.772
516.622, 1130.428
517.949, 763.129
519.276, 595.847
520.602, 441.588
521.929, 191.343
523.255, 118.992
524.581, 80.440
525.906, 29.638
527.232, 62.901
528.557, 56.247
529.882, 19.838
531.207, 30.506
532.531, 135.783
533.855, 140.464
535.179, 154.516
536.503, 182.493
537.827, 119.761
539.150, 112.300
540.473, 18.174
541.796, 26.673
543.119, 26.202
544.441, 71.760
545.764, 74.373
547.086, 86.040
548.407, 101.770
549.729, 39.568
551.050, 184.397
552.371, 45.329
553.692, 74.277
555.013, 64.743
556.333, 181.803
557.653, 333.879
558.973, 568.969
560.293, 710.059
561.612, 869.145
562.932, 785.226
564.251, 629.299
565.569, 631.367
566.888, 501.428
568.206, 515.482
569.524, 522.528
570.842, 597.562
572.160, 778.584
573.477, 758.594
574.795, 818.592
576.112, 619.578
577.428, 590.552
578.745, 593.512
580.061, 477.461
581.377, 582.398
582.693, 592.323
584.009, 713.235
585.324, 914.136
586.639, 1036.025
587.954, 1356.902
589.269, 1292.768
590.583, 1264.622
591.897, 1147.465
593.212, 847.296
594.525, 696.117
595.839, 378.926
597.152, 270.723
598.465, 190.510
599.778, 61.287
601.091, 11.049
602.403, 73.206
603.716, 37.519
605.028, 21.873
606.339, 5.742
607.651, 40.338
608.962, 125.919
610.273, 221.490
611.584, 343.051
612.895, 448.601
614.205, 650.142
615.515, 609.672
616.825, 719.192
618.135, 806.703
619.444, 656.203
620.754, 709.639
622.063, 519.498
623.372, 448.530
624.680, 323.685
625.989, 225.364
627.297, 197.471
628.605, 156.537
629.912, 223.582
631.220, 253.439
632.527, 257.928
633.834, 532.363
635.141, 631.618
636.447, 851.130
637.754, 1168.768
639.060, 1399.070
640.366, 1774.770
641.671, 2061.082
642.977, 2387.642
644.282, 2380.295
645.587, 2183.429
646.892, 2175.150
648.196, 1863.017
649.501, 1887.326
650.805, 1821.375
652.109, 918.940
653.412, 776.699
654.716, 542.053
656.019, 518.956
657.322, 375.189
658.625, 330.589
659.927, 359.299
661.230, 255.188
662.532, 319.303
663.834, 394.592
665.135, 435.680
666.437, 545.491
667.738, 644.688
669.039, 803.848
670.340, 1113.127
671.640, 1345.733
672.940, 1888.482
674.241, 2145.817
675.540, 2672.100
676.840, 2892.471
678.139, 2825.996
679.439, 2685.649
680.738, 2065.497
682.036, 1801.028
683.335, 1456.011
684.633, 1101.975
685.931, 979.322
687.229, 785.550
688.527, 793.811
689.824, 667.502
691.121, 715.200
692.418, 833.943
693.715, 806.697
695.012, 948.265
696.308, 1088.785
697.604, 1269.037
698.900, 1668.823
700.195, 1793.602
701.491, 2393.548
702.786, 2872.293
704.081, 3529.272
705.376, 4736.231
706.670, 5953.874
707.964, 7567.779
709.259, 9425.192
710.552, 11680.770
711.846, 14290.916
713.139, 14491.437
714.433, 15321.946
715.726, 13932.442
717.018, 11932.922
718.311, 10103.387
719.603, 7773.838
720.895, 6231.276
722.187, 5090.700
723.479, 3941.111
724.770, 3368.509
726.061, 2618.893
727.352, 2219.263
728.643, 1795.621
729.934, 1501.964
731.224, 1311.294
732.514, 1147.612
733.804, 992.916
735.094, 818.208
736.383, 688.089
737.672, 673.752
738.961, 463.005
740.250, 449.245
741.539, 427.473
742.827, 260.688
744.115, 276.891
745.403, 265.082
746.691, 243.260
747.978, 275.426
749.265, 231.580
750.552, 220.722
751.839, 210.853
753.126, 174.971
754.412, 246.077
755.698, 160.817
756.984, 249.334
758.270, 246.029
759.555, 274.940
760.840, 286.812
762.125, 227.121
763.410, 324.714
764.695, 308.657
765.979, 276.665
767.263, 329.663
768.547, 266.651
769.831, 296.629
771.114, 231.597
772.398, 207.555
773.681, 139.503
774.964, 100.441
776.246, 110.370
777.529, 40.292
778.811, 54.205
780.093, 65.127
781.375, 1.043
782.656, 15.939
783.937, 25.177
785.219, 62.328
786.499, 1.531
787.780, 92.757
789.060, 41.054
790.341, 93.395
791.621, 111.807
792.901, 27.301
794.180, 113.830
795.459, 60.441
796.739, 33.105
798.017, 130.808
799.296, 27.599
800.575, 85.426
801.853, 8.683
803.131, 0.224
804.409, 41.849
805.686, 73.916
806.964, 24.977
808.241, 189.031
809.518, 270.088
810.795, 274.144
812.071, 389.202
813.347, 281.258
814.623, 198.308
815.899, 244.352
817.175, 27.390
818.450, 133.420
819.726, 0.556
821.001, 35.452
822.275, 39.454
823.550, 43.552
824.824, 33.594
826.098, 36.667
827.372, 62.771
828.646, 30.920
829.920, 49.097
831.193, 2.312
832.466, 5.538
833.739, 20.221
835.011, 83.976
836.284, 75.727
837.556, 130.483
838.828, 212.253
840.100, 163.035
841.371, 316.816
842.642, 309.596
843.914, 435.372
845.184, 505.145
846.455, 542.914
847.726, 777.679
848.996, 839.442
850.266, 974.207
851.536, 1103.974
852.805, 1015.749
854.075, 1095.532
855.344, 1131.334
856.613, 1056.156
857.881, 1109.010
859.150, 1040.890
860.418, 1080.786
861.686, 1072.734
862.954, 1074.708
864.222, 1131.702
865.489, 1067.701
866.756, 1243.701
868.023, 1174.711
869.290, 1166.726
870.557, 1287.741
871.823, 1276.755
873.089, 1330.772
874.355, 1487.790
875.621, 1436.806
876.886, 1641.825
878.152, 1709.862
879.417, 1710.902
880.682, 1854.944
881.946, 1810.991
883.211, 2036.037
884.475, 1946.092
885.739, 2094.154
887.003, 2293.217
888.266, 2289.291
889.530, 2620.367
890.793, 2800.453
892.056, 3027.541
893.318, 3497.630
894.581, 3514.719
895.843, 3980.812
897.105, 4227.909
898.367, 4200.024
899.629, 4547.141
900.890, 4321.266
902.152, 4486.392
903.413, 4445.521
904.673, 4168.652
905.934, 4207.785
907.194, 3942.920
908.454, 3635.058
909.714, 3479.202
910.974, 2974.371
912.234, 2820.563
913.493, 2501.769
914.752, 2095.994
916.011, 1941.222
917.270, 1732.455
918.528, 1635.697
919.786, 1525.943
921.044, 1448.343
922.302, 1535.444
923.560, 1417.699
924.817, 1499.959
926.074, 1612.223
927.331, 1539.460
928.588, 1753.737
929.844, 1752.742
931.101, 1814.814
932.357, 1811.943
933.613, 1586.938
934.868, 1666.685
936.124, 1550.068
937.379, 1510.137
938.634, 1687.043
939.889, 1649.242
941.144, 1729.708
942.398, 1871.917
943.652, 1938.996
944.906, 2370.408
946.160, 2418.422
947.414, 2824.818
948.667, 3086.962
949.920, 3384.010
951.173, 3851.571
952.426, 4009.542
953.678, 4231.362
954.931, 5289.737
956.183, 5545.245
957.435, 6079.410
958.686, 6907.631
959.938, 7527.102
961.189, 8606.585
962.440, 8906.076
963.691, 9215.578
964.941, 9325.091
966.192, 8424.614
967.442, 8234.148
968.692, 7863.507
969.942, 7723.064
971.191, 8401.895
972.441, 8421.337
973.690, 9740.807
974.939, 10687.155
976.187, 11584.172
977.436, 12941.039
978.684, 12316.315
979.932, 12323.645
981.180, 11409.878
982.428, 10148.952
983.675, 9497.894
984.922, 8457.448
986.169, 7787.155
987.416, 7566.874
988.663, 6966.605
989.909, 7176.348
991.155, 7216.195
992.401, 6889.711
993.647, 6923.698
994.893, 6563.526
996.138, 6582.325
997.383, 6540.139
998.628, 6328.964
999.873, 6459.368
1001.117, 5894.218
1002.362, 5496.079
1003.606, 5308.353
1004.850, 4474.237
1006.093, 4156.135
1007.337, 3691.867
1008.580, 3128.793
1009.823, 2897.694
1011.066, 2351.163
1012.308, 2077.802
1013.551, 1873.780
1014.793, 1491.699
1016.035, 1542.304
1017.277, 1267.669
1018.518, 1182.037
1019.760, 1153.209
1021.001, 954.351
1022.242, 1067.236
1023.483, 1048.315
1024.723, 950.404
1025.964, 1069.135
1027.204, 917.692
1028.444, 895.087
1029.683, 861.783
1030.923, 718.842
1032.162, 711.000
1033.401, 617.811
1034.640, 561.620
1035.879, 570.864
1037.117, 483.473
1038.355, 539.672
1039.593, 490.391
1040.831, 424.607
1042.069, 480.854
1043.306, 401.087
1044.544, 455.678
1045.781, 516.411
1047.017, 471.541
1048.254, 579.930
1049.490, 494.744
1050.726, 559.065
1051.962, 608.363
1053.198, 592.796
1054.434, 584.100
1055.669, 577.416
1056.904, 506.738
1058.139, 594.066
1059.374, 562.401
1060.608, 500.887
1061.843, 527.234
1063.077, 388.466
1064.311, 372.950
1065.544, 341.421
1066.778, 345.334
1068.011, 366.802
1069.244, 262.240
1070.477, 316.812
1071.710, 338.202
1072.942, 328.932
1074.174, 402.396
1075.406, 439.981
1076.638, 466.881
1077.870, 610.350
1079.101, 559.188
1080.332, 728.875
1081.563, 693.706
1082.794, 676.949
1084.025, 743.573
1085.255, 580.142
1086.485, 482.411
1087.715, 517.103
1088.945, 372.786
1090.175, 369.769
1091.404, 294.429
1092.633, 296.693
1093.862, 311.050
1095.091, 267.964
1096.319, 284.922
1097.548, 268.750
1098.776, 275.625
1100.004, 358.659
1101.231, 348.480
1102.459, 353.890
1103.686, 414.898
1104.913, 397.735
1106.140, 399.575
1107.367, 375.417
1108.593, 252.382
1109.819, 298.299
1111.046, 229.541
1112.271, 260.666
1113.497, 207.698
1114.722, 152.321
1115.948, 151.587
1117.173, 108.600
1118.398, 113.714
1119.622, 190.700
1120.847, 116.559
1122.071, 146.669
1123.295, 128.700
1124.519, 51.710
1125.742, 78.454
1126.966, 119.477
1128.189, 17.592
1129.412, 61.133
1130.635, 5.245
1131.857, 56.363
1133.080, 40.385
1134.302, 12.400
1135.524, 8.672
1136.746, 47.677
1137.967, 6.256
1139.188, 70.963
1140.410, 7.969
1141.631, 6.954
1142.851, 49.983
1144.072, 31.393
1145.292, 45.767
1146.512, 22.265
1147.732, 5.996
1148.952, 62.106
1150.172, 16.857
1151.391, 38.173
1152.610, 36.076
1153.829, 44.590
1155.048, 28.225
1156.266, 27.511
1157.484, 17.478
1158.702, 56.365
1159.920, 33.739
1161.138, 24.779
1162.356, 17.219
1163.573, 48.241
1164.790, 30.063
1166.007, 3.019
1167.224, 1.064
1168.440, 18.996
1169.656, 23.767
1170.872, 18.602
1172.088, 13.538
1173.304, 75.774
1174.519, 4.889
1175.735, 10.788
1176.950, 17.104
1178.165, 61.844
1179.379, 28.408
1180.594, 27.772
1181.808, 13.089
1183.022, 39.293
1184.236, 38.353
1185.449, 39.840
1186.663, 51.641
1187.876, 28.243
1189.089, 37.197
1190.302, 2.394
1191.515, 4.575
1192.727, 58.801
1193.939, 9.641
1195.151, 20.136
1196.363, 34.166
1197.575, 42.565
1198.786, 12.905
1199.997, 103.242
1201.208, 84.546
1202.419, 73.850
1203.630, 77.420
1204.840, 65.877
1206.051, 9.777
1207.261, 68.532
1208.470, 36.472
1209.680, 26.725
1210.889, 31.859
1212.099, 14.020
1213.308, 37.076
1214.516, 46.159
1215.725, 16.229
1216.933, 70.287
1218.142, 8.333
1219.350, 48.364
1220.557, 21.382
1221.765, 10.121
1222.972, 53.860
1224.180, 9.055
1225.387, 5.243
1226.593, 10.820
1227.800, 2.894
1229.006, 30.793
1230.213, 48.667
1231.419, 4.531
1232.624, 30.375
1233.830, 41.203
1235.035, 4.982
1236.241, 61.816
1237.446, 9.657
1238.650, 8.427
1239.855, 27.182
1241.059, 25.943
1242.264, 58.671
1243.468, 58.580
1244.671, 28.404
1245.875, 106.144
1247.078, 14.811
1248.282, 44.522
1249.485, 114.154
1250.687, 197.791
1251.890, 147.125
1253.092, 60.179
1254.295, 72.854
1255.497, 25.514
1256.699, 33.045
1257.900, 48.975
1259.102, 14.505
1260.303, 26.997
1261.504, 56.642
1262.705, 38.196
1263.905, 65.605
1265.106, 105.028
1266.306, 41.388
1267.506, 60.778
1268.706, 69.074
1269.905, 16.363
1271.105, 10.620
1272.304, 55.832
1273.503, 25.024
1274.702, 61.617
1275.900, 61.434
1277.099, 84.577
1278.297, 86.679
1279.495, 40.762
1280.693, 88.821
1281.891, 73.860
1283.088, 45.785
1284.285, 87.856
1285.482, 92.823
1286.679, 81.761
1287.876, 34.681
1289.072, 36.579
1290.268, 95.450
1291.464, 42.734
1292.660, 58.593
1293.856, 75.515
1295.051, 74.908
1296.247, 17.710
1297.442, 38.462
1298.637, 18.361
1299.831, 40.057
1301.026, 61.842
1302.220, 9.977
1303.414, 7.932
1304.608, 24.540
1305.802, 0.804
1306.995, 55.156
1308.188, 12.656
1309.381, 40.517
1310.574, 48.919
1311.767, 4.294
1312.960, 84.915
1314.152, 66.393
1315.344, 9.219
1316.536, 78.512
1317.728, 42.081
1318.919, 0.554
1320.110, 76.176
1321.301, 32.529
1322.492, 54.774
1323.683, 74.357
1324.874, 32.926
1326.064, 70.049
1327.254, 53.797
1328.444, 31.941
1329.634, 81.556
1330.823, 17.191
1332.013, 60.254
1333.202, 116.447
1334.391, 25.142
1335.580, 26.685
1336.768, 64.817
1337.956, 12.320
1339.145, 110.106
1340.333, 63.013
1341.520, 74.976
1342.708, 72.747
1343.895, 5.365
1345.083, 89.500
1346.270, 91.348
1347.456, 38.179
1348.643, 57.992
1349.829, 60.645
1351.016, 5.408
1352.202, 73.270
1353.387, 137.891
1354.573, 88.489
1355.759, 100.709
1356.944, 87.284
1358.129, 90.943
1359.314, 105.387
1360.498, 109.251
1361.683, 134.521
1362.867, 93.051
1364.051, 14.426
1365.235, 81.465
1366.419, 32.885
1367.602, 3.902
1368.785, 47.033
1369.968, 39.989
1371.151, 77.584
1372.334, 109.232
1373.517, 104.399
1374.699, 93.334
1375.881, 108.371
1377.063, 109.270
1378.245, 99.420
1379.426, 66.485
1380.608, 97.963
1381.789, 108.220
1382.970, 75.312
1384.150, 102.987
1385.331, 35.627
1386.511, 48.400
1387.691, 64.994
1388.871, 101.883
1390.051, 64.413
1391.231, 98.239
1392.410, 71.627
1393.589, 31.585
1394.768, 98.125
1395.947, 50.439
1397.126, 49.965
1398.304, 129.250
1399.483, 14.745
1400.661, 67.205
1401.838, 71.300
1403.016, 33.437
1404.194, 45.465
1405.371, 95.104
1406.548, 64.775
1407.725, 115.715
1408.901, 52.730
1410.078, 118.410
1411.254, 60.953
1412.430, 60.207
1413.606, 84.081
1414.782, 68.761
1415.958, 90.625
1417.133, 65.972
1418.308, 25.482
1419.483, 106.223
1420.658, 100.795
1421.832, 90.823
1423.007, 65.257
1424.181, 65.557
1425.355, 30.546
1426.529, 80.323
1427.702, 52.807
1428.876, 75.767
1430.049, 60.070
1431.222, 56.338
1432.395, 88.149
1433.567, 39.037
1434.740, 18.910
1435.912, 94.757
1437.084, 37.580
1438.256, 42.425
1439.428, 93.265
1440.599, 76.403
1441.770, 23.107
1442.942, 97.795
1444.112, 48.463
1445.283, 64.958
1446.454, 89.520
1447.624, 75.982
1448.794, 105.709
1449.964, 54.978
1451.134, 25.191
1452.303, 100.955
1453.473, 66.967
1454.642, 17.913
1455.811, 81.930
1456.980, 95.501
1458.148, 43.273
1459.317, 120.286
1460.485, 73.319
1461.653, 96.492
1462.821, 102.788
1463.989, 27.114
1465.156, 97.026
1466.323, 70.313
1467.490, 56.596
1468.657, 87.649
1469.824, 82.015
1470.991, 7.614
1472.157, 104.654
1473.323, 0.566
1474.489, 61.742
1475.655, 84.083
1476.820, 52.095
1477.986, 37.376
1479.151, 74.633
1480.316, 49.901
1481.481, 9.960
1482.645, 19.917
1483.810, 45.267
1484.974, 52.665
1486.138, 44.089
1487.302, 64.509
1488.465, 113.967
1489.629, 47.444
1490.792, 35.105
1491.955, 66.394
1493.118, 9.601
1494.281, 56.803
1495.443, 0.981
1496.606, 15.688
1497.768, 1.788
1498.930, 17.802
1500.091, 2.311
1501.253, 11.499
1502.414, 9.957
1503.575, 29.684
1504.736, 23.042
1505.897, 21.841
1507.058, 30.996
1508.218, 25.324
1509.379, 0.000
##END=



