##NAMES=Axinite-(Fe)
##RRUFFID=R060183
##IDEAL CHEMISTRY=Ca_4_Fe^2+^_2_Al_4_[B_2_Si_8_O_30_](OH)_2_
##LOCALITY=Skagit Bluffs, near Manning Park, British Columbia, Canada
##OWNER=RRUFF
##SOURCE=Lloyd Twaites
##DESCRIPTION=Light-pink transparent axe-head-shaped single crystal
##STATUS=The identification of this mineral has been confirmed by X-ray diffraction and chemical analysis
##URL=rruff.info/R060183
##MEASURED CHEMISTRY=Ca_2.00_(Fe^2+^_0.58_Mn_0.23_Mg_0.19_)Al_2.00_B_1.00_Si_4.00_O_15_(OH)
##PIN_ID=L01743
##ORIENTATION=Laser parallel to (0 1 1). Fiducial mark perpendicular to laser is parallel to -a [-1 0 0]
52.67100, 0.0000000E+00
53.91000, 79.02246
55.14900, 147.3650
56.38700, 286.0001
57.62600, 192.1002
58.86400, 336.5476
60.10300, 247.1016
61.34100, 226.4330
62.57900, 82.60645
63.81700, 47.89844
65.05400, 54.68628
66.29200, 126.3572
67.52900, 67.46973
68.76700, 55.47363
70.00400, 233.0266
71.24100, 339.7964
72.47700, 349.4268
73.71400, 543.5635
74.95100, 746.8760
76.18700, 1002.075
77.42300, 1138.905
78.65900, 1194.140
79.89500, 1407.577
81.13100, 1632.039
82.36700, 1863.365
83.60200, 2100.120
84.83700, 2460.054
86.07200, 2563.172
87.30800, 2688.664
88.54200, 2855.439
89.77700, 3227.416
91.01200, 3835.453
92.24600, 4386.385
93.48000, 4646.063
94.71400, 4925.370
95.94800, 5064.234
97.18200, 5155.619
98.41600, 5774.484
99.64900, 6762.770
100.8830, 7765.425
102.1160, 9331.404
103.3490, 11676.67
104.5820, 14206.19
105.8150, 17285.93
107.0470, 20013.86
108.2800, 20424.95
109.5120, 19303.18
110.7440, 14577.52
111.9760, 10453.95
113.2080, 8364.444
114.4400, 6747.987
115.6710, 5738.555
116.9030, 4755.131
118.1340, 3864.847
119.3650, 3458.237
120.5960, 2771.751
121.8270, 2501.246
123.0580, 2487.723
124.2880, 2476.170
125.5190, 2109.565
126.7490, 2038.717
127.9790, 2253.064
129.2090, 2468.571
130.4390, 2826.213
131.6680, 3098.026
132.8980, 3486.979
134.1270, 4098.128
135.3560, 4965.625
136.5850, 5605.521
137.8140, 6222.981
139.0430, 6664.181
140.2710, 6521.220
141.5000, 6336.975
142.7280, 6321.245
143.9560, 6279.989
145.1840, 6523.217
146.4120, 7086.944
147.6390, 7635.176
148.8670, 7931.919
150.0940, 7614.181
151.3210, 6977.955
152.5490, 6331.248
153.7750, 5922.056
155.0020, 5631.382
156.2290, 5525.224
157.4550, 5409.580
158.6810, 5663.450
159.9080, 5920.829
161.1340, 6772.714
162.3590, 7838.106
163.5850, 9361.001
164.8110, 10995.39
166.0360, 13160.28
167.2610, 15211.65
168.4860, 16879.52
169.7110, 17077.88
170.9360, 15862.71
172.1610, 13906.03
173.3850, 11452.81
174.6100, 9128.072
175.8340, 7241.802
177.0580, 5694.993
178.2820, 4328.646
179.5050, 3385.755
180.7290, 2796.317
181.9520, 2387.328
183.1760, 2295.784
184.3990, 2343.703
185.6220, 2769.174
186.8450, 3283.316
188.0670, 3955.272
189.2900, 5104.985
190.5120, 6571.422
191.7340, 7332.467
192.9560, 7542.027
194.1780, 7088.986
195.4000, 6906.318
196.6220, 7098.021
197.8430, 7596.086
199.0640, 8575.513
200.2860, 10098.23
201.5070, 11916.22
202.7270, 14080.62
203.9480, 15851.75
205.1690, 17969.36
206.3890, 19759.42
207.6090, 21377.94
208.8290, 22030.64
210.0490, 22035.96
211.2690, 20969.49
212.4890, 19310.98
213.7080, 17566.62
214.9280, 15733.51
216.1470, 14114.58
217.3660, 12257.39
218.5850, 10285.94
219.8030, 8525.383
221.0220, 6921.885
222.2400, 5474.674
223.4590, 4502.197
224.6770, 3359.943
225.8950, 2666.875
227.1120, 2215.533
228.3300, 2041.781
229.5480, 1562.995
230.7650, 1323.231
231.9820, 1311.056
233.1990, 1424.458
234.4160, 1604.434
235.6330, 1709.950
236.8490, 1885.992
238.0660, 1999.557
239.2820, 2202.607
240.4980, 2568.122
241.7140, 2924.085
242.9300, 3305.457
244.1460, 3822.852
245.3610, 4371.943
246.5770, 4982.844
247.7920, 5717.709
249.0070, 6467.934
250.2220, 7338.506
251.4370, 8175.428
252.6510, 8862.691
253.8660, 9007.289
255.0800, 8653.216
256.2940, 8057.472
257.5080, 7608.047
258.7220, 7940.937
259.9360, 8139.139
261.1490, 7777.646
262.3630, 8407.455
263.5760, 9222.566
264.7890, 10751.97
266.0020, 12472.65
267.2150, 14215.63
268.4270, 16378.88
269.6400, 18154.42
270.8520, 19709.21
272.0640, 20302.28
273.2760, 20317.62
274.4880, 20018.21
275.7000, 18745.07
276.9120, 17046.20
278.1230, 14809.58
279.3340, 12666.23
280.5450, 10886.14
281.7560, 9802.302
282.9670, 8938.728
284.1780, 8799.409
285.3880, 9198.344
286.5980, 9875.524
287.8090, 10591.96
289.0190, 11799.62
290.2290, 13201.54
291.4380, 14543.69
292.6480, 15864.08
293.8570, 16998.71
295.0670, 17629.56
296.2760, 18031.65
297.4850, 17951.97
298.6930, 17769.51
299.9020, 17453.27
301.1110, 17588.26
302.3190, 17376.47
303.5270, 17066.90
304.7350, 16510.53
305.9430, 16197.39
307.1510, 15378.44
308.3580, 14998.71
309.5660, 15288.19
310.7730, 16295.87
311.9800, 18278.74
313.1870, 20675.83
314.3940, 23637.38
315.6010, 26377.06
316.8070, 27651.79
318.0130, 27193.49
319.2200, 24937.46
320.4260, 21517.92
321.6310, 17960.33
322.8370, 14293.37
324.0430, 11609.42
325.2480, 9442.279
326.4540, 8030.699
327.6590, 6828.970
328.8640, 6154.051
330.0680, 5781.236
331.2730, 5683.664
332.4780, 5790.567
333.6820, 6804.623
334.8860, 8137.824
336.0900, 9952.175
337.2940, 12432.66
338.4980, 15457.29
339.7010, 18832.05
340.9050, 21195.96
342.1080, 22247.99
343.3110, 21097.16
344.5140, 18542.46
345.7170, 16318.98
346.9200, 14208.71
348.1220, 12259.67
349.3240, 10734.44
350.5270, 9072.138
351.7290, 7518.898
352.9310, 5997.609
354.1320, 4687.135
355.3340, 3346.064
356.5350, 2565.934
357.7370, 1695.788
358.9380, 1088.808
360.1390, 691.3398
361.3400, 268.9268
362.5400, 17.09961
363.7410, 28.63281
364.9410, 336.8252
366.1410, 322.6211
367.3410, 468.5801
368.5410, 575.4697
369.7410, 591.0293
370.9400, 475.0254
372.1400, 409.6660
373.3390, 385.1289
374.5380, 29.20996
375.7370, 116.1289
376.9360, 569.2598
378.1350, 1120.067
379.3330, 1718.291
380.5310, 2572.111
381.7300, 3830.652
382.9280, 5189.678
384.1260, 6568.767
385.3230, 7556.913
386.5210, 8128.594
387.7180, 8255.351
388.9160, 7941.215
390.1130, 7496.188
391.3100, 7042.262
392.5060, 6309.441
393.7030, 5457.723
394.9000, 4429.101
396.0960, 3694.576
397.2920, 3021.146
398.4880, 2490.812
399.6840, 2108.567
400.8800, 1766.415
402.0750, 1597.352
403.2710, 1542.374
404.4660, 1918.482
405.6610, 2069.676
406.8560, 2659.951
408.0510, 3167.308
409.2450, 4305.746
410.4400, 5591.264
411.6340, 7063.860
412.8280, 9086.534
414.0220, 11273.28
415.2160, 12279.11
416.4100, 12325.00
417.6030, 11933.98
418.7970, 12047.02
419.9900, 12553.13
421.1830, 13796.32
422.3760, 15080.57
423.5690, 16829.88
424.7610, 18525.27
425.9540, 20135.72
427.1460, 21645.23
428.3380, 22311.81
429.5300, 21920.44
430.7220, 20467.14
431.9140, 17781.89
433.1050, 15286.70
434.2970, 12532.57
435.4880, 10578.49
436.6790, 9075.460
437.8700, 8628.482
439.0610, 8601.557
440.2510, 9074.677
441.4420, 9760.849
442.6320, 10135.07
443.8220, 10347.33
445.0120, 10099.63
446.2020, 9781.977
447.3910, 6143.365
448.5810, 3488.793
449.7700, 2559.259
450.9600, 1782.763
452.1490, 1319.303
453.3370, 938.8760
454.5260, 494.4854
455.7150, 349.1260
456.9030, 24.20215
458.0910, 60.53809
459.2800, 52.90332
460.4670, 178.2959
461.6550, 284.7764
462.8430, 322.3955
464.0300, 313.1748
465.2180, 206.1152
466.4050, 325.1670
467.5920, 205.3916
468.7790, 189.7363
469.9650, 124.1963
471.1520, 39.74219
472.3380, 34.34180
473.5250, 24.00781
474.7110, 352.3271
475.8970, 566.6611
477.0820, 1017.010
478.2680, 1460.371
479.4540, 1745.744
480.6390, 2287.128
481.8240, 2636.521
483.0090, 2882.926
484.1940, 4165.339
485.3780, 4293.759
486.5630, 2892.186
487.7470, 1345.619
488.9320, 1050.058
490.1160, 457.4990
491.3000, 99.94434
492.4830, 47.65039
493.6670, 262.3545
494.8500, 236.2744
496.0340, 276.4043
497.2170, 309.7646
498.4000, 164.3750
499.5820, 276.1689
500.7650, 169.2012
501.9480, 17.42480
503.1300, 28.76758
504.3120, 122.7637
505.4940, 276.1738
506.6760, 218.3086
507.8580, 303.9668
509.0390, 401.9111
510.2210, 396.6807
511.4020, 235.7715
512.5830, 202.1934
513.7640, 117.3877
514.9450, 96.53320
516.1250, 180.0098
517.3060, 304.0088
518.4860, 285.3613
519.6660, 308.9561
520.8460, 208.8086
522.0260, 197.2764
523.2060, 205.1162
524.3850, 106.5859
525.5650, 35.22559
526.7440, 1.996094
527.9230, 153.0947
529.1020, 448.1309
530.2810, 541.1426
531.4590, 854.1328
532.6380, 1147.100
533.8160, 1394.041
534.9940, 2030.959
536.1720, 2487.852
537.3500, 3274.717
538.5270, 4178.557
539.7050, 5131.370
540.8820, 5844.156
542.0590, 6548.912
543.2360, 7367.646
544.4130, 7469.363
545.5900, 7135.098
546.7660, 7437.873
547.9430, 6507.686
549.1190, 6026.577
550.2950, 5593.531
551.4710, 5249.534
552.6470, 5280.543
553.8220, 5472.631
554.9980, 5746.754
556.1730, 6354.951
557.3480, 6688.217
558.5230, 6898.518
559.6980, 6589.250
560.8730, 6368.223
562.0470, 5505.602
563.2220, 5019.021
564.3960, 4420.467
565.5700, 4237.964
566.7440, 4144.459
567.9170, 4250.916
569.0910, 4273.340
570.2640, 4290.761
571.4380, 4550.146
572.6110, 4308.492
573.7840, 4498.799
574.9570, 4023.065
576.1290, 3949.291
577.3020, 4039.477
578.4740, 4027.623
579.6460, 4178.726
580.8180, 4487.789
581.9900, 4977.808
583.1620, 5586.785
584.3330, 6074.721
585.5040, 6730.613
586.6760, 6908.463
587.8470, 6868.270
589.0180, 6148.032
590.1880, 5328.750
591.3590, 4359.426
592.5290, 3487.055
593.7000, 2851.641
594.8700, 2322.182
596.0400, 1765.676
597.2090, 1452.125
598.3790, 1240.252
599.5490, 1098.393
600.7180, 958.6416
601.8870, 908.0586
603.0560, 878.3584
604.2250, 937.2920
605.3940, 881.4150
606.5620, 1047.056
607.7300, 1182.819
608.8990, 1340.908
610.0670, 1685.801
611.2350, 2423.495
612.4020, 2323.746
613.5700, 2766.018
614.7370, 2859.170
615.9050, 2814.814
617.0720, 3177.724
618.2390, 2672.448
619.4060, 2476.135
620.5720, 2329.785
621.7390, 1923.398
622.9050, 1579.976
624.0710, 1429.517
625.2370, 952.0205
626.4030, 940.4873
627.5690, 744.9170
628.7340, 691.3105
629.9000, 582.6670
631.0650, 781.9873
632.2300, 914.6797
633.3950, 980.6299
634.5600, 1426.709
635.7240, 1704.027
636.8890, 2147.714
638.0530, 2667.176
639.2170, 2994.893
640.3810, 3297.808
641.5450, 3550.744
642.7080, 3458.332
643.8720, 3439.023
645.0350, 3190.283
646.1980, 2680.596
647.3610, 2207.514
648.5240, 1788.150
649.6870, 1490.066
650.8490, 1113.003
652.0120, 819.6855
653.1740, 681.8701
654.3360, 550.9229
655.4980, 281.8574
656.6600, 217.9414
657.8210, 407.5742
658.9830, 328.8506
660.1440, 393.9316
661.3050, 388.5420
662.4660, 673.1182
663.6270, 853.5225
664.7870, 1331.055
665.9480, 1737.579
667.1080, 2346.052
668.2680, 3014.952
669.4280, 3951.879
670.5880, 5116.797
671.7480, 6463.705
672.9070, 7578.607
674.0670, 8864.500
675.2260, 9530.386
676.3850, 9554.269
677.5440, 9190.139
678.7030, 8103.001
679.8610, 6889.857
681.0200, 5811.707
682.1780, 4840.229
683.3360, 3851.074
684.4940, 3309.607
685.6520, 2800.025
686.8090, 2562.656
687.9670, 2430.423
689.1240, 2340.462
690.2810, 2446.904
691.4380, 2538.736
692.5950, 2872.492
693.7520, 3278.647
694.9080, 3655.941
696.0650, 4487.433
697.2210, 5201.270
698.3770, 6113.438
699.5330, 7480.541
700.6880, 9409.140
701.8440, 11384.86
702.9990, 14247.97
704.1550, 17456.94
705.3100, 21518.95
706.4650, 26335.60
707.6190, 32181.54
708.7740, 37821.12
709.9290, 43293.59
711.0830, 48166.09
712.2370, 50880.52
713.3910, 50809.93
714.5450, 48786.31
715.6980, 44153.68
716.8520, 39080.02
718.0050, 32976.34
719.1580, 27728.65
720.3110, 22861.94
721.4640, 18920.20
722.6170, 15547.45
723.7700, 12956.68
724.9220, 10650.89
726.0740, 9034.081
727.2260, 7565.255
728.3780, 6410.408
729.5300, 5684.546
730.6810, 4864.268
731.8330, 4401.772
732.9840, 3866.858
734.1350, 3470.929
735.2860, 3049.985
736.4370, 2649.025
737.5880, 2550.069
738.7380, 2432.127
739.8880, 2056.196
741.0390, 2038.311
742.1890, 1943.492
743.3380, 1726.753
744.4880, 1723.092
745.6380, 1720.486
746.7870, 1603.963
747.9360, 1715.499
749.0850, 1569.091
750.2340, 1704.722
751.3830, 1783.376
752.5310, 1967.054
753.6800, 2189.745
754.8280, 2409.424
755.9760, 2742.093
757.1240, 3139.751
758.2720, 3683.400
759.4190, 4124.039
760.5670, 4731.669
761.7140, 5540.291
762.8610, 6038.903
764.0080, 6649.510
765.1550, 6848.104
766.3020, 6988.693
767.4480, 6971.275
768.5950, 6631.850
769.7410, 6137.416
770.8870, 5420.000
772.0330, 4837.631
773.1780, 4018.363
774.3240, 3493.194
775.4690, 3149.134
776.6140, 2577.191
777.7590, 2165.334
778.9040, 1767.588
780.0490, 1546.932
781.1940, 1311.325
782.3380, 1010.774
783.4820, 943.2461
784.6260, 554.7197
785.7700, 612.2021
786.9140, 469.3574
788.0580, 361.1680
789.2010, 319.6484
790.3450, 312.1348
791.4880, 150.6289
792.6310, 156.1426
793.7730, 12.72266
794.9160, 57.25879
796.0590, 18.00879
797.2010, 48.85254
798.3430, 5.192383
799.4850, 3.826172
800.6270, 66.91309
801.7690, 118.0918
802.9100, 123.3438
804.0520, 139.6494
805.1930, 255.0049
806.3340, 388.3809
807.4750, 349.7578
808.6160, 483.1357
809.7560, 598.5137
810.8970, 668.8926
812.0370, 727.2725
813.1770, 582.6543
814.3170, 484.0371
815.4570, 309.4229
816.5960, 247.8086
817.7360, 232.1963
818.8750, 63.58789
820.0140, 4.973633
821.1530, 126.6641
822.2920, 223.3906
823.4310, 211.2549
824.5690, 373.2500
825.7070, 314.4629
826.8460, 257.8594
827.9840, 101.4131
829.1220, 376.0371
830.2590, 226.8789
831.3970, 351.8555
832.5340, 359.0342
833.6710, 222.4180
834.8080, 244.9336
835.9450, 181.5928
837.0820, 158.3613
838.2190, 258.2246
839.3550, 202.2363
840.4910, 297.3643
841.6270, 103.6592
842.7630, 100.9814
843.8990, 46.62891
845.0350, 118.7207
846.1700, 235.8613
847.3060, 102.4512
848.4410, 225.0479
849.5760, 341.6562
850.7100, 317.2734
851.8450, 331.9004
852.9800, 431.5391
854.1140, 495.1875
855.2480, 414.8467
856.3820, 685.5186
857.5160, 635.2012
858.6500, 624.8965
859.7830, 961.6035
860.9170, 978.3232
862.0500, 1041.057
863.1830, 1074.804
864.3160, 1116.914
865.4480, 1143.339
866.5810, 1204.128
867.7130, 1236.363
868.8460, 1276.754
869.9780, 1254.590
871.1100, 1270.442
872.2410, 1185.312
873.3730, 1163.197
874.5050, 991.0996
875.6360, 1146.021
876.7670, 1147.960
877.8980, 972.9209
879.0290, 1071.450
880.1590, 1020.907
881.2900, 1049.931
882.4200, 1048.975
883.5500, 1017.049
884.6800, 962.1387
885.8100, 1031.246
886.9400, 985.3682
888.0690, 1190.520
889.1990, 1236.688
890.3280, 1345.873
891.4570, 1440.305
892.5860, 1522.307
893.7140, 1639.556
894.8430, 1835.822
895.9710, 2069.107
897.1000, 2281.410
898.2280, 2437.475
899.3560, 2672.115
900.4830, 2708.515
901.6110, 2809.935
902.7380, 2875.389
903.8660, 2749.875
904.9930, 2446.385
906.1200, 2218.913
907.2460, 2017.470
908.3730, 1939.080
909.5000, 1659.732
910.6260, 1534.443
911.7520, 1362.207
912.8780, 1161.000
914.0040, 1240.813
915.1290, 1126.646
916.2550, 1177.509
917.3800, 1200.391
918.5050, 1279.291
919.6300, 1169.208
920.7550, 1363.166
921.8800, 1310.153
923.0040, 1554.160
924.1290, 1376.184
925.2530, 1780.235
926.3770, 1840.304
927.5010, 2009.255
928.6250, 2103.252
929.7480, 2177.407
930.8720, 2276.574
931.9950, 2329.049
933.1180, 2326.181
934.2410, 2460.519
935.3640, 2485.438
936.4860, 2634.941
937.6090, 2711.960
938.7310, 2812.059
939.8530, 3166.276
940.9750, 3354.663
942.0970, 3557.102
943.2180, 4057.559
944.3400, 4488.035
945.4610, 5000.539
946.5820, 5593.061
947.7030, 6252.631
948.8240, 7073.221
949.9450, 7911.828
951.0650, 8777.476
952.1860, 10013.14
953.3060, 11331.83
954.4260, 12759.85
955.5460, 15121.57
956.6650, 17042.62
957.7850, 20126.80
958.9040, 22750.82
960.0230, 25663.72
961.1420, 28326.36
962.2610, 29660.63
963.3800, 30284.51
964.4990, 29716.50
965.6170, 28311.93
966.7350, 25986.58
967.8530, 24460.88
968.9710, 23023.84
970.0890, 22199.50
971.2070, 22127.23
972.3240, 22704.49
973.4410, 23925.64
974.5580, 25260.43
975.6750, 26608.37
976.7920, 27902.30
977.9090, 28387.61
979.0250, 28528.65
980.1410, 27489.07
981.2580, 25618.63
982.3740, 23404.19
983.4890, 21350.84
984.6050, 19314.54
985.7200, 17330.28
986.8360, 16113.07
987.9510, 14747.91
989.0660, 13884.78
990.1810, 13150.70
991.2950, 12660.67
992.4100, 12457.67
993.5240, 12084.73
994.6390, 12220.84
995.7530, 12376.03
996.8660, 12310.26
997.9800, 12697.56
999.0940, 12895.92
1000.207, 13014.33
1001.320, 13008.79
1002.433, 12995.30
1003.546, 12601.85
1004.659, 12133.48
1005.772, 11320.29
1006.884, 10287.97
1007.996, 9549.755
1009.108, 8579.513
1010.220, 7467.611
1011.332, 6569.453
1012.444, 5446.535
1013.555, 4761.566
1014.666, 4165.531
1015.777, 3720.133
1016.888, 3347.227
1017.999, 3121.312
1019.110, 2805.439
1020.220, 2642.604
1021.331, 2642.521
1022.441, 2613.766
1023.551, 2651.050
1024.661, 2722.375
1025.770, 2698.558
1026.880, 2741.961
1027.989, 2584.405
1029.098, 2639.887
1030.207, 2486.682
1031.316, 2519.387
1032.425, 2317.716
1033.533, 2330.363
1034.642, 2389.049
1035.750, 2443.205
1036.858, 2502.663
1037.966, 2640.898
1039.073, 2558.744
1040.181, 2788.981
1041.288, 2732.522
1042.396, 2837.078
1043.503, 3012.049
1044.610, 3016.756
1045.716, 3280.962
1046.823, 3542.141
1047.929, 3869.285
1049.036, 4347.373
1050.142, 5200.610
1051.248, 5871.881
1052.353, 5762.188
1053.459, 6255.883
1054.564, 6510.938
1055.670, 6516.348
1056.775, 6599.795
1057.880, 6230.477
1058.985, 6106.999
1060.089, 5692.554
1061.194, 5128.141
1062.298, 4732.761
1063.402, 4156.425
1064.506, 3682.314
1065.610, 3498.070
1066.713, 3228.482
1067.817, 2949.241
1068.920, 3101.128
1070.023, 3101.049
1071.126, 3187.187
1072.229, 3476.168
1073.332, 4055.388
1074.435, 4756.942
1075.537, 5407.199
1076.639, 6457.300
1077.741, 7593.994
1078.843, 8448.169
1079.945, 9732.310
1081.046, 10833.51
1082.148, 11140.75
1083.249, 10963.56
1084.350, 10635.84
1085.451, 9771.149
1086.551, 8431.832
1087.652, 7184.426
1088.752, 6299.506
1089.853, 5381.271
1090.953, 4588.994
1092.053, 3871.704
1093.152, 3405.482
1094.252, 3043.722
1095.351, 2658.355
1096.451, 2381.139
1097.550, 2157.065
1098.649, 1954.344
1099.748, 1831.744
1100.846, 1751.271
1101.945, 1547.885
1103.043, 1392.933
1104.141, 1302.059
1105.239, 1151.323
1106.337, 1133.430
1107.434, 962.1035
1108.532, 887.2959
1109.629, 857.9844
1110.726, 912.5713
1111.823, 722.6309
1112.920, 645.2412
1114.017, 463.0176
1115.113, 553.0381
1116.210, 542.7764
1117.306, 344.4307
1118.402, 427.2334
1119.498, 373.8232
1120.593, 311.8584
1121.689, 252.3301
1122.784, 174.8730
1123.879, 320.1396
1124.974, 257.9268
1126.069, 173.6846
1127.164, 260.3604
1128.259, 212.2646
1129.353, 192.4795
1130.447, 190.7764
1131.541, 93.91406
1132.635, 141.3711
1133.729, 15.53516
1134.822, 12.76172
1135.916, 0.6718750
1137.009, 12.27148
1138.102, 66.44141
1139.195, 3.014648
1140.288, 52.59668
1141.380, 18.98340
1142.473, 48.27637
1143.565, 12.52637
1144.657, 79.91211
1145.749, 71.59375
1146.841, 30.89648
1147.932, 100.3926
1149.024, 130.2891
1150.115, 11.91602
1151.206, 13.40137
1152.297, 88.11426
1153.388, 70.82031
1154.479, 106.2783
1155.569, 16.89453
1156.659, 86.41504
1157.750, 32.11230
1158.839, 36.16895
1159.929, 112.7969
1161.019, 10.95410
1162.108, 4.306641
1163.198, 181.3633
1164.287, 36.21875
1165.376, 111.1543
1166.465, 88.64258
1167.553, 72.10254
1168.642, 13.71875
1169.730, 8.183594
1170.818, 38.51758
1171.906, 149.8857
1172.994, 100.0107
1174.082, 168.1162
1175.170, 145.8076
1176.257, 51.68359
1177.344, 3.336914
1178.431, 39.51367
1179.518, 61.60742
1180.605, 64.57422
1181.691, 52.11719
1182.778, 94.52344
1183.864, 78.91113
1184.950, 50.75879
1186.036, 52.85352
1187.122, 155.5684
1188.207, 20.13574
1189.292, 82.76855
1190.378, 35.06836
1191.463, 54.77246
1192.548, 36.77051
1193.632, 33.59668
1194.717, 76.60352
1195.801, 24.22754
1196.886, 48.81543
1197.970, 36.27539
1199.054, 27.12402
1200.137, 22.73535
1201.221, 20.52441
1202.305, 34.11328
1203.388, 18.16602
1204.471, 101.3643
1205.554, 21.21777
1206.637, 75.81250
1207.719, 2.758789
1208.802, 44.60742
1209.884, 86.10840
1210.966, 75.90723
1212.048, 107.9043
1213.130, 44.12305
1214.212, 97.84473
1215.293, 117.7334
1216.374, 32.62988
1217.456, 39.46875
1218.536, 27.28320
1219.617, 16.06836
1220.698, 109.1846
1221.778, 76.45898
1222.859, 166.0850
1223.939, 20.84082
1225.019, 38.51172
1226.099, 21.10742
1227.178, 151.5996
1228.258, 126.2832
1229.337, 132.4785
1230.417, 132.8750
1231.496, 123.2441
1232.574, 66.58398
1233.653, 68.89258
