##NAMES=Axinite-(Fe)
##RRUFFID=R060558
##IDEAL CHEMISTRY=Ca_4_Fe^2+^_2_Al_4_[B_2_Si_8_O_30_](OH)_2_
##LOCALITY=unknown
##OWNER=RRUFF
##SOURCE=Gemological Institute of America
##DESCRIPTION=Brown flattened crystal
##STATUS=The identification of this mineral has been confirmed by X-ray diffraction and chemical analysis
##URL=rruff.info/R060558
##MEASURED CHEMISTRY=Ca_2.00_(Fe^2+^_0.60_Mg_0.35_Mn_0.05_)_Î£=1_Al_2.00_BSi_4.00_O_15_(OH) ; B not measured
##PIN_ID=M01035
##ORIENTATION=Laser parallel to c* (0 0 1). Fiducial mark perpendicular to laser is parallel to a [1 0 0]
126.5330, 0.0000000E+00
127.7670, 9.849854
129.0000, 36.74438
130.2340, 103.9575
131.4670, 0.8608400
132.7000, 34.26636
133.9330, 13.43042
135.1660, 95.91846
136.3990, 147.6384
137.6310, 348.1643
138.8640, 731.1125
140.0960, 1100.257
141.3280, 1375.274
142.5600, 1596.657
143.7910, 1743.587
145.0230, 1756.972
146.2540, 1632.750
147.4850, 1624.873
148.7160, 1724.305
149.9470, 2075.016
151.1780, 2325.985
152.4080, 2544.200
153.6380, 2552.464
154.8690, 2330.918
156.0980, 2295.369
157.3280, 2341.073
158.5580, 2324.663
159.7870, 2290.274
161.0170, 2203.923
162.2460, 2429.625
163.4750, 2443.387
164.7030, 2608.215
165.9320, 2888.106
167.1600, 3373.060
168.3890, 3977.080
169.6170, 4535.168
170.8450, 4811.327
172.0730, 4675.558
173.3000, 4101.861
174.5280, 3319.246
175.7550, 2634.730
176.9820, 2038.333
178.2090, 1423.058
179.4350, 991.2280
180.6620, 551.9565
181.8880, 341.5564
183.1150, 204.1138
184.3410, 0.9960940
185.5670, 40.96997
186.7920, 48.78979
188.0180, 11.53101
189.2430, 11.03271
190.4690, 200.6621
191.6940, 427.4084
192.9180, 645.2688
194.1430, 800.2439
195.3680, 914.3320
196.5920, 922.5300
197.8160, 963.8352
199.0400, 1034.244
200.2640, 1139.741
201.4880, 1444.264
202.7110, 1648.812
203.9350, 2095.391
205.1580, 2403.013
206.3810, 2619.688
207.6040, 2925.419
208.8270, 3216.208
210.0490, 3287.058
211.2710, 3376.968
212.4940, 3409.940
213.7160, 3332.974
214.9370, 3220.107
216.1590, 2982.225
217.3810, 2759.438
218.6020, 2475.710
219.8230, 2179.156
221.0440, 1827.531
222.2650, 1540.219
223.4860, 1241.113
224.7060, 940.3394
225.9260, 691.7976
227.1470, 528.4363
228.3670, 310.1016
229.5860, 126.7751
230.8060, 136.4331
232.0260, 23.88013
233.2450, 96.16357
234.4640, 192.4172
235.6830, 162.6409
236.9020, 91.83398
238.1200, 80.99561
239.3390, 47.12646
240.5570, 107.7751
241.7750, 173.7092
242.9930, 438.6768
244.2110, 711.6772
245.4290, 790.7117
246.6460, 995.7793
247.8630, 1212.880
249.0810, 1420.015
250.2980, 1527.064
251.5140, 1682.249
252.7310, 1750.466
253.9470, 1788.642
255.1640, 1800.733
256.3800, 1750.818
257.5960, 1683.999
258.8120, 1797.292
260.0270, 2077.674
261.2430, 2365.093
262.4580, 2409.548
263.6730, 2477.038
264.8880, 2762.563
266.1030, 3088.122
267.3170, 3408.715
268.5320, 3552.341
269.7460, 3685.001
270.9600, 3836.693
272.1740, 3816.417
273.3880, 3608.917
274.6010, 3309.584
275.8150, 3061.368
277.0280, 2853.392
278.2410, 2467.018
279.4540, 2346.354
280.6670, 1942.430
281.8790, 1640.013
283.0920, 1547.699
284.3040, 1477.480
285.5160, 1586.349
286.7280, 1481.300
287.9400, 1687.325
289.1510, 1819.410
290.3630, 2160.555
291.5740, 2494.755
292.7850, 2923.675
293.9960, 3683.319
295.2070, 3940.680
296.4170, 4568.089
297.6280, 5092.549
298.8380, 5554.056
300.0480, 5861.606
301.2580, 6057.189
302.4680, 6328.751
303.6770, 6386.297
304.8870, 6262.880
306.0960, 6059.499
307.3050, 5798.156
308.5140, 5480.131
309.7230, 5155.577
310.9310, 4712.341
312.1400, 4245.736
313.3480, 3841.581
314.5560, 3343.719
315.7640, 3078.950
316.9720, 2813.016
318.1790, 2749.255
319.3870, 2514.866
320.5940, 2341.944
321.8010, 2084.893
323.0080, 1749.282
324.2150, 1364.755
325.4210, 1128.298
326.6280, 1032.331
327.8340, 948.2803
329.0400, 761.2153
330.2460, 680.9219
331.4510, 660.9473
332.6570, 600.6978
333.8620, 598.7568
335.0680, 609.8457
336.2730, 728.9629
337.4780, 840.1084
338.6820, 1075.282
339.8870, 1295.482
341.0910, 1643.709
342.2950, 1959.964
343.5000, 2494.242
344.7030, 2961.547
345.9070, 3260.877
347.1110, 3469.230
348.3140, 3751.609
349.5170, 4016.014
350.7200, 4229.444
351.9230, 4722.909
353.1260, 4927.419
354.3290, 4760.981
355.5310, 4210.570
356.7330, 3697.183
357.9350, 2931.817
359.1370, 2234.474
360.3390, 1656.153
361.5400, 1167.389
362.7420, 801.5776
363.9430, 481.3218
365.1440, 293.0874
366.3450, 192.8730
367.5460, 83.67822
368.7460, 67.50293
369.9470, 51.35059
371.1470, 39.75244
372.3470, 142.1758
373.5470, 61.16406
374.7460, 167.2017
375.9460, 66.29199
377.1450, 205.9395
378.3450, 197.8428
379.5440, 284.8325
380.7430, 521.4707
381.9410, 622.6543
383.1400, 943.3477
384.3380, 1276.735
385.5370, 1811.260
386.7350, 2414.526
387.9320, 3088.708
389.1300, 3662.170
390.3280, 4105.772
391.5250, 4212.173
392.7220, 4407.531
393.9190, 4272.902
395.1160, 3902.275
396.3130, 3305.662
397.5100, 2863.061
398.7060, 2300.472
399.9020, 1918.896
401.0980, 1572.334
402.2940, 1348.784
403.4900, 1115.246
404.6860, 988.7188
405.8810, 880.2041
407.0760, 820.7012
408.2710, 959.2085
409.4660, 997.7271
410.6610, 1108.257
411.8550, 1299.799
413.0500, 1510.351
414.2440, 2021.913
415.4380, 2504.486
416.6320, 2977.072
417.8260, 3253.409
419.0190, 3725.294
420.2130, 3655.938
421.4060, 3655.598
422.5990, 3684.280
423.7920, 3819.979
424.9850, 3988.698
426.1770, 4514.432
427.3700, 4838.073
428.5620, 5294.947
429.7540, 5576.727
430.9460, 5550.521
432.1380, 5375.329
433.3290, 4745.149
434.5210, 4119.983
435.7120, 3433.831
436.9030, 2741.690
438.0940, 2293.561
439.2850, 1985.445
440.4750, 1759.340
441.6660, 1612.246
442.8560, 1746.164
444.0460, 1735.091
445.2360, 1782.030
446.4260, 1679.979
447.6160, 1425.938
448.8050, 1128.908
449.9940, 753.8882
451.1830, 479.8784
452.3720, 248.8779
453.5610, 73.88721
454.7500, 10.09473
455.9380, 18.07568
457.1260, 157.0610
458.3150, 76.12012
459.5020, 55.21143
460.6900, 91.32568
461.8780, 144.4805
463.0650, 214.7041
464.2530, 148.0352
465.4400, 106.4380
466.6270, 122.8911
467.8130, 123.4033
469.0000, 48.02344
470.1870, 119.4585
471.3730, 218.8999
472.5590, 259.3496
473.7450, 280.8081
474.9310, 371.2832
476.1160, 384.7759
477.3020, 447.2749
478.4870, 688.7812
479.6720, 851.2930
480.8570, 1127.812
482.0420, 1362.336
483.2270, 1827.866
484.4110, 2120.402
485.5960, 2241.944
486.7800, 2304.490
487.9640, 2067.042
489.1480, 1505.599
490.3310, 1077.204
491.5150, 694.9736
492.6980, 414.6104
493.8810, 284.4365
495.0640, 166.2783
496.2470, 69.70215
497.4300, 61.71875
498.6120, 32.30615
499.7950, 242.8955
500.9770, 329.4883
502.1590, 344.0825
503.3410, 442.6792
504.5220, 524.2773
505.7040, 706.8774
506.8850, 1000.479
508.0660, 1027.348
509.2470, 1316.686
510.4280, 1173.547
511.6090, 1172.229
512.7890, 1207.327
513.9700, 1108.823
515.1500, 1119.752
516.3300, 934.9697
517.5100, 794.3350
518.6900, 738.9404
519.8690, 521.5532
521.0490, 499.9131
522.2280, 366.9326
523.4070, 191.5225
524.5860, 159.4360
525.7640, 44.35742
526.9430, 48.72266
528.1210, 23.14453
529.3000, 41.87891
530.4780, 13.86182
531.6560, 15.43506
532.8330, 66.29541
534.0110, 113.0200
535.1880, 211.7393
536.3650, 270.4536
537.5430, 276.1621
538.7190, 471.8657
539.8960, 625.5635
541.0730, 571.2563
542.2490, 789.9429
543.4250, 898.6230
544.6020, 1044.298
545.7780, 1136.981
546.9530, 1236.665
548.1290, 1080.372
549.3040, 1044.114
550.4800, 976.8818
551.6550, 887.6582
552.8300, 807.4585
554.0040, 878.2632
555.1790, 866.0879
556.3540, 1081.928
557.5280, 1233.762
558.7020, 1515.587
559.8760, 1588.407
561.0500, 1810.220
562.2230, 1867.036
563.3970, 1921.844
564.5700, 1771.658
565.7430, 1632.463
566.9160, 1561.259
568.0890, 1596.046
569.2620, 1781.826
570.4340, 1883.595
571.6070, 2050.355
572.7790, 2090.106
573.9510, 2263.847
575.1230, 2337.579
576.2940, 2417.300
577.4660, 2376.011
578.6370, 2512.712
579.8080, 2406.404
580.9790, 2456.084
582.1500, 2551.754
583.3210, 2803.413
584.4910, 2957.062
585.6620, 3382.699
586.8320, 3710.325
588.0020, 4014.940
589.1720, 4430.545
590.3410, 4334.137
591.5110, 4099.718
592.6800, 3742.287
593.8500, 3141.844
595.0190, 2614.389
596.1880, 2210.328
597.3560, 1723.840
598.5250, 1515.080
599.6930, 1252.250
600.8620, 1166.606
602.0300, 1031.811
603.1970, 982.6665
604.3650, 985.0752
605.5330, 1080.634
606.7000, 1144.771
607.8680, 1187.846
609.0350, 1319.861
610.2020, 1371.419
611.3680, 1472.667
612.5350, 1499.056
613.7010, 1521.373
614.8680, 1538.553
616.0340, 1505.170
617.2000, 1485.524
618.3660, 1435.868
619.5310, 1337.203
620.6970, 1220.527
621.8620, 1105.843
623.0270, 912.1484
624.1920, 783.4443
625.3570, 549.7300
626.5220, 366.0059
627.6860, 265.2720
628.8500, 183.5273
630.0140, 65.77295
631.1780, 51.00732
632.3420, 64.22900
633.5060, 5.561523
634.6700, 37.38428
635.8330, 78.25781
636.9960, 40.79736
638.1590, 97.83594
639.3220, 138.8643
640.4850, 175.8823
641.6470, 278.8892
642.8100, 366.8853
643.9720, 241.8706
645.1340, 376.8442
646.2960, 208.8076
647.4570, 332.7598
648.6190, 195.7002
649.7800, 53.62988
650.9420, 19.70654
652.1030, 86.40088
653.2640, 53.54248
654.4240, 126.0405
655.5850, 79.12500
656.7450, 95.23975
657.9060, 46.38477
659.0660, 41.58252
660.2260, 72.82959
661.3850, 104.0562
662.5450, 71.43359
663.7040, 352.0205
664.8640, 469.3062
666.0230, 533.2544
667.1820, 929.2588
668.3410, 1104.522
669.4990, 1463.871
670.6580, 1887.938
671.8160, 2448.865
672.9740, 2828.993
674.1320, 3253.164
675.2900, 3552.321
676.4480, 4057.464
677.6050, 3956.594
678.7630, 3880.709
679.9200, 3459.812
681.0770, 2920.900
682.2340, 2409.976
683.3900, 1975.038
684.5470, 1621.734
685.7030, 1291.183
686.8590, 1091.802
688.0150, 914.4546
689.1710, 793.1045
690.3270, 759.6934
691.4830, 705.4043
692.6380, 754.8853
693.7930, 884.6440
694.9480, 1025.552
696.1030, 1155.450
697.2580, 1323.332
698.4130, 1573.523
699.5670, 1872.373
700.7210, 2440.480
701.8750, 2931.297
703.0290, 3527.991
704.1830, 4496.775
705.3370, 5480.544
706.4900, 6938.295
707.6430, 8572.031
708.7970, 10300.75
709.9490, 12112.45
711.1020, 14015.14
712.2550, 15649.81
713.4070, 17015.47
714.5600, 17276.11
715.7120, 16403.73
716.8640, 14857.34
718.0160, 12886.93
719.1670, 10960.51
720.3190, 8947.070
721.4700, 7327.616
722.6210, 5828.147
723.7720, 4771.664
724.9230, 3870.165
726.0740, 3164.650
727.2250, 2704.122
728.3750, 2209.577
729.5250, 1810.020
730.6750, 1553.446
731.8250, 1249.859
732.9750, 1039.257
734.1240, 950.6411
735.2740, 805.0151
736.4230, 776.3813
737.5720, 634.7749
738.7210, 645.1743
739.8700, 527.5762
741.0190, 396.9883
742.1670, 464.4253
743.3150, 372.9058
744.4630, 252.4126
745.6110, 326.9351
746.7590, 291.4775
747.9070, 266.0405
749.0540, 311.5908
750.2020, 364.1274
751.3490, 367.6523
752.4960, 415.1646
753.6430, 434.6641
754.7890, 521.6079
755.9360, 678.6255
757.0820, 746.0879
758.2280, 885.5386
759.3740, 1069.977
760.5200, 1229.404
761.6660, 1409.819
762.8120, 1621.222
763.9570, 1755.615
765.1020, 1982.996
766.2470, 2186.365
767.3920, 2195.724
768.5370, 2211.027
769.6810, 2040.160
770.8260, 1976.421
771.9700, 1760.484
773.1140, 1547.527
774.2580, 1417.981
775.4020, 1117.837
776.5460, 972.1152
777.6890, 774.3843
778.8320, 634.6450
779.9750, 447.8965
781.1180, 472.1406
782.2610, 278.3755
783.4040, 348.6030
784.5460, 246.8218
785.6890, 188.0337
786.8310, 170.2373
787.9730, 49.17773
789.1150, 111.2886
790.2560, 1.021484
791.3980, 110.3457
792.5390, 91.54785
793.6810, 48.07861
794.8220, 132.7837
795.9630, 135.7744
797.1030, 21.81787
798.2440, 99.60938
799.3840, 11.93799
800.5240, 5.937500
801.6650, 35.61719
802.8040, 83.29492
803.9440, 56.97363
805.0840, 151.6743
806.2230, 227.3794
807.3630, 336.1060
808.5020, 320.8467
809.6410, 368.6016
810.7790, 397.3574
811.9180, 463.1123
813.0570, 426.8667
814.1950, 396.6211
815.3330, 185.3755
816.4710, 156.1299
817.6090, 92.88428
818.7470, 35.63965
819.8840, 112.3955
821.0220, 52.84814
822.1590, 19.12012
823.2960, 111.4038
824.4330, 160.7451
825.5690, 123.1699
826.7060, 56.65771
827.8420, 117.1733
828.9790, 49.74707
830.1150, 104.3438
831.2510, 91.99072
832.3860, 37.31836
833.5220, 59.63086
834.6570, 9.054199
835.7930, 83.25928
836.9280, 51.42334
838.0630, 15.87451
839.1980, 63.82373
840.3320, 16.45410
841.4670, 19.73682
842.6010, 98.02344
843.7350, 8.314941
844.8690, 112.6113
846.0030, 101.9126
847.1370, 115.2192
848.2700, 191.5317
849.4040, 134.8496
850.5370, 238.1738
851.6700, 274.5044
852.8030, 125.8413
853.9360, 289.1846
855.0680, 211.5356
856.2000, 238.8936
857.3330, 340.2593
858.4650, 336.6328
859.5970, 333.7124
860.7290, 239.4038
861.8600, 274.8022
862.9920, 271.2090
864.1230, 247.6245
865.2540, 348.0488
866.3850, 342.4829
867.5160, 302.5229
868.6460, 344.0190
869.7770, 245.8398
870.9070, 297.3120
872.0370, 394.7944
873.1670, 282.2871
874.2970, 303.7905
875.4270, 341.3086
876.5570, 385.8369
877.6860, 387.5010
878.8150, 485.9351
879.9440, 429.5029
881.0730, 474.0806
882.2020, 566.6777
883.3300, 493.2852
884.4590, 570.9028
885.5870, 578.5317
886.7150, 649.1719
887.8430, 877.8218
888.9710, 921.6885
890.0990, 1235.158
891.2260, 1195.845
892.3530, 1473.545
893.4810, 1697.258
894.6080, 1931.989
895.7340, 2226.739
896.8610, 2386.502
897.9880, 2690.283
899.1140, 2976.081
900.2400, 3189.892
901.3660, 3323.727
902.4920, 3494.576
903.6180, 3614.148
904.7430, 3772.346
905.8690, 3779.261
906.9940, 3715.190
908.1190, 3688.146
909.2440, 3449.154
910.3690, 3145.214
911.4930, 2805.292
912.6180, 2496.383
913.7420, 2243.489
914.8660, 2019.610
915.9900, 1740.756
917.1140, 1420.920
918.2380, 1294.101
919.3610, 1083.296
920.4850, 1039.533
921.6080, 930.7861
922.7310, 735.0688
923.8540, 731.2227
924.9760, 710.5605
926.0990, 752.9038
927.2210, 688.5923
928.3440, 796.8525
929.4660, 798.1284
930.5880, 864.4160
931.7090, 947.7354
932.8310, 883.4248
933.9520, 823.3022
935.0740, 866.0322
936.1950, 858.5547
937.3160, 801.3960
938.4360, 666.2573
939.5570, 710.1440
940.6780, 737.0552
941.7980, 826.9868
942.9180, 852.9385
944.0380, 908.7544
945.1580, 922.9014
946.2780, 1044.914
947.3970, 1111.946
948.5170, 1263.998
949.6360, 1354.071
950.7550, 1553.208
951.8740, 1845.288
952.9930, 1990.442
954.1110, 2329.637
955.2300, 2593.852
956.3480, 2919.065
957.4660, 3451.285
958.5840, 3936.965
959.7020, 4361.627
960.8190, 5051.720
961.9370, 5721.043
963.0540, 6430.676
964.1710, 6736.547
965.2880, 6949.149
966.4050, 6978.611
967.5220, 6941.091
968.6380, 6561.596
969.7550, 6426.804
970.8710, 6195.384
971.9870, 6181.716
973.1030, 6303.347
974.2190, 6589.110
975.3340, 7096.796
976.4500, 7584.505
977.5650, 8167.240
978.6800, 8655.998
979.7950, 9006.780
980.9100, 9069.591
982.0250, 8841.426
983.1390, 8411.295
984.2530, 7942.200
985.3680, 7531.143
986.4820, 6985.124
987.5950, 6727.145
988.7090, 6366.214
989.8230, 6273.319
990.9360, 6003.469
992.0490, 6061.648
993.1620, 6146.856
994.2750, 6053.090
995.3880, 6303.349
996.5010, 6506.632
997.6130, 6686.939
998.7250, 6866.271
999.8370, 7214.628
1000.949, 7279.009
1002.061, 7599.417
1003.173, 7736.851
1004.284, 7583.307
1005.396, 7489.787
1006.507, 7081.292
1007.618, 6779.046
1008.729, 5976.320
1009.839, 5343.898
1010.950, 4573.953
1012.060, 3974.651
1013.171, 3365.301
1014.281, 2960.983
1015.391, 2538.438
1016.500, 2161.157
1017.610, 1925.928
1018.719, 1703.694
1019.829, 1505.484
1020.938, 1343.297
1022.047, 1266.132
1023.156, 1141.367
1024.264, 1160.249
1025.373, 1097.581
1026.481, 1116.598
1027.589, 1282.640
1028.697, 1262.104
1029.805, 1239.099
1030.913, 1255.534
1032.020, 1073.197
1033.128, 1204.257
1034.235, 1077.963
1035.342, 1093.065
1036.449, 1083.747
1037.556, 1099.684
1038.663, 1095.278
1039.769, 1093.097
1040.875, 1088.891
1041.981, 1106.694
1043.087, 1108.368
1044.193, 1127.781
1045.299, 1127.074
1046.404, 1086.388
1047.510, 1158.720
1048.615, 1198.071
1049.720, 1193.418
1050.825, 1290.815
1051.930, 1448.232
1053.034, 1605.671
1054.139, 1601.183
1055.243, 1622.956
1056.347, 1815.778
1057.451, 1810.367
1058.555, 1888.919
1059.658, 1854.570
1060.762, 1735.087
1061.865, 1789.505
1062.968, 1727.773
1064.071, 1543.608
1065.174, 1527.492
1066.277, 1293.312
1067.380, 1127.196
1068.482, 1024.079
1069.584, 896.7988
1070.686, 842.8687
1071.788, 796.9399
1072.890, 792.6074
1073.992, 873.5601
1075.093, 880.5605
1076.194, 1034.538
1077.295, 1160.912
1078.396, 1313.615
1079.497, 1506.673
1080.598, 1706.700
1081.698, 1888.754
1082.799, 2040.710
1083.899, 2253.773
1084.999, 2331.482
1086.099, 2316.032
1087.199, 2112.127
1088.298, 1850.488
1089.398, 1618.667
1090.497, 1291.812
1091.596, 1102.424
1092.695, 915.6602
1093.794, 953.1973
1094.892, 721.5723
1095.991, 713.5664
1097.089, 700.9268
1098.187, 620.6421
1099.285, 666.1250
1100.383, 655.5581
1101.481, 661.1890
1102.579, 697.2202
1103.676, 690.8047
1104.773, 701.2803
1105.870, 676.1768
1106.967, 705.1138
1108.064, 698.6216
1109.161, 760.1362
1110.257, 649.6558
1111.353, 630.4521
1112.449, 506.1006
1113.545, 473.2559
1114.641, 389.8291
1115.737, 388.0645
1116.832, 303.1309
1117.928, 253.8096
1119.023, 213.9790
1120.118, 216.7471
1121.213, 167.2080
1122.308, 219.9893
1123.402, 122.2104
1124.497, 108.4980
1125.591, 127.1562
1126.685, 41.81299
1127.779, 129.5156
1128.873, 155.0830
1129.967, 53.79980
1131.060, 63.36719
1132.153, 110.9341
1133.247, 106.1650
1134.340, 89.73096
1135.433, 83.31787
1136.525, 4.860352
1137.618, 31.42236
1138.710, 14.01660
1139.802, 31.35986
1140.895, 47.32031
1141.987, 22.13525
1143.078, 39.22900
1144.170, 18.32861
1145.261, 1.850098
1146.353, 52.63086
1147.444, 86.86816
1148.535, 0.6357420
1149.626, 29.02148
1150.716, 20.72803
1151.807, 9.212402
1152.897, 46.69238
1153.988, 15.83203
1155.078, 21.77490
1156.168, 16.54883
1157.257, 3.982910
1158.347, 31.53809
1159.436, 38.23047
1160.526, 33.29785
1161.615, 35.29980
1162.704, 18.91797
1163.793, 20.45117
1164.881, 52.18701
1165.970, 37.14453
1167.058, 33.33545
1168.147, 68.03369
1169.235, 7.398926
1170.323, 0.3476560
1171.410, 16.98828
1172.498, 72.46484
1173.585, 23.81592
1174.673, 1.149414
1175.760, 71.54492
1176.847, 31.75488
1177.934, 78.05664
1179.020, 30.81152
1180.107, 13.70703
1181.193, 16.37793
1182.279, 18.45312
1183.365, 91.48145
1184.451, 9.051270
1185.537, 46.77734
1186.623, 46.49365
1187.708, 10.82324
1188.793, 25.72705
1189.878, 10.61719
1190.963, 84.50635
1192.048, 33.64600
1193.133, 45.91406
1194.217, 20.90674
1195.302, 24.62744
1196.386, 83.33545
1197.470, 45.44580
1198.554, 77.15576
1199.638, 32.10156
1200.721, 91.52734
1201.805, 1.562500
1202.888, 6.027832
1203.971, 66.59668
1205.054, 54.15186
1206.137, 85.69238
1207.219, 75.21924
1208.302, 47.98096
1209.384, 59.47803
1210.466, 81.96045
1211.548, 69.42822
1212.630, 9.527832
1213.712, 91.95703
1214.794, 33.62939
1215.875, 46.26172
1216.956, 88.05029
1218.037, 35.34766
1219.118, 73.62695
1220.199, 110.8896
1221.280, 5.137695
1222.360, 95.35547
1223.441, 9.556641
1224.521, 75.73047
1225.601, 25.88623
1226.681, 127.0186
1227.760, 42.13379
1228.840, 86.22803
1229.919, 129.3047
1230.999, 15.36328
1232.078, 55.60693
1233.157, 75.35693
1234.236, 156.3018
1235.314, 44.22900
1236.393, 44.13330
1237.471, 115.0156
1238.549, 145.0552
1239.627, 113.9819
1240.705, 60.80859
1241.783, 88.61426
1242.860, 48.39990
1243.938, 3.162598
1245.015, 12.83350
1246.092, 17.22461
1247.169, 10.58398
1248.246, 17.98975
1249.323, 43.04150
1250.399, 4.966309
1251.475, 27.53027
1252.552, 16.85010
1253.628, 44.19531
1254.703, 108.5156
1255.779, 109.8149
1256.855, 100.0942
1257.930, 154.3594
1259.005, 98.60498
1260.080, 161.8291
1261.155, 188.0342
1262.230, 51.31592
1263.305, 142.4756
1264.379, 149.6152
1265.454, 249.7607
1266.528, 220.8618
1267.602, 185.0430
1268.676, 117.8789
1269.750, 110.1968
1270.823, 144.2158
1271.897, 73.76270
1272.970, 134.7925
1274.043, 165.7485
1275.116, 155.9634
1276.189, 157.1221
1277.261, 172.1479
1278.334, 104.9966
1279.406, 92.99170
1280.478, 220.8262
1281.550, 165.6416
1282.622, 224.4375
1283.694, 113.8369
1284.766, 96.59229
1285.837, 120.9053
1286.908, 248.5308
1287.979, 165.1987
1289.050, 184.3896
1290.121, 166.0522
1291.192, 176.2759
1292.262, 185.2788
1293.333, 231.8916
1294.403, 156.8589
1295.473, 99.43311
1296.543, 238.4292
1297.613, 101.1719
1298.682, 186.6860
1299.752, 121.1226
