##NAMES=Axinite-(Fe)
##RRUFFID=R060183
##IDEAL CHEMISTRY=Ca_4_Fe^2+^_2_Al_4_[B_2_Si_8_O_30_](OH)_2_
##LOCALITY=Skagit Bluffs, near Manning Park, British Columbia, Canada
##OWNER=RRUFF
##SOURCE=Lloyd Twaites
##DESCRIPTION=Light-pink transparent axe-head-shaped single crystal
##STATUS=The identification of this mineral has been confirmed by X-ray diffraction and chemical analysis
##URL=rruff.info/R060183
##MEASURED CHEMISTRY=Ca_2.00_(Fe^2+^_0.58_Mn_0.23_Mg_0.19_)Al_2.00_B_1.00_Si_4.00_O_15_(OH)
##PIN_ID=L01391
##ORIENTATION=Laser parallel to -a* (-1 0 0). Fiducial mark perpendicular to laser is parallel to -b [0 -1 0]
52.67100, 0.0000000E+00
53.91000, 28.15588
55.14900, 83.77185
56.38700, 120.2089
57.62600, 149.5834
58.86400, 243.1074
60.10300, 228.5247
61.34100, 151.0385
62.57900, 73.14685
63.81700, 9.983521
65.05400, 51.68738
66.29200, 56.11139
67.52900, 31.52386
68.76700, 0.1419680
70.00400, 129.8384
71.24100, 168.2419
72.47700, 70.90649
73.71400, 51.67053
74.95100, 181.3875
76.18700, 325.9338
77.42300, 271.1963
78.65900, 354.0717
79.89500, 498.4673
81.13100, 704.2996
82.36700, 1086.494
83.60200, 1379.983
84.83700, 1553.707
86.07200, 1711.610
87.30800, 2098.642
88.54200, 2355.758
89.77700, 3027.914
91.01200, 3738.045
92.24600, 4530.071
93.48000, 5028.921
94.71400, 5250.548
95.94800, 5467.958
97.18200, 5533.143
98.41600, 5774.072
99.64900, 6103.706
100.8830, 6415.018
102.1160, 6647.979
103.3490, 7144.571
104.5820, 7983.773
105.8150, 9166.568
107.0470, 10266.94
108.2800, 10198.84
109.5120, 11716.36
110.7440, 9670.382
111.9760, 8389.928
113.2080, 7507.991
114.4400, 6943.556
115.6710, 6618.615
116.9030, 5964.160
118.1340, 5646.182
119.3650, 5467.670
120.5960, 5218.620
121.8270, 5295.021
123.0580, 5185.974
124.2880, 5100.151
125.5190, 5118.866
126.7490, 4907.928
127.9790, 4688.094
129.2090, 4620.350
130.4390, 4365.675
131.6680, 3968.070
132.8980, 3784.504
134.1270, 3832.982
135.3560, 3791.723
136.5850, 4232.042
137.8140, 4479.046
139.0430, 4745.631
140.2710, 4667.569
141.5000, 4335.726
142.7280, 4164.083
143.9560, 4043.621
145.1840, 4248.348
146.4120, 4630.274
147.6390, 4670.406
148.8670, 4833.756
150.0940, 4899.331
151.3210, 5038.135
152.5490, 4842.174
153.7750, 4800.452
155.0020, 4897.965
156.2290, 4890.719
157.4550, 4436.710
158.6810, 4073.940
159.9080, 3819.407
161.1340, 3820.111
162.3590, 4093.053
163.5850, 4456.229
164.8110, 5086.641
166.0360, 5991.284
167.2610, 6931.162
168.4860, 7784.271
169.7110, 8181.611
170.9360, 8044.181
172.1610, 7097.980
173.3850, 5973.004
174.6100, 4960.255
175.8340, 3995.730
177.0580, 3242.429
178.2820, 2561.349
179.5050, 2011.259
180.7290, 1567.848
181.9520, 1268.424
183.1760, 1035.217
184.3990, 919.2231
185.6220, 853.9102
186.8450, 868.8735
188.0670, 1002.514
189.2900, 1191.363
190.5120, 1506.418
191.7340, 1731.678
192.9560, 1901.141
194.1780, 2035.806
195.4000, 2041.671
196.6220, 1995.734
197.8430, 2040.994
199.0640, 2277.449
200.2860, 2663.146
201.5070, 3139.571
202.7270, 3521.824
203.9480, 4286.890
205.1690, 4493.838
206.3890, 4985.414
207.6090, 5551.891
208.8290, 5765.663
210.0490, 5868.324
211.2690, 5768.347
212.4890, 5416.514
213.7080, 5093.255
214.9280, 4713.546
216.1470, 4247.699
217.3660, 3739.592
218.5850, 3281.316
219.8030, 2854.500
221.0220, 2285.892
222.2400, 1779.551
223.4590, 1301.533
224.6770, 953.3843
225.8950, 691.2729
227.1120, 503.4731
228.3300, 409.3936
229.5480, 302.3721
230.7650, 274.4692
231.9820, 294.5635
233.1990, 414.8872
234.4160, 618.4434
235.6330, 771.2393
236.8490, 1004.330
238.0660, 1233.710
239.2820, 1533.371
240.4980, 1782.325
241.7140, 2169.584
242.9300, 2260.146
244.1460, 2505.011
245.3610, 2642.180
246.5770, 2643.603
247.7920, 2773.284
249.0070, 2920.210
250.2220, 2913.344
251.4370, 3128.685
252.6510, 3395.217
253.8660, 3456.926
255.0800, 3661.802
256.2940, 3616.843
257.5080, 3818.047
258.7220, 3900.602
259.9360, 3952.237
261.1490, 4167.609
262.3630, 4284.440
263.5760, 4534.425
264.7890, 5123.558
266.0020, 5570.840
267.2150, 6220.269
268.4270, 6746.841
269.6400, 7299.559
270.8520, 7815.411
272.0640, 8115.409
273.2760, 8237.539
274.4880, 8126.809
275.7000, 7737.214
276.9120, 7192.759
278.1230, 6313.441
279.3340, 5576.259
280.5450, 4820.216
281.7560, 4318.307
282.9670, 3815.533
284.1780, 3519.397
285.3880, 3469.375
286.5980, 3260.987
287.8090, 3313.725
289.0190, 3446.590
290.2290, 3522.578
291.4380, 3679.691
292.6480, 3912.928
293.8570, 4031.287
295.0670, 4296.767
296.2760, 4263.369
297.4850, 4430.092
298.6930, 4357.933
299.9020, 4456.892
301.1110, 4358.969
302.3190, 4448.163
303.5270, 4614.470
304.7350, 4491.895
305.9430, 4351.433
307.1510, 4115.082
308.3580, 3834.844
309.5660, 3638.717
310.7730, 3687.701
311.9800, 3767.792
313.1870, 4079.992
314.3940, 4717.298
315.6010, 5314.711
316.8070, 5994.231
318.0130, 6178.854
319.2200, 6382.582
320.4260, 5938.411
321.6310, 5449.343
322.8370, 4745.374
324.0430, 4143.506
325.2480, 3709.738
326.4540, 3432.068
327.6590, 3233.494
328.8640, 3070.017
330.0680, 2973.636
331.2730, 2922.349
332.4780, 2983.157
333.6820, 3143.058
334.8860, 3449.050
336.0900, 3762.134
337.2940, 4312.308
338.4980, 4982.572
339.7010, 5654.925
340.9050, 6282.365
342.1080, 6667.894
343.3110, 6836.507
344.5140, 6463.207
345.7170, 6292.029
346.9200, 5673.978
348.1220, 5400.053
349.3240, 5190.253
350.5270, 4723.866
351.7290, 4043.921
352.9310, 3314.375
354.1320, 2464.969
355.3340, 1729.205
356.5350, 1124.486
357.7370, 604.1440
358.9380, 129.3843
360.1390, 131.2554
361.3400, 290.8091
362.5400, 420.3262
363.7410, 494.8540
364.9410, 487.4238
366.1410, 485.0342
367.3410, 440.6860
368.5410, 287.3643
369.7410, 227.0142
370.9400, 136.6182
372.1400, 31.15039
373.3390, 71.58691
374.5380, 9.937988
375.7370, 23.81592
376.9360, 163.8486
378.1350, 251.6099
379.3330, 480.0889
380.5310, 884.4248
381.7300, 1394.105
382.9280, 1942.257
384.1260, 2740.736
385.3230, 3518.433
386.5210, 4049.238
387.7180, 4663.104
388.9160, 4915.263
390.1130, 5334.943
391.3100, 5416.568
392.5060, 5159.215
393.7030, 4882.560
394.9000, 4316.676
396.0960, 3783.679
397.2920, 3284.266
398.4880, 2984.654
399.6840, 2635.113
400.8800, 2351.641
402.0750, 2105.238
403.2710, 1670.902
404.4660, 1567.635
405.6610, 1416.434
406.8560, 1522.300
408.0510, 1618.230
409.2450, 1875.227
410.4400, 2295.287
411.6340, 2718.411
412.8280, 3355.598
414.0220, 4187.847
415.2160, 4928.159
416.4100, 5410.532
417.6030, 5786.966
418.7970, 5877.458
419.9900, 6297.013
421.1830, 6513.624
422.3760, 6798.292
423.5690, 6996.018
424.7610, 7295.800
425.9540, 7345.639
427.1460, 7401.533
428.3380, 7410.482
429.5300, 7217.485
430.7220, 6642.540
431.9140, 6024.646
433.1050, 5245.808
434.2970, 4514.019
435.4880, 3696.281
436.6790, 3305.593
437.8700, 2994.955
439.0610, 3021.364
440.2510, 3319.823
441.4420, 3574.329
442.6320, 3685.882
443.8220, 3619.481
445.0120, 3391.126
446.2020, 2954.815
447.3910, 2443.551
448.5810, 1969.329
449.7700, 1573.149
450.9600, 1370.014
452.1490, 1246.920
453.3370, 1191.867
454.5260, 1065.856
455.7150, 1003.884
456.9030, 902.9526
458.0910, 768.0601
459.2800, 478.2056
460.4670, 503.3896
461.6550, 340.6104
462.8430, 281.8682
464.0300, 418.1621
465.2180, 433.4917
466.4050, 464.8564
467.5920, 694.2554
468.7790, 879.6885
469.9650, 971.1553
471.1520, 849.6543
472.3380, 953.1860
473.5250, 987.7495
474.7110, 1007.344
475.8970, 1199.969
477.0820, 1491.624
478.2680, 1847.309
479.4540, 2253.022
480.6390, 2793.766
481.8240, 3025.536
483.0090, 3330.334
484.1940, 3156.158
485.3780, 2739.009
486.5630, 2218.886
487.7470, 1605.789
488.9320, 1044.716
490.1160, 594.9243
491.3000, 355.9482
492.4830, 126.7500
493.6670, 19.75293
494.8500, 57.27832
496.0340, 37.38135
497.2170, 50.45312
498.4000, 123.2617
499.5820, 199.0684
500.7650, 344.8896
501.9480, 399.7305
503.1300, 561.9360
504.3120, 681.7754
505.4940, 849.2920
506.6760, 932.3623
507.8580, 1079.742
509.0390, 1231.216
510.2210, 1257.712
511.4020, 1357.689
512.5830, 1159.970
513.7640, 924.2642
514.9450, 815.3027
516.1250, 610.4697
517.3060, 465.6904
518.4860, 136.2866
519.6660, 67.58594
520.8460, 9.416992
522.0260, 230.7437
523.2060, 232.9873
524.3850, 203.3296
525.5650, 273.7632
526.7440, 325.3198
527.9230, 341.0576
529.1020, 338.9907
530.2810, 358.1328
531.4590, 176.4966
532.6380, 189.9922
533.8160, 153.6304
534.9940, 8.393555
536.1720, 20.21240
537.3500, 42.90674
538.5270, 119.9917
539.7050, 246.0669
540.8820, 364.1455
542.0590, 574.2280
543.2360, 760.3149
544.4130, 807.4170
545.5900, 812.5366
546.7660, 831.6855
547.9430, 851.8516
549.1190, 815.0454
550.2950, 903.2690
551.4710, 982.8228
552.6470, 1122.146
553.8220, 1264.026
554.9980, 1541.309
556.1730, 1776.597
557.3480, 2098.885
558.5230, 2335.171
559.6980, 2441.454
560.8730, 2281.733
562.0470, 2265.007
563.2220, 1953.278
564.3960, 1759.542
565.5700, 1699.803
566.7440, 1641.057
567.9170, 1688.304
569.0910, 1748.545
570.2640, 1879.779
571.4380, 1929.005
572.6110, 1921.223
573.7840, 1917.433
574.9570, 1792.634
576.1290, 1702.826
577.3020, 1666.008
578.4740, 1501.181
579.6460, 1508.343
580.8180, 1586.495
581.9900, 1562.635
583.1620, 1692.764
584.3330, 1953.881
585.5040, 1951.986
586.6760, 2122.079
587.8470, 2138.159
589.0180, 2063.226
590.1880, 1743.279
591.3590, 1460.318
592.5290, 1164.343
593.7000, 945.3525
594.8700, 660.3481
596.0400, 562.3281
597.2090, 442.2925
598.3790, 386.2407
599.5490, 384.1724
600.7180, 453.0879
601.8870, 606.9863
603.0560, 694.8677
604.2250, 826.7310
605.3940, 974.7358
606.5620, 1031.404
607.7300, 1277.213
608.8990, 1424.003
610.0670, 1580.774
611.2350, 1688.525
612.4020, 1794.258
613.5700, 1917.970
614.7370, 2074.662
615.9050, 2192.333
617.0720, 2257.983
618.2390, 2248.438
619.4060, 2260.220
620.5720, 2059.806
621.7390, 1857.371
622.9050, 1594.913
624.0710, 1199.433
625.2370, 978.9302
626.4030, 707.4038
627.5690, 490.8550
628.7340, 390.2822
629.9000, 276.1172
631.0650, 305.0625
632.2300, 236.4146
633.3950, 420.4531
634.5600, 500.1533
635.7240, 624.5581
636.8890, 761.9253
638.0530, 889.7549
639.2170, 1096.232
640.3810, 1093.274
641.5450, 1344.989
642.7080, 1497.449
643.8720, 1457.299
645.0350, 1450.241
646.1980, 1213.837
647.3610, 1173.543
648.5240, 965.2676
649.6870, 750.4932
650.8490, 660.7373
652.0120, 468.8384
653.1740, 450.0972
654.3360, 329.3872
655.4980, 384.9761
656.6600, 239.6025
657.8210, 307.2812
658.9830, 347.9131
660.1440, 415.1025
661.3050, 570.7681
662.4660, 693.8701
663.6270, 931.4507
664.7870, 1114.329
665.9480, 1281.971
667.1080, 1604.016
668.2680, 1968.719
669.4280, 2530.902
670.5880, 3062.548
671.7480, 3804.874
672.9070, 4435.962
674.0670, 5111.078
675.2260, 5556.544
676.3850, 5854.282
677.5440, 5678.179
678.7030, 5372.535
679.8610, 4643.132
681.0200, 3899.702
682.1780, 3456.538
683.3360, 2819.139
684.4940, 2317.433
685.6520, 1964.814
686.8090, 1806.182
687.9670, 1584.130
689.1240, 1577.844
690.2810, 1508.481
691.4380, 1576.902
692.5950, 1546.716
693.7520, 1692.664
694.9080, 1838.354
696.0650, 2146.728
697.2210, 2583.878
698.3770, 3030.157
699.5330, 3662.234
700.6880, 4306.277
701.8440, 5133.289
702.9990, 6427.268
704.1550, 7832.213
705.3100, 9540.126
706.4650, 11721.01
707.6190, 14238.85
708.7740, 16730.67
709.9290, 19453.45
711.0830, 21889.21
712.2370, 23735.92
713.3910, 24685.60
714.5450, 24166.25
715.6980, 22662.87
716.8520, 20194.46
718.0050, 17544.01
719.1580, 14645.53
720.3110, 12241.02
721.4640, 9990.474
722.6170, 8017.896
723.7700, 6584.286
724.9220, 5373.644
726.0740, 4331.968
727.2260, 3688.260
728.3780, 3004.521
729.5300, 2573.749
730.6810, 2124.944
731.8330, 1810.107
732.9840, 1526.238
734.1350, 1370.337
735.2860, 1130.405
736.4370, 1084.440
737.5880, 920.4443
738.7380, 697.4155
739.8880, 710.3555
741.0390, 579.2646
742.1890, 615.1421
743.3380, 432.9878
744.4880, 556.8022
745.6380, 387.5859
746.7870, 377.3384
747.9360, 357.0605
749.0850, 312.7515
750.2340, 336.4121
751.3830, 305.0420
752.5310, 376.6416
753.6800, 415.2114
754.8280, 435.7510
755.9760, 382.2598
757.1240, 554.7388
758.2720, 694.1885
759.4190, 686.6089
760.5670, 859.9995
761.7140, 944.3608
762.8610, 1014.693
764.0080, 1089.996
765.1550, 1071.271
766.3020, 1150.517
767.4480, 1152.733
768.5950, 1096.665
769.7410, 1111.777
770.8870, 886.1050
772.0330, 789.2183
773.1780, 691.3320
774.3240, 557.4644
775.4690, 386.6113
776.6140, 365.7534
777.7590, 335.8784
778.9040, 130.9790
780.0490, 157.0474
781.1940, 59.08691
782.3380, 22.08252
783.4820, 31.02344
784.6260, 88.08594
785.7700, 136.3081
786.9140, 112.6665
788.0580, 161.1509
789.2010, 159.7832
790.3450, 131.5645
791.4880, 133.4780
792.6310, 203.6680
793.7730, 221.8833
794.9160, 225.1191
796.0590, 181.5825
797.2010, 154.8257
798.3430, 110.6797
799.4850, 195.6216
800.6270, 145.6401
801.7690, 126.7080
802.9100, 144.8203
804.0520, 27.96777
805.1930, 9.074219
806.3340, 83.87500
807.4750, 120.9062
808.6160, 92.02930
809.7560, 224.1982
810.8970, 266.4204
812.0370, 324.6870
813.1770, 317.9648
814.3170, 254.2554
815.4570, 217.5459
816.5960, 202.8237
817.7360, 166.0811
818.8750, 73.32031
820.0140, 12.46338
821.1530, 25.29053
822.2920, 76.30518
823.4310, 30.11670
824.5690, 73.11621
825.7070, 87.18750
826.8460, 4.335449
827.9840, 54.51660
829.1220, 62.75537
830.2590, 18.05566
831.3970, 14.39307
832.5340, 57.23584
833.6710, 99.84766
834.8080, 58.44385
835.9450, 124.0234
837.0820, 120.5894
838.2190, 166.1411
839.3550, 219.6797
840.4910, 294.2046
841.6270, 272.7168
842.7630, 457.2168
843.8990, 527.7041
845.0350, 502.1792
846.1700, 599.6431
847.3060, 789.0957
848.4410, 817.5371
849.5760, 906.9678
850.7100, 980.3887
851.8450, 1007.799
852.9800, 1020.200
854.1140, 1008.592
855.2480, 1136.974
856.3820, 1136.347
857.5160, 1220.712
858.6500, 1223.069
859.7830, 1281.418
860.9170, 1288.760
862.0500, 1346.673
863.1830, 1442.422
864.3160, 1447.744
865.4480, 1532.067
866.5810, 1554.384
867.7130, 1574.695
868.8460, 1675.005
869.9780, 1606.314
871.1100, 1732.621
872.2410, 1760.926
873.3730, 1688.226
874.5050, 1960.523
875.6360, 1755.820
876.7670, 1819.115
877.8980, 1892.408
879.0290, 2059.710
880.1590, 1939.022
881.2900, 1902.333
882.4200, 1976.642
883.5500, 2096.951
884.6800, 2068.277
885.8100, 2228.603
886.9400, 2300.932
888.0690, 2513.261
889.1990, 2845.590
890.3280, 3129.919
891.4570, 3445.248
892.5860, 3911.579
893.7140, 4299.910
894.8430, 4807.247
895.9710, 5332.588
897.1000, 6038.937
898.2280, 6611.295
899.3560, 7219.661
900.4830, 7756.031
901.6110, 8101.426
902.7380, 8188.827
903.8660, 8105.255
904.9930, 8054.688
906.1200, 7441.130
907.2460, 6996.581
908.3730, 6374.045
909.5000, 5852.525
910.6260, 5191.028
911.7520, 4714.545
912.8780, 4307.082
914.0040, 3904.633
915.1290, 3567.625
916.2550, 3110.899
917.3800, 2895.794
918.5050, 2616.638
919.6300, 2555.882
920.7550, 2289.072
921.8800, 2338.302
923.0040, 2284.100
924.1290, 2061.930
925.2530, 2158.952
926.3770, 2160.828
927.5010, 2206.691
928.6250, 2167.251
929.7480, 2116.764
930.8720, 2055.201
931.9950, 2029.488
933.1180, 1972.573
934.2410, 1797.543
935.3640, 1749.303
936.4860, 1694.327
937.6090, 1699.661
938.7310, 1706.982
939.8530, 1769.376
940.9750, 1875.846
942.0970, 1996.478
943.2180, 2187.446
944.3400, 2402.296
945.4610, 2644.435
946.5820, 2882.743
947.7030, 3248.999
948.8240, 3685.280
949.9450, 4092.583
951.0650, 4448.911
952.1860, 4850.281
953.3060, 5378.675
954.4260, 5996.796
955.5460, 6506.165
956.6650, 7254.834
957.7850, 8169.412
958.9040, 9437.016
960.0230, 10352.03
961.1420, 11312.29
962.2610, 12120.63
963.3800, 12422.18
964.4990, 12537.36
965.6170, 12254.39
966.7350, 11622.70
967.8530, 10952.32
968.9710, 10599.15
970.0890, 10343.86
971.2070, 10457.77
972.3240, 10757.71
973.4410, 11203.69
974.5580, 12102.71
975.6750, 12827.76
976.7920, 13738.84
977.9090, 14064.95
979.0250, 14639.08
980.1410, 14334.26
981.2580, 13884.47
982.3740, 13306.72
983.4890, 12394.01
984.6050, 11914.32
985.7200, 11332.66
986.8360, 10959.04
987.9510, 10518.44
989.0660, 10318.88
990.1810, 10123.35
991.2950, 10059.86
992.4100, 9889.190
993.5240, 10134.96
994.6390, 9589.559
995.7530, 9706.188
996.8660, 9436.854
997.9800, 10539.71
999.0940, 10125.84
1000.207, 10493.60
1001.320, 10833.39
1002.433, 9715.906
1003.546, 8261.300
1004.659, 7816.911
1005.772, 7073.122
1006.884, 6602.063
1007.996, 5906.050
1009.108, 5189.864
1010.220, 4773.897
1011.332, 4260.365
1012.444, 3697.634
1013.555, 3324.470
1014.666, 2900.626
1015.777, 2556.909
1016.888, 2332.389
1017.999, 2288.449
1019.110, 1963.726
1020.220, 1899.739
1021.331, 1842.092
1022.441, 1691.458
1023.551, 1581.853
1024.661, 1504.277
1025.770, 1499.731
1026.880, 1467.216
1027.989, 1408.394
1029.098, 1476.175
1030.207, 1457.964
1031.316, 1426.417
1032.425, 1436.182
1033.533, 1527.401
1034.642, 1563.192
1035.750, 1624.530
1036.858, 1705.827
1037.966, 1767.007
1039.073, 1800.929
1040.181, 1915.073
1041.288, 2047.302
1042.396, 2112.544
1043.503, 2191.702
1044.610, 2129.922
1045.716, 2116.847
1046.823, 2376.109
1047.929, 2375.145
1049.036, 2742.268
1050.142, 2840.276
1051.248, 3185.595
1052.353, 3318.643
1053.459, 3570.847
1054.564, 3668.121
1055.670, 3847.422
1056.775, 3999.850
1057.880, 3972.994
1058.985, 3851.592
1060.089, 3541.811
1061.194, 3227.432
1062.298, 2830.318
1063.402, 2577.265
1064.506, 2323.309
1065.610, 2030.494
1066.713, 1888.707
1067.817, 1625.029
1068.920, 1511.074
1070.023, 1492.520
1071.126, 1435.081
1072.229, 1465.336
1073.332, 1525.420
1074.435, 1644.026
1075.537, 1792.107
1076.639, 2033.627
1077.741, 2329.542
1078.843, 2770.299
1079.945, 3085.178
1081.046, 3317.343
1082.148, 3458.753
1083.249, 3496.402
1084.350, 3391.775
1085.451, 3155.646
1086.551, 2741.707
1087.652, 2329.672
1088.752, 2008.610
1089.853, 1778.854
1090.953, 1613.085
1092.053, 1384.144
1093.152, 1177.750
1094.252, 1075.047
1095.351, 895.3213
1096.451, 831.4268
1097.550, 768.0264
1098.649, 761.7637
1099.748, 655.4097
1100.846, 659.8394
1101.945, 659.8511
1103.043, 636.5576
1104.141, 663.9263
1105.239, 567.0356
1106.337, 678.9575
1107.434, 675.6143
1108.532, 540.0464
1109.629, 466.6006
1110.726, 487.3345
1111.823, 389.4004
1112.920, 378.0630
1114.017, 305.9150
1115.113, 276.4717
1116.210, 190.3335
1117.306, 243.0396
1118.402, 146.6733
1119.498, 172.1489
1120.593, 140.3984
1121.689, 122.2817
1122.784, 202.9434
1123.879, 60.54785
1124.974, 90.04150
1126.069, 147.0513
1127.164, 153.6577
1128.259, 114.0327
1129.353, 12.43408
1130.447, 62.72656
1131.541, 8.800781
1132.635, 37.57812
1133.729, 42.73535
1134.822, 24.09766
1135.916, 37.42822
1137.009, 18.90283
1138.102, 14.98438
1139.195, 2.511230
1140.288, 37.81201
1141.380, 17.70996
1142.473, 21.76514
1143.565, 72.83496
1144.657, 84.09814
1145.749, 66.41113
1146.841, 5.105957
1147.932, 13.55225
1149.024, 101.6221
1150.115, 29.81982
1151.206, 28.67090
1152.297, 4.791016
1153.388, 23.27197
1154.479, 41.74707
1155.569, 34.17676
1156.659, 25.07422
1157.750, 19.91504
1158.839, 22.37451
1159.929, 7.960449
1161.019, 35.36865
1162.108, 48.96729
1163.198, 2.474609
1164.287, 16.04736
1165.376, 99.54199
1166.465, 16.23779
1167.553, 87.88135
1168.642, 46.22168
1169.730, 11.33789
1170.818, 4.913086
1171.906, 29.11572
1172.994, 45.39648
1174.082, 74.08691
1175.170, 23.96143
1176.257, 66.80225
1177.344, 21.61377
1178.431, 60.52539
1179.518, 160.2671
1180.605, 45.19922
1181.691, 80.19629
1182.778, 26.21191
1183.864, 28.60938
1184.950, 44.59717
1186.036, 39.60059
1187.122, 81.16455
1188.207, 95.88037
1189.292, 31.88330
1190.378, 60.28857
1191.463, 16.55176
1192.548, 23.03857
1193.632, 60.61475
1194.717, 65.20020
1195.801, 27.84473
1196.886, 46.80908
1197.970, 36.85010
1199.054, 5.647461
1200.137, 56.82227
1201.221, 43.27539
1202.305, 75.02734
1203.388, 41.44531
1204.471, 21.05713
1205.554, 26.56348
1206.637, 16.25830
1207.719, 35.19043
1208.802, 102.5078
1209.884, 49.84961
1210.966, 33.05078
1212.048, 86.67334
1213.130, 34.97559
1214.212, 36.66455
1215.293, 87.40869
1216.374, 51.46143
1217.456, 26.50781
1218.536, 101.4658
1219.617, 48.55762
1220.698, 10.40479
1221.778, 28.47363
1222.859, 22.32129
1223.939, 9.403320
1225.019, 31.65771
1226.099, 17.22852
1227.178, 55.84473
1228.258, 7.498535
1229.337, 30.31299
1230.417, 85.07373
1231.496, 49.91846
1232.574, 62.43652
1233.653, 42.92969
