##NAMES=Axinite-(Fe)
##RRUFFID=R050061
##IDEAL CHEMISTRY=Ca_4_Fe^2+^_2_Al_4_[B_2_Si_8_O_30_](OH)_2_
##LOCALITY=Jamestown, California, USA
##OWNER=RRUFF
##SOURCE=Rock Currier
##DESCRIPTION=Brown colored axe-head-shaped single crystals
##STATUS=The identification of this mineral has been confirmed by X-ray diffraction and chemical analysis
##URL=rruff.info/R050061
##MEASURED CHEMISTRY=Ca_2.00_(Fe^2+^_0.73_Mg_0.20_Mn_0.07_)Al_2.00_BSi_4_O_15_(OH)
##PIN_ID=L00318
##ORIENTATION=Laser parallel to (0 1 1). Fiducial mark perpendicular to laser is parallel to a [1 0 0]
89.663, 0.000
91.065, 29.588
92.466, 10.151
93.868, 80.075
95.269, 73.686
96.670, 87.193
98.070, 117.012
99.471, 159.555
100.871, 120.101
102.271, 233.637
103.670, 451.582
105.070, 935.782
106.469, 1664.909
107.868, 2333.228
109.267, 2902.890
110.665, 3235.541
112.063, 3395.704
113.461, 3140.598
114.859, 3006.880
116.256, 2658.411
117.653, 2467.485
119.050, 2280.441
120.447, 2255.563
121.843, 2199.087
123.240, 2154.211
124.636, 2076.101
126.031, 1769.846
127.427, 1657.586
128.822, 1519.963
130.217, 1625.920
131.612, 1851.615
133.006, 2054.190
134.400, 2558.769
135.794, 3016.528
137.188, 3591.562
138.581, 4025.806
139.975, 3923.937
141.368, 3590.449
142.760, 3039.905
144.153, 2510.318
145.545, 2160.701
146.937, 1988.061
148.329, 1888.404
149.720, 2101.738
151.112, 2287.068
152.503, 2648.397
153.893, 2909.732
155.284, 2997.079
156.674, 2921.413
158.064, 2561.727
159.454, 1882.025
160.843, 1400.976
162.233, 1077.034
163.622, 1003.236
165.011, 1199.786
166.399, 1664.794
167.787, 2383.113
169.175, 2851.560
170.563, 3151.139
171.951, 3169.845
173.338, 3028.683
174.725, 2675.678
176.112, 2091.848
177.499, 1540.205
178.885, 1138.751
180.271, 540.483
181.657, 195.396
183.043, 38.517
184.428, 307.263
185.813, 302.851
187.198, 361.291
188.583, 78.592
189.967, 151.236
191.351, 543.187
192.735, 724.253
194.119, 721.428
195.502, 706.705
196.885, 378.074
198.268, 413.506
199.651, 402.990
201.033, 695.526
202.415, 1154.112
203.797, 1836.750
205.179, 2591.437
206.561, 3292.171
207.942, 3958.955
209.323, 4487.743
210.703, 5002.643
212.084, 5344.531
213.464, 5576.447
214.844, 5778.391
216.224, 5760.393
217.603, 5252.520
218.983, 4884.747
220.362, 4091.774
221.741, 3356.280
223.119, 2431.562
224.497, 1655.888
225.875, 1004.262
227.253, 611.685
228.631, 344.259
230.008, 101.172
231.385, 58.759
232.762, 257.759
234.139, 138.720
235.515, 209.644
236.891, 96.520
238.267, 171.232
239.643, 104.617
241.018, 21.352
242.393, 8.577
243.768, 131.867
245.143, 314.922
246.517, 503.766
247.891, 1011.437
249.265, 1591.075
250.639, 2420.731
252.012, 3357.415
253.386, 4271.126
254.759, 4873.866
256.131, 5158.295
257.504, 5292.688
258.876, 5197.254
260.248, 5202.506
261.620, 5528.001
262.991, 6163.684
264.363, 6669.506
265.734, 7295.435
267.104, 7961.448
268.475, 8527.520
269.845, 8723.625
271.215, 9089.748
272.585, 9265.879
273.955, 9062.010
275.324, 8668.139
276.693, 8164.253
278.062, 7430.354
279.431, 6456.425
280.799, 5782.404
282.167, 5018.301
283.535, 4634.125
284.903, 4299.888
286.270, 4236.590
287.638, 4321.243
289.005, 4416.851
290.371, 4732.421
291.738, 4807.948
293.104, 5153.417
294.470, 5088.829
295.836, 5224.191
297.201, 4929.510
298.567, 4734.786
299.932, 4460.025
301.296, 4314.227
302.661, 4249.896
304.025, 4155.788
305.389, 4169.533
306.753, 4004.292
308.117, 3852.068
309.480, 3512.860
310.843, 3045.668
312.206, 2878.494
313.569, 2904.336
314.931, 3188.195
316.293, 3700.071
317.655, 4138.964
319.017, 4354.875
320.378, 4459.802
321.740, 4209.749
323.101, 3820.712
324.461, 3529.694
325.822, 3263.624
327.182, 3172.279
328.542, 3157.727
329.902, 3198.993
331.261, 3255.263
332.621, 3356.563
333.980, 3536.896
335.339, 3717.258
336.697, 4148.651
338.056, 4726.075
339.414, 5599.795
340.772, 6187.028
342.129, 6773.772
343.487, 6991.663
344.844, 7088.703
346.201, 6632.460
347.557, 6367.915
348.914, 6096.413
350.270, 5885.345
351.626, 5460.760
352.982, 5174.068
354.337, 4467.317
355.693, 3615.055
357.048, 2616.813
358.402, 1880.593
359.757, 1405.393
361.111, 894.211
362.465, 509.350
363.819, 343.123
365.173, 129.510
366.526, 70.726
367.879, 37.756
369.232, 109.108
370.585, 47.380
371.937, 123.564
373.290, 195.665
374.642, 253.653
375.993, 293.656
377.345, 479.675
378.696, 622.708
380.047, 1013.106
381.398, 1508.464
382.748, 2161.168
384.099, 2973.963
385.449, 3746.493
386.799, 4801.745
388.148, 5203.570
389.497, 5472.751
390.847, 5189.905
392.196, 4801.891
393.544, 4201.499
394.893, 3660.213
396.241, 2998.911
397.589, 2631.171
398.936, 2064.068
400.284, 1813.152
401.631, 1726.630
402.978, 1652.360
404.325, 1570.683
405.672, 1657.629
407.018, 1810.873
408.364, 1915.132
409.710, 2100.396
411.055, 2597.667
412.401, 3141.944
413.746, 4018.230
415.091, 4865.521
416.435, 6229.818
417.780, 7724.123
419.124, 9148.428
420.468, 10792.732
421.812, 12137.042
423.155, 13291.343
424.498, 13515.644
425.842, 13099.935
427.184, 11884.221
428.527, 10398.501
429.869, 8812.774
431.211, 7407.040
432.553, 5931.295
433.895, 4985.542
435.236, 4437.782
436.577, 4207.012
437.918, 4383.234
439.259, 5332.445
440.599, 6746.650
441.940, 8460.845
443.280, 10205.029
444.619, 10829.210
445.959, 10483.380
447.298, 9207.540
448.637, 7331.695
449.976, 5565.842
451.315, 3889.980
452.653, 2924.111
453.991, 2043.235
455.329, 1520.352
456.667, 1247.461
458.004, 979.563
459.341, 754.660
460.678, 601.749
462.015, 416.831
463.352, 323.906
464.688, 361.980
466.024, 315.054
467.360, 367.135
468.695, 502.227
470.031, 689.324
471.366, 1003.445
472.701, 1202.595
474.035, 1523.776
475.370, 2023.990
476.704, 2721.239
478.038, 3694.531
479.372, 4827.874
480.705, 6141.265
482.038, 7365.708
483.371, 7940.189
484.704, 8534.701
486.037, 7779.243
487.369, 6363.841
488.701, 4948.479
490.033, 3497.164
491.365, 2414.875
492.696, 1663.601
494.027, 977.326
495.358, 656.052
496.689, 410.776
498.019, 304.500
499.350, 56.221
500.680, 51.062
502.009, 42.385
503.339, 59.745
504.668, 45.358
505.997, 17.407
507.326, 65.957
508.655, 222.540
509.983, 337.233
511.311, 450.047
512.639, 578.015
513.967, 638.037
515.295, 598.081
516.622, 512.125
517.949, 324.170
519.276, 246.225
520.602, 180.288
521.929, 68.323
523.255, 91.580
524.581, 52.589
525.906, 112.649
527.232, 108.792
528.557, 97.130
529.882, 0.571
531.207, 95.146
532.531, 119.812
533.855, 223.470
535.179, 248.121
536.503, 174.763
537.827, 155.397
539.150, 72.023
540.473, 5.637
541.796, 78.775
543.119, 127.257
544.441, 233.836
545.764, 260.568
547.086, 253.161
548.407, 210.531
549.729, 177.737
551.050, 95.067
552.371, 28.479
553.692, 36.063
555.013, 253.618
556.333, 499.242
557.653, 957.905
558.973, 1321.624
560.293, 1794.371
561.612, 2112.162
562.932, 2127.982
564.251, 2186.796
565.569, 2054.607
566.888, 2140.407
568.206, 2264.195
569.524, 2499.973
570.842, 2854.738
572.160, 3018.491
573.477, 3316.233
574.795, 3365.962
576.112, 3108.681
577.428, 2948.385
578.745, 2636.078
580.061, 2503.758
581.377, 2420.425
582.693, 2579.080
584.009, 2579.722
585.324, 3025.351
586.639, 3202.967
587.954, 3542.570
589.269, 3681.160
590.583, 3426.737
591.897, 3042.302
593.212, 2625.853
594.525, 2040.390
595.839, 1523.915
597.152, 1128.425
598.465, 899.922
599.778, 813.406
601.091, 686.877
602.403, 713.334
603.716, 745.778
605.028, 980.208
606.339, 1158.624
607.651, 1346.026
608.962, 1564.416
610.273, 1902.791
611.584, 2220.152
612.895, 2489.499
614.205, 2731.833
615.515, 2883.152
616.825, 2931.457
618.135, 2889.606
619.444, 2803.026
620.754, 2507.290
622.063, 2217.938
623.372, 1772.541
624.680, 1483.015
625.989, 1107.424
627.297, 946.532
628.605, 767.978
629.912, 670.663
631.220, 747.024
632.527, 757.437
633.834, 927.033
635.141, 1097.915
636.447, 1283.830
637.754, 1638.558
639.060, 2005.542
640.366, 2303.212
641.671, 2694.195
642.977, 2832.193
644.282, 2977.923
645.587, 2908.966
646.892, 2638.413
648.196, 2391.244
649.501, 1934.652
650.805, 1630.795
652.109, 1298.660
653.412, 1128.443
654.716, 931.201
656.019, 791.934
657.322, 828.373
658.625, 745.302
659.927, 740.723
661.230, 896.999
662.532, 1032.126
663.834, 1228.285
665.135, 1334.818
666.437, 1659.021
667.738, 2101.209
669.039, 2645.890
670.340, 3335.333
671.640, 4128.953
672.940, 5608.000
674.241, 6641.088
675.540, 7666.260
676.840, 8511.161
678.139, 8435.669
679.439, 7807.633
680.738, 6992.954
682.036, 5660.652
683.335, 4726.510
684.633, 3834.547
685.931, 3126.251
687.229, 2750.024
688.527, 2404.877
689.824, 2249.801
691.121, 2250.827
692.418, 2204.828
693.715, 2337.804
695.012, 2497.752
696.308, 2814.325
697.604, 3153.927
698.900, 3687.168
700.195, 4321.309
701.491, 5232.704
702.786, 6394.371
704.081, 7868.458
705.376, 9815.180
706.670, 12243.923
707.964, 15757.822
709.259, 19755.875
710.552, 23626.939
711.846, 27208.600
713.139, 29890.244
714.433, 30261.871
715.726, 27853.475
717.018, 25305.061
718.311, 20596.631
719.603, 17058.180
720.895, 13259.704
722.187, 10721.215
723.479, 8362.705
724.770, 6644.176
726.061, 5508.628
727.352, 4385.061
728.643, 3650.476
729.934, 3079.871
731.224, 2454.248
732.514, 2196.605
733.804, 1745.945
735.094, 1477.266
736.383, 1274.569
737.672, 1190.854
738.961, 923.121
740.250, 829.369
741.539, 732.600
742.827, 641.812
744.115, 594.007
745.403, 512.185
746.691, 417.345
747.978, 398.487
749.265, 317.612
750.552, 397.720
751.839, 342.811
753.126, 318.884
754.412, 271.941
755.698, 324.981
756.984, 347.004
758.270, 344.011
759.555, 411.001
760.840, 442.975
762.125, 461.943
763.410, 426.875
764.695, 486.801
765.979, 472.711
767.263, 435.605
768.547, 434.483
769.831, 418.346
771.114, 362.193
772.398, 319.025
773.681, 245.842
774.964, 217.645
776.246, 58.432
777.529, 62.200
778.811, 19.949
780.093, 2.669
781.375, 27.351
782.656, 46.994
783.937, 67.401
785.219, 78.884
786.499, 80.446
787.780, 100.088
789.060, 121.375
790.341, 154.654
791.621, 152.606
792.901, 157.674
794.180, 121.860
795.459, 80.146
796.739, 81.509
798.017, 189.948
799.296, 116.520
800.575, 140.186
801.853, 67.958
803.131, 14.796
804.409, 40.327
805.686, 98.468
806.964, 150.221
808.241, 182.620
809.518, 253.696
810.795, 249.762
812.071, 290.819
813.347, 176.886
814.623, 249.959
815.899, 189.045
817.175, 79.141
818.450, 34.229
819.726, 2.306
821.001, 46.635
822.275, 119.622
823.550, 21.690
824.824, 73.789
826.098, 1.945
827.372, 4.119
828.646, 39.312
829.920, 36.540
831.193, 31.803
832.466, 84.903
833.739, 122.604
835.011, 82.333
836.284, 153.077
837.556, 88.854
838.828, 247.664
840.100, 273.503
841.371, 319.348
842.642, 472.189
843.914, 628.027
845.184, 720.874
846.455, 847.717
847.726, 977.556
848.996, 1173.397
850.266, 1372.236
851.536, 1518.082
852.805, 1617.958
854.075, 1706.877
855.344, 1775.870
856.613, 1780.944
857.881, 1870.095
859.150, 1936.315
860.418, 1857.592
861.686, 1937.908
862.954, 2100.249
864.222, 2062.595
865.489, 2147.943
866.756, 2159.292
868.023, 2279.641
869.290, 2313.999
870.557, 2156.361
871.823, 2391.734
873.089, 2397.127
874.355, 2599.520
875.621, 2579.931
876.886, 2621.343
878.152, 2930.764
879.417, 2883.196
880.682, 3076.632
881.946, 3158.068
883.211, 3444.508
884.475, 3665.954
885.739, 3975.408
887.003, 4298.865
888.266, 4852.346
889.530, 5399.826
890.793, 6158.318
892.056, 6965.885
893.318, 7757.314
894.581, 8896.818
895.843, 9986.330
897.105, 11175.855
898.367, 12625.382
899.629, 13854.916
900.890, 15004.456
902.152, 16814.000
903.413, 17673.564
904.673, 18343.127
905.934, 18042.715
907.194, 17562.318
908.454, 16091.935
909.714, 14501.558
910.974, 12941.188
912.234, 11050.831
913.493, 9790.480
914.752, 8250.136
916.011, 6959.797
917.270, 6269.465
918.528, 5208.138
919.786, 4783.837
921.044, 4204.542
922.302, 3833.263
923.560, 3651.992
924.817, 3427.728
926.074, 3384.474
927.331, 3290.227
928.588, 3239.596
929.844, 3265.001
931.101, 3141.530
932.357, 3207.139
933.613, 3080.042
934.868, 2994.602
936.124, 3056.917
937.379, 3065.550
938.634, 3214.126
939.889, 3195.528
941.144, 3402.637
942.398, 3563.720
943.652, 3897.984
944.906, 4221.987
946.160, 4602.297
947.414, 5074.301
948.667, 5532.647
949.920, 6092.548
951.173, 6623.489
952.426, 7263.028
953.678, 7957.178
954.931, 8944.742
956.183, 9984.573
957.435, 11544.674
958.686, 13384.855
959.938, 15325.058
961.189, 17025.281
962.440, 19035.527
963.691, 19675.795
964.941, 19586.084
966.192, 19256.398
967.442, 17586.730
968.692, 17487.043
969.942, 16797.195
971.191, 16986.926
972.441, 17863.670
973.690, 19315.920
974.939, 21564.404
976.187, 23229.701
977.436, 25019.570
978.684, 25549.389
979.932, 25497.127
981.180, 24075.129
982.428, 23033.520
983.675, 20614.141
984.922, 19644.791
986.169, 18475.465
987.416, 17726.156
988.663, 17416.996
989.909, 16997.732
991.155, 17008.660
992.401, 16929.473
993.647, 17030.281
994.893, 17623.930
996.138, 17314.783
997.383, 17675.664
998.628, 17857.527
999.873, 17138.453
1001.117, 16609.529
1002.362, 15310.570
1003.606, 14102.229
1004.850, 12793.839
1006.093, 11205.715
1007.337, 10286.922
1008.580, 8829.116
1009.823, 7580.227
1011.066, 6902.306
1012.308, 5794.937
1013.551, 5244.581
1014.793, 4602.507
1016.035, 3933.739
1017.277, 3738.004
1018.518, 3215.490
1019.760, 3036.226
1021.001, 2857.028
1022.242, 2577.415
1023.483, 2695.790
1024.723, 2491.844
1025.964, 2515.266
1027.204, 2377.290
1028.444, 2268.743
1029.683, 2168.438
1030.923, 2053.956
1032.162, 1933.493
1033.401, 1856.801
1034.640, 1700.574
1035.879, 1685.164
1037.117, 1605.173
1038.355, 1653.799
1039.593, 1657.716
1040.831, 1671.378
1042.069, 1644.146
1043.306, 1650.155
1044.544, 1498.870
1045.781, 1613.961
1047.017, 1623.866
1048.254, 1686.632
1049.490, 1798.427
1050.726, 1751.438
1051.962, 1764.261
1053.198, 1870.089
1054.434, 2015.629
1055.669, 1815.913
1056.904, 1822.768
1058.139, 1709.811
1059.374, 1633.241
1060.608, 1538.185
1061.843, 1405.163
1063.077, 1333.166
1064.311, 1100.131
1065.544, 943.110
1066.778, 862.108
1068.011, 742.896
1069.244, 747.118
1070.477, 680.146
1071.710, 685.242
1072.942, 799.406
1074.174, 738.805
1075.406, 816.887
1076.638, 844.301
1077.870, 928.531
1079.101, 1075.696
1080.332, 1142.482
1081.563, 1318.753
1082.794, 1321.098
1084.025, 1276.432
1085.255, 1142.791
1086.485, 906.552
1087.715, 875.005
1088.945, 774.401
1090.175, 699.603
1091.404, 619.258
1092.633, 553.939
1093.862, 457.698
1095.091, 429.009
1096.319, 396.065
1097.548, 387.994
1098.776, 381.742
1100.004, 377.004
1101.231, 401.102
1102.459, 438.080
1103.686, 468.299
1104.913, 455.922
1106.140, 418.756
1107.367, 404.929
1108.593, 377.202
1109.819, 312.399
1111.046, 269.444
1112.271, 206.545
1113.497, 227.751
1114.722, 151.723
1115.948, 199.791
1117.173, 224.928
1118.398, 144.160
1119.622, 153.132
1120.847, 146.396
1122.071, 53.584
1123.295, 94.846
1124.519, 129.249
1125.742, 71.704
1126.966, 118.212
1128.189, 11.447
1129.412, 25.986
1130.635, 55.447
1131.857, 67.865
1133.080, 14.794
1134.302, 15.312
1135.524, 8.265
1136.746, 67.220
1137.967, 10.507
1139.188, 0.093
1140.410, 64.242
1141.631, 81.292
1142.851, 84.567
1144.072, 5.222
1145.292, 36.951
1146.512, 11.676
1147.732, 6.810
1148.952, 3.382
1150.172, 26.807
1151.391, 24.377
1152.610, 30.665
1153.829, 7.200
1155.048, 36.659
1156.266, 25.925
1157.484, 31.530
1158.702, 43.167
1159.920, 17.410
1161.138, 24.221
1162.356, 12.323
1163.573, 3.586
1164.790, 53.042
1166.007, 14.532
1167.224, 55.142
1168.440, 79.854
1169.656, 15.667
1170.872, 71.736
1172.088, 6.285
1173.304, 34.760
1174.519, 40.947
1175.735, 4.417
1176.950, 18.141
1178.165, 45.476
1179.379, 15.138
1180.594, 22.938
1181.808, 52.981
1183.022, 73.646
1184.236, 13.290
1185.449, 21.395
1186.663, 19.617
1187.876, 3.572
1189.089, 1.019
1190.302, 17.918
1191.515, 35.280
1192.727, 4.225
1193.939, 40.022
1195.151, 22.711
1196.363, 4.757
1197.575, 41.514
1198.786, 52.077
1199.997, 50.839
1201.208, 3.016
1202.419, 37.844
1203.630, 11.684
1204.840, 3.249
1206.051, 4.306
1207.261, 37.107
1208.470, 36.507
1209.680, 67.893
1210.889, 60.305
1212.099, 52.770
1213.308, 44.659
1214.516, 20.639
1215.725, 14.078
1216.933, 49.173
1218.142, 37.409
1219.350, 17.725
1220.557, 72.928
1221.765, 0.115
1222.972, 41.938
1224.180, 62.082
1225.387, 50.753
1226.593, 50.346
1227.800, 38.404
1229.006, 51.496
1230.213, 56.519
1231.419, 24.585
1232.624, 22.402
1233.830, 105.539
1235.035, 15.542
1236.241, 54.351
1237.446, 64.219
1238.650, 62.078
1239.855, 11.104
1241.059, 37.689
1242.264, 18.485
1243.468, 99.277
1244.671, 14.077
1245.875, 63.870
1247.078, 113.538
1248.282, 52.464
1249.485, 56.090
1250.687, 18.876
1251.890, 72.456
1253.092, 55.014
1254.295, 22.555
1255.497, 218.143
1256.699, 101.641
1257.900, 79.099
1259.102, 9.546
1260.303, 127.963
1261.504, 103.425
1262.705, 83.935
1263.905, 12.273
1265.106, 86.579
1266.306, 115.860
1267.506, 103.109
1268.706, 77.323
1269.905, 71.498
1271.105, 67.630
1272.304, 145.862
1273.503, 69.921
1274.702, 84.974
1275.900, 96.954
1277.099, 51.895
1278.297, 78.796
1279.495, 99.667
1280.693, 85.393
1281.891, 141.205
1283.088, 103.831
1284.285, 123.559
1285.482, 93.281
1286.679, 56.158
1287.876, 67.622
1289.072, 26.456
1290.268, 69.098
1291.464, 79.657
1292.660, 93.074
1293.856, 74.515
1295.051, 90.421
1296.247, 64.193
1297.442, 82.786
1298.637, 75.041
1299.831, 30.302
1301.026, 31.634
1302.220, 35.992
1303.414, 23.791
1304.608, 39.568
1305.802, 68.056
1306.995, 2.768
1308.188, 69.367
1309.381, 67.273
1310.574, 9.080
1311.767, 83.493
1312.960, 56.469
1314.152, 18.447
1315.344, 30.737
1316.536, 7.649
1317.728, 9.091
1318.919, 45.811
1320.110, 12.417
1321.301, 56.191
1322.492, 52.937
1323.683, 64.900
1324.874, 111.388
1326.064, 50.048
1327.254, 90.280
1328.444, 46.886
1329.634, 69.194
1330.823, 75.763
1332.013, 39.202
1333.202, 74.391
1334.391, 103.866
1335.580, 30.958
1336.768, 92.226
1337.956, 115.626
1339.145, 53.987
1340.333, 100.124
1341.520, 121.441
1342.708, 44.744
1343.895, 55.328
1345.083, 35.298
1346.270, 16.549
1347.456, 91.673
1348.643, 115.332
1349.829, 124.469
1351.016, 136.584
1352.202, 126.628
1353.387, 107.722
1354.573, 91.795
1355.759, 64.841
1356.944, 143.046
1358.129, 131.901
1359.314, 159.899
1360.498, 159.823
1361.683, 88.667
1362.867, 151.267
1364.051, 131.179
1365.235, 25.752
1366.419, 125.509
1367.602, 101.327
1368.785, 99.527
1369.968, 114.284
1371.151, 93.247
1372.334, 129.635
1373.517, 91.475
1374.699, 98.805
1375.881, 137.331
1377.063, 128.584
1378.245, 141.295
1379.426, 100.401
1380.608, 91.651
1381.789, 127.097
1382.970, 148.665
1384.150, 83.901
1385.331, 90.066
1386.511, 75.133
1387.691, 71.603
1388.871, 101.814
1390.051, 38.157
1391.231, 91.243
1392.410, 48.336
1393.589, 96.251
1394.768, 117.834
1395.947, 90.651
1397.126, 73.350
1398.304, 113.329
1399.483, 93.537
1400.661, 93.674
1401.838, 95.266
1403.016, 72.890
1404.194, 52.257
1405.371, 107.988
1406.548, 132.426
1407.725, 146.453
1408.901, 149.588
1410.078, 113.390
1411.254, 126.263
1412.430, 118.271
1413.606, 43.813
1414.782, 100.275
1415.958, 60.654
1417.133, 84.622
1418.308, 93.272
1419.483, 148.380
1420.658, 116.230
1421.832, 114.365
1423.007, 66.381
1424.181, 110.680
1425.355, 138.263
1426.529, 98.741
1427.702, 164.346
1428.876, 120.360
1430.049, 195.348
1431.222, 203.601
1432.395, 61.470
1433.567, 85.226
1434.740, 171.962
1435.912, 115.402
1437.084, 157.675
1438.256, 177.345
1439.428, 100.812
1440.599, 157.414
1441.770, 151.748
1442.942, 144.183
1444.112, 169.629
1445.283, 132.014
1446.454, 141.447
1447.624, 160.932
1448.794, 95.369
1449.964, 203.819
1451.134, 120.045
1452.303, 138.990
1453.473, 138.671
1454.642, 139.494
1455.811, 140.483
1456.980, 87.574
1458.148, 137.618
1459.317, 83.591
1460.485, 92.989
1461.653, 68.887
1462.821, 118.759
1463.989, 109.696
1465.156, 104.371
1466.323, 135.405
1467.490, 54.649
1468.657, 19.982
1469.824, 97.326
1470.991, 11.682
1472.157, 87.065
1473.323, 98.456
1474.489, 41.903
1475.655, 129.356
1476.820, 69.802
1477.986, 28.238
1479.151, 71.680
1480.316, 62.136
1481.481, 47.588
1482.645, 117.036
1483.810, 14.480
1484.974, 6.042
1486.138, 101.476
1487.302, 2.969
1488.465, 55.640
1489.629, 79.317
1490.792, 26.065
1491.955, 58.879
1493.118, 35.734
1494.281, 56.537
1495.443, 96.477
