##NAMES=Axinite-(Fe)
##RRUFFID=R060183
##IDEAL CHEMISTRY=Ca_4_Fe^2+^_2_Al_4_[B_2_Si_8_O_30_](OH)_2_
##LOCALITY=Skagit Bluffs, near Manning Park, British Columbia, Canada
##OWNER=RRUFF
##SOURCE=Lloyd Twaites
##DESCRIPTION=Light-pink transparent axe-head-shaped single crystal
##STATUS=The identification of this mineral has been confirmed by X-ray diffraction and chemical analysis
##URL=rruff.info/R060183
##MEASURED CHEMISTRY=Ca_2.00_(Fe^2+^_0.58_Mn_0.23_Mg_0.19_)Al_2.00_B_1.00_Si_4.00_O_15_(OH)
##PIN_ID=L00943
##ORIENTATION=Laser parallel to c* (0 0 1). Fiducial mark perpendicular to laser is parallel to a [1 0 0]
52.67100, 0.0000000E+00
53.91000, 46.92755
55.14900, 91.05975
56.38700, 157.8952
57.62600, 198.6821
58.86400, 311.4799
60.10300, 246.5048
61.34100, 257.5403
62.57900, 175.2900
63.81700, 271.9565
65.05400, 187.4180
66.29200, 274.0426
67.52900, 210.8770
68.76700, 83.71814
70.00400, 159.6787
71.24100, 88.86560
72.47700, 60.86206
73.71400, 148.6642
74.95100, 124.7072
76.18700, 31.14465
77.42300, 9.881958
78.65900, 52.75513
79.89500, 64.16943
81.13100, 56.53857
82.36700, 247.2798
83.60200, 406.0435
84.83700, 620.2957
86.07200, 867.9539
87.30800, 1154.118
88.54200, 1378.999
89.77700, 1809.547
91.01200, 2568.674
92.24600, 3449.269
93.48000, 3948.227
94.71400, 4789.461
95.94800, 5775.909
97.18200, 6810.540
98.41600, 8197.310
99.64900, 9667.177
100.8830, 11096.10
102.1160, 12033.06
103.3490, 13093.02
104.5820, 14076.97
105.8150, 16007.89
107.0470, 17909.77
108.2800, 20495.58
109.5120, 21208.32
110.7440, 18129.97
111.9760, 15564.53
113.2080, 12763.98
114.4400, 10447.31
115.6710, 8797.512
116.9030, 7059.581
118.1340, 5782.500
119.3650, 4836.272
120.5960, 4208.907
121.8270, 3731.390
123.0580, 3499.713
124.2880, 3075.695
125.5190, 2976.833
126.7490, 2628.482
127.9790, 2420.415
129.2090, 2427.604
130.4390, 2371.024
131.6680, 2436.661
132.8980, 2432.456
134.1270, 2870.476
135.3560, 3252.736
136.5850, 3792.285
137.8140, 4579.196
139.0430, 5181.790
140.2710, 5750.953
141.5000, 6023.485
142.7280, 6259.388
143.9560, 6849.675
145.1840, 7796.359
146.4120, 9107.461
147.6390, 10870.00
148.8670, 12713.98
150.0940, 13882.41
151.3210, 14417.31
152.5490, 13683.66
153.7750, 11911.49
155.0020, 10309.79
156.2290, 8825.561
157.4550, 7460.812
158.6810, 6421.554
159.9080, 5773.789
161.1340, 5678.522
162.3590, 5947.751
163.5850, 6498.474
164.8110, 7338.690
166.0360, 8749.396
167.2610, 10465.59
168.4860, 12632.27
169.7110, 14784.43
170.9360, 16039.08
172.1610, 16408.20
173.3850, 15725.80
174.6100, 14188.88
175.8340, 12378.42
177.0580, 10478.44
178.2820, 8890.917
179.5050, 7208.862
180.7290, 6040.268
181.9520, 4742.129
183.1760, 4069.479
184.3990, 3669.486
185.6220, 3447.209
186.8450, 3659.513
188.0670, 4001.264
189.2900, 4681.443
190.5120, 5913.046
191.7340, 7343.071
192.9560, 8567.513
194.1780, 9108.370
195.4000, 9041.640
196.6220, 8885.316
197.8430, 8271.397
199.0640, 8221.881
200.2860, 8397.499
201.5070, 9247.934
202.7270, 10493.15
203.9480, 11803.18
205.1690, 12912.00
206.3890, 13707.40
207.6090, 14668.89
208.8290, 14962.75
210.0490, 14339.31
211.2690, 13794.11
212.4890, 12801.33
213.7080, 12123.19
214.9280, 11489.66
216.1470, 10722.53
217.3660, 10113.13
218.5850, 9417.291
219.8030, 8376.729
221.0220, 7058.306
222.2400, 5508.639
223.4590, 4184.086
224.6770, 2955.980
225.8950, 1946.359
227.1120, 1191.420
228.3300, 707.5425
229.5480, 487.1147
230.7650, 229.1294
231.9820, 255.5786
233.1990, 400.4673
234.4160, 519.8667
235.6330, 992.7915
236.8490, 1443.271
238.0660, 2057.348
239.2820, 2776.014
240.4980, 3428.276
241.7140, 4102.120
242.9300, 4523.421
244.1460, 4970.097
245.3610, 5039.208
246.5770, 5012.751
247.7920, 5092.716
249.0070, 5079.072
250.2220, 5234.797
251.4370, 5701.872
252.6510, 5735.298
253.8660, 6321.081
255.0800, 6183.240
256.2940, 6218.800
257.5080, 6081.779
258.7220, 6015.844
259.9360, 5952.349
261.1490, 5994.369
262.3630, 6108.106
263.5760, 6431.295
264.7890, 7242.910
266.0020, 8226.953
267.2150, 9385.372
268.4270, 10664.14
269.6400, 12061.20
270.8520, 13433.56
272.0640, 14600.20
273.2760, 15368.13
274.4880, 15813.33
275.7000, 15532.82
276.9120, 14856.59
278.1230, 13844.63
279.3340, 12382.96
280.5450, 11396.57
281.7560, 10381.45
282.9670, 9369.617
284.1780, 8679.056
285.3880, 8173.769
286.5980, 7641.752
287.8090, 7226.006
289.0190, 6810.527
290.2290, 6528.316
291.4380, 6301.367
292.6480, 6387.686
293.8570, 6328.268
295.0670, 6729.109
296.2760, 7200.205
297.4850, 7474.561
298.6930, 8656.175
299.9020, 9546.038
301.1110, 10997.15
302.3190, 12902.52
303.5270, 14928.13
304.7350, 16546.99
305.9430, 18054.09
307.1510, 18273.42
308.3580, 17862.01
309.5660, 16363.83
310.7730, 14815.89
311.9800, 13254.58
313.1870, 12060.96
314.3940, 11282.19
315.6010, 11551.35
316.8070, 12030.89
318.0130, 12366.78
319.2200, 12494.82
320.4260, 12279.67
321.6310, 11098.72
322.8370, 10012.00
324.0430, 9225.479
325.2480, 8551.169
326.4540, 7783.064
327.6590, 7544.164
328.8640, 7445.465
330.0680, 7219.962
331.2730, 6866.656
332.4780, 6837.545
333.6820, 7156.621
334.8860, 7739.887
336.0900, 8549.341
337.2940, 9917.979
338.4980, 11577.80
339.7010, 13584.80
340.9050, 15422.98
342.1080, 17194.34
343.3110, 17706.88
344.5140, 17462.59
345.7170, 16816.54
346.9200, 15976.71
348.1220, 15445.13
349.3240, 14909.79
350.5270, 14255.69
351.7290, 13584.83
352.9310, 12037.22
354.1320, 10228.85
355.3340, 8095.728
356.5350, 5942.855
357.7370, 4176.232
358.9380, 2702.846
360.1390, 1621.690
361.3400, 615.7734
362.5400, 81.08398
363.7410, 209.3828
364.9410, 443.6338
366.1410, 613.7021
367.3410, 645.5508
368.5410, 604.4854
369.7410, 469.2236
370.9400, 211.8037
372.1400, 117.8379
373.3390, 208.7275
374.5380, 351.8789
375.7370, 561.2754
376.9360, 749.6221
378.1350, 1043.171
379.3330, 1659.025
380.5310, 2385.096
381.7300, 3480.660
382.9280, 4924.918
384.1260, 6637.259
385.3230, 8714.292
386.5210, 10728.28
387.7180, 13042.65
388.9160, 15123.73
390.1130, 16645.62
391.3100, 16673.57
392.5060, 16200.10
393.7030, 14270.88
394.9000, 12149.71
396.0960, 10002.49
397.2920, 8023.334
398.4880, 6264.825
399.6840, 5000.941
400.8800, 4102.624
402.0750, 3209.164
403.2710, 2731.819
404.4660, 2251.189
405.6610, 2187.126
406.8560, 2324.576
408.0510, 2633.395
409.2450, 3338.789
410.4400, 4514.914
411.6340, 5947.882
412.8280, 8117.675
414.0220, 10635.13
415.2160, 13417.71
416.4100, 15435.39
417.6030, 16587.17
418.7970, 16571.06
419.9900, 16174.06
421.1830, 14937.15
422.3760, 13773.35
423.5690, 12657.65
424.7610, 11813.04
425.9540, 11221.53
427.1460, 10582.12
428.3380, 10048.79
429.5300, 9110.560
430.7220, 8065.414
431.9140, 6964.356
433.1050, 5784.386
434.2970, 4648.500
435.4880, 3788.695
436.6790, 3211.972
437.8700, 2773.329
439.0610, 2463.764
440.2510, 2738.274
441.4420, 2858.860
442.6320, 3378.519
443.8220, 3415.250
445.0120, 3316.050
446.2020, 2866.919
447.3910, 2226.854
448.5810, 1807.856
449.7700, 1103.921
450.9600, 655.0493
452.1490, 305.2373
453.3370, 85.48486
454.5260, 123.6729
455.7150, 248.8589
456.9030, 236.6519
458.0910, 354.4468
459.2800, 181.3418
460.4670, 157.2700
461.6550, 27.22607
462.8430, 260.8350
464.0300, 537.9424
465.2180, 953.0947
466.4050, 1418.290
467.5920, 1959.527
468.7790, 2622.806
469.9650, 3091.123
471.1520, 3314.478
472.3380, 3937.870
473.5250, 4206.296
474.7110, 5126.757
475.8970, 6255.250
477.0820, 7937.774
478.2680, 10355.33
479.4540, 13435.91
480.6390, 16877.52
481.8240, 21325.16
483.0090, 25630.82
484.1940, 28737.50
485.3780, 27872.21
486.5630, 25167.94
487.7470, 21393.69
488.9320, 17044.45
490.1160, 13080.23
491.3000, 9560.032
492.4830, 7136.841
493.6670, 5215.663
494.8500, 4262.971
496.0340, 3457.921
497.2170, 3185.435
498.4000, 2761.311
499.5820, 2938.168
500.7650, 2972.028
501.9480, 3139.888
503.1300, 3427.748
504.3120, 3738.605
505.4940, 3874.458
506.6760, 3969.797
507.8580, 3894.094
509.0390, 3648.589
510.2210, 3333.221
511.4020, 2903.110
512.5830, 2310.978
513.7640, 1827.438
514.9450, 1275.341
516.1250, 889.1035
517.3060, 488.8076
518.4860, 133.7461
519.6660, 201.8955
520.8460, 283.0776
522.0260, 431.4854
523.2060, 616.1377
524.3850, 602.3091
525.5650, 642.7432
526.7440, 597.5107
527.9230, 133.6055
529.1020, 315.1313
530.2810, 69.16748
531.4590, 58.64111
532.6380, 35.28613
533.8160, 68.90381
534.9940, 198.9775
536.1720, 300.9785
537.3500, 265.9287
538.5270, 199.8174
539.7050, 90.62549
540.8820, 41.68945
542.0590, 113.1943
543.2360, 206.9268
544.4130, 253.9360
545.5900, 260.2490
546.7660, 195.8726
547.9430, 297.7759
549.1190, 200.0156
550.2950, 237.5273
551.4710, 24.30908
552.6470, 73.74756
553.8220, 349.6895
554.9980, 635.6001
556.1730, 899.5059
557.3480, 1279.395
558.5230, 1621.261
559.6980, 1950.092
560.8730, 2344.872
562.0470, 2621.591
563.2220, 2942.247
564.3960, 3341.837
565.5700, 3862.363
566.7440, 4612.823
567.9170, 5420.216
569.0910, 6379.540
570.2640, 7230.797
571.4380, 7966.985
572.6110, 8712.104
573.7840, 8895.151
574.9570, 8567.127
576.1290, 8288.031
577.3020, 7545.864
578.4740, 6874.622
579.6460, 6307.304
580.8180, 5626.914
581.9900, 5222.446
583.1620, 5181.903
584.3330, 5338.283
585.5040, 5330.583
586.6760, 5700.808
587.8470, 5912.952
589.0180, 5893.019
590.1880, 5574.004
591.3590, 5328.908
592.5290, 4743.730
593.7000, 4068.472
594.8700, 3478.130
596.0400, 2885.292
597.2090, 2328.926
598.3790, 2003.854
599.5490, 1786.986
600.7180, 1674.886
601.8870, 1592.576
603.0560, 1794.246
604.2250, 1984.344
605.3940, 2242.159
606.5620, 2825.992
607.7300, 3525.741
608.8990, 4338.405
610.0670, 5333.986
611.2350, 6245.483
612.4020, 7350.893
613.5700, 8548.216
614.7370, 9589.457
615.9050, 10582.61
617.0720, 11258.67
618.2390, 12073.65
619.4060, 12319.54
620.5720, 11445.34
621.7390, 10480.06
622.9050, 8878.680
624.0710, 7128.215
625.2370, 5532.662
626.4030, 4186.019
627.5690, 3082.286
628.7340, 2148.462
629.9000, 1490.548
631.0650, 1106.542
632.2300, 1217.446
633.3950, 812.7476
634.5600, 689.9800
635.7240, 626.6035
636.8890, 672.1230
638.0530, 764.5425
639.2170, 816.8691
640.3810, 1043.102
641.5450, 1146.244
642.7080, 1480.292
643.8720, 1478.247
645.0350, 1442.109
646.1980, 1232.878
647.3610, 1162.568
648.5240, 1034.200
649.6870, 760.9175
650.8490, 634.3140
652.0120, 438.0532
653.1740, 305.5107
654.3360, 296.3887
655.4980, 210.2749
656.6600, 315.8379
657.8210, 370.0815
658.9830, 420.3555
660.1440, 565.1797
661.3050, 690.8545
662.4660, 897.6450
663.6270, 1031.852
664.7870, 1408.250
665.9480, 1706.971
667.1080, 2234.434
668.2680, 2785.827
669.4280, 3546.764
670.5880, 4381.041
671.7480, 5391.086
672.9070, 6569.142
674.0670, 7814.685
675.2260, 8948.028
676.3850, 9836.392
677.5440, 10311.86
678.7030, 10035.31
679.8610, 9331.188
681.0200, 8460.484
682.1780, 7246.269
683.3360, 6334.246
684.4940, 5387.159
685.6520, 4507.402
686.8090, 4003.128
687.9670, 3599.385
689.1240, 3295.515
690.2810, 3158.777
691.4380, 3175.841
692.5950, 3358.649
693.7520, 3619.206
694.9080, 3969.271
696.0650, 4589.676
697.2210, 5063.076
698.3770, 5924.520
699.5330, 6936.131
700.6880, 8154.297
701.8440, 9684.317
702.9990, 11685.26
704.1550, 14221.13
705.3100, 17201.93
706.4650, 20914.64
707.6190, 25321.29
708.7740, 30616.86
709.9290, 36064.37
711.0830, 41716.78
712.2370, 47213.14
713.3910, 50638.42
714.5450, 52627.63
715.6980, 51968.76
716.8520, 49524.84
718.0050, 45100.83
719.1580, 39283.76
720.3110, 33461.62
721.4640, 27950.41
722.6170, 22905.14
723.7700, 18872.79
724.9220, 15316.38
726.0740, 12536.90
727.2260, 10305.36
728.3780, 8639.752
729.5300, 7269.081
730.6810, 6306.345
731.8330, 5324.547
732.9840, 4526.685
734.1350, 3978.762
735.2860, 3405.807
736.4370, 2950.842
737.5880, 2807.869
738.7380, 2470.913
739.8880, 2238.939
741.0390, 2075.946
742.1890, 1872.910
743.3380, 1789.817
744.4880, 1716.668
745.6380, 1735.464
746.7870, 1702.204
747.9360, 1669.890
749.0850, 1756.522
750.2340, 1775.102
751.3830, 1927.110
752.5310, 2067.412
753.6800, 2369.528
754.8280, 2498.902
755.9760, 2915.228
757.1240, 3293.504
758.2720, 3477.732
759.4190, 4187.914
760.5670, 4753.049
761.7140, 5227.139
762.8610, 5938.185
764.0080, 6618.186
765.1550, 7097.145
766.3020, 7328.062
767.4480, 7308.937
768.5950, 7307.772
769.7410, 6898.566
770.8870, 6243.324
772.0330, 5591.044
773.1780, 5004.250
774.3240, 4172.790
775.4690, 3467.737
776.6140, 2838.295
777.7590, 2286.841
778.9040, 1959.354
780.0490, 1492.838
781.1940, 1180.291
782.3380, 858.7148
783.4820, 708.1118
784.6260, 529.4814
785.7700, 333.8242
786.9140, 219.1426
788.0580, 81.30176
789.2010, 2.304199
790.3450, 80.89258
791.4880, 222.0610
792.6310, 373.1592
793.7730, 345.2764
794.9160, 523.4854
796.0590, 543.1250
797.2010, 495.3979
798.3430, 453.4097
799.4850, 509.4839
800.6270, 558.6523
801.7690, 543.7026
802.9100, 377.8848
804.0520, 324.0952
805.1930, 60.31396
806.3340, 176.4834
807.4750, 353.2764
808.6160, 860.1357
809.7560, 1252.061
810.8970, 1709.047
812.0370, 2205.070
813.1770, 2281.112
814.3170, 2291.160
815.4570, 2158.220
816.5960, 1926.302
817.7360, 1653.427
818.8750, 1384.987
820.0140, 929.9287
821.1530, 741.3501
822.2920, 435.9062
823.4310, 112.6025
824.5690, 72.42285
825.7070, 66.60352
826.8460, 169.5327
827.9840, 181.4033
829.1220, 194.2700
830.2590, 198.1611
831.3970, 233.1167
832.5340, 195.1621
833.6710, 177.2764
834.8080, 130.7437
835.9450, 58.77295
837.0820, 14.14941
838.2190, 119.9639
839.3550, 229.8003
840.4910, 349.6602
841.6270, 410.5435
842.7630, 618.4512
843.8990, 639.3838
845.0350, 867.3438
846.1700, 905.3306
847.3060, 1251.346
848.4410, 1299.390
849.5760, 1347.463
850.7100, 1452.568
851.8450, 1350.705
852.9800, 1661.873
854.1140, 3956.075
855.2480, 3252.311
856.3820, 3010.582
857.5160, 1609.889
858.6500, 914.2314
859.7830, 858.6118
860.9170, 767.0308
862.0500, 841.4888
863.1830, 837.9873
864.3160, 761.5259
865.4480, 925.1060
866.5810, 926.7290
867.7130, 924.3950
868.8460, 982.1050
869.9780, 1082.859
871.1100, 1145.346
872.2410, 1273.506
873.3730, 1319.399
874.5050, 1411.339
875.6360, 1446.328
876.7670, 1574.363
877.8980, 1760.448
879.0290, 1895.583
880.1590, 2176.767
881.2900, 2232.001
882.4200, 2461.288
883.5500, 2813.628
884.6800, 3170.020
885.8100, 3554.468
886.9400, 4052.974
888.0690, 4690.537
889.1990, 5374.372
890.3280, 6136.853
891.4570, 7074.615
892.5860, 8053.463
893.7140, 9147.392
894.8430, 10363.38
895.9710, 11660.45
897.1000, 12832.59
898.2280, 13792.82
899.3560, 14745.13
900.4830, 15394.51
901.6110, 15571.00
902.7380, 15677.55
903.8660, 16009.21
904.9930, 15568.97
906.1200, 15342.83
907.2460, 14594.79
908.3730, 14307.86
909.5000, 13974.01
910.6260, 13219.27
911.7520, 12321.64
912.8780, 11724.11
914.0040, 10798.70
915.1290, 10117.38
916.2550, 9378.158
917.3800, 8621.061
918.5050, 8153.072
919.6300, 7770.194
920.7550, 7213.445
921.8800, 7003.800
923.0040, 6840.116
924.1290, 6806.827
925.2530, 7116.242
926.3770, 7058.960
927.5010, 7342.248
928.6250, 7433.479
929.7480, 7711.983
930.8720, 7837.756
931.9950, 7682.753
933.1180, 7669.216
934.2410, 7694.719
935.3640, 7795.077
936.4860, 7997.718
937.6090, 7996.673
938.7310, 8386.402
939.8530, 9048.882
940.9750, 9706.683
942.0970, 10760.24
943.2180, 11834.91
944.3400, 13279.70
945.4610, 14991.60
946.5820, 16887.61
947.7030, 18856.73
948.8240, 21053.96
949.9450, 23317.31
951.0650, 25461.76
952.1860, 27448.34
953.3060, 29540.04
954.4260, 30837.85
955.5460, 32723.76
956.6650, 34770.79
957.7850, 36900.93
958.9040, 39271.19
960.0230, 42087.54
961.1420, 44306.80
962.2610, 46982.50
963.3800, 48068.80
964.4990, 47565.67
965.6170, 46112.61
966.7350, 43681.81
967.8530, 40330.55
968.9710, 36763.64
970.0890, 33662.74
971.2070, 31552.70
972.3240, 29920.13
973.4410, 28736.74
974.5580, 28565.47
975.6750, 28629.31
976.7920, 29221.26
977.9090, 29897.32
979.0250, 30254.50
980.1410, 30211.78
981.2580, 29558.17
982.3740, 28394.68
983.4890, 27250.28
984.6050, 26230.00
985.7200, 24660.81
986.8360, 23658.74
987.9510, 22915.77
989.0660, 22053.91
990.1810, 21722.16
991.2950, 21213.50
992.4100, 21066.96
993.5240, 20093.52
994.6390, 19926.20
995.7530, 19785.97
996.8660, 19403.86
997.9800, 19994.86
999.0940, 20234.96
1000.207, 20956.15
1001.320, 21523.45
1002.433, 22454.85
1003.546, 23081.35
1004.659, 23486.95
1005.772, 23297.65
1006.884, 22815.44
1007.996, 21385.35
1009.108, 19808.35
1010.220, 17936.45
1011.332, 15851.65
1012.444, 13927.95
1013.555, 12168.34
1014.666, 10399.84
1015.777, 8884.435
1016.888, 7609.125
1017.999, 6640.926
1019.110, 5819.023
1020.220, 5155.328
1021.331, 4677.873
1022.441, 4357.840
1023.551, 3906.953
1024.661, 3863.779
1025.770, 3802.254
1026.880, 3704.110
1027.989, 3528.618
1029.098, 3297.895
1030.207, 2978.256
1031.316, 2715.363
1032.425, 2398.804
1033.533, 2220.902
1034.642, 1870.244
1035.750, 1832.504
1036.858, 1746.315
1037.966, 1527.853
1039.073, 1479.585
1040.181, 1543.377
1041.288, 1642.598
1042.396, 1597.100
1043.503, 1591.949
1044.610, 1529.441
1045.716, 1592.875
1046.823, 1638.065
1047.929, 1710.723
1049.036, 1865.820
1050.142, 1910.179
1051.248, 2021.092
1052.353, 2255.207
1053.459, 2456.666
1054.564, 2713.058
1055.670, 2792.010
1056.775, 2918.082
1057.880, 2949.000
1058.985, 2917.195
1060.089, 2799.531
1061.194, 2693.626
1062.298, 2535.915
1063.402, 2467.087
1064.506, 2159.303
1065.610, 2083.909
1066.713, 1896.777
1067.817, 1818.285
1068.920, 1680.381
1070.023, 1647.199
1071.126, 1588.101
1072.229, 1756.582
1073.332, 1895.151
1074.435, 2044.738
1075.537, 2410.962
1076.639, 2778.175
1077.741, 3138.644
1078.843, 3450.697
1079.945, 4046.100
1081.046, 4547.003
1082.148, 4901.857
1083.249, 5054.259
1084.350, 4984.378
1085.451, 4639.931
1086.551, 4396.261
1087.652, 3950.957
1088.752, 3489.612
1089.853, 3292.888
1090.953, 2812.276
1092.053, 2561.515
1093.152, 2406.004
1094.252, 2385.287
1095.351, 2371.230
1096.451, 2441.273
1097.550, 2551.606
1098.649, 2913.396
1099.748, 3211.946
1100.846, 3448.130
1101.945, 3880.612
1103.043, 4239.484
1104.141, 4434.855
1105.239, 4649.587
1106.337, 4745.434
1107.434, 4772.542
1108.532, 4707.723
1109.629, 4415.543
1110.726, 4240.994
1111.823, 3773.806
1112.920, 3382.262
1114.017, 3160.925
1115.113, 2746.049
1116.210, 2629.578
1117.306, 2309.263
1118.402, 2002.750
1119.498, 1777.454
1120.593, 1690.102
1121.689, 1594.924
1122.784, 1415.261
1123.879, 1266.035
1124.974, 1144.846
1126.069, 1090.433
1127.164, 972.8018
1128.259, 758.2822
1129.353, 645.6792
1130.447, 658.7744
1131.541, 547.4604
1132.635, 521.9946
1133.729, 555.5127
1134.822, 389.2275
1135.916, 367.0112
1137.009, 416.9004
1138.102, 252.8267
1139.195, 111.0322
1140.288, 204.9902
1141.380, 143.0000
1142.473, 152.0869
1143.565, 108.9111
1144.657, 57.69434
1145.749, 79.66406
1146.841, 34.40674
1147.932, 20.32129
1149.024, 10.67139
1150.115, 13.66846
1151.206, 20.94922
1152.297, 28.78320
1153.388, 42.81396
1154.479, 77.18799
1155.569, 92.62354
1156.659, 170.2637
1157.750, 131.8164
1158.839, 39.23682
1159.929, 109.9463
1161.019, 57.43994
1162.108, 158.3545
1163.198, 121.1284
1164.287, 17.01562
1165.376, 213.1909
1166.465, 32.74854
1167.553, 178.2280
1168.642, 168.6143
1169.730, 134.7173
1170.818, 162.4385
1171.906, 132.3525
1172.994, 99.61768
1174.082, 132.4551
1175.170, 137.8335
1176.257, 147.8413
1177.344, 139.0337
1178.431, 109.9468
1179.518, 80.42920
1180.605, 191.4673
1181.691, 116.0996
1182.778, 146.6855
1183.864, 179.6313
1184.950, 94.59131
1186.036, 3.108398
1187.122, 96.85010
1188.207, 26.29736
1189.292, 42.08594
1190.378, 87.18311
1191.463, 1.714355
1192.548, 39.24219
1193.632, 7.676270
1194.717, 29.78516
1195.801, 77.36084
1196.886, 4.322754
1197.970, 36.30811
1199.054, 3.087891
1200.137, 8.248047
1201.221, 31.31982
1202.305, 26.50830
1203.388, 35.34863
1204.471, 35.73486
1205.554, 9.593750
1206.637, 2.762207
1207.719, 30.96436
1208.802, 43.74268
1209.884, 40.54150
1210.966, 82.95068
1212.048, 3.562500
1213.130, 78.76318
1214.212, 22.84961
1215.293, 30.01318
1216.374, 161.0796
1217.456, 63.87109
1218.536, 141.6768
1219.617, 13.65479
1220.698, 84.75488
1221.778, 128.1890
1222.859, 123.5820
1223.939, 139.0112
1225.019, 119.1855
1226.099, 176.4814
1227.178, 162.8706
1228.258, 146.5557
1229.337, 168.2485
1230.417, 144.1387
1231.496, 138.6719
1232.574, 130.2383
1233.653, 128.8208
