##NAMES=Axinite-(Fe)
##RRUFFID=R060194
##IDEAL CHEMISTRY=Ca_4_Fe^2+^_2_Al_4_[B_2_Si_8_O_30_](OH)_2_
##LOCALITY=near Dalbandi, Baluchistan Province, Pakistan
##OWNER=RRUFF
##SOURCE=Herbert Obodda
##DESCRIPTION=Brown transparent wedge-shaped single crystal
##STATUS=The identification of this mineral has been confirmed by X-ray diffraction and chemical analysis
##URL=rruff.info/R060194
##MEASURED CHEMISTRY=Ca_2.00_(Fe^2+^_0.66_Mg_0.30_Mn_0.04_)Al_2.00_BSi_4.00_O_15_(OH)
##PIN_ID=L00543
##ORIENTATION=Laser parallel to (-1 0 -1). Fiducial mark perpendicular to laser is parallel to b [0 1 0]
53.91000, 0.0000000E+00
55.14900, 46.53891
56.38700, 87.14941
57.62600, 116.8952
58.86400, 130.0790
60.10300, 171.7305
61.34100, 233.3968
62.57900, 176.1141
63.81700, 153.5203
65.05400, 108.8961
66.29200, 61.41541
67.52900, 8.075317
68.76700, 22.71680
70.00400, 2.342407
71.24100, 14.95667
72.47700, 42.01001
73.71400, 78.68848
74.95100, 59.21790
76.18700, 26.73657
77.42300, 10.33594
78.65900, 69.65466
79.89500, 153.6487
81.13100, 225.1022
82.36700, 336.0781
83.60200, 456.5038
84.83700, 685.3136
86.07200, 874.4475
87.30800, 1055.852
88.54200, 1277.479
89.77700, 1624.290
91.01200, 1953.246
92.24600, 2391.279
93.48000, 2779.305
94.71400, 2985.255
95.94800, 3086.062
97.18200, 3152.682
98.41600, 3280.113
99.64900, 3441.353
100.8830, 3882.372
102.1160, 4350.142
103.3490, 4920.635
104.5820, 5669.827
105.8150, 6852.699
107.0470, 8135.230
108.2800, 9734.405
109.5120, 10306.21
110.7440, 8802.622
111.9760, 6543.634
113.2080, 4921.233
114.4400, 3749.406
115.6710, 3328.142
116.9030, 3114.430
118.1340, 2869.260
119.3650, 2735.622
120.5960, 2791.514
121.8270, 2691.953
123.0580, 2573.943
124.2880, 2417.472
125.5190, 2181.528
126.7490, 1962.103
127.9790, 1717.096
129.2090, 1400.233
130.4390, 1163.499
131.6680, 1039.878
132.8980, 986.3721
134.1270, 958.9763
135.3560, 1100.666
136.5850, 1187.518
137.8140, 1477.542
139.0430, 1862.767
140.2710, 2229.463
141.5000, 2456.756
142.7280, 2691.648
143.9560, 2692.059
145.1840, 2734.743
146.4120, 2881.664
147.6390, 3349.829
148.8670, 3792.242
150.0940, 4537.912
151.3210, 5232.838
152.5490, 5628.028
153.7750, 5943.481
155.0020, 6278.199
156.2290, 6880.180
157.4550, 7376.430
158.6810, 7362.941
159.9080, 7154.722
161.1340, 7069.764
162.3590, 7302.073
163.5850, 8011.642
164.8110, 9072.475
166.0360, 10764.57
167.2610, 13315.92
168.4860, 16110.53
169.7110, 19020.39
170.9360, 19896.52
172.1610, 18260.89
173.3850, 15070.52
174.6100, 12136.41
175.8340, 9505.542
177.0580, 7389.211
178.2820, 5481.547
179.5050, 4120.418
180.7290, 2962.532
181.9520, 2157.888
183.1760, 1550.484
184.3990, 1287.333
185.6220, 1234.559
186.8450, 1237.329
188.0670, 1341.697
189.2900, 1686.617
190.5120, 2338.834
191.7340, 3271.255
192.9560, 4439.878
194.1780, 5368.701
195.4000, 5600.746
196.6220, 4987.986
197.8430, 4516.423
199.0640, 4721.053
200.2860, 5108.870
201.5070, 5978.899
202.7270, 7106.757
203.9480, 8285.431
205.1690, 9477.921
206.3890, 10852.23
207.6090, 12212.58
208.8290, 13633.71
210.0490, 14698.20
211.2690, 15263.60
212.4890, 15349.97
213.7080, 14675.60
214.9280, 13736.68
216.1470, 12339.77
217.3660, 10819.57
218.5850, 9649.175
219.8030, 8164.894
221.0220, 6968.946
222.2400, 5896.403
223.4590, 4884.438
224.6770, 4031.615
225.8950, 3186.682
227.1120, 2684.356
228.3300, 2237.027
229.5480, 1925.023
230.7650, 1468.910
231.9820, 1294.976
233.1990, 1102.217
234.4160, 1054.661
235.6330, 1076.353
236.8490, 1119.284
238.0660, 1374.451
239.2820, 1595.857
240.4980, 2000.513
241.7140, 2420.437
242.9300, 2971.651
244.1460, 3674.110
245.3610, 4301.839
246.5770, 4893.808
247.7920, 5387.995
249.0070, 5803.382
250.2220, 6205.967
251.4370, 6363.747
252.6510, 6536.717
253.8660, 6516.877
255.0800, 6481.222
256.2940, 6026.750
257.5080, 5805.458
258.7220, 5811.344
259.9360, 5929.324
261.1490, 6344.638
262.3630, 6704.042
263.5760, 7424.615
264.7890, 8122.352
266.0020, 9152.251
267.2150, 10064.31
268.4270, 11322.53
269.6400, 12095.91
270.8520, 13133.44
272.0640, 13453.12
273.2760, 13216.94
274.4880, 12592.92
275.7000, 11655.04
276.9120, 10727.31
278.1230, 9685.729
279.3340, 8312.293
280.5450, 7131.999
281.7560, 5930.851
282.9670, 5086.850
284.1780, 4413.991
285.3880, 4191.274
286.5980, 4234.701
287.8090, 4628.266
289.0190, 5316.967
290.2290, 6211.801
291.4380, 7649.770
292.6480, 9317.868
293.8570, 11178.10
295.0670, 13147.46
296.2760, 15171.94
297.4850, 16935.56
298.6930, 18324.30
299.9020, 19246.17
301.1110, 19999.16
302.3190, 20233.28
303.5270, 20412.52
304.7350, 20241.87
305.9430, 19866.35
307.1510, 18897.95
308.3580, 17466.66
309.5660, 15342.49
310.7730, 13160.44
311.9800, 11391.50
313.1870, 10295.06
314.3940, 9708.208
315.6010, 9935.713
316.8070, 10206.63
318.0130, 10827.33
319.2200, 10858.42
320.4260, 10173.69
321.6310, 8618.923
322.8370, 6869.485
324.0430, 5141.609
325.2480, 3950.826
326.4540, 2882.140
327.6590, 2322.547
328.8640, 1920.048
330.0680, 1774.642
331.2730, 1585.326
332.4780, 1617.099
333.6820, 1733.570
334.8860, 1843.511
336.0900, 2196.535
337.2940, 2953.639
338.4980, 3626.823
339.7010, 4729.087
340.9050, 6172.428
342.1080, 8077.845
343.3110, 10010.34
344.5140, 11900.91
345.7170, 12710.56
346.9200, 12808.32
348.1220, 12449.20
349.3240, 12631.20
350.5270, 13294.74
351.7290, 13741.72
352.9310, 13758.73
354.1320, 12521.59
355.3340, 10455.02
356.5350, 8030.850
357.7370, 6075.528
358.9380, 4313.938
360.1390, 3000.610
361.3400, 2088.882
362.5400, 1281.256
363.7410, 803.7295
364.9410, 231.3057
366.1410, 16.98682
367.3410, 83.23389
368.5410, 329.3789
369.7410, 269.5273
370.9400, 366.6597
372.1400, 422.8149
373.3390, 335.0166
374.5380, 346.2319
375.7370, 320.4512
376.9360, 194.6650
378.1350, 65.15430
379.3330, 361.0537
380.5310, 863.0317
381.7300, 1492.087
382.9280, 2334.982
384.1260, 3642.033
385.3230, 5043.331
386.5210, 6880.776
387.7180, 8788.146
388.9160, 10234.89
390.1130, 11334.78
391.3100, 12018.69
392.5060, 12626.37
393.7030, 12607.12
394.9000, 11742.94
396.0960, 10223.82
397.2920, 8386.749
398.4880, 6482.744
399.6840, 5328.795
400.8800, 4238.906
402.0750, 3368.073
403.2710, 2826.296
404.4660, 2310.574
405.6610, 2070.906
406.8560, 1802.443
408.0510, 1639.732
409.2450, 1694.225
410.4400, 1821.770
411.6340, 2098.366
412.8280, 2565.015
414.0220, 3455.714
415.2160, 4498.464
416.4100, 5787.263
417.6030, 7042.113
418.7970, 7691.014
419.9900, 8012.960
421.1830, 8345.960
422.3760, 9246.003
423.5690, 10369.09
424.7610, 12148.24
425.9540, 15587.43
427.1460, 16645.66
428.3380, 18891.94
429.5300, 20142.27
430.7220, 20620.63
431.9140, 19459.05
433.1050, 17079.51
434.2970, 14064.01
435.4880, 11266.55
436.6790, 8625.130
437.8700, 7047.752
439.0610, 5599.414
440.2510, 5035.115
441.4420, 4726.854
442.6320, 5038.632
443.8220, 5254.445
445.0120, 5271.296
446.2020, 4832.182
447.3910, 3985.104
448.5810, 2923.059
449.7700, 1859.049
450.9600, 1126.071
452.1490, 653.1255
453.3370, 318.2124
454.5260, 206.3301
455.7150, 5.479004
456.9030, 59.37256
458.0910, 153.2549
459.2800, 211.2124
460.4670, 339.2744
461.6550, 290.5063
462.8430, 220.8857
464.0300, 301.3799
465.2180, 166.0303
466.4050, 32.22754
467.5920, 316.4839
468.7790, 507.7646
469.9650, 570.0698
471.1520, 661.3975
472.3380, 648.7490
473.5250, 493.1221
474.7110, 288.5176
475.8970, 58.93408
477.0820, 216.3496
478.2680, 301.7861
479.4540, 535.2422
480.6390, 936.7178
481.8240, 1519.213
483.0090, 2277.727
484.1940, 3000.259
485.3780, 3494.809
486.5630, 3683.376
487.7470, 2844.961
488.9320, 1928.562
490.1160, 1094.264
491.3000, 392.9692
492.4830, 51.35889
493.6670, 249.8608
494.8500, 345.3809
496.0340, 390.0996
497.2170, 396.1138
498.4000, 365.3779
499.5820, 222.8774
500.7650, 95.54443
501.9480, 5.683105
503.1300, 267.8530
504.3120, 325.0303
505.4940, 582.2144
506.6760, 769.4048
507.8580, 1002.601
509.0390, 1290.776
510.2210, 1615.582
511.4020, 1765.860
512.5830, 1883.558
513.7640, 1881.256
514.9450, 1776.773
516.1250, 1629.417
517.3060, 1403.559
518.4860, 1119.216
519.6660, 936.6860
520.8460, 698.9404
522.0260, 403.2002
523.2060, 224.4658
524.3850, 72.73535
525.5650, 20.98877
526.7440, 83.79590
527.9230, 186.6719
529.1020, 12.68945
530.2810, 119.7642
531.4590, 34.94971
532.6380, 62.79590
533.8160, 263.5171
534.9940, 529.2397
536.1720, 852.9639
537.3500, 1204.688
538.5270, 1667.414
539.7050, 2220.139
540.8820, 2838.864
542.0590, 3688.590
543.2360, 4403.316
544.4130, 5201.058
545.5900, 5782.842
546.7660, 5848.670
547.9430, 5466.554
549.1190, 4899.491
550.2950, 4231.481
551.4710, 3656.526
552.6470, 3164.653
553.8220, 2938.833
554.9980, 2857.097
556.1730, 2940.466
557.3480, 3261.902
558.5230, 3912.422
559.6980, 4427.026
560.8730, 4881.704
562.0470, 4957.447
563.2220, 4746.271
564.3960, 4273.168
565.5700, 3900.131
566.7440, 3585.131
567.9170, 3537.164
569.0910, 3662.210
570.2640, 3878.257
571.4380, 4219.321
572.6110, 4535.379
573.7840, 4720.433
574.9570, 4932.479
576.1290, 4853.515
577.3020, 4858.543
578.4740, 4955.562
579.6460, 4918.572
580.8180, 5352.574
581.9900, 5743.565
583.1620, 6330.547
584.3330, 7270.517
585.5040, 8481.477
586.6760, 9651.429
587.8470, 10631.37
589.0180, 11492.29
590.1880, 11286.21
591.3590, 10354.12
592.5290, 8964.008
593.7000, 7276.889
594.8700, 5807.759
596.0400, 4534.614
597.2090, 3551.089
598.3790, 2833.037
599.5490, 2206.748
600.7180, 1907.136
601.8870, 1735.851
603.0560, 1664.258
604.2250, 1720.585
605.3940, 1859.045
606.5620, 2062.266
607.7300, 2491.015
608.8990, 2686.763
610.0670, 2941.504
611.2350, 3104.585
612.4020, 3243.966
613.5700, 3259.686
614.7370, 3252.708
615.9050, 3184.616
617.0720, 3050.189
618.2390, 2891.880
619.4060, 2693.563
620.5720, 2468.237
621.7390, 2255.904
622.9050, 1819.563
624.0710, 1492.214
625.2370, 1182.855
626.4030, 719.4883
627.5690, 611.1133
628.7340, 240.7295
629.9000, 142.3359
631.0650, 144.9326
632.2300, 69.48193
633.3950, 9.360840
634.5600, 84.58887
635.7240, 107.2183
636.8890, 122.2939
638.0530, 229.9165
639.2170, 500.2480
640.3810, 640.8428
641.5450, 808.8203
642.7080, 1061.655
643.8720, 1144.003
645.0350, 1225.352
646.1980, 1154.702
647.3610, 1063.052
648.5240, 838.4023
649.6870, 562.7539
650.8490, 371.1147
652.0120, 225.5225
653.1740, 79.96729
654.3360, 1.375000
655.4980, 15.03076
656.6600, 70.35791
657.8210, 77.72852
658.9830, 8.089844
660.1440, 160.5679
661.3050, 234.2266
662.4660, 458.8843
663.6270, 643.5449
664.7870, 1138.440
665.9480, 1642.255
667.1080, 2308.896
668.2680, 3005.463
669.4280, 3969.180
670.5880, 5189.586
671.7480, 6537.925
672.9070, 8297.312
674.0670, 9898.982
675.2260, 11320.66
676.3850, 12261.34
677.5440, 12263.02
678.7030, 11542.71
679.8610, 10123.40
681.0200, 8439.100
682.1780, 6924.924
683.3360, 5457.774
684.4940, 4443.523
685.6520, 3698.827
686.8090, 2992.450
687.9670, 2581.501
689.1240, 2246.745
690.2810, 2230.992
691.4380, 2257.460
692.5950, 2475.538
693.7520, 2669.847
694.9080, 2939.513
696.0650, 3431.600
697.2210, 4039.301
698.3770, 4777.162
699.5330, 5877.427
700.6880, 7130.289
701.8440, 8702.342
702.9990, 10829.94
704.1550, 13325.34
705.3100, 16680.34
706.4650, 20963.02
707.6190, 25729.06
708.7740, 31038.65
709.9290, 37338.96
711.0830, 43007.64
712.2370, 48715.64
713.3910, 51524.16
714.5450, 52484.66
715.6980, 49557.14
716.8520, 44262.62
718.0050, 37438.07
719.1580, 30971.51
720.3110, 25521.94
721.4640, 20792.49
722.6170, 16668.75
723.7700, 13562.13
724.9220, 11111.50
726.0740, 9335.854
727.2260, 7892.197
728.3780, 6628.522
729.5300, 5704.834
730.6810, 4995.133
731.8330, 4280.417
732.9840, 3733.688
734.1350, 3227.946
735.2860, 2819.191
736.4370, 2625.437
737.5880, 2351.700
738.7380, 2175.001
739.8880, 1904.357
741.0390, 1807.798
742.1890, 1716.314
743.3380, 1674.888
744.4880, 1554.540
745.6380, 1499.915
746.7870, 1349.938
747.9360, 1411.625
749.0850, 1365.300
750.2340, 1428.964
751.3830, 1639.615
752.5310, 1658.255
753.6800, 1818.883
754.8280, 2067.499
755.9760, 2398.115
757.1240, 2739.204
758.2720, 3042.313
759.4190, 3640.897
760.5670, 4199.470
761.7140, 4827.031
762.8610, 5351.583
764.0080, 6073.124
765.1550, 6658.654
766.3020, 7188.175
767.4480, 7319.687
768.5950, 7250.104
769.7410, 7007.521
770.8870, 6538.261
772.0330, 5793.597
773.1780, 5180.145
774.3240, 4428.780
775.4690, 3871.586
776.6140, 3262.515
777.7590, 2692.559
778.9040, 2231.686
780.0490, 1930.861
781.1940, 1622.063
782.3380, 1409.259
783.4820, 1185.448
784.6260, 1023.630
785.7700, 824.8076
786.9140, 705.9780
788.0580, 670.1426
789.2010, 478.3013
790.3450, 339.4536
791.4880, 386.6006
792.6310, 310.5879
793.7730, 269.7144
794.9160, 181.7236
796.0590, 160.3013
797.2010, 189.1470
798.3430, 175.2559
799.4850, 149.3584
800.6270, 148.4551
801.7690, 167.3931
802.9100, 200.6406
804.0520, 224.7515
805.1930, 296.9038
806.3340, 324.1235
807.4750, 398.6089
808.6160, 449.6636
809.7560, 539.9902
810.8970, 609.3252
812.0370, 664.6553
813.1770, 598.9810
814.3170, 522.3018
815.4570, 501.6191
816.5960, 401.9312
817.7360, 283.2397
818.8750, 119.5439
820.0140, 10.15771
821.1530, 105.8979
822.2920, 114.7271
823.4310, 167.6504
824.5690, 142.6943
825.7070, 161.8467
826.8460, 162.1167
827.9840, 261.5049
829.1220, 160.0610
830.2590, 275.7344
831.3970, 361.5830
832.5340, 209.6528
833.6710, 283.8633
834.8080, 287.2524
835.9450, 246.8223
837.0820, 209.5503
838.2190, 277.4165
839.3550, 255.4556
840.4910, 221.6562
841.6270, 120.9985
842.7630, 101.4297
843.8990, 27.93848
845.0350, 12.51562
846.1700, 52.04785
847.3060, 82.33936
848.4410, 36.72656
849.5760, 137.1084
850.7100, 225.4917
851.8450, 199.8774
852.9800, 227.2642
854.1140, 321.6538
855.2480, 378.0459
856.3820, 439.4399
857.5160, 480.8369
858.6500, 572.2373
859.7830, 648.6416
860.9170, 702.0493
862.0500, 705.4604
863.1830, 856.8760
864.3160, 919.2964
865.4480, 875.7212
866.5810, 888.1509
867.7130, 832.5859
868.8460, 846.6987
869.9780, 924.4717
871.1100, 882.9238
872.2410, 930.3813
873.3730, 995.8457
874.5050, 880.3184
875.6360, 921.7983
876.7670, 901.2856
877.8980, 991.7793
879.0290, 1022.282
880.1590, 981.7910
881.2900, 1071.309
882.4200, 1069.839
883.5500, 1100.387
884.6800, 1132.941
885.8100, 1267.510
886.9400, 1403.087
888.0690, 1416.671
889.1990, 1668.271
890.3280, 1864.877
891.4570, 2277.498
892.5860, 2481.141
893.7140, 2833.791
894.8430, 3174.457
895.9710, 3711.136
897.1000, 4255.822
898.2280, 4622.538
899.3560, 5002.285
900.4830, 5672.045
901.6110, 6066.815
902.7380, 6490.612
903.8660, 6895.424
904.9930, 7112.262
906.1200, 6984.118
907.2460, 6793.036
908.3730, 6294.986
909.5000, 5436.987
910.6260, 4883.015
911.7520, 4038.054
912.8780, 3533.105
914.0040, 3013.183
915.1290, 2536.271
916.2550, 2212.380
917.3800, 2060.509
918.5050, 1721.651
919.6300, 1661.820
920.7550, 1370.000
921.8800, 1377.197
923.0040, 1378.407
924.1290, 1274.626
925.2530, 1367.858
926.3770, 1420.108
927.5010, 1454.368
928.6250, 1514.657
929.7480, 1549.939
930.8720, 1712.327
931.9950, 1660.727
933.1180, 1690.157
934.2410, 1814.598
935.3640, 1730.050
936.4860, 1804.512
937.6090, 1786.993
938.7310, 1723.495
939.8530, 1861.007
940.9750, 1912.543
942.0970, 2066.099
943.2180, 2168.665
944.3400, 2202.255
945.4610, 2503.855
946.5820, 2736.481
947.7030, 3132.127
948.8240, 3542.789
949.9450, 3833.466
951.0650, 4454.168
952.1860, 5064.914
953.3060, 5705.679
954.4260, 6651.334
955.5460, 7905.977
956.6650, 9261.743
957.7850, 10943.98
958.9040, 12978.92
960.0230, 15351.47
961.1420, 17564.86
962.2610, 20110.29
963.3800, 22232.53
964.4990, 23812.19
965.6170, 24065.62
966.7350, 23587.73
967.8530, 22237.45
968.9710, 20617.57
970.0890, 19180.56
971.2070, 18242.17
972.3240, 18024.70
973.4410, 17683.07
974.5580, 18878.40
975.6750, 19985.95
976.7920, 21568.92
977.9090, 23052.23
979.0250, 24655.19
980.1410, 25261.63
981.2580, 25042.36
982.3740, 24178.74
983.4890, 22946.82
984.6050, 20971.40
985.7200, 19412.03
986.8360, 17841.68
987.9510, 16380.36
989.0660, 15606.09
990.1810, 14640.84
991.2950, 14455.64
992.4100, 14124.46
993.5240, 14082.32
994.6390, 14415.21
995.7530, 14785.14
996.8660, 15290.10
997.9800, 15832.09
999.0940, 16529.12
1000.207, 16985.18
1001.320, 17712.28
1002.433, 17885.40
1003.546, 17840.57
1004.659, 17467.76
1005.772, 16753.99
1006.884, 15540.27
1007.996, 14357.94
1009.108, 12796.27
1010.220, 11249.89
1011.332, 9849.290
1012.444, 8556.286
1013.555, 7434.508
1014.666, 6430.734
1015.777, 5588.884
1016.888, 4866.512
1017.999, 4284.227
1019.110, 3897.441
1020.220, 3443.442
1021.331, 3330.134
1022.441, 3110.547
1023.551, 3047.303
1024.661, 2979.596
1025.770, 3102.089
1026.880, 3168.952
1027.989, 3395.579
1029.098, 3480.993
1030.207, 3539.940
1031.316, 3528.785
1032.425, 3573.106
1033.533, 3477.147
1034.642, 3293.223
1035.750, 3449.877
1036.858, 3504.460
1037.966, 3668.492
1039.073, 3710.983
1040.181, 3846.406
1041.288, 3794.661
1042.396, 3759.287
1043.503, 3770.069
1044.610, 3751.876
1045.716, 3857.387
1046.823, 3888.835
1047.929, 3970.579
1049.036, 4101.382
1050.142, 4455.625
1051.248, 4830.842
1052.353, 5314.160
1053.459, 5615.878
1054.564, 5770.209
1055.670, 5935.323
1056.775, 6144.973
1057.880, 6196.044
1058.985, 6023.484
1060.089, 5795.209
1061.194, 5536.745
1062.298, 5213.230
1063.402, 4783.359
1064.506, 4154.254
1065.610, 3794.793
1066.713, 3280.660
1067.817, 2924.644
1068.920, 2533.637
1070.023, 2447.679
1071.126, 2394.493
1072.229, 2340.473
1073.332, 2461.202
1074.435, 2656.885
1075.537, 2977.975
1076.639, 3555.712
1077.741, 4105.802
1078.843, 4951.334
1079.945, 5803.085
1081.046, 6967.252
1082.148, 7888.453
1083.249, 8835.819
1084.350, 8839.839
1085.451, 8760.115
1086.551, 8391.836
1087.652, 7432.109
1088.752, 6471.521
1089.853, 5617.236
1090.953, 4748.534
1092.053, 4079.342
1093.152, 3514.585
1094.252, 3021.670
1095.351, 2733.915
1096.451, 2412.656
1097.550, 2362.721
1098.649, 2086.463
1099.748, 2052.486
1100.846, 1979.011
1101.945, 1806.525
1103.043, 1840.606
1104.141, 1796.356
1105.239, 1774.162
1106.337, 1776.089
1107.434, 1650.872
1108.532, 1533.509
1109.629, 1451.432
1110.726, 1324.405
1111.823, 1194.487
1112.920, 994.5771
1114.017, 949.2524
1115.113, 924.4409
1116.210, 756.5254
1117.306, 718.4937
1118.402, 575.7539
1119.498, 561.1294
1120.593, 470.2544
1121.689, 424.0859
1122.784, 331.2271
1123.879, 298.5967
1124.974, 234.6416
1126.069, 243.8813
1127.164, 219.1460
1128.259, 216.9453
1129.353, 192.6221
1130.447, 170.8955
1131.541, 154.7363
1132.635, 131.0044
1133.729, 106.7437
1134.822, 89.14233
1135.916, 54.54004
1137.009, 32.88062
1138.102, 4.159424
1139.195, 24.60596
1140.288, 42.62769
1141.380, 18.13525
1142.473, 43.10229
1143.565, 31.65649
1144.657, 5.581055
1145.749, 27.17969
1146.841, 61.94385
1147.932, 71.72241
1149.024, 7.518799
1150.115, 58.31616
1151.206, 19.12866
1152.297, 23.05493
1153.388, 57.76147
1154.479, 40.40503
1155.569, 51.42896
1156.659, 75.27881
1157.750, 3.861084
1158.839, 54.01782
1159.929, 20.91602
1161.019, 10.31177
1162.108, 103.3857
1163.198, 92.95117
1164.287, 31.90186
1165.376, 9.423096
1166.465, 76.26196
1167.553, 39.31494
1168.642, 62.36279
1169.730, 34.42334
1170.818, 64.47607
1171.906, 5.417725
1172.994, 8.502197
1174.082, 64.57104
1175.170, 10.39453
1176.257, 0.5058590
1177.344, 69.36230
1178.431, 4.231689
1179.518, 39.46313
1180.605, 44.66357
1181.691, 10.01685
1182.778, 58.22485
1183.864, 3.362061
1184.950, 23.06274
1186.036, 1.513428
1187.122, 48.01953
1188.207, 2.543945
1189.292, 17.94702
1190.378, 72.53467
1191.463, 47.99341
1192.548, 29.56592
1193.632, 38.17456
1194.717, 32.82422
1195.801, 41.51318
1196.886, 58.79980
1197.970, 26.05518
1199.054, 30.34985
1200.137, 4.579346
1201.221, 6.215088
1202.305, 89.98950
1203.388, 17.71484
1204.471, 0.4252930
1205.554, 50.52124
1206.637, 13.39648
1207.719, 105.6785
1208.802, 23.10645
1209.884, 6.879639
1210.966, 19.92041
1212.048, 21.12305
1213.130, 14.78516
1214.212, 71.54810
1215.293, 5.494873
1216.374, 42.48779
1217.456, 106.2246
1218.536, 28.02637
1219.617, 4.721436
1220.698, 14.39331
1221.778, 24.48462
1222.859, 29.32837
1223.939, 24.67847
1225.019, 25.12988
1226.099, 19.26660
1227.178, 82.70703
1228.258, 51.04688
1229.337, 11.64014
1230.417, 72.63281
1231.496, 18.99951
1232.574, 11.23828
1233.653, 85.38647
1234.732, 90.51001
1235.810, 89.60889
1236.888, 134.8604
