##NAMES=Axinite-(Fe)
##RRUFFID=R060183
##IDEAL CHEMISTRY=Ca_4_Fe^2+^_2_Al_4_[B_2_Si_8_O_30_](OH)_2_
##LOCALITY=Skagit Bluffs, near Manning Park, British Columbia, Canada
##OWNER=RRUFF
##SOURCE=Lloyd Twaites
##DESCRIPTION=Light-pink transparent axe-head-shaped single crystal
##STATUS=The identification of this mineral has been confirmed by X-ray diffraction and chemical analysis
##URL=rruff.info/R060183
##MEASURED CHEMISTRY=Ca_2.00_(Fe^2+^_0.58_Mn_0.23_Mg_0.19_)Al_2.00_B_1.00_Si_4.00_O_15_(OH)
##PIN_ID=L01002
##ORIENTATION=Laser parallel to (-1 0 -1). Fiducial mark perpendicular to laser is parallel to b [0 1 0]
52.67100, 0.0000000E+00
53.91000, 68.61395
55.14900, 183.0728
56.38700, 251.1402
57.62600, 316.2843
58.86400, 396.6951
60.10300, 671.2148
61.34100, 559.5275
62.57900, 403.2221
63.81700, 244.8408
65.05400, 108.3770
66.29200, 49.04590
67.52900, 127.7710
68.76700, 58.13318
70.00400, 72.55457
71.24100, 19.00708
72.47700, 59.04565
73.71400, 80.88574
74.95100, 103.2174
76.18700, 271.0271
77.42300, 205.3257
78.65900, 165.9170
79.89500, 314.6267
81.13100, 515.2996
82.36700, 876.7979
83.60200, 1262.724
84.83700, 1768.627
86.07200, 2381.075
87.30800, 2991.760
88.54200, 3874.764
89.77700, 4618.010
91.01200, 5910.371
92.24600, 7554.685
93.48000, 8913.805
94.71400, 10085.60
95.94800, 11525.07
97.18200, 12609.17
98.41600, 13959.83
99.64900, 15576.98
100.8830, 16930.57
102.1160, 17855.55
103.3490, 18806.89
104.5820, 20008.56
105.8150, 22197.53
107.0470, 24911.77
108.2800, 29159.26
109.5120, 30221.97
110.7440, 26559.90
111.9760, 22639.01
113.2080, 19522.30
114.4400, 17018.73
115.6710, 15093.31
116.9030, 13067.99
118.1340, 11833.79
119.3650, 10691.67
120.5960, 9741.635
121.8270, 9047.662
123.0580, 8927.742
124.2880, 8441.865
125.5190, 8002.012
126.7490, 7327.004
127.9790, 7062.316
129.2090, 6916.902
130.4390, 6747.733
131.6680, 6707.779
132.8980, 6743.030
134.1270, 7476.338
135.3560, 8497.915
136.5850, 9663.393
137.8140, 11068.10
139.0430, 12272.89
140.2710, 12478.34
141.5000, 11908.24
142.7280, 10888.58
143.9560, 10254.38
145.1840, 9787.662
146.4120, 9498.448
147.6390, 10017.76
148.8670, 10358.62
150.0940, 10165.06
151.3210, 9623.089
152.5490, 8562.714
153.7750, 7341.950
155.0020, 6591.800
156.2290, 6137.269
157.4550, 5707.354
158.6810, 5484.058
159.9080, 5460.374
161.1340, 5669.305
162.3590, 5931.845
163.5850, 6731.996
164.8110, 7802.755
166.0360, 8800.115
167.2610, 10317.08
168.4860, 12079.64
169.7110, 13494.79
170.9360, 14056.54
172.1610, 12910.88
173.3850, 11240.82
174.6100, 9790.325
175.8340, 7755.417
177.0580, 6073.091
178.2820, 4535.336
179.5050, 3293.155
180.7290, 2419.540
181.9520, 1536.491
183.1760, 986.0049
184.3990, 613.0742
185.6220, 481.7002
186.8450, 382.8936
188.0670, 443.6689
189.2900, 742.0010
190.5120, 1098.873
191.7340, 1587.281
192.9560, 2250.221
194.1780, 2755.689
195.4000, 3057.682
196.6220, 3359.194
197.8430, 3692.223
199.0640, 4199.762
200.2860, 5234.230
201.5070, 6522.277
202.7270, 8027.987
203.9480, 9489.205
205.1690, 10644.21
206.3890, 11917.95
207.6090, 13345.67
208.8290, 14399.73
210.0490, 15406.13
211.2690, 15781.07
212.4890, 15820.22
213.7080, 15429.82
214.9280, 15042.35
216.1470, 14662.55
217.3660, 14139.22
218.5850, 13191.51
219.8030, 12523.54
221.0220, 10719.51
222.2400, 8804.417
223.4590, 6775.789
224.6770, 5067.859
225.8950, 3634.457
227.1120, 2437.248
228.3300, 1901.997
229.5480, 1444.324
230.7650, 1271.221
231.9820, 1367.671
233.1990, 1527.668
234.4160, 1751.244
235.6330, 2178.464
236.8490, 2459.383
238.0660, 3165.062
239.2820, 3483.504
240.4980, 3979.729
241.7140, 4375.742
242.9300, 4639.541
244.1460, 4841.120
245.3610, 5102.441
246.5770, 5149.463
247.7920, 5423.142
249.0070, 6095.473
250.2220, 6957.428
251.4370, 7767.963
252.6510, 9122.041
253.8660, 10407.63
255.0800, 11403.71
256.2940, 12034.25
257.5080, 12501.23
258.7220, 13249.61
259.9360, 13733.41
261.1490, 12962.61
262.3630, 13525.19
263.5760, 14683.17
264.7890, 16067.53
266.0020, 17541.26
267.2150, 19703.38
268.4270, 20984.86
269.6400, 22841.71
270.8520, 24623.92
272.0640, 25912.50
273.2760, 26812.42
274.4880, 27115.70
275.7000, 26711.34
276.9120, 25774.32
278.1230, 24057.66
279.3340, 21573.35
280.5450, 19458.40
281.7560, 17338.79
282.9670, 15590.54
284.1780, 14664.63
285.3880, 14134.05
286.5980, 13693.82
287.8090, 13499.92
289.0190, 13057.35
290.2290, 13008.12
291.4380, 13161.22
292.6480, 13116.64
293.8570, 13020.39
295.0670, 12854.47
296.2760, 12417.58
297.4850, 11758.59
298.6930, 11230.62
299.9020, 10422.97
301.1110, 9503.639
302.3190, 9157.616
303.5270, 9182.899
304.7350, 9048.491
305.9430, 9306.387
307.1510, 9797.581
308.3580, 10102.08
309.5660, 10674.87
310.7730, 12044.95
311.9800, 13309.33
313.1870, 15334.00
314.3940, 17576.95
315.6010, 20350.23
316.8070, 22918.82
318.0130, 25138.94
319.2200, 26189.21
320.4260, 26261.96
321.6310, 24579.78
322.8370, 22181.85
324.0430, 20119.14
325.2480, 18046.70
326.4540, 16942.52
327.6590, 16268.61
328.8640, 16070.95
330.0680, 15810.13
331.2730, 16068.40
332.4780, 16396.49
333.6820, 17464.85
334.8860, 18618.44
336.0900, 20101.29
337.2940, 22033.37
338.4980, 23741.69
339.7010, 26166.25
340.9050, 28141.05
342.1080, 29310.07
343.3110, 28965.34
344.5140, 27352.82
345.7170, 24638.62
346.9200, 21157.73
348.1220, 17765.16
349.3240, 14981.90
350.5270, 12589.96
351.7290, 10700.34
352.9310, 8428.048
354.1320, 6413.073
355.3340, 4410.421
356.5350, 2818.090
357.7370, 1824.086
358.9380, 824.4277
360.1390, 109.1201
361.3400, 404.8691
362.5400, 700.6318
363.7410, 997.2432
364.9410, 1071.081
366.1410, 1038.300
367.3410, 923.7715
368.5410, 657.1719
369.7410, 361.4258
370.9400, 134.4648
372.1400, 233.7510
373.3390, 462.2402
374.5380, 489.0039
375.7370, 816.0371
376.9360, 967.3398
378.1350, 1307.041
379.3330, 2041.040
380.5310, 2551.938
381.7300, 3898.732
382.9280, 4722.486
384.1260, 5993.359
385.3230, 7240.614
386.5210, 8455.321
387.7180, 9465.729
388.9160, 9703.528
390.1130, 9850.495
391.3100, 9379.469
392.5060, 8682.711
393.7030, 7690.428
394.9000, 6894.996
396.0960, 6139.533
397.2920, 5533.918
398.4880, 4775.120
399.6840, 4630.118
400.8800, 4544.453
402.0750, 4331.984
403.2710, 4086.230
404.4660, 4162.539
405.6610, 4272.020
406.8560, 4738.672
408.0510, 5156.496
409.2450, 6193.485
410.4400, 7397.641
411.6340, 8965.960
412.8280, 10912.44
414.0220, 13426.08
415.2160, 16015.88
416.4100, 18152.84
417.6030, 19532.95
418.7970, 20374.21
419.9900, 21661.63
421.1830, 22470.19
422.3760, 23568.90
423.5690, 23781.75
424.7610, 23598.75
425.9540, 22716.89
427.1460, 22185.17
428.3380, 20935.59
429.5300, 19299.14
430.7220, 18037.82
431.9140, 16112.65
433.1050, 14418.59
434.2970, 12969.67
435.4880, 11837.88
436.6790, 10922.21
437.8700, 11037.66
439.0610, 11312.23
440.2510, 12367.93
441.4420, 14048.74
442.6320, 15480.67
443.8220, 16046.71
445.0120, 15605.86
446.2020, 13822.12
447.3910, 11436.50
448.5810, 8758.979
449.7700, 6923.565
450.9600, 5180.257
452.1490, 3825.049
453.3370, 2818.940
454.5260, 2265.932
455.7150, 1790.020
456.9030, 1273.197
458.0910, 957.6475
459.2800, 528.2988
460.4670, 170.7803
461.6550, 187.5957
462.8430, 130.6152
464.0300, 198.2861
465.2180, 208.0293
466.4050, 552.8467
467.5920, 841.7422
468.7790, 1265.713
469.9650, 1670.761
471.1520, 1691.881
472.3380, 1942.073
473.5250, 2266.336
474.7110, 2738.666
475.8970, 3154.064
477.0820, 3905.528
478.2680, 4938.055
479.4540, 6157.645
480.6390, 7141.297
481.8240, 8555.007
483.0090, 11059.78
484.1940, 10277.60
485.3780, 9861.479
486.5630, 8659.414
487.7470, 6879.399
488.9320, 5235.435
490.1160, 3781.518
491.3000, 2759.648
492.4830, 1960.822
493.6670, 1462.039
494.8500, 1372.295
496.0340, 1073.592
497.2170, 1180.924
498.4000, 1054.291
499.5820, 1267.691
500.7650, 1350.123
501.9480, 1568.587
503.1300, 1890.094
504.3120, 2119.871
505.4940, 2447.436
506.6760, 2616.729
507.8580, 2967.228
509.0390, 3175.912
510.2210, 3249.938
511.4020, 3140.105
512.5830, 2870.561
513.7640, 2549.604
514.9450, 1936.510
516.1250, 1402.643
517.3060, 1042.999
518.4860, 596.5713
519.6660, 99.36914
520.8460, 206.7158
522.0260, 466.8301
523.2060, 744.1113
524.3850, 783.7197
525.5650, 894.6699
526.7440, 925.0654
527.9230, 939.9375
529.1020, 942.3340
530.2810, 803.3047
531.4590, 660.8271
532.6380, 498.8418
533.8160, 495.2744
534.9940, 410.1250
536.1720, 246.3574
537.3500, 101.8926
538.5270, 8.112305
539.7050, 95.36914
540.8820, 223.2568
542.0590, 284.0479
543.2360, 445.7568
544.4130, 555.3506
545.5900, 754.0576
546.7660, 811.6689
547.9430, 939.2568
549.1190, 1055.823
550.2950, 1154.365
551.4710, 1300.888
552.6470, 1598.383
553.8220, 2021.847
554.9980, 2347.278
556.1730, 2905.675
557.3480, 3629.035
558.5230, 4023.359
559.6980, 4519.644
560.8730, 4781.890
562.0470, 4967.095
563.2220, 5023.388
564.3960, 5353.379
565.5700, 5027.455
566.7440, 5312.485
567.9170, 5680.470
569.0910, 6105.408
570.2640, 6616.296
571.4380, 7059.137
572.6110, 7352.924
573.7840, 7325.660
574.9570, 7146.345
576.1290, 6815.975
577.3020, 6221.549
578.4740, 5450.069
579.6460, 4850.533
580.8180, 4254.937
581.9900, 3819.282
583.1620, 3763.569
584.3330, 3497.793
585.5040, 3480.958
586.6760, 3371.059
587.8470, 3287.095
589.0180, 3256.067
590.1880, 2872.975
591.3590, 2488.814
592.5290, 1916.588
593.7000, 1619.293
594.8700, 1235.929
596.0400, 854.4941
597.2090, 731.9873
598.3790, 526.3945
599.5490, 449.6758
600.7180, 499.8120
601.8870, 621.5913
603.0560, 667.4097
604.2250, 956.9370
605.3940, 1284.579
606.5620, 1643.182
607.7300, 2174.739
608.8990, 2712.220
610.0670, 3485.621
611.2350, 4209.944
612.4020, 5035.187
613.5700, 5790.348
614.7370, 6472.429
615.9050, 7126.428
617.0720, 7637.344
618.2390, 8027.176
619.4060, 7934.924
620.5720, 7636.588
621.7390, 6800.167
622.9050, 5866.660
624.0710, 4899.066
625.2370, 3774.386
626.4030, 2958.617
627.5690, 2461.762
628.7340, 2005.816
629.9000, 1803.783
631.0650, 1695.659
632.2300, 1798.444
633.3950, 1967.141
634.5600, 2282.745
635.7240, 2704.256
636.8890, 3277.677
638.0530, 3823.004
639.2170, 4487.240
640.3810, 5030.485
641.5450, 5584.990
642.7080, 5966.207
643.8720, 6083.410
645.0350, 6212.591
646.1980, 5790.785
647.3610, 5423.421
648.5240, 4739.222
649.6870, 4186.232
650.8490, 3487.112
652.0120, 3237.592
653.1740, 2504.826
654.3360, 2197.438
655.4980, 2028.753
656.6600, 1788.411
657.8210, 1742.797
658.9830, 1592.756
660.1440, 1656.952
661.3050, 1882.667
662.4660, 1934.565
663.6270, 2153.043
664.7870, 2627.943
665.9480, 2839.177
667.1080, 3507.704
668.2680, 4024.674
669.4280, 5051.709
670.5880, 5899.500
671.7480, 6979.300
672.9070, 8259.196
674.0670, 9519.918
675.2260, 10581.26
676.3850, 11508.85
677.5440, 11746.56
678.7030, 11403.43
679.8610, 10691.74
681.0200, 9537.251
682.1780, 8327.509
683.3360, 7113.650
684.4940, 6086.158
685.6520, 5198.678
686.8090, 4595.505
687.9670, 4097.588
689.1240, 3853.489
690.2810, 3642.861
691.4380, 3635.393
692.5950, 3717.498
693.7520, 4098.476
694.9080, 4348.208
696.0650, 4840.843
697.2210, 5698.379
698.3770, 6521.816
699.5330, 7601.157
700.6880, 9081.396
701.8440, 11057.54
702.9990, 13299.59
704.1550, 15968.54
705.3100, 19639.39
706.4650, 23623.14
707.6190, 28507.80
708.7740, 33669.36
709.9290, 39452.82
711.0830, 45245.19
712.2370, 50631.46
713.3910, 54246.64
714.5450, 56564.71
715.6980, 56273.70
716.8520, 54158.59
718.0050, 49214.39
719.1580, 43696.09
720.3110, 37284.70
721.4640, 31375.22
722.6170, 25721.64
723.7700, 21359.97
724.9220, 17501.20
726.0740, 14592.34
727.2260, 12006.40
728.3780, 9827.355
729.5300, 8434.223
730.6810, 7047.001
731.8330, 6117.688
732.9840, 5285.287
734.1350, 4422.794
735.2860, 3899.213
736.4370, 3404.549
737.5880, 3005.618
738.7380, 2645.490
739.8880, 2385.534
741.0390, 2217.242
742.1890, 1990.742
743.3380, 1977.580
744.4880, 1996.338
745.6380, 1893.018
746.7870, 1968.616
747.9360, 1957.132
749.0850, 2111.569
750.2340, 2174.925
751.3830, 2494.201
752.5310, 2742.399
753.6800, 2909.519
754.8280, 3198.660
755.9760, 3354.266
757.1240, 3609.415
758.2720, 3641.229
759.4190, 3677.969
760.5670, 3686.633
761.7140, 3768.226
762.8610, 3727.745
764.0080, 3535.193
765.1550, 3444.570
766.3020, 3151.877
767.4480, 2989.115
768.5950, 2798.285
769.7410, 2469.386
770.8870, 2239.420
772.0330, 1993.388
773.1780, 1571.292
774.3240, 1313.130
775.4690, 1057.905
776.6140, 653.6162
777.7590, 560.2661
778.9040, 469.8525
780.0490, 228.3726
781.1940, 67.79834
782.3380, 62.08643
783.4820, 90.76367
784.6260, 164.8311
785.7700, 27.15088
786.9140, 304.6499
788.0580, 497.4717
789.2010, 479.7148
790.3450, 417.3672
791.4880, 620.3931
792.6310, 621.8970
793.7730, 617.8760
794.9160, 604.3242
796.0590, 652.2314
797.2010, 585.6191
798.3430, 601.7456
799.4850, 590.4902
800.6270, 521.8862
801.7690, 563.3979
802.9100, 399.0601
804.0520, 365.7529
805.1930, 224.4473
806.3340, 81.05908
807.4750, 186.4941
808.6160, 536.2705
809.7560, 630.2505
810.8970, 861.3975
812.0370, 1042.711
813.1770, 1062.174
814.3170, 1069.746
815.4570, 900.3955
816.5960, 828.1006
817.7360, 636.8384
818.8750, 449.5840
820.0140, 465.3301
821.1530, 269.0591
822.2920, 243.7627
823.4310, 130.4380
824.5690, 65.80469
825.7070, 66.55859
826.8460, 15.26709
827.9840, 69.79980
829.1220, 138.3037
830.2590, 135.7842
831.3970, 333.2422
832.5340, 367.6807
833.6710, 447.1016
834.8080, 480.5063
835.9450, 596.8945
837.0820, 818.2676
838.2190, 942.6270
839.3550, 1114.974
840.4910, 1340.307
841.6270, 1554.324
842.7630, 1930.944
843.8990, 2082.248
845.0350, 2402.543
846.1700, 2710.832
847.3060, 2930.115
848.4410, 3079.392
849.5760, 3504.665
850.7100, 3713.935
851.8450, 3606.200
852.9800, 3875.467
854.1140, 3854.641
855.2480, 4150.996
856.3820, 3930.262
857.5160, 3864.531
858.6500, 3953.803
859.7830, 4117.078
860.9170, 4258.359
862.0500, 4156.646
863.1830, 4386.940
864.3160, 4425.241
865.4480, 4740.550
866.5810, 4616.870
867.7130, 4846.203
868.8460, 5024.552
869.9780, 5104.915
871.1100, 5238.295
872.2410, 5567.699
873.3730, 5725.132
874.5050, 6009.614
875.6360, 6289.161
876.7670, 6336.765
877.8980, 6811.412
879.0290, 6867.102
880.1590, 7297.824
881.2900, 7429.577
882.4200, 7572.363
883.5500, 7840.185
884.6800, 8188.046
885.8100, 8503.939
886.9400, 8832.873
888.0690, 9032.860
889.1990, 9587.898
890.3280, 10257.00
891.4570, 10983.14
892.5860, 11788.35
893.7140, 12711.60
894.8430, 13633.92
895.9710, 14673.31
897.1000, 15766.77
898.2280, 16610.31
899.3560, 17335.92
900.4830, 17897.60
901.6110, 18492.33
902.7380, 18583.13
903.8660, 18308.00
904.9930, 17708.94
906.1200, 17013.98
907.2460, 16178.08
908.3730, 15357.27
909.5000, 14467.01
910.6260, 13220.83
911.7520, 12570.21
912.8780, 11539.69
914.0040, 10541.14
915.1290, 10017.32
916.2550, 9262.749
917.3800, 8744.182
918.5050, 8205.651
919.6300, 7895.128
920.7550, 7566.261
921.8800, 7458.326
923.0040, 7246.269
924.1290, 7269.432
925.2530, 7071.027
926.3770, 7269.859
927.5010, 7364.295
928.6250, 7409.979
929.7480, 7685.274
930.8720, 7533.815
931.9950, 7641.736
933.1180, 7423.262
934.2410, 7460.198
935.3640, 7346.291
936.4860, 7306.123
937.6090, 7659.790
938.7310, 7913.223
939.8530, 8233.199
940.9750, 8695.500
942.0970, 9513.252
943.2180, 10336.06
944.3400, 11473.90
945.4610, 12576.84
946.5820, 13772.87
947.7030, 15456.01
948.8240, 16925.25
949.9450, 18386.62
951.0650, 19935.06
952.1860, 21588.62
953.3060, 23251.27
954.4260, 24969.03
955.5460, 26538.90
956.6650, 28691.89
957.7850, 31093.97
958.9040, 33967.77
960.0230, 36649.31
961.1420, 38306.04
962.2610, 40799.32
963.3800, 41412.43
964.4990, 41907.98
965.6170, 40953.64
966.7350, 39355.58
967.8530, 37903.61
968.9710, 36297.76
970.0890, 34987.01
971.2070, 34611.35
972.3240, 35015.79
973.4410, 35981.34
974.5580, 37619.01
975.6750, 39636.78
976.7920, 41302.65
977.9090, 43025.62
979.0250, 44163.71
980.1410, 44557.90
981.2580, 44279.18
982.3740, 42561.57
983.4890, 40573.06
984.6050, 38519.66
985.7200, 36364.34
986.8360, 34307.14
987.9510, 32678.81
989.0660, 31125.03
990.1810, 29703.13
991.2950, 28288.32
992.4100, 27118.63
993.5240, 26191.03
994.6390, 24920.52
995.7530, 24296.12
996.8660, 23612.82
997.9800, 22726.63
999.0940, 21784.54
1000.207, 21434.54
1001.320, 20706.90
1002.433, 19703.84
1003.546, 18883.54
1004.659, 17844.43
1005.772, 16758.17
1006.884, 15401.03
1007.996, 14266.24
1009.108, 12999.14
1010.220, 11456.58
1011.332, 10472.03
1012.444, 9243.257
1013.555, 8070.092
1014.666, 7072.234
1015.777, 6503.805
1016.888, 5815.154
1017.999, 5104.947
1019.110, 4633.661
1020.220, 4136.845
1021.331, 3874.497
1022.441, 3470.307
1023.551, 3303.665
1024.661, 3154.838
1025.770, 3005.828
1026.880, 2876.223
1027.989, 2751.589
1029.098, 2695.115
1030.207, 2626.132
1031.316, 2403.336
1032.425, 2418.389
1033.533, 2534.082
1034.642, 2359.589
1035.750, 2414.591
1036.858, 2479.024
1037.966, 2554.265
1039.073, 2598.480
1040.181, 2926.497
1041.288, 2885.909
1042.396, 3097.542
1043.503, 2963.102
1044.610, 3180.589
1045.716, 3066.228
1046.823, 3040.863
1047.929, 3093.821
1049.036, 3114.297
1050.142, 3405.072
1051.248, 3390.007
1052.353, 3592.307
1053.459, 3941.427
1054.564, 4130.892
1055.670, 4225.834
1056.775, 4182.561
1057.880, 4278.572
1058.985, 4130.745
1060.089, 4070.891
1061.194, 3862.914
1062.298, 3576.175
1063.402, 3308.951
1064.506, 3062.024
1065.610, 2721.822
1066.713, 2587.423
1067.817, 2389.254
1068.920, 2252.249
1070.023, 2244.785
1071.126, 2171.443
1072.229, 2365.359
1073.332, 2445.393
1074.435, 2655.193
1075.537, 3032.259
1076.639, 3467.062
1077.741, 3844.223
1078.843, 4431.239
1079.945, 4895.402
1081.046, 5338.900
1082.148, 5654.773
1083.249, 5782.501
1084.350, 5701.200
1085.451, 5484.073
1086.551, 4965.063
1087.652, 4472.763
1088.752, 3904.908
1089.853, 3396.046
1090.953, 2953.033
1092.053, 2570.433
1093.152, 2244.875
1094.252, 1984.293
1095.351, 1800.451
1096.451, 1610.436
1097.550, 1582.736
1098.649, 1546.838
1099.748, 1610.823
1100.846, 1517.017
1101.945, 1620.275
1103.043, 1546.000
1104.141, 1711.502
1105.239, 1653.155
1106.337, 3909.108
1107.434, 1892.987
1108.532, 3734.560
1109.629, 2534.735
1110.726, 1406.221
1111.823, 1284.407
1112.920, 1101.154
1114.017, 1150.704
1115.113, 909.5928
1116.210, 864.2051
1117.306, 746.3003
1118.402, 706.4932
1119.498, 759.4585
1120.593, 623.6113
1121.689, 574.3965
1122.784, 530.6162
1123.879, 432.4878
1124.974, 369.5791
1126.069, 375.5728
1127.164, 265.0615
1128.259, 265.5078
1129.353, 199.2661
1130.447, 42.14990
1131.541, 57.44434
1132.635, 18.17822
1133.729, 49.50000
1134.822, 28.08984
1135.916, 33.35498
1137.009, 69.67041
1138.102, 68.50439
1139.195, 77.12354
1140.288, 96.06494
1141.380, 75.25293
1142.473, 70.39111
1143.565, 56.27637
1144.657, 104.5566
1145.749, 78.83789
1146.841, 86.72314
1147.932, 103.9941
1149.024, 83.54980
1150.115, 76.36865
1151.206, 84.83545
1152.297, 182.6904
1153.388, 138.6558
1154.479, 166.2920
1155.569, 114.6943
1156.659, 148.4541
1157.750, 131.3213
1158.839, 145.6523
1159.929, 194.0229
1161.019, 180.1797
1162.108, 209.3994
1163.198, 153.5698
1164.287, 158.2422
1165.376, 57.12793
1166.465, 136.3188
1167.553, 121.8853
1168.642, 129.4248
1169.730, 267.1621
1170.818, 66.01807
1171.906, 164.3291
1172.994, 49.42285
1174.082, 108.7285
1175.170, 70.72510
1176.257, 179.7495
1177.344, 79.26318
1178.431, 143.0845
1179.518, 16.70947
1180.605, 100.0459
1181.691, 79.42969
1182.778, 59.30176
1183.864, 71.29248
1184.950, 6.765625
1186.036, 8.796387
1187.122, 46.43164
1188.207, 11.61523
1189.292, 47.30078
1190.378, 0.3520510
1191.463, 96.31201
1192.548, 120.7354
1193.632, 2.817383
1194.717, 92.33301
1195.801, 9.901367
1196.886, 62.99316
1197.970, 9.750488
1199.054, 128.5571
1200.137, 99.27881
1201.221, 78.82080
1202.305, 58.64746
1203.388, 63.98779
1204.471, 54.47656
1205.554, 76.85889
1206.637, 88.60400
1207.719, 112.2666
1208.802, 123.0610
1209.884, 95.79102
1210.966, 92.49463
1212.048, 10.04102
1213.130, 169.4585
1214.212, 102.8203
1215.293, 175.1631
1216.374, 40.58789
1217.456, 92.80859
1218.536, 45.25098
1219.617, 188.0918
1220.698, 37.04980
1221.778, 119.0557
1222.859, 142.7153
1223.939, 136.5229
1225.019, 140.4980
1226.099, 185.7466
1227.178, 145.9097
1228.258, 102.9727
1229.337, 202.9229
1230.417, 133.9932
1231.496, 201.7510
1232.574, 237.4224
1233.653, 271.0039
