##NAMES=Axinite-(Fe)
##RRUFFID=R050061
##IDEAL CHEMISTRY=Ca_4_Fe^2+^_2_Al_4_[B_2_Si_8_O_30_](OH)_2_
##LOCALITY=Jamestown, California, USA
##OWNER=RRUFF
##SOURCE=Rock Currier
##DESCRIPTION=Brown colored axe-head-shaped single crystals
##STATUS=The identification of this mineral has been confirmed by X-ray diffraction and chemical analysis
##URL=rruff.info/R050061
##MEASURED CHEMISTRY=Ca_2.00_(Fe^2+^_0.73_Mg_0.20_Mn_0.07_)Al_2.00_BSi_4_O_15_(OH)
##PIN_ID=L00531
##ORIENTATION=Laser parallel to (1 1 0). Fiducial mark perpendicular to laser is parallel to -c [0 0 -1]
85.455, 0.000
86.858, 71.728
88.260, 19.671
89.663, 7.570
91.065, 14.808
92.466, 141.915
93.868, 187.155
95.269, 318.092
96.670, 643.654
98.070, 1127.826
99.471, 1564.674
100.871, 2040.425
102.271, 2607.458
103.670, 3377.360
105.070, 4702.644
106.469, 6130.949
107.868, 7221.665
109.267, 7334.341
110.665, 6658.637
112.063, 5234.292
113.461, 3658.108
114.859, 2580.927
116.256, 1693.623
117.653, 1127.097
119.050, 811.264
120.447, 695.060
121.843, 487.364
123.240, 694.534
124.636, 562.519
126.031, 545.131
127.427, 536.442
128.822, 342.499
130.217, 485.332
131.612, 443.978
133.006, 493.472
134.400, 614.845
135.794, 833.124
137.188, 1066.336
138.581, 1279.501
139.975, 1306.640
141.368, 1173.768
142.760, 1232.898
144.153, 1411.045
145.545, 2007.219
146.937, 2715.426
148.329, 3502.674
149.720, 4322.968
151.112, 4582.312
152.503, 4551.710
153.893, 3823.183
155.284, 2961.768
156.674, 2393.354
158.064, 1833.359
159.454, 1626.780
160.843, 1368.935
162.233, 1340.461
163.622, 1440.928
165.011, 1802.670
166.399, 2531.660
167.787, 3226.885
169.175, 4036.294
170.563, 4773.746
171.951, 5191.256
173.338, 5028.862
174.725, 4616.586
176.112, 3670.438
177.499, 2750.430
178.885, 2101.565
180.271, 1343.849
181.657, 764.280
183.043, 404.861
184.428, 171.592
185.813, 222.470
187.198, 345.495
188.583, 943.665
189.967, 1586.973
191.351, 2460.419
192.735, 2993.997
194.119, 3222.705
195.502, 3026.539
196.885, 2511.497
198.268, 2546.577
199.651, 2885.775
201.033, 3806.089
202.415, 5120.516
203.797, 6351.053
205.179, 7451.696
206.561, 7822.426
207.942, 7943.233
209.323, 7474.121
210.703, 6605.084
212.084, 5836.125
213.464, 5357.241
214.844, 4918.430
216.224, 4383.697
217.603, 3873.042
218.983, 3394.507
220.362, 2666.254
221.741, 2012.507
223.119, 1183.400
224.497, 691.978
225.875, 118.203
227.253, 155.058
228.631, 364.428
230.008, 455.697
231.385, 502.383
232.762, 552.065
234.139, 401.750
235.515, 293.426
236.891, 35.084
238.267, 210.271
239.643, 538.611
241.018, 926.709
242.393, 1127.399
243.768, 1557.782
245.143, 1689.119
246.517, 1865.466
247.891, 1955.822
249.265, 2170.187
250.639, 2475.560
252.012, 2646.915
253.386, 3063.763
254.759, 3201.386
256.131, 3275.809
257.504, 3288.797
258.876, 3233.403
260.248, 3486.340
261.620, 3777.570
262.991, 4329.062
264.363, 4899.788
265.734, 5532.724
267.104, 6265.854
268.475, 6829.161
269.845, 7552.629
271.215, 7986.243
272.585, 8329.990
273.955, 8263.861
275.324, 7987.837
276.693, 7561.921
278.062, 6656.098
279.431, 6170.366
280.799, 5354.720
282.167, 4809.154
283.535, 4530.666
284.903, 4230.251
286.270, 3969.905
287.638, 3627.620
289.005, 3518.362
290.371, 3344.125
291.738, 3336.916
293.104, 3358.731
294.470, 3493.573
295.836, 3805.442
297.201, 4024.338
298.567, 4391.263
299.932, 4751.218
301.296, 5356.200
302.661, 6161.210
304.025, 6756.251
305.389, 7461.317
306.753, 7516.414
308.117, 7301.539
309.480, 6456.690
310.843, 5241.871
312.206, 4406.077
313.569, 3982.311
314.931, 3928.571
316.293, 4039.857
317.655, 4366.169
319.017, 4700.508
320.378, 4629.870
321.740, 4399.212
323.101, 3939.244
324.461, 3598.847
325.822, 3379.226
327.182, 3138.637
328.542, 3255.088
329.902, 2802.577
331.261, 2718.104
332.621, 2482.669
333.980, 2185.270
335.339, 2147.905
336.697, 2201.575
338.056, 2595.282
339.414, 3111.023
340.772, 3912.797
342.129, 4823.604
343.487, 5568.444
344.844, 6513.315
346.201, 6758.524
347.557, 7293.730
348.914, 7620.174
350.270, 7709.405
351.626, 7601.441
352.982, 6975.188
354.337, 6029.356
355.693, 4567.787
357.048, 3239.663
358.402, 2363.241
359.757, 1599.465
361.111, 1056.453
362.465, 640.921
363.819, 492.532
365.173, 278.810
366.526, 137.452
367.879, 69.957
369.232, 55.652
370.585, 62.963
371.937, 47.613
373.290, 95.302
374.642, 225.822
375.993, 212.389
377.345, 497.602
378.696, 708.814
380.047, 1060.105
381.398, 1488.494
382.748, 2280.928
384.099, 3287.014
385.449, 4460.967
386.799, 6214.069
388.148, 7529.612
389.497, 8485.296
390.847, 8866.435
392.196, 8417.974
393.544, 7543.979
394.893, 6137.185
396.241, 4875.192
397.589, 3692.113
398.936, 2578.695
400.284, 2044.067
401.631, 1582.046
402.978, 1372.006
404.325, 1380.948
405.672, 1259.873
407.018, 1596.782
408.364, 1808.677
409.710, 2538.556
411.055, 3601.418
412.401, 5281.266
413.746, 7904.096
415.091, 10678.932
416.435, 13913.772
417.780, 15688.620
419.124, 16193.471
420.468, 15248.322
421.812, 13953.171
423.155, 13488.011
424.498, 12982.850
425.842, 13327.677
427.184, 12852.497
428.527, 12427.307
429.869, 11352.104
431.211, 9626.890
432.553, 7961.661
433.895, 6186.419
435.236, 4990.162
436.577, 3946.888
437.918, 3332.599
439.259, 3397.291
440.599, 3385.966
441.940, 3814.622
443.280, 4365.258
444.619, 4516.876
445.959, 4351.473
447.298, 3815.050
448.637, 3045.605
449.976, 2371.140
451.315, 1822.651
452.653, 1544.141
453.991, 1281.607
455.329, 1204.052
456.667, 1163.473
458.004, 1064.870
459.341, 868.244
460.678, 771.593
462.015, 641.918
463.352, 563.218
464.688, 512.494
466.024, 507.744
467.360, 565.968
468.695, 650.770
470.031, 867.339
471.366, 985.485
472.701, 1145.605
474.035, 1454.727
475.370, 1855.838
476.704, 2481.980
478.038, 3636.139
479.372, 4909.327
480.705, 6900.549
482.038, 9244.804
483.371, 11139.115
484.704, 13263.470
486.037, 12787.874
487.369, 11152.343
488.701, 8506.849
490.033, 5971.412
491.365, 4215.014
492.696, 2796.633
494.027, 2023.278
495.358, 1398.910
496.689, 1116.514
498.019, 906.089
499.350, 683.636
500.680, 630.154
502.009, 460.644
503.339, 422.103
504.668, 386.533
505.997, 235.932
507.326, 244.296
508.655, 140.627
509.983, 40.912
511.311, 6.878
512.639, 191.768
513.967, 196.856
515.295, 295.146
516.622, 332.691
517.949, 374.494
519.276, 399.579
520.602, 362.955
521.929, 401.622
523.255, 307.599
524.581, 269.836
525.906, 243.319
527.232, 177.031
528.557, 147.940
529.882, 36.539
531.207, 52.091
532.531, 249.853
533.855, 270.558
535.179, 265.224
536.503, 381.852
537.827, 358.443
539.150, 325.000
540.473, 301.520
541.796, 183.002
543.119, 210.437
544.441, 220.827
545.764, 208.174
547.086, 265.475
548.407, 246.737
549.729, 288.958
551.050, 265.161
552.371, 405.386
553.692, 536.660
555.013, 695.995
556.333, 999.403
557.653, 1445.848
558.973, 1907.305
560.293, 2398.730
561.612, 2838.120
562.932, 3050.475
564.251, 3209.794
565.569, 3527.077
566.888, 3898.325
568.206, 4509.538
569.524, 5221.715
570.842, 6028.857
572.160, 6788.963
573.477, 7249.034
574.795, 7159.070
576.112, 6679.069
577.428, 5959.033
578.745, 5258.961
580.061, 4532.854
581.377, 4019.710
582.693, 3686.531
584.009, 3482.316
585.324, 3703.065
586.639, 3765.778
587.954, 4179.456
589.269, 4330.096
590.583, 4095.702
591.897, 3877.271
593.212, 3257.804
594.525, 2881.302
595.839, 2202.764
597.152, 1853.190
598.465, 1638.580
599.778, 1466.935
601.091, 1340.254
602.403, 1298.538
603.716, 1280.786
605.028, 1458.999
606.339, 1557.175
607.651, 1870.317
608.962, 2243.424
610.273, 2591.497
611.584, 3131.533
612.895, 3734.535
614.205, 4481.502
615.515, 5094.436
616.825, 5991.332
618.135, 6770.196
619.444, 6869.025
620.754, 7107.819
622.063, 6276.580
623.372, 5272.305
624.680, 4272.999
625.989, 3122.656
627.297, 2379.281
628.605, 1627.873
629.912, 1147.431
631.220, 877.053
632.527, 634.423
633.834, 615.771
635.141, 584.740
636.447, 617.292
637.754, 660.867
639.060, 826.705
640.366, 935.898
641.671, 1033.290
642.977, 1112.646
644.282, 1182.926
645.587, 1152.585
646.892, 1121.238
648.196, 942.225
649.501, 845.237
650.805, 794.487
652.109, 665.556
653.412, 566.461
654.716, 516.281
656.019, 490.057
657.322, 481.790
658.625, 535.478
659.927, 603.353
661.230, 686.726
662.532, 841.286
663.834, 980.495
665.135, 1155.693
666.437, 1465.643
667.738, 1742.789
669.039, 2249.116
670.340, 2923.718
671.640, 3495.884
672.940, 4741.771
674.241, 5471.238
675.540, 6437.646
676.840, 6956.860
678.139, 6924.295
679.439, 6469.412
680.738, 5347.441
682.036, 4547.372
683.335, 3611.189
684.633, 2872.863
685.931, 2434.330
687.229, 2088.165
688.527, 1878.646
689.824, 1819.073
691.121, 1788.652
692.418, 1807.168
693.715, 1926.021
695.012, 2129.857
696.308, 2488.599
697.604, 2810.225
698.900, 3400.786
700.195, 3999.676
701.491, 4953.680
702.786, 6171.510
704.081, 7427.872
705.376, 9544.063
706.670, 11780.527
707.964, 15326.847
709.259, 19133.506
710.552, 22860.156
711.846, 26686.791
713.139, 28563.408
714.433, 29200.010
715.726, 26806.602
717.018, 23493.178
718.311, 19369.744
719.603, 15616.290
720.895, 12272.825
722.187, 9759.350
723.479, 7375.860
724.770, 6122.358
726.061, 4814.846
727.352, 3913.321
728.643, 3174.786
729.934, 2688.241
731.224, 2201.686
732.514, 1890.120
733.804, 1516.545
735.094, 1311.962
736.383, 1112.370
737.672, 990.769
738.961, 755.160
740.250, 698.544
741.539, 632.920
742.827, 515.290
744.115, 575.653
745.403, 490.010
746.691, 430.361
747.978, 453.708
749.265, 409.049
750.552, 520.386
751.839, 457.718
753.126, 575.046
754.412, 650.371
755.698, 696.692
756.984, 898.011
758.270, 1006.328
759.555, 1215.643
760.840, 1441.954
762.125, 1615.266
763.410, 1894.575
764.695, 2089.885
765.979, 2144.194
767.263, 2237.502
768.547, 2167.811
769.831, 2067.120
771.114, 1690.431
772.398, 1412.743
773.681, 1229.057
774.964, 941.372
776.246, 708.691
777.529, 535.013
778.811, 338.338
780.093, 330.666
781.375, 162.998
782.656, 107.334
783.937, 64.675
785.219, 88.979
786.499, 33.688
787.780, 200.424
789.060, 148.272
790.341, 191.204
791.621, 225.240
792.901, 215.397
794.180, 302.671
795.459, 260.104
796.739, 261.674
798.017, 342.381
799.296, 223.265
800.575, 305.263
801.853, 233.416
803.131, 172.685
804.409, 195.037
805.686, 37.482
806.964, 59.059
808.241, 262.611
809.518, 513.177
810.795, 693.755
812.071, 988.348
813.347, 965.953
814.623, 1078.575
815.899, 964.211
817.175, 731.862
818.450, 486.531
819.726, 415.219
821.001, 251.931
822.275, 193.681
823.550, 77.483
824.824, 36.387
826.098, 20.393
827.372, 77.472
828.646, 71.229
829.920, 102.865
831.193, 0.384
832.466, 9.757
833.739, 12.977
835.011, 34.931
836.284, 7.033
837.556, 48.118
838.828, 161.373
840.100, 134.723
841.371, 330.122
842.642, 269.565
843.914, 435.035
845.184, 512.531
846.455, 638.052
847.726, 779.597
848.996, 902.167
850.266, 1026.763
851.536, 1073.386
852.805, 1113.040
854.075, 1223.723
855.344, 1343.445
856.613, 1266.197
857.881, 1462.988
859.150, 1486.812
860.418, 1422.666
861.686, 1573.563
862.954, 1623.490
864.222, 1735.449
865.489, 1696.447
866.756, 1779.476
868.023, 1802.552
869.290, 1781.669
870.557, 1772.829
871.823, 1784.051
873.089, 1765.312
874.355, 1960.628
875.621, 1858.994
876.886, 1950.394
878.152, 2157.854
879.417, 2054.345
880.682, 2266.877
881.946, 2366.463
883.211, 2782.095
884.475, 2808.774
885.739, 3146.495
887.003, 3633.252
888.266, 4030.052
889.530, 4603.889
890.793, 5639.764
892.056, 6287.700
893.318, 7465.681
894.581, 8503.705
895.843, 9761.783
897.105, 11179.895
898.367, 12368.060
899.629, 13956.272
900.890, 15064.524
902.152, 17092.824
903.413, 18701.156
904.673, 19489.539
905.934, 20437.955
907.194, 20896.422
908.454, 20054.932
909.714, 19273.484
910.974, 17742.076
912.234, 15690.701
913.493, 14029.371
914.752, 11618.074
916.011, 9996.830
917.270, 8535.624
918.528, 7294.462
919.786, 6503.340
921.044, 5512.257
922.302, 5271.228
923.560, 4717.235
924.817, 4544.300
926.074, 4511.404
927.331, 4446.549
928.588, 4514.749
929.844, 4417.993
931.101, 4350.275
932.357, 4314.603
933.613, 3884.970
934.868, 3887.378
936.124, 3750.831
937.379, 3689.228
938.634, 3910.887
939.889, 3866.579
941.144, 4071.657
942.398, 4539.168
943.652, 4852.662
944.906, 5698.904
946.160, 6299.805
947.414, 7123.515
948.667, 8147.286
949.920, 9046.138
951.173, 10152.626
952.426, 10894.138
953.678, 11560.327
954.931, 12700.499
956.183, 13826.574
957.435, 14867.536
958.686, 16767.891
959.938, 18528.311
961.189, 20588.787
962.440, 22109.320
963.691, 22409.914
964.941, 22190.562
966.192, 20431.264
967.442, 18242.016
968.692, 17092.822
969.942, 15343.687
971.191, 14764.600
972.441, 14115.573
973.690, 14516.601
974.939, 15557.680
976.187, 16428.811
977.436, 17609.998
978.684, 17528.195
979.932, 17886.775
981.180, 17293.945
982.428, 17025.176
983.675, 16476.275
984.922, 16357.352
986.169, 16458.902
987.416, 17140.230
988.663, 17591.873
989.909, 18243.562
991.155, 18655.303
992.401, 17997.092
993.647, 17808.922
994.893, 17640.807
996.138, 17162.744
997.383, 17274.727
998.628, 17066.746
999.873, 17668.830
1001.117, 17330.955
1002.362, 16493.131
1003.606, 16185.354
1004.850, 14869.061
1006.093, 13601.394
1007.337, 12265.361
1008.580, 10428.501
1009.823, 9211.227
1011.066, 8016.602
1012.308, 6719.433
1013.551, 5942.495
1014.793, 4937.612
1016.035, 4499.356
1017.277, 4057.184
1018.518, 3506.457
1019.760, 3418.888
1021.001, 3039.811
1022.242, 2916.084
1023.483, 2961.006
1024.723, 2793.176
1025.964, 2903.643
1027.204, 2822.057
1028.444, 2726.247
1029.683, 2567.091
1030.923, 2275.358
1032.162, 2128.088
1033.401, 2098.041
1034.640, 1931.838
1035.879, 1986.988
1037.117, 1905.254
1038.355, 2022.380
1039.593, 2011.286
1040.831, 2036.400
1042.069, 2159.209
1043.306, 2175.086
1044.544, 2215.327
1045.781, 2565.033
1047.017, 2547.143
1048.254, 2934.106
1049.490, 3187.990
1050.726, 3408.454
1051.962, 3755.350
1053.198, 3842.270
1054.434, 4061.203
1055.669, 4261.808
1056.904, 4197.642
1058.139, 4306.470
1059.374, 4131.693
1060.608, 3802.707
1061.843, 3581.835
1063.077, 3208.982
1064.311, 2784.800
1065.544, 2467.002
1066.778, 2089.130
1068.011, 2087.748
1069.244, 1740.028
1070.477, 1722.067
1071.710, 1666.397
1072.942, 1678.715
1074.174, 1690.642
1075.406, 1919.087
1076.638, 2041.867
1077.870, 2348.217
1079.101, 2408.691
1080.332, 2545.534
1081.563, 2671.170
1082.794, 2461.349
1084.025, 2451.968
1085.255, 2151.506
1086.485, 1659.719
1087.715, 1609.430
1088.945, 1294.403
1090.175, 1213.231
1091.404, 1134.143
1092.633, 1022.864
1093.862, 1080.562
1095.091, 1224.799
1096.319, 1294.681
1097.548, 1531.744
1098.776, 1611.298
1100.004, 1907.089
1101.231, 2119.768
1102.459, 2228.776
1103.686, 2501.694
1104.913, 2421.676
1106.140, 2410.343
1107.367, 2293.706
1108.593, 1963.584
1109.819, 1931.264
1111.046, 1653.551
1112.271, 1416.603
1113.497, 1329.924
1114.722, 1145.951
1115.948, 997.188
1117.173, 915.305
1118.398, 729.609
1119.622, 725.929
1120.847, 638.949
1122.071, 517.122
1123.295, 508.300
1124.519, 369.408
1125.742, 407.525
1126.966, 391.658
1128.189, 216.709
1129.412, 307.140
1130.635, 299.923
1131.857, 169.061
1133.080, 214.702
1134.302, 178.802
1135.524, 122.200
1136.746, 213.637
1137.967, 105.842
1139.188, 92.628
1140.410, 78.917
1141.631, 33.707
1142.851, 102.396
1144.072, 56.506
1145.292, 38.041
1146.512, 75.487
1147.732, 37.767
1148.952, 40.247
1150.172, 36.609
1151.391, 53.873
1152.610, 20.594
1153.829, 55.954
1155.048, 31.156
1156.266, 12.377
1157.484, 79.844
1158.702, 12.197
1159.920, 19.008
1161.138, 68.214
1162.356, 2.663
1163.573, 96.436
1164.790, 64.830
1166.007, 65.858
1167.224, 140.459
1168.440, 58.584
1169.656, 103.319
1170.872, 89.060
1172.088, 11.354
1173.304, 119.920
1174.519, 4.226
1175.735, 38.074
1176.950, 94.953
1178.165, 51.274
1179.379, 69.680
1180.594, 29.982
1181.808, 14.864
1183.022, 35.308
1184.236, 11.026
1185.449, 4.426
1186.663, 107.684
1187.876, 37.144
1189.089, 19.508
1190.302, 72.028
1191.515, 35.309
1192.727, 50.218
1193.939, 46.072
1195.151, 10.929
1196.363, 18.541
1197.575, 12.398
1198.786, 22.254
1199.997, 23.730
1201.208, 29.590
1202.419, 15.608
1203.630, 2.115
1204.840, 15.798
1206.051, 2.618
1207.261, 32.306
1208.470, 38.309
1209.680, 21.197
1210.889, 59.477
1212.099, 7.007
1213.308, 22.472
1214.516, 64.824
1215.725, 32.778
1216.933, 93.491
1218.142, 34.192
1219.350, 26.167
1220.557, 62.321
1221.765, 37.109
1222.972, 22.107
1224.180, 108.136
1225.387, 15.272
1226.593, 60.388
1227.800, 35.479
1229.006, 25.763
1230.213, 29.799
1231.419, 42.799
1232.624, 30.627
1233.830, 64.400
1235.035, 12.230
1236.241, 107.921
1237.446, 45.586
1238.650, 23.209
1239.855, 101.798
1241.059, 9.647
1242.264, 53.086
1243.468, 103.542
1244.671, 1.032
1245.875, 121.352
1247.078, 82.702
1248.282, 103.195
1249.485, 106.475
1250.687, 31.722
1251.890, 18.222
1253.092, 165.375
1254.295, 14.610
1255.497, 91.760
1256.699, 126.790
1257.900, 94.781
1259.102, 142.725
1260.303, 162.734
1261.504, 77.640
1262.705, 197.449
1263.905, 58.195
1265.106, 166.901
1266.306, 134.532
1267.506, 137.113
1268.706, 157.773
1269.905, 159.251
1271.105, 162.749
1272.304, 272.155
1273.503, 67.462
1274.702, 97.820
1275.900, 184.019
1277.099, 64.170
1278.297, 240.267
1279.495, 138.315
1280.693, 135.510
1281.891, 181.521
1283.088, 108.428
1284.285, 165.479
1285.482, 66.293
1286.679, 119.054
1287.876, 246.787
1289.072, 134.453
1290.268, 50.066
1291.464, 175.646
1292.660, 144.215
1293.856, 87.685
1295.051, 82.145
1296.247, 27.088
1297.442, 147.405
1298.637, 115.087
1299.831, 1.596
1301.026, 134.516
1302.220, 120.784
1303.414, 89.598
1304.608, 110.181
1305.802, 101.706
1306.995, 59.604
1308.188, 112.417
1309.381, 87.783
1310.574, 65.990
1311.767, 79.700
1312.960, 30.054
1314.152, 106.826
1315.344, 35.272
1316.536, 86.418
1317.728, 96.718
1318.919, 63.127
1320.110, 94.880
1321.301, 131.221
1322.492, 55.076
1323.683, 113.703
1324.874, 72.480
1326.064, 47.901
1327.254, 178.199
1328.444, 109.632
1329.634, 91.278
1330.823, 99.739
1332.013, 83.472
1333.202, 96.133
1334.391, 102.422
1335.580, 84.243
1336.768, 120.655
1337.956, 107.277
1339.145, 73.903
1340.333, 137.943
1341.520, 71.545
1342.708, 111.117
1343.895, 42.668
1345.083, 97.543
1346.270, 145.180
1347.456, 146.820
1348.643, 25.083
1349.829, 131.522
1351.016, 74.844
1352.202, 178.141
1353.387, 110.829
1354.573, 143.062
1355.759, 140.363
1356.944, 171.169
1358.129, 147.310
1359.314, 194.689
1360.498, 143.855
1361.683, 115.951
1362.867, 159.542
1364.051, 70.505
1365.235, 117.136
1366.419, 170.203
1367.602, 121.137
1368.785, 115.694
1369.968, 115.951
1371.151, 73.177
1372.334, 110.502
1373.517, 111.668
1374.699, 146.046
1375.881, 164.542
1377.063, 127.562
1378.245, 190.086
1379.426, 210.505
1380.608, 172.195
1381.789, 202.817
1382.970, 197.736
1384.150, 86.970
1385.331, 190.338
1386.511, 143.502
1387.691, 181.059
1388.871, 188.784
1390.051, 95.721
1391.231, 178.731
1392.410, 178.838
1393.589, 69.996
1394.768, 142.759
1395.947, 106.957
1397.126, 115.616
1398.304, 159.029
1399.483, 147.827
1400.661, 140.769
1401.838, 106.894
1403.016, 117.108
1404.194, 151.607
1405.371, 137.698
1406.548, 118.460
1407.725, 156.633
1408.901, 120.186
1410.078, 79.758
1411.254, 217.951
1412.430, 86.039
1413.606, 88.691
1414.782, 125.649
1415.958, 69.298
1417.133, 179.335
1418.308, 200.864
1419.483, 135.784
1420.658, 189.419
1421.832, 38.567
1423.007, 69.645
1424.181, 148.999
1425.355, 35.390
1426.529, 83.617
1427.702, 84.973
1428.876, 71.429
1430.049, 133.186
1431.222, 102.300
1432.395, 67.523
1433.567, 58.388
1434.740, 99.276
1435.912, 60.333
1437.084, 133.376
1438.256, 174.228
1439.428, 158.780
1440.599, 118.097
1441.770, 125.563
1442.942, 145.473
1444.112, 61.021
1445.283, 72.694
1446.454, 110.522
1447.624, 63.299
1448.794, 116.512
1449.964, 104.197
1451.134, 88.778
1452.303, 69.860
1453.473, 115.553
1454.642, 32.584
1455.811, 100.611
1456.980, 110.783
1458.148, 19.530
1459.317, 107.706
1460.485, 61.949
1461.653, 36.948
1462.821, 134.165
1463.989, 101.606
1465.156, 146.938
1466.323, 130.622
1467.490, 46.747
1468.657, 105.298
1469.824, 80.419
1470.991, 27.103
1472.157, 121.900
1473.323, 80.461
1474.489, 46.135
1475.655, 110.925
1476.820, 44.733
1477.986, 12.560
1479.151, 32.404
1480.316, 76.250
