##NAMES=Axinite-(Fe)
##RRUFFID=R060558
##IDEAL CHEMISTRY=Ca_4_Fe^2+^_2_Al_4_[B_2_Si_8_O_30_](OH)_2_
##LOCALITY=unknown
##OWNER=RRUFF
##SOURCE=Gemological Institute of America
##DESCRIPTION=Brown flattened crystal
##STATUS=The identification of this mineral has been confirmed by X-ray diffraction and chemical analysis
##URL=rruff.info/R060558
##MEASURED CHEMISTRY=Ca_2.00_(Fe^2+^_0.60_Mg_0.35_Mn_0.05_)_Î£=1_Al_2.00_BSi_4.00_O_15_(OH) ; B not measured
##PIN_ID=M01972
##ORIENTATION=Laser parallel to (1 0 1). Fiducial mark perpendicular to laser is parallel to -b [0 -1 0]
91.53100, 0.0000000E+00
92.77800, 115.2837
94.02500, 252.1826
95.27200, 197.2324
96.51900, 302.1733
97.76500, 461.7549
99.01100, 659.5391
100.2570, 902.3457
101.5030, 1521.966
102.7490, 2255.839
103.9940, 3280.898
105.2390, 4150.911
106.4840, 4600.502
107.7290, 4758.413
108.9740, 4332.466
110.2180, 3607.893
111.4620, 3132.400
112.7060, 2942.144
113.9500, 2805.536
115.1940, 2736.526
116.4370, 2532.100
117.6800, 2402.853
118.9230, 2217.806
120.1660, 1942.979
121.4090, 1776.385
122.6510, 1614.033
123.8940, 1116.929
125.1360, 952.0762
126.3770, 557.6943
127.6190, 288.8984
128.8600, 52.49756
130.1020, 51.98145
131.3430, 115.5142
132.5840, 123.0728
133.8240, 138.6318
135.0650, 21.17041
136.3050, 148.3291
137.5450, 610.4604
138.7850, 885.9785
140.0250, 1123.444
141.2640, 1267.147
142.5030, 1614.087
143.7430, 1737.259
144.9810, 2077.661
146.2200, 2620.290
147.4590, 3269.143
148.6970, 3726.216
149.9350, 4011.507
151.1730, 4128.013
152.4110, 3906.723
153.6480, 3854.621
154.8860, 3811.709
156.1230, 3528.985
157.3600, 3311.445
158.5960, 3166.090
159.8330, 3169.916
161.0690, 3409.863
162.3050, 4069.747
163.5410, 4723.400
164.7770, 5631.548
166.0130, 6902.850
167.2480, 8190.206
168.4830, 8907.686
169.7180, 8621.319
170.9530, 7472.129
172.1880, 6288.115
173.4220, 5131.285
174.6560, 3930.633
175.8900, 2774.163
177.1240, 1822.860
178.3580, 1086.723
179.5910, 483.7485
180.8250, 159.9365
182.0580, 207.7144
183.2900, 270.2065
184.5230, 175.5410
185.7560, 101.7739
186.9880, 104.0234
188.2200, 534.9292
189.4520, 1190.979
190.6830, 1731.166
191.9150, 2246.486
193.1460, 2389.941
194.3770, 2349.530
195.6080, 2070.250
196.8390, 2099.100
198.0700, 2191.080
199.3000, 2437.186
200.5300, 2994.419
201.7600, 3295.770
202.9900, 3928.231
204.2190, 4252.805
205.4490, 4739.490
206.6780, 5176.302
207.9070, 5455.234
209.1360, 5572.274
210.3640, 5774.422
211.5930, 5699.476
212.8210, 5584.428
214.0490, 5172.459
215.2770, 4849.602
216.5040, 4345.855
217.7320, 3781.218
218.9590, 3211.688
220.1860, 2756.267
221.4130, 2112.951
222.6400, 1689.740
223.8660, 1086.634
225.0920, 830.6318
226.3190, 423.7324
227.5450, 42.93457
228.7700, 40.10010
229.9960, 105.5312
231.2210, 320.9365
232.4460, 407.5703
233.6710, 161.1064
234.8960, 96.56982
236.1210, 70.82178
237.3450, 307.3047
238.5690, 547.1304
239.7930, 789.6230
241.0170, 1017.740
242.2410, 1006.889
243.4640, 1061.825
244.6870, 1323.378
245.9100, 1496.430
247.1330, 1888.872
248.3560, 2050.605
249.5780, 2145.568
250.8000, 2171.691
252.0230, 2258.615
253.2440, 2336.380
254.4660, 2302.929
255.6880, 2401.605
256.9090, 2532.254
258.1300, 2644.208
259.3510, 2871.153
260.5720, 3041.816
261.7920, 3238.579
263.0130, 3566.438
264.2330, 3977.386
265.4530, 4288.420
266.6730, 4589.539
267.8920, 4779.744
269.1120, 4834.033
270.3310, 4819.853
271.5500, 4563.855
272.7690, 4435.388
273.9880, 4034.998
275.2060, 3541.669
276.4240, 3255.400
277.6430, 2739.638
278.8600, 2389.548
280.0780, 1922.167
281.2960, 1685.169
282.5130, 1333.554
283.7300, 1324.646
284.9470, 1333.440
286.1640, 1464.087
287.3810, 1699.808
288.5970, 2126.631
289.8130, 2723.465
291.0290, 3343.399
292.2450, 4106.404
293.4610, 5009.478
294.6760, 5811.618
295.8910, 6559.824
297.1060, 7096.798
298.3210, 7611.434
299.5360, 7877.836
300.7510, 8042.301
301.9650, 8154.824
303.1790, 7839.412
304.3930, 7702.060
305.6070, 7202.766
306.8200, 6585.530
308.0340, 5872.303
309.2470, 4989.801
310.4600, 4290.242
311.6730, 4025.746
312.8850, 3693.311
314.0980, 3451.936
315.3100, 3667.620
316.5220, 3677.366
317.7340, 3818.170
318.9460, 3577.207
320.1570, 3228.654
321.3690, 2745.629
322.5800, 2311.661
323.7910, 1959.747
325.0010, 1455.887
326.2120, 1390.081
327.4220, 1000.328
328.6330, 910.3672
329.8430, 766.3770
331.0520, 773.2480
332.2620, 850.7617
333.4720, 1109.265
334.6810, 1355.818
335.8900, 2006.422
337.0990, 2545.073
338.3070, 3432.774
339.5160, 4360.522
340.7240, 5476.318
341.9320, 6558.160
343.1400, 7779.051
344.3480, 8003.984
345.5560, 8145.967
346.7630, 7704.990
347.9700, 7213.055
349.1770, 6997.171
350.3840, 6437.609
351.5910, 5853.661
352.7970, 5336.902
354.0040, 4456.250
355.2100, 3583.639
356.4160, 2726.071
357.6220, 2003.544
358.8270, 1386.059
360.0320, 815.6133
361.2380, 460.2080
362.4430, 98.84277
363.6470, 74.48438
364.8520, 179.7881
366.0560, 172.0889
367.2610, 130.3848
368.4650, 49.66992
369.6690, 69.07520
370.8720, 353.8672
372.0760, 414.7041
373.2790, 587.6074
374.4820, 501.5684
375.6850, 423.4434
376.8880, 446.0723
378.0910, 356.2939
379.2930, 495.3262
380.4950, 965.6797
381.6970, 1397.000
382.8990, 2128.047
384.1010, 3015.449
385.3020, 3994.503
386.5040, 5032.892
387.7050, 6010.645
388.9060, 6803.910
390.1060, 7233.455
391.3070, 7532.996
392.5070, 7075.965
393.7080, 6659.463
394.9080, 5804.984
396.1070, 4967.531
397.3070, 4393.104
398.5070, 3808.698
399.7060, 3233.315
400.9050, 2894.955
402.1040, 2480.616
403.3030, 2229.298
404.5010, 1738.001
405.7000, 1671.727
406.8980, 1430.474
408.0960, 1522.242
409.2940, 1674.030
410.4910, 2008.840
411.6890, 2379.671
412.8860, 3069.520
414.0830, 3939.391
415.2800, 5062.279
416.4770, 5878.188
417.6730, 6458.114
418.8690, 6166.059
420.0660, 5986.021
421.2620, 5818.002
422.4570, 6150.007
423.6530, 6510.047
424.8480, 7022.123
426.0440, 7762.238
427.2390, 8480.371
428.4340, 8748.522
429.6280, 8786.686
430.8230, 8413.868
432.0170, 7722.068
433.2110, 6530.284
434.4050, 5315.514
435.5990, 4512.761
436.7930, 3703.021
437.9860, 2944.296
439.1800, 2481.584
440.3730, 2246.887
441.5660, 1933.201
442.7580, 2165.529
443.9510, 2158.870
445.1430, 1967.221
446.3350, 1726.584
447.5270, 1278.958
448.7190, 946.3428
449.9110, 677.7373
451.1020, 443.1416
452.2930, 334.5557
453.4850, 209.5186
454.6750, 192.4160
455.8660, 116.8613
457.0570, 127.3174
458.2470, 115.7822
459.4370, 139.2568
460.6270, 140.7402
461.8170, 54.23145
463.0070, 9.727539
464.1960, 157.2109
465.3850, 147.7012
466.5750, 392.1992
467.7630, 546.7031
468.9520, 639.2129
470.1410, 899.7285
471.3290, 908.2480
472.5170, 816.8232
473.7050, 857.4658
474.8930, 641.1553
476.0810, 552.8740
477.2680, 722.5977
478.4560, 1039.323
479.6430, 1336.051
480.8300, 1741.782
482.0160, 2075.515
483.2030, 2864.248
484.3890, 3153.982
485.5760, 3180.718
486.7620, 2796.453
487.9480, 2228.188
489.1330, 1523.924
490.3190, 1136.658
491.5040, 662.1094
492.6890, 378.8330
493.8740, 283.5947
495.0590, 240.0483
496.2440, 295.9082
497.4280, 380.9951
498.6120, 526.0908
499.7960, 685.0366
500.9800, 948.1353
502.1640, 1118.920
503.3470, 1476.135
504.5310, 1587.823
505.7140, 1667.504
506.8970, 1968.508
508.0800, 1788.460
509.2620, 1829.053
510.4450, 1680.453
511.6270, 1305.112
512.8090, 1115.137
513.9910, 943.0737
515.1730, 589.2954
516.3550, 340.4272
517.5360, 273.9380
518.7170, 88.52539
519.8980, 37.90576
521.0790, 113.4932
522.2600, 180.5576
523.4400, 119.6880
524.6210, 304.8794
525.8010, 261.2280
526.9810, 269.7246
528.1610, 273.3848
529.3400, 389.2290
530.5200, 332.3325
531.6990, 319.6665
532.8780, 175.2251
534.0570, 10.06787
535.2360, 164.3081
536.4140, 249.5317
537.5930, 433.7407
538.7710, 783.9336
539.9490, 1002.109
541.1270, 1353.268
542.3040, 1627.528
543.4820, 2097.548
544.6590, 2142.686
545.8360, 2319.814
547.0130, 2443.945
548.1900, 2189.086
549.3670, 1933.255
550.5430, 1638.417
551.7190, 1695.629
552.8960, 1521.853
554.0710, 1633.101
555.2470, 1697.364
556.4230, 2027.648
557.5980, 2386.926
558.7730, 2587.203
559.9480, 2854.463
561.1230, 2854.393
562.2980, 3019.932
563.4720, 2665.140
564.6470, 2544.327
565.8210, 2268.491
566.9950, 2165.634
568.1690, 2278.753
569.3420, 2265.849
570.5160, 2416.921
571.6890, 2657.970
572.8620, 2820.996
574.0350, 2856.997
575.2080, 3034.974
576.3800, 2961.925
577.5530, 2935.852
578.7250, 3060.752
579.8970, 2981.629
581.0690, 3166.481
582.2410, 3380.306
583.4120, 3564.104
584.5830, 3835.878
585.7550, 4288.624
586.9260, 4464.344
588.0960, 4634.037
589.2670, 4718.703
590.4380, 4427.340
591.6080, 4019.951
592.7780, 3522.534
593.9480, 3031.090
595.1180, 2375.616
596.2870, 1871.115
597.4570, 1558.584
598.6260, 1267.676
599.7950, 1203.438
600.9640, 1051.820
602.1330, 1148.173
603.3010, 1208.322
604.4700, 1453.089
605.6380, 1354.354
606.8060, 1789.587
607.9740, 2141.792
609.1420, 2236.966
610.3090, 2427.109
611.4760, 2425.223
612.6440, 2550.304
613.8110, 2665.354
614.9770, 2761.374
616.1440, 2718.361
617.3110, 2625.316
618.4770, 2844.238
619.6430, 2627.127
620.8090, 2541.985
621.9750, 2091.809
623.1400, 1812.601
624.3060, 1528.358
625.4710, 1132.083
626.6360, 797.7734
627.8010, 622.4321
628.9660, 305.0552
630.1300, 304.6450
631.2950, 191.2012
632.4590, 13.28418
633.6230, 114.1318
634.7870, 50.49268
635.9510, 163.7866
637.1140, 224.0332
638.2780, 223.2412
639.4410, 241.4111
640.6040, 438.5425
641.7670, 602.6396
642.9290, 613.7017
644.0920, 572.7280
645.2540, 385.7192
646.4160, 458.6748
647.5780, 451.6094
648.7400, 242.6641
649.9020, 333.7412
651.0630, 205.6440
652.2250, 108.8818
653.3860, 112.8936
654.5470, 0.8701170
655.7080, 31.34229
656.8680, 34.22412
658.0290, 100.4395
659.1890, 81.14111
660.3490, 120.6177
661.5090, 348.8218
662.6690, 397.6499
663.8280, 698.8545
664.9880, 850.1880
666.1470, 1226.579
667.3060, 1612.509
668.4650, 2125.094
669.6240, 2587.773
670.7820, 3216.899
671.9410, 3988.703
673.0990, 4685.507
674.2570, 5478.878
675.4150, 5918.719
676.5720, 5959.527
677.7300, 5657.304
678.8870, 5234.049
680.0450, 4618.762
681.2020, 3817.562
682.3590, 3022.433
683.5150, 2527.452
684.6720, 2159.430
685.8280, 1764.743
686.9840, 1426.403
688.1400, 1269.608
689.2960, 1191.867
690.4520, 1157.902
691.6070, 1220.996
692.7630, 1259.078
693.9180, 1452.129
695.0730, 1623.414
696.2280, 1994.154
697.3820, 2246.196
698.5370, 2870.907
699.6910, 3332.044
700.8450, 4281.061
701.9990, 5235.241
703.1530, 6201.270
704.3070, 7921.258
705.4600, 9905.214
706.6130, 12232.13
707.7660, 14992.02
708.9190, 17821.86
710.0720, 20727.67
711.2250, 23530.45
712.3770, 25311.18
713.5300, 26002.88
714.6820, 25095.55
715.8340, 23137.18
716.9850, 20540.78
718.1370, 17403.34
719.2880, 14479.86
720.4400, 11783.35
721.5910, 9584.804
722.7420, 7811.222
723.8930, 6329.607
725.0430, 5034.958
726.1940, 4316.271
727.3440, 3553.553
728.4940, 2970.800
729.6440, 2477.012
730.7940, 2117.189
731.9430, 1833.334
733.0930, 1570.443
734.2420, 1300.521
735.3910, 1185.563
736.5400, 896.5742
737.6890, 946.5508
738.8370, 756.4941
739.9860, 691.4053
741.1340, 645.2832
742.2820, 692.1309
743.4300, 488.9561
744.5780, 555.7490
745.7250, 531.5107
746.8730, 585.2402
748.0200, 636.9375
749.1670, 543.6035
750.3140, 745.2393
751.4610, 779.8447
752.6070, 723.4189
753.7540, 946.9619
754.9000, 1065.476
756.0460, 1237.959
757.1920, 1626.413
758.3380, 1876.838
759.4830, 2086.232
760.6280, 2360.599
761.7740, 2712.935
762.9190, 2917.243
764.0640, 3410.523
765.2080, 3774.776
766.3530, 3763.001
767.4970, 3919.197
768.6420, 3755.367
769.7860, 3522.791
770.9300, 3219.913
772.0730, 2957.971
773.2170, 2430.308
774.3600, 2189.209
775.5040, 1800.855
776.6470, 1529.463
777.7900, 1260.193
778.9320, 1065.135
780.0750, 846.0527
781.2170, 759.9473
782.3600, 624.8193
783.5020, 420.6689
784.6440, 342.4951
785.7850, 135.2998
786.9270, 126.8096
788.0680, 30.56641
789.2100, 96.35547
790.3510, 109.9326
791.4920, 4.721680
792.6320, 25.29688
793.7730, 98.62891
794.9130, 95.99902
796.0540, 129.4854
797.1940, 131.7715
798.3340, 177.2852
799.4730, 177.5225
800.6130, 173.3271
801.7520, 172.2646
802.8920, 132.3555
804.0310, 88.45996
805.1700, 25.55078
806.3090, 73.40918
807.4470, 81.47461
808.5860, 178.6348
809.7240, 369.8838
810.8620, 298.1875
812.0000, 381.4971
813.1380, 299.7920
814.2750, 351.0752
815.4130, 175.3467
816.5500, 159.6055
817.6870, 42.85156
818.8240, 30.91406
819.9610, 50.71680
821.0980, 19.56445
822.2340, 58.44141
823.3700, 97.36719
824.5070, 171.3594
825.6430, 30.45898
826.7780, 251.5889
827.9140, 110.8643
829.0500, 160.2129
830.1850, 129.6572
831.3200, 151.1816
832.4550, 48.79492
833.5900, 71.44434
834.7250, 10.13965
835.8590, 28.15039
836.9930, 44.56641
838.1280, 4.687500
839.2620, 89.93262
840.3950, 207.1719
841.5290, 153.4043
842.6630, 233.6328
843.7960, 319.8555
844.9290, 387.0742
846.0620, 319.2881
847.1950, 487.4980
848.3280, 418.7051
849.4600, 575.9092
850.5930, 568.1094
851.7250, 570.3086
852.8570, 616.5039
853.9890, 606.6963
855.1210, 589.8887
856.2520, 559.0801
857.3840, 527.2676
858.5150, 577.2041
859.6460, 598.6455
860.7770, 671.8330
861.9080, 707.0215
863.0380, 719.2100
864.1690, 844.3984
865.2990, 723.5898
866.4290, 878.7812
867.5590, 778.9746
868.6890, 755.1699
869.8190, 739.3672
870.9480, 764.5674
872.0770, 721.7705
873.2070, 844.9766
874.3360, 725.1875
875.4640, 879.4150
876.5930, 894.6465
877.7220, 888.8818
878.8500, 903.1230
879.9780, 952.3857
881.1060, 879.6533
882.2340, 827.9326
883.3620, 992.2451
884.4890, 982.5791
885.6170, 1159.918
886.7440, 1139.264
887.8710, 1171.617
888.9980, 1377.981
890.1240, 1471.352
891.2510, 1766.731
892.3770, 1933.147
893.5040, 2153.594
894.6300, 2623.054
895.7560, 2821.521
896.8810, 3164.000
898.0070, 3403.495
899.1330, 3927.002
900.2580, 4256.531
901.3830, 4642.070
902.5080, 5015.633
903.6330, 5442.206
904.7570, 5354.812
905.8820, 5238.471
907.0060, 5343.205
908.1300, 4972.959
909.2540, 4719.770
910.3780, 4353.597
911.5020, 3684.438
912.6250, 3396.299
913.7490, 2916.170
914.8720, 2694.070
915.9950, 2203.004
917.1180, 1932.968
918.2400, 1705.968
919.3630, 1526.990
920.4850, 1466.025
921.6080, 1213.958
922.7300, 1265.881
923.8520, 1127.007
924.9730, 1178.791
926.0950, 1165.771
927.2160, 1242.498
928.3380, 1163.883
929.4590, 1291.171
930.5800, 1403.781
931.7010, 1354.413
932.8210, 1474.031
933.9420, 1361.913
935.0620, 1332.875
936.1820, 1529.204
937.3020, 1244.697
938.4220, 1495.812
939.5420, 1572.798
940.6610, 1812.852
941.7810, 1798.493
942.9000, 1987.221
944.0190, 2230.023
945.1380, 2435.854
946.2570, 2917.707
947.3750, 3223.614
948.4940, 3663.805
949.6120, 4122.519
950.7300, 4638.505
951.8480, 5162.512
952.9660, 5764.424
954.0830, 6381.257
955.2010, 7267.934
956.3180, 8103.439
957.4350, 9181.002
958.5520, 10165.03
959.6690, 11336.51
960.7860, 12667.92
961.9020, 14014.55
963.0190, 14902.12
964.1350, 15328.70
965.2510, 15167.32
966.3670, 14575.69
967.4830, 13523.61
968.5980, 12537.21
969.7140, 11767.14
970.8290, 11362.64
971.9440, 10937.26
973.0590, 11236.71
974.1740, 11332.30
975.2880, 11931.92
976.4030, 12626.58
977.5170, 13026.26
978.6310, 13388.97
979.7450, 13337.71
980.8590, 13023.48
981.9730, 12234.28
983.0860, 11369.11
984.2000, 10826.97
985.3130, 9852.859
986.4260, 9330.778
987.5390, 8758.729
988.6520, 8539.711
989.7640, 8080.722
990.8770, 8070.762
991.9890, 8039.834
993.1010, 8139.936
994.2130, 8220.067
995.3250, 8563.226
996.4370, 8831.418
997.5480, 9330.638
998.6590, 10029.89
999.7710, 10213.17
1000.882, 10819.49
1001.993, 10982.84
1003.103, 10848.22
1004.214, 10703.62
1005.324, 10388.06
1006.434, 9390.532
1007.545, 8716.036
1008.655, 7811.230
1009.764, 6725.784
1010.874, 5952.368
1011.983, 5012.982
1013.093, 4382.265
1014.202, 3825.935
1015.311, 3348.641
1016.420, 2929.629
1017.528, 2366.254
1018.637, 2357.038
1019.745, 2049.850
1020.854, 2047.689
1021.962, 2131.924
1023.070, 1994.818
1024.177, 2145.838
1025.285, 2166.337
1026.392, 2153.695
1027.500, 2492.678
1028.607, 2304.707
1029.714, 2235.764
1030.821, 2330.721
1031.927, 2072.829
1033.034, 1939.594
1034.140, 1915.755
1035.246, 1854.828
1036.352, 1903.039
1037.458, 1901.305
1038.564, 1819.969
1039.670, 1907.439
1040.775, 1906.749
1041.880, 2064.535
1042.986, 1846.891
1044.090, 1943.269
1045.195, 1710.847
1046.300, 2012.292
1047.404, 1994.670
1048.509, 2127.816
1049.613, 2234.843
1050.717, 2330.264
1051.821, 2501.435
1052.925, 2528.985
1054.028, 2885.846
1055.132, 2814.520
1056.235, 3175.586
1057.338, 3045.783
1058.441, 3003.982
1059.544, 3128.698
1060.647, 2989.560
1061.749, 2830.330
1062.851, 2589.671
1063.954, 2443.191
1065.056, 2250.900
1066.158, 1938.122
1067.259, 1692.445
1068.361, 1724.650
1069.462, 1410.134
1070.564, 1401.254
1071.665, 1379.632
1072.766, 1574.569
1073.867, 1614.746
1074.967, 1884.274
1076.068, 2302.771
1077.168, 2343.336
1078.268, 2633.274
1079.368, 3140.166
1080.468, 3720.068
1081.568, 3980.341
1082.668, 4160.861
1083.767, 4153.586
1084.866, 4068.322
1085.966, 3823.068
1087.065, 3448.646
1088.163, 2917.314
1089.262, 2755.963
1090.361, 2200.938
1091.459, 1895.740
1092.557, 1731.123
1093.655, 1539.008
1094.753, 1385.914
1095.851, 1380.397
1096.949, 1196.040
1098.046, 1146.273
1099.143, 1125.430
1100.241, 1222.479
1101.338, 1120.833
1102.434, 1088.254
1103.531, 1061.965
1104.628, 1034.966
1105.724, 1047.233
1106.820, 1075.318
1107.916, 1026.498
1109.012, 1136.726
1110.108, 1005.864
1111.204, 745.0068
1112.299, 761.2861
1113.395, 657.6025
1114.490, 570.7568
1115.585, 547.9141
1116.680, 439.1660
1117.775, 305.3301
1118.869, 394.9912
1119.964, 389.1729
1121.058, 365.3848
1122.152, 279.9600
1123.246, 251.1357
1124.340, 279.3125
1125.434, 204.5654
1126.527, 149.7432
1127.620, 108.2656
1128.714, 188.4463
1129.807, 150.6260
1130.900, 72.80859
1131.992, 151.9297
1133.085, 89.10742
1134.178, 46.28418
1135.270, 99.45996
1136.362, 26.63379
1137.454, 5.806641
1138.546, 3.976563
1139.638, 77.85742
1140.729, 20.28027
1141.821, 118.4160
1142.912, 8.547852
1144.003, 89.32520
1145.094, 97.76562
1146.185, 37.14941
1147.276, 124.0791
1148.366, 74.06934
1149.456, 24.90625
1150.547, 12.87695
1151.637, 38.84473
1152.727, 15.19531
1153.816, 56.75391
1154.906, 3.302734
1155.995, 120.3682
1157.085, 84.49707
1158.174, 25.67383
1159.263, 32.12988
1160.352, 49.92871
1161.441, 39.27930
1162.529, 74.48438
1163.618, 48.75879
1164.706, 18.96289
1165.794, 50.32227
1166.882, 84.35547
1167.970, 65.97461
1169.058, 150.3516
1170.145, 113.8213
1171.232, 89.63770
1172.320, 83.91309
1173.407, 83.47559
1174.494, 54.85449
1175.580, 6.223633
1176.667, 39.57910
1177.754, 38.07812
1178.840, 64.77246
1179.926, 45.52051
1181.012, 66.31348
1182.098, 13.16309
1183.184, 75.95996
1184.269, 12.07129
1185.355, 45.16406
1186.440, 69.75488
1187.525, 6.735352
1188.610, 12.25586
1189.695, 75.22656
1190.780, 49.18262
1191.864, 117.1260
1192.949, 32.94531
1194.033, 18.06348
1195.117, 3.219727
1196.201, 6.589844
1197.285, 7.102539
1198.369, 5.064453
1199.452, 8.842773
1200.536, 47.46973
1201.619, 33.84277
1202.702, 57.10840
1203.785, 43.71094
1204.868, 32.31348
1205.950, 1.080078
1207.033, 19.43359
1208.115, 38.75977
1209.197, 81.93750
1210.279, 1.529297
1211.361, 32.64941
1212.443, 156.8018
1213.525, 71.93457
1214.606, 73.04688
1215.687, 75.13867
1216.769, 167.2100
1217.850, 109.2627
1218.930, 120.2939
1220.011, 41.69434
1221.092, 102.4443
1222.172, 48.36816
1223.252, 104.2637
1224.333, 157.1406
1225.413, 12.00586
1226.492, 3.794922
1227.572, 78.54980
1228.652, 109.2793
1229.731, 205.9863
1230.810, 79.67090
1231.889, 74.33008
1232.968, 8.964844
1234.047, 191.5527
1235.126, 150.1172
1236.204, 192.6592
1237.283, 137.1787
1238.361, 128.6748
1239.439, 230.1465
1240.517, 184.5957
1241.595, 123.0234
1242.673, 116.4258
1243.750, 247.8037
1244.827, 158.1592
1245.905, 137.4922
1246.982, 183.7998
1248.059, 79.08398
1249.135, 159.3428
1250.212, 153.8467
1251.288, 88.05859
1252.365, 178.2422
1253.441, 226.4023
1254.517, 149.5479
1255.593, 187.6709
1256.669, 97.77734
1257.744, 232.8574
1258.820, 220.9141
1259.895, 64.94531
1260.970, 67.94531
1262.045, 238.9678
1263.120, 245.9121
1264.195, 231.8340
1265.270, 189.7295
1266.344, 454.6025
1267.418, 297.4473
1268.492, 223.2607
1269.566, 440.3955
1270.640, 317.1719
1271.714, 350.9258
