##NAMES=Axinite-(Fe)
##RRUFFID=R060183
##IDEAL CHEMISTRY=Ca_4_Fe^2+^_2_Al_4_[B_2_Si_8_O_30_](OH)_2_
##LOCALITY=Skagit Bluffs, near Manning Park, British Columbia, Canada
##OWNER=RRUFF
##SOURCE=Lloyd Twaites
##DESCRIPTION=Light-pink transparent axe-head-shaped single crystal
##STATUS=The identification of this mineral has been confirmed by X-ray diffraction and chemical analysis
##URL=rruff.info/R060183
##MEASURED CHEMISTRY=Ca_2.00_(Fe^2+^_0.58_Mn_0.23_Mg_0.19_)Al_2.00_B_1.00_Si_4.00_O_15_(OH)
##PIN_ID=L01002
##ORIENTATION=Laser parallel to (-1 0 -1). Fiducial mark perpendicular to laser is parallel to b [0 1 0]
52.67100, 0.0000000E+00
53.91000, 68.03851
55.14900, 149.6888
56.38700, 178.7692
57.62600, 239.8163
58.86400, 297.9389
60.10300, 422.5989
61.34100, 434.6650
62.57900, 352.6156
63.81700, 241.1978
65.05400, 123.8706
66.29200, 30.90436
67.52900, 26.31757
68.76700, 13.92249
70.00400, 55.22034
71.24100, 50.40149
72.47700, 38.62231
73.71400, 58.35278
74.95100, 8.281982
76.18700, 55.55249
77.42300, 7.663696
78.65900, 6.267334
79.89500, 22.13306
81.13100, 183.1578
82.36700, 442.2500
83.60200, 670.0420
84.83700, 1196.317
86.07200, 1437.151
87.30800, 1847.769
88.54200, 2507.694
89.77700, 3543.134
91.01200, 4159.736
92.24600, 5495.805
93.48000, 6711.230
94.71400, 7784.924
95.94800, 8907.875
97.18200, 9392.052
98.41600, 9730.408
99.64900, 10346.89
100.8830, 11092.47
102.1160, 11166.10
103.3490, 11348.77
104.5820, 11464.45
105.8150, 12194.12
107.0470, 13151.77
108.2800, 12894.86
109.5120, 12428.09
110.7440, 12318.40
111.9760, 10513.80
113.2080, 9244.096
114.4400, 8537.284
115.6710, 8178.350
116.9030, 7610.285
118.1340, 7148.076
119.3650, 6838.715
120.5960, 6465.189
121.8270, 6230.489
123.0580, 6602.606
124.2880, 6550.528
125.5190, 6563.249
126.7490, 6337.631
127.9790, 6105.276
129.2090, 5817.149
130.4390, 5330.224
131.6680, 4913.482
132.8980, 4513.906
134.1270, 4407.433
135.3560, 4538.146
136.5850, 4866.516
137.8140, 5082.847
139.0430, 5642.063
140.2710, 5706.728
141.5000, 5779.720
142.7280, 5692.058
143.9560, 6072.759
145.1840, 6639.846
146.4120, 7614.337
147.6390, 9050.254
148.8670, 10229.62
150.0940, 10968.45
151.3210, 10745.74
152.5490, 9677.514
153.7750, 8083.767
155.0020, 7315.507
156.2290, 6765.735
157.4550, 6331.452
158.6810, 5822.657
159.9080, 5376.351
161.1340, 4826.532
162.3590, 4919.196
163.5850, 5376.344
164.8110, 6241.973
166.0360, 7396.081
167.2610, 8798.666
168.4860, 10956.73
169.7110, 12618.26
170.9360, 13516.26
172.1610, 12939.74
173.3850, 11547.68
174.6100, 10147.08
175.8340, 8597.942
177.0580, 7458.267
178.2820, 6157.045
179.5050, 4872.279
180.7290, 3922.965
181.9520, 2957.100
183.1760, 2284.679
184.3990, 1681.699
185.6220, 1250.161
186.8450, 1142.060
188.0670, 1019.392
189.2900, 1135.156
190.5120, 1457.346
191.7340, 1903.962
192.9560, 2337.000
194.1780, 2463.455
195.4000, 2454.325
196.6220, 2206.606
197.8430, 2268.297
199.0640, 2370.392
200.2860, 2786.567
201.5070, 3648.442
202.7270, 4626.999
203.9480, 5309.148
205.1690, 6247.134
206.3890, 7104.852
207.6090, 7958.100
208.8290, 8665.424
210.0490, 9114.845
211.2690, 9362.106
212.4890, 9671.372
213.7080, 9751.455
214.9280, 9643.068
216.1470, 9996.131
217.3660, 10284.90
218.5850, 10028.33
219.8030, 9149.729
221.0220, 7985.504
222.2400, 6422.239
223.4590, 4674.735
224.6770, 3478.509
225.8950, 2327.041
227.1120, 1677.488
228.3300, 1288.394
229.5480, 933.7573
230.7650, 799.6006
231.9820, 929.9561
233.1990, 1004.901
234.4160, 1443.442
235.6330, 1783.609
236.8490, 2382.415
238.0660, 3046.854
239.2820, 3792.955
240.4980, 4308.678
241.7140, 5014.026
242.9300, 5283.986
244.1460, 5592.522
245.3610, 5565.599
246.5770, 5545.201
247.7920, 5533.269
249.0070, 5371.787
250.2220, 5594.726
251.4370, 5755.078
252.6510, 6391.833
253.8660, 6862.996
255.0800, 7029.537
256.2940, 6919.454
257.5080, 7012.727
258.7220, 7341.337
259.9360, 7809.277
261.1490, 7276.547
262.3630, 7649.134
263.5760, 7996.029
264.7890, 8810.228
266.0020, 9351.725
267.2150, 9925.522
268.4270, 10677.62
269.6400, 11294.00
270.8520, 12022.67
272.0640, 12529.62
273.2760, 12585.86
274.4880, 12823.37
275.7000, 12308.17
276.9120, 11473.25
278.1230, 10592.60
279.3340, 9778.238
280.5450, 8522.151
281.7560, 7642.346
282.9670, 7007.818
284.1780, 6539.562
285.3880, 6014.574
286.5980, 5753.854
287.8090, 5570.400
289.0190, 5221.210
290.2290, 5004.285
291.4380, 4859.621
292.6480, 4708.168
293.8570, 4631.074
295.0670, 4605.188
296.2760, 4542.559
297.4850, 4581.184
298.6930, 4737.059
299.9020, 5001.216
301.1110, 5235.559
302.3190, 5854.182
303.5270, 6497.048
304.7350, 7189.155
305.9430, 7552.506
307.1510, 7673.094
308.3580, 7276.918
309.5660, 6913.980
310.7730, 6429.272
311.9800, 6625.797
313.1870, 7184.551
314.3940, 8171.530
315.6010, 9699.737
316.8070, 11459.17
318.0130, 12722.82
319.2200, 13342.69
320.4260, 13378.78
321.6310, 12466.08
322.8370, 11352.60
324.0430, 10162.33
325.2480, 9536.271
326.4540, 9167.418
327.6590, 8985.773
328.8640, 9077.333
330.0680, 8857.093
331.2730, 8824.059
332.4780, 8863.220
333.6820, 9333.580
334.8860, 10008.13
336.0900, 11029.88
337.2940, 12518.82
338.4980, 14100.96
339.7010, 15949.27
340.9050, 17375.78
342.1080, 18367.47
343.3110, 18525.34
344.5140, 17503.40
345.7170, 15983.69
346.9200, 14516.23
348.1220, 13114.02
349.3240, 12067.06
350.5270, 10829.35
351.7290, 9659.881
352.9310, 7785.668
354.1320, 5999.705
355.3340, 4241.995
356.5350, 2654.537
357.7370, 1542.336
358.9380, 711.3965
360.1390, 143.7207
361.3400, 211.7070
362.5400, 660.9160
363.7410, 818.0195
364.9410, 845.0723
366.1410, 930.0830
367.3410, 846.0889
368.5410, 444.0615
369.7410, 242.8926
370.9400, 122.4580
372.1400, 368.0273
373.3390, 624.4814
374.5380, 585.3037
375.7370, 721.5010
376.9360, 812.4600
378.1350, 1183.840
379.3330, 1631.146
380.5310, 2170.805
381.7300, 2921.314
382.9280, 4003.457
384.1260, 5402.789
385.3230, 6854.393
386.5210, 8161.224
387.7180, 9480.897
388.9160, 10378.25
390.1130, 11047.38
391.3100, 11455.34
392.5060, 11119.68
393.7030, 10480.89
394.9000, 9061.067
396.0960, 7708.440
397.2920, 6523.950
398.4880, 5462.506
399.6840, 4960.787
400.8800, 4384.202
402.0750, 3937.461
403.2710, 3457.603
404.4660, 3064.295
405.6610, 2915.732
406.8560, 2849.271
408.0510, 2915.938
409.2450, 3370.735
410.4400, 3976.656
411.6340, 4870.704
412.8280, 5818.875
414.0220, 7529.168
415.2160, 9005.583
416.4100, 10556.12
417.6030, 11884.76
418.7970, 13291.53
419.9900, 14514.41
421.1830, 15351.41
422.3760, 16138.35
423.5690, 18246.72
424.7610, 16964.05
425.9540, 17343.48
427.1460, 17252.01
428.3380, 15295.65
429.5300, 14168.39
430.7220, 12549.23
431.9140, 11105.18
433.1050, 9402.215
434.2970, 9284.350
435.4880, 7396.580
436.6790, 6513.905
437.8700, 5813.321
439.0610, 6355.828
440.2510, 5710.423
441.4420, 6149.106
442.6320, 6926.876
443.8220, 7130.730
445.0120, 6647.668
446.2020, 5869.688
447.3910, 4686.787
448.5810, 3612.966
449.7700, 3037.223
450.9600, 2540.555
452.1490, 2432.962
453.3370, 2381.442
454.5260, 2106.994
455.7150, 2112.617
456.9030, 1918.310
458.0910, 1726.070
459.2800, 1342.896
460.4670, 1022.788
461.6550, 850.7437
462.8430, 787.7612
464.0300, 903.8403
465.2180, 1241.979
466.4050, 1456.176
467.5920, 1987.430
468.7790, 2333.739
469.9650, 2721.104
471.1520, 3118.521
472.3380, 3197.990
473.5250, 3661.509
474.7110, 4062.078
475.8970, 5044.695
477.0820, 6386.358
478.2680, 8095.068
479.4540, 10233.82
480.6390, 12749.62
481.8240, 15942.45
483.0090, 18656.33
484.1940, 19958.25
485.3780, 19502.20
486.5630, 16803.19
487.7470, 13346.22
488.9320, 10135.28
490.1160, 7666.376
491.3000, 5671.500
492.4830, 4366.653
493.6670, 3361.834
494.8500, 2787.042
496.0340, 2352.274
497.2170, 2072.529
498.4000, 1950.807
499.5820, 1704.104
500.7650, 1689.418
501.9480, 1617.756
503.1300, 1491.118
504.3120, 1591.713
505.4940, 1453.699
506.6760, 1307.379
507.8580, 1308.041
509.0390, 1201.498
510.2210, 1082.164
511.4020, 899.9473
512.5830, 692.6309
513.7640, 539.0493
514.9450, 229.6411
516.1250, 56.40088
517.3060, 105.7085
518.4860, 450.7793
519.6660, 499.9692
520.8460, 643.3047
522.0260, 725.8545
523.2060, 714.6772
524.3850, 848.7549
525.5650, 712.2090
526.7440, 726.0010
527.9230, 705.1465
529.1020, 575.6704
530.2810, 443.5659
531.4590, 398.8096
532.6380, 167.3955
533.8160, 116.2129
534.9940, 22.23877
536.1720, 18.56885
537.3500, 21.22852
538.5270, 7.737305
539.7050, 107.0874
540.8820, 120.3218
542.0590, 197.4443
543.2360, 275.4814
544.4130, 381.4561
545.5900, 318.3877
546.7660, 391.2632
547.9430, 517.0947
549.1190, 621.8965
550.2950, 713.6685
551.4710, 969.4102
552.6470, 1216.120
553.8220, 1612.797
554.9980, 2079.439
556.1730, 2603.046
557.3480, 3147.618
558.5230, 3821.153
559.6980, 4172.650
560.8730, 4441.108
562.0470, 4630.527
563.2220, 4715.902
564.3960, 4637.238
565.5700, 4811.532
566.7440, 5127.783
567.9170, 5501.986
569.0910, 6108.146
570.2640, 6836.260
571.4380, 7239.327
572.6110, 7852.346
573.7840, 7922.316
574.9570, 7842.238
576.1290, 7405.108
577.3020, 6743.928
578.4740, 6015.695
579.6460, 5181.410
580.8180, 4694.070
581.9900, 4101.678
583.1620, 3736.229
584.3330, 3457.725
585.5040, 3379.164
586.6760, 3183.545
587.8470, 3035.869
589.0180, 2872.134
590.1880, 2621.338
591.3590, 2282.482
592.5290, 2061.565
593.7000, 1609.587
594.8700, 1293.546
596.0400, 1208.443
597.2090, 1062.275
598.3790, 1072.042
599.5490, 1103.762
600.7180, 1094.382
601.8870, 1324.952
603.0560, 1516.456
604.2250, 1716.891
605.3940, 2208.258
606.5620, 2631.558
607.7300, 3372.787
608.8990, 4082.945
610.0670, 4934.034
611.2350, 5985.050
612.4020, 7252.996
613.5700, 8711.869
614.7370, 9737.670
615.9050, 11314.40
617.0720, 12692.05
618.2390, 13464.63
619.4060, 13972.13
620.5720, 13575.56
621.7390, 12446.91
622.9050, 10606.19
624.0710, 8670.383
625.2370, 6693.507
626.4030, 5127.550
627.5690, 4009.515
628.7340, 3077.402
629.9000, 2440.210
631.0650, 1946.939
632.2300, 1751.587
633.3950, 1484.156
634.5600, 1494.644
635.7240, 1551.051
636.8890, 1706.376
638.0530, 1891.621
639.2170, 2011.783
640.3810, 2413.862
641.5450, 2638.896
642.7080, 2868.161
643.8720, 2928.907
645.0350, 2941.211
646.1980, 2923.690
647.3610, 2519.041
648.5240, 2425.174
649.6870, 2164.909
650.8490, 1955.197
652.0120, 1725.035
653.1740, 1563.303
654.3360, 1460.235
655.4980, 1381.354
656.6600, 1366.726
657.8210, 1366.075
658.9830, 1393.808
660.1440, 1614.442
661.3050, 1693.525
662.4660, 2001.409
663.6270, 2253.048
664.7870, 2645.478
665.9480, 2982.656
667.1080, 3576.593
668.2680, 4231.996
669.4280, 5096.092
670.5880, 6385.875
671.7480, 7460.212
672.9070, 9040.785
674.0670, 10724.04
675.2260, 12264.50
676.3850, 13265.05
677.5440, 13783.45
678.7030, 13427.78
679.8610, 12361.12
681.0200, 11164.78
682.1780, 9619.366
683.3360, 8092.155
684.4940, 7036.111
685.6520, 6114.563
686.8090, 5416.315
687.9670, 4950.011
689.1240, 4545.620
690.2810, 4464.311
691.4380, 4321.747
692.5950, 4506.095
693.7520, 4666.357
694.9080, 4993.532
696.0650, 5296.621
697.2210, 5992.623
698.3770, 6675.542
699.5330, 7576.371
700.6880, 8950.116
701.8440, 10593.78
702.9990, 12440.35
704.1550, 15171.84
705.3100, 17951.25
706.4650, 21515.57
707.6190, 26216.80
708.7740, 30805.95
709.9290, 36519.02
711.0830, 42196.01
712.2370, 47266.91
713.3910, 51735.73
714.5450, 53948.46
715.6980, 53258.11
716.8520, 50066.68
718.0050, 45904.16
719.1580, 39608.57
720.3110, 33791.90
721.4640, 27800.15
722.6170, 22886.31
723.7700, 18366.40
724.9220, 15037.41
726.0740, 12292.33
727.2260, 10267.18
728.3780, 8414.947
729.5300, 7062.638
730.6810, 6066.250
731.8330, 5102.785
732.9840, 4419.245
734.1350, 3748.627
735.2860, 3382.933
736.4370, 2786.163
737.5880, 2636.318
738.7380, 2332.399
739.8880, 2089.405
741.0390, 1941.338
742.1890, 1741.198
743.3380, 1644.985
744.4880, 1529.700
745.6380, 1490.343
746.7870, 1607.916
747.9360, 1738.417
749.0850, 1707.849
750.2340, 1844.211
751.3830, 1917.505
752.5310, 2131.731
753.6800, 2464.890
754.8280, 2548.981
755.9760, 2734.007
757.1240, 2942.967
758.2720, 2991.862
759.4190, 3126.693
760.5670, 3252.463
761.7140, 3226.169
762.8610, 3257.812
764.0080, 3221.396
765.1550, 3222.919
766.3020, 3111.382
767.4480, 3041.787
768.5950, 2949.133
769.7410, 2511.423
770.8870, 2202.657
772.0330, 1732.834
773.1780, 1509.958
774.3240, 1313.028
775.4690, 934.0444
776.6140, 802.0083
777.7590, 605.9204
778.9040, 321.7832
780.0490, 284.5825
781.1940, 112.3159
782.3380, 53.05225
783.4820, 27.60303
784.6260, 172.3188
785.7700, 156.2759
786.9140, 328.4619
788.0580, 324.9648
789.2010, 481.7822
790.3450, 461.9922
791.4880, 459.5815
792.6310, 500.5469
793.7730, 605.8989
794.9160, 566.6572
796.0590, 635.7598
797.2010, 644.1533
798.3430, 669.4824
799.4850, 627.7354
800.6270, 688.8745
801.7690, 524.2349
802.9100, 415.7021
804.0520, 404.2500
805.1930, 291.8643
806.3340, 81.48486
807.4750, 66.96924
808.6160, 329.5454
809.7560, 622.2583
810.8970, 990.0537
812.0370, 1215.920
813.1770, 1340.836
814.3170, 1464.793
815.4570, 1332.794
816.5960, 1107.842
817.7360, 1026.916
818.8750, 868.0151
820.0140, 604.1265
821.1530, 406.2388
822.2920, 375.3428
823.4310, 256.4453
824.5690, 224.5410
825.7070, 210.6235
826.8460, 74.69287
827.9840, 158.7476
829.1220, 177.7910
830.2590, 118.8247
831.3970, 189.8486
832.5340, 232.8652
833.6710, 229.8735
834.8080, 316.8755
835.9450, 432.8726
837.0820, 526.7212
838.2190, 597.8550
839.3550, 825.8413
840.4910, 901.8262
841.6270, 1106.810
842.7630, 1278.795
843.8990, 1457.599
845.0350, 1672.769
846.1700, 1839.760
847.3060, 2022.754
848.4410, 2146.755
849.5760, 2296.761
850.7100, 2483.774
851.8450, 2621.793
852.9800, 2667.822
854.1140, 2672.861
855.2480, 2646.910
856.3820, 2634.971
857.5160, 2758.043
858.6500, 2774.130
859.7830, 2862.230
860.9170, 2998.346
862.0500, 3076.477
863.1830, 3233.625
864.3160, 3161.792
865.4480, 3350.977
866.5810, 3558.181
867.7130, 3496.406
868.8460, 3490.651
869.9780, 3746.920
871.1100, 3805.212
872.2410, 3825.528
873.3730, 3938.867
874.5050, 4036.389
875.6360, 4151.815
876.7670, 4316.062
877.8980, 4439.521
879.0290, 4625.026
880.1590, 4785.566
881.2900, 4977.140
882.4200, 5204.575
883.5500, 5435.403
884.6800, 5704.108
885.8100, 6040.861
886.9400, 6344.664
888.0690, 6836.519
889.1990, 7398.432
890.3280, 8004.409
891.4570, 8819.944
892.5860, 9444.549
893.7140, 10608.71
894.8430, 11668.95
895.9710, 12608.26
897.1000, 13791.65
898.2280, 14667.10
899.3560, 15830.63
900.4830, 16563.22
901.6110, 17219.91
902.7380, 17757.69
903.8660, 17649.29
904.9930, 16759.49
906.1200, 16812.52
907.2460, 15206.63
908.3730, 14059.81
909.5000, 13131.09
910.6260, 12270.45
911.7520, 11451.90
912.8780, 10666.42
914.0040, 9855.025
915.1290, 9061.679
916.2550, 8488.101
917.3800, 7938.052
918.5050, 7486.522
919.6300, 7305.801
920.7550, 6852.349
921.8800, 6711.215
923.0040, 6555.591
924.1290, 6419.509
925.2530, 6406.922
926.3770, 6505.932
927.5010, 6682.453
928.6250, 6722.775
929.7480, 6898.875
930.8720, 7031.811
931.9950, 7058.805
933.1180, 6868.682
934.2410, 6793.370
935.3640, 6787.096
936.4860, 6934.404
937.6090, 7079.470
938.7310, 7351.779
939.8530, 7987.235
940.9750, 8408.193
942.0970, 9167.789
943.2180, 10229.21
944.3400, 11159.48
945.4610, 12512.88
946.5820, 14215.38
947.7030, 15726.01
948.8240, 17623.73
949.9450, 19265.56
951.0650, 21044.50
952.1860, 22656.55
953.3060, 24006.72
954.4260, 25682.98
955.5460, 27285.38
956.6650, 29084.88
957.7850, 30963.50
958.9040, 33369.22
960.0230, 36439.09
961.1420, 38327.04
962.2610, 40483.94
963.3800, 41468.12
964.4990, 41397.40
965.6170, 40032.80
966.7350, 37614.33
967.8530, 35015.95
968.9710, 32675.69
970.0890, 30406.54
971.2070, 28937.49
972.3240, 28011.55
973.4410, 27887.72
974.5580, 28437.01
975.6750, 29303.41
976.7920, 30593.91
977.9090, 31299.53
979.0250, 32172.25
980.1410, 32385.10
981.2580, 31895.07
982.3740, 31106.15
983.4890, 29881.34
984.6050, 28843.65
985.7200, 27612.07
986.8360, 26707.59
987.9510, 25816.23
989.0660, 25282.98
990.1810, 24368.84
991.2950, 23667.81
992.4100, 22781.90
993.5240, 21955.10
994.6390, 21397.41
995.7530, 20589.83
996.8660, 19895.37
997.9800, 19545.01
999.0940, 19071.76
1000.207, 18806.62
1001.320, 18391.59
1002.433, 17912.66
1003.546, 17319.97
1004.659, 16677.14
1005.772, 15816.55
1006.884, 14864.10
1007.996, 13821.31
1009.108, 12515.04
1010.220, 11371.89
1011.332, 10271.69
1012.444, 9237.071
1013.555, 8100.086
1014.666, 7329.621
1015.777, 6360.500
1016.888, 5674.234
1017.999, 5129.358
1019.110, 4548.989
1020.220, 4233.681
1021.331, 3910.792
1022.441, 3436.709
1023.551, 3311.577
1024.661, 3109.072
1025.770, 2962.363
1026.880, 2667.756
1027.989, 2640.062
1029.098, 2488.498
1030.207, 2544.401
1031.316, 2590.396
1032.425, 2398.612
1033.533, 2484.126
1034.642, 2376.880
1035.750, 2516.896
1036.858, 2731.860
1037.966, 2816.069
1039.073, 3037.813
1040.181, 3202.454
1041.288, 3365.242
1042.396, 3570.262
1043.503, 3750.988
1044.610, 3808.351
1045.716, 3976.197
1046.823, 3927.021
1047.929, 4406.476
1049.036, 4598.670
1050.142, 5075.464
1051.248, 5338.360
1052.353, 5745.746
1053.459, 6245.303
1054.564, 6661.704
1055.670, 7003.160
1056.775, 7317.354
1057.880, 7332.230
1058.985, 7280.767
1060.089, 7106.322
1061.194, 6801.227
1062.298, 6576.265
1063.402, 5970.535
1064.506, 5354.152
1065.610, 4739.864
1066.713, 4275.622
1067.817, 3845.151
1068.920, 3495.791
1070.023, 3294.276
1071.126, 3319.438
1072.229, 3213.465
1073.332, 3337.255
1074.435, 3446.711
1075.537, 3710.386
1076.639, 3930.889
1077.741, 4228.471
1078.843, 4742.946
1079.945, 5099.071
1081.046, 5537.484
1082.148, 5862.583
1083.249, 6052.718
1084.350, 5769.997
1085.451, 5477.957
1086.551, 4919.190
1087.652, 4347.348
1088.752, 3805.732
1089.853, 3189.618
1090.953, 2794.379
1092.053, 2527.872
1093.152, 2134.922
1094.252, 2007.605
1095.351, 1986.734
1096.451, 1814.587
1097.550, 1881.973
1098.649, 1996.781
1099.748, 2010.278
1100.846, 2108.472
1101.945, 2220.566
1103.043, 2371.370
1104.141, 2476.313
1105.239, 2531.877
1106.337, 2564.360
1107.434, 2462.979
1108.532, 2416.832
1109.629, 2187.672
1110.726, 2117.186
1111.823, 1961.870
1112.920, 1821.153
1114.017, 1647.340
1115.113, 1571.895
1116.210, 1490.967
1117.306, 1506.988
1118.402, 1379.005
1119.498, 1315.996
1120.593, 1359.969
1121.689, 1298.026
1122.784, 1200.335
1123.879, 1298.914
1124.974, 1100.137
1126.069, 1114.171
1127.164, 823.8911
1128.259, 585.4604
1129.353, 496.0244
1130.447, 417.0020
1131.541, 271.7280
1132.635, 225.2036
1133.729, 146.5166
1134.822, 83.96777
1135.916, 113.7510
1137.009, 82.15674
1138.102, 6.830566
1139.195, 40.82422
1140.288, 59.61084
1141.380, 14.83643
1142.473, 51.58740
1143.565, 136.9790
1144.657, 49.38330
1145.749, 15.62842
1146.841, 73.09229
1147.932, 13.55225
1149.024, 154.6646
1150.115, 111.1416
1151.206, 107.3750
1152.297, 113.2700
1153.388, 128.0659
1154.479, 166.9155
1155.569, 131.2422
1156.659, 165.0967
1157.750, 118.4243
1158.839, 174.2974
1159.929, 190.0718
1161.019, 155.3999
1162.108, 88.61475
1163.198, 203.1577
1164.287, 90.19580
1165.376, 199.7471
1166.465, 229.8374
1167.553, 159.4941
1168.642, 122.2417
1169.730, 162.0947
1170.818, 121.0747
1171.906, 117.9502
1172.994, 163.9365
1174.082, 121.9126
1175.170, 110.6719
1176.257, 113.0796
1177.344, 75.58301
1178.431, 96.25781
1179.518, 102.7402
1180.605, 122.9106
1181.691, 118.9951
1182.778, 136.6343
1183.864, 69.65186
1184.950, 76.68652
1186.036, 71.19873
1187.122, 44.18018
1188.207, 64.06689
1189.292, 83.06445
1190.378, 44.18164
1191.463, 42.52100
1192.548, 69.24561
1193.632, 93.52441
1194.717, 8.403809
1195.801, 23.26172
1196.886, 78.26123
1197.970, 45.09961
1199.054, 76.02539
1200.137, 101.8735
1201.221, 85.39990
1202.305, 102.8081
1203.388, 36.57129
1204.471, 94.10254
1205.554, 35.95947
1206.637, 11.18896
1207.719, 50.68213
1208.802, 57.56982
1209.884, 70.23682
1210.966, 121.2593
1212.048, 139.9512
1213.130, 85.57715
1214.212, 113.3052
1215.293, 76.57568
1216.374, 168.2183
1217.456, 60.32324
1218.536, 81.32129
1219.617, 124.2207
1220.698, 82.15137
1221.778, 92.86426
1222.859, 170.5010
1223.939, 153.0396
1225.019, 116.0815
1226.099, 201.8003
1227.178, 182.0811
1228.258, 112.6089
1229.337, 153.7026
1230.417, 210.7031
1231.496, 177.6226
1232.574, 273.4517
1233.653, 259.2065
