##NAMES=Axinite-(Fe)
##RRUFFID=R040074
##IDEAL CHEMISTRY=Ca_4_Fe^2+^_2_Al_4_[B_2_Si_8_O_30_](OH)_2_
##LOCALITY=Luning, Nevada, USA
##OWNER=RRUFF
##SOURCE=University of Arizona Mineral Museum
##DESCRIPTION=Pale brown wedge-shaped crystal
##STATUS=The identification of this mineral has been confirmed by X-ray diffraction and chemical analysis
##URL=rruff.info/R040074
##MEASURED CHEMISTRY=(Ca_0.98_Mn_0.01_)_2_(Fe_0.41_Mg_0.39_Mn_0.20_)Al_1.95_B_1.20_Si_3.90_O_15_(OH)
##PIN_ID=L00132
##ORIENTATION=Laser parallel to (-1 -1 0). Fiducial mark perpendicular to laser is parallel to c [0 0 1]
90.003, 0.000
91.398, 13.545
92.793, 19.456
94.188, 71.920
95.582, 490.237
96.976, 741.242
98.370, 1336.386
99.764, 1579.604
101.157, 1567.360
102.550, 1897.281
103.943, 2457.943
105.336, 3716.513
106.729, 4671.013
108.121, 5890.406
109.513, 6126.040
110.905, 5906.803
112.297, 5901.232
113.688, 4958.809
115.079, 4707.743
116.470, 3907.006
117.861, 3965.990
119.251, 3464.648
120.642, 3062.961
122.032, 2840.920
123.422, 2588.527
124.811, 2355.794
126.201, 2151.854
127.590, 1960.959
128.979, 1729.623
130.367, 1625.746
131.756, 1329.609
133.144, 1121.454
134.532, 811.501
135.920, 579.947
137.307, 810.625
138.695, 1097.281
140.082, 1381.141
141.469, 1600.127
142.856, 2038.451
144.242, 2606.190
145.628, 2723.420
147.014, 3510.192
148.400, 3806.550
149.786, 4562.534
151.171, 4888.177
152.556, 4983.504
153.941, 4578.545
155.325, 3993.320
156.710, 3397.833
158.094, 3162.094
159.478, 2836.141
160.862, 2882.631
162.245, 2733.700
163.629, 2933.783
165.012, 3202.037
166.395, 4358.981
167.777, 5801.204
169.160, 8013.689
170.542, 10066.400
171.924, 10799.322
173.306, 10592.424
174.687, 8175.689
176.068, 6419.195
177.449, 4562.982
178.830, 3067.072
180.211, 1971.469
181.591, 956.174
182.972, 481.184
184.351, 36.489
185.731, 277.916
187.111, 262.050
188.490, 24.081
189.869, 680.460
191.248, 1487.080
192.626, 2683.926
194.005, 3560.986
195.383, 3798.265
196.761, 3125.792
198.139, 2133.720
199.516, 1811.851
200.893, 1630.112
202.271, 2068.494
203.647, 2546.992
205.024, 3235.605
206.400, 4044.326
207.777, 4463.148
209.152, 5362.057
210.528, 5711.003
211.904, 6579.973
213.279, 6538.987
214.654, 6688.081
216.029, 6537.218
217.403, 6006.381
218.778, 5395.572
220.152, 4274.762
221.526, 3713.576
222.900, 2592.248
224.273, 1850.958
225.646, 1159.726
227.019, 628.811
228.392, 119.010
229.765, 237.588
231.137, 435.197
232.509, 753.409
233.881, 821.258
235.253, 689.062
236.625, 726.899
237.996, 434.766
239.367, 222.664
240.738, 19.405
242.108, 341.443
243.479, 663.131
244.849, 1011.959
246.219, 1413.845
247.589, 1793.171
248.958, 2222.398
250.328, 2671.640
251.697, 3030.893
253.065, 2990.156
254.434, 3039.430
255.803, 2697.434
257.171, 2556.852
258.539, 2107.412
259.906, 2099.223
261.274, 2281.777
262.641, 2264.917
264.008, 3148.526
265.375, 2912.521
266.742, 3566.826
268.108, 3911.390
269.475, 4256.154
270.840, 4651.086
272.206, 4596.154
273.572, 4601.336
274.937, 4416.598
276.302, 4131.918
277.667, 3877.280
279.032, 3312.668
280.396, 2988.026
281.760, 2293.354
283.125, 1898.651
284.488, 1413.919
285.852, 1259.158
287.215, 1302.080
288.578, 1499.554
289.941, 2054.711
291.304, 2509.803
292.666, 3654.771
294.029, 4339.833
295.391, 5474.630
296.753, 6679.590
298.114, 7394.555
299.476, 8630.296
300.837, 9026.148
302.198, 9384.957
303.558, 9782.682
304.919, 9447.611
306.279, 9394.798
307.639, 8568.085
308.999, 8021.340
310.359, 6694.557
311.718, 5547.742
313.077, 4640.898
314.436, 3984.027
315.795, 4357.139
317.154, 4340.570
318.512, 5093.643
319.870, 5316.694
321.228, 5339.721
322.586, 5352.726
323.943, 4295.705
325.300, 3628.162
326.657, 2629.575
328.014, 2140.076
329.371, 1980.133
330.727, 1570.188
332.083, 1700.271
333.439, 1561.294
334.795, 1872.362
336.150, 2225.800
337.506, 2627.359
338.861, 3708.178
340.215, 4908.621
341.570, 6808.902
342.924, 7839.227
344.279, 9389.565
345.633, 9909.933
346.986, 9390.313
348.340, 8876.762
349.693, 8054.126
351.046, 7782.638
352.399, 7468.865
353.752, 6969.296
355.104, 6509.734
356.457, 5140.178
357.809, 3860.708
359.160, 2514.209
360.512, 1550.913
361.863, 1037.212
363.214, 373.156
364.565, 325.657
365.916, 247.177
367.267, 261.494
368.617, 363.692
369.967, 499.315
371.317, 747.095
372.666, 980.164
374.016, 1272.296
375.365, 1121.577
376.714, 1224.493
378.063, 974.833
379.411, 875.114
380.760, 1145.375
382.108, 1325.615
383.456, 2155.836
384.803, 3066.036
386.151, 4216.219
387.498, 5886.381
388.845, 7346.525
390.192, 8556.649
391.539, 8976.743
392.885, 8868.753
394.231, 8698.327
395.577, 7167.883
396.923, 6343.124
398.269, 5086.606
399.614, 4377.656
400.959, 3746.989
402.304, 3209.581
403.649, 2736.413
404.993, 2376.819
406.337, 2026.547
407.681, 1746.248
409.025, 1615.927
410.369, 1645.584
411.712, 2045.222
413.055, 2894.840
414.398, 4024.436
415.741, 5544.010
417.084, 6713.566
418.426, 7303.109
419.768, 7442.637
421.110, 6602.141
422.452, 6421.613
423.793, 6381.053
425.134, 7290.456
426.475, 7839.820
427.816, 8849.143
429.157, 9758.421
430.497, 10327.655
431.837, 10336.844
433.177, 9455.983
434.517, 7695.076
435.857, 6394.123
437.196, 4803.117
438.535, 3772.062
439.874, 2970.956
441.213, 2769.801
442.551, 2938.593
443.889, 2927.333
445.227, 3176.021
446.565, 2884.660
447.903, 2233.247
449.240, 1951.781
450.577, 970.265
451.914, 888.695
453.251, 557.074
454.588, 455.400
455.924, 493.675
457.260, 431.896
458.596, 410.062
459.932, 228.175
461.267, 206.225
462.602, 44.209
463.938, 117.901
465.272, 199.811
466.607, 67.460
467.941, 555.026
469.276, 762.545
470.610, 1010.018
471.943, 1217.442
473.277, 924.867
474.610, 812.902
475.944, 642.715
477.276, 451.263
478.609, 900.496
479.942, 1178.486
481.274, 1866.074
482.606, 2623.186
483.938, 3610.327
485.270, 4047.465
486.601, 4144.584
487.932, 3521.773
489.263, 2298.988
490.594, 1646.225
491.925, 963.512
493.255, 330.803
494.585, 328.515
495.915, 95.925
497.245, 244.188
498.575, 413.145
499.904, 512.451
501.233, 911.129
502.562, 1232.678
503.891, 1789.898
505.219, 2028.835
506.548, 2415.703
507.876, 2562.530
509.203, 2439.337
510.531, 2416.239
511.859, 1973.228
513.186, 1620.197
514.513, 1197.194
515.840, 684.203
517.166, 561.232
518.493, 118.287
519.819, 144.723
521.145, 137.845
522.470, 291.147
523.796, 554.732
525.121, 539.019
526.446, 424.445
527.771, 550.352
529.096, 446.046
530.421, 321.662
531.745, 247.288
533.069, 233.159
534.393, 29.271
535.716, 144.488
537.040, 578.176
538.363, 631.815
539.686, 1265.410
541.009, 1488.958
542.331, 1932.459
543.654, 2535.914
544.976, 2849.322
546.298, 3048.104
547.620, 2976.000
548.941, 3099.267
550.263, 2702.488
551.584, 2395.664
552.905, 2438.873
554.225, 2312.170
555.546, 2765.637
556.866, 3239.291
558.186, 3553.101
559.506, 4637.074
560.826, 4551.134
562.145, 4815.226
563.465, 4359.285
564.784, 3603.297
566.103, 3447.264
567.421, 3031.182
568.740, 3115.053
570.058, 3288.878
571.376, 3302.655
572.694, 3956.385
574.011, 3800.066
575.329, 4133.702
576.646, 4067.289
577.963, 3850.829
579.279, 4074.320
580.596, 3597.766
581.912, 4121.161
583.228, 4204.510
584.544, 4767.811
585.860, 5561.062
587.175, 6014.270
588.491, 6527.429
589.806, 6360.539
591.121, 6133.602
592.435, 5136.617
593.750, 4059.586
595.064, 3542.505
596.378, 2585.378
597.692, 2158.205
599.006, 2040.983
600.319, 1783.717
601.632, 1986.401
602.945, 1719.041
604.258, 1931.633
605.571, 2204.179
606.883, 2276.676
608.195, 2799.129
609.507, 2811.535
610.819, 3153.896
612.131, 3176.211
613.442, 3078.266
614.753, 3230.428
616.064, 2902.278
617.375, 2953.984
618.685, 2854.781
619.995, 2965.340
621.306, 2882.756
622.615, 2480.467
623.925, 2230.813
625.235, 1748.814
626.544, 1420.638
627.853, 1022.418
629.162, 634.156
630.471, 525.851
631.779, 367.503
633.087, 89.106
634.395, 221.067
635.703, 123.104
637.011, 339.465
638.318, 438.466
639.625, 580.665
640.932, 879.278
642.239, 739.826
643.546, 1176.705
644.852, 1133.767
646.158, 1039.011
647.464, 1212.483
648.770, 863.604
650.076, 882.919
651.381, 529.563
652.686, 590.032
653.991, 368.238
655.296, 237.673
656.600, 197.771
657.905, 258.208
659.209, 88.771
660.513, 559.243
661.817, 209.665
663.120, 640.021
664.423, 740.528
665.726, 960.789
667.029, 1408.160
668.332, 1704.776
669.635, 2545.029
670.937, 3040.981
672.239, 4253.312
673.541, 5437.047
674.842, 6662.740
676.144, 7710.572
677.445, 8162.297
678.746, 7857.470
680.047, 7345.668
681.348, 5759.564
682.648, 5218.388
683.948, 3942.609
685.248, 3010.454
686.548, 2625.078
687.848, 1947.150
689.147, 1973.882
690.447, 1721.498
691.746, 1561.913
693.044, 1718.641
694.343, 1497.895
695.641, 1867.154
696.940, 1906.381
698.238, 2495.576
699.535, 2914.739
700.833, 3423.871
702.130, 4562.973
703.427, 5442.041
704.724, 7091.078
706.021, 9220.087
707.318, 11961.285
708.614, 15128.011
709.910, 19306.928
711.206, 24255.812
712.502, 29604.670
713.798, 32013.492
715.093, 34562.289
716.388, 32391.045
717.683, 27989.771
718.978, 24358.467
720.272, 18157.121
721.567, 15065.752
722.861, 11334.348
724.155, 9122.910
725.448, 7291.443
726.742, 5569.943
728.035, 4968.413
729.328, 3956.853
730.621, 3175.262
731.914, 3053.642
733.206, 1931.991
734.499, 2270.311
735.791, 1828.602
737.083, 1336.864
738.374, 1485.099
739.666, 1043.304
740.957, 1011.481
742.248, 919.633
743.539, 1007.755
744.830, 938.182
746.120, 743.921
747.410, 841.964
748.701, 889.980
749.990, 727.973
751.280, 1085.939
752.570, 1023.879
753.859, 1231.795
755.148, 1289.687
756.437, 1455.435
757.725, 1885.397
759.014, 1903.218
760.302, 2331.014
761.590, 2698.788
762.878, 3246.539
764.166, 4074.268
765.453, 3921.976
766.740, 4959.660
768.027, 5017.324
769.314, 4794.967
770.601, 5082.591
771.887, 4210.193
773.174, 3597.777
774.460, 3315.350
775.745, 2312.908
777.031, 2200.470
778.316, 1598.076
779.602, 1415.671
780.887, 1113.266
782.172, 630.843
783.456, 768.399
784.741, 495.938
786.025, 373.413
787.309, 410.212
788.593, 155.169
789.876, 41.324
791.160, 63.276
792.443, 106.724
793.726, 40.132
795.009, 262.606
796.291, 135.516
797.574, 78.526
798.856, 401.609
800.138, 214.934
801.420, 188.399
802.702, 311.992
803.983, 125.777
805.264, 99.656
806.545, 95.956
807.826, 61.811
809.107, 206.746
810.387, 500.930
811.667, 374.709
812.947, 569.063
814.227, 620.497
815.507, 366.207
816.786, 370.149
818.065, 146.109
819.344, 282.058
820.623, 122.003
821.902, 111.901
823.180, 149.646
824.459, 264.575
825.737, 208.946
827.014, 233.438
828.292, 268.062
829.569, 2.833
830.847, 307.609
832.124, 12.479
833.401, 77.301
834.677, 282.055
835.954, 83.224
837.230, 161.328
838.506, 124.181
839.782, 59.863
841.057, 185.691
842.333, 391.636
843.608, 297.674
844.883, 533.846
846.158, 560.056
847.433, 336.279
848.707, 812.505
849.981, 628.727
851.255, 725.000
852.529, 871.285
853.803, 657.566
855.076, 1053.865
856.350, 590.164
857.623, 696.465
858.895, 912.770
860.168, 859.074
861.441, 1085.424
862.713, 871.836
863.985, 858.246
865.257, 1154.711
866.528, 611.176
867.800, 927.650
869.071, 894.172
870.342, 780.695
871.613, 1127.271
872.884, 733.855
874.154, 1020.439
875.425, 1027.111
876.695, 1133.789
877.965, 1300.500
879.234, 1017.252
880.504, 1164.006
881.773, 1170.777
883.042, 1227.596
884.311, 1384.422
885.580, 1371.291
886.848, 1398.166
888.117, 1725.047
889.385, 1611.959
890.653, 2008.879
891.920, 2315.805
893.188, 2582.752
894.455, 3089.703
895.722, 3206.715
896.989, 4233.734
898.256, 5600.758
899.523, 5147.838
900.789, 6194.928
902.055, 6242.025
903.321, 6569.133
904.587, 6836.242
905.852, 6023.418
907.118, 5720.600
908.383, 5097.783
909.648, 4625.021
910.913, 4332.266
912.177, 3259.543
913.442, 3326.828
914.706, 2784.115
915.970, 2431.475
917.233, 2278.838
918.497, 1716.207
919.760, 1923.592
921.024, 1660.982
922.287, 1608.379
923.550, 1685.789
924.812, 1503.203
926.075, 1760.627
927.337, 1798.059
928.599, 1655.494
929.861, 2102.943
931.122, 1970.398
932.384, 1907.861
933.645, 2275.328
934.906, 2022.799
936.167, 2250.297
937.428, 2347.795
938.688, 1955.301
939.948, 2532.818
941.208, 2569.930
942.468, 2946.588
943.728, 3059.213
944.987, 3269.162
946.247, 4135.879
947.506, 4246.145
948.765, 4924.443
950.023, 5786.383
951.282, 5738.102
952.540, 7101.605
953.798, 7436.846
955.056, 8224.406
956.314, 9133.732
957.572, 9814.787
958.829, 11851.965
960.086, 13479.027
961.343, 15116.730
962.600, 17784.504
963.856, 17452.297
965.113, 18840.113
966.369, 17907.969
967.625, 16065.834
968.881, 15933.727
970.136, 13731.438
971.392, 13889.371
972.647, 13990.152
973.902, 14301.652
975.157, 15619.480
976.411, 16071.578
977.666, 16937.254
978.920, 17991.959
980.174, 16854.123
981.428, 16161.148
982.682, 15381.449
983.935, 12938.258
985.188, 12852.945
986.441, 10775.074
987.694, 10272.902
988.947, 9942.492
990.199, 8790.543
991.452, 9108.346
992.704, 8826.502
993.956, 8754.703
995.207, 9661.572
996.459, 9440.137
997.710, 10649.109
998.961, 11078.496
1000.212, 11906.824
1001.463, 13657.605
1002.714, 13528.094
1003.964, 13886.479
1005.214, 13548.703
1006.464, 12187.609
1007.714, 11956.844
1008.964, 10116.539
1010.213, 8995.078
1011.462, 8073.852
1012.711, 6486.725
1013.960, 5835.066
1015.209, 4975.469
1016.457, 4054.748
1017.705, 3814.551
1018.954, 3424.379
1020.201, 3183.281
1021.449, 3213.191
1022.697, 2743.229
1023.944, 3341.590
1025.191, 3220.783
1026.438, 3160.035
1027.685, 3454.895
1028.931, 3112.662
1030.177, 3001.576
1031.423, 3003.252
1032.669, 2551.617
1033.915, 2921.070
1035.161, 2308.996
1036.406, 2308.375
1037.651, 2597.818
1038.896, 2352.613
1040.141, 2511.480
1041.386, 2671.318
1042.630, 2383.010
1043.874, 2841.863
1045.118, 2413.879
1046.362, 2582.988
1047.606, 2682.207
1048.849, 2621.895
1050.092, 3041.943
1051.336, 3121.154
1052.578, 3290.953
1053.821, 3789.496
1055.064, 3671.543
1056.306, 4130.004
1057.548, 4428.693
1058.790, 4018.568
1060.032, 4846.609
1061.273, 4351.322
1062.515, 4180.699
1063.756, 4158.676
1064.997, 3352.041
1066.237, 3570.697
1067.478, 2758.873
1068.718, 2699.637
1069.959, 2997.834
1071.199, 2226.482
1072.438, 2316.322
1073.678, 2674.367
1074.918, 2253.943
1076.157, 3292.309
1077.396, 3230.416
1078.635, 3840.891
1079.873, 4788.865
1081.112, 4787.115
1082.350, 5835.816
1083.588, 5853.812
1084.826, 5605.947
1086.064, 5633.953
1087.301, 4621.969
1088.539, 4321.383
1089.776, 3659.410
1091.013, 2818.139
1092.250, 2976.184
1093.486, 2414.256
1094.723, 1953.715
1095.959, 2061.838
1097.195, 1670.043
1098.431, 1919.822
1099.666, 1768.104
1100.902, 1426.725
1102.137, 1785.613
1103.372, 1604.135
1104.607, 1582.982
1105.842, 2031.588
1107.076, 1520.219
1108.311, 1599.619
1109.545, 1598.158
1110.779, 1076.672
1112.012, 1355.414
1113.246, 1083.906
1114.479, 792.955
1115.712, 911.203
1116.945, 619.434
1118.178, 879.916
1119.411, 777.965
1120.643, 715.867
1121.875, 1104.141
1123.108, 731.965
1124.339, 629.680
1125.571, 647.373
1126.802, 175.096
1128.034, 713.281
1129.265, 301.010
1130.496, 198.619
1131.727, 486.277
1132.957, 163.818
1134.187, 231.896
1135.418, 729.352
1136.648, 536.779
1137.877, 685.098
1139.107, 582.059
1140.336, 509.154
1141.566, 316.740
1142.795, 126.260
1144.023, 240.793
1145.252, 148.576
1146.480, 55.391
1147.709, 312.447
1148.937, 180.854
1150.165, 14.289
1151.392, 313.648
1152.620, 39.904
1153.847, 196.643
1155.074, 124.080
1156.301, 40.328
1157.528, 297.057
1158.755, 136.840
1159.981, 200.848
1161.207, 355.455
1162.433, 158.756
1163.659, 136.912
1164.885, 63.404
1166.110, 141.082
1167.336, 254.627
1168.561, 139.881
1169.786, 45.295
1171.010, 390.678
1172.235, 284.289
1173.459, 180.590
1174.683, 53.623
1175.907, 98.904
1177.131, 265.701
1178.355, 0.240
1179.578, 105.297
1180.801, 139.443
1182.024, 96.279
1183.247, 157.871
1184.470, 142.564
1185.692, 43.441
1186.915, 280.449
1188.137, 95.182
1189.359, 8.934
1190.580, 282.779
1191.802, 153.922
1193.023, 219.232
1194.244, 192.465
1195.465, 114.574
1196.686, 78.256
1197.907, 194.748
1199.127, 107.373
1200.347, 349.926
1201.567, 147.459
1202.787, 364.707
1204.007, 307.141
1205.226, 110.879
1206.446, 540.641
1207.665, 27.697
1208.884, 153.441
1210.102, 474.311
1211.321, 164.156
1212.539, 286.145
1213.758, 395.293
1214.976, 53.625
1216.193, 401.930
1217.411, 300.213
1218.628, 118.473
1219.846, 456.709
1221.063, 154.926
1222.280, 393.129
1223.496, 461.279
1224.713, 99.414
1225.929, 917.529
1227.145, 445.627
1228.361, 343.697
1229.577, 671.746
1230.793, 59.760
1232.008, 617.748
1233.223, 705.707
1234.438, 233.629
1235.653, 891.520
1236.868, 379.377
1238.082, 577.199
1239.297, 734.984
1240.511, 262.734
1241.725, 720.459
1242.938, 598.162
1244.152, 255.252
1245.365, 812.381
1246.578, 529.256
1247.791, 486.443
1249.004, 974.018
1250.217, 541.576
1251.429, 637.332
1252.642, 863.137
1253.854, 418.695
1255.066, 825.291
1256.277, 796.502
1257.489, 541.121
1258.700, 955.557
1259.911, 405.633
1261.122, 693.955
1262.333, 1016.346
1263.544, 173.943
1264.754, 949.178
1265.964, 661.975
1267.174, 425.150
1268.384, 883.838
1269.594, 536.570
1270.803, 663.029
1272.013, 1053.217
1273.222, 375.010
1274.431, 890.037
1275.640, 638.416
1276.848, 698.146
1278.057, 857.162
1279.265, 324.879
1280.473, 700.848
1281.681, 861.125
1282.888, 270.602
1284.096, 406.602
1285.303, 487.568
1286.510, 266.457
1287.717, 620.693
1288.924, 355.457
1290.131, 171.602
1291.337, 839.807
1292.543, 313.336
1293.749, 429.682
1294.955, 568.363
1296.161, 105.838
1297.366, 699.553
1298.571, 334.328
1299.777, 136.918
1300.981, 572.211
1302.186, 233.006
1303.391, 525.330
1304.595, 398.045
1305.799, 250.984
1307.003, 481.346
1308.207, 472.844
1309.411, 117.322
1310.614, 1134.801
1311.818, 249.719
1313.021, 281.016
1314.224, 913.793
1315.426, 256.777
1316.629, 708.008
1317.831, 891.104
1319.033, 112.371
1320.235, 835.975
1321.437, 557.357
1322.639, 310.012
1323.840, 934.023
1325.042, 214.400
1326.243, 437.139
1327.444, 974.559
1328.644, 157.451
1329.845, 585.309
1331.045, 545.760
1332.245, 116.617
1333.445, 659.936
1334.645, 136.604
1335.845, 293.453
1337.044, 601.436
1338.244, 200.828
1339.443, 532.203
1340.642, 480.010
1341.840, 26.516
1343.039, 659.385
1344.237, 208.000
1345.435, 150.809
1346.633, 858.582
1347.831, 123.924
1349.029, 206.010
1350.226, 600.336
1351.424, 79.844
1352.621, 270.480
1353.818, 503.920
1355.014, 0.988
1356.211, 317.701
1357.407, 0.000
##END=



