##NAMES=Axinite-(Fe)
##RRUFFID=R060183
##IDEAL CHEMISTRY=Ca_4_Fe^2+^_2_Al_4_[B_2_Si_8_O_30_](OH)_2_
##LOCALITY=Skagit Bluffs, near Manning Park, British Columbia, Canada
##OWNER=RRUFF
##SOURCE=Lloyd Twaites
##DESCRIPTION=Light-pink transparent axe-head-shaped single crystal
##STATUS=The identification of this mineral has been confirmed by X-ray diffraction and chemical analysis
##URL=rruff.info/R060183
##MEASURED CHEMISTRY=Ca_2.00_(Fe^2+^_0.58_Mn_0.23_Mg_0.19_)Al_2.00_B_1.00_Si_4.00_O_15_(OH)
##PIN_ID=L01391
##ORIENTATION=Laser parallel to -a* (-1 0 0). Fiducial mark perpendicular to laser is parallel to -b [0 -1 0]
52.67100, 0.0000000E+00
53.91000, 27.41403
55.14900, 67.69720
56.38700, 103.2608
57.62600, 138.2177
58.86400, 176.8083
60.10300, 229.2799
61.34100, 143.3206
62.57900, 99.63498
63.81700, 43.96484
65.05400, 12.83789
66.29200, 45.94672
67.52900, 46.53595
68.76700, 3.770630
70.00400, 17.98975
71.24100, 10.66296
72.47700, 42.21313
73.71400, 81.00110
74.95100, 196.4766
76.18700, 304.5334
77.42300, 328.0760
78.65900, 381.0181
79.89500, 443.2825
81.13100, 700.8002
82.36700, 903.5100
83.60200, 1116.358
84.83700, 1139.292
86.07200, 1149.270
87.30800, 1279.251
88.54200, 1398.198
89.77700, 1746.075
91.01200, 2046.826
92.24600, 2398.383
93.48000, 2482.681
94.71400, 2712.673
95.94800, 2802.344
97.18200, 2870.686
98.41600, 3043.676
99.64900, 3254.284
100.8830, 3354.491
102.1160, 3518.275
103.3490, 3785.621
104.5820, 4107.512
105.8150, 4756.937
107.0470, 5709.883
108.2800, 6747.337
109.5120, 6810.293
110.7440, 5358.740
111.9760, 4501.668
113.2080, 4168.069
114.4400, 3960.935
115.6710, 3894.260
116.9030, 3419.035
118.1340, 3120.254
119.3650, 2805.910
120.5960, 2676.997
121.8270, 2562.508
123.0580, 2604.438
124.2880, 2616.781
125.5190, 2552.530
126.7490, 2528.611
127.9790, 2678.799
129.2090, 2874.081
130.4390, 3091.443
131.6680, 3323.874
132.8980, 3650.368
134.1270, 3997.893
135.3560, 4327.555
136.5850, 4745.544
137.8140, 4921.970
139.0430, 4814.836
140.2710, 4602.058
141.5000, 4088.553
142.7280, 3644.234
143.9560, 3437.107
145.1840, 3171.180
146.4120, 3034.463
147.6390, 3032.963
148.8670, 2993.686
150.0940, 2956.634
151.3210, 3216.811
152.5490, 3388.216
153.7750, 3487.851
155.0020, 3543.718
156.2290, 3046.818
157.4550, 2541.153
158.6810, 2108.725
159.9080, 1875.533
161.1340, 1639.576
162.3590, 1802.855
163.5850, 1925.369
164.8110, 2332.115
166.0360, 2505.093
167.2610, 2957.303
168.4860, 3431.744
169.7110, 3707.413
170.9360, 3997.311
172.1610, 3799.437
173.3850, 3495.787
174.6100, 3186.363
175.8340, 2840.162
177.0580, 2406.183
178.2820, 1930.426
179.5050, 1731.888
180.7290, 1245.568
181.9520, 981.4663
183.1760, 928.5796
184.3990, 874.9062
185.6220, 857.4456
186.8450, 1098.197
188.0670, 1324.158
189.2900, 1514.326
190.5120, 1966.702
191.7340, 2222.282
192.9560, 2230.066
194.1780, 1983.052
195.4000, 1896.237
196.6220, 1824.622
197.8430, 2018.204
199.0640, 2309.981
200.2860, 2726.582
201.5070, 3321.949
202.7270, 4023.197
203.9480, 4701.250
205.1690, 5004.245
206.3890, 5481.024
207.6090, 5980.592
208.8290, 6444.035
210.0490, 6745.907
211.2690, 7092.625
212.4890, 7036.088
213.7080, 7168.144
214.9280, 7121.586
216.1470, 6906.606
217.3660, 6399.267
218.5850, 5682.211
219.8030, 4821.191
221.0220, 3885.110
222.2400, 3040.571
223.4590, 2436.139
224.6770, 1876.987
225.8950, 1420.838
227.1120, 1090.911
228.3300, 838.3413
229.5480, 643.8828
230.7650, 499.2515
231.9820, 436.8989
233.1990, 301.8296
234.4160, 368.0322
235.6330, 297.5273
236.8490, 427.3291
238.0660, 336.4321
239.2820, 360.8091
240.4980, 528.4585
241.7140, 614.3398
242.9300, 845.4595
244.1460, 1109.427
245.3610, 1310.323
246.5770, 1851.031
247.7920, 2312.915
249.0070, 2943.974
250.2220, 3683.203
251.4370, 4474.604
252.6510, 5246.176
253.8660, 5570.929
255.0800, 5772.866
256.2940, 6018.988
257.5080, 6210.300
258.7220, 6564.534
259.9360, 6905.550
261.1490, 7266.374
262.3630, 7656.429
263.5760, 7960.645
264.7890, 8214.013
266.0020, 8452.525
267.2150, 8397.184
268.4270, 8500.984
269.6400, 8363.924
270.8520, 8179.001
272.0640, 7871.222
273.2760, 7505.574
274.4880, 7140.062
275.7000, 6551.688
276.9120, 6024.447
278.1230, 5425.344
279.3340, 5007.994
280.5450, 4577.979
281.7560, 4220.842
282.9670, 3945.277
284.1780, 3775.396
285.3880, 3529.544
286.5980, 3639.370
287.8090, 3709.324
289.0190, 3756.406
290.2290, 3878.614
291.4380, 3969.949
292.6480, 4005.405
293.8570, 4078.987
295.0670, 3992.694
296.2760, 3876.522
297.4850, 3747.472
298.6930, 3653.177
299.9020, 3592.450
301.1110, 3457.040
302.3190, 3452.468
303.5270, 3398.012
304.7350, 3213.672
305.9430, 3059.446
307.1510, 2822.336
308.3580, 2521.339
309.5660, 2497.453
310.7730, 2607.680
311.9800, 2827.017
313.1870, 3141.464
314.3940, 3795.019
315.6010, 4308.682
316.8070, 5112.452
318.0130, 5203.328
319.2200, 5171.309
320.4260, 5005.396
321.6310, 4645.583
322.8370, 4319.874
324.0430, 4082.265
325.2480, 3882.517
326.4540, 3858.348
327.6590, 3656.039
328.8640, 3684.828
330.0680, 3699.714
331.2730, 3684.696
332.4780, 3819.772
333.6820, 4102.943
334.8860, 4540.208
336.0900, 5183.564
337.2940, 5677.013
338.4980, 6145.554
339.7010, 6763.183
340.9050, 7078.902
342.1080, 6971.712
343.3110, 6785.607
344.5140, 6325.588
345.7170, 5980.692
346.9200, 5831.919
348.1220, 5413.269
349.3240, 5120.742
350.5270, 4383.340
351.7290, 3868.062
352.9310, 2941.912
354.1320, 2251.889
355.3340, 1586.990
356.5350, 1067.217
357.7370, 741.9570
358.9380, 509.6113
360.1390, 99.12256
361.3400, 102.6582
362.5400, 209.3633
363.7410, 405.3018
364.9410, 313.6855
366.1410, 320.5376
367.3410, 368.4229
368.5410, 314.4126
369.7410, 246.2114
370.9400, 211.9971
372.1400, 180.9868
373.3390, 34.56006
374.5380, 100.4526
375.7370, 263.7451
376.9360, 591.4990
378.1350, 924.7881
379.3330, 1509.934
380.5310, 1942.589
381.7300, 2660.952
382.9280, 3371.694
384.1260, 3946.850
385.3230, 4502.342
386.5210, 4633.831
387.7180, 4476.587
388.9160, 4177.555
390.1130, 3640.052
391.3100, 3200.627
392.5060, 2604.283
393.7030, 2192.016
394.9000, 1759.954
396.0960, 1494.312
397.2920, 1278.498
398.4880, 1235.819
399.6840, 1272.918
400.8800, 1233.417
402.0750, 1379.082
403.2710, 1398.927
404.4660, 1550.457
405.6610, 1830.963
406.8560, 2117.535
408.0510, 2548.087
409.2450, 3033.747
410.4400, 3711.471
411.6340, 4721.257
412.8280, 5666.108
414.0220, 6948.022
415.2160, 8152.997
416.4100, 9502.031
417.6030, 11063.13
418.7970, 12283.28
419.9900, 13195.49
421.1830, 13386.58
422.3760, 13547.09
423.5690, 12686.48
424.7610, 11577.92
425.9540, 10363.42
427.1460, 8881.970
428.3380, 7658.574
429.5300, 6751.232
430.7220, 5627.942
431.9140, 4974.706
433.1050, 4604.518
434.2970, 4408.382
435.4880, 4657.295
436.6790, 5185.257
437.8700, 6061.270
439.0610, 7031.330
440.2510, 8222.435
441.4420, 9138.587
442.6320, 9618.784
443.8220, 8875.029
445.0120, 7914.315
446.2020, 6723.646
447.3910, 5371.020
448.5810, 4138.438
449.7700, 3239.897
450.9600, 2475.396
452.1490, 1777.937
453.3370, 1414.517
454.5260, 1019.136
455.7150, 903.7944
456.9030, 721.4902
458.0910, 492.2236
459.2800, 353.9941
460.4670, 336.8003
461.6550, 275.6416
462.8430, 271.5186
464.0300, 281.4297
465.2180, 333.3740
466.4050, 443.3604
467.5920, 616.3618
468.7790, 799.4043
469.9650, 1115.478
471.1520, 1458.581
472.3380, 1943.930
473.5250, 2405.878
474.7110, 3201.071
475.8970, 3902.292
477.0820, 4831.541
478.2680, 6199.818
479.4540, 7217.121
480.6390, 8196.449
481.8240, 8489.804
483.0090, 8519.183
484.1940, 7705.588
485.3780, 6493.015
486.5630, 5219.465
487.7470, 4072.938
488.9320, 3140.433
490.1160, 2291.950
491.3000, 1624.487
492.4830, 1297.044
493.6670, 961.6206
494.8500, 659.2158
496.0340, 427.8291
497.2170, 384.4614
498.4000, 222.1157
499.5820, 105.7944
500.7650, 79.49121
501.9480, 36.20410
503.1300, 30.06152
504.3120, 49.13135
505.4940, 84.64697
506.6760, 93.47461
507.8580, 71.67969
509.0390, 112.6494
510.2210, 197.8369
511.4020, 99.07129
512.5830, 59.59424
513.7640, 60.17920
514.9450, 86.31201
516.1250, 93.66309
517.3060, 163.6099
518.4860, 201.6206
519.6660, 172.7017
520.8460, 268.8267
522.0260, 342.0527
523.2060, 333.4302
524.3850, 233.9580
525.5650, 237.6084
526.7440, 86.39502
527.9230, 117.2466
529.1020, 33.18799
530.2810, 44.81348
531.4590, 161.7920
532.6380, 270.7715
533.8160, 184.7515
534.9940, 270.7319
536.1720, 152.7119
537.3500, 131.6890
538.5270, 40.65967
539.7050, 18.59766
540.8820, 7.492676
542.0590, 13.66064
543.2360, 30.87598
544.4130, 14.24219
545.5900, 57.48730
546.7660, 33.10742
547.9430, 88.66260
549.1190, 133.2061
550.2950, 282.7388
551.4710, 389.2681
552.6470, 657.7930
553.8220, 919.3105
554.9980, 1191.822
556.1730, 1516.324
557.3480, 1859.818
558.5230, 2108.303
559.6980, 2182.778
560.8730, 2339.242
562.0470, 2378.696
563.2220, 2418.138
564.3960, 2572.569
565.5700, 2738.987
566.7440, 2882.392
567.9170, 3181.784
569.0910, 3396.162
570.2640, 3649.526
571.4380, 3644.877
572.6110, 3670.213
573.7840, 3457.534
574.9570, 3234.839
576.1290, 2974.128
577.3020, 2933.401
578.4740, 2719.657
579.6460, 2601.896
580.8180, 2604.118
581.9900, 2741.321
583.1620, 2867.507
584.3330, 3036.674
585.5040, 3139.821
586.6760, 3179.950
587.8470, 3002.059
589.0180, 2735.148
590.1880, 2444.217
591.3590, 2124.265
592.5290, 1653.292
593.7000, 1435.298
594.8700, 1258.282
596.0400, 1122.244
597.2090, 1028.513
598.3790, 968.1880
599.5490, 939.9946
600.7180, 977.9072
601.8870, 1036.711
603.0560, 1175.763
604.2250, 1313.333
605.3940, 1527.108
606.5620, 1777.857
607.7300, 2045.582
608.8990, 2277.281
610.0670, 2513.453
611.2350, 2753.602
612.4020, 2943.222
613.5700, 3142.817
614.7370, 3314.385
615.9050, 3280.926
617.0720, 3236.539
618.2390, 3211.024
619.4060, 2951.482
620.5720, 2585.912
621.7390, 2317.313
622.9050, 1867.687
624.0710, 1637.031
625.2370, 1418.347
626.4030, 1243.633
627.5690, 1086.889
628.7340, 930.1162
629.9000, 918.3130
631.0650, 920.8486
632.2300, 992.5786
633.3950, 1139.872
634.5600, 1332.947
635.7240, 1594.184
636.8890, 1921.583
638.0530, 2014.614
639.2170, 2461.457
640.3810, 2603.972
641.5450, 2646.932
642.7080, 2709.506
643.8720, 2704.058
645.0350, 2509.831
646.1980, 2341.854
647.3610, 2075.826
648.5240, 1741.365
649.6870, 1553.804
650.8490, 1406.202
652.0120, 1276.678
653.1740, 1167.987
654.3360, 1088.828
655.4980, 1033.570
656.6600, 994.3271
657.8210, 944.6470
658.9830, 967.1748
660.1440, 1053.273
661.3050, 1110.799
662.4660, 1358.702
663.6270, 1512.490
664.7870, 1752.414
665.9480, 2146.509
667.1080, 2561.859
668.2680, 3241.498
669.4280, 3888.608
670.5880, 4723.690
671.7480, 5727.936
672.9070, 6589.129
674.0670, 7377.368
675.2260, 7700.490
676.3850, 7787.449
677.5440, 7453.511
678.7030, 6831.414
679.8610, 5988.552
681.0200, 5160.158
682.1780, 4464.015
683.3360, 3620.747
684.4940, 3179.978
685.6520, 2680.360
686.8090, 2441.107
687.9670, 2331.372
689.1240, 2149.250
690.2810, 2162.433
691.4380, 2169.511
692.5950, 2262.111
693.7520, 2369.921
694.9080, 2649.453
696.0650, 2970.176
697.2210, 3451.640
698.3770, 4081.068
699.5330, 4719.464
700.6880, 5509.823
701.8440, 6666.151
702.9990, 7964.444
704.1550, 9768.701
705.3100, 11977.92
706.4650, 14264.12
707.6190, 17227.28
708.7740, 20004.39
709.9290, 23136.48
711.0830, 25487.54
712.2370, 27244.56
713.3910, 27548.55
714.5450, 26436.50
715.6980, 24283.42
716.8520, 21215.31
718.0050, 18332.16
719.1580, 15293.98
720.3110, 12594.77
721.4640, 10358.52
722.6170, 8369.240
723.7700, 6964.928
724.9220, 5680.583
726.0740, 4690.205
727.2260, 3788.793
728.3780, 3200.350
729.5300, 2772.874
730.6810, 2270.365
731.8330, 1975.825
732.9840, 1797.253
734.1350, 1515.648
735.2860, 1242.013
736.4370, 1098.345
737.5880, 1003.646
738.7380, 840.9150
739.8880, 754.1533
741.0390, 694.3604
742.1890, 549.5366
743.3380, 486.6826
744.4880, 501.7988
745.6380, 411.8843
746.7870, 387.9390
747.9360, 358.9648
749.0850, 310.9604
750.2340, 342.9272
751.3830, 311.8647
752.5310, 309.7725
753.6800, 262.6514
754.8280, 215.5020
755.9760, 304.3228
757.1240, 321.1152
758.2720, 326.8804
759.4190, 401.6167
760.5670, 378.3262
761.7140, 384.0083
762.8610, 325.6631
764.0080, 491.2905
765.1550, 366.8916
766.3020, 399.4668
767.4480, 392.0146
768.5950, 323.5371
769.7410, 356.0332
770.8870, 178.5049
772.0330, 254.9478
773.1780, 164.3662
774.3240, 138.7578
775.4690, 83.12061
776.6140, 44.44775
777.7590, 39.73193
778.9040, 7.975098
780.0490, 78.83154
781.1940, 57.72412
782.3380, 14.67480
783.4820, 142.6792
784.6260, 71.80811
785.7700, 74.02734
786.9140, 136.3345
788.0580, 182.7666
789.2010, 76.34912
790.3450, 89.02344
791.4880, 104.7910
792.6310, 127.6587
793.7730, 96.60693
794.9160, 110.6143
796.0590, 169.6709
797.2010, 219.7954
798.3430, 193.1836
799.4850, 144.3071
800.6270, 138.6094
801.7690, 67.92480
802.9100, 30.23877
804.0520, 24.52979
805.1930, 2.170410
806.3340, 79.88477
807.4750, 60.61035
808.6160, 123.3267
809.7560, 171.0273
810.8970, 101.7114
812.0370, 137.3784
813.1770, 159.0303
814.3170, 32.66748
815.4570, 82.28809
816.5960, 29.90918
817.7360, 11.53174
818.8750, 42.15771
820.0140, 12.20361
821.1530, 41.55957
822.2920, 39.92822
823.4310, 10.29688
824.5690, 40.67090
825.7070, 16.07373
826.8460, 2.501953
827.9840, 4.060059
829.1220, 72.60059
830.2590, 14.13037
831.3970, 108.6455
832.5340, 10.15137
833.6710, 88.64355
834.8080, 160.1265
835.9450, 260.6001
837.0820, 301.7002
838.2190, 284.5220
839.3550, 377.9707
840.4910, 417.4116
841.6270, 422.8452
842.7630, 648.2715
843.8990, 759.6914
845.0350, 942.1050
846.1700, 1030.513
847.3060, 1153.915
848.4410, 1349.312
849.5760, 1467.703
850.7100, 1538.089
851.8450, 1647.472
852.9800, 1689.850
854.1140, 1816.224
855.2480, 1856.595
856.3820, 1868.963
857.5160, 1962.328
858.6500, 1964.690
859.7830, 2042.051
860.9170, 2086.410
862.0500, 2132.768
863.1830, 2141.125
864.3160, 2229.480
865.4480, 2234.877
866.5810, 2251.199
867.7130, 2217.563
868.8460, 2205.932
869.9780, 2226.174
871.1100, 2322.674
872.2410, 2291.059
873.3730, 2374.445
874.5050, 2471.846
875.6360, 2381.249
876.7670, 2468.662
877.8980, 2705.088
879.0290, 2694.516
880.1590, 2918.957
881.2900, 3081.413
882.4200, 3239.878
883.5500, 3442.353
884.6800, 3760.832
885.8100, 4116.319
886.9400, 4662.827
888.0690, 5162.355
889.1990, 5728.890
890.3280, 6525.439
891.4570, 7281.896
892.5860, 8368.477
893.7140, 9539.074
894.8430, 10645.68
895.9710, 12055.31
897.1000, 13315.94
898.2280, 14738.58
899.3560, 15943.24
900.4830, 16683.90
901.6110, 17556.58
902.7380, 17626.27
903.8660, 17405.97
904.9930, 16713.70
906.1200, 15700.42
907.2460, 14323.01
908.3730, 13224.77
909.5000, 11944.33
910.6260, 10973.72
911.7520, 9790.461
912.8780, 8750.376
914.0040, 7926.221
915.1290, 7063.866
916.2550, 6498.148
917.3800, 5612.848
918.5050, 5221.352
919.6300, 4893.908
920.7550, 4356.016
921.8800, 4016.094
923.0040, 3795.361
924.1290, 3476.826
925.2530, 3339.088
926.3770, 3142.912
927.5010, 3042.365
928.6250, 2881.765
929.7480, 2914.235
930.8720, 2883.946
931.9950, 2645.081
933.1180, 2706.208
934.2410, 2750.146
935.3640, 2815.285
936.4860, 2895.915
937.6090, 2859.111
938.7310, 2898.799
939.8530, 3175.979
940.9750, 3347.948
942.0970, 3646.271
943.2180, 4025.498
944.3400, 4313.117
945.4610, 4652.796
946.5820, 5132.429
947.7030, 5690.183
948.8240, 6232.965
949.9450, 6760.293
951.0650, 7467.021
952.1860, 7955.445
953.3060, 8783.687
954.4260, 9400.351
955.5460, 10459.03
956.6650, 11578.11
957.7850, 12927.42
958.9040, 14411.45
960.0230, 15856.97
961.1420, 17202.96
962.2610, 17978.59
963.3800, 18541.32
964.4990, 18310.53
965.6170, 17914.52
966.7350, 17238.79
967.8530, 16585.86
968.9710, 16285.19
970.0890, 16259.56
971.2070, 16765.13
972.3240, 17759.41
973.4410, 18718.90
974.5580, 20087.42
975.6750, 21752.96
976.7920, 22784.55
977.9090, 23635.17
979.0250, 24076.82
980.1410, 23460.50
981.2580, 22933.22
982.3740, 21714.97
983.4890, 20528.75
984.6050, 19762.57
985.7200, 18905.56
986.8360, 18263.29
987.9510, 17687.20
989.0660, 17188.14
990.1810, 16763.12
991.2950, 16647.12
992.4100, 16625.15
993.5240, 16633.27
994.6390, 16402.37
995.7530, 16372.51
996.8660, 16531.67
997.9800, 16565.95
999.0940, 16045.83
1000.207, 15550.17
1001.320, 14807.54
1002.433, 14143.19
1003.546, 13036.96
1004.659, 12177.35
1005.772, 10829.30
1006.884, 9842.771
1007.996, 8699.720
1009.108, 7632.339
1010.220, 6759.324
1011.332, 6031.856
1012.444, 5460.458
1013.555, 4799.078
1014.666, 4310.836
1015.777, 3825.932
1016.888, 3392.402
1017.999, 3103.154
1019.110, 2863.383
1020.220, 2549.733
1021.331, 2490.722
1022.441, 2314.648
1023.551, 2198.260
1024.661, 2135.292
1025.770, 2041.856
1026.880, 1976.107
1027.989, 1913.836
1029.098, 1852.681
1030.207, 1783.757
1031.316, 1720.892
1032.425, 1625.535
1033.533, 1404.068
1034.642, 1426.304
1035.750, 1235.294
1036.858, 1225.580
1037.966, 1189.918
1039.073, 1218.227
1040.181, 1180.562
1041.288, 1158.924
1042.396, 1176.314
1043.503, 1069.732
1044.610, 1109.013
1045.716, 1127.034
1046.823, 1040.838
1047.929, 1083.462
1049.036, 1134.056
1050.142, 1238.243
1051.248, 1195.757
1052.353, 1303.521
1053.459, 1361.018
1054.564, 1357.587
1055.670, 1311.552
1056.775, 1381.622
1057.880, 1402.288
1058.985, 1245.478
1060.089, 1151.208
1061.194, 1164.025
1062.298, 1053.136
1063.402, 935.5972
1064.506, 831.4497
1065.610, 721.3994
1066.713, 611.8340
1067.817, 592.1646
1068.920, 604.0498
1070.023, 453.5537
1071.126, 540.5156
1072.229, 542.4971
1073.332, 556.6016
1074.435, 559.8877
1075.537, 611.0259
1076.639, 611.9604
1077.741, 713.1714
1078.843, 820.0903
1079.945, 835.7241
1081.046, 941.5312
1082.148, 990.7295
1083.249, 1065.029
1084.350, 938.4385
1085.451, 854.6924
1086.551, 813.4907
1087.652, 626.7812
1088.752, 542.3545
1089.853, 514.2568
1090.953, 443.7949
1092.053, 399.2676
1093.152, 374.6938
1094.252, 352.3530
1095.351, 362.9429
1096.451, 295.6196
1097.550, 258.1758
1098.649, 218.2324
1099.748, 270.2251
1100.846, 187.6919
1101.945, 297.8853
1103.043, 270.7676
1104.141, 299.7524
1105.239, 270.5913
1106.337, 357.4302
1107.434, 190.6060
1108.532, 288.6987
1109.629, 242.8921
1110.726, 298.3354
1111.823, 166.7065
1112.920, 230.6279
1114.017, 140.5317
1115.113, 143.3135
1116.210, 146.9941
1117.306, 129.2915
1118.402, 173.9868
1119.498, 140.9253
1120.593, 106.9189
1121.689, 161.6538
1122.784, 117.9399
1123.879, 51.84277
1124.974, 2.109375
1126.069, 71.76270
1127.164, 89.60693
1128.259, 31.35742
1129.353, 4.887695
1130.447, 34.12988
1131.541, 5.344727
1132.635, 46.58643
1133.729, 19.72998
1134.822, 22.97998
1135.916, 75.88721
1137.009, 79.36230
1138.102, 1.367188
1139.195, 75.90234
1140.288, 6.187500
1141.380, 50.47803
1142.473, 61.78125
1143.565, 50.89844
1144.657, 60.42041
1145.749, 61.75830
1146.841, 45.11426
1147.932, 27.48438
1149.024, 66.13721
1150.115, 17.24072
1151.206, 82.62549
1152.297, 74.99414
1153.388, 0.4438480
1154.479, 45.89258
1155.569, 2.359375
1156.659, 76.82959
1157.750, 56.33594
1158.839, 12.86865
1159.929, 45.40869
1161.019, 4.192383
1162.108, 2.624512
1163.198, 20.94531
1164.287, 19.47314
1165.376, 3.250000
1166.465, 35.34082
1167.553, 20.72168
1168.642, 20.35205
1169.730, 7.007813
1170.818, 18.14453
1171.906, 27.14355
1172.994, 28.20312
1174.082, 40.62207
1175.170, 9.828125
1176.257, 20.46338
1177.344, 2.852539
1178.431, 169.8706
1179.518, 17.30469
1180.605, 15.46484
1181.691, 34.51758
1182.778, 254.7852
1183.864, 14.01855
1184.950, 44.93359
1186.036, 35.10400
1187.122, 16.63916
1188.207, 23.65088
1189.292, 117.3032
1190.378, 12.36426
1191.463, 51.71240
1192.548, 10.15869
1193.632, 42.00830
1194.717, 14.15527
1195.801, 29.35498
1196.886, 34.59912
1197.970, 1.248047
1199.054, 11.26318
1200.137, 21.91357
1201.221, 100.5425
1202.305, 1.615723
1203.388, 50.96338
1204.471, 35.42627
1205.554, 15.92236
1206.637, 11.46289
1207.719, 30.61523
1208.802, 7.313965
1209.884, 3.225586
1210.966, 34.06104
1212.048, 84.32275
1213.130, 66.58057
1214.212, 54.93506
1215.293, 129.1377
1216.374, 43.32129
1217.456, 141.4800
1218.536, 6.793945
1219.617, 46.09131
1220.698, 10.16553
1221.778, 84.71973
1222.859, 122.7339
1223.939, 66.73340
1225.019, 79.46777
1226.099, 72.74658
1227.178, 98.43555
1228.258, 56.60938
1229.337, 60.88086
1230.417, 46.73193
1231.496, 29.55322
1232.574, 71.33740
1233.653, 1.903320
