##NAMES=Axinite-(Fe)
##RRUFFID=R050026
##IDEAL CHEMISTRY=Ca_4_Fe^2+^_2_Al_4_[B_2_Si_8_O_30_](OH)_2_
##LOCALITY=Pouyva mine, Polar Urals, Western Siberian Region, Russia
##OWNER=RRUFF
##SOURCE=Rock Currier
##DESCRIPTION=Brown transparent flat crystal
##STATUS=The identification of this mineral has been confirmed by X-ray diffraction and chemical analysis
##URL=rruff.info/R050026
##MEASURED CHEMISTRY=Ca_2.00_(Fe^2+^_0.61_Mn_0.26_Mg_0.13_)Al_2.00_BSi_4_O_15_(OH)
##PIN_ID=L00147
##ORIENTATION=Laser parallel to -a* (-1 0 0). Fiducial mark perpendicular to laser is parallel to -b [0 -1 0]
85.455, 0.000
86.858, 5.240
88.260, 5.656
89.663, 63.166
91.065, 213.148
92.466, 405.362
93.868, 596.771
95.269, 582.809
96.670, 752.255
98.070, 821.367
99.471, 791.658
100.871, 780.016
102.271, 854.165
103.670, 922.231
105.070, 1075.074
106.469, 1343.475
107.868, 1497.828
109.267, 1692.276
110.665, 1566.510
112.063, 1325.788
113.461, 1046.647
114.859, 944.119
116.256, 832.551
117.653, 590.972
119.050, 553.741
120.447, 628.209
121.843, 694.762
123.240, 770.102
124.636, 811.029
126.031, 1050.431
127.427, 1032.849
128.822, 930.764
130.217, 818.339
131.612, 485.714
133.006, 359.966
134.400, 243.368
135.794, 397.467
137.188, 506.878
138.581, 591.978
139.975, 493.544
141.368, 495.549
142.760, 479.546
144.153, 520.492
145.545, 669.113
146.937, 707.677
148.329, 1016.183
149.720, 1098.633
151.112, 1035.028
152.503, 894.364
153.893, 847.617
155.284, 839.226
156.674, 673.641
158.064, 614.730
159.454, 404.353
160.843, 351.970
162.233, 375.008
163.622, 425.352
165.011, 620.833
166.399, 876.244
167.787, 1362.549
169.175, 1673.507
170.563, 1729.661
171.951, 1654.009
173.338, 1261.545
174.725, 1132.257
176.112, 846.134
177.499, 624.161
178.885, 432.325
180.271, 252.613
181.657, 106.012
183.043, 25.491
184.428, 82.911
185.813, 137.260
187.198, 197.547
188.583, 141.784
189.967, 149.979
191.351, 129.392
192.735, 101.980
194.119, 71.613
195.502, 56.507
196.885, 38.654
198.268, 9.841
199.651, 50.938
201.033, 281.688
202.415, 371.409
203.797, 771.100
205.179, 931.762
206.561, 1315.368
207.942, 1584.910
209.323, 1655.411
210.703, 1840.876
212.084, 1695.314
213.464, 1750.726
214.844, 1660.110
216.224, 1715.448
217.603, 1720.661
218.983, 1572.589
220.362, 1306.132
221.741, 839.376
223.119, 527.213
224.497, 309.615
225.875, 129.523
227.253, 61.972
228.631, 34.726
230.008, 12.516
231.385, 86.915
232.762, 33.384
234.139, 22.933
235.515, 55.214
236.891, 191.352
238.267, 243.476
239.643, 384.548
241.018, 374.501
242.393, 448.290
243.768, 506.969
245.143, 493.612
246.517, 452.240
247.891, 450.861
249.265, 562.479
250.639, 666.092
252.012, 849.508
253.386, 1230.770
254.759, 1327.167
256.131, 1390.715
257.504, 1202.267
258.876, 1162.794
260.248, 983.271
261.620, 1020.677
262.991, 1149.003
264.363, 1154.239
265.734, 1298.369
267.104, 1248.380
268.475, 1322.267
269.845, 1313.031
271.215, 1369.665
272.585, 1468.172
273.955, 1442.557
275.324, 1481.821
276.693, 1309.941
278.062, 1261.890
279.431, 1108.645
280.799, 945.201
282.167, 902.597
283.535, 784.846
284.903, 741.957
286.270, 792.941
287.638, 734.801
289.005, 792.492
290.371, 765.027
291.738, 749.451
293.104, 743.773
294.470, 708.998
295.836, 730.132
297.201, 689.180
298.567, 671.110
299.932, 660.482
301.296, 706.872
302.661, 746.550
304.025, 907.138
305.389, 956.052
306.753, 960.509
308.117, 987.660
309.480, 926.950
310.843, 901.629
312.206, 1072.292
313.569, 1287.942
314.931, 1706.577
316.293, 2090.199
317.655, 2651.807
319.017, 2801.402
320.378, 2829.972
321.740, 2476.474
323.101, 2098.826
324.461, 1855.011
325.822, 1628.784
327.182, 1518.577
328.542, 1388.703
329.902, 1382.657
331.261, 1467.685
332.621, 1496.708
333.980, 1739.744
335.339, 1969.275
336.697, 2342.546
338.056, 2814.783
339.414, 3196.956
340.772, 3535.240
342.129, 3562.395
343.487, 3404.689
344.844, 2834.975
346.201, 2293.367
347.557, 1901.699
348.914, 1618.511
350.270, 1494.811
351.626, 1242.662
352.982, 1138.697
354.337, 826.570
355.693, 566.472
357.048, 392.387
358.402, 208.252
359.757, 176.573
361.111, 39.448
362.465, 34.616
363.819, 53.959
365.173, 5.354
366.526, 35.817
367.879, 62.526
369.232, 141.808
370.585, 208.941
371.937, 224.554
373.290, 320.393
374.642, 259.998
375.993, 314.264
377.345, 287.902
378.696, 274.151
380.047, 379.176
381.398, 478.764
382.748, 707.449
384.099, 922.205
385.449, 1200.834
386.799, 1499.395
388.148, 1582.042
389.497, 1733.251
390.847, 1631.573
392.196, 1608.772
393.544, 1420.418
394.893, 1266.446
396.241, 1197.884
397.589, 992.028
398.936, 1031.317
400.284, 798.236
401.631, 767.605
402.978, 664.579
404.325, 527.518
405.672, 498.772
407.018, 444.268
408.364, 432.728
409.710, 475.023
411.055, 588.320
412.401, 802.803
413.746, 1005.284
415.091, 1404.734
416.435, 1694.154
417.780, 2049.543
419.124, 2304.901
420.468, 2472.227
421.812, 2837.521
423.155, 2805.783
424.498, 2961.014
425.842, 2863.213
427.184, 2670.382
428.527, 2719.521
429.869, 2289.629
431.211, 2064.708
432.553, 1559.758
433.895, 1260.779
435.236, 1026.775
436.577, 719.743
437.918, 705.974
439.259, 696.022
440.599, 746.187
441.940, 968.222
443.280, 1027.063
444.619, 1113.880
445.959, 899.674
447.298, 795.445
448.637, 595.193
449.976, 428.920
451.315, 421.626
452.653, 315.311
453.991, 382.976
455.329, 391.622
456.667, 366.248
458.004, 297.856
459.341, 224.445
460.678, 239.015
462.015, 166.571
463.352, 208.110
464.688, 142.636
466.024, 198.150
467.360, 363.655
468.695, 373.161
470.031, 459.672
471.366, 494.178
472.701, 469.393
474.035, 443.319
475.370, 479.904
476.704, 604.500
478.038, 784.069
479.372, 1000.655
480.705, 1441.252
482.038, 1579.853
483.371, 1803.471
484.704, 1711.086
486.037, 1428.725
487.369, 1107.378
488.701, 690.056
490.033, 503.758
491.365, 271.456
492.696, 241.157
494.027, 170.867
495.358, 50.604
496.689, 110.544
498.019, 116.412
499.350, 129.248
500.680, 100.238
502.009, 128.075
503.339, 154.911
504.668, 126.591
505.997, 129.262
507.326, 106.941
508.655, 100.651
509.983, 138.413
511.311, 71.235
512.639, 171.130
513.967, 88.093
515.295, 55.117
516.622, 73.168
517.949, 13.767
519.276, 1.713
520.602, 38.870
521.929, 65.125
523.255, 55.399
524.581, 119.516
525.906, 65.135
527.232, 103.542
528.557, 112.811
529.882, 62.763
531.207, 86.476
532.531, 58.183
533.855, 102.527
535.179, 27.196
536.503, 10.656
537.827, 6.764
539.150, 57.121
540.473, 10.259
541.796, 132.345
543.119, 112.942
544.441, 201.530
545.764, 237.111
547.086, 152.686
548.407, 218.257
549.729, 118.831
551.050, 197.412
552.371, 224.018
553.692, 206.643
555.013, 363.306
556.333, 387.993
557.653, 554.701
558.973, 683.416
560.293, 759.130
561.612, 842.842
562.932, 630.549
564.251, 652.251
565.569, 622.947
566.888, 613.635
568.206, 701.316
569.524, 663.991
570.842, 811.659
572.160, 774.319
573.477, 729.972
574.795, 777.617
576.112, 642.255
577.428, 634.886
578.745, 465.509
580.061, 350.125
581.377, 388.734
582.693, 311.336
584.009, 326.971
585.324, 347.560
586.639, 387.261
587.954, 435.836
589.269, 305.404
590.583, 349.007
591.897, 209.620
593.212, 148.729
594.525, 125.280
595.839, 48.841
597.152, 85.693
598.465, 51.213
599.778, 75.901
601.091, 116.516
602.403, 130.052
603.716, 186.615
605.028, 215.030
606.339, 296.511
607.651, 362.985
608.962, 423.455
610.273, 531.918
611.584, 523.376
612.895, 683.828
614.205, 838.274
615.515, 881.715
616.825, 1088.151
618.135, 1094.581
619.444, 1125.139
620.754, 1068.378
622.063, 800.919
623.372, 640.274
624.680, 449.671
625.989, 351.081
627.297, 239.096
628.605, 155.797
629.912, 130.401
631.220, 91.354
632.527, 109.683
633.834, 118.065
635.141, 186.736
636.447, 251.900
637.754, 264.548
639.060, 412.742
640.366, 356.879
641.671, 473.971
642.977, 544.472
644.282, 431.083
645.587, 445.327
646.892, 414.822
648.196, 331.456
649.501, 270.686
650.805, 180.551
652.109, 164.965
653.412, 118.197
654.716, 133.302
656.019, 138.278
657.322, 99.299
658.625, 133.189
659.927, 131.197
661.230, 167.302
662.532, 217.404
663.834, 216.489
665.135, 295.686
666.437, 347.137
667.738, 445.310
669.039, 603.247
670.340, 708.812
671.640, 971.737
672.940, 1244.716
674.241, 1442.404
675.540, 1858.567
676.840, 1837.915
678.139, 1862.866
679.439, 1709.903
680.738, 1377.964
682.036, 1155.021
683.335, 881.477
684.633, 763.508
685.931, 619.945
687.229, 480.509
688.527, 488.572
689.824, 384.387
691.121, 448.417
692.418, 422.765
693.715, 456.720
695.012, 544.043
696.308, 541.571
697.604, 704.516
698.900, 831.346
700.195, 981.088
701.491, 1259.941
702.786, 1475.784
704.081, 1955.618
705.376, 2367.442
706.670, 2947.175
707.964, 4013.979
709.259, 4616.772
710.552, 5877.555
711.846, 6477.330
713.139, 7008.093
714.433, 7284.845
715.726, 6075.585
717.018, 5568.316
718.311, 4263.036
719.603, 3381.746
720.895, 2810.445
722.187, 2001.134
723.479, 1711.812
724.770, 1328.480
726.061, 1071.137
727.352, 934.784
728.643, 635.420
729.934, 623.047
731.224, 459.663
732.514, 388.268
733.804, 380.864
735.094, 261.449
736.383, 287.025
737.672, 187.590
738.961, 101.145
740.250, 192.690
741.539, 81.224
742.827, 131.748
744.115, 118.262
745.403, 98.766
746.691, 94.260
747.978, 12.743
749.265, 105.211
750.552, 100.669
751.839, 28.828
753.126, 108.131
754.412, 63.281
755.698, 78.526
756.984, 131.931
758.270, 95.326
759.555, 181.712
760.840, 149.089
762.125, 142.456
763.410, 247.814
764.695, 217.163
765.979, 320.502
767.263, 216.832
768.547, 231.153
769.831, 236.465
771.114, 130.768
772.398, 187.062
773.681, 66.346
774.964, 109.621
776.246, 66.887
777.529, 46.144
778.811, 91.390
780.093, 14.372
781.375, 24.163
782.656, 21.014
783.937, 49.821
785.219, 23.703
786.499, 77.722
787.780, 94.746
789.060, 51.829
790.341, 75.921
791.621, 52.073
792.901, 29.271
794.180, 76.504
795.459, 4.203
796.739, 83.106
798.017, 37.478
799.296, 79.887
800.575, 84.357
801.853, 13.110
803.131, 17.434
804.409, 44.006
805.686, 37.617
806.964, 27.283
808.241, 41.818
809.518, 75.976
810.795, 103.150
812.071, 106.156
813.347, 71.298
814.623, 104.427
815.899, 41.702
817.175, 45.978
818.450, 8.247
819.726, 16.494
821.001, 25.744
822.275, 11.974
823.550, 15.803
824.824, 25.399
826.098, 14.406
827.372, 71.772
828.646, 12.945
829.920, 66.116
831.193, 107.284
832.466, 1.544
833.739, 67.632
835.011, 108.816
836.284, 60.025
837.556, 128.244
838.828, 153.484
840.100, 160.751
841.371, 172.029
842.642, 183.323
843.914, 306.627
845.184, 213.953
846.455, 342.281
847.726, 310.609
848.996, 323.935
850.266, 447.262
851.536, 382.593
852.805, 454.919
854.075, 567.242
855.344, 485.562
856.613, 571.879
857.881, 498.192
859.150, 552.501
860.418, 540.807
861.686, 482.109
862.954, 623.410
864.222, 629.708
865.489, 561.004
866.756, 679.302
868.023, 585.597
869.290, 674.889
870.557, 613.194
871.823, 643.497
873.089, 659.802
874.355, 630.114
875.621, 710.421
876.886, 637.731
878.152, 655.039
879.417, 730.344
880.682, 695.654
881.946, 721.961
883.211, 803.266
884.475, 745.573
885.739, 835.877
887.003, 831.180
888.266, 935.492
889.530, 1080.801
890.793, 1140.108
892.056, 1394.375
893.318, 1546.682
894.581, 1710.878
895.843, 2074.192
897.105, 2230.527
898.367, 2667.820
899.629, 3078.094
900.890, 3174.866
902.152, 3716.190
903.413, 3420.505
904.673, 3463.521
905.934, 3306.863
907.194, 2831.035
908.454, 2700.274
909.714, 2308.624
910.974, 2076.938
912.234, 1887.287
913.493, 1500.636
914.752, 1429.985
916.011, 1178.334
917.270, 1074.684
918.528, 1049.035
919.786, 992.388
921.044, 1024.740
922.302, 899.094
923.560, 881.448
924.817, 952.803
926.074, 866.025
927.331, 941.382
928.588, 919.612
929.844, 864.757
931.101, 927.095
932.357, 913.443
933.613, 875.181
934.868, 993.230
936.124, 915.371
937.379, 1017.164
938.634, 1026.576
939.889, 1057.931
941.144, 1220.993
942.398, 1265.557
943.652, 1419.635
944.906, 1610.163
946.160, 1724.746
947.414, 2111.368
948.667, 2163.579
949.920, 2487.677
951.173, 2739.143
952.426, 2823.356
953.678, 3341.425
954.931, 3580.895
956.183, 3992.726
957.435, 4838.989
958.686, 5035.933
959.938, 6056.254
961.189, 6283.732
962.440, 6142.218
963.691, 6389.714
964.941, 5568.211
966.192, 5162.724
967.442, 4688.128
968.692, 4087.564
969.942, 4287.795
971.191, 4125.747
972.441, 4102.140
973.690, 4611.487
974.939, 4496.581
976.187, 4974.014
977.436, 4914.254
978.684, 4594.859
979.932, 4719.281
981.180, 4089.903
982.428, 3972.533
983.675, 3878.641
984.922, 3536.291
986.169, 3825.949
987.416, 3532.615
988.663, 3426.291
989.909, 3514.612
991.155, 3191.303
992.401, 3234.003
993.647, 3095.848
994.893, 3049.565
996.138, 3215.291
997.383, 2964.023
998.628, 3063.770
999.873, 3025.456
1001.117, 2599.860
1002.362, 2605.630
1003.606, 2276.587
1004.850, 2128.382
1006.093, 1979.649
1007.337, 1584.459
1008.580, 1538.282
1009.823, 1296.114
1011.066, 1159.953
1012.308, 1191.482
1013.551, 925.458
1014.793, 836.344
1016.035, 788.611
1017.277, 736.512
1018.518, 745.423
1019.760, 616.260
1021.001, 630.186
1022.242, 699.365
1023.483, 580.059
1024.723, 620.024
1025.964, 656.986
1027.204, 520.966
1028.444, 652.959
1029.683, 566.448
1030.923, 531.457
1032.162, 503.474
1033.401, 504.210
1034.640, 575.243
1035.879, 543.318
1037.117, 606.677
1038.355, 682.734
1039.593, 617.798
1040.831, 745.868
1042.069, 761.230
1043.306, 628.740
1044.544, 814.840
1045.781, 850.898
1047.017, 853.084
1048.254, 1052.204
1049.490, 1089.458
1050.726, 1170.601
1051.962, 1238.918
1053.198, 1282.074
1054.434, 1340.237
1055.669, 1108.095
1056.904, 1190.278
1058.139, 1110.596
1059.374, 876.800
1060.608, 843.009
1061.843, 724.227
1063.077, 667.450
1064.311, 595.679
1065.544, 507.018
1066.778, 596.602
1068.011, 548.860
1069.244, 443.270
1070.477, 570.539
1071.710, 479.922
1072.942, 606.279
1074.174, 664.563
1075.406, 670.854
1076.638, 839.149
1077.870, 904.450
1079.101, 936.899
1080.332, 1091.211
1081.563, 917.538
1082.794, 925.979
1084.025, 779.335
1085.255, 589.610
1086.485, 647.080
1087.715, 466.507
1088.945, 391.025
1090.175, 484.523
1091.404, 299.121
1092.633, 320.837
1093.862, 262.394
1095.091, 221.136
1096.319, 304.827
1097.548, 247.454
1098.776, 256.411
1100.004, 275.087
1101.231, 197.799
1102.459, 294.653
1103.686, 243.379
1104.913, 203.125
1106.140, 258.005
1107.367, 136.785
1108.593, 197.722
1109.819, 215.578
1111.046, 85.369
1112.271, 150.295
1113.497, 90.092
1114.722, 90.267
1115.948, 107.276
1117.173, 50.084
1118.398, 56.979
1119.622, 85.400
1120.847, 68.229
1122.071, 84.331
1123.295, 68.845
1124.519, 80.706
1125.742, 63.662
1126.966, 35.517
1128.189, 52.400
1129.412, 51.283
1130.635, 27.144
1131.857, 78.607
1133.080, 12.473
1134.302, 29.469
1135.524, 61.344
1136.746, 26.718
1137.967, 86.251
1139.188, 87.261
1140.410, 8.873
1141.631, 57.419
1142.851, 32.448
1144.072, 18.312
1145.292, 65.366
1146.512, 31.700
1147.732, 24.718
1148.952, 20.257
1150.172, 9.895
1151.391, 39.159
1152.610, 18.823
1153.829, 32.015
1155.048, 50.070
1156.266, 17.087
1157.484, 40.978
1158.702, 21.590
1159.920, 5.722
1161.138, 57.933
1162.356, 33.196
1163.573, 48.626
1164.790, 8.062
1166.007, 20.230
1167.224, 22.845
1168.440, 28.847
1169.656, 37.101
1170.872, 41.235
1172.088, 22.041
1173.304, 31.456
1174.519, 25.467
1175.735, 29.158
1176.950, 22.729
1178.165, 15.778
1179.379, 14.541
1180.594, 22.676
1181.808, 5.497
1183.022, 39.789
1184.236, 61.466
1185.449, 56.161
1186.663, 38.801
1187.876, 3.325
1189.089, 38.710
1190.302, 80.879
1191.515, 78.317
1192.727, 7.301
1193.939, 41.835
1195.151, 2.286
1196.363, 107.805
1197.575, 31.547
1198.786, 38.970
1199.997, 33.461
1201.208, 22.126
1202.419, 29.074
1203.630, 4.922
1204.840, 42.224
1206.051, 59.661
1207.261, 86.879
1208.470, 49.303
1209.680, 83.724
1210.889, 22.944
1212.099, 4.386
1213.308, 76.916
1214.516, 12.440
1215.725, 74.821
1216.933, 23.253
1218.142, 31.790
1219.350, 95.148
1220.557, 55.558
1221.765, 65.902
1222.972, 57.239
1224.180, 20.664
1225.387, 88.984
1226.593, 67.346
1227.800, 35.915
1229.006, 79.212
1230.213, 0.517
1231.419, 42.852
1232.624, 76.123
1233.830, 48.477
1235.035, 59.737
1236.241, 43.991
1237.446, 23.295
1238.650, 88.531
1239.855, 28.782
1241.059, 44.072
1242.264, 118.287
1243.468, 2.504
1244.671, 76.691
1245.875, 68.872
1247.078, 37.086
1248.282, 124.249
1249.485, 74.399
1250.687, 45.542
1251.890, 101.675
1253.092, 37.801
1254.295, 59.059
1255.497, 84.164
1256.699, 45.285
1257.900, 142.371
1259.102, 0.445
1260.303, 34.771
1261.504, 101.814
1262.705, 60.846
1263.905, 18.505
1265.106, 134.496
1266.306, 10.476
1267.506, 101.427
1268.706, 80.351
1269.905, 60.261
1271.105, 96.159
1272.304, 80.044
1273.503, 81.131
1274.702, 112.963
1275.900, 22.783
1277.099, 117.587
1278.297, 58.375
1279.495, 88.148
1280.693, 73.910
1281.891, 65.008
1283.088, 55.824
1284.285, 126.534
1285.482, 32.083
1286.679, 52.829
1287.876, 101.475
1289.072, 10.110
1290.268, 76.736
1291.464, 62.391
1292.660, 62.301
1293.856, 148.905
1295.051, 7.750
1296.247, 52.803
1297.442, 111.828
1298.637, 9.303
1299.831, 52.761
1301.026, 81.194
1302.220, 13.387
1303.414, 84.337
1304.608, 17.393
1305.802, 82.961
1306.995, 89.927
1308.188, 25.253
1309.381, 79.562
1310.574, 53.939
1311.767, 26.219
1312.960, 153.275
1314.152, 33.228
1315.344, 91.990
1316.536, 117.202
1317.728, 1.614
1318.919, 53.540
1320.110, 45.193
1321.301, 32.316
1322.492, 125.423
1323.683, 23.801
1324.874, 47.874
1326.064, 75.897
1327.254, 18.628
1328.444, 71.652
1329.634, 83.662
1330.823, 13.343
1332.013, 124.352
1333.202, 98.893
1334.391, 39.836
1335.580, 60.814
1336.768, 79.657
1337.956, 11.441
1339.145, 83.401
1340.333, 48.269
1341.520, 71.957
1342.708, 76.799
1343.895, 12.373
1345.083, 104.754
1346.270, 43.554
1347.456, 11.792
1348.643, 85.972
1349.829, 6.724
1351.016, 97.461
1352.202, 112.774
1353.387, 26.509
1354.573, 69.092
1355.759, 45.444
1356.944, 45.114
1358.129, 126.627
1359.314, 63.279
1360.498, 39.813
1361.683, 156.370
1362.867, 62.962
1364.051, 83.542
1365.235, 87.110
1366.419, 53.665
1367.602, 122.063
1368.785, 64.607
1369.968, 1.871
1371.151, 145.543
1372.334, 72.048
1373.517, 61.495
1374.699, 167.836
1375.881, 55.118
1377.063, 151.293
1378.245, 150.370
1379.426, 61.306
1380.608, 143.586
1381.789, 71.700
1382.970, 60.820
1384.150, 130.875
1385.331, 89.000
1386.511, 87.032
1387.691, 112.417
1388.871, 67.440
1390.051, 134.849
1391.231, 125.823
1392.410, 101.715
1393.589, 158.694
1394.768, 121.651
1395.947, 43.898
1397.126, 102.672
1398.304, 70.379
1399.483, 96.098
1400.661, 157.236
1401.838, 30.582
1403.016, 192.151
1404.194, 138.798
1405.371, 10.479
1406.548, 188.617
1407.725, 110.008
1408.901, 162.130
1410.078, 129.826
1411.254, 125.514
1412.430, 104.788
1413.606, 150.604
1414.782, 21.034
1415.958, 121.232
1417.133, 107.208
1418.308, 65.139
1419.483, 169.540
1420.658, 79.961
1421.832, 59.270
1423.007, 165.164
1424.181, 30.196
1425.355, 88.488
1426.529, 144.767
1427.702, 31.866
1428.876, 107.981
1430.049, 99.069
1431.222, 38.182
1432.395, 130.053
1433.567, 73.283
1434.740, 22.090
1435.912, 115.933
1437.084, 24.576
1438.256, 91.506
1439.428, 99.523
1440.599, 35.333
1441.770, 117.711
1442.942, 118.586
1444.112, 85.343
1445.283, 160.980
1446.454, 94.628
1447.624, 52.316
1448.794, 172.844
1449.964, 42.462
1451.134, 31.964
1452.303, 175.518
1453.473, 18.025
1454.642, 122.127
1455.811, 114.455
1456.980, 118.791
1458.148, 140.399
1459.317, 60.962
1460.485, 20.197
1461.653, 118.495
1462.821, 26.802
1463.989, 59.455
1465.156, 112.832
1466.323, 42.183
1467.490, 111.515
1468.657, 104.591
1469.824, 31.946
1470.991, 48.091
1472.157, 79.440
1473.323, 49.980
1474.489, 92.330
1475.655, 53.699
1476.820, 107.223
1477.986, 97.810
1479.151, 1.621
1480.316, 94.936
1481.481, 94.483
1482.645, 25.025
1483.810, 67.389
1484.974, 82.943
1486.138, 5.584
1487.302, 86.288
1488.465, 46.045
1489.629, 17.851
1490.792, 117.706
1491.955, 9.378
1493.118, 69.595
1494.281, 43.629
1495.443, 40.722
1496.606, 96.165
1497.768, 52.340
1498.930, 32.621
1500.091, 187.950
1501.253, 44.425
1502.414, 35.765
1503.575, 109.370
1504.736, 12.833
1505.897, 47.034
1507.058, 54.630
1508.218, 0.453
1509.379, 111.657
1510.539, 39.566
1511.698, 0.000
##END=



