##NAMES=Axinite-(Fe)
##RRUFFID=R060558
##IDEAL CHEMISTRY=Ca_4_Fe^2+^_2_Al_4_[B_2_Si_8_O_30_](OH)_2_
##LOCALITY=unknown
##OWNER=RRUFF
##SOURCE=Gemological Institute of America
##DESCRIPTION=Brown flattened crystal
##STATUS=The identification of this mineral has been confirmed by X-ray diffraction and chemical analysis
##URL=rruff.info/R060558
##MEASURED CHEMISTRY=Ca_2.00_(Fe^2+^_0.60_Mg_0.35_Mn_0.05_)_Î£=1_Al_2.00_BSi_4.00_O_15_(OH) ; B not measured
##PIN_ID=M00962
##ORIENTATION=Laser parallel to a* (1 0 0). Fiducial mark perpendicular to laser is parallel to b [0 1 0]
99.01100, 0.0000000E+00
100.2570, 256.8262
101.5030, 790.0645
102.7490, 1526.163
103.9940, 2629.323
105.2390, 3873.682
106.4840, 4775.488
107.7290, 5563.259
108.9740, 5423.749
110.2180, 4370.926
111.4620, 3507.740
112.7060, 2835.541
113.9500, 2389.538
115.1940, 2096.541
116.4370, 2184.056
117.6800, 2205.791
118.9230, 2026.041
120.1660, 1656.889
121.4090, 1763.125
122.6510, 1585.552
123.8940, 1186.984
125.1360, 708.2607
126.3770, 526.2412
127.6190, 332.8037
128.8600, 201.8462
130.1020, 0.2792970
131.3430, 145.9810
132.5840, 226.0029
133.8240, 363.8286
135.0650, 350.4668
136.3050, 152.9795
137.5450, 171.5630
138.7850, 375.0972
140.0250, 498.5640
141.2640, 733.9062
142.5030, 767.0645
143.7430, 912.9854
144.9810, 1307.610
146.2200, 1458.853
147.4590, 1853.677
148.6970, 2132.060
149.9350, 2677.982
151.1730, 3085.428
152.4110, 3553.376
153.6480, 3909.815
154.8860, 4293.748
156.1230, 4546.177
157.3600, 4758.095
158.5960, 4812.483
159.8330, 5190.332
161.0690, 5327.621
162.3050, 5403.339
163.5410, 5750.480
164.7770, 6345.059
166.0130, 7456.080
167.2480, 8779.677
168.4830, 9890.258
169.7180, 10682.46
170.9530, 10604.00
172.1880, 9589.878
173.4220, 8150.046
174.6560, 6736.443
175.8900, 4965.109
177.1240, 3715.039
178.3580, 2446.216
179.5910, 1568.610
180.8250, 996.2090
182.0580, 566.9736
183.2900, 310.8369
184.5230, 156.8027
185.7560, 169.7388
186.9880, 462.0850
188.2200, 672.4180
189.4520, 1242.713
190.6830, 1995.636
191.9150, 2755.144
193.1460, 3246.758
194.3770, 3664.559
195.6080, 3791.548
196.8390, 3622.725
198.0700, 3595.091
199.3000, 3664.645
200.5300, 4016.387
201.7600, 4468.314
202.9900, 5145.429
204.2190, 5955.731
205.4490, 6630.214
206.6780, 7628.881
207.9070, 8230.823
209.1360, 9094.151
210.3640, 9475.312
211.5930, 10021.11
212.8210, 9950.544
214.0490, 9586.135
215.2770, 9422.878
216.5040, 8593.049
217.7320, 7578.807
218.9590, 6805.990
220.1860, 5868.317
221.4130, 5052.789
222.6400, 4143.400
223.8660, 3253.152
225.0920, 2707.043
226.3190, 1942.116
227.5450, 1588.676
228.7700, 1218.844
229.9960, 907.4863
231.2210, 564.3354
232.4460, 549.2939
233.6710, 479.0361
234.8960, 437.4956
236.1210, 642.9375
237.3450, 793.0562
238.5690, 1106.575
239.7930, 1267.889
241.0170, 1711.155
242.2410, 1918.521
243.4640, 2247.022
244.6870, 2615.797
245.9100, 2984.828
247.1330, 3343.667
248.3560, 3681.169
249.5780, 3949.415
250.8000, 4268.020
252.0230, 4516.736
253.2440, 4672.440
254.4660, 4615.121
255.6880, 4723.575
256.9090, 4821.664
258.1300, 4861.525
259.3510, 5186.253
260.5720, 5537.910
261.7920, 5601.547
263.0130, 6326.793
264.2330, 6817.728
265.4530, 7635.383
266.6730, 8122.127
267.8920, 8680.126
269.1120, 9144.368
270.3310, 9383.841
271.5500, 9494.543
272.7690, 9219.457
273.9880, 8854.577
275.2060, 8357.899
276.4240, 7708.412
277.6430, 6716.308
278.8600, 6079.037
280.0780, 5100.723
281.2960, 4389.694
282.5130, 3761.405
283.7300, 3511.373
284.9470, 3206.074
286.1640, 3462.926
287.3810, 3529.923
288.5970, 4019.062
289.8130, 4681.338
291.0290, 5760.748
292.2450, 7029.290
293.4610, 8254.959
294.6760, 9681.755
295.8910, 10725.67
297.1060, 12068.71
298.3210, 13060.87
299.5360, 13861.14
300.7510, 14219.53
301.9650, 14358.03
303.1790, 14148.63
304.3930, 13928.34
305.6070, 13350.16
306.8200, 12572.08
308.0340, 11667.10
309.2470, 10596.22
310.4600, 9705.428
311.6730, 8752.735
312.8850, 8161.137
314.0980, 7511.636
315.3100, 7475.843
316.5220, 7608.035
317.7340, 7752.319
318.9460, 7500.064
320.1570, 7159.632
321.3690, 6705.769
322.5800, 5869.679
323.7910, 4798.520
325.0010, 3668.696
326.2120, 2962.942
327.4220, 2220.255
328.6330, 1817.634
329.8430, 1528.082
331.0520, 1519.594
332.2620, 1545.174
333.4720, 1753.817
334.6810, 2121.526
335.8900, 2569.300
337.0990, 3385.141
338.3070, 4321.048
339.5160, 5206.023
340.7240, 6447.067
341.9320, 7998.176
343.1400, 9309.351
344.3480, 10666.59
345.5560, 11234.89
346.7630, 11383.25
347.9700, 11304.69
349.1770, 10720.21
350.3840, 10525.83
351.5910, 10220.37
352.7970, 9734.039
354.0040, 8984.660
355.2100, 8069.756
356.4160, 6466.348
357.6220, 5103.622
358.8270, 3957.582
360.0320, 2856.084
361.2380, 1783.256
362.4430, 1050.471
363.6470, 560.7266
364.8520, 175.0225
366.0560, 37.64111
367.2610, 171.2700
368.4650, 209.8843
369.6690, 247.4927
370.8720, 194.1035
372.0760, 289.7070
373.2790, 107.3145
374.4820, 171.8740
375.6850, 7.590332
376.8880, 3.895020
378.0910, 150.6523
379.2930, 484.2222
380.4950, 810.7573
381.6970, 1390.246
382.8990, 1989.694
384.1010, 2888.661
385.3020, 3951.053
386.5040, 5076.494
387.7050, 6169.908
388.9060, 7069.358
390.1060, 7957.389
391.3070, 8528.978
392.5070, 8801.603
393.7080, 8738.257
394.9080, 7936.939
396.1070, 7388.646
397.3070, 6288.377
398.5070, 5224.133
399.7060, 4114.911
400.9050, 3397.713
402.1040, 2828.540
403.3030, 2324.394
404.5010, 1996.276
405.7000, 1763.185
406.8980, 1687.121
408.0960, 1452.088
409.2940, 1494.094
410.4910, 1972.141
411.6890, 2229.228
412.8860, 2798.355
414.0830, 3422.522
415.2800, 4438.728
416.4770, 5550.971
417.6730, 6481.250
418.8690, 7271.566
420.0660, 7735.915
421.2620, 7974.300
422.4570, 8419.741
423.6530, 8941.277
424.8480, 9884.922
426.0440, 11003.71
427.2390, 12300.62
428.4340, 13497.62
429.6280, 14361.65
430.8230, 14578.71
432.0170, 14206.79
433.2110, 12698.90
434.4050, 11029.04
435.5990, 9346.201
436.7930, 7854.386
437.9860, 6128.598
439.1800, 5029.829
440.3730, 4260.084
441.5660, 3976.361
442.7580, 3753.659
443.9510, 3818.978
445.1430, 3791.317
446.3350, 3382.674
447.5270, 2974.050
448.7190, 2484.444
449.9110, 1910.855
451.1020, 1214.284
452.2930, 732.7280
453.4850, 347.1875
454.6750, 250.6631
455.8660, 75.15234
457.0570, 19.34521
458.2470, 153.8530
459.4370, 116.4380
460.6270, 132.0835
461.8170, 268.7964
463.0070, 79.65137
464.1960, 155.5508
465.3850, 114.5347
466.5750, 76.58301
467.7630, 351.3213
468.9520, 341.2349
470.1410, 547.1567
471.3290, 681.0874
472.5170, 617.0259
473.7050, 775.9722
474.8930, 661.9248
476.0810, 527.8848
477.2680, 621.8511
478.4560, 530.8232
479.6430, 769.8008
480.8300, 998.7832
482.0160, 1265.771
483.2030, 1742.762
484.3890, 1987.757
485.5760, 2298.756
486.7620, 2259.758
487.9480, 2100.761
489.1330, 1640.768
490.3190, 1139.754
491.5040, 577.5073
492.6890, 167.5596
493.8740, 73.86768
495.0590, 247.7817
496.2440, 305.7446
497.4280, 390.5273
498.6120, 221.2139
499.7960, 278.0596
500.9800, 112.0967
502.1640, 11.76221
503.3470, 171.5811
504.5310, 302.3940
505.7140, 435.2021
506.8970, 620.0049
508.0800, 725.8018
509.2620, 845.9746
510.4450, 836.9302
511.6270, 969.1704
512.8090, 1055.599
513.9910, 1036.452
515.1730, 875.4712
516.3550, 851.0469
517.5360, 911.7593
518.7170, 709.8794
519.8980, 647.4683
521.0790, 418.1973
522.2600, 252.9209
523.4400, 188.6387
524.6210, 110.3486
525.8010, 70.05176
526.9810, 38.26172
528.1610, 117.6406
529.3400, 116.1270
530.5200, 131.7217
531.6990, 44.56787
532.8780, 161.8311
534.0570, 342.0869
535.2360, 543.3335
536.4140, 799.5708
537.5930, 1117.171
538.7710, 1392.019
539.9490, 1913.229
541.1270, 2307.429
542.3040, 2872.620
543.4820, 3475.800
544.6590, 3736.973
545.8360, 4075.153
547.0130, 4260.350
548.1900, 4207.584
549.3670, 3870.861
550.5430, 3478.177
551.7190, 3017.540
552.8960, 2720.939
554.0710, 2524.428
555.2470, 2450.983
556.4230, 2573.603
557.5980, 2720.253
558.7730, 2960.969
559.9480, 3218.743
561.1230, 3510.563
562.2980, 3613.399
563.4720, 3568.295
564.6470, 3281.201
565.8210, 3093.142
566.9950, 3091.115
568.1690, 2879.089
569.3420, 3074.049
570.5160, 3300.991
571.6890, 3392.917
572.8620, 3552.824
574.0350, 3770.713
575.2080, 3858.583
576.3800, 4115.435
577.5530, 4038.268
578.7250, 4130.080
579.8970, 4209.873
581.0690, 4409.646
582.2410, 4534.401
583.4120, 5024.135
584.5830, 5512.847
585.7550, 6132.541
586.9260, 6829.211
588.0960, 7502.863
589.2670, 7660.492
590.4380, 7845.099
591.6080, 7453.686
592.7780, 6746.251
593.9480, 5665.793
595.1180, 4567.314
596.2870, 3715.812
597.4570, 2807.289
598.6260, 2367.729
599.7950, 1892.530
600.9640, 1536.401
602.1330, 1574.238
603.3010, 1424.670
604.4700, 1502.354
605.6380, 1577.484
606.8060, 1841.914
607.9740, 1927.463
609.1420, 2160.730
610.3090, 2491.977
611.4760, 2613.205
612.6440, 2701.412
613.8110, 2673.601
614.9770, 2708.771
616.1440, 2670.920
617.3110, 2510.049
618.4770, 2360.948
619.6430, 2134.247
620.8090, 1864.316
621.9750, 1569.364
623.1400, 1250.392
624.3060, 1084.399
625.4710, 750.3862
626.6360, 582.3521
627.8010, 422.2964
628.9660, 195.2197
630.1300, 37.12207
631.2950, 2.981445
632.4590, 97.21875
633.6230, 73.53223
634.7870, 9.232422
635.9510, 49.10840
637.1140, 14.60547
638.2780, 213.8623
639.4410, 392.6602
640.6040, 514.8076
641.7670, 588.2969
642.9290, 688.2754
644.0920, 791.6123
645.2540, 897.9346
646.4160, 954.2422
647.5780, 648.5361
648.7400, 627.8174
649.9020, 541.0879
651.0630, 300.3691
652.2250, 138.6680
653.3860, 77.99023
654.5470, 25.67090
655.7080, 98.31934
656.8680, 60.90234
658.0290, 66.64258
659.1890, 11.33984
660.3490, 158.7314
661.5090, 209.2363
662.6690, 398.4561
663.8280, 654.0762
664.9880, 947.7012
666.1470, 1430.285
667.3060, 1998.451
668.4650, 2583.580
669.6240, 3312.279
670.7820, 3970.890
671.9410, 4992.459
673.0990, 5917.484
674.2570, 6979.496
675.4150, 7818.496
676.5720, 8391.486
677.7300, 8570.465
678.8870, 8113.432
680.0450, 7374.387
681.2020, 6255.332
682.3590, 5347.264
683.5150, 4386.393
684.6720, 3496.949
685.8280, 2891.547
686.9840, 2407.322
688.1400, 2076.520
689.2960, 1738.815
690.4520, 1714.536
691.6070, 1805.795
692.7630, 1894.157
693.9180, 1954.803
695.0730, 2273.883
696.2280, 2543.559
697.3820, 3035.772
698.5370, 3562.117
699.6910, 4278.710
700.8450, 5190.920
701.9990, 6441.254
703.1530, 8110.813
704.3070, 10048.80
705.4600, 12627.81
706.6130, 15392.33
707.7660, 18782.95
708.9190, 22709.47
710.0720, 26483.96
711.2250, 30298.42
712.3770, 33807.87
713.5300, 36141.27
714.6820, 36859.66
715.8340, 35843.03
716.9850, 32842.37
718.1370, 28881.68
719.2880, 24441.98
720.4400, 20359.25
721.5910, 16337.49
722.7420, 13249.71
723.8930, 10814.91
725.0430, 9004.084
726.1940, 7313.235
727.3440, 6110.362
728.4940, 5147.469
729.6440, 4407.550
730.7940, 3824.608
731.9430, 3155.645
733.0930, 2962.657
734.2420, 2419.647
735.3910, 2227.616
736.5400, 1891.562
737.6890, 1780.500
738.8370, 1629.460
739.9860, 1541.435
741.1340, 1337.427
742.2820, 1196.475
743.4300, 1179.529
744.5780, 1122.610
745.7250, 1186.708
746.8730, 1149.812
748.0200, 1161.258
749.1670, 1175.962
750.3140, 1189.005
751.4610, 1301.028
752.6070, 1350.032
753.7540, 1572.016
754.9000, 1700.979
756.0460, 2039.922
757.1920, 2215.847
758.3380, 2703.752
759.4830, 2999.639
760.6280, 3417.506
761.7740, 3789.354
762.9190, 4357.185
764.0640, 4956.998
765.2080, 5157.791
766.3530, 5740.566
767.4970, 5802.324
768.6420, 5948.087
769.7860, 5655.067
770.9300, 5303.730
772.0730, 4772.859
773.2170, 4149.420
774.3600, 3896.930
775.5040, 3178.143
776.6470, 2717.120
777.7900, 2201.162
778.9320, 1866.283
780.0750, 1542.962
781.2170, 1308.607
782.3600, 1086.758
783.5020, 888.2617
784.6440, 756.4883
785.7850, 596.1396
786.9270, 565.2441
788.0680, 488.3359
789.2100, 446.4170
790.3510, 306.4854
791.4920, 213.5420
792.6320, 343.7432
793.7730, 69.37012
794.9130, 252.3320
796.0540, 84.92188
797.1940, 116.9258
798.3340, 43.91504
799.4730, 61.88867
800.6130, 110.8516
801.7520, 164.8047
802.8920, 158.3252
804.0310, 201.0264
805.1700, 167.6484
806.3090, 222.6484
807.4470, 257.6904
808.5860, 227.7773
809.7240, 434.8662
810.8620, 479.9453
812.0000, 458.0176
813.1380, 499.0811
814.2750, 434.1377
815.4130, 333.1855
816.5500, 236.2275
817.6870, 174.2627
818.8240, 99.28906
819.9610, 38.63184
821.0980, 29.68262
822.2340, 62.71875
823.3700, 129.8154
824.5070, 169.0088
825.6430, 155.3184
826.7780, 178.7373
827.9140, 140.2773
829.0500, 349.9160
830.1850, 259.7666
831.3200, 251.7783
832.4550, 134.9473
833.5900, 256.2119
834.7250, 243.6338
835.8590, 185.2070
836.9930, 84.89844
838.1280, 247.6572
839.2620, 61.56641
840.3950, 165.5283
841.5290, 151.5947
842.6630, 33.75977
843.7960, 13.04004
844.9290, 20.83301
846.0620, 51.62012
847.1950, 131.4053
848.3280, 83.19043
849.4600, 180.9727
850.5930, 146.7568
851.7250, 269.5381
852.8570, 356.3203
853.9890, 203.1016
855.1210, 216.8857
856.2520, 367.6699
857.3840, 274.4541
858.5150, 274.2402
859.6460, 302.0293
860.7770, 334.8203
861.9080, 349.6123
863.0380, 395.4082
864.1690, 482.2061
865.2990, 470.0078
866.4290, 497.8125
867.5590, 545.6221
868.6890, 477.4336
869.8190, 655.2520
870.9480, 563.0732
872.0770, 618.9062
873.2070, 763.7441
874.3360, 804.5938
875.4640, 819.4541
876.5930, 826.3193
877.7220, 1031.190
878.8500, 924.0732
879.9780, 985.9629
881.1060, 899.8613
882.2340, 966.5381
883.3620, 1163.683
884.4890, 1098.602
885.6170, 1179.528
886.7440, 1234.460
887.8710, 1214.398
888.9980, 1490.345
890.1240, 1583.297
891.2510, 1905.270
892.3770, 2224.256
893.5040, 2306.271
894.6300, 2666.297
895.7560, 3108.328
896.8810, 3401.398
898.0070, 4086.477
899.1330, 4399.568
900.2580, 5104.670
901.3830, 5546.818
902.5080, 6121.976
903.6330, 6327.994
904.7570, 6455.334
905.8820, 6499.572
907.0060, 6481.886
908.1300, 6332.252
909.2540, 5774.660
910.3780, 5053.109
911.5020, 4500.578
912.6250, 4053.068
913.7490, 3538.584
914.8720, 3008.126
915.9950, 2438.705
917.1180, 2258.312
918.2400, 1973.928
919.3630, 1751.603
920.4850, 1647.287
921.6080, 1492.014
922.7300, 1272.750
923.8520, 1163.497
924.9730, 1200.256
926.0950, 1252.031
927.2160, 1258.831
928.3380, 1321.023
929.4590, 1297.393
930.5800, 1410.294
931.7010, 1404.230
932.8210, 1413.191
933.9420, 1160.821
935.0620, 1409.733
936.1820, 1337.733
937.3020, 1379.746
938.4220, 1500.787
939.5420, 1558.842
940.6610, 1544.918
941.7810, 1768.009
942.9000, 1963.111
944.0190, 2089.228
945.1380, 2376.356
946.2570, 2557.499
947.3750, 2772.655
948.4940, 3177.826
949.6120, 3596.028
950.7300, 4063.246
951.8480, 4672.477
952.9660, 5399.733
954.0830, 6149.005
955.2010, 7005.114
956.3180, 8195.801
957.4350, 9494.470
958.5520, 10937.96
959.6690, 12639.04
960.7860, 14375.02
961.9020, 16289.59
963.0190, 17724.62
964.1350, 18684.54
965.2510, 19183.19
966.3670, 19395.41
967.4830, 17897.04
968.5980, 17385.13
969.7140, 15992.09
970.8290, 15314.82
971.9440, 15050.93
973.0590, 14952.92
974.1740, 15584.71
975.2880, 16314.08
976.4030, 17245.43
977.5170, 18267.30
978.6310, 19471.05
979.7450, 19831.90
980.8590, 19528.80
981.9730, 19233.75
983.0860, 18058.74
984.2000, 16823.79
985.3130, 15479.86
986.4260, 14228.98
987.5390, 12875.13
988.6520, 12453.32
989.7640, 11576.54
990.8770, 11300.82
991.9890, 11288.13
993.1010, 11091.50
994.2130, 11233.90
995.3250, 11389.33
996.4370, 11704.78
997.5480, 12116.27
998.6590, 12592.80
999.7710, 12929.36
1000.882, 13556.95
1001.993, 13787.57
1003.103, 13754.24
1004.214, 13719.93
1005.324, 13172.73
1006.434, 12556.48
1007.545, 11488.64
1008.655, 10359.44
1009.764, 9377.280
1010.874, 8160.154
1011.983, 7073.181
1013.093, 6145.250
1014.202, 5250.906
1015.311, 4482.482
1016.420, 3820.510
1017.528, 3436.568
1018.637, 3017.658
1019.745, 2688.800
1020.854, 2396.972
1021.962, 2238.506
1023.070, 2156.409
1024.177, 2157.363
1025.285, 2215.123
1026.392, 2410.634
1027.500, 2593.997
1028.607, 2619.393
1029.714, 2688.151
1030.821, 2668.605
1031.927, 2759.635
1033.034, 2545.161
1034.140, 2611.128
1035.246, 2554.701
1036.352, 2605.304
1037.458, 2313.938
1038.564, 2366.583
1039.670, 2316.679
1040.775, 2331.403
1041.880, 2412.321
1042.986, 2337.101
1044.090, 2351.908
1045.195, 2352.323
1046.300, 2259.770
1047.404, 2444.202
1048.509, 2440.209
1049.613, 2527.788
1050.717, 2708.758
1051.821, 2783.756
1052.925, 2986.774
1054.028, 3244.430
1055.132, 3405.500
1056.235, 3417.594
1057.338, 3532.713
1058.441, 3538.961
1059.544, 3476.397
1060.647, 3551.682
1061.749, 3107.260
1062.851, 3167.493
1063.954, 2843.755
1065.056, 2544.154
1066.158, 2247.454
1067.259, 2041.977
1068.361, 1793.121
1069.462, 1720.488
1070.564, 1615.810
1071.665, 1562.218
1072.766, 1651.649
1073.867, 1767.152
1074.967, 2061.622
1076.068, 2516.110
1077.168, 2806.618
1078.268, 3472.146
1079.368, 3992.693
1080.468, 4516.262
1081.568, 5250.205
1082.668, 5903.812
1083.767, 5814.436
1084.866, 6009.955
1085.966, 5844.736
1087.065, 5159.477
1088.163, 4743.291
1089.262, 4169.318
1090.361, 3440.097
1091.459, 2905.048
1092.557, 2585.052
1093.655, 2184.031
1094.753, 1928.085
1095.851, 1820.236
1096.949, 1665.492
1098.046, 1548.820
1099.143, 1479.562
1100.241, 1253.760
1101.338, 1350.398
1102.434, 1293.060
1103.531, 1208.848
1104.628, 1351.627
1105.724, 1211.161
1106.820, 1217.066
1107.916, 1105.118
1109.012, 1042.147
1110.108, 987.2061
1111.204, 865.2812
1112.299, 793.5889
1113.395, 684.3750
1114.490, 563.2617
1115.585, 594.2676
1116.680, 453.5703
1117.775, 452.7109
1118.869, 212.5840
1119.964, 301.1484
1121.058, 326.4932
1122.152, 152.2295
1123.246, 359.5713
1124.340, 230.9502
1125.434, 235.1572
1126.527, 66.58203
1127.620, 123.0342
1128.714, 79.26172
1129.807, 186.5684
1130.900, 79.50293
1131.992, 108.7490
1133.085, 140.0020
1134.178, 2.259766
1135.270, 70.85645
1136.362, 48.87598
1137.454, 77.38379
1138.546, 56.35156
1139.638, 44.09668
1140.729, 8.151367
1141.821, 69.40234
1142.912, 46.34277
1144.003, 8.095703
1145.094, 31.80957
1146.185, 27.55762
1147.276, 26.86914
1148.366, 111.3857
1149.456, 83.92480
1150.547, 103.7148
1151.637, 46.07715
1152.727, 86.39355
1153.816, 20.65820
1154.906, 72.07812
1155.995, 18.74023
1157.085, 111.0293
1158.174, 38.65918
1159.263, 15.15918
1160.352, 125.3105
1161.441, 70.87402
1162.529, 17.86426
1163.618, 4.375977
1164.706, 153.3096
1165.794, 67.72070
1166.882, 28.85449
1167.970, 197.5215
1169.058, 77.45801
1170.145, 82.43457
1171.232, 8.500000
1172.320, 60.31738
1173.407, 74.62598
1174.494, 58.51562
1175.580, 31.02930
1176.667, 62.16699
1177.754, 60.34375
1178.840, 99.68555
1179.926, 59.38184
1181.012, 66.78906
1182.098, 174.5361
1183.184, 132.0381
1184.269, 102.3037
1185.355, 64.21777
1186.440, 85.70898
1187.525, 113.0273
1188.610, 10.40332
1189.695, 27.94824
1190.780, 10.64551
1191.864, 5.127930
1192.949, 43.52539
1194.033, 23.91406
1195.117, 4.640625
1196.201, 86.79102
1197.285, 104.1387
1198.369, 72.47559
1199.452, 82.09766
1200.536, 28.58691
1201.619, 91.90430
1202.702, 11.82715
1203.785, 34.40918
1204.868, 81.63574
1205.950, 54.84863
1207.033, 116.0518
1208.115, 96.24219
1209.197, 150.7842
1210.279, 139.4512
1211.361, 41.89453
1212.443, 80.23145
1213.525, 96.32227
1214.606, 15.60059
1215.687, 44.43652
1216.769, 80.54004
1217.850, 50.40820
1218.930, 50.65918
1220.011, 127.2129
1221.092, 58.07031
1222.172, 64.91309
1223.252, 91.74023
1224.333, 138.5518
1225.413, 85.34766
1226.492, 90.12598
1227.572, 163.8887
1228.652, 185.6328
1229.731, 92.36035
1230.810, 88.17578
1231.889, 171.8652
1232.968, 94.53516
1234.047, 122.1855
1235.126, 29.02246
1236.204, 133.5469
1237.283, 96.09473
1238.361, 156.6221
1239.439, 123.1279
1240.517, 130.6113
1241.595, 78.07324
1242.673, 8.486328
1243.750, 6.899414
1244.827, 10.33887
1245.905, 19.56348
1246.982, 23.80273
1248.059, 59.00195
1249.135, 74.38281
1250.212, 46.52441
1251.288, 33.36719
1252.365, 104.6699
1253.441, 26.31641
1254.517, 154.6279
1255.593, 98.54883
1256.669, 97.44531
1257.744, 251.3154
1258.820, 132.1631
1259.895, 71.02539
1260.970, 178.8184
1262.045, 315.5986
1263.120, 226.3535
1264.195, 95.19531
1265.270, 196.9004
1266.344, 167.4971
1267.418, 222.1543
1268.492, 165.4072
1269.566, 201.0371
1270.640, 183.6299
1271.714, 200.2002
1272.788, 182.1670
1273.861, 157.0020
1274.934, 298.1826
1276.007, 124.4785
1277.080, 112.6309
1278.153, 172.0557
