##NAMES=Axinite-(Fe)
##RRUFFID=R050061
##IDEAL CHEMISTRY=Ca_4_Fe^2+^_2_Al_4_[B_2_Si_8_O_30_](OH)_2_
##LOCALITY=Jamestown, California, USA
##OWNER=RRUFF
##SOURCE=Rock Currier
##DESCRIPTION=Brown colored axe-head-shaped single crystals
##STATUS=The identification of this mineral has been confirmed by X-ray diffraction and chemical analysis
##URL=rruff.info/R050061
##MEASURED CHEMISTRY=Ca_2.00_(Fe^2+^_0.73_Mg_0.20_Mn_0.07_)Al_2.00_BSi_4_O_15_(OH)
##PIN_ID=L00399
##ORIENTATION=Laser parallel to c* (0 0 1). Fiducial mark perpendicular to laser is parallel to a [1 0 0]
91.065, 0.000
92.466, 4.442
93.868, 7.090
95.269, 62.082
96.670, 160.083
98.070, 552.326
99.471, 791.022
100.871, 1032.798
102.271, 993.566
103.670, 976.335
105.070, 1335.838
106.469, 1777.213
107.868, 2353.067
109.267, 2835.787
110.665, 2914.679
112.063, 3186.709
113.461, 2831.604
114.859, 2515.002
116.256, 2193.467
117.653, 1972.932
119.050, 1724.521
120.447, 1733.086
121.843, 1574.334
123.240, 1560.846
124.636, 1182.112
126.031, 838.002
127.427, 636.549
128.822, 299.085
130.217, 150.151
131.612, 92.560
133.006, 151.474
134.400, 307.063
135.794, 621.135
137.188, 1205.142
138.581, 1640.501
139.975, 1958.714
141.368, 1677.550
142.760, 1612.786
144.153, 1498.647
145.545, 1497.336
146.937, 1875.236
148.329, 2263.334
149.720, 2781.618
151.112, 2947.075
152.503, 2930.688
153.893, 2419.449
155.284, 1703.352
156.674, 1155.373
158.064, 640.458
159.454, 406.592
160.843, 198.127
162.233, 151.541
163.622, 283.846
165.011, 568.870
166.399, 1079.956
167.787, 1702.185
169.175, 2410.869
170.563, 3091.338
171.951, 3515.928
173.338, 3420.637
174.725, 2923.505
176.112, 2258.664
177.499, 1460.112
178.885, 950.839
180.271, 399.830
181.657, 12.066
183.043, 226.469
184.428, 483.796
185.813, 450.932
187.198, 438.896
188.583, 272.707
189.967, 15.622
191.351, 356.074
192.735, 780.635
194.119, 922.282
195.502, 964.984
196.885, 595.762
198.268, 630.598
199.651, 718.446
201.033, 1140.300
202.415, 1832.161
203.797, 2549.030
205.179, 3516.909
206.561, 4321.800
207.942, 5173.699
209.323, 5847.554
210.703, 6181.297
212.084, 6545.027
213.464, 6608.776
214.844, 7112.542
216.224, 7146.330
217.603, 7360.135
218.983, 7143.955
220.362, 6287.553
221.741, 5236.418
223.119, 3582.595
224.497, 2625.595
225.875, 1636.650
227.253, 1009.769
228.631, 587.007
230.008, 289.267
231.385, 137.503
232.762, 0.964
234.139, 21.784
235.515, 88.834
236.891, 285.050
238.267, 511.400
239.643, 627.842
241.018, 794.330
242.393, 664.818
243.768, 1045.407
245.143, 413.938
246.517, 406.413
247.891, 523.884
249.265, 854.372
250.639, 1518.874
252.012, 2342.388
253.386, 3567.913
254.759, 4482.453
256.131, 4968.007
257.504, 4930.646
258.876, 4244.256
260.248, 4055.049
261.620, 3846.031
262.991, 4052.034
264.363, 4424.014
265.734, 4953.942
267.104, 5616.790
268.475, 5905.533
269.845, 6366.161
271.215, 6606.652
272.585, 6907.003
273.955, 7047.217
275.324, 6687.277
276.693, 6597.151
278.062, 5996.814
279.431, 5598.350
280.799, 4756.720
282.167, 4213.862
283.535, 3946.791
284.903, 3727.535
286.270, 3864.110
287.638, 3794.535
289.005, 4030.824
290.371, 3977.978
291.738, 3913.877
293.104, 4038.493
294.470, 3780.860
295.836, 3751.413
297.201, 3318.341
298.567, 3062.653
299.932, 2775.901
301.296, 2339.084
302.661, 2356.709
304.025, 2320.166
305.389, 2501.726
306.753, 2595.184
308.117, 2868.676
309.480, 3179.198
310.843, 3536.751
312.206, 4427.336
313.569, 5686.950
314.931, 7530.593
316.293, 9705.263
317.655, 11599.965
319.017, 13204.688
320.378, 12909.440
321.740, 12154.217
323.101, 10408.404
324.461, 8551.203
325.822, 7330.917
327.182, 6109.479
328.542, 5685.937
329.902, 5413.918
331.261, 5425.728
332.621, 5740.562
333.980, 6119.417
335.339, 6874.299
336.697, 7729.204
338.056, 9414.133
339.414, 11149.087
340.772, 13204.063
342.129, 15029.060
343.487, 15444.076
344.844, 15357.848
346.201, 12743.780
347.557, 10174.958
348.914, 7490.177
350.270, 5267.649
351.626, 4054.060
352.982, 2961.082
354.337, 2169.347
355.693, 1549.227
357.048, 1060.404
358.402, 780.595
359.757, 474.080
361.111, 320.599
362.465, 124.606
363.819, 136.814
365.173, 85.966
366.526, 80.510
367.879, 275.946
369.232, 244.132
370.585, 471.172
371.937, 583.590
373.290, 727.241
374.642, 872.877
375.993, 818.837
377.345, 921.284
378.696, 877.567
380.047, 1281.686
381.398, 1566.055
382.748, 2082.917
384.099, 2958.430
385.449, 3579.266
386.799, 4491.846
388.148, 4975.129
389.497, 4969.714
390.847, 4816.218
392.196, 3940.905
393.544, 3448.924
394.893, 2624.842
396.241, 2305.987
397.589, 2062.697
398.936, 1779.582
400.284, 1935.083
401.631, 1762.499
402.978, 1801.914
404.325, 1694.327
405.672, 1522.739
407.018, 1508.149
408.364, 1343.255
409.710, 1545.340
411.055, 1732.746
412.401, 2102.149
413.746, 2636.550
415.091, 3318.949
416.435, 4385.345
417.780, 5042.740
419.124, 6253.131
420.468, 7211.495
421.812, 8316.833
423.155, 9622.145
424.498, 9877.428
425.842, 10712.681
427.184, 10187.903
428.527, 9533.101
429.869, 8878.266
431.211, 7433.402
432.553, 6308.512
433.895, 5083.593
435.236, 4190.647
436.577, 3435.675
437.918, 3107.002
439.259, 3353.043
440.599, 3646.846
441.940, 4729.594
443.280, 5585.224
444.619, 6190.033
445.959, 6454.762
447.298, 5292.763
448.637, 4094.573
449.976, 2955.362
451.315, 2028.131
452.653, 1379.879
453.991, 894.608
455.329, 702.319
456.667, 516.013
458.004, 387.693
459.341, 349.362
460.678, 252.018
462.015, 328.656
463.352, 327.277
464.688, 456.883
466.024, 625.479
467.360, 839.070
468.695, 1151.655
470.031, 1212.234
471.366, 1312.807
472.701, 1260.374
474.035, 1216.955
475.370, 1173.531
476.704, 1134.130
478.038, 1499.761
479.372, 1817.422
480.705, 2504.119
482.038, 3331.852
483.371, 3930.632
484.704, 4736.442
486.037, 4519.294
487.369, 4007.230
488.701, 3108.238
490.033, 2147.301
491.365, 1595.414
492.696, 1113.555
494.027, 945.727
495.358, 761.921
496.689, 733.117
498.019, 802.302
499.350, 706.477
500.680, 837.640
502.009, 843.793
503.339, 836.935
504.668, 930.064
505.997, 871.187
507.326, 957.339
508.655, 885.581
509.983, 893.979
511.311, 947.525
512.639, 887.215
513.967, 910.002
515.295, 750.834
516.622, 641.666
517.949, 426.502
519.276, 242.333
520.602, 208.156
521.929, 19.037
523.255, 132.689
524.581, 210.423
525.906, 247.564
527.232, 244.951
528.557, 319.773
529.882, 252.979
531.207, 290.178
532.531, 229.569
533.855, 149.120
535.179, 153.788
536.503, 49.578
537.827, 78.434
539.150, 91.372
540.473, 0.602
541.796, 118.465
543.119, 51.364
544.441, 5.835
545.764, 44.921
547.086, 94.649
548.407, 46.351
549.729, 57.025
551.050, 35.670
552.371, 168.287
553.692, 173.884
555.013, 261.467
556.333, 514.051
557.653, 721.633
558.973, 1063.207
560.293, 1396.767
561.612, 1576.307
562.932, 1742.829
564.251, 1595.331
565.569, 1640.815
566.888, 1578.279
568.206, 1694.725
569.524, 1885.153
570.842, 2198.562
572.160, 2467.951
573.477, 2551.320
574.795, 2493.670
576.112, 2359.000
577.428, 1952.311
578.745, 1594.601
580.061, 1374.872
581.377, 1086.122
582.693, 1044.354
584.009, 884.564
585.324, 922.755
586.639, 865.927
587.954, 929.079
589.269, 960.211
590.583, 753.324
591.897, 624.417
593.212, 417.490
594.525, 332.545
595.839, 213.580
597.152, 52.592
598.465, 86.576
599.778, 14.532
601.091, 16.448
602.403, 67.325
603.716, 79.173
605.028, 246.995
606.339, 401.796
607.651, 637.578
608.962, 889.341
610.273, 1251.085
611.584, 1683.809
612.895, 2013.515
614.205, 2546.202
615.515, 2868.870
616.825, 3091.519
618.135, 3469.149
619.444, 3278.505
620.754, 3396.097
622.063, 2860.669
623.372, 2340.224
624.680, 2323.759
625.989, 1795.275
627.297, 1058.772
628.605, 723.251
629.912, 587.745
631.220, 588.682
632.527, 528.386
633.834, 644.985
635.141, 706.364
636.447, 931.821
637.754, 1179.996
639.060, 1429.882
640.366, 1795.809
641.671, 2116.810
642.977, 2298.853
644.282, 2526.958
645.587, 2349.339
646.892, 2360.759
648.196, 1963.293
649.501, 1638.798
650.805, 1450.732
652.109, 1059.838
653.412, 982.918
654.716, 716.926
656.019, 579.905
657.322, 552.855
658.625, 522.776
659.927, 508.668
661.230, 451.531
662.532, 494.366
663.834, 617.172
665.135, 636.949
666.437, 828.696
667.738, 963.414
669.039, 1150.100
670.340, 1452.769
671.640, 1829.926
672.940, 2524.798
674.241, 3006.975
675.540, 3566.956
676.840, 4033.769
678.139, 3865.839
679.439, 3792.494
680.738, 3193.927
682.036, 2618.396
683.335, 2186.455
684.633, 1768.805
685.931, 1454.982
687.229, 1188.489
688.527, 1019.599
689.824, 946.459
691.121, 926.317
692.418, 962.836
693.715, 958.852
695.012, 1083.014
696.308, 1348.323
697.604, 1398.368
698.900, 1889.902
700.195, 2061.772
701.491, 2673.307
702.786, 3347.088
704.081, 4089.157
705.376, 5380.918
706.670, 6919.016
707.964, 8675.385
709.259, 10955.700
710.552, 13246.019
711.846, 15956.688
713.139, 17327.535
714.433, 18228.363
715.726, 17129.178
717.018, 15029.973
718.311, 12750.747
719.603, 10231.507
720.895, 8002.247
722.187, 6750.971
723.479, 4937.677
724.770, 4178.366
726.061, 3349.039
727.352, 2693.695
728.643, 2286.335
729.934, 1844.958
731.224, 1607.565
732.514, 1320.156
733.804, 1115.731
735.094, 986.291
736.383, 814.835
737.672, 720.364
738.961, 634.877
740.250, 515.375
741.539, 585.859
742.827, 412.327
744.115, 439.781
745.403, 326.221
746.691, 353.647
747.978, 355.058
749.265, 342.455
750.552, 443.839
751.839, 366.882
753.126, 465.172
754.412, 597.662
755.698, 575.170
756.984, 789.757
758.270, 840.130
759.555, 917.548
760.840, 1092.660
762.125, 1147.930
763.410, 1367.188
764.695, 1478.434
765.979, 1524.670
767.263, 1586.894
768.547, 1451.107
769.831, 1464.310
771.114, 1249.501
772.398, 1039.683
773.681, 916.854
774.964, 714.016
776.246, 594.167
777.529, 458.309
778.811, 366.441
780.093, 293.565
781.375, 171.678
782.656, 158.783
783.937, 99.878
785.219, 46.035
786.499, 36.998
787.780, 73.980
789.060, 119.025
790.341, 105.159
791.621, 133.374
792.901, 129.686
794.180, 179.091
795.459, 101.616
796.739, 135.218
798.017, 232.916
799.296, 174.759
800.575, 160.716
801.853, 179.780
803.131, 116.960
804.409, 125.222
805.686, 97.570
806.964, 17.988
808.241, 141.567
809.518, 251.116
810.795, 147.661
812.071, 241.202
813.347, 207.738
814.623, 250.271
815.899, 308.800
817.175, 214.325
818.450, 195.848
819.726, 310.368
821.001, 385.886
822.275, 626.401
823.550, 26.914
824.824, 73.575
826.098, 18.110
827.372, 60.662
828.646, 23.251
829.920, 26.858
831.193, 7.516
832.466, 13.889
833.739, 46.277
835.011, 90.710
836.284, 123.209
837.556, 135.785
838.828, 259.437
840.100, 260.186
841.371, 377.014
842.642, 506.932
843.914, 572.925
845.184, 730.972
846.455, 785.073
847.726, 1028.207
848.996, 1162.375
850.266, 1222.583
851.536, 1423.816
852.805, 1394.096
854.075, 1512.386
855.344, 1469.702
856.613, 1427.027
857.881, 1607.371
859.150, 1452.726
860.418, 1482.091
861.686, 1554.477
862.954, 1520.872
864.222, 1628.276
865.489, 1491.694
866.756, 1654.118
868.023, 1629.606
869.290, 1592.036
870.557, 1612.438
871.823, 1644.896
873.089, 1519.363
874.355, 1789.840
875.621, 1583.326
876.886, 1745.825
878.152, 1769.339
879.417, 1713.867
880.682, 1812.408
881.946, 1678.976
883.211, 1807.558
884.475, 1849.169
885.739, 1813.795
887.003, 1957.428
888.266, 1993.080
889.530, 2219.741
890.793, 2577.412
892.056, 2620.103
893.318, 3059.804
894.581, 3374.524
895.843, 3786.268
897.105, 4297.020
898.367, 4690.792
899.629, 5440.579
900.890, 5888.375
902.152, 6640.196
903.413, 7376.033
904.673, 7365.883
905.934, 7715.750
907.194, 7625.632
908.454, 6915.544
909.714, 6745.479
910.974, 5928.430
912.234, 5346.400
913.493, 4782.383
914.752, 4040.389
916.011, 3627.407
917.270, 3161.439
918.528, 2738.483
919.786, 2669.540
921.044, 2215.612
922.302, 2250.705
923.560, 2130.815
924.817, 2034.944
926.074, 2119.089
927.331, 2053.248
928.588, 2124.429
929.844, 2180.625
931.101, 2158.836
932.357, 2317.074
933.613, 2289.326
934.868, 2449.593
936.124, 2615.844
937.379, 2689.647
938.634, 3167.688
939.889, 3179.833
941.144, 3467.192
942.398, 4037.481
943.652, 4345.049
944.906, 5122.903
946.160, 5754.714
947.414, 6410.446
948.667, 7394.133
949.920, 8048.762
951.173, 9077.114
952.426, 9986.425
953.678, 10564.616
954.931, 12306.833
956.183, 13138.612
957.435, 14972.217
958.686, 17540.848
959.938, 19151.547
961.189, 21822.262
962.440, 23163.020
963.691, 23173.805
964.941, 23304.607
966.192, 20625.439
967.442, 18816.297
968.692, 17647.180
969.942, 15448.080
971.191, 15459.015
972.441, 14709.972
973.690, 15220.954
974.939, 16441.951
976.187, 16748.449
977.436, 18098.229
978.684, 17595.695
979.932, 17305.357
981.180, 16294.899
982.428, 14466.030
983.675, 13387.224
984.922, 12068.442
986.169, 11149.688
987.416, 10790.959
988.663, 10002.257
989.909, 9933.579
991.155, 9655.042
992.401, 8786.415
993.647, 8897.817
994.893, 8579.545
996.138, 8410.996
997.383, 8553.190
998.628, 8194.688
999.873, 8466.233
1001.117, 8059.781
1002.362, 7391.343
1003.606, 7393.181
1004.850, 6559.440
1006.093, 5920.077
1007.337, 5477.767
1008.580, 4521.852
1009.823, 4143.557
1011.066, 3528.424
1012.308, 2955.438
1013.551, 2817.520
1014.793, 2271.567
1016.035, 2116.479
1017.277, 1903.670
1018.518, 1571.018
1019.760, 1630.011
1021.001, 1527.440
1022.242, 1501.804
1023.483, 1591.322
1024.723, 1537.706
1025.964, 1682.028
1027.204, 1641.572
1028.444, 1491.957
1029.683, 1495.877
1030.923, 1249.373
1032.162, 1149.771
1033.401, 1080.528
1034.640, 902.815
1035.879, 936.986
1037.117, 758.106
1038.355, 838.314
1039.593, 826.908
1040.831, 814.372
1042.069, 936.636
1043.306, 878.241
1044.544, 839.276
1045.781, 1008.590
1047.017, 928.240
1048.254, 1095.001
1049.490, 1221.380
1050.726, 1219.022
1051.962, 1372.650
1053.198, 1353.076
1054.434, 1431.798
1055.669, 1466.256
1056.904, 1423.942
1058.139, 1417.764
1059.374, 1361.980
1060.608, 1273.357
1061.843, 1212.890
1063.077, 1067.960
1064.311, 962.594
1065.544, 916.646
1066.778, 777.273
1068.011, 821.934
1069.244, 753.028
1070.477, 736.535
1071.710, 860.173
1072.942, 926.997
1074.174, 1013.652
1075.406, 1234.531
1076.638, 1374.064
1077.870, 1833.329
1079.101, 1940.250
1080.332, 2197.313
1081.563, 2455.133
1082.794, 2305.302
1084.025, 2183.029
1085.255, 1926.823
1086.485, 1502.467
1087.715, 1412.859
1088.945, 1053.796
1090.175, 967.673
1091.404, 810.644
1092.633, 630.742
1093.862, 629.317
1095.091, 553.515
1096.319, 476.791
1097.548, 544.728
1098.776, 451.241
1100.004, 483.056
1101.231, 512.609
1102.459, 463.193
1103.686, 582.848
1104.913, 523.517
1106.140, 488.399
1107.367, 488.516
1108.593, 377.159
1109.819, 450.876
1111.046, 339.615
1112.271, 315.622
1113.497, 346.349
1114.722, 271.174
1115.948, 259.965
1117.173, 211.812
1118.398, 167.630
1119.622, 166.082
1120.847, 143.842
1122.071, 132.045
1123.295, 171.123
1124.519, 112.987
1125.742, 189.976
1126.966, 103.521
1128.189, 23.300
1129.412, 108.291
1130.635, 34.086
1131.857, 45.995
1133.080, 42.095
1134.302, 20.948
1135.524, 16.751
1136.746, 16.577
1137.967, 8.344
1139.188, 8.685
1140.410, 16.019
1141.631, 17.140
1142.851, 68.799
1144.072, 30.401
1145.292, 3.781
1146.512, 0.165
1147.732, 58.175
1148.952, 17.806
1150.172, 12.844
1151.391, 48.714
1152.610, 61.134
1153.829, 54.968
1155.048, 16.876
1156.266, 6.435
1157.484, 54.869
1158.702, 11.057
1159.920, 12.119
1161.138, 34.796
1162.356, 3.058
1163.573, 12.178
1164.790, 15.360
1166.007, 3.061
1167.224, 15.270
1168.440, 18.296
1169.656, 14.825
1170.872, 5.012
1172.088, 29.814
1173.304, 32.560
1174.519, 28.578
1175.735, 18.774
1176.950, 76.976
1178.165, 25.331
1179.379, 78.733
1180.594, 21.217
1181.808, 21.282
1183.022, 33.247
1184.236, 27.252
1185.449, 4.255
1186.663, 35.287
1187.876, 40.178
1189.089, 35.317
1190.302, 41.061
1191.515, 37.291
1192.727, 32.664
1193.939, 0.328
1195.151, 42.181
1196.363, 44.617
1197.575, 11.488
1198.786, 57.845
1199.997, 6.067
1201.208, 51.138
1202.419, 24.301
1203.630, 18.729
1204.840, 26.747
1206.051, 0.204
1207.261, 40.860
1208.470, 25.516
1209.680, 22.424
1210.889, 9.352
1212.099, 34.263
1213.308, 31.205
1214.516, 12.090
1215.725, 11.043
1216.933, 3.795
1218.142, 1.610
1219.350, 5.401
1220.557, 25.169
1221.765, 7.078
1222.972, 16.645
1224.180, 28.349
1225.387, 28.964
1226.593, 44.681
1227.800, 24.311
1229.006, 11.922
1230.213, 63.510
1231.419, 17.916
1232.624, 23.677
1233.830, 54.191
1235.035, 18.208
1236.241, 72.252
1237.446, 14.699
1238.650, 30.115
1239.855, 63.514
1241.059, 56.898
1242.264, 10.732
1243.468, 46.625
1244.671, 37.053
1245.875, 56.378
1247.078, 65.658
1248.282, 61.051
1249.485, 70.295
1250.687, 50.522
1251.890, 41.728
1253.092, 112.909
1254.295, 5.072
1255.497, 79.427
1256.699, 51.542
1257.900, 87.699
1259.102, 66.773
1260.303, 77.819
1261.504, 67.845
1262.705, 75.865
1263.905, 79.828
1265.106, 80.783
1266.306, 90.711
1267.506, 58.614
1268.706, 81.482
1269.905, 68.319
1271.105, 44.125
1272.304, 129.897
1273.503, 74.640
1274.702, 134.353
1275.900, 92.036
1277.099, 69.693
1278.297, 108.323
1279.495, 127.930
1280.693, 73.513
1281.891, 120.071
1283.088, 79.486
1284.285, 28.992
1285.482, 117.464
1286.679, 93.591
1287.876, 145.000
1289.072, 70.659
1290.268, 80.012
1291.464, 86.318
1292.660, 83.621
1293.856, 60.900
1295.051, 72.905
1296.247, 40.487
1297.442, 91.688
1298.637, 70.835
1299.831, 58.586
1301.026, 43.714
1302.220, 37.680
1303.414, 34.161
1304.608, 55.907
1305.802, 38.684
1306.995, 62.595
1308.188, 45.222
1309.381, 54.693
1310.574, 36.559
1311.767, 71.940
1312.960, 46.146
1314.152, 83.450
1315.344, 57.082
1316.536, 52.553
1317.728, 64.798
1318.919, 75.196
1320.110, 74.056
1321.301, 81.676
1322.492, 84.911
1323.683, 88.920
1324.874, 87.545
1326.064, 92.981
1327.254, 78.614
1328.444, 78.156
1329.634, 42.307
1330.823, 74.640
1332.013, 69.114
1333.202, 114.242
1334.391, 78.938
1335.580, 29.348
1336.768, 71.421
1337.956, 5.593
1339.145, 97.743
1340.333, 102.799
1341.520, 57.865
1342.708, 72.128
1343.895, 108.089
1345.083, 39.311
1346.270, 126.298
1347.456, 118.432
1348.643, 92.572
1349.829, 83.870
1351.016, 30.078
1352.202, 153.653
1353.387, 101.657
1354.573, 140.237
1355.759, 89.236
1356.944, 139.196
1358.129, 113.717
1359.314, 131.128
1360.498, 126.970
1361.683, 135.617
1362.867, 140.557
1364.051, 127.777
1365.235, 138.424
1366.419, 119.361
1367.602, 112.485
1368.785, 147.883
1369.968, 112.621
1371.151, 118.993
1372.334, 134.797
1373.517, 97.529
1374.699, 71.429
1375.881, 132.587
1377.063, 56.274
1378.245, 104.847
1379.426, 151.896
1380.608, 109.036
1381.789, 138.438
1382.970, 85.693
1384.150, 87.920
1385.331, 76.539
1386.511, 51.671
1387.691, 71.513
1388.871, 87.544
1390.051, 47.460
1391.231, 89.360
1392.410, 100.265
1393.589, 95.781
1394.768, 88.642
1395.947, 99.396
1397.126, 35.208
1398.304, 125.689
1399.483, 61.206
1400.661, 113.725
1401.838, 114.573
1403.016, 87.112
1404.194, 102.969
1405.371, 92.085
1406.548, 96.475
1407.725, 109.420
1408.901, 122.696
1410.078, 119.553
1411.254, 116.913
1412.430, 114.568
1413.606, 102.771
1414.782, 95.951
1415.958, 100.662
1417.133, 153.005
1418.308, 97.139
1419.483, 60.613
1420.658, 116.390
1421.832, 76.237
1423.007, 107.927
1424.181, 125.821
1425.355, 60.593
1426.529, 133.209
1427.702, 50.358
1428.876, 52.304
1430.049, 48.736
1431.222, 147.907
1432.395, 43.887
1433.567, 91.632
1434.740, 76.450
1435.912, 76.354
1437.084, 88.146
1438.256, 58.002
1439.428, 71.862
1440.599, 38.713
1441.770, 40.565
1442.942, 93.418
1444.112, 5.732
1445.283, 72.106
1446.454, 61.844
1447.624, 35.481
1448.794, 68.323
1449.964, 79.140
1451.134, 19.874
1452.303, 60.320
1453.473, 60.732
1454.642, 32.378
1455.811, 56.990
1456.980, 40.039
1458.148, 56.403
1459.317, 83.889
1460.485, 34.352
1461.653, 1.204
1462.821, 70.252
1463.989, 35.766
1465.156, 55.341
1466.323, 66.975
1467.490, 63.655
1468.657, 81.342
1469.824, 31.021
1470.991, 4.716
1472.157, 90.484
1473.323, 21.299
1474.489, 38.131
1475.655, 78.975
1476.820, 20.829
1477.986, 6.680
1479.151, 49.526
1480.316, 23.756
1481.481, 76.506
1482.645, 47.252
1483.810, 31.795
1484.974, 68.537
1486.138, 27.287
1487.302, 48.072
1488.465, 76.879
1489.629, 67.638
1490.792, 2.555
1491.955, 44.263
1493.118, 22.087
1494.281, 23.556
1495.443, 44.357
1496.606, 9.144
1497.768, 90.682
1498.930, 41.603
1500.091, 1.454
1501.253, 47.515
