##NAMES=Axinite-(Fe)
##RRUFFID=R040074
##IDEAL CHEMISTRY=Ca_4_Fe^2+^_2_Al_4_[B_2_Si_8_O_30_](OH)_2_
##LOCALITY=Luning, Nevada, USA
##OWNER=RRUFF
##SOURCE=University of Arizona Mineral Museum
##DESCRIPTION=Pale brown wedge-shaped crystal
##STATUS=The identification of this mineral has been confirmed by X-ray diffraction and chemical analysis
##URL=rruff.info/R040074
##MEASURED CHEMISTRY=(Ca_0.98_Mn_0.01_)_2_(Fe_0.41_Mg_0.39_Mn_0.20_)Al_1.95_B_1.20_Si_3.90_O_15_(OH)
##PIN_ID=L00197
##ORIENTATION=Laser parallel to c* (0 0 1). Fiducial mark perpendicular to laser is parallel to -a [-1 0 0]
91.398, 0.000
92.793, 101.453
94.188, 12.103
95.582, 133.481
96.976, 182.849
98.370, 329.263
99.764, 701.830
101.157, 1035.405
102.550, 1698.252
103.943, 2659.042
105.336, 4196.198
106.729, 5796.441
108.121, 7117.900
109.513, 7839.807
110.905, 7903.963
112.297, 7710.689
113.688, 6581.719
115.079, 5886.237
116.470, 5077.141
117.861, 4472.867
119.251, 3633.506
120.642, 2869.781
122.032, 2342.287
123.422, 1901.521
124.811, 1291.887
126.201, 832.586
127.590, 377.034
128.979, 213.942
130.367, 141.430
131.756, 74.759
133.144, 300.158
134.532, 608.833
135.920, 1066.646
137.307, 2144.306
138.695, 3426.254
140.082, 4645.930
141.469, 5597.393
142.856, 6222.238
144.242, 6447.096
145.628, 6211.997
147.014, 5816.955
148.400, 5191.966
149.786, 4697.031
151.171, 4172.140
152.556, 3867.295
153.941, 3392.490
155.325, 2867.723
156.710, 2329.974
158.094, 2018.190
159.478, 1773.912
160.862, 1600.646
162.245, 1588.093
163.629, 1782.020
165.012, 1878.274
166.395, 2319.602
167.777, 2857.050
169.160, 3534.604
170.542, 3927.249
171.924, 4029.978
173.306, 3822.789
174.687, 3205.724
176.068, 2656.909
177.449, 1912.352
178.830, 1213.058
180.211, 646.019
181.591, 84.224
182.972, 193.341
184.351, 410.691
185.731, 421.842
187.111, 443.810
188.490, 225.612
189.869, 93.734
191.248, 445.216
192.626, 746.820
194.005, 1110.535
195.383, 1105.356
196.761, 1014.384
198.139, 858.787
199.516, 897.424
200.893, 1211.100
202.271, 1701.774
203.647, 2203.442
205.024, 3302.104
206.400, 4168.763
207.777, 4395.416
209.152, 5012.064
210.528, 5388.695
211.904, 5815.307
213.279, 5791.898
214.654, 5858.469
216.029, 5705.032
217.403, 5211.583
218.778, 4618.118
220.152, 3854.414
221.526, 3217.960
222.900, 2266.756
224.273, 1659.358
225.646, 1057.983
227.019, 583.636
228.392, 258.361
229.765, 120.014
231.137, 113.732
232.509, 222.745
233.881, 181.784
235.253, 117.504
236.625, 312.028
237.996, 684.992
239.367, 1087.976
240.738, 1071.979
242.108, 1085.017
243.479, 1030.027
244.849, 819.780
246.219, 843.250
247.589, 927.692
248.958, 1235.137
250.328, 1726.583
251.697, 2355.030
253.065, 2863.479
254.434, 3397.928
255.803, 3523.377
257.171, 3804.930
258.539, 4056.422
259.906, 4257.773
261.274, 4639.888
262.641, 5532.163
264.008, 6554.537
265.375, 7946.960
266.742, 9269.395
268.108, 10751.816
269.475, 12174.195
270.840, 13236.500
272.206, 13778.720
273.572, 13770.845
274.937, 13522.874
276.302, 12604.790
277.667, 11186.586
279.032, 9708.279
280.396, 8239.819
281.760, 6871.132
283.125, 5962.240
284.488, 5263.167
285.852, 4823.932
287.215, 4564.550
288.578, 4485.031
289.941, 4575.387
291.304, 4575.623
292.666, 4875.726
294.029, 5055.701
295.391, 5345.331
296.753, 5625.144
298.114, 5805.864
299.476, 5957.474
300.837, 5957.377
302.198, 5807.442
303.558, 5587.260
304.919, 5472.408
306.279, 5261.977
307.639, 5080.122
308.999, 5027.376
310.359, 5004.005
311.718, 5110.637
313.077, 5497.269
314.436, 6153.907
315.795, 7290.546
317.154, 8637.185
318.512, 9913.826
319.870, 10660.462
321.228, 10777.097
322.586, 10153.729
323.943, 8870.361
325.300, 7656.812
326.657, 6522.898
328.014, 5788.770
329.371, 5244.641
330.727, 4880.523
332.083, 4601.208
333.439, 4472.323
334.795, 4548.240
336.150, 4784.269
337.506, 5170.600
338.861, 6376.929
340.215, 7753.143
341.570, 9589.114
342.924, 11105.100
344.279, 12120.634
345.633, 12178.741
346.986, 11660.704
348.340, 10209.202
349.693, 9047.167
351.046, 7963.912
352.399, 7104.511
353.752, 6293.791
355.104, 5398.630
356.457, 4384.642
357.809, 3229.653
359.160, 2162.663
360.512, 1475.113
361.863, 982.129
363.214, 431.574
364.565, 294.055
365.916, 84.177
367.267, 32.629
368.617, 1.837
369.967, 37.684
371.317, 237.831
372.666, 283.125
374.016, 355.194
375.365, 375.471
376.714, 405.526
378.063, 421.351
379.411, 514.566
380.760, 614.200
382.108, 892.239
383.456, 1312.185
384.803, 1866.319
386.151, 2669.312
387.498, 3474.498
388.845, 4210.468
390.192, 4607.403
391.539, 4684.290
392.885, 4159.366
394.231, 3579.625
395.577, 2884.029
396.923, 2239.201
398.269, 1920.249
399.614, 1972.487
400.959, 1725.053
402.304, 1815.606
403.649, 1884.146
404.993, 1731.672
406.337, 1787.184
407.681, 1730.683
409.025, 1945.170
410.369, 2404.645
411.712, 3278.108
413.055, 4607.561
414.398, 6372.998
415.741, 8168.423
417.084, 9073.837
418.426, 9729.236
419.768, 9394.600
421.110, 8759.928
422.452, 8605.217
423.793, 8590.470
425.134, 9005.681
426.475, 8850.851
427.816, 8755.977
429.157, 8131.062
430.497, 7556.103
431.837, 6791.104
433.177, 5786.062
434.517, 4790.979
435.857, 4001.854
437.196, 3640.687
438.535, 3401.478
439.874, 3840.226
441.213, 4964.934
442.551, 6030.074
443.889, 7195.331
445.227, 7731.125
446.565, 7126.865
447.903, 6002.604
449.240, 4487.933
450.577, 2991.731
451.914, 2017.125
453.251, 1320.482
454.588, 868.802
455.924, 516.085
457.260, 256.333
458.596, 163.542
459.932, 2.707
461.267, 144.186
462.602, 156.208
463.938, 171.363
465.272, 112.655
466.607, 24.047
467.941, 49.511
469.276, 261.035
470.610, 423.608
471.943, 689.548
473.277, 602.837
474.610, 630.697
475.944, 694.868
477.276, 861.930
478.609, 1230.502
479.942, 1753.120
481.274, 2548.789
482.606, 3689.498
483.938, 4922.263
485.270, 5566.083
486.601, 5899.946
487.932, 5063.856
489.263, 3803.824
490.594, 2691.829
491.925, 1613.877
493.255, 1002.942
494.585, 648.018
495.915, 371.073
497.245, 301.308
498.575, 303.875
499.904, 334.789
501.233, 433.007
502.562, 524.180
503.891, 757.472
505.219, 1006.759
506.548, 1337.581
507.876, 1495.181
509.203, 1761.357
510.531, 1810.578
511.859, 1784.942
513.186, 1620.392
514.513, 1392.860
515.840, 1074.330
517.166, 879.775
518.493, 577.206
519.819, 291.613
521.145, 156.000
522.470, 52.351
523.796, 126.358
525.121, 247.781
526.446, 300.669
527.771, 280.811
529.096, 323.058
530.421, 296.169
531.745, 171.169
533.069, 72.157
534.393, 57.054
535.716, 106.311
537.040, 157.657
538.363, 60.035
539.686, 195.765
541.009, 95.510
542.331, 114.213
543.654, 66.875
544.976, 98.492
546.298, 51.067
547.620, 3.402
548.941, 53.072
550.263, 21.498
551.584, 61.125
552.905, 4.771
554.225, 102.590
555.546, 311.002
556.866, 594.459
558.186, 759.898
559.506, 979.108
560.826, 1143.723
562.145, 1325.035
563.465, 1428.347
564.784, 1510.625
566.103, 1635.869
567.421, 1914.079
568.740, 2312.255
570.058, 2855.396
571.376, 3192.504
572.694, 3764.576
574.011, 3989.614
575.329, 4019.617
576.646, 3753.586
577.963, 3298.520
579.279, 2990.418
580.596, 2477.282
581.912, 2333.111
583.228, 2109.905
584.544, 2310.663
585.860, 2543.387
587.175, 2896.076
588.491, 2949.831
589.806, 2981.673
591.121, 2808.473
592.435, 2347.244
593.750, 1897.937
595.064, 1356.485
596.378, 990.930
597.692, 689.339
599.006, 455.713
600.319, 277.053
601.632, 239.354
602.945, 101.615
604.258, 104.831
605.571, 96.001
606.883, 184.127
608.195, 302.212
609.507, 444.258
610.819, 684.269
612.131, 926.246
613.442, 1126.188
614.753, 1360.095
616.064, 1602.279
617.375, 1948.045
618.685, 2073.795
619.995, 2182.121
621.306, 1983.677
622.615, 1729.268
623.925, 1350.083
625.235, 931.649
626.544, 601.722
627.853, 340.479
629.162, 248.454
630.471, 167.724
631.779, 44.397
633.087, 215.469
634.395, 255.564
635.703, 577.482
637.011, 711.896
638.318, 998.707
639.625, 1467.969
640.932, 1720.806
642.239, 1916.522
643.546, 2058.716
644.852, 2063.104
646.158, 1998.052
647.464, 1844.330
648.770, 1514.208
650.076, 1152.039
651.381, 961.533
652.686, 688.359
653.991, 493.404
655.296, 406.733
656.600, 317.022
657.905, 237.388
659.209, 241.949
660.513, 206.454
661.817, 201.901
663.120, 314.290
664.423, 385.625
665.726, 517.909
667.029, 692.698
668.332, 904.809
669.635, 1331.923
670.937, 1730.638
672.239, 2269.618
673.541, 2739.748
674.842, 3308.501
676.144, 3628.528
677.445, 3668.287
678.746, 3345.970
680.047, 3012.027
681.348, 2400.903
682.648, 1887.704
683.948, 1431.104
685.248, 1211.407
686.548, 961.015
687.848, 806.267
689.147, 791.318
690.447, 752.539
691.746, 781.496
693.044, 875.621
694.343, 982.922
695.641, 1206.776
696.940, 1356.159
698.238, 1677.081
699.535, 1940.042
700.833, 2633.765
702.130, 3091.581
703.427, 4047.159
704.724, 5260.903
706.021, 6627.412
707.318, 8472.198
708.614, 10754.483
709.910, 14080.006
711.206, 17256.562
712.502, 20333.963
713.798, 21791.666
715.093, 22379.328
716.388, 20926.953
717.683, 17734.533
718.978, 15162.080
720.272, 11729.588
721.567, 9507.056
722.861, 7154.484
724.155, 5721.876
725.448, 4567.229
726.742, 3537.544
728.035, 2855.822
729.328, 2359.063
730.621, 2003.267
731.914, 1645.433
733.206, 1290.562
734.499, 1234.655
735.791, 932.712
737.083, 699.732
738.374, 715.716
739.666, 574.663
740.957, 481.574
742.248, 403.450
743.539, 376.290
744.830, 346.093
746.120, 346.859
747.410, 344.753
748.701, 354.279
749.990, 379.663
751.280, 417.661
752.570, 461.139
753.859, 523.689
755.148, 561.206
756.437, 606.213
757.725, 723.030
759.014, 772.237
760.302, 1120.424
761.590, 1124.035
762.878, 1473.993
764.166, 1350.907
765.453, 1389.155
766.740, 1613.370
768.027, 1517.552
769.314, 1436.702
770.601, 1405.819
771.887, 1135.907
773.174, 1008.967
774.460, 761.006
775.745, 550.061
777.031, 458.134
778.316, 245.230
779.602, 168.329
780.887, 140.405
782.172, 5.448
783.456, 41.370
784.741, 26.138
786.025, 113.074
787.309, 56.682
788.593, 121.686
789.876, 151.685
791.160, 208.306
792.443, 231.605
793.726, 192.073
795.009, 250.210
796.291, 249.540
797.574, 207.060
798.856, 214.748
800.138, 245.608
801.420, 184.656
802.702, 195.858
803.983, 101.219
805.264, 81.690
806.545, 102.740
807.826, 251.136
809.107, 390.297
810.387, 622.070
811.667, 748.445
812.947, 905.462
814.227, 824.474
815.507, 714.312
816.786, 733.106
818.065, 495.348
819.344, 408.864
820.623, 183.910
821.902, 93.020
823.180, 78.099
824.459, 33.855
825.737, 55.869
827.014, 31.045
828.292, 24.073
829.569, 26.756
830.847, 18.447
832.124, 76.303
833.401, 107.029
834.677, 125.733
835.954, 213.454
837.230, 214.226
838.506, 290.068
839.782, 349.975
841.057, 442.959
842.333, 553.013
843.608, 763.103
844.883, 800.205
846.158, 1050.293
847.433, 1223.369
848.707, 1396.434
849.981, 1575.487
851.255, 1656.548
852.529, 1827.624
853.803, 1775.688
855.076, 1839.749
856.350, 1745.799
857.623, 1628.853
858.895, 1690.929
860.168, 1648.996
861.441, 1742.082
862.713, 1558.216
863.985, 1589.348
865.257, 1666.499
866.528, 1490.649
867.800, 1572.794
869.071, 1530.963
870.342, 1476.116
871.613, 1627.285
872.884, 1515.459
874.154, 1716.622
875.425, 1636.805
876.695, 1791.983
877.965, 1769.192
879.234, 1962.413
880.504, 2150.651
881.773, 2159.889
883.042, 2320.135
884.311, 2406.378
885.580, 2678.611
886.848, 2918.840
888.117, 3295.059
889.385, 3516.267
890.653, 4085.468
891.920, 4618.658
893.188, 5461.850
894.455, 6235.032
895.722, 6998.229
896.989, 8101.314
898.256, 8914.271
899.523, 9417.245
900.789, 10450.207
902.055, 10613.203
903.321, 10606.303
904.587, 10779.465
905.852, 9982.623
907.118, 9585.772
908.383, 8858.920
909.648, 8502.063
910.913, 7695.208
912.177, 6908.348
913.442, 6291.485
914.706, 5514.622
915.970, 4877.764
917.233, 4320.901
918.497, 3853.672
919.760, 3584.161
921.024, 3195.282
922.287, 3059.398
923.550, 2922.512
924.812, 3019.619
926.075, 2955.723
927.337, 3145.821
928.599, 3185.915
929.861, 3458.002
931.122, 3462.535
932.384, 3472.744
933.645, 3540.833
934.906, 3388.093
936.167, 3255.722
937.428, 3269.019
938.688, 3230.872
939.948, 3408.284
941.208, 3328.633
942.468, 3553.118
943.728, 3918.071
944.987, 4203.585
946.247, 4811.614
947.506, 5396.027
948.765, 6060.522
950.023, 7107.729
951.282, 7474.500
952.540, 8519.389
953.798, 8938.161
955.056, 9436.299
956.314, 9790.439
957.572, 10285.876
958.829, 11037.944
960.086, 12090.647
961.343, 13293.737
962.600, 14636.833
963.856, 15129.938
965.113, 15833.058
966.369, 15506.184
967.625, 14369.320
968.881, 13852.473
970.136, 12575.634
971.392, 12748.800
972.647, 12801.419
973.902, 13133.671
975.157, 14125.880
976.411, 15465.441
977.666, 16693.693
978.920, 18045.752
980.174, 18346.141
981.428, 17738.213
982.682, 17179.059
983.935, 15501.511
985.188, 14984.077
986.441, 13756.653
987.694, 13269.670
988.947, 13183.562
990.199, 12546.930
991.452, 12700.757
992.704, 12564.479
993.956, 11507.917
995.207, 11071.659
996.459, 10744.931
997.710, 10728.650
998.961, 10732.617
1000.212, 10746.396
1001.463, 11394.984
1002.714, 11444.119
1003.964, 11278.011
1005.214, 10953.007
1006.464, 10276.810
1007.714, 9533.234
1008.964, 8342.986
1010.213, 7356.777
1011.462, 6344.542
1012.711, 5266.529
1013.960, 4630.269
1015.209, 3820.622
1016.457, 3346.726
1017.705, 2939.788
1018.954, 2591.896
1020.201, 2362.199
1021.449, 2149.339
1022.697, 1955.713
1023.944, 1934.625
1025.191, 1891.509
1026.438, 1910.717
1027.685, 1897.248
1028.931, 1892.926
1030.177, 1714.272
1031.423, 1582.456
1032.669, 1445.941
1033.915, 1326.507
1035.161, 1226.954
1036.406, 1135.815
1037.651, 1066.770
1038.896, 1012.091
1040.141, 973.325
1041.386, 1032.379
1042.630, 962.614
1043.874, 1086.693
1045.118, 980.857
1046.362, 984.899
1047.606, 1032.636
1048.849, 992.644
1050.092, 1095.007
1051.336, 1124.192
1052.578, 1236.400
1053.821, 1184.622
1055.064, 1198.815
1056.306, 1418.002
1057.548, 1545.390
1058.790, 1429.965
1060.032, 1732.681
1061.273, 1654.887
1062.515, 1678.762
1063.756, 1625.877
1064.997, 1484.776
1066.237, 1503.774
1067.478, 1212.022
1068.718, 1029.668
1069.959, 990.562
1071.199, 940.403
1072.438, 921.247
1073.678, 912.327
1074.918, 744.512
1076.157, 999.629
1077.396, 1103.535
1078.635, 1216.729
1079.873, 1535.739
1081.112, 1553.791
1082.350, 1878.951
1083.588, 2012.863
1084.826, 1973.095
1086.064, 1931.971
1087.301, 1752.825
1088.539, 1600.144
1089.776, 1223.921
1091.013, 1044.705
1092.250, 996.477
1093.486, 858.251
1094.723, 698.446
1095.959, 741.142
1097.195, 665.792
1098.431, 747.486
1099.666, 792.172
1100.902, 657.904
1102.137, 957.694
1103.372, 985.506
1104.607, 944.382
1105.842, 1125.252
1107.076, 1174.029
1108.311, 1106.896
1109.545, 1098.625
1110.779, 909.304
1112.012, 843.938
1113.246, 885.540
1114.479, 676.162
1115.712, 653.668
1116.945, 551.129
1118.178, 554.817
1119.411, 615.182
1120.643, 633.501
1121.875, 629.619
1123.108, 781.990
1124.339, 545.156
1125.571, 410.288
1126.802, 213.383
1128.034, 334.497
1129.265, 143.502
1130.496, 160.468
1131.727, 103.402
1132.957, 112.297
1134.187, 134.149
1135.418, 120.959
1136.648, 15.275
1137.877, 115.544
1139.107, 7.215
1140.336, 34.837
1141.566, 104.643
1142.795, 34.165
1144.023, 147.641
1145.252, 43.074
1146.480, 1.537
1147.709, 31.808
1148.937, 85.889
1150.165, 93.649
1151.392, 10.283
1152.620, 25.663
1153.847, 33.337
1155.074, 46.572
1156.301, 98.687
1157.528, 39.028
1158.755, 65.329
1159.981, 131.794
1161.207, 52.861
1162.433, 104.155
1163.659, 34.483
1164.885, 31.858
1166.110, 126.273
1167.336, 237.263
1168.561, 96.262
1169.786, 55.889
1171.010, 56.401
1172.235, 113.358
1173.459, 5.122
1174.683, 135.880
1175.907, 72.631
1177.131, 81.394
1178.355, 13.195
1179.578, 48.013
1180.801, 1.154
1182.024, 38.328
1183.247, 14.498
1184.470, 111.665
1185.692, 53.835
1186.915, 69.015
1188.137, 106.186
1189.359, 3.360
1190.580, 112.542
1191.802, 39.273
1193.023, 133.917
1194.244, 53.118
1195.465, 14.673
1196.686, 93.544
1197.907, 125.771
1199.127, 127.009
1200.347, 130.260
1201.567, 56.527
1202.787, 151.807
1204.007, 122.106
1205.226, 54.425
1206.446, 292.763
1207.665, 174.116
1208.884, 260.487
1210.102, 209.879
1211.321, 62.295
1212.539, 251.737
1213.758, 199.208
1214.976, 140.711
1216.193, 298.251
1217.411, 334.833
1218.628, 138.460
1219.846, 276.137
1221.063, 258.440
1222.280, 282.029
1223.496, 420.025
1224.713, 275.046
1225.929, 325.758
1227.145, 323.861
1228.361, 304.646
1229.577, 333.976
1230.793, 262.377
1232.008, 396.167
1233.223, 449.379
1234.438, 196.969
1235.653, 376.135
1236.868, 318.797
1238.082, 309.384
1239.297, 271.821
1240.511, 158.258
1241.725, 300.556
1242.938, 283.014
1244.152, 204.524
1245.365, 261.477
1246.578, 273.193
1247.791, 249.650
1249.004, 287.596
1250.217, 180.679
1251.429, 184.456
1252.642, 242.477
1253.854, 161.417
1255.066, 182.219
1256.277, 289.894
1257.489, 187.088
1258.700, 210.311
1259.911, 155.278
1261.122, 280.992
1262.333, 255.260
1263.544, 98.453
1264.754, 348.380
1265.964, 316.488
1267.174, 179.284
1268.384, 280.321
1269.594, 172.878
1270.803, 281.366
1272.013, 290.095
1273.222, 108.846
1274.431, 235.080
1275.640, 133.374
1276.848, 131.122
1278.057, 196.737
1279.265, 150.985
1280.473, 280.439
1281.681, 168.417
1282.888, 5.059
1284.096, 141.896
1285.303, 239.280
1286.510, 33.810
1287.717, 97.147
1288.924, 172.730
1290.131, 101.651
1291.337, 205.389
1292.543, 83.859
1293.749, 212.398
1294.955, 122.074
1296.161, 5.929
1297.366, 242.327
1298.571, 240.505
1299.777, 30.311
1300.981, 175.336
1302.186, 159.778
1303.391, 102.421
1304.595, 30.800
1305.799, 0.302
1307.003, 0.000
##END=



