##NAMES=Axinite-(Fe)
##RRUFFID=R060194
##IDEAL CHEMISTRY=Ca_4_Fe^2+^_2_Al_4_[B_2_Si_8_O_30_](OH)_2_
##LOCALITY=near Dalbandi, Baluchistan Province, Pakistan
##OWNER=RRUFF
##SOURCE=Herbert Obodda
##DESCRIPTION=Brown transparent wedge-shaped single crystal
##STATUS=The identification of this mineral has been confirmed by X-ray diffraction and chemical analysis
##URL=rruff.info/R060194
##MEASURED CHEMISTRY=Ca_2.00_(Fe^2+^_0.66_Mg_0.30_Mn_0.04_)Al_2.00_BSi_4.00_O_15_(OH)
##PIN_ID=L00543
##ORIENTATION=Laser parallel to (-1 0 -1). Fiducial mark perpendicular to laser is parallel to b [0 1 0]
53.91000, 0.0000000E+00
55.14900, 46.81216
56.38700, 70.19229
57.62600, 114.6819
58.86400, 141.6235
60.10300, 179.9461
61.34100, 220.7924
62.57900, 209.8058
63.81700, 168.3718
65.05400, 139.3326
66.29200, 92.41895
67.52900, 23.25848
68.76700, 7.738037
70.00400, 23.72058
71.24100, 23.05365
72.47700, 63.64636
73.71400, 60.66632
74.95100, 67.00177
76.18700, 73.48792
77.42300, 14.86926
78.65900, 56.00305
79.89500, 85.77979
81.13100, 131.0858
82.36700, 246.8247
83.60200, 370.9143
84.83700, 546.2837
86.07200, 717.8708
87.30800, 845.6226
88.54200, 1027.491
89.77700, 1173.439
91.01200, 1390.429
92.24600, 1827.404
93.48000, 2286.289
94.71400, 2816.017
95.94800, 3424.527
97.18200, 4401.773
98.41600, 5527.822
99.64900, 7145.601
100.8830, 9120.489
102.1160, 11314.92
103.3490, 13877.90
104.5820, 17279.40
105.8150, 21995.43
107.0470, 27668.97
108.2800, 33258.02
109.5120, 38540.56
110.7440, 38707.61
111.9760, 33438.17
113.2080, 25931.20
114.4400, 19594.73
115.6710, 14919.74
116.9030, 11641.22
118.1340, 9302.193
119.3650, 7678.631
120.5960, 6726.539
121.8270, 5859.915
123.0580, 5260.779
124.2880, 4915.134
125.5190, 4577.972
126.7490, 4140.286
127.9790, 3854.995
129.2090, 3671.855
130.4390, 3569.849
131.6680, 3754.962
132.8980, 4237.183
134.1270, 4999.070
135.3560, 5866.877
136.5850, 7417.389
137.8140, 9066.053
139.0430, 11048.85
140.2710, 12790.85
141.5000, 13975.25
142.7280, 13852.43
143.9560, 12763.51
145.1840, 11195.65
146.4120, 9653.230
147.6390, 8793.648
148.8670, 8014.330
150.0940, 7421.277
151.3210, 7268.493
152.5490, 7194.980
153.7750, 6827.738
155.0020, 6637.769
156.2290, 6676.074
157.4550, 6806.653
158.6810, 6905.508
159.9080, 6787.643
161.1340, 6502.059
162.3590, 6725.767
163.5850, 7315.765
164.8110, 7955.058
166.0360, 9251.642
167.2610, 10685.52
168.4860, 12350.68
169.7110, 14188.13
170.9360, 15214.87
172.1610, 15419.90
173.3850, 14510.20
174.6100, 12980.78
175.8340, 11081.64
177.0580, 8915.767
178.2820, 7018.171
179.5050, 5350.846
180.7290, 4014.792
181.9520, 2878.007
183.1760, 2241.488
184.3990, 1646.236
185.6220, 1024.248
186.8450, 888.5220
188.0670, 770.1377
189.2900, 637.3042
190.5120, 771.1162
191.7340, 967.3599
192.9560, 1145.841
194.1780, 1428.558
195.4000, 1717.509
196.6220, 2185.693
197.8430, 2542.108
199.0640, 3240.754
200.2860, 4022.627
201.5070, 5026.697
202.7270, 6260.642
203.9480, 7353.450
205.1690, 8511.083
206.3890, 9331.614
207.6090, 9802.947
208.8290, 9964.008
210.0490, 9752.185
211.2690, 9474.271
212.4890, 8973.760
213.7080, 8235.535
214.9280, 7425.306
216.1470, 6507.014
217.3660, 5386.970
218.5850, 4629.826
219.8030, 3701.894
221.0220, 2933.904
222.2400, 2350.456
223.4590, 1704.434
224.6770, 1135.789
225.8950, 794.1147
227.1120, 422.2983
228.3300, 175.7988
229.5480, 38.96094
230.7650, 206.8276
231.9820, 291.6582
233.1990, 383.7397
234.4160, 358.2407
235.6330, 280.5229
236.8490, 262.5664
238.0660, 21.62646
239.2820, 200.0967
240.4980, 516.8330
241.7140, 830.8452
242.9300, 1287.111
244.1460, 1759.606
245.3610, 2100.322
246.5770, 2617.251
247.7920, 3096.390
249.0070, 3557.735
250.2220, 4387.286
251.4370, 5218.039
252.6510, 6309.993
253.8660, 7752.145
255.0800, 8820.494
256.2940, 9913.035
257.5080, 10224.77
258.7220, 10469.70
259.9360, 10808.82
261.1490, 11465.15
262.3630, 11832.71
263.5760, 13198.51
264.7890, 15152.60
266.0020, 17554.97
267.2150, 20309.68
268.4270, 23048.69
269.6400, 26190.98
270.8520, 28988.53
272.0640, 31581.29
273.2760, 32979.25
274.4880, 33344.35
275.7000, 32854.64
276.9120, 31246.08
278.1230, 28912.69
279.3340, 25888.47
280.5450, 22287.42
281.7560, 19065.53
282.9670, 16375.80
284.1780, 14542.23
285.3880, 12908.84
286.5980, 12431.60
287.8090, 12067.53
289.0190, 11798.59
290.2290, 11947.71
291.4380, 12556.89
292.6480, 13030.20
293.8570, 13983.66
295.0670, 15140.29
296.2760, 15836.06
297.4850, 16764.00
298.6930, 17518.09
299.9020, 18162.33
301.1110, 18227.73
302.3190, 18682.28
303.5270, 18662.98
304.7350, 18799.82
305.9430, 18659.82
307.1510, 18141.96
308.3580, 17064.25
309.5660, 15506.68
310.7730, 12881.26
311.9800, 10622.98
313.1870, 8427.845
314.3940, 6692.846
315.6010, 5362.990
316.8070, 4567.269
318.0130, 4116.686
319.2200, 3695.688
320.4260, 3438.498
321.6310, 3293.046
322.8370, 3189.558
324.0430, 3407.434
325.2480, 3851.640
326.4540, 4428.170
327.6590, 5364.627
328.8640, 6037.208
330.0680, 6771.909
331.2730, 7045.733
332.4780, 6593.674
333.6820, 5747.735
334.8860, 5102.911
336.0900, 4665.200
337.2940, 4733.600
338.4980, 5107.110
339.7010, 5896.729
340.9050, 7400.457
342.1080, 9631.288
343.3110, 11398.23
344.5140, 13463.29
345.7170, 15407.49
346.9200, 16545.88
348.1220, 17689.50
349.3240, 18429.35
350.5270, 19445.38
351.7290, 20156.60
352.9310, 20190.98
354.1320, 19174.51
355.3340, 16795.18
356.5350, 13706.37
357.7370, 10506.28
358.9380, 7852.733
360.1390, 5637.026
361.3400, 4113.555
362.5400, 2768.713
363.7410, 2018.405
364.9410, 1278.229
366.1410, 855.1934
367.3410, 475.2969
368.5410, 137.5371
369.7410, 33.09766
370.9400, 201.6172
372.1400, 340.0649
373.3390, 348.9658
374.5380, 341.8232
375.7370, 255.4316
376.9360, 118.0850
378.1350, 40.62793
379.3330, 296.2095
380.5310, 674.0693
381.7300, 1044.144
382.9280, 1635.582
384.1260, 2568.865
385.3230, 3534.559
386.5210, 4732.103
387.7180, 5928.043
388.9160, 7335.830
390.1130, 8300.724
391.3100, 8494.725
392.5060, 8027.828
393.7030, 6679.035
394.9000, 5162.346
396.0960, 3810.758
397.2920, 2972.271
398.4880, 2188.884
399.6840, 2038.596
400.8800, 1889.405
402.0750, 2010.311
403.2710, 2192.313
404.4660, 2470.517
405.6610, 2754.336
406.8560, 3186.941
408.0510, 4051.497
409.2450, 5191.454
410.4400, 6872.155
411.6340, 8822.815
412.8280, 11548.09
414.0220, 14950.55
415.2160, 19996.06
416.4100, 25233.96
417.6030, 29980.99
418.7970, 32033.09
419.9900, 29619.27
421.1830, 25612.51
422.3760, 21740.84
423.5690, 19803.24
424.7610, 18704.71
425.9540, 18412.25
427.1460, 18487.86
428.3380, 18099.54
429.5300, 17282.29
430.7220, 16326.10
431.9140, 14308.99
433.1050, 12466.93
434.2970, 10435.95
435.4880, 8756.027
436.6790, 7425.170
437.8700, 6852.377
439.0610, 6923.647
440.2510, 7583.978
441.4420, 9327.368
442.6320, 11508.82
443.8220, 13987.33
445.0120, 16097.90
446.2020, 16564.53
447.3910, 14729.21
448.5810, 11890.95
449.7700, 8522.740
450.9600, 5829.587
452.1490, 4025.486
453.3370, 2631.439
454.5260, 1946.443
455.7150, 1354.498
456.9030, 948.6021
458.0910, 633.7554
459.2800, 305.9570
460.4670, 222.2056
461.6550, 17.49854
462.8430, 154.1870
464.0300, 257.9175
465.2180, 362.7393
466.4050, 364.7012
467.5920, 347.8071
468.7790, 146.0503
469.9650, 91.65918
471.1520, 226.4092
472.3380, 660.1982
473.5250, 1138.027
474.7110, 1580.894
475.8970, 2321.798
477.0820, 3264.738
478.2680, 4486.716
479.4540, 5887.728
480.6390, 7825.775
481.8240, 9932.856
483.0090, 12347.97
484.1940, 14452.12
485.3780, 15975.50
486.5630, 15912.38
487.7470, 13908.40
488.9320, 10581.17
490.1160, 7334.641
491.3000, 4930.511
492.4830, 2896.752
493.6670, 1840.324
494.8500, 1093.046
496.0340, 610.4565
497.2170, 321.8853
498.4000, 26.66748
499.5820, 1.732422
500.7650, 146.9028
501.9480, 14.64648
503.1300, 43.56299
504.3120, 122.8423
505.4940, 477.9434
506.6760, 490.1470
507.8580, 721.3618
509.0390, 1104.592
510.2210, 1424.847
511.4020, 1717.143
512.5830, 1749.827
513.7640, 1837.013
514.9450, 1757.237
516.1250, 1565.152
517.3060, 1176.354
518.4860, 865.9297
519.6660, 598.0674
520.8460, 309.9375
522.0260, 43.90039
523.2060, 55.90918
524.3850, 49.06836
525.5650, 8.093750
526.7440, 62.16992
527.9230, 12.66650
529.1020, 165.4502
530.2810, 437.2285
531.4590, 549.0068
532.6380, 890.7827
533.8160, 1028.557
534.9940, 1257.328
536.1720, 1252.096
537.3500, 1175.859
538.5270, 1011.619
539.7050, 855.3721
540.8820, 583.1191
542.0590, 495.8599
543.2360, 262.5928
544.4130, 171.3174
545.5900, 68.02002
546.7660, 0.3281250
547.9430, 112.7178
549.1190, 279.2139
550.2950, 299.8721
551.4710, 407.6743
552.6470, 403.6812
553.8220, 227.8960
554.9980, 211.2109
556.1730, 38.64355
557.3480, 163.8999
558.5230, 453.4897
559.6980, 789.1328
560.8730, 1066.798
562.0470, 1302.475
563.2220, 1370.138
564.3960, 1459.783
565.5700, 1567.409
566.7440, 1676.016
567.9170, 2022.603
569.0910, 2460.170
570.2640, 3001.717
571.4380, 3609.243
572.6110, 4075.746
573.7840, 4443.228
574.9570, 4536.687
576.1290, 4659.122
577.3020, 4442.535
578.4740, 4526.921
579.6460, 4336.286
580.8180, 4307.624
581.9900, 4674.938
583.1620, 5303.224
584.3330, 6071.483
585.5040, 7366.717
586.6760, 8738.924
587.8470, 10206.10
589.0180, 11496.25
590.1880, 11901.37
591.3590, 11717.46
592.5290, 10920.53
593.7000, 9199.561
594.8700, 7381.562
596.0400, 6051.535
597.2090, 4530.477
598.3790, 3418.385
599.5490, 2591.263
600.7180, 2069.107
601.8870, 1533.920
603.0560, 1153.249
604.2250, 987.8726
605.3940, 819.8584
606.5620, 760.9785
607.7300, 766.8330
608.8990, 758.7886
610.0670, 851.8457
611.2350, 943.4058
612.4020, 1155.937
613.5700, 1333.437
614.7370, 1330.908
615.9050, 1602.348
617.0720, 1569.757
618.2390, 1444.135
619.4060, 1486.481
620.5720, 1287.796
621.7390, 1183.079
622.9050, 835.3291
624.0710, 615.5469
625.2370, 328.7319
626.4030, 170.8804
627.5690, 35.96924
628.7340, 63.04053
629.9000, 137.1997
631.0650, 142.5488
632.2300, 52.08984
633.3950, 28.22314
634.5600, 192.5127
635.7240, 422.5015
636.8890, 660.7007
638.0530, 1041.782
639.2170, 1422.448
640.3810, 1877.520
641.5450, 2235.159
642.7080, 2542.073
643.8720, 2959.866
645.0350, 5551.133
646.1980, 4238.030
647.3610, 5221.829
648.5240, 2918.355
649.6870, 2152.464
650.8490, 1633.705
652.0120, 1320.684
653.1740, 1073.678
654.3360, 649.7646
655.4980, 627.5405
656.6600, 530.0361
657.8210, 456.9531
658.9830, 461.7021
660.1440, 443.7861
661.3050, 467.6904
662.4660, 521.1055
663.6270, 806.7949
664.7870, 1002.568
665.9480, 1300.014
667.1080, 1719.149
668.2680, 2226.500
669.4280, 3032.522
670.5880, 3855.763
671.7480, 4899.962
672.9070, 6067.118
674.0670, 7397.233
675.2260, 8529.305
676.3850, 9654.336
677.5440, 9731.320
678.7030, 9789.267
679.8610, 8877.170
681.0200, 7474.031
682.1780, 6323.851
683.3360, 5131.627
684.4940, 4087.363
685.6520, 3361.951
686.8090, 2864.100
687.9670, 2589.177
689.1240, 2345.066
690.2810, 2293.622
691.4380, 2368.097
692.5950, 2477.646
693.7520, 2748.205
694.9080, 2979.467
696.0650, 3362.165
697.2210, 4115.134
698.3770, 4834.259
699.5330, 5963.445
700.6880, 7215.210
701.8440, 8668.484
702.9990, 10656.58
704.1550, 13246.64
705.3100, 16591.65
706.4650, 20434.63
707.6190, 25531.56
708.7740, 31232.45
709.9290, 37825.30
711.0830, 44647.11
712.2370, 51317.89
713.3910, 55761.63
714.5450, 57851.31
715.6980, 56867.98
716.8520, 52112.60
718.0050, 45515.17
719.1580, 38198.71
720.3110, 31354.21
721.4640, 25147.68
722.6170, 20450.10
723.7700, 16735.49
724.9220, 13450.84
726.0740, 11337.16
727.2260, 9417.436
728.3780, 7717.678
729.5300, 6520.882
730.6810, 5641.051
731.8330, 4812.183
732.9840, 4110.280
734.1350, 3556.342
735.2860, 3135.369
736.4370, 2722.361
737.5880, 2329.318
738.7380, 2003.242
739.8880, 1866.131
741.0390, 1627.987
742.1890, 1427.824
743.3380, 1233.673
744.4880, 1075.556
745.6380, 1080.499
746.7870, 932.5029
747.9360, 767.5645
749.0850, 835.6392
750.2340, 723.6831
751.3830, 607.6968
752.5310, 677.6797
753.6800, 789.6328
754.8280, 732.5562
755.9760, 771.4497
757.1240, 928.3154
758.2720, 967.1523
759.4190, 1237.961
760.5670, 1391.742
761.7140, 1731.496
762.8610, 1961.224
764.0080, 2358.719
765.1550, 2634.727
766.3020, 2804.594
767.4480, 2939.726
768.5950, 2918.099
769.7410, 2863.094
770.8870, 2680.846
772.0330, 2478.184
773.1780, 2225.374
774.3240, 1791.878
775.4690, 1544.367
776.6140, 1302.838
777.7590, 990.3247
778.9040, 830.8223
780.0490, 640.3667
781.1940, 517.9268
782.3380, 393.4902
783.4820, 295.0449
784.6260, 187.5854
785.7700, 94.11230
786.9140, 21.61719
788.0580, 49.00781
789.2010, 110.5347
790.3450, 144.6030
791.4880, 163.7012
792.6310, 176.0942
793.7730, 141.2197
794.9160, 149.4663
796.0590, 100.8369
797.2010, 124.3052
798.3430, 139.8818
799.4850, 133.5742
800.6270, 4.360352
801.7690, 53.17334
802.9100, 28.98779
804.0520, 217.1567
805.1930, 387.3643
806.3340, 570.1919
807.4750, 784.3838
808.6160, 1005.038
809.7560, 1257.254
810.8970, 1506.466
812.0370, 1822.674
813.1770, 1960.879
814.3170, 2045.083
815.4570, 1816.284
816.5960, 1451.483
817.7360, 1034.682
818.8750, 738.8799
820.0140, 447.0781
821.1530, 255.2764
822.2920, 131.4824
823.4310, 147.2896
824.5690, 111.1099
825.7070, 220.9316
826.8460, 334.7686
827.9840, 330.6738
829.1220, 316.6157
830.2590, 391.5845
831.3970, 295.6636
832.5340, 336.8047
833.6710, 317.0708
834.8080, 259.4878
835.9450, 151.0342
837.0820, 112.6519
838.2190, 3.680176
839.3550, 146.0151
840.4910, 153.3584
841.6270, 296.7109
842.7630, 446.0737
843.8990, 622.4463
845.0350, 791.8301
846.1700, 1172.225
847.3060, 1387.631
848.4410, 1515.049
849.5760, 1785.481
850.7100, 1910.926
851.8450, 2156.385
852.9800, 2236.857
854.1140, 2269.345
855.2480, 2174.848
856.3820, 2051.366
857.5160, 1879.900
858.6500, 1847.451
859.7830, 1736.020
860.9170, 1668.605
862.0500, 1514.209
863.1830, 1463.832
864.3160, 1458.473
865.4480, 1340.134
866.5810, 1301.814
867.7130, 1396.516
868.8460, 1427.237
869.9780, 1533.980
871.1100, 1505.745
872.2410, 1680.535
873.3730, 1759.348
874.5050, 1904.187
875.6360, 2119.051
876.7670, 2306.939
877.8980, 2573.854
879.0290, 2901.798
880.1590, 3099.769
881.2900, 3427.777
882.4200, 3838.823
883.5500, 4007.903
884.6800, 4419.018
885.8100, 4861.165
886.9400, 5428.340
888.0690, 6193.554
889.1990, 6904.800
890.3280, 7797.099
891.4570, 9024.432
892.5860, 10249.81
893.7140, 11661.23
894.8430, 13076.71
895.9710, 14449.22
897.1000, 15888.79
898.2280, 16849.40
899.3560, 17563.07
900.4830, 17531.79
901.6110, 17105.57
902.7380, 16121.42
903.8660, 15050.37
904.9930, 14256.46
906.1200, 13447.70
907.2460, 13087.04
908.3730, 12775.47
909.5000, 12263.97
910.6260, 11907.51
911.7520, 11462.13
912.8780, 10807.81
914.0040, 9797.555
915.1290, 8938.349
916.2550, 7850.193
917.3800, 7111.086
918.5050, 6313.020
919.6300, 5834.989
920.7550, 5259.973
921.8800, 5109.305
923.0040, 4837.070
924.1290, 4650.729
925.2530, 4785.668
926.3770, 5117.611
927.5010, 5354.509
928.6250, 5765.771
929.7480, 6064.364
930.8720, 6331.596
931.9950, 6538.032
933.1180, 6582.155
934.2410, 6349.469
935.3640, 5869.363
936.4860, 5280.354
937.6090, 4720.642
938.7310, 4486.529
939.8530, 4290.448
940.9750, 3996.426
942.0970, 4085.470
943.2180, 4288.573
944.3400, 4420.725
945.4610, 4794.929
946.5820, 5214.201
947.7030, 5872.535
948.8240, 6455.928
949.9450, 7075.378
951.0650, 7841.882
952.1860, 8505.442
953.3060, 9205.060
954.4260, 9787.635
955.5460, 10362.44
956.6650, 10982.27
957.7850, 11626.12
958.9040, 12418.90
960.0230, 13513.07
961.1420, 14714.78
962.2610, 15874.12
963.3800, 17290.10
964.4990, 18056.15
965.6170, 18759.68
966.7350, 19119.42
967.8530, 18395.79
968.9710, 17857.60
970.0890, 17575.23
971.2070, 17150.83
972.3240, 17625.86
973.4410, 18837.41
974.5580, 20420.15
975.6750, 22790.96
976.7920, 25624.82
977.9090, 28620.75
979.0250, 31341.75
980.1410, 33431.80
981.2580, 34261.91
982.3740, 34195.08
983.4890, 32950.32
984.6050, 30705.62
985.7200, 28787.97
986.8360, 27047.39
987.9510, 25724.86
989.0660, 25341.40
990.1810, 25009.00
991.2950, 25142.65
992.4100, 25674.37
993.5240, 26046.14
994.6390, 26273.97
995.7530, 26486.86
996.8660, 26260.81
997.9800, 26204.82
999.0940, 26282.89
1000.207, 26465.02
1001.320, 26667.21
1002.433, 26780.45
1003.546, 26732.75
1004.659, 26187.11
1005.772, 25312.02
1006.884, 23805.49
1007.996, 22195.41
1009.108, 20011.25
1010.220, 17670.89
1011.332, 15322.66
1012.444, 13177.59
1013.555, 11153.68
1014.666, 9546.907
1015.777, 7979.893
1016.888, 6948.983
1017.999, 5928.801
1019.110, 5180.333
1020.220, 4485.640
1021.331, 4117.339
1022.441, 3634.385
1023.551, 3293.780
1024.661, 3008.057
1025.770, 2772.759
1026.880, 2569.991
1027.989, 2437.786
1029.098, 2444.119
1030.207, 2153.305
1031.316, 2065.029
1032.425, 1788.349
1033.533, 1771.312
1034.642, 1423.341
1035.750, 1456.624
1036.858, 1347.880
1037.966, 1295.900
1039.073, 1267.515
1040.181, 1244.135
1041.288, 1320.214
1042.396, 1379.303
1043.503, 1363.137
1044.610, 1368.042
1045.716, 1403.723
1046.823, 1421.860
1047.929, 1447.847
1049.036, 1504.447
1050.142, 1581.927
1051.248, 1646.561
1052.353, 1823.220
1053.459, 1949.068
1054.564, 2061.892
1055.670, 2209.509
1056.775, 2223.187
1057.880, 2275.313
1058.985, 2269.658
1060.089, 2187.995
1061.194, 2223.233
1062.298, 2054.506
1063.402, 1976.109
1064.506, 1777.610
1065.610, 1516.507
1066.713, 1371.895
1067.817, 1082.754
1068.920, 946.8486
1070.023, 807.7285
1071.126, 720.6890
1072.229, 608.7153
1073.332, 642.3784
1074.435, 635.4067
1075.537, 606.3628
1076.639, 688.6831
1077.741, 759.6821
1078.843, 877.6814
1079.945, 964.7183
1081.046, 1240.092
1082.148, 1406.071
1083.249, 1564.992
1084.350, 1533.455
1085.451, 1624.558
1086.551, 1496.296
1087.652, 1387.736
1088.752, 1228.185
1089.853, 1048.060
1090.953, 943.0945
1092.053, 860.5239
1093.152, 828.3149
1094.252, 786.2759
1095.351, 756.6091
1096.451, 792.8232
1097.550, 839.1294
1098.649, 907.0640
1099.748, 1088.554
1100.846, 1143.685
1101.945, 1368.474
1103.043, 1579.051
1104.141, 1662.824
1105.239, 1892.203
1106.337, 2045.097
1107.434, 2030.040
1108.532, 2098.407
1109.629, 2061.070
1110.726, 1965.938
1111.823, 1752.392
1112.920, 1569.954
1114.017, 1360.154
1115.113, 1188.054
1116.210, 996.2300
1117.306, 888.1072
1118.402, 774.7417
1119.498, 720.5630
1120.593, 708.3936
1121.689, 588.9783
1122.784, 535.5996
1123.879, 450.3884
1124.974, 393.1934
1126.069, 292.8350
1127.164, 289.5620
1128.259, 207.5637
1129.353, 240.2632
1130.447, 105.9756
1131.541, 157.4829
1132.635, 102.1860
1133.729, 58.84644
1134.822, 72.53857
1135.916, 41.11597
1137.009, 30.26318
1138.102, 14.20312
1139.195, 24.18066
1140.288, 15.72534
1141.380, 18.72266
1142.473, 1.804688
1143.565, 51.36694
1144.657, 15.94751
1145.749, 80.53760
1146.841, 72.15771
1147.932, 71.80493
1149.024, 62.47998
1150.115, 52.18140
1151.206, 6.906006
1152.297, 74.64209
1153.388, 30.41235
1154.479, 132.2017
1155.569, 32.05737
1156.659, 82.81348
1157.750, 71.73389
1158.839, 125.6948
1159.929, 47.72510
1161.019, 109.7258
1162.108, 50.85181
1163.198, 89.82104
1164.287, 97.03955
1165.376, 63.23047
1166.465, 7.557617
1167.553, 76.90625
1168.642, 86.18921
1169.730, 124.6575
1170.818, 58.21069
1171.906, 78.67383
1172.994, 76.11426
1174.082, 53.37012
1175.170, 99.62256
1176.257, 125.2722
1177.344, 64.87598
1178.431, 46.70557
1179.518, 52.62964
1180.605, 16.33569
1181.691, 0.4311520
1182.778, 21.44092
1183.864, 62.70166
1184.950, 44.00854
1186.036, 22.37671
1187.122, 52.63354
1188.207, 25.12183
1189.292, 9.616943
1190.378, 38.20923
1191.463, 40.13354
1192.548, 51.44751
1193.632, 15.73389
1194.717, 52.97900
1195.801, 40.19482
1196.886, 11.46313
1197.970, 25.32861
1199.054, 10.26245
1200.137, 70.74243
1201.221, 71.71558
1202.305, 2.268311
1203.388, 23.70386
1204.471, 14.28516
1205.554, 22.68652
1206.637, 70.39648
1207.719, 50.07007
1208.802, 6.248291
1209.884, 11.31323
1210.966, 25.81641
1212.048, 36.49097
1213.130, 67.96411
1214.212, 54.33252
1215.293, 40.82617
1216.374, 52.28882
1217.456, 0.7570800
1218.536, 116.1973
1219.617, 56.29004
1220.698, 54.50366
1221.778, 140.4939
1222.859, 109.4470
1223.939, 100.3596
1225.019, 100.2292
1226.099, 109.0552
1227.178, 72.83765
1228.258, 60.56763
1229.337, 29.32886
1230.417, 40.38379
1231.496, 78.46313
1232.574, 89.94092
1233.653, 133.3652
1234.732, 202.7434
1235.810, 133.0791
1236.888, 132.3674
