##NAMES=Axinite-(Fe)
##RRUFFID=R050026
##IDEAL CHEMISTRY=Ca_4_Fe^2+^_2_Al_4_[B_2_Si_8_O_30_](OH)_2_
##LOCALITY=Pouyva mine, Polar Urals, Western Siberian Region, Russia
##OWNER=RRUFF
##SOURCE=Rock Currier
##DESCRIPTION=Brown transparent flat crystal
##STATUS=The identification of this mineral has been confirmed by X-ray diffraction and chemical analysis
##URL=rruff.info/R050026
##MEASURED CHEMISTRY=Ca_2.00_(Fe^2+^_0.61_Mn_0.26_Mg_0.13_)Al_2.00_BSi_4_O_15_(OH)
##PIN_ID=L00147
##ORIENTATION=Laser parallel to -a* (-1 0 0). Fiducial mark perpendicular to laser is parallel to -b [0 -1 0]
86.858, 0.000
88.260, 6.196
89.663, 91.277
91.065, 217.809
92.466, 409.927
93.868, 550.500
95.269, 582.392
96.670, 665.420
98.070, 650.060
99.471, 729.251
100.871, 709.638
102.271, 859.675
103.670, 1132.956
105.070, 1423.836
106.469, 2070.463
107.868, 2302.316
109.267, 2641.962
110.665, 2288.175
112.063, 1703.734
113.461, 1316.192
114.859, 973.560
116.256, 775.696
117.653, 532.175
119.050, 466.315
120.447, 545.388
121.843, 532.133
123.240, 720.246
124.636, 738.397
126.031, 893.761
127.427, 857.246
128.822, 806.039
130.217, 561.314
131.612, 279.234
133.006, 132.829
134.400, 96.844
135.794, 509.694
137.188, 557.500
138.581, 765.711
139.975, 648.791
141.368, 578.076
142.760, 492.334
144.153, 568.088
145.545, 762.873
146.937, 867.521
148.329, 1221.038
149.720, 1237.434
151.112, 1145.720
152.503, 1022.906
153.893, 852.979
155.284, 976.048
156.674, 775.605
158.064, 785.678
159.454, 619.986
160.843, 639.087
162.233, 730.873
163.622, 785.390
165.011, 1203.449
166.399, 1698.502
167.787, 2634.547
169.175, 2929.583
170.563, 3025.658
171.951, 2522.901
173.338, 1857.323
174.725, 1439.926
176.112, 966.702
177.499, 716.642
178.885, 379.735
180.271, 161.969
181.657, 21.332
183.043, 142.186
184.428, 143.599
185.813, 194.920
187.198, 201.159
188.583, 150.327
189.967, 11.568
191.351, 217.517
192.735, 282.512
194.119, 380.545
195.502, 166.603
196.885, 126.666
198.268, 127.719
199.651, 214.760
201.033, 407.786
202.415, 599.799
203.797, 1069.796
205.179, 1284.778
206.561, 1816.735
207.942, 2282.657
209.323, 2554.545
210.703, 2659.432
212.084, 2267.380
213.464, 2124.416
214.844, 1768.470
216.224, 1623.500
217.603, 1415.435
218.983, 1131.045
220.362, 885.234
221.741, 516.096
223.119, 510.894
224.497, 87.693
225.875, 29.577
227.253, 57.976
228.631, 166.686
230.008, 149.928
231.385, 151.164
232.762, 105.974
234.139, 15.002
235.515, 51.035
236.891, 214.831
238.267, 273.610
239.643, 456.308
241.018, 513.794
242.393, 664.990
243.768, 805.969
245.143, 739.876
246.517, 721.765
247.891, 621.648
249.265, 772.527
250.639, 779.402
252.012, 985.272
253.386, 1238.121
254.759, 1405.367
256.131, 1402.370
257.504, 1046.536
258.876, 960.795
260.248, 803.103
261.620, 757.423
262.991, 880.729
264.363, 875.005
265.734, 1177.232
267.104, 1234.391
268.475, 1663.468
269.845, 1820.457
271.215, 2155.354
272.585, 2620.155
273.955, 2669.859
275.324, 2871.465
276.693, 2598.953
278.062, 2486.299
279.431, 2119.482
280.799, 1641.510
282.167, 1382.394
283.535, 1083.142
284.903, 1147.765
286.270, 1083.273
287.638, 1141.669
289.005, 1187.944
290.371, 1256.092
291.738, 1504.121
293.104, 1436.039
294.470, 1646.853
295.836, 1641.569
297.201, 1703.193
298.567, 1703.665
299.932, 1587.779
301.296, 1691.977
302.661, 1615.603
304.025, 1750.853
305.389, 1788.788
306.753, 1703.455
308.117, 1728.022
309.480, 1521.536
310.843, 1536.025
312.206, 1600.491
313.569, 1984.934
314.931, 2511.401
316.293, 3001.799
317.655, 3744.174
319.017, 3761.528
320.378, 3745.859
321.740, 3230.061
323.101, 2523.990
324.461, 2170.612
325.822, 1706.046
327.182, 1653.429
328.542, 1514.796
329.902, 1416.352
331.261, 1413.399
332.621, 1270.249
333.980, 1566.219
335.339, 1632.781
336.697, 2037.932
338.056, 2480.430
339.414, 2994.562
340.772, 3539.484
342.129, 3787.373
343.487, 3805.072
344.844, 3181.386
346.201, 2707.628
347.557, 2391.905
348.914, 1961.114
350.270, 1900.978
351.626, 1594.736
352.982, 1484.502
354.337, 1060.649
355.693, 742.447
357.048, 609.650
358.402, 347.557
359.757, 231.922
361.111, 128.905
362.465, 92.933
363.819, 74.117
365.173, 6.593
366.526, 87.471
367.879, 106.644
369.232, 234.227
370.585, 189.130
371.937, 277.088
373.290, 347.695
374.642, 248.210
375.993, 275.697
377.345, 263.026
378.696, 294.057
380.047, 348.918
381.398, 470.762
382.748, 655.593
384.099, 854.410
385.449, 1257.197
386.799, 1570.960
388.148, 1682.787
389.497, 1960.060
390.847, 1834.534
392.196, 2027.208
393.544, 1823.960
394.893, 1688.667
396.241, 1545.238
397.589, 1344.549
398.936, 1324.733
400.284, 1050.982
401.631, 942.633
402.978, 847.047
404.325, 594.629
405.672, 584.204
407.018, 471.773
408.364, 467.335
409.710, 468.892
411.055, 535.441
412.401, 756.985
413.746, 955.522
415.091, 1401.054
416.435, 1705.555
417.780, 1854.028
419.124, 1926.471
420.468, 1830.881
421.812, 2077.259
423.155, 2090.603
424.498, 2265.913
425.842, 2498.191
427.184, 2635.435
428.527, 3028.646
429.869, 2830.824
431.211, 2876.968
432.553, 2306.080
433.895, 1888.160
435.236, 1522.208
436.577, 1093.224
437.918, 1027.209
439.259, 820.163
440.599, 954.087
441.940, 1033.992
443.280, 1104.858
444.619, 1030.777
445.959, 1036.503
447.298, 821.285
448.637, 551.039
449.976, 476.767
451.315, 421.469
452.653, 353.145
453.991, 368.796
455.329, 348.422
456.667, 374.024
458.004, 356.601
459.341, 217.156
460.678, 187.687
462.015, 137.195
463.352, 127.680
464.688, 131.143
466.024, 187.586
467.360, 314.012
468.695, 278.423
470.031, 445.818
471.366, 365.343
472.701, 247.776
474.035, 316.278
475.370, 212.725
476.704, 244.169
478.038, 306.549
479.372, 378.885
480.705, 546.223
482.038, 590.564
483.371, 709.918
484.704, 669.273
486.037, 612.648
487.369, 648.035
488.701, 353.426
490.033, 161.836
491.365, 20.759
492.696, 16.364
494.027, 70.993
495.358, 80.675
496.689, 74.403
498.019, 96.187
499.350, 5.145
500.680, 20.262
502.009, 56.035
503.339, 143.658
504.668, 30.983
505.997, 163.456
507.326, 137.911
508.655, 145.562
509.983, 194.933
511.311, 130.241
512.639, 233.631
513.967, 135.089
515.295, 83.564
516.622, 116.038
517.949, 70.502
519.276, 52.768
520.602, 15.555
521.929, 43.106
523.255, 77.078
524.581, 108.262
525.906, 112.483
527.232, 130.581
528.557, 73.821
529.882, 63.397
531.207, 8.215
532.531, 9.320
533.855, 26.306
535.179, 27.539
536.503, 60.042
537.827, 125.485
539.150, 165.052
540.473, 256.846
541.796, 385.828
543.119, 507.801
544.441, 559.764
545.764, 603.717
547.086, 545.660
548.407, 631.606
549.729, 485.575
551.050, 417.576
552.371, 450.635
553.692, 453.749
555.013, 639.917
556.333, 615.128
557.653, 852.358
558.973, 1045.593
560.293, 948.824
561.612, 1036.051
562.932, 749.268
564.251, 736.475
565.569, 565.674
566.888, 497.862
568.206, 509.041
569.524, 430.210
570.842, 587.370
572.160, 465.520
573.477, 475.661
574.795, 588.792
576.112, 426.913
577.428, 418.025
578.745, 344.127
580.061, 321.220
581.377, 401.304
582.693, 381.379
584.009, 554.445
585.324, 587.501
586.639, 702.550
587.954, 785.589
589.269, 563.619
590.583, 641.642
591.897, 402.655
593.212, 349.661
594.525, 270.658
595.839, 137.647
597.152, 166.654
598.465, 131.627
599.778, 120.593
601.091, 131.550
602.403, 136.500
603.716, 226.442
605.028, 224.376
606.339, 284.304
607.651, 325.224
608.962, 292.136
610.273, 389.042
611.584, 363.940
612.895, 357.831
614.205, 506.715
615.515, 486.593
616.825, 625.464
618.135, 576.219
619.444, 636.850
620.754, 603.271
622.063, 464.652
623.372, 427.047
624.680, 270.679
625.989, 204.504
627.297, 174.323
628.605, 75.211
629.912, 93.164
631.220, 73.436
632.527, 83.803
633.834, 83.207
635.141, 99.337
636.447, 248.225
637.754, 230.609
639.060, 406.244
640.366, 393.264
641.671, 517.087
642.977, 612.118
644.282, 556.833
645.587, 564.986
646.892, 429.474
648.196, 383.244
649.501, 288.365
650.805, 212.572
652.109, 240.681
653.412, 146.635
654.716, 281.122
656.019, 86.603
657.322, 19.433
658.625, 82.454
659.927, 12.521
661.230, 68.917
662.532, 31.920
663.834, 134.393
665.135, 225.327
666.437, 261.151
667.738, 514.209
669.039, 584.484
670.340, 567.026
671.640, 900.965
672.940, 1116.705
674.241, 1377.963
675.540, 1724.791
676.840, 1696.916
678.139, 1897.404
679.439, 1601.788
680.738, 1304.269
682.036, 1140.375
683.335, 839.547
684.633, 755.880
685.931, 553.780
687.229, 445.336
688.527, 441.815
689.824, 326.624
691.121, 413.501
692.418, 406.384
693.715, 406.403
695.012, 531.694
696.308, 520.134
697.604, 703.567
698.900, 800.993
700.195, 1018.412
701.491, 1361.823
702.786, 1545.227
704.081, 2083.625
705.376, 2610.014
706.670, 3314.396
707.964, 4443.771
709.259, 5206.138
710.552, 6896.498
711.846, 7488.850
713.139, 8288.193
714.433, 8807.527
715.726, 7406.853
717.018, 6817.170
718.311, 5259.479
719.603, 4146.779
720.895, 3492.073
722.187, 2583.356
723.479, 2166.631
724.770, 1709.899
726.061, 1367.158
727.352, 1216.409
728.643, 843.652
729.934, 877.887
731.224, 618.114
732.514, 565.334
733.804, 499.545
735.094, 335.749
736.383, 371.945
737.672, 323.133
738.961, 214.313
740.250, 324.487
741.539, 166.652
742.827, 211.811
744.115, 245.961
745.403, 117.105
746.691, 142.241
747.978, 80.371
749.265, 145.493
750.552, 169.607
751.839, 71.715
753.126, 171.815
754.412, 172.909
755.698, 207.985
756.984, 233.065
758.270, 191.138
759.555, 301.204
760.840, 340.264
762.125, 392.317
763.410, 510.364
764.695, 427.403
765.979, 563.437
767.263, 553.463
768.547, 528.484
769.831, 529.499
771.114, 394.506
772.398, 399.508
773.681, 233.504
774.964, 251.495
776.246, 210.482
777.529, 143.464
778.811, 153.443
780.093, 82.416
781.375, 90.383
782.656, 47.344
783.937, 29.654
785.219, 6.037
786.499, 3.826
787.780, 15.353
789.060, 26.558
790.341, 54.730
791.621, 46.896
792.901, 51.101
794.180, 89.346
795.459, 38.650
796.739, 105.988
798.017, 69.394
799.296, 44.848
800.575, 98.340
801.853, 9.895
803.131, 56.466
804.409, 48.929
805.686, 14.326
806.964, 24.262
808.241, 98.149
809.518, 58.577
810.795, 131.848
812.071, 126.839
813.347, 40.103
814.623, 125.022
815.899, 26.228
817.175, 44.279
818.450, 18.278
819.726, 48.853
821.001, 17.461
822.275, 34.089
823.550, 17.741
824.824, 2.412
826.098, 3.092
827.372, -2.580
828.646, 6.473
829.920, 5.826
831.193, 22.879
832.466, 38.600
833.739, 26.057
835.011, 1.069
836.284, 6.780
837.556, 44.535
838.828, 60.884
840.100, 140.250
841.371, 105.632
842.642, 104.015
843.914, 186.399
845.184, 102.783
846.455, 172.167
847.726, 199.551
848.996, 215.932
850.266, 334.312
851.536, 251.689
852.805, 256.064
854.075, 312.437
855.344, 249.808
856.613, 428.177
857.881, 395.544
859.150, 369.910
860.418, 450.279
861.686, 343.647
862.954, 463.015
864.222, 420.382
865.489, 378.747
866.756, 567.112
868.023, 393.477
869.290, 466.840
870.557, 483.202
871.823, 454.563
873.089, 516.924
874.355, 501.283
875.621, 537.643
876.886, 541.004
878.152, 554.365
879.417, 585.726
880.682, 459.100
881.946, 508.474
883.211, 552.851
884.475, 454.234
885.739, 596.626
887.003, 535.023
888.266, 605.420
889.530, 728.817
890.793, 642.216
892.056, 874.615
893.318, 933.020
894.581, 990.433
895.843, 1211.846
897.105, 1226.269
898.367, 1543.693
899.629, 1668.117
900.890, 1688.557
902.152, 1993.998
903.413, 1753.439
904.673, 1774.855
905.934, 1719.299
907.194, 1388.748
908.454, 1320.198
909.714, 1145.650
910.974, 994.104
912.234, 977.559
913.493, 808.019
914.752, 826.486
916.011, 636.954
917.270, 679.435
918.528, 709.918
919.786, 618.404
921.044, 673.894
922.302, 659.386
923.560, 637.881
924.817, 764.380
926.074, 715.881
927.331, 773.386
928.588, 809.894
929.844, 734.404
931.101, 804.926
932.357, 728.451
933.613, 687.978
934.868, 729.431
936.124, 634.816
937.379, 815.891
938.634, 763.865
939.889, 748.752
941.144, 896.964
942.398, 874.415
943.652, 1026.366
944.906, 1174.064
946.160, 1183.373
947.414, 1438.878
948.667, 1447.170
949.920, 1680.776
951.173, 1963.942
952.426, 1980.770
953.678, 2361.121
954.931, 2588.622
956.183, 2918.228
957.435, 3544.700
958.686, 3807.293
959.938, 4720.938
961.189, 4946.591
962.440, 4891.251
963.691, 5081.917
964.941, 4401.564
966.192, 4189.249
967.442, 3763.861
968.692, 3487.559
969.942, 3602.695
971.191, 3524.982
972.441, 3669.213
973.690, 4161.474
974.939, 4090.733
976.187, 4508.873
977.436, 4474.999
978.684, 4220.745
979.932, 4383.729
981.180, 3496.349
982.428, 3497.452
983.675, 3165.697
984.922, 2845.670
986.169, 2875.172
987.416, 2635.733
988.663, 2573.562
989.909, 2649.399
991.155, 2412.244
992.401, 2612.108
993.647, 2548.980
994.893, 2487.858
996.138, 2696.744
997.383, 2472.638
998.628, 2654.538
999.873, 2581.447
1001.117, 2420.362
1002.362, 2376.287
1003.606, 2085.218
1004.850, 1900.164
1006.093, 1807.117
1007.337, 1477.078
1008.580, 1450.052
1009.823, 1249.240
1011.066, 1067.231
1012.308, 1075.435
1013.551, 819.442
1014.793, 805.462
1016.035, 772.780
1017.277, 634.815
1018.518, 679.865
1019.760, 557.922
1021.001, 552.986
1022.242, 635.062
1023.483, 496.144
1024.723, 550.236
1025.964, 531.932
1027.204, 503.044
1028.444, 622.165
1029.683, 526.433
1030.923, 569.568
1032.162, 572.445
1033.401, 587.052
1034.640, 678.001
1035.879, 638.145
1037.117, 702.316
1038.355, 913.508
1039.593, 810.962
1040.831, 942.167
1042.069, 984.414
1043.306, 911.386
1044.544, 1113.616
1045.781, 1015.784
1047.017, 1151.027
1048.254, 1328.277
1049.490, 1395.896
1050.726, 1659.158
1051.962, 1571.427
1053.198, 1655.701
1054.434, 1848.980
1055.669, 1498.113
1056.904, 1517.416
1058.139, 1466.724
1059.374, 1217.777
1060.608, 1211.497
1061.843, 896.457
1063.077, 868.838
1064.311, 825.178
1065.544, 655.180
1066.778, 683.538
1068.011, 689.900
1069.244, 654.869
1070.477, 852.330
1071.710, 757.952
1072.942, 893.534
1074.174, 1082.921
1075.406, 1090.790
1076.638, 1380.186
1077.870, 1479.587
1079.101, 1561.238
1080.332, 1712.649
1081.563, 1549.164
1082.794, 1489.675
1084.025, 1350.109
1085.255, 1007.407
1086.485, 1025.853
1087.715, 821.307
1088.945, 714.535
1090.175, 708.016
1091.404, 477.586
1092.633, 547.216
1093.862, 384.760
1095.091, 353.408
1096.319, 451.001
1097.548, 294.630
1098.776, 349.432
1100.004, 328.105
1101.231, 207.811
1102.459, 356.776
1103.686, 265.514
1104.913, 211.277
1106.140, 344.039
1107.367, 171.796
1108.593, 220.652
1109.819, 148.415
1111.046, 114.214
1112.271, 144.005
1113.497, 98.968
1114.722, 119.776
1115.948, 241.553
1117.173, 60.332
1118.398, 230.165
1119.622, 331.023
1120.847, 217.839
1122.071, 198.674
1123.295, 87.512
1124.519, 82.356
1125.742, 91.288
1126.966, 16.139
1128.189, 75.994
1129.412, 45.910
1130.635, 4.222
1131.857, 93.747
1133.080, 7.363
1134.302, 43.340
1135.524, 62.889
1136.746, 24.774
1137.967, 53.691
1139.188, 47.407
1140.410, 17.292
1141.631, 68.207
1142.851, 57.156
1144.072, 31.042
1145.292, 19.927
1146.512, 11.885
1147.732, 5.295
1148.952, 11.071
1150.172, 6.859
1151.391, 30.169
1152.610, 35.201
1153.829, 44.188
1155.048, 37.390
1156.266, 31.462
1157.484, 24.587
1158.702, 9.262
1159.920, 40.658
1161.138, 37.902
1162.356, 11.242
1163.573, 2.787
1164.790, 37.381
1166.007, 12.586
1167.224, 23.070
1168.440, 16.775
1169.656, 14.613
1170.872, 30.947
1172.088, 14.751
1173.304, 43.073
1174.519, 48.038
1175.735, 56.122
1176.950, 55.776
1178.165, 49.018
1179.379, 27.986
1180.594, 33.031
1181.808, 19.160
1183.022, 22.563
1184.236, 24.779
1185.449, 3.967
1186.663, 36.850
1187.876, 17.197
1189.089, 28.476
1190.302, 42.253
1191.515, 30.684
1192.727, 55.986
1193.939, 43.727
1195.151, 52.532
1196.363, 60.068
1197.575, 66.796
1198.786, 48.387
1199.997, 98.973
1201.208, 9.596
1202.419, 33.972
1203.630, 47.680
1204.840, 4.154
1206.051, 65.705
1207.261, 4.579
1208.470, 10.925
1209.680, 116.593
1210.889, 35.428
1212.099, 57.099
1213.308, 93.577
1214.516, 1.950
1215.725, 19.510
1216.933, 4.963
1218.142, 6.540
1219.350, 71.976
1220.557, 1.439
1221.765, 56.858
1222.972, 71.272
1224.180, 25.872
1225.387, 87.543
1226.593, 25.783
1227.800, 30.403
1229.006, 151.765
1230.213, 33.805
1231.419, 66.615
1232.624, 92.933
1233.830, 15.584
1235.035, 72.717
1236.241, 39.013
1237.446, 30.477
1238.650, 65.762
1239.855, 40.206
1241.059, 60.480
1242.264, 80.748
1243.468, 24.136
1244.671, 74.391
1245.875, 131.640
1247.078, 15.925
1248.282, 97.155
1249.485, 57.378
1250.687, 59.650
1251.890, 94.859
1253.092, 42.055
1254.295, 117.243
1255.497, 58.423
1256.699, 61.579
1257.900, 23.735
1259.102, 59.875
1260.303, 85.135
1261.504, 85.258
1262.705, 1.365
1263.905, 58.603
1265.106, 115.677
1266.306, 70.741
1267.506, 153.787
1268.706, 118.823
1269.905, 53.841
1271.105, 135.843
1272.304, 98.833
1273.503, 61.844
1274.702, 95.804
1275.900, 2.720
1277.099, 97.910
1278.297, 46.727
1279.495, 21.168
1280.693, 150.047
1281.891, 69.905
1283.088, 25.249
1284.285, 154.572
1285.482, 72.306
1286.679, 64.184
1287.876, 91.954
1289.072, 82.706
1290.268, 63.445
1291.464, 76.173
1292.660, 26.879
1293.856, 145.594
1295.051, 1.723
1296.247, 46.942
1297.442, 57.596
1298.637, 0.234
1299.831, 30.848
1301.026, 39.233
1302.220, 28.811
1303.414, 69.169
1304.608, 1.280
1305.802, 128.253
1306.995, 41.481
1308.188, 7.013
1309.381, 116.472
1310.574, 95.945
1311.767, 8.405
1312.960, 113.849
1314.152, 19.280
1315.344, 2.304
1316.536, 93.500
1317.728, 51.882
1318.919, 81.250
1320.110, 57.463
1321.301, 10.804
1322.492, 117.397
1323.683, 36.255
1324.874, 48.761
1326.064, 128.068
1327.254, 30.660
1328.444, 68.588
1329.634, 54.671
1330.823, 3.105
1332.013, 73.071
1333.202, 64.519
1334.391, 15.704
1335.580, 70.947
1336.768, 53.109
1337.956, 52.262
1339.145, 101.040
1340.333, 43.173
1341.520, 103.296
1342.708, 114.410
1343.895, 32.485
1345.083, 98.764
1346.270, 39.840
1347.456, 2.092
1348.643, 140.834
1349.829, 33.883
1351.016, 45.293
1352.202, 131.399
1353.387, 11.573
1354.573, 60.794
1355.759, 71.970
1356.944, 74.978
1358.129, 136.382
1359.314, 77.297
1360.498, 40.054
1361.683, 145.858
1362.867, 63.855
1364.051, 92.366
1365.235, 90.465
1366.419, 5.457
1367.602, 62.207
1368.785, 4.177
1369.968, 10.291
1371.151, 101.971
1372.334, 48.703
1373.517, 47.277
1374.699, 121.026
1375.881, 27.371
1377.063, 79.801
1378.245, 70.289
1379.426, 27.601
1380.608, 145.784
1381.789, 30.190
1382.970, 81.584
1384.150, 126.873
1385.331, 40.187
1386.511, 114.290
1387.691, 186.626
1388.871, 58.691
1390.051, 122.971
1391.231, 119.240
1392.410, 57.393
1393.589, 132.557
1394.768, 81.463
1395.947, 91.488
1397.126, 73.244
1398.304, 74.856
1399.483, 65.924
1400.661, 155.928
1401.838, 36.902
1403.016, 115.532
1404.194, 98.695
1405.371, 31.344
1406.548, 141.186
1407.725, 65.491
1408.901, 75.437
1410.078, 135.073
1411.254, 101.500
1412.430, 111.098
1413.606, 127.174
1414.782, 48.811
1415.958, 131.294
1417.133, 51.865
1418.308, 5.301
1419.483, 142.850
1420.658, 73.914
1421.832, 49.464
1423.007, 97.976
1424.181, 54.958
1425.355, 102.270
1426.529, 113.728
1427.702, 61.385
1428.876, 158.203
1430.049, 75.947
1431.222, 47.178
1432.395, 184.488
1433.567, 95.306
1434.740, 37.799
1435.912, 128.285
1437.084, 65.512
1438.256, 138.907
1439.428, 205.476
1440.599, 98.432
1441.770, 121.893
1442.942, 135.509
1444.112, 47.018
1445.283, 169.313
1446.454, 70.194
1447.624, 122.037
1448.794, 221.906
1449.964, 65.007
1451.134, 110.973
1452.303, 182.866
1453.473, 99.852
1454.642, 96.807
1455.811, 222.774
1456.980, 96.379
1458.148, 129.286
1459.317, 121.805
1460.485, 96.720
1461.653, 159.646
1462.821, 86.596
1463.989, 77.452
1465.156, 206.563
1466.323, 55.536
1467.490, 83.561
1468.657, 151.605
1469.824, 4.622
1470.991, 172.771
1472.157, 149.932
1473.323, 73.080
1474.489, 150.286
1475.655, 83.492
1476.820, 99.803
1477.986, 171.170
1479.151, 30.551
1480.316, 104.967
1481.481, 165.408
1482.645, 98.887
1483.810, 57.404
1484.974, 101.983
1486.138, 41.635
1487.302, 94.352
1488.465, 82.166
1489.629, 102.084
1490.792, 116.392
1491.955, 5.455
1493.118, 94.622
1494.281, 143.902
1495.443, 0.302
1496.606, 99.837
1497.768, 130.532
1498.930, 43.408
1500.091, 136.490
1501.253, 68.842
1502.414, 58.629
1503.575, 172.354
1504.736, 27.873
1505.897, 100.519
1507.058, 167.354
1508.218, 0.757
1509.379, 117.990
1510.539, 0.000
##END=



