##NAMES=Azurite
##RRUFFID=R050638
##IDEAL CHEMISTRY=Cu^2+^_3_(CO_3_)_2_(OH)_2_
##LOCALITY=Zacatecas, Mexico
##OWNER=RRUFF
##SOURCE=University of Arizona Mineral Museum
##DESCRIPTION=Blue bladed crystals
##STATUS=The identification of this mineral has been confirmed by X-ray diffraction and chemical analysis
##URL=rruff.info/R050638
##MEASURED CHEMISTRY=Cu_3.00_(CO_3_)_2_(OH)_2_
##PIN_ID=M00402
##ORIENTATION=Laser parallel to c* (0 0 1). Fiducial mark perpendicular to laser is parallel to -a [-1 0 0]
52.67100, 0.0000000E+00
53.91000, 50.41608
55.14900, 102.5673
56.38700, 133.3289
57.62600, 165.7272
58.86400, 80.38751
60.10300, 38.51190
61.34100, 2.687744
62.57900, 60.87097
63.81700, 54.89575
65.05400, 14.94873
66.29200, 177.0391
67.52900, 448.8191
68.76700, 1012.806
70.00400, 2044.609
71.24100, 3897.912
72.47700, 6316.430
73.71400, 10696.96
74.95100, 18303.28
76.18700, 28748.12
77.42300, 34473.24
78.65900, 32655.46
79.89500, 33314.59
81.13100, 37974.51
82.36700, 44243.07
83.60200, 49124.18
84.83700, 51057.73
86.07200, 48398.76
87.30800, 40133.26
88.54200, 28793.13
89.77700, 19353.29
91.01200, 13418.60
92.24600, 10080.09
93.48000, 7621.101
94.71400, 5870.208
95.94800, 4963.117
97.18200, 4073.715
98.41600, 3436.971
99.64900, 3320.854
100.8830, 3065.338
102.1160, 2630.401
103.3490, 2516.026
104.5820, 2545.192
105.8150, 2820.885
107.0470, 3325.089
108.2800, 3776.790
109.5120, 3534.895
110.7440, 4728.641
111.9760, 3080.761
113.2080, 2292.335
114.4400, 2247.348
115.6710, 2606.794
116.9030, 2981.072
118.1340, 2775.861
119.3650, 2762.119
120.5960, 3118.058
121.8270, 4416.235
123.0580, 6643.650
124.2880, 6649.871
125.5190, 9865.203
126.7490, 8028.270
127.9790, 7956.271
129.2090, 9404.205
130.4390, 11725.06
131.6680, 14411.63
132.8980, 16640.08
134.1270, 17186.84
135.3560, 16841.49
136.5850, 14999.32
137.8140, 12910.07
139.0430, 10723.97
140.2710, 9352.026
141.5000, 8611.244
142.7280, 7888.632
143.9560, 7030.197
145.1840, 6195.946
146.4120, 5241.881
147.6390, 4714.007
148.8670, 3755.326
150.0940, 2979.840
151.3210, 2984.549
152.5490, 3338.455
153.7750, 3653.560
155.0020, 3774.864
156.2290, 4135.366
157.4550, 3949.067
158.6810, 3879.969
159.9080, 3935.068
161.1340, 4279.363
162.3590, 5279.855
163.5850, 6614.542
164.8110, 7252.422
166.0360, 7048.497
167.2610, 6992.757
168.4860, 7840.206
169.7110, 9229.842
170.9360, 11270.66
172.1610, 13213.67
173.3850, 13436.85
174.6100, 12722.22
175.8340, 11514.77
177.0580, 9982.503
178.2820, 8583.412
179.5050, 7494.383
180.7290, 7042.947
181.9520, 6691.316
183.1760, 6035.215
184.3990, 4944.155
185.6220, 3897.913
186.8450, 3067.513
188.0670, 2546.426
189.2900, 2374.530
190.5120, 2365.820
191.7340, 2486.292
192.9560, 2502.950
194.1780, 2533.781
195.4000, 2591.784
196.6220, 2561.958
197.8430, 2576.308
199.0640, 2455.830
200.2860, 2367.900
201.5070, 2535.796
202.7270, 2759.507
203.9480, 2287.967
205.1690, 1545.351
206.3890, 561.0366
207.6090, 124.7800
208.8290, 18.88232
210.0490, 133.1655
211.2690, 90.70850
212.4890, 135.2346
213.7080, 119.3652
214.9280, 8.878418
216.1470, 7.489990
217.3660, 79.54932
218.5850, 20.26440
219.8030, 70.66040
221.0220, 37.23804
222.2400, 40.42651
223.4590, 124.8926
224.6770, 271.6338
225.8950, 360.6333
227.1120, 624.8821
228.3300, 783.3755
229.5480, 1136.101
230.7650, 1467.050
231.9820, 1679.217
233.1990, 1960.595
234.4160, 2556.177
235.6330, 3302.957
236.8490, 4494.929
238.0660, 6108.087
239.2820, 8388.427
240.4980, 10525.94
241.7140, 11819.62
242.9300, 11224.47
244.1460, 10889.48
245.3610, 11706.65
246.5770, 13528.97
247.7920, 15368.45
249.0070, 17284.08
250.2220, 18503.85
251.4370, 17749.79
252.6510, 15214.85
253.8660, 11546.06
255.0800, 8333.417
256.2940, 6080.907
257.5080, 4994.534
258.7220, 4720.295
259.9360, 5039.188
261.1490, 5240.212
262.3630, 4627.365
263.5760, 4738.643
264.7890, 5211.038
266.0020, 5669.545
267.2150, 6214.161
268.4270, 6586.885
269.6400, 6810.717
270.8520, 7224.653
272.0640, 7482.696
273.2760, 7923.843
274.4880, 8319.092
275.7000, 9042.449
276.9120, 9842.914
278.1230, 10467.45
279.3340, 11081.04
280.5450, 11490.71
281.7560, 12084.47
282.9670, 14231.32
284.1780, 11934.28
285.3880, 12002.35
286.5980, 13119.52
287.8090, 8113.798
289.0190, 6502.185
290.2290, 5180.676
291.4380, 3720.270
292.6480, 2931.969
293.8570, 2165.770
295.0670, 1680.673
296.2760, 1206.678
297.4850, 794.7832
298.6930, 598.9893
299.9020, 408.2935
301.1110, 186.6968
302.3190, 33.21680
303.5270, 74.15869
304.7350, 136.4390
305.9430, 123.6284
307.1510, 264.7295
308.3580, 253.7598
309.5660, 312.7192
310.7730, 428.6187
311.9800, 381.4829
313.1870, 269.3076
314.3940, 296.0845
315.6010, 238.8022
316.8070, 266.4673
318.0130, 210.0859
319.2200, 35.37500
320.4260, 154.9302
321.6310, 281.5918
322.8370, 586.3594
324.0430, 816.2324
325.2480, 942.1616
326.4540, 1162.112
327.6590, 1287.041
328.8640, 1313.902
330.0680, 1407.458
331.2730, 1569.311
332.4780, 1624.221
333.6820, 1638.231
334.8860, 1598.340
336.0900, 1545.560
337.2940, 1350.881
338.4980, 1201.301
339.7010, 999.1104
340.9050, 797.7227
342.1080, 758.4365
343.3110, 700.3022
344.5140, 602.1973
345.7170, 636.2139
346.9200, 759.3623
348.1220, 843.7021
349.3240, 890.1162
350.5270, 968.6631
351.7290, 1111.318
352.9310, 1258.139
354.1320, 1446.749
355.3340, 1672.499
356.5350, 1903.719
357.7370, 2205.672
358.9380, 2535.260
360.1390, 2838.779
361.3400, 3097.397
362.5400, 3780.465
363.7410, 4058.644
364.9410, 4647.140
366.1410, 5228.195
367.3410, 5893.352
368.5410, 6555.260
369.7410, 7234.784
370.9400, 8177.330
372.1400, 9029.864
373.3390, 10146.50
374.5380, 11154.23
375.7370, 12150.05
376.9360, 13390.95
378.1350, 14450.51
379.3330, 15652.67
380.5310, 16833.18
381.7300, 18090.42
382.9280, 19448.74
384.1260, 20710.14
385.3230, 22590.62
386.5210, 24346.18
387.7180, 26895.82
388.9160, 29927.54
390.1130, 33986.33
391.3100, 38573.18
392.5060, 42980.12
393.7030, 47323.13
394.9000, 50402.21
396.0960, 53221.36
397.2920, 55688.59
398.4880, 57278.86
399.6840, 59066.21
400.8800, 60261.62
402.0750, 60067.11
403.2710, 57723.66
404.4660, 53016.25
405.6610, 46330.93
406.8560, 39273.65
408.0510, 32725.45
409.2450, 27091.29
410.4400, 22316.20
411.6340, 18862.16
412.8280, 16107.18
414.0220, 13937.25
415.2160, 12229.38
416.4100, 10466.57
417.6030, 9501.801
418.7970, 8372.087
419.9900, 7565.427
421.1830, 6815.820
422.3760, 5903.263
423.5690, 5268.755
424.7610, 4758.295
425.9540, 4129.886
427.1460, 3739.523
428.3380, 3336.207
429.5300, 2956.937
430.7220, 2557.712
431.9140, 2386.532
433.1050, 2134.397
434.2970, 1863.304
435.4880, 1803.255
436.6790, 1486.248
437.8700, 1308.282
439.0610, 1221.373
440.2510, 970.4888
441.4420, 874.9556
442.6320, 746.3555
443.8220, 643.0957
445.0120, 520.6775
446.2020, 453.5110
447.3910, 322.1343
448.5810, 315.9187
449.7700, 246.2273
450.9600, 323.7468
452.1490, 197.4595
453.3370, 159.7146
454.5260, 221.4517
455.7150, 166.4941
456.9030, 54.54028
458.0910, 160.6118
459.2800, 158.2241
460.4670, 143.8564
461.6550, 50.19922
462.8430, 224.9895
464.0300, 20.42358
465.2180, 173.1187
466.4050, 132.8267
467.5920, 127.5503
468.7790, 93.59741
469.9650, 129.2959
471.1520, 168.0916
472.3380, 10.39648
473.5250, 25.84668
474.7110, 51.74268
475.8970, 125.3030
477.0820, 28.90747
478.2680, 34.13232
479.4540, 39.90112
480.6390, 46.97070
481.8240, 5.913086
483.0090, 40.58691
484.1940, 41.09473
485.3780, 15.06201
486.5630, 74.19604
487.7470, 69.82422
488.9320, 51.98315
490.1160, 17.28223
491.3000, 91.72119
492.4830, 99.36914
493.6670, 115.4155
494.8500, 125.8308
496.0340, 132.9604
497.2170, 86.85986
498.4000, 140.1135
499.5820, 67.23218
500.7650, 56.94922
501.9480, 103.2981
503.1300, 40.30762
504.3120, 89.03101
505.4940, 3.307861
506.6760, 98.15308
507.8580, 96.51831
509.0390, 52.65015
510.2210, 16.91211
511.4020, 19.69849
512.5830, 23.99146
513.7640, 1.819336
514.9450, 48.65967
516.1250, 87.61621
517.3060, 58.22534
518.4860, 125.0564
519.6660, 165.3201
520.8460, 224.6199
522.0260, 176.8970
523.2060, 290.8889
524.3850, 341.7695
525.5650, 454.6855
526.7440, 532.5322
527.9230, 668.5818
529.1020, 742.3635
530.2810, 941.1362
531.4590, 1100.566
532.6380, 1287.976
533.8160, 1541.696
534.9940, 1732.229
536.1720, 1978.423
537.3500, 2242.322
538.5270, 2264.132
539.7050, 2491.074
540.8820, 2470.554
542.0590, 2560.510
543.2360, 2429.957
544.4130, 2238.587
545.5900, 2110.222
546.7660, 1952.488
547.9430, 1677.448
549.1190, 1472.164
550.2950, 1228.487
551.4710, 1144.857
552.6470, 901.7300
553.8220, 801.5847
554.9980, 788.7537
556.1730, 698.5317
557.3480, 601.8760
558.5230, 493.5405
559.6980, 511.5579
560.8730, 465.3940
562.0470, 440.4756
563.2220, 393.4429
564.3960, 378.9600
565.5700, 330.5671
566.7440, 342.0220
567.9170, 305.4448
569.0910, 282.8357
570.2640, 285.1938
571.4380, 208.5188
572.6110, 263.8103
573.7840, 263.0676
574.9570, 156.2905
576.1290, 80.47925
577.3020, 100.6323
578.4740, 109.7500
579.6460, 71.83179
580.8180, 106.8765
581.9900, 74.88428
583.1620, 111.8542
584.3330, 77.78687
585.5040, 39.31934
586.6760, 9.496826
587.8470, 21.74097
589.0180, 48.03345
590.1880, 30.38379
591.3590, 67.78540
592.5290, 62.23267
593.7000, 65.72510
594.8700, 63.25366
596.0400, 47.79492
597.2090, 5.649414
598.3790, 63.91577
599.5490, 3.478760
600.7180, 1.144043
601.8870, 82.78149
603.0560, 7.512207
604.2250, 34.25659
605.3940, 37.11108
606.5620, 36.05371
607.7300, 35.08472
608.8990, 39.05322
610.0670, 16.41406
611.2350, 48.70410
612.4020, 43.09180
613.5700, 54.27954
614.7370, 15.86353
615.9050, 9.528564
617.0720, 9.272461
618.2390, 50.09619
619.4060, 26.02051
620.5720, 14.03394
621.7390, 27.13086
622.9050, 11.39355
624.0710, 34.86450
625.2370, 6.782227
626.4030, 4.293945
627.5690, 51.79102
628.7340, 10.77368
629.9000, 12.42261
631.0650, 1.785645
632.2300, 1.027100
633.3950, 43.08032
634.5600, 18.12207
635.7240, 31.90820
636.8890, 4.035889
638.0530, 8.246338
639.2170, 21.54224
640.3810, 27.06934
641.5450, 41.60913
642.7080, 56.08105
643.8720, 70.87427
645.0350, 12.83081
646.1980, 66.42432
647.3610, 44.62695
648.5240, 17.76099
649.6870, 42.81958
650.8490, 34.15454
652.0120, 46.89868
653.1740, 14.64624
654.3360, 5.424805
655.4980, 21.11938
656.6600, 33.73926
657.8210, 68.28784
658.9830, 47.77173
660.1440, 46.18701
661.3050, 100.5332
662.4660, 60.81909
663.6270, 66.03857
664.7870, 64.19263
665.9480, 67.28076
667.1080, 57.30322
668.2680, 69.76123
669.4280, 69.92432
670.5880, 89.97314
671.7480, 77.73608
672.9070, 84.43457
674.0670, 82.06995
675.2260, 101.6418
676.3850, 60.15332
677.5440, 129.5981
678.7030, 117.9852
679.8610, 155.3136
681.0200, 114.5874
682.1780, 155.8021
683.3360, 137.9622
684.4940, 136.0659
685.6520, 88.11279
686.8090, 107.0974
687.9670, 125.0227
689.1240, 157.8903
690.2810, 149.7034
691.4380, 208.4618
692.5950, 207.1697
693.7520, 165.8267
694.9080, 214.4303
696.0650, 140.9840
697.2210, 230.4824
698.3770, 171.9313
699.5330, 190.3279
700.6880, 157.6731
701.8440, 167.9651
702.9990, 245.2043
704.1550, 204.3951
705.3100, 273.5364
706.4650, 271.6292
707.6190, 288.6740
708.7740, 313.7139
709.9290, 312.6200
711.0830, 340.5215
712.2370, 376.3754
713.3910, 398.7522
714.5450, 410.9417
715.6980, 403.6543
716.8520, 472.3202
718.0050, 454.9395
719.1580, 450.4958
720.3110, 523.0225
721.4640, 601.4885
722.6170, 694.9231
723.7700, 676.2997
724.9220, 779.3309
726.0740, 984.1021
727.2260, 962.0182
728.3780, 1101.324
729.5300, 1213.593
730.6810, 1426.565
731.8330, 1577.794
732.9840, 1781.714
734.1350, 1959.703
735.2860, 2087.572
736.4370, 2305.548
737.5880, 2431.217
738.7380, 2508.934
739.8880, 2672.314
741.0390, 2612.521
742.1890, 2596.242
743.3380, 2742.311
744.4880, 2575.121
745.6380, 2613.906
746.7870, 2570.663
747.9360, 2543.087
749.0850, 2590.847
750.2340, 2643.500
751.3830, 2771.424
752.5310, 2967.601
753.6800, 3235.114
754.8280, 3465.951
755.9760, 3734.734
757.1240, 3968.470
758.2720, 4274.479
759.4190, 4424.761
760.5670, 4660.155
761.7140, 4847.802
762.8610, 4914.603
764.0080, 4952.928
765.1550, 4843.070
766.3020, 4522.705
767.4480, 4282.792
768.5950, 3835.724
769.7410, 3402.499
770.8870, 3072.048
772.0330, 2649.181
773.1780, 2325.521
774.3240, 2049.992
775.4690, 1763.169
776.6140, 1594.040
777.7590, 1441.037
778.9040, 1278.433
780.0490, 1161.191
781.1940, 1036.268
782.3380, 998.6113
783.4820, 919.3889
784.6260, 869.5747
785.7700, 802.2266
786.9140, 769.0889
788.0580, 727.9885
789.2010, 638.9512
790.3450, 676.5723
791.4880, 651.2717
792.6310, 645.6514
793.7730, 540.5288
794.9160, 585.7288
796.0590, 580.6812
797.2010, 585.1758
798.3430, 657.6084
799.4850, 580.0374
800.6270, 677.7251
801.7690, 677.4976
802.9100, 712.2075
804.0520, 656.9597
805.1930, 673.4817
806.3340, 738.2434
807.4750, 838.9871
808.6160, 873.0449
809.7560, 936.8782
810.8970, 1055.804
812.0370, 1066.672
813.1770, 1196.851
814.3170, 1342.295
815.4570, 1385.800
816.5960, 1526.141
817.7360, 1648.915
818.8750, 1837.183
820.0140, 1915.930
821.1530, 2067.463
822.2920, 2375.960
823.4310, 2729.796
824.5690, 3096.906
825.7070, 3471.230
826.8460, 3785.915
827.9840, 4094.520
829.1220, 4515.593
830.2590, 4779.650
831.3970, 5073.362
832.5340, 4947.433
833.6710, 5041.904
834.8080, 4928.023
835.9450, 4754.757
837.0820, 4452.638
838.2190, 4165.241
839.3550, 3919.926
840.4910, 3517.026
841.6270, 3235.003
842.7630, 3046.100
843.8990, 2559.194
845.0350, 2325.286
846.1700, 2043.378
847.3060, 1715.469
848.4410, 1541.559
849.5760, 1368.648
850.7100, 1103.737
851.8450, 956.8262
852.9800, 781.9163
854.1140, 769.0073
855.2480, 631.0994
856.3820, 564.1929
857.5160, 518.2881
858.6500, 409.3855
859.7830, 311.4854
860.9170, 311.5881
862.0500, 286.7148
863.1830, 201.0032
864.3160, 189.4233
865.4480, 175.6416
866.5810, 221.9460
867.7130, 190.7556
868.8460, 196.3696
869.9780, 192.3152
871.1100, 169.3445
872.2410, 161.2693
873.3730, 125.0671
874.5050, 102.6648
875.6360, 129.3181
876.7670, 68.69336
877.8980, 11.21411
879.0290, 50.58887
880.1590, 115.1404
881.2900, 114.7490
882.4200, 85.32788
883.5500, 112.5981
884.6800, 108.2485
885.8100, 153.3455
886.9400, 111.0540
888.0690, 120.7952
889.1990, 113.6257
890.3280, 86.44629
891.4570, 105.7644
892.5860, 146.6279
893.7140, 73.63599
894.8430, 131.5605
895.9710, 120.5430
897.1000, 111.5283
898.2280, 158.5366
899.3560, 158.5833
900.4830, 84.65259
901.6110, 102.7458
902.7380, 106.8660
903.8660, 173.0269
904.9930, 136.2175
906.1200, 177.4338
907.2460, 208.6821
908.3730, 152.9495
909.5000, 243.2395
910.6260, 232.5796
911.7520, 247.9478
912.8780, 298.3501
914.0040, 277.7939
915.1290, 361.2605
916.2550, 362.7480
917.3800, 399.2551
918.5050, 490.7812
919.6300, 571.3328
920.7550, 664.9031
921.8800, 684.4954
923.0040, 838.1118
924.1290, 941.7505
925.2530, 1149.412
926.3770, 1245.095
927.5010, 1548.805
928.6250, 1734.541
929.7480, 1946.306
930.8720, 2182.101
931.9950, 2470.917
933.1180, 2651.758
934.2410, 2869.621
935.3640, 2934.506
936.4860, 3076.413
937.6090, 3061.341
938.7310, 3061.291
939.8530, 2914.268
940.9750, 2729.268
942.0970, 2660.294
943.2180, 2380.341
944.3400, 2219.408
945.4610, 1920.497
946.5820, 1741.611
947.7030, 1538.747
948.8240, 1264.914
949.9450, 1117.103
951.0650, 961.3186
952.1860, 900.5547
953.3060, 807.8137
954.4260, 752.0938
955.5460, 681.4036
956.6650, 598.7310
957.7850, 491.0771
958.9040, 494.4451
960.0230, 449.8376
961.1420, 466.2493
962.2610, 353.6787
963.3800, 302.1257
964.4990, 410.5894
965.6170, 296.0681
966.7350, 295.5659
967.8530, 237.0791
968.9710, 348.6130
970.0890, 229.1655
971.2070, 242.7349
972.3240, 191.3218
973.4410, 204.9285
974.5580, 176.5574
975.6750, 138.2070
976.7920, 171.8735
977.9090, 155.5586
979.0250, 154.2593
980.1410, 86.97632
981.2580, 73.71533
982.3740, 80.47021
983.4890, 110.2432
984.6050, 59.04004
985.7200, 110.8550
986.8360, 118.6848
987.9510, 63.52979
989.0660, 71.39038
990.1810, 25.26685
991.2950, 34.15918
992.4100, 13.06763
993.5240, 15.99121
994.6390, 33.93018
995.7530, 1.884033
996.8660, 9.146973
997.9800, 14.16504
999.0940, 2.171143
1000.207, 6.162842
1001.320, 25.14087
1002.433, 43.10938
1003.546, 56.07349
1004.659, 35.03833
1005.772, 23.99756
1006.884, 18.94824
1007.996, 42.88989
1009.108, 43.82886
1010.220, 34.76611
1011.332, 37.69873
1012.444, 32.62817
1013.555, 87.55249
1014.666, 2.377686
1015.777, 26.69531
1016.888, 25.21973
1017.999, 12.66089
1019.110, 16.23608
1020.220, 3.873779
1021.331, 10.99561
1022.441, 1.050293
1023.551, 1.093018
1024.661, 17.44141
1025.770, 1.718994
1026.880, 3.666260
1027.989, 15.24219
1029.098, 0.4323730
1030.207, 6.244629
1031.316, 2.453857
1032.425, 30.23096
1033.533, 42.45898
1034.642, 36.69629
1035.750, 70.54077
1036.858, 44.44336
1037.966, 102.9380
1039.073, 89.21021
1040.181, 67.74561
1041.288, 61.03418
1042.396, 138.3306
1043.503, 121.1331
1044.610, 122.4441
1045.716, 141.8491
1046.823, 136.0928
1047.929, 140.4243
1049.036, 142.8337
1050.142, 207.2188
1051.248, 260.6140
1052.353, 196.0198
1053.459, 226.3811
1054.564, 177.7485
1055.670, 253.1213
1056.775, 262.4998
1057.880, 238.8828
1058.985, 287.2715
1060.089, 259.7500
1061.194, 328.2087
1062.298, 353.2366
1063.402, 348.2163
1064.506, 318.7620
1065.610, 375.7327
1066.713, 413.1519
1067.817, 467.2178
1068.920, 502.7332
1070.023, 561.5085
1071.126, 577.6743
1072.229, 672.5867
1073.332, 720.3506
1074.435, 760.5786
1075.537, 870.0691
1076.639, 995.5164
1077.741, 1005.098
1078.843, 1165.636
1079.945, 1321.374
1081.046, 1616.352
1082.148, 1703.855
1083.249, 2060.207
1084.350, 2505.038
1085.451, 3083.968
1086.551, 3909.803
1087.652, 4875.212
1088.752, 6253.713
1089.853, 8100.281
1090.953, 10179.90
1092.053, 12265.52
1093.152, 14123.09
1094.252, 15323.69
1095.351, 16318.21
1096.451, 16178.78
1097.550, 15766.35
1098.649, 14145.11
1099.748, 11719.58
1100.846, 9219.656
1101.945, 7146.832
1103.043, 5473.311
1104.141, 4214.997
1105.239, 3469.980
1106.337, 2702.633
1107.434, 2266.317
1108.532, 1933.981
1109.629, 1762.207
1110.726, 1487.813
1111.823, 1270.485
1112.920, 1111.536
1114.017, 991.0198
1115.113, 976.2090
1116.210, 819.6396
1117.306, 765.7061
1118.402, 705.1631
1119.498, 619.5974
1120.593, 649.0757
1121.689, 535.7583
1122.784, 544.3604
1123.879, 580.9780
1124.974, 431.4617
1126.069, 505.9509
1127.164, 445.3911
1128.259, 410.8350
1129.353, 338.1116
1130.447, 308.2769
1131.541, 222.7898
1132.635, 210.5144
1133.729, 165.1970
1134.822, 161.5952
1135.916, 178.3696
1137.009, 125.9395
1138.102, 73.79199
1139.195, 153.7212
1140.288, 126.8782
1141.380, 123.9897
1142.473, 63.39038
1143.565, 79.67944
1144.657, 73.12427
1145.749, 11.43262
1146.841, 48.68677
1147.932, 36.99194
1149.024, 36.37158
1150.115, 22.89624
1151.206, 18.74292
1152.297, 27.09863
1153.388, 3.654785
1154.479, 42.53882
1155.569, 6.864258
1156.659, 38.59253
1157.750, 16.79175
1158.839, 12.09375
1159.929, 30.28174
1161.019, 1.430664
1162.108, 62.59668
1163.198, 13.24707
1164.287, 25.92554
1165.376, 44.05322
1166.465, 24.68384
1167.553, 33.59326
1168.642, 12.46313
1169.730, 45.50830
1170.818, 6.383545
1171.906, 38.63306
1172.994, 63.64062
1174.082, 41.36060
1175.170, 43.59863
1176.257, 2.451172
1177.344, 15.47144
1178.431, 43.43359
1179.518, 22.33545
1180.605, 28.22095
1181.691, 28.09595
1182.778, 27.96143
1183.864, 67.81665
1184.950, 85.66260
1186.036, 57.60620
1187.122, 64.32446
1188.207, 53.34766
1189.292, 62.94678
1190.378, 25.74292
1191.463, 32.52832
1192.548, 9.330811
1193.632, 6.910156
1194.717, 23.82495
1195.801, 11.66846
1196.886, 72.42993
1197.970, 10.16016
1199.054, 31.84033
1200.137, 76.63989
1201.221, 36.29834
1202.305, 4.054932
1203.388, 19.72485
1204.471, 8.357422
1205.554, 46.94800
1206.637, 59.54370
1207.719, 28.56104
1208.802, 3.196777
1209.884, 22.85864
1210.966, 19.62036
1212.048, 51.87158
1213.130, 9.362061
1214.212, 21.08594
1215.293, 2.410645
1216.374, 22.30078
1217.456, 25.30615
1218.536, 60.44946
1219.617, 45.02515
1220.698, 33.49243
1221.778, 3.885010
1222.859, 46.39087
1223.939, 39.84326
1225.019, 60.25024
1226.099, 47.64160
1227.178, 49.88672
1228.258, 27.19165
1229.337, 84.43945
1230.417, 17.55615
1231.496, 14.77466
1232.574, 73.06421
1233.653, 32.22070
1234.732, 20.65918
1235.810, 3.992920
1236.888, 3.388184
1237.966, 34.35571
1239.044, 13.69165
1240.122, 42.95020
