##NAMES=Azurite
##RRUFFID=R050497
##IDEAL CHEMISTRY=Cu^2+^_3_(CO_3_)_2_(OH)_2_
##LOCALITY=Tsumeb mine, Tsumeb, Otavi District, Oshikoto, Namibia
##OWNER=RRUFF
##SOURCE=Marcus Origlieri
##DESCRIPTION=Blue prismatic single crystal
##STATUS=The identification of this mineral has been confirmed by X-ray diffraction and chemical analysis
##URL=rruff.info/R050497
##MEASURED CHEMISTRY=Cu_3.00_(CO_3_)_2_(OH)_2_
##PIN_ID=L01361
##ORIENTATION=Laser parallel to b* (0 1 0). Fiducial mark perpendicular to laser is parallel to c [0 0 1]
52.67100, 0.0000000E+00
53.91000, 204.4836
55.14900, 289.9272
56.38700, 166.0940
57.62600, 112.7856
58.86400, 303.9836
60.10300, 684.5122
61.34100, 594.1294
62.57900, 445.4932
63.81700, 265.4448
65.05400, 25.72144
66.29200, 58.91553
67.52900, 64.67505
68.76700, 129.2632
70.00400, 436.7546
71.24100, 786.6838
72.47700, 1323.940
73.71400, 2336.420
74.95100, 4348.018
76.18700, 7042.639
77.42300, 8984.202
78.65900, 8013.642
79.89500, 6832.888
81.13100, 6258.890
82.36700, 5953.598
83.60200, 5758.969
84.83700, 5655.982
86.07200, 5219.653
87.30800, 4361.965
88.54200, 3347.878
89.77700, 2410.352
91.01200, 1844.355
92.24600, 1705.846
93.48000, 1471.774
94.71400, 1119.089
95.94800, 1083.767
97.18200, 965.7854
98.41600, 866.1274
99.64900, 965.7783
100.8830, 1012.725
102.1160, 951.9565
103.3490, 1063.463
104.5820, 1184.235
105.8150, 1333.265
107.0470, 1618.546
108.2800, 1798.071
109.5120, 2237.833
110.7440, 2587.828
111.9760, 1720.049
113.2080, 1134.491
114.4400, 1178.151
115.6710, 1268.119
116.9030, 1506.710
118.1340, 1539.866
119.3650, 1519.456
120.5960, 2015.273
121.8270, 3019.224
123.0580, 4991.308
124.2880, 6992.525
125.5190, 7467.877
126.7490, 5556.391
127.9790, 4088.090
129.2090, 3600.867
130.4390, 3231.655
131.6680, 3190.430
132.8980, 3275.148
134.1270, 3591.648
135.3560, 4007.101
136.5850, 4352.612
137.8140, 3926.186
139.0430, 3105.828
140.2710, 2436.546
141.5000, 1910.343
142.7280, 1538.223
143.9560, 1298.188
145.1840, 1190.242
146.4120, 1101.386
147.6390, 1142.623
148.8670, 947.9531
150.0940, 867.3784
151.3210, 766.8999
152.5490, 957.5181
153.7750, 894.2339
155.0020, 1031.048
156.2290, 994.9595
157.4550, 1096.970
158.6810, 1556.080
159.9080, 2244.288
161.1340, 3470.595
162.3590, 5267.000
163.5850, 7167.502
164.8110, 7886.102
166.0360, 6904.800
167.2610, 5416.594
168.4860, 4100.484
169.7110, 3461.469
170.9360, 3042.550
172.1610, 2716.728
173.3850, 2579.000
174.6100, 2200.367
175.8340, 1963.829
177.0580, 1629.427
178.2820, 1491.758
179.5050, 1074.459
180.7290, 989.3745
181.9520, 943.9160
183.1760, 908.9565
184.3990, 1029.474
185.6220, 1083.119
186.8450, 1300.089
188.0670, 1293.916
189.2900, 1222.841
190.5120, 1114.862
191.7340, 1067.978
192.9560, 1026.558
194.1780, 1037.488
195.4000, 975.8818
196.6220, 956.3838
197.8430, 919.9868
199.0640, 943.6797
200.2860, 908.3198
201.5070, 994.4492
202.7270, 1204.976
203.9480, 1212.832
205.1690, 876.0730
206.3890, 561.1951
207.6090, 230.4788
208.8290, 191.6235
210.0490, 106.5273
211.2690, 66.80273
212.4890, 53.94604
213.7080, 144.1360
214.9280, 159.9060
216.1470, 156.7522
217.3660, 89.50513
218.5850, 138.4375
219.8030, 178.5166
221.0220, 210.7368
222.2400, 293.7544
223.4590, 261.5791
224.6770, 447.1919
225.8950, 532.9272
227.1120, 584.7822
228.3300, 750.7524
229.5480, 1238.835
230.7650, 3261.027
231.9820, 1539.326
233.1990, 2095.728
234.4160, 4710.231
235.6330, 4513.832
236.8490, 5688.528
238.0660, 8882.318
239.2820, 13460.20
240.4980, 18567.17
241.7140, 21178.23
242.9300, 18962.37
244.1460, 14518.60
245.3610, 11129.91
246.5770, 8813.305
247.7920, 7000.780
249.0070, 6077.334
250.2220, 5587.965
251.4370, 5386.675
252.6510, 5101.461
253.8660, 4706.322
255.0800, 4561.259
256.2940, 4492.267
257.5080, 4556.349
258.7220, 4724.500
259.9360, 4535.723
261.1490, 4144.018
262.3630, 3221.377
263.5760, 2559.804
264.7890, 2260.293
266.0020, 2239.845
267.2150, 2417.457
268.4270, 2611.129
269.6400, 3157.859
270.8520, 3842.648
272.0640, 4356.496
273.2760, 4963.401
274.4880, 5348.364
275.7000, 5355.384
276.9120, 5328.461
278.1230, 4733.596
279.3340, 4310.786
280.5450, 3593.037
281.7560, 3195.347
282.9670, 2804.715
284.1780, 2313.142
285.3880, 1982.627
286.5980, 1709.171
287.8090, 1297.773
289.0190, 1098.433
290.2290, 783.1499
291.4380, 542.9243
292.6480, 401.7554
293.8570, 254.6431
295.0670, 99.58691
296.2760, 188.5869
297.4850, 67.64209
298.6930, 1.752930
299.9020, 15.91797
301.1110, 62.86084
302.3190, 177.5933
303.5270, 94.28857
304.7350, 180.9395
305.9430, 133.5532
307.1510, 193.1240
308.3580, 100.6489
309.5660, 174.1250
310.7730, 87.57275
311.9800, 105.9585
313.1870, 108.3076
314.3940, 144.6196
315.6010, 99.88037
316.8070, 24.10547
318.0130, 27.27637
319.2200, 50.40039
320.4260, 72.53027
321.6310, 95.53320
322.8370, 167.5830
324.0430, 172.6455
325.2480, 270.7427
326.4540, 184.8359
327.6590, 256.0430
328.8640, 340.1611
330.0680, 393.3135
331.2730, 321.5034
332.4780, 322.7319
333.6820, 278.2959
334.8860, 410.6597
336.0900, 458.0957
337.2940, 414.9346
338.4980, 411.8555
339.7010, 476.4487
340.9050, 561.0894
342.1080, 572.7896
343.3110, 627.5576
344.5140, 603.3701
345.7170, 799.2231
346.9200, 778.1274
348.1220, 822.0771
349.3240, 974.0796
350.5270, 1172.143
351.7290, 1218.267
352.9310, 1417.456
354.1320, 1641.726
355.3340, 1765.066
356.5350, 2016.472
357.7370, 2176.962
358.9380, 2376.552
360.1390, 2854.238
361.3400, 3101.996
362.5400, 3523.812
363.7410, 3929.687
364.9410, 4525.627
366.1410, 5095.628
367.3410, 5791.687
368.5410, 6319.795
369.7410, 7113.963
370.9400, 7996.197
372.1400, 8867.494
373.3390, 10046.84
374.5380, 10855.24
375.7370, 11986.71
376.9360, 12782.22
378.1350, 13366.79
379.3330, 13992.40
380.5310, 14295.07
381.7300, 14970.78
382.9280, 15305.54
384.1260, 16372.35
385.3230, 17778.21
386.5210, 19851.11
387.7180, 22725.05
388.9160, 26519.04
390.1130, 31789.08
391.3100, 37758.16
392.5060, 43653.30
393.7030, 48145.47
394.9000, 49353.67
396.0960, 47579.93
397.2920, 43936.23
398.4880, 39170.55
399.6840, 34565.93
400.8800, 30327.34
402.0750, 27260.79
403.2710, 24492.28
404.4660, 21971.81
405.6610, 19213.38
406.8560, 16620.98
408.0510, 14054.62
409.2450, 12087.30
410.4400, 10026.01
411.6340, 8703.752
412.8280, 7353.533
414.0220, 6533.348
415.2160, 5625.199
416.4100, 5012.081
417.6030, 4509.998
418.7970, 3812.948
419.9900, 3376.932
421.1830, 2996.947
422.3760, 2748.995
423.5690, 2518.076
424.7610, 2240.188
425.9540, 2059.331
427.1460, 1816.505
428.3380, 1684.710
429.5300, 1488.945
430.7220, 1302.210
431.9140, 1180.505
433.1050, 1031.543
434.2970, 914.1826
435.4880, 819.5649
436.6790, 735.9756
437.8700, 680.4141
439.0610, 546.8799
440.2510, 430.3735
441.4420, 447.8945
442.6320, 271.4229
443.8220, 299.2197
445.0120, 281.2139
446.2020, 222.0229
447.3910, 133.7441
448.5810, 83.71582
449.7700, 91.07080
450.9600, 51.46094
452.1490, 47.50488
453.3370, 53.96582
454.5260, 42.28809
455.7150, 44.39648
456.9030, 19.78613
458.0910, 41.91992
459.2800, 40.81641
460.4670, 43.80176
461.6550, 47.90186
462.8430, 42.70947
464.0300, 44.00195
465.2180, 52.00342
466.4050, 32.91309
467.5920, 62.31885
468.7790, 7.130371
469.9650, 1.788086
471.1520, 98.91504
472.3380, 41.13965
473.5250, 17.05615
474.7110, 44.60205
475.8970, 5.355469
477.0820, 131.2036
478.2680, 7.175293
479.4540, 6.707031
480.6390, 60.04492
481.8240, 47.09766
483.0090, 34.64795
484.1940, 29.29443
485.3780, 26.04736
486.5630, 45.33643
487.7470, 60.89893
488.9320, 56.32129
490.1160, 42.65430
491.3000, 53.29102
492.4830, 37.41309
493.6670, 44.45703
494.8500, 148.8125
496.0340, 121.6743
497.2170, 142.0137
498.4000, 129.4204
499.5820, 108.1021
500.7650, 123.4961
501.9480, 75.72363
503.1300, 77.18066
504.3120, 70.35059
505.4940, 81.47266
506.6760, 177.7119
507.8580, 86.75879
509.0390, 74.73535
510.2210, 192.2090
511.4020, 158.8608
512.5830, 209.8281
513.7640, 207.9824
514.9450, 313.0435
516.1250, 261.5308
517.3060, 333.8115
518.4860, 457.5776
519.6660, 347.8677
520.8460, 521.7583
522.0260, 564.5898
523.2060, 714.7759
524.3850, 833.7007
525.5650, 871.2173
526.7440, 1085.887
527.9230, 1234.497
529.1020, 1539.334
530.2810, 1706.902
531.4590, 2156.840
532.6380, 2366.008
533.8160, 2688.459
534.9940, 2763.132
536.1720, 2668.007
537.3500, 2543.724
538.5270, 2383.203
539.7050, 2199.906
540.8820, 1924.083
542.0590, 1694.539
543.2360, 1561.210
544.4130, 1300.913
545.5900, 1242.560
546.7660, 1079.992
547.9430, 857.4175
549.1190, 727.8364
550.2950, 708.3535
551.4710, 646.7588
552.6470, 585.1558
553.8220, 544.5454
554.9980, 482.9565
556.1730, 454.1128
557.3480, 381.6646
558.5230, 380.0203
559.6980, 347.3672
560.8730, 271.7046
562.0470, 298.0325
563.2220, 255.3508
564.3960, 254.6589
565.5700, 227.9570
566.7440, 177.2444
567.9170, 248.5212
569.0910, 241.7871
570.2640, 255.0417
571.4380, 198.2849
572.6110, 219.5164
573.7840, 260.7363
574.9570, 156.9438
576.1290, 199.1392
577.3020, 158.3215
578.4740, 125.4917
579.6460, 180.6484
580.8180, 58.79272
581.9900, 67.92285
583.1620, 35.03955
584.3330, 23.14233
585.5040, 55.22876
586.6760, 15.69116
587.8470, 8.381348
589.0180, 19.55591
590.1880, 10.50293
591.3590, 66.46289
592.5290, 14.45557
593.7000, 14.53027
594.8700, 61.47974
596.0400, 38.46143
597.2090, 30.40039
598.3790, 57.66455
599.5490, 62.23145
600.7180, 1.875244
601.8870, 32.98975
603.0560, 22.16113
604.2250, 60.34888
605.3940, 55.40015
606.5620, 15.13135
607.7300, 91.16382
608.8990, 20.45947
610.0670, 133.0581
611.2350, 26.52832
612.4020, 68.91553
613.5700, 0.5690920
614.7370, 37.01831
615.9050, 63.55493
617.0720, 23.46021
618.2390, 61.15234
619.4060, 22.08691
620.5720, 38.94678
621.7390, 16.24902
622.9050, 43.89575
624.0710, 22.98120
625.2370, 55.90820
626.4030, 69.09790
627.5690, 3.915527
628.7340, 20.96948
629.9000, 38.92676
631.0650, 38.79834
632.2300, 31.64404
633.3950, 35.46216
634.5600, 26.25391
635.7240, 36.98413
636.8890, 4.718506
638.0530, 71.38306
639.2170, 20.02637
640.3810, 29.63745
641.5450, 36.21875
642.7080, 3.771973
643.8720, 40.28564
645.0350, 11.77173
646.1980, 7.778320
647.3610, 14.62549
648.5240, 16.99414
649.6870, 91.32812
650.8490, 2.640869
652.0120, 18.08765
653.1740, 20.86768
654.3360, 52.29810
655.4980, 35.43774
656.6600, 6.453369
657.8210, 69.60913
658.9830, 6.352295
660.1440, 63.63940
661.3050, 25.60620
662.4660, 50.53931
663.6270, 63.44507
664.7870, 94.32471
665.9480, 32.18262
667.1080, 85.00854
668.2680, 26.81152
669.4280, 36.58105
670.5880, 65.31958
671.7480, 54.03223
672.9070, 41.71704
674.0670, 82.37158
675.2260, 70.00293
676.3850, 79.60840
677.5440, 103.1904
678.7030, 80.75073
679.8610, 54.28711
681.0200, 135.7957
682.1780, 83.28271
683.3360, 80.74609
684.4940, 85.18579
685.6520, 146.6021
686.8090, 154.9971
687.9670, 134.3706
689.1240, 94.72314
690.2810, 136.0532
691.4380, 151.3623
692.5950, 118.6499
693.7520, 170.9167
694.9080, 271.1626
696.0650, 254.3875
697.2210, 228.5916
698.3770, 192.7744
699.5330, 225.9368
700.6880, 291.0784
701.8440, 266.1992
702.9990, 264.2993
704.1550, 296.3787
705.3100, 260.4375
706.4650, 249.4758
707.6190, 308.4937
708.7740, 298.3442
709.9290, 360.4688
711.0830, 369.4258
712.2370, 378.3635
713.3910, 461.2812
714.5450, 521.1782
715.6980, 582.0559
716.8520, 706.9136
718.0050, 726.7512
719.1580, 835.5703
720.3110, 973.3691
721.4640, 1094.149
722.6170, 1234.892
723.7700, 1194.409
724.9220, 1499.135
726.0740, 1678.816
727.2260, 2032.752
728.3780, 2258.111
729.5300, 2745.948
730.6810, 2978.361
731.8330, 3199.873
732.9840, 3567.854
734.1350, 3535.394
735.2860, 3476.885
736.4370, 3161.200
737.5880, 3033.797
738.7380, 2891.313
739.8880, 2635.227
741.0390, 2464.458
742.1890, 2452.055
743.3380, 2355.198
744.4880, 2323.658
745.6380, 2423.213
746.7870, 2521.276
747.9360, 2730.937
749.0850, 2971.857
750.2340, 3254.110
751.3830, 3628.371
752.5310, 4058.949
753.6800, 4542.903
754.8280, 5236.361
755.9760, 5688.307
757.1240, 6095.000
758.2720, 6470.438
759.4190, 6498.718
760.5670, 6390.092
761.7140, 6205.109
762.8610, 5716.004
764.0080, 5268.792
765.1550, 4466.047
766.3020, 4135.032
767.4480, 3882.911
768.5950, 3238.618
769.7410, 2980.289
770.8870, 2609.721
772.0330, 2265.235
773.1780, 2086.439
774.3240, 1740.136
775.4690, 1582.413
776.6140, 1482.510
777.7590, 1251.387
778.9040, 1228.551
780.0490, 1162.881
781.1940, 901.9800
782.3380, 889.3643
783.4820, 820.7949
784.6260, 778.1060
785.7700, 674.6072
786.9140, 605.1763
788.0580, 616.2451
789.2010, 605.1328
790.3450, 599.7021
791.4880, 596.0811
792.6310, 584.5503
793.7730, 598.5886
794.9160, 563.8301
796.0590, 605.5820
797.2010, 569.8052
798.3430, 545.4243
799.4850, 592.0972
800.6270, 636.4116
801.7690, 697.9814
802.9100, 743.9546
804.0520, 832.7695
805.1930, 941.6392
806.3340, 1028.275
807.4750, 1225.174
808.6160, 1441.699
809.7560, 1824.986
810.8970, 2049.985
812.0370, 2152.755
813.1770, 2073.317
814.3170, 1626.031
815.4570, 1393.976
816.5960, 1088.690
817.7360, 1018.922
818.8750, 894.8691
820.0140, 806.5928
821.1530, 888.2776
822.2920, 1019.012
823.4310, 1067.953
824.5690, 1190.892
825.7070, 1406.831
826.8460, 1699.663
827.9840, 2093.600
829.1220, 2409.535
830.2590, 3020.471
831.3970, 3459.406
832.5340, 4175.341
833.6710, 4762.275
834.8080, 5282.208
835.9450, 5524.145
837.0820, 5561.079
838.2190, 5490.015
839.3550, 5014.951
840.4910, 4620.887
841.6270, 4135.825
842.7630, 3628.762
843.8990, 3108.701
845.0350, 2668.642
846.1700, 2218.590
847.3060, 1863.533
848.4410, 1577.581
849.5760, 1399.528
850.7100, 1122.477
851.8450, 909.4272
852.9800, 808.3796
854.1140, 655.3345
855.2480, 565.4729
856.3820, 489.9368
857.5160, 452.3950
858.6500, 380.3599
859.7830, 303.3281
860.9170, 269.1960
862.0500, 215.1719
863.1830, 193.1602
864.3160, 155.2930
865.4480, 145.6233
866.5810, 109.6699
867.7130, 117.7188
868.8460, 129.7810
869.9780, 107.8501
871.1100, 115.9458
872.2410, 70.32300
873.3730, 77.42871
874.5050, 120.4382
875.6360, 91.57422
876.7670, 71.97241
877.8980, 70.67236
879.0290, 27.84424
880.1590, 90.02637
881.2900, 161.2334
882.4200, 57.44922
883.5500, 69.72046
884.6800, 32.98169
885.8100, 84.24731
886.9400, 32.90479
888.0690, 73.19287
889.1990, 67.51318
890.3280, 79.84082
891.4570, 8.199463
892.5860, 14.42139
893.7140, 4.300049
894.8430, 26.98584
895.9710, 36.75562
897.1000, 3.900391
898.2280, 62.87891
899.3560, 97.34619
900.4830, 88.84399
901.6110, 131.3472
902.7380, 67.86621
903.8660, 157.4060
904.9930, 15.10645
906.1200, 110.9834
907.2460, 179.0776
908.3730, 114.6531
909.5000, 47.23901
910.6260, 167.8506
911.7520, 177.4768
912.8780, 220.1099
914.0040, 135.7546
915.1290, 194.4102
916.2550, 222.0757
917.3800, 153.7571
918.5050, 229.4482
919.6300, 178.1531
920.7550, 234.8772
921.8800, 407.6147
923.0040, 367.3657
924.1290, 499.1270
925.2530, 559.9043
926.3770, 662.7043
927.5010, 757.5288
928.6250, 782.3625
929.7480, 893.2080
930.8720, 1060.073
931.9950, 1202.946
933.1180, 1198.838
934.2410, 1175.740
935.3640, 1275.656
936.4860, 1185.581
937.6090, 1124.523
938.7310, 1038.473
939.8530, 1026.435
940.9750, 943.4050
942.0970, 747.3882
943.2180, 741.3960
944.3400, 603.4128
945.4610, 702.4514
946.5820, 418.5020
947.7030, 432.5676
948.8240, 426.6421
949.9450, 351.7253
951.0650, 284.8169
952.1860, 258.9172
953.3060, 262.0283
954.4260, 211.6763
955.5460, 263.2773
956.6650, 151.4304
957.7850, 145.5920
958.9040, 112.7612
960.0230, 163.9387
961.1420, 203.1240
962.2610, 170.3262
963.3800, 190.5364
964.4990, 178.7537
965.6170, 115.9785
966.7350, 137.5166
967.8530, 155.4512
968.9710, 138.6987
970.0890, 148.2290
971.2070, 115.2195
972.3240, 144.4934
973.4410, 120.7871
974.5580, 133.2400
975.6750, 139.0103
976.7920, 97.71191
977.9090, 128.0356
979.0250, 58.36646
980.1410, 0.7048340
981.2580, 108.0508
982.3740, 5.595703
983.4890, 1.763672
984.6050, 49.13037
985.7200, 52.50488
986.8360, 13.88672
987.9510, 69.27612
989.0660, 8.326904
990.1810, 19.07617
991.2950, 38.48633
992.4100, 34.90503
993.5240, 48.33594
994.6390, 27.21851
995.7530, 19.22559
996.8660, 45.67676
997.9800, 15.86548
999.0940, 77.59473
1000.207, 28.93799
1001.320, 2.526123
1002.433, 14.99707
1003.546, 57.47437
1004.659, 35.95898
1005.772, 9.549561
1006.884, 10.95972
1007.996, 24.27051
1009.108, 10.94482
1010.220, 31.55005
1011.332, 16.04980
1012.444, 42.45044
1013.555, 93.51074
1014.666, 112.9595
1015.777, 23.43677
1016.888, 0.9204100
1017.999, 33.40942
1019.110, 2.906006
1020.220, 10.59155
1021.331, 24.08716
1022.441, 212.6611
1023.551, 91.45630
1024.661, 79.67627
1025.770, 40.19092
1026.880, 41.44702
1027.989, 1.228271
1029.098, 22.68359
1030.207, 57.17798
1031.316, 29.72900
1032.425, 84.74756
1033.533, 34.34863
1034.642, 83.83374
1035.750, 75.32251
1036.858, 19.81543
1037.966, 2.688232
1039.073, 7.189453
1040.181, 12.04883
1041.288, 74.83350
1042.396, 67.33423
1043.503, 47.83813
1044.610, 190.3455
1045.716, 80.85596
1046.823, 21.36963
1047.929, 129.8867
1049.036, 88.40698
1050.142, 87.93115
1051.248, 77.45874
1052.353, 59.98926
1053.459, 168.5232
1054.564, 84.05933
1055.670, 161.5984
1056.775, 188.8625
1057.880, 124.4077
1058.985, 124.9553
1060.089, 67.85229
1061.194, 151.4075
1062.298, 187.9709
1063.402, 146.5364
1064.506, 201.1030
1065.610, 159.6716
1066.713, 241.3687
1067.817, 234.9407
1068.920, 280.5186
1070.023, 258.8181
1071.126, 309.4153
1072.229, 349.0435
1073.332, 365.6375
1074.435, 400.2324
1075.537, 462.6504
1076.639, 572.2476
1077.741, 533.4514
1078.843, 622.1304
1079.945, 633.1780
1081.046, 759.7778
1082.148, 913.3782
1083.249, 1050.131
1084.350, 1289.777
1085.451, 1639.378
1086.551, 1898.337
1087.652, 2646.013
1088.752, 3544.209
1089.853, 4625.813
1090.953, 6001.448
1092.053, 7222.308
1093.152, 7556.918
1094.252, 7074.576
1095.351, 5947.285
1096.451, 4965.892
1097.550, 4035.513
1098.649, 3279.130
1099.748, 2679.744
1100.846, 2159.394
1101.945, 1673.302
1103.043, 1337.917
1104.141, 1192.130
1105.239, 826.4780
1106.337, 764.1033
1107.434, 675.7112
1108.532, 602.3169
1109.629, 552.6692
1110.726, 500.5781
1111.823, 463.2322
1112.920, 413.6865
1114.017, 382.4087
1115.113, 382.0088
1116.210, 264.6746
1117.306, 316.2610
1118.402, 239.9414
1119.498, 233.5786
1120.593, 262.2605
1121.689, 228.7976
1122.784, 131.4768
1123.879, 199.2346
1124.974, 175.0491
1126.069, 116.2488
1127.164, 137.9126
1128.259, 168.4690
1129.353, 53.02148
1130.447, 139.1130
1131.541, 141.6587
1132.635, 124.1763
1133.729, 143.2466
1134.822, 45.28174
1135.916, 85.91797
1137.009, 118.5271
1138.102, 29.79004
1139.195, 58.36987
1140.288, 108.0237
1141.380, 71.56934
1142.473, 29.85913
1143.565, 112.8167
1144.657, 5.552246
1145.749, 70.13403
1146.841, 42.91748
1147.932, 61.51318
1149.024, 61.13550
1150.115, 44.07227
1151.206, 107.7051
1152.297, 31.88330
1153.388, 8.363037
1154.479, 44.81812
1155.569, 54.26929
1156.659, 92.71582
1157.750, 68.41016
1158.839, 8.649414
1159.929, 28.05786
1161.019, 45.53052
1162.108, 60.05273
1163.198, 45.14233
1164.287, 7.559570
1165.376, 26.04272
1166.465, 55.44995
1167.553, 54.85327
1168.642, 84.25195
1169.730, 32.53613
1170.818, 14.60571
1171.906, 96.46313
1172.994, 87.84399
1174.082, 130.2207
1175.170, 106.5925
1176.257, 54.96021
1177.344, 93.32349
1178.431, 50.77612
1179.518, 70.14282
1180.605, 98.74438
1181.691, 74.91016
1182.778, 88.12012
1183.864, 69.03174
1184.950, 55.37012
1186.036, 61.75635
1187.122, 1.923828
1188.207, 71.70728
1189.292, 32.01050
1190.378, 5.153564
1191.463, 96.44312
1192.548, 95.15625
1193.632, 116.4358
1194.717, 64.70947
1195.801, 76.97827
1196.886, 12.35059
1197.970, 68.60693
1199.054, 53.87207
1200.137, 15.88257
1201.221, 37.06396
1202.305, 30.28296
1203.388, 67.49585
1204.471, 64.71118
1205.554, 32.03467
1206.637, 77.23218
1207.719, 28.50903
1208.802, 21.75903
1209.884, 9.997559
1210.966, 49.22681
1212.048, 80.43848
1213.130, 15.65039
1214.212, 31.81006
1215.293, 131.0703
1216.374, 9.296143
1217.456, 27.16479
1218.536, 43.72534
1219.617, 56.52832
1220.698, 37.54663
1221.778, 12.76709
1222.859, 70.38257
1223.939, 18.48779
1225.019, 23.48413
1226.099, 66.54395
1227.178, 44.50220
1228.258, 76.00977
1229.337, 101.0173
1230.417, 42.04248
1231.496, 14.72559
1232.574, 83.69604
1233.653, 6.611328
1234.732, 28.20752
1235.810, 48.66528
1236.888, 73.53149
1237.966, 79.39062
1239.044, 39.24341
