##NAMES=Azurite
##RRUFFID=R050638
##IDEAL CHEMISTRY=Cu^2+^_3_(CO_3_)_2_(OH)_2_
##LOCALITY=Zacatecas, Mexico
##OWNER=RRUFF
##SOURCE=University of Arizona Mineral Museum
##DESCRIPTION=Blue bladed crystals
##STATUS=The identification of this mineral has been confirmed by X-ray diffraction and chemical analysis
##URL=rruff.info/R050638
##MEASURED CHEMISTRY=Cu_3.00_(CO_3_)_2_(OH)_2_
##PIN_ID=M00402
##ORIENTATION=Laser parallel to c* (0 0 1). Fiducial mark perpendicular to laser is parallel to -a [-1 0 0]
52.67100, 0.0000000E+00
53.91000, 78.27106
55.14900, 64.43970
56.38700, 99.50720
57.62600, 107.4554
58.86400, 138.2804
60.10300, 84.20398
61.34100, 57.96350
62.57900, 0.5854490
63.81700, 46.38177
65.05400, 49.32098
66.29200, 12.59949
67.52900, 32.44922
68.76700, 149.5339
70.00400, 493.4353
71.24100, 873.9629
72.47700, 1157.928
73.71400, 1627.138
74.95100, 2332.413
76.18700, 2735.585
77.42300, 3319.401
78.65900, 3790.073
79.89500, 4269.145
81.13100, 4720.635
82.36700, 4930.453
83.60200, 4872.527
84.83700, 4527.875
86.07200, 3694.543
87.30800, 3104.450
88.54200, 2706.508
89.77700, 2447.645
91.01200, 2430.771
92.24600, 2623.792
93.48000, 2440.630
94.71400, 2284.219
95.94800, 2398.513
97.18200, 2304.470
98.41600, 2405.057
99.64900, 2977.244
100.8830, 3836.008
102.1160, 5418.328
103.3490, 8321.183
104.5820, 11032.56
105.8150, 12364.44
107.0470, 11428.80
108.2800, 11037.65
109.5120, 11814.96
110.7440, 11743.73
111.9760, 10227.95
113.2080, 8878.597
114.4400, 7872.761
115.6710, 6772.246
116.9030, 5681.318
118.1340, 4612.358
119.3650, 3533.663
120.5960, 2712.220
121.8270, 2583.027
123.0580, 2880.091
124.2880, 3089.411
125.5190, 2646.990
126.7490, 2482.761
127.9790, 2812.522
129.2090, 3403.264
130.4390, 4023.980
131.6680, 4441.690
132.8980, 4342.375
134.1270, 4001.107
135.3560, 3898.929
136.5850, 3970.857
137.8140, 3910.904
139.0430, 3919.086
140.2710, 3876.408
141.5000, 3753.882
142.7280, 3491.517
143.9560, 3672.319
145.1840, 3897.293
146.4120, 4175.443
147.6390, 4129.777
148.8670, 3761.292
150.0940, 3496.996
151.3210, 3697.887
152.5490, 3888.970
153.7750, 3734.246
155.0020, 3514.716
156.2290, 3421.381
157.4550, 3143.242
158.6810, 3050.299
159.9080, 3318.552
161.1340, 3841.002
162.3590, 4750.645
163.5850, 5543.483
164.8110, 5541.518
166.0360, 5304.744
167.2610, 5194.163
168.4860, 5148.774
169.7110, 5385.579
170.9360, 5330.576
172.1610, 5028.764
173.3850, 4528.143
174.6100, 3981.712
175.8340, 3629.838
177.0580, 3394.924
178.2820, 3155.163
179.5050, 2857.184
180.7290, 2562.632
181.9520, 2246.788
183.1760, 2014.542
184.3990, 1844.627
185.6220, 1597.612
186.8450, 1480.804
188.0670, 1352.202
189.2900, 1214.804
190.5120, 1348.603
191.7340, 1413.595
192.9560, 1546.779
194.1780, 1598.156
195.4000, 1634.724
196.6220, 1764.483
197.8430, 1745.433
199.0640, 1862.572
200.2860, 2011.041
201.5070, 2259.370
202.7270, 2742.544
203.9480, 2689.490
205.1690, 2458.537
206.3890, 2124.076
207.6090, 1934.926
208.8290, 1939.672
210.0490, 1913.829
211.2690, 1883.870
212.4890, 1767.030
213.7080, 1700.304
214.9280, 1542.104
216.1470, 1467.228
217.3660, 1156.662
218.5850, 1010.394
219.8030, 764.4131
221.0220, 656.7095
222.2400, 672.2754
223.4590, 651.0999
224.6770, 901.1758
225.8950, 1196.496
227.1120, 1746.054
228.3300, 2409.849
229.5480, 3050.874
230.7650, 3430.133
231.9820, 3859.612
233.1990, 4237.299
234.4160, 5078.194
235.6330, 6253.284
236.8490, 8042.565
238.0660, 10876.03
239.2820, 14503.68
240.4980, 17319.51
241.7140, 17428.52
242.9300, 15789.70
244.1460, 14048.05
245.3610, 12987.57
246.5770, 11753.25
247.7920, 10177.09
249.0070, 8560.103
250.2220, 6976.267
251.4370, 5675.587
252.6510, 4227.061
253.8660, 3072.688
255.0800, 2004.465
256.2940, 1328.390
257.5080, 868.4619
258.7220, 892.6785
259.9360, 1162.037
261.1490, 1160.537
262.3630, 663.1714
263.5760, 548.9338
264.7890, 400.8198
266.0020, 473.8286
267.2150, 523.9592
268.4270, 612.2100
269.6400, 661.5808
270.8520, 883.0710
272.0640, 1029.678
273.2760, 1364.404
274.4880, 1539.246
275.7000, 1592.207
276.9120, 1646.285
278.1230, 1739.482
279.3340, 1792.798
280.5450, 1886.233
281.7560, 1872.788
282.9670, 1970.459
284.1780, 1775.251
285.3880, 1656.160
286.5980, 1551.186
287.8090, 1281.329
289.0190, 1084.590
290.2290, 844.9678
291.4380, 633.4719
292.6480, 466.0918
293.8570, 312.8369
295.0670, 169.7158
296.2760, 69.27515
297.4850, 180.1516
298.6930, 291.9050
299.9020, 369.5576
301.1110, 440.1260
302.3190, 355.6221
303.5270, 404.0364
304.7350, 454.3772
305.9430, 343.6548
307.1510, 341.8457
308.3580, 343.9568
309.5660, 244.9785
310.7730, 58.89966
311.9800, 55.31665
313.1870, 207.6743
314.3940, 466.1819
315.6010, 597.8245
316.8070, 1012.606
318.0130, 1397.515
319.2200, 1855.565
320.4260, 2414.755
321.6310, 3080.041
322.8370, 3661.342
324.0430, 4156.632
325.2480, 4545.889
326.4540, 4817.155
327.6590, 4983.451
328.8640, 4922.861
330.0680, 4793.396
331.2730, 4618.055
332.4780, 4325.836
333.6820, 3765.739
334.8860, 3373.760
336.0900, 3092.890
337.2940, 2503.134
338.4980, 2195.484
339.7010, 1788.931
340.9050, 1631.483
342.1080, 1435.132
343.3110, 1451.875
344.5140, 1480.712
345.7170, 1524.043
346.9200, 1579.767
348.1220, 1873.985
349.3240, 2063.331
350.5270, 2469.801
351.7290, 2859.395
352.9310, 3414.117
354.1320, 3956.960
355.3340, 4501.925
356.5350, 5251.018
357.7370, 5933.233
358.9380, 6644.561
360.1390, 7062.002
361.3400, 7473.549
362.5400, 7973.208
363.7410, 8185.979
364.9410, 8882.853
366.1410, 9101.072
367.3410, 9782.153
368.5410, 10532.35
369.7410, 11123.64
370.9400, 12012.58
372.1400, 13125.19
373.3390, 14157.59
374.5380, 15134.97
375.7370, 16272.84
376.9360, 17318.10
378.1350, 18475.84
379.3330, 19342.92
380.5310, 20006.09
381.7300, 20855.35
382.9280, 22095.71
384.1260, 23169.15
385.3230, 24772.69
386.5210, 26852.32
387.7180, 29296.02
388.9160, 32426.83
390.1130, 36566.71
391.3100, 41181.68
392.5060, 45930.72
393.7030, 49186.85
394.9000, 51983.06
396.0960, 53037.37
397.2920, 52879.74
398.4880, 52439.19
399.6840, 50228.71
400.8800, 47908.31
402.0750, 44400.98
403.2710, 40615.74
404.4660, 36672.56
405.6610, 32289.45
406.8560, 28375.41
408.0510, 24843.43
409.2450, 21985.53
410.4400, 19043.69
411.6340, 16911.91
412.8280, 14688.20
414.0220, 13164.55
415.2160, 11590.97
416.4100, 10519.45
417.6030, 9386.994
418.7970, 8290.601
419.9900, 7525.265
421.1830, 6516.988
422.3760, 6098.771
423.5690, 5548.613
424.7610, 5039.512
425.9540, 4490.469
427.1460, 4158.483
428.3380, 3730.551
429.5300, 3235.674
430.7220, 3069.851
431.9140, 2707.336
433.1050, 2456.630
434.2970, 2217.135
435.4880, 1915.692
436.6790, 1641.192
437.8700, 1588.182
439.0610, 1418.325
440.2510, 1174.643
441.4420, 1078.104
442.6320, 911.7595
443.8220, 861.7058
445.0120, 734.0588
446.2020, 686.9043
447.3910, 504.9441
448.5810, 446.7871
449.7700, 429.4570
450.9600, 444.6809
452.1490, 368.3777
453.3370, 299.9541
454.5260, 317.2136
455.7150, 261.2507
456.9030, 250.3882
458.0910, 295.2964
459.2800, 288.3713
460.4670, 238.8513
461.6550, 326.9529
462.8430, 370.7261
464.0300, 342.5471
465.2180, 366.7883
466.4050, 305.2417
467.5920, 266.9116
468.7790, 248.7161
469.9650, 294.5913
471.1520, 224.7290
472.3380, 290.0078
473.5250, 272.9321
474.7110, 179.2510
475.8970, 180.9714
477.0820, 181.1558
478.2680, 180.4568
479.4540, 216.5786
480.6390, 206.6692
481.8240, 204.8359
483.0090, 223.9023
484.1940, 197.1045
485.3780, 194.4375
486.5630, 209.5244
487.7470, 205.2739
488.9320, 225.4893
490.1160, 180.2419
491.3000, 156.0693
492.4830, 172.1682
493.6670, 166.1528
494.8500, 151.0757
496.0340, 112.3787
497.2170, 157.3069
498.4000, 92.70557
499.5820, 118.7202
500.7650, 99.63965
501.9480, 82.57544
503.1300, 64.49097
504.3120, 74.54688
505.4940, 50.65186
506.6760, 27.02539
507.8580, 4.468994
509.0390, 46.92700
510.2210, 13.17896
511.4020, 42.96118
512.5830, 2.197510
513.7640, 16.15503
514.9450, 8.117676
516.1250, 72.26733
517.3060, 13.52637
518.4860, 4.018799
519.6660, 4.730469
520.8460, 64.76440
522.0260, 72.73462
523.2060, 107.0945
524.3850, 138.2498
525.5650, 214.5559
526.7440, 250.5806
527.9230, 362.8120
529.1020, 400.4438
530.2810, 602.1633
531.4590, 800.5537
532.6380, 931.7090
533.8160, 1067.065
534.9940, 1142.399
536.1720, 1161.532
537.3500, 1268.984
538.5270, 1216.230
539.7050, 1288.425
540.8820, 1212.096
542.0590, 1199.451
543.2360, 1050.402
544.4130, 981.0833
545.5900, 807.4954
546.7660, 719.8872
547.9430, 651.2515
549.1190, 569.6118
550.2950, 427.9263
551.4710, 449.2341
552.6470, 264.4963
553.8220, 307.7317
554.9980, 235.9397
556.1730, 218.1196
557.3480, 164.2710
558.5230, 212.3936
559.6980, 208.4866
560.8730, 161.5491
562.0470, 154.5815
563.2220, 96.58252
564.3960, 132.5520
565.5700, 66.48950
566.7440, 75.39355
567.9170, 80.26489
569.0910, 119.1028
570.2640, 81.90625
571.4380, 103.6755
572.6110, 54.40942
573.7840, 76.10425
574.9570, 1.762207
576.1290, 65.36133
577.3020, 5.920654
578.4740, 34.57935
579.6460, 18.15869
580.8180, 7.189209
581.9900, 83.51562
583.1620, 68.30542
584.3330, 55.15601
585.5040, 60.04810
586.6760, 40.97266
587.8470, 43.45728
589.0180, 40.61206
590.1880, 57.95117
591.3590, 32.02295
592.5290, 71.13501
593.7000, 55.30835
594.8700, 97.55249
596.0400, 86.91602
597.2090, 118.4021
598.3790, 65.02856
599.5490, 81.76807
600.7180, 38.63013
601.8870, 94.59351
603.0560, 87.68848
604.2250, 70.91187
605.3940, 28.25586
606.5620, 30.12219
607.7300, 0.2434080
608.8990, 16.87341
610.0670, 16.59888
611.2350, 19.42029
612.4020, 20.33997
613.5700, 29.35913
614.7370, 18.48279
615.9050, 23.70642
617.0720, 14.03296
618.2390, 19.54224
619.4060, 5.035156
620.5720, 27.43835
621.7390, 89.76147
622.9050, 31.02209
624.0710, 93.20288
625.2370, 90.32092
626.4030, 102.3743
627.5690, 120.3651
628.7340, 64.29602
629.9000, 125.1545
631.0650, 123.9532
632.2300, 173.6914
633.3950, 190.3760
634.5600, 126.0079
635.7240, 162.5782
636.8890, 208.0923
638.0530, 161.5544
639.2170, 199.9594
640.3810, 220.3112
641.5450, 136.6106
642.7080, 226.8480
643.8720, 134.0331
645.0350, 133.1554
646.1980, 177.2139
647.3610, 174.2153
648.5240, 174.3589
649.6870, 130.8033
650.8490, 157.6093
652.0120, 155.3689
653.1740, 143.5245
654.3360, 143.0338
655.4980, 153.7935
656.6600, 103.6156
657.8210, 111.9745
658.9830, 125.9675
660.1440, 113.6173
661.3050, 140.7584
662.4660, 120.9343
663.6270, 131.0436
664.7870, 124.0879
665.9480, 139.0657
667.1080, 127.9795
668.2680, 162.8273
669.4280, 157.6143
670.5880, 120.3397
671.7480, 196.9977
672.9070, 121.5985
674.0670, 182.1318
675.2260, 197.6066
676.3850, 116.0242
677.5440, 187.3733
678.7030, 190.6642
679.8610, 235.8971
681.0200, 176.0767
682.1780, 207.1965
683.3360, 154.2605
684.4940, 274.2618
685.6520, 261.2118
686.8090, 304.1104
687.9670, 259.9576
689.1240, 302.7534
690.2810, 261.4983
691.4380, 296.1917
692.5950, 333.8341
693.7520, 314.4263
694.9080, 343.9678
696.0650, 383.4590
697.2210, 337.8999
698.3770, 346.2905
699.5330, 394.6312
700.6880, 398.9221
701.8440, 434.1632
702.9990, 416.3547
704.1550, 432.4967
705.3100, 477.5896
706.4650, 451.6332
707.6190, 529.6279
708.7740, 573.5735
709.9290, 590.4707
711.0830, 601.3196
712.2370, 719.8658
713.3910, 650.6066
714.5450, 778.1426
715.6980, 812.6282
716.8520, 889.1742
718.0050, 1016.233
719.1580, 1077.140
720.3110, 1220.418
721.4640, 1288.272
722.6170, 1444.915
723.7700, 1548.221
724.9220, 1742.135
726.0740, 2011.063
727.2260, 2168.738
728.3780, 2493.475
729.5300, 2819.987
730.6810, 3137.989
731.8330, 3401.401
732.9840, 3681.671
734.1350, 3792.160
735.2860, 4035.195
736.4370, 3986.128
737.5880, 4020.286
738.7380, 4007.278
739.8880, 3805.865
741.0390, 3685.828
742.1890, 3417.122
743.3380, 3397.370
744.4880, 3149.204
745.6380, 3107.820
746.7870, 3083.214
747.9360, 3245.475
749.0850, 3246.660
750.2340, 3381.577
751.3830, 3813.356
752.5310, 4343.487
753.6800, 4946.216
754.8280, 5555.538
755.9760, 6245.465
757.1240, 7133.193
758.2720, 7986.091
759.4190, 8724.016
760.5670, 9203.016
761.7140, 9420.944
762.8610, 9590.933
764.0080, 9147.577
765.1550, 8890.457
766.3020, 8297.666
767.4480, 7679.399
768.5950, 6837.581
769.7410, 6120.679
770.8870, 5284.494
772.0330, 4683.407
773.1780, 4094.374
774.3240, 3554.944
775.4690, 3098.875
776.6140, 2749.322
777.7590, 2407.137
778.9040, 2132.031
780.0490, 1866.894
781.1940, 1731.760
782.3380, 1526.468
783.4820, 1405.109
784.6260, 1312.465
785.7700, 1217.732
786.9140, 1080.963
788.0580, 1076.382
789.2010, 958.2484
790.3450, 912.0366
791.4880, 999.5989
792.6310, 819.1394
793.7730, 873.8403
794.9160, 869.6116
796.0590, 816.5508
797.2010, 887.7585
798.3430, 819.6948
799.4850, 890.1328
800.6270, 844.1582
801.7690, 934.3645
802.9100, 883.3960
804.0520, 1000.685
805.1930, 1130.743
806.3340, 1198.375
807.4750, 1411.895
808.6160, 1594.718
809.7560, 1810.751
810.8970, 1973.556
812.0370, 2179.358
813.1770, 2394.334
814.3170, 2400.964
815.4570, 2504.773
816.5960, 2541.606
817.7360, 2648.936
818.8750, 2789.552
820.0140, 2833.544
821.1530, 3092.778
822.2920, 3291.252
823.4310, 3630.718
824.5690, 4026.181
825.7070, 4260.619
826.8460, 4541.099
827.9840, 4894.502
829.1220, 4942.949
830.2590, 5104.391
831.3970, 5196.829
832.5340, 5166.266
833.6710, 5052.697
834.8080, 4909.128
835.9450, 4725.555
837.0820, 4435.982
838.2190, 4186.406
839.3550, 3748.829
840.4910, 3502.251
841.6270, 3140.672
842.7630, 2867.094
843.8990, 2436.515
845.0350, 2179.935
846.1700, 1926.357
847.3060, 1525.779
848.4410, 1372.203
849.5760, 1237.629
850.7100, 1014.058
851.8450, 955.4990
852.9800, 786.9438
854.1140, 580.4021
855.2480, 509.8840
856.3820, 474.3860
857.5160, 406.9026
858.6500, 403.0288
859.7830, 274.6172
860.9170, 252.7153
862.0500, 211.2043
863.1830, 205.8862
864.3160, 137.5442
865.4480, 149.2859
866.5810, 76.06250
867.7130, 46.26367
868.8460, 139.1089
869.9780, 84.04395
871.1100, 77.03589
872.2410, 69.27002
873.3730, 36.29980
874.5050, 46.11499
875.6360, 48.96094
876.7670, 37.75220
877.8980, 71.87500
879.0290, 123.4854
880.1590, 75.47070
881.2900, 22.83984
882.4200, 79.26465
883.5500, 30.95435
884.6800, 37.45044
885.8100, 16.98193
886.9400, 75.19360
888.0690, 82.22729
889.1990, 64.88672
890.3280, 51.58008
891.4570, 9.690430
892.5860, 44.08594
893.7140, 100.8887
894.8430, 40.72607
895.9710, 17.40674
897.1000, 49.47485
898.2280, 20.61890
899.3560, 16.30688
900.4830, 28.25220
901.6110, 17.22534
902.7380, 80.22510
903.8660, 67.24585
904.9930, 63.28882
906.1200, 43.35034
907.2460, 50.43140
908.3730, 47.25195
909.5000, 54.90967
910.6260, 61.75659
911.7520, 80.89551
912.8780, 105.0481
914.0040, 119.2141
915.1290, 103.3914
916.2550, 147.5854
917.3800, 212.7939
918.5050, 221.0256
919.6300, 286.2749
920.7550, 358.5383
921.8800, 370.8159
923.0040, 399.1123
924.1290, 483.4268
925.2530, 550.9429
926.3770, 648.1091
927.5010, 757.4780
928.6250, 890.8647
929.7480, 1017.275
930.8720, 1077.706
931.9950, 1181.157
933.1180, 1200.632
934.2410, 1242.675
935.3640, 1282.658
936.4860, 1255.215
937.6090, 1220.792
938.7310, 1174.392
939.8530, 1065.011
940.9750, 998.6597
942.0970, 873.3262
943.2180, 827.0107
944.3400, 691.7217
945.4610, 619.4500
946.5820, 518.1990
947.7030, 462.9739
948.8240, 385.7666
949.9450, 403.5808
951.0650, 280.4111
952.1860, 256.2627
953.3060, 234.1289
954.4260, 167.0120
955.5460, 165.9124
956.6650, 125.8311
957.7850, 196.7639
958.9040, 145.7102
960.0230, 178.6697
961.1420, 102.6431
962.2610, 127.6299
963.3800, 72.63037
964.4990, 90.64453
965.6170, 146.6743
966.7350, 104.7180
967.8530, 130.7776
968.9710, 109.8516
970.0890, 70.93872
971.2070, 99.04004
972.3240, 49.15430
973.4410, 101.2815
974.5580, 80.42261
975.6750, 120.5774
976.7920, 134.7454
977.9090, 122.9263
979.0250, 106.1208
980.1410, 96.65527
981.2580, 70.54932
982.3740, 73.78394
983.4890, 59.03394
984.6050, 83.29712
985.7200, 35.57373
986.8360, 45.86304
987.9510, 35.16553
989.0660, 63.48047
990.1810, 43.80835
991.2950, 17.14868
992.4100, 24.49902
993.5240, 29.85962
994.6390, 20.77026
995.7530, 31.39331
996.8660, 42.98682
997.9800, 33.62158
999.0940, 75.77222
1000.207, 13.17749
1001.320, 16.40674
1002.433, 13.01855
1003.546, 34.54541
1004.659, 56.10889
1005.772, 10.67993
1006.884, 10.86450
1007.996, 24.53394
1009.108, 22.53784
1010.220, 19.27588
1011.332, 47.30420
1012.444, 35.16870
1013.555, 61.54028
1014.666, 13.01050
1015.777, 26.32129
1016.888, 30.22876
1017.999, 24.97095
1019.110, 19.96191
1020.220, 34.23218
1021.331, 7.690918
1022.441, 29.74792
1023.551, 20.19214
1024.661, 12.64197
1025.770, 23.29663
1026.880, 25.85156
1027.989, 51.46545
1029.098, 58.07947
1030.207, 42.38916
1031.316, 23.86414
1032.425, 63.27563
1033.533, 85.26990
1034.642, 49.40076
1035.750, 75.62769
1036.858, 46.14795
1037.966, 100.2744
1039.073, 142.5226
1040.181, 88.74756
1041.288, 188.2510
1042.396, 149.0952
1043.503, 139.6028
1044.610, 154.1669
1045.716, 171.6783
1046.823, 170.4838
1047.929, 145.9984
1049.036, 160.6110
1050.142, 159.8074
1051.248, 185.6952
1052.353, 193.2971
1053.459, 193.8286
1054.564, 242.3925
1055.670, 233.6909
1056.775, 241.4757
1057.880, 205.9330
1058.985, 248.2834
1060.089, 249.8214
1061.194, 278.4351
1062.298, 314.4690
1063.402, 363.0195
1064.506, 394.2219
1065.610, 383.1431
1066.713, 468.7859
1067.817, 474.4449
1068.920, 503.3223
1070.023, 545.9912
1071.126, 588.5044
1072.229, 677.0402
1073.332, 711.9080
1074.435, 766.6013
1075.537, 841.2681
1076.639, 836.0815
1077.741, 1090.078
1078.843, 1153.702
1079.945, 1319.349
1081.046, 1547.405
1082.148, 1760.908
1083.249, 2118.516
1084.350, 2632.193
1085.451, 3172.881
1086.551, 3993.397
1087.652, 4998.262
1088.752, 6375.833
1089.853, 7722.546
1090.953, 9678.124
1092.053, 11171.70
1093.152, 11560.36
1094.252, 11354.95
1095.351, 10637.53
1096.451, 9457.170
1097.550, 8033.245
1098.649, 6571.936
1099.748, 5263.989
1100.846, 4082.794
1101.945, 3232.351
1103.043, 2658.034
1104.141, 2107.542
1105.239, 1771.031
1106.337, 1417.641
1107.434, 1261.362
1108.532, 1086.824
1109.629, 937.2742
1110.726, 844.8922
1111.823, 735.3936
1112.920, 668.9502
1114.017, 654.6035
1115.113, 608.6156
1116.210, 634.1152
1117.306, 614.7246
1118.402, 685.1375
1119.498, 700.6975
1120.593, 706.1489
1121.689, 702.6304
1122.784, 719.4927
1123.879, 686.5146
1124.974, 732.2693
1126.069, 726.6248
1127.164, 710.4597
1128.259, 546.0569
1129.353, 518.3611
1130.447, 312.8365
1131.541, 216.3339
1132.635, 119.6134
1133.729, 116.1914
1134.822, 89.59814
1135.916, 78.98523
1137.009, 96.46863
1138.102, 33.69702
1139.195, 13.88684
1140.288, 38.22363
1141.380, 8.709473
1142.473, 17.02100
1143.565, 11.42236
1144.657, 24.26135
1145.749, 24.89539
1146.841, 65.99695
1147.932, 31.20215
1149.024, 30.96936
1150.115, 10.31323
1151.206, 58.45837
1152.297, 2.118774
1153.388, 38.51721
1154.479, 32.54919
1155.569, 44.50635
1156.659, 42.17688
1157.750, 20.82483
1158.839, 4.273438
1159.929, 4.404663
1161.019, 28.44714
1162.108, 26.29321
1163.198, 4.867188
1164.287, 6.956421
1165.376, 33.05457
1166.465, 34.99365
1167.553, 23.04651
1168.642, 15.16260
1169.730, 0.7675780
1170.818, 17.41992
1171.906, 33.34717
1172.994, 9.179443
1174.082, 34.90234
1175.170, 6.284302
1176.257, 41.39709
1177.344, 9.085571
1178.431, 62.82007
1179.518, 15.62036
1180.605, 0.2973630
1181.691, 14.82715
1182.778, 18.95569
1183.864, 36.62451
1184.950, 29.74426
1186.036, 4.010986
1187.122, 17.69104
1188.207, 18.38403
1189.292, 5.932007
1190.378, 39.75757
1191.463, 22.38440
1192.548, 20.07300
1193.632, 38.42786
1194.717, 17.92432
1195.801, 10.60864
1196.886, 14.10510
1197.970, 33.58679
1199.054, 38.02808
1200.137, 12.55334
1201.221, 10.86218
1202.305, 18.76270
1203.388, 39.65405
1204.471, 7.915039
1205.554, 14.33350
1206.637, 21.13049
1207.719, 4.528809
1208.802, 24.90259
1209.884, 38.54810
1210.966, 7.006714
1212.048, 57.41467
1213.130, 28.93774
1214.212, 21.68445
1215.293, 9.919800
1216.374, 50.37878
1217.456, 4.068848
1218.536, 37.39514
1219.617, 2.931885
1220.698, 35.31079
1221.778, 35.77515
1222.859, 14.18701
1223.939, 33.67175
1225.019, 32.19202
1226.099, 19.87158
1227.178, 12.91565
1228.258, 6.544556
1229.337, 12.93042
1230.417, 4.615723
1231.496, 37.63721
1232.574, 7.198486
1233.653, 48.49036
1234.732, 52.75195
1235.810, 23.07568
1236.888, 0.6854250
1237.966, 57.51831
1239.044, 59.71362
1240.122, 18.90881
