##NAMES=Azurite
##RRUFFID=R050638
##IDEAL CHEMISTRY=Cu^2+^_3_(CO_3_)_2_(OH)_2_
##LOCALITY=Zacatecas, Mexico
##OWNER=RRUFF
##SOURCE=University of Arizona Mineral Museum
##DESCRIPTION=Blue bladed crystals
##STATUS=The identification of this mineral has been confirmed by X-ray diffraction and chemical analysis
##URL=rruff.info/R050638
##MEASURED CHEMISTRY=Cu_3.00_(CO_3_)_2_(OH)_2_
##PIN_ID=M00225
##ORIENTATION=Laser parallel to (1 0 1). Fiducial mark perpendicular to laser is parallel to -b [0 -1 0]
73.71400, 0.0000000E+00
74.95100, 692.3735
76.18700, 1534.576
77.42300, 4969.108
78.65900, 4930.273
79.89500, 6087.276
81.13100, 8998.047
82.36700, 13542.60
83.60200, 18760.78
84.83700, 23882.23
86.07200, 26505.79
87.30800, 24409.58
88.54200, 17622.59
89.77700, 10866.07
91.01200, 6698.680
92.24600, 4719.490
93.48000, 3137.395
94.71400, 1820.330
95.94800, 1268.278
97.18200, 636.4609
98.41600, 172.2798
99.64900, 95.21387
100.8830, 348.9839
102.1160, 328.6191
103.3490, 390.0068
104.5820, 196.1631
105.8150, 144.8262
107.0470, 882.7905
108.2800, 1518.679
109.5120, 2523.429
110.7440, 2851.889
111.9760, 1088.860
113.2080, 424.5703
114.4400, 661.1929
115.6710, 1316.848
116.9030, 1553.638
118.1340, 1022.633
119.3650, 477.8770
120.5960, 156.4443
121.8270, 318.4048
123.0580, 829.8193
124.2880, 1674.743
125.5190, 1783.222
126.7490, 1385.298
127.9790, 1636.011
129.2090, 2676.389
130.4390, 4273.458
131.6680, 6354.270
132.8980, 8892.281
134.1270, 11459.11
135.3560, 12960.63
136.5850, 12209.07
137.8140, 10722.17
139.0430, 9746.924
140.2710, 10645.37
141.5000, 11782.11
142.7280, 12878.82
143.9560, 11791.16
145.1840, 8870.902
146.4120, 6041.509
147.6390, 4009.343
148.8670, 2654.680
150.0940, 1800.108
151.3210, 1691.624
152.5490, 1986.916
153.7750, 2568.486
155.0020, 3001.276
156.2290, 3810.225
157.4550, 3999.334
158.6810, 3688.608
159.9080, 2818.047
161.1340, 1939.404
162.3590, 1537.358
163.5850, 1481.185
164.8110, 1597.192
166.0360, 1958.374
167.2610, 2172.720
168.4860, 2528.221
169.7110, 3520.870
170.9360, 4902.658
172.1610, 6348.578
173.3850, 7359.624
174.6100, 7757.789
175.8340, 7255.067
177.0580, 6579.454
178.2820, 6454.945
179.5050, 7134.535
180.7290, 8395.217
181.9520, 9293.979
183.1760, 8990.800
184.3990, 7288.657
185.6220, 5116.542
186.8450, 3490.445
188.0670, 2500.564
189.2900, 2081.133
190.5120, 1976.071
191.7340, 1975.946
192.9560, 1995.548
194.1780, 2096.928
195.4000, 2132.329
196.6220, 2215.312
197.8430, 2107.535
199.0640, 2034.523
200.2860, 2067.400
201.5070, 2297.311
202.7270, 2575.254
203.9480, 2260.231
205.1690, 1426.238
206.3890, 390.2761
207.6090, 80.66064
208.8290, 313.5757
210.0490, 266.4719
211.2690, 257.3484
212.4890, 162.2058
213.7080, 164.0435
214.9280, 151.6379
216.1470, 150.6011
217.3660, 180.4087
218.5850, 171.4858
219.8030, 221.8376
221.0220, 223.4236
222.2400, 128.1638
223.4590, 200.1790
224.6770, 157.3650
225.8950, 19.79224
227.1120, 130.1575
228.3300, 217.3323
229.5480, 374.2422
230.7650, 534.0007
231.9820, 732.6721
233.1990, 987.2942
234.4160, 1424.676
235.6330, 1948.459
236.8490, 2767.030
238.0660, 3862.809
239.2820, 5130.769
240.4980, 6483.878
241.7140, 7526.113
242.9300, 7941.452
244.1460, 8539.888
245.3610, 10146.40
246.5770, 13064.28
247.7920, 17103.50
249.0070, 21939.34
250.2220, 26407.96
251.4370, 26573.93
252.6510, 22629.73
253.8660, 15993.56
255.0800, 10112.40
256.2940, 6057.205
257.5080, 4126.968
258.7220, 3112.667
259.9360, 3165.303
261.1490, 3243.880
262.3630, 2377.403
263.5760, 2213.876
264.7890, 2496.300
266.0020, 2959.680
267.2150, 3218.019
268.4270, 3343.319
269.6400, 3184.581
270.8520, 2879.809
272.0640, 2559.005
273.2760, 2451.168
274.4880, 2519.302
275.7000, 2893.407
276.9120, 3529.485
278.1230, 4038.536
279.3340, 4554.560
280.5450, 5203.551
281.7560, 5914.508
282.9670, 6442.430
284.1780, 6593.317
285.3880, 6141.172
286.5980, 5685.997
287.8090, 4860.404
289.0190, 3904.343
290.2290, 3293.939
291.4380, 2628.222
292.6480, 2094.179
293.8570, 1695.779
295.0670, 1347.090
296.2760, 1010.214
297.4850, 805.3306
298.6930, 560.3530
299.9020, 349.6067
301.1110, 234.7634
302.3190, 198.9304
303.5270, 124.1069
304.7350, 17.28931
305.9430, 2.535645
307.1510, 30.37085
308.3580, 65.22070
309.5660, 113.0872
310.7730, 129.9902
311.9800, 145.9365
313.1870, 78.92041
314.3940, 113.7727
315.6010, 81.98047
316.8070, 79.05664
318.0130, 67.16089
319.2200, 52.70850
320.4260, 98.58618
321.6310, 227.4668
322.8370, 422.3625
324.0430, 481.2844
325.2480, 653.2336
326.4540, 820.2100
327.6590, 993.2036
328.8640, 1180.212
330.0680, 1329.233
331.2730, 1653.263
332.4780, 2030.296
333.6820, 2080.333
334.8860, 2136.365
336.0900, 2078.354
337.2940, 1908.276
338.4980, 1699.085
339.7010, 1466.800
340.9050, 1247.416
342.1080, 1212.957
343.3110, 982.5049
344.5140, 922.0623
345.7170, 921.6501
346.9200, 910.2517
348.1220, 966.8708
349.3240, 1001.503
350.5270, 1028.148
351.7290, 1104.801
352.9310, 1278.621
354.1320, 1369.951
355.3340, 1393.374
356.5350, 1626.495
357.7370, 1862.706
358.9380, 1950.921
360.1390, 2272.035
361.3400, 2462.346
362.5400, 2811.938
363.7410, 3231.262
364.9410, 3566.591
366.1410, 3906.616
367.3410, 4274.093
368.5410, 4560.697
369.7410, 4920.868
370.9400, 5262.033
372.1400, 5735.313
373.3390, 6100.997
374.5380, 6648.892
375.7370, 7085.771
376.9360, 7727.639
378.1350, 8610.505
379.3330, 9232.370
380.5310, 10149.25
381.7300, 10836.12
382.9280, 11783.02
384.1260, 12594.92
385.3230, 13506.81
386.5210, 14284.70
387.7180, 14982.60
388.9160, 16017.50
390.1130, 17130.41
391.3100, 18472.35
392.5060, 20009.38
393.7030, 22443.48
394.9000, 24899.67
396.0960, 27889.90
397.2920, 31470.12
398.4880, 35565.33
399.6840, 39711.54
400.8800, 43739.73
402.0750, 46606.91
403.2710, 46032.08
404.4660, 43481.23
405.6610, 38811.39
406.8560, 33036.54
408.0510, 27545.67
409.2450, 22847.80
410.4400, 19132.91
411.6340, 16837.02
412.8280, 14702.11
414.0220, 12969.19
415.2160, 11754.27
416.4100, 10788.33
417.6030, 9919.378
418.7970, 9059.417
419.9900, 8295.444
421.1830, 7485.462
422.3760, 6723.469
423.5690, 6106.466
424.7610, 5358.451
425.9540, 4962.426
427.1460, 4398.391
428.3380, 3891.344
429.5300, 3564.288
430.7220, 3105.220
431.9140, 2836.144
433.1050, 2603.061
434.2970, 2300.971
435.4880, 2081.879
436.6790, 1787.783
437.8700, 1749.686
439.0610, 1541.589
440.2510, 1401.493
441.4420, 1231.398
442.6320, 1102.729
443.8220, 993.8484
445.0120, 876.9597
446.2020, 814.6440
447.3910, 717.8123
448.5810, 652.9263
449.7700, 633.1255
450.9600, 529.7856
452.1490, 503.3655
453.3370, 461.2559
454.5260, 415.5066
455.7150, 389.8818
456.9030, 363.7341
458.0910, 291.4871
459.2800, 287.5261
460.4670, 325.0435
461.6550, 302.1626
462.8430, 351.7104
464.0300, 311.2185
465.2180, 289.4268
466.4050, 312.3276
467.5920, 281.6045
468.7790, 281.8452
469.9650, 310.0586
471.1520, 336.5884
472.3380, 304.7507
473.5250, 283.8250
474.7110, 276.6772
475.8970, 271.7163
477.0820, 242.2627
478.2680, 231.7561
479.4540, 223.8853
480.6390, 247.6597
481.8240, 229.0642
483.0090, 171.0945
484.1940, 202.8188
485.3780, 219.7712
486.5630, 201.3296
487.7470, 276.6694
488.9320, 211.1558
490.1160, 259.4980
491.3000, 284.9407
492.4830, 221.2385
493.6670, 203.5752
494.8500, 280.0955
496.0340, 205.6028
497.2170, 240.3523
498.4000, 185.6274
499.5820, 225.6826
500.7650, 212.0635
501.9480, 228.6011
503.1300, 253.7700
504.3120, 265.9468
505.4940, 266.6279
506.6760, 262.6582
507.8580, 244.1191
509.0390, 230.6274
510.2210, 218.1006
511.4020, 214.3975
512.5830, 160.1628
513.7640, 244.0955
514.9450, 299.4402
516.1250, 232.1187
517.3060, 232.9727
518.4860, 283.4031
519.6660, 328.7983
520.8460, 365.4792
522.0260, 385.0723
523.2060, 450.8948
524.3850, 471.3423
525.5650, 512.5979
526.7440, 629.4580
527.9230, 681.1023
529.1020, 830.7776
530.2810, 1055.437
531.4590, 1176.787
532.6380, 1334.939
533.8160, 1567.906
534.9940, 1727.396
536.1720, 2114.721
537.3500, 2426.260
538.5270, 2873.645
539.7050, 2948.691
540.8820, 3195.174
542.0590, 3347.352
543.2360, 3359.585
544.4130, 3350.723
545.5900, 3079.128
546.7660, 2853.264
547.9430, 2343.239
549.1190, 2093.137
550.2950, 1818.345
551.4710, 1572.339
552.6470, 1350.316
553.8220, 1194.997
554.9980, 1084.837
556.1730, 972.4453
557.3480, 911.0352
558.5230, 769.6724
559.6980, 759.2893
560.8730, 647.8267
562.0470, 659.3647
563.2220, 586.0042
564.3960, 567.4875
565.5700, 505.9531
566.7440, 542.4971
567.9170, 493.3787
569.0910, 433.3362
570.2640, 420.7278
571.4380, 472.1008
572.6110, 396.4553
573.7840, 409.7908
574.9570, 314.1077
576.1290, 226.4050
577.3020, 222.6836
578.4740, 245.9429
579.6460, 202.1826
580.8180, 167.4026
581.9900, 157.6030
583.1620, 160.7839
584.3330, 120.8293
585.5040, 91.08472
586.6760, 69.20605
587.8470, 29.30786
589.0180, 23.39197
590.1880, 0.4699710
591.3590, 8.454834
592.5290, 43.37744
593.7000, 6.302856
594.8700, 44.79553
596.0400, 46.07495
597.2090, 2.931030
598.3790, 31.77332
599.5490, 12.60364
600.7180, 18.42322
601.8870, 11.98035
603.0560, 42.04150
604.2250, 6.884033
605.3940, 39.75061
606.5620, 79.66223
607.7300, 84.64111
608.8990, 83.07080
610.0670, 49.81055
611.2350, 37.98389
612.4020, 31.20520
613.5700, 12.96338
614.7370, 8.226563
615.9050, 4.896240
617.0720, 1.200928
618.2390, 4.147217
619.4060, 41.27234
620.5720, 34.74548
621.7390, 62.26929
622.9050, 2.858765
624.0710, 15.48328
625.2370, 50.15002
626.4030, 6.122437
627.5690, 70.63708
628.7340, 8.469238
629.9000, 21.34204
631.0650, 6.262573
632.2300, 3.223511
633.3950, 39.77649
634.5600, 21.25244
635.7240, 35.33118
636.8890, 68.46753
638.0530, 26.68018
639.2170, 4.947876
640.3810, 8.260132
641.5450, 7.381836
642.7080, 19.98401
643.8720, 31.44897
645.0350, 73.03931
646.1980, 17.72290
647.3610, 15.52380
648.5240, 27.90088
649.6870, 42.98047
650.8490, 6.471191
652.0120, 44.15649
653.1740, 14.06396
654.3360, 36.02942
655.4980, 9.064453
656.6600, 26.84473
657.8210, 12.71411
658.9830, 19.46167
660.1440, 23.69958
661.3050, 22.00208
662.4660, 29.63171
663.6270, 51.03247
664.7870, 5.1879998E-02
665.9480, 29.06714
667.1080, 37.21411
668.2680, 37.89978
669.4280, 5.623779
670.5880, 16.47046
671.7480, 29.14575
672.9070, 26.87573
674.0670, 14.95422
675.2260, 62.98584
676.3850, 40.41064
677.5440, 50.63025
678.7030, 24.85999
679.8610, 41.73767
681.0200, 79.57727
682.1780, 62.38171
683.3360, 81.15063
684.4940, 16.72681
685.6520, 73.46802
686.8090, 108.1572
687.9670, 121.9849
689.1240, 52.55530
690.2810, 90.55164
691.4380, 90.49292
692.5950, 156.9739
693.7520, 114.4235
694.9080, 202.8397
696.0650, 168.2250
697.2210, 149.5791
698.3770, 149.9016
699.5330, 195.1927
700.6880, 159.4529
701.8440, 130.6818
702.9990, 195.8789
704.1550, 186.0454
705.3100, 139.1812
706.4650, 213.2855
707.6190, 226.3595
708.7740, 242.5441
709.9290, 257.9532
711.0830, 280.3994
712.2370, 269.3523
713.3910, 294.7404
714.5450, 296.1685
715.6980, 325.0317
716.8520, 329.8652
718.0050, 341.6689
719.1580, 345.4431
720.3110, 405.1877
721.4640, 445.9031
722.6170, 474.5889
723.7700, 541.2485
724.9220, 577.8789
726.0740, 586.4016
727.2260, 674.7224
728.3780, 715.9832
729.5300, 823.0906
730.6810, 986.0199
731.8330, 1029.543
732.9840, 1192.444
734.1350, 1274.624
735.2860, 1430.712
736.4370, 1602.570
737.5880, 1740.371
738.7380, 1882.914
739.8880, 1996.370
741.0390, 2116.657
742.1890, 2167.447
743.3380, 2251.969
744.4880, 2272.718
745.6380, 2280.874
746.7870, 2265.625
747.9360, 2252.387
749.0850, 2434.148
750.2340, 2454.184
751.3830, 2546.332
752.5310, 2678.156
753.6800, 2972.601
754.8280, 3166.982
755.9760, 3487.257
757.1240, 3881.561
758.2720, 4214.201
759.4190, 4705.169
760.5670, 5094.333
761.7140, 5511.145
762.8610, 5888.087
764.0080, 6054.778
765.1550, 6158.837
766.3020, 6143.094
767.4480, 5839.178
768.5950, 5439.382
769.7410, 4935.463
770.8870, 4417.663
772.0330, 3900.800
773.1780, 3430.730
774.3240, 3052.708
775.4690, 2634.540
776.6140, 2260.929
777.7590, 2126.619
778.9040, 1862.255
780.0490, 1667.572
781.1940, 1484.310
782.3380, 1368.090
783.4820, 1234.201
784.6260, 1148.727
785.7700, 1127.140
786.9140, 1032.837
788.0580, 985.6125
789.2010, 918.6265
790.3450, 894.2235
791.4880, 875.5076
792.6310, 844.9525
793.7730, 872.3232
794.9160, 798.7786
796.0590, 802.6348
797.2010, 733.5024
798.3430, 773.0615
799.4850, 811.6863
800.6270, 808.0585
801.7690, 813.7827
802.9100, 770.6765
804.0520, 837.1023
805.1930, 967.4033
806.3340, 962.8101
807.4750, 1044.210
808.6160, 1132.899
809.7560, 1171.762
810.8970, 1255.789
812.0370, 1452.270
813.1770, 1508.892
814.3170, 1703.280
815.4570, 1887.797
816.5960, 2042.631
817.7360, 2211.004
818.8750, 2404.660
820.0140, 2555.240
821.1530, 2700.889
822.2920, 2943.251
823.4310, 3198.858
824.5690, 3715.606
825.7070, 4069.408
826.8460, 4575.880
827.9840, 5347.540
829.1220, 5965.198
830.2590, 6778.129
831.3970, 7417.881
832.5340, 7861.843
833.6710, 7981.801
834.8080, 8100.691
835.9450, 8006.580
837.0820, 7621.529
838.2190, 7344.454
839.3550, 6815.259
840.4910, 6432.198
841.6270, 5914.135
842.7630, 5430.973
843.8990, 4812.906
845.0350, 4303.836
846.1700, 3667.767
847.3060, 3267.695
848.4410, 2809.622
849.5760, 2483.548
850.7100, 2122.474
851.8450, 1797.399
852.9800, 1594.323
854.1140, 1328.066
855.2480, 1221.172
856.3820, 973.0962
857.5160, 900.0210
858.6500, 836.9469
859.7830, 770.4692
860.9170, 673.3965
862.0500, 501.3416
863.1830, 525.2721
864.3160, 433.2053
865.4480, 432.6907
866.5810, 376.6307
867.7130, 295.5776
868.8460, 293.1254
869.9780, 261.0879
871.1100, 256.5142
872.2410, 238.7128
873.3730, 252.4382
874.5050, 194.4347
875.6360, 181.8357
876.7670, 141.8479
877.8980, 144.8679
879.0290, 141.6580
880.1590, 88.76099
881.2900, 125.6487
882.4200, 121.7336
883.5500, 118.8472
884.6800, 89.98877
885.8100, 93.26782
886.9400, 96.49097
888.0690, 83.68604
889.1990, 100.8926
890.3280, 102.6541
891.4570, 81.28064
892.5860, 126.8787
893.7140, 83.12219
894.8430, 77.38635
895.9710, 22.67236
897.1000, 39.98535
898.2280, 102.3126
899.3560, 65.65527
900.4830, 80.02283
901.6110, 29.40112
902.7380, 43.81384
903.8660, 76.24231
904.9930, 61.68958
906.1200, 32.15308
907.2460, 61.63379
908.3730, 28.12402
909.5000, 57.63806
910.6260, 46.17603
911.7520, 84.74707
912.8780, 39.34058
914.0040, 13.04907
915.1290, 54.57739
916.2550, 8.226685
917.3800, 40.88806
918.5050, 52.57849
919.6300, 31.30566
920.7550, 85.05530
921.8800, 25.82849
923.0040, 55.61377
924.1290, 102.4294
925.2530, 111.2660
926.3770, 189.1335
927.5010, 129.0238
928.6250, 172.9426
929.7480, 177.8909
930.8720, 226.8528
931.9950, 300.8372
933.1180, 325.8518
934.2410, 329.8931
935.3640, 378.9679
936.4860, 458.0569
937.6090, 390.1802
938.7310, 487.3242
939.8530, 451.4834
940.9750, 446.6577
942.0970, 382.8633
943.2180, 337.0996
944.3400, 379.3679
945.4610, 480.6740
946.5820, 371.9688
947.7030, 495.3363
948.8240, 230.6897
949.9450, 158.0643
951.0650, 113.4553
952.1860, 136.8633
953.3060, 171.2909
954.4260, 96.73706
955.5460, 105.1967
956.6650, 80.67517
957.7850, 53.17310
958.9040, 64.68445
960.0230, 54.20959
961.1420, 63.74805
962.2610, 56.67664
963.3800, 64.86853
964.4990, 42.44971
965.6170, 25.04419
966.7350, 14.65137
967.8530, 46.27063
968.9710, 33.90393
970.0890, 48.54932
971.2070, 50.21106
972.3240, 52.82446
973.4410, 24.57898
974.5580, 64.29077
975.6750, 71.01453
976.7920, 78.75073
977.9090, 16.50000
979.0250, 42.26111
980.1410, 24.03455
981.2580, 98.82227
982.3740, 59.62207
983.4890, 30.43396
984.6050, 21.25879
985.7200, 95.09790
986.8360, 32.95435
987.9510, 89.82715
989.0660, 49.71350
990.1810, 28.61292
991.2950, 66.52527
992.4100, 77.45007
993.5240, 22.61255
994.6390, 6.331665
995.7530, 0.7119140
996.8660, 39.25671
997.9800, 33.23779
999.0940, 20.76855
1000.207, 5.231689
1001.320, 1.244141
1002.433, 21.73181
1003.546, 20.29883
1004.659, 17.65845
1005.772, 54.60828
1006.884, 13.43604
1007.996, 26.49182
1009.108, 15.44067
1010.220, 21.63477
1011.332, 25.72168
1012.444, 25.17932
1013.555, 3.075806
1014.666, 26.96155
1015.777, 5.156372
1016.888, 26.28516
1017.999, 9.424927
1019.110, 23.42444
1020.220, 16.24060
1021.331, 3.920410
1022.441, 12.09204
1023.551, 18.72607
1024.661, 14.53918
1025.770, 13.34607
1026.880, 9.591675
1027.989, 8.801514
1029.098, 28.49414
1030.207, 25.72388
1031.316, 42.45691
1032.425, 39.70557
1033.533, 59.96362
1034.642, 94.23083
1035.750, 57.29553
1036.858, 63.70984
1037.966, 97.00391
1039.073, 106.5142
1040.181, 94.32581
1041.288, 84.64551
1042.396, 127.7421
1043.503, 101.0787
1044.610, 168.4243
1045.716, 67.77808
1046.823, 131.1395
1047.929, 120.2920
1049.036, 187.6184
1050.142, 152.0051
1051.248, 174.2549
1052.353, 217.6783
1053.459, 213.2131
1054.564, 175.7588
1055.670, 190.1821
1056.775, 196.7894
1057.880, 252.3220
1058.985, 228.9091
1060.089, 251.3586
1061.194, 283.8141
1062.298, 223.9607
1063.402, 256.4280
1064.506, 283.2607
1065.610, 312.8362
1066.713, 334.3209
1067.817, 350.5137
1068.920, 345.0078
1070.023, 420.5079
1071.126, 415.0125
1072.229, 455.5219
1073.332, 522.3126
1074.435, 534.8306
1075.537, 661.0760
1076.639, 1022.944
1077.741, 1087.181
1078.843, 875.8472
1079.945, 1303.287
1081.046, 1247.925
1082.148, 1032.990
1083.249, 1177.188
1084.350, 1375.736
1085.451, 1657.443
1086.551, 2040.288
1087.652, 2446.862
1088.752, 3042.720
1089.853, 3828.408
1090.953, 4973.009
1092.053, 6182.790
1093.152, 7558.555
1094.252, 9190.188
1095.351, 10933.24
1096.451, 12260.89
1097.550, 12635.72
1098.649, 12111.36
1099.748, 10376.02
1100.846, 8210.051
1101.945, 6254.630
1103.043, 4792.186
1104.141, 3617.552
1105.239, 2816.445
1106.337, 2208.021
1107.434, 1929.650
1108.532, 1524.331
1109.629, 1396.055
1110.726, 1187.644
1111.823, 1067.340
1112.920, 910.4014
1114.017, 801.0530
1115.113, 724.6907
1116.210, 664.4895
1117.306, 660.5579
1118.402, 584.3689
1119.498, 502.9336
1120.593, 587.8759
1121.689, 540.7072
1122.784, 487.5052
1123.879, 419.2195
1124.974, 478.9202
1126.069, 415.0310
1127.164, 409.6921
1128.259, 378.3972
1129.353, 307.1202
1130.447, 220.8365
1131.541, 228.8527
1132.635, 240.5173
1133.729, 216.0751
1134.822, 113.1810
1135.916, 142.7910
1137.009, 106.9628
1138.102, 89.55371
1139.195, 110.0985
1140.288, 72.66284
1141.380, 58.91882
1142.473, 88.53540
1143.565, 60.21912
1144.657, 66.06616
1145.749, 81.66687
1146.841, 63.40759
1147.932, 34.92334
1149.024, 26.43494
1150.115, 61.06543
1151.206, 10.85840
1152.297, 47.00513
1153.388, 67.51953
1154.479, 28.05103
1155.569, 23.98938
1156.659, 25.09644
1157.750, 6.720947
1158.839, 88.74426
1159.929, 1.712769
1161.019, 58.78833
1162.108, 1.765503
1163.198, 15.67090
1164.287, 20.10229
1165.376, 59.52856
1166.465, 6.050171
1167.553, 7.392700
1168.642, 67.79443
1169.730, 5.190796
1170.818, 0.4205320
1171.906, 23.95752
1172.994, 4.651611
1174.082, 18.79492
1175.170, 17.37817
1176.257, 66.75659
1177.344, 45.09827
1178.431, 41.33911
1179.518, 22.78528
1180.605, 17.70471
1181.691, 4.835449
1182.778, 15.67041
1183.864, 10.95032
1184.950, 24.77783
1186.036, 43.64307
1187.122, 9.924927
1188.207, 13.28333
1189.292, 11.58545
1190.378, 23.94385
1191.463, 53.15186
1192.548, 16.58020
1193.632, 74.72278
1194.717, 11.10559
1195.801, 6.779053
1196.886, 27.51599
1197.970, 16.16956
1199.054, 460.9661
1200.137, 207.9705
1201.221, 417.5889
1202.305, 31.84558
1203.388, 9.918945
1204.471, 36.10327
1205.554, 15.65137
1206.637, 9.463501
1207.719, 17.30530
1208.802, 445.7900
1209.884, 181.8792
1210.966, 222.0552
1212.048, 11.89307
1213.130, 2.175293
1214.212, 45.10156
1215.293, 5.819092
1216.374, 7.920166
1217.456, 36.95850
1218.536, 7.950195
1219.617, 19.10754
1220.698, 34.08289
1221.778, 14.91333
1222.859, 15.90820
1223.939, 28.85364
1225.019, 6.704712
1226.099, 26.94165
1227.178, 13.94360
1228.258, 32.10242
1229.337, 28.93494
1230.417, 7.924072
1231.496, 51.00330
1232.574, 2.036133
1233.653, 1.219238
1234.732, 13.11560
1235.810, 18.01770
1236.888, 41.79773
1237.966, 31.57556
1239.044, 23.45288
1240.122, 62.12646
1241.199, 30.12927
1242.277, 9.264404
1243.354, 41.90698
1244.431, 45.57617
1245.508, 19.38538
1246.585, 9.178589
1247.661, 5.071533
1248.738, 1.160400
1249.814, 13.42065
1250.890, 18.12354
1251.966, 19.74329
1253.042, 29.20911
1254.117, 32.41174
1255.193, 30.82104
1256.268, 41.68530
1257.343, 27.11169
1258.418, 26.52795
