##NAMES=Azurite
##RRUFFID=R050638
##IDEAL CHEMISTRY=Cu^2+^_3_(CO_3_)_2_(OH)_2_
##LOCALITY=Zacatecas, Mexico
##OWNER=RRUFF
##SOURCE=University of Arizona Mineral Museum
##DESCRIPTION=Blue bladed crystals
##STATUS=The identification of this mineral has been confirmed by X-ray diffraction and chemical analysis
##URL=rruff.info/R050638
##MEASURED CHEMISTRY=Cu_3.00_(CO_3_)_2_(OH)_2_
##PIN_ID=M00225
##ORIENTATION=Laser parallel to (1 0 1). Fiducial mark perpendicular to laser is parallel to -b [0 -1 0]
73.71400, 0.0000000E+00
74.95100, 1089.087
76.18700, 3751.662
77.42300, 6411.561
78.65900, 7069.745
79.89500, 6946.950
81.13100, 10173.04
82.36700, 15116.95
83.60200, 20888.07
84.83700, 26183.11
86.07200, 28278.89
87.30800, 25777.15
88.54200, 19177.89
89.77700, 11850.98
91.01200, 7166.295
92.24600, 4952.967
93.48000, 3182.771
94.71400, 1749.536
95.94800, 1149.115
97.18200, 607.6196
98.41600, 141.3613
99.64900, 162.0229
100.8830, 429.0728
102.1160, 427.8335
103.3490, 510.4951
104.5820, 229.5464
105.8150, 265.8740
107.0470, 816.6694
108.2800, 1224.129
109.5120, 2223.191
110.7440, 2374.293
111.9760, 1001.728
113.2080, 495.2822
114.4400, 971.8486
115.6710, 1571.542
116.9030, 1727.460
118.1340, 1261.662
119.3650, 630.1704
120.5960, 212.0581
121.8270, 415.3970
123.0580, 1164.247
124.2880, 2082.661
125.5190, 2156.688
126.7490, 1893.368
127.9790, 2257.739
129.2090, 3460.830
130.4390, 5542.666
131.6680, 8045.362
132.8980, 11070.71
134.1270, 13685.98
135.3560, 14974.77
136.5850, 14140.40
137.8140, 12109.72
139.0430, 10941.74
140.2710, 11485.57
141.5000, 12494.51
142.7280, 12908.24
143.9560, 11520.64
145.1840, 8751.711
146.4120, 6250.720
147.6390, 4207.384
148.8670, 2678.661
150.0940, 1978.657
151.3210, 1859.751
152.5490, 2136.437
153.7750, 2701.465
155.0020, 3304.755
156.2290, 3833.220
157.4550, 4028.866
158.6810, 3638.698
159.9080, 2870.719
161.1340, 2068.556
162.3590, 1725.793
163.5850, 2041.831
164.8110, 2130.089
166.0360, 2408.561
167.2610, 2916.235
168.4860, 3563.104
169.7110, 4959.157
170.9360, 6613.385
172.1610, 8628.781
173.3850, 9767.340
174.6100, 10128.05
175.8340, 9446.908
177.0580, 8582.909
178.2820, 7892.045
179.5050, 8038.312
180.7290, 8883.700
181.9520, 9426.199
183.1760, 8614.782
184.3990, 7000.430
185.6220, 4843.130
186.8450, 3161.874
188.0670, 2307.659
189.2900, 1831.428
190.5120, 1647.437
191.7340, 1654.850
192.9560, 1590.974
194.1780, 1677.999
195.4000, 1833.260
196.6220, 1827.936
197.8430, 1795.537
199.0640, 1695.367
200.2860, 1731.252
201.5070, 1878.192
202.7270, 2188.186
203.9480, 1877.234
205.1690, 1087.335
206.3890, 128.4858
207.6090, 241.3188
208.8290, 374.0830
210.0490, 313.8086
211.2690, 355.4946
212.4890, 1.142090
213.7080, 22.23877
214.9280, 78.70410
216.1470, 163.1191
217.3660, 175.7168
218.5850, 257.4775
219.8030, 195.5151
221.0220, 216.3481
222.2400, 211.4077
223.4590, 245.4336
224.6770, 174.5449
225.8950, 81.34912
227.1120, 87.97070
228.3300, 275.8916
229.5480, 653.3486
230.7650, 805.5161
231.9820, 1120.499
233.1990, 1439.363
234.4160, 2007.384
235.6330, 2716.108
236.8490, 3854.566
238.0660, 5306.298
239.2820, 7061.272
240.4980, 8953.447
241.7140, 10155.80
242.9300, 10479.31
244.1460, 11134.95
245.3610, 13052.70
246.5770, 16670.07
247.7920, 21319.90
249.0070, 26823.48
250.2220, 31090.49
251.4370, 31208.23
252.6510, 26338.47
253.8660, 19030.77
255.0800, 12203.09
256.2940, 7576.405
257.5080, 5130.695
258.7220, 3760.940
259.9360, 3790.136
261.1490, 3822.289
262.3630, 3097.403
263.5760, 3122.480
264.7890, 3430.524
266.0020, 3875.537
267.2150, 4259.523
268.4270, 4259.482
269.6400, 4048.419
270.8520, 3676.333
272.0640, 3284.227
273.2760, 3244.102
274.4880, 3337.959
275.7000, 3792.800
276.9120, 4304.625
278.1230, 4989.436
279.3340, 5848.226
280.5450, 6629.996
281.7560, 7369.736
282.9670, 7831.454
284.1780, 7885.146
285.3880, 7581.816
286.5980, 6761.439
287.8090, 5664.530
289.0190, 4794.081
290.2290, 3914.494
291.4380, 3169.053
292.6480, 2466.421
293.8570, 1975.876
295.0670, 1462.988
296.2760, 1139.861
297.4850, 844.7329
298.6930, 524.6294
299.9020, 414.5483
301.1110, 268.4893
302.3190, 70.45239
303.5270, 24.57007
304.7350, 96.59668
305.9430, 69.64673
307.1510, 111.7134
308.3580, 132.8027
309.5660, 143.9194
310.7730, 120.0674
311.9800, 132.2393
313.1870, 114.6218
314.3940, 74.64941
315.6010, 65.86597
316.8070, 87.09326
318.0130, 26.31714
319.2200, 73.47412
320.4260, 252.3047
321.6310, 405.1658
322.8370, 534.0493
324.0430, 686.9473
325.2480, 933.8628
326.4540, 1142.797
327.6590, 1362.185
328.8640, 1590.764
330.0680, 1828.790
331.2730, 2041.838
332.4780, 2273.914
333.6820, 2519.003
334.8860, 2385.074
336.0900, 2163.078
337.2940, 2135.986
338.4980, 1713.797
339.7010, 1493.514
340.9050, 1344.186
342.1080, 1234.830
343.3110, 1064.497
344.5140, 1021.180
345.7170, 1030.899
346.9200, 1063.655
348.1220, 1182.446
349.3240, 1157.265
350.5270, 1333.115
351.7290, 1314.136
352.9310, 1512.330
354.1320, 1636.349
355.3340, 1839.302
356.5350, 2027.793
357.7370, 2298.675
358.9380, 2590.159
360.1390, 2921.477
361.3400, 3194.668
362.5400, 3524.237
363.7410, 3976.857
364.9410, 4549.548
366.1410, 4816.021
367.3410, 5302.739
368.5410, 5841.186
369.7410, 6186.918
370.9400, 6630.350
372.1400, 7172.091
373.3390, 7656.327
374.5380, 8329.550
375.7370, 9143.771
376.9360, 9728.982
378.1350, 10507.19
379.3330, 11534.40
380.5310, 12410.61
381.7300, 13410.51
382.9280, 14635.07
384.1260, 15444.31
385.3230, 16680.56
386.5210, 17686.83
387.7180, 18941.50
388.9160, 20097.37
390.1130, 21978.63
391.3100, 23892.96
392.5060, 26337.39
393.7030, 29013.94
394.9000, 31870.62
396.0960, 35371.36
397.2920, 38986.10
398.4880, 43339.82
399.6840, 47664.54
400.8800, 51647.25
402.0750, 53811.97
403.2710, 52887.67
404.4660, 50051.36
405.6610, 43969.05
406.8560, 37673.72
408.0510, 31757.40
409.2450, 26705.06
410.4400, 22474.72
411.6340, 19441.37
412.8280, 16858.01
414.0220, 15124.65
415.2160, 13641.27
416.4100, 12340.89
417.6030, 11232.50
418.7970, 10218.10
419.9900, 9183.699
421.1830, 8388.284
422.3760, 7561.860
423.5690, 6728.428
424.7610, 6062.986
425.9540, 5344.536
427.1460, 4838.078
428.3380, 4285.609
429.5300, 3874.134
430.7220, 3490.649
431.9140, 3142.158
433.1050, 2810.662
434.2970, 2532.164
435.4880, 2314.662
436.6790, 2055.097
437.8700, 1861.659
439.0610, 1628.159
440.2510, 1460.662
441.4420, 1266.272
442.6320, 1135.000
443.8220, 995.7505
445.0120, 908.4055
446.2020, 793.1152
447.3910, 680.5339
448.5810, 644.5044
449.7700, 522.0139
450.9600, 464.1560
452.1490, 470.1775
453.3370, 375.4517
454.5260, 429.5925
455.7150, 358.7971
456.9030, 380.2539
458.0910, 328.0129
459.2800, 295.0781
460.4670, 362.5952
461.6550, 286.0330
462.8430, 270.3916
464.0300, 398.4888
465.2180, 350.0115
466.4050, 272.1187
467.5920, 291.7019
468.7790, 283.7810
469.9650, 238.5068
471.1520, 290.3472
472.3380, 265.8940
473.5250, 296.8784
474.7110, 280.6331
475.8970, 259.9995
477.0820, 211.9048
478.2680, 210.2156
479.4540, 187.9365
480.6390, 178.6519
481.8240, 155.5950
483.0090, 163.3962
484.1940, 139.6768
485.3780, 103.1689
486.5630, 188.3325
487.7470, 209.8574
488.9320, 219.9951
490.1160, 219.4297
491.3000, 262.5376
492.4830, 287.1514
493.6670, 250.5039
494.8500, 298.6785
496.0340, 252.3057
497.2170, 201.9729
498.4000, 260.3323
499.5820, 275.6453
500.7650, 265.7935
501.9480, 241.4143
503.1300, 276.5237
504.3120, 187.9758
505.4940, 193.8555
506.6760, 250.3542
507.8580, 169.1643
509.0390, 199.9058
510.2210, 229.2666
511.4020, 187.5688
512.5830, 214.6973
513.7640, 252.4844
514.9450, 235.7708
516.1250, 267.3271
517.3060, 330.0261
518.4860, 346.1536
519.6660, 372.4539
520.8460, 402.1411
522.0260, 445.0332
523.2060, 529.3594
524.3850, 609.1541
525.5650, 606.9961
526.7440, 713.6274
527.9230, 872.7373
529.1020, 1079.506
530.2810, 1295.856
531.4590, 1487.800
532.6380, 1712.956
533.8160, 1982.480
534.9940, 2198.653
536.1720, 2556.984
537.3500, 2885.499
538.5270, 3090.351
539.7050, 3539.406
540.8820, 3619.226
542.0590, 3745.296
543.2360, 3822.941
544.4130, 3534.446
545.5900, 3255.912
546.7660, 2943.594
547.9430, 2583.211
549.1190, 2232.642
550.2950, 1934.071
551.4710, 1639.485
552.6470, 1381.053
553.8220, 1298.509
554.9980, 1130.607
556.1730, 1000.691
557.3480, 887.7429
558.5230, 777.8555
559.6980, 737.8613
560.8730, 696.8442
562.0470, 611.8037
563.2220, 546.7390
564.3960, 568.6509
565.5700, 498.5391
566.7440, 435.4033
567.9170, 499.2432
569.0910, 408.0588
570.2640, 412.8501
571.4380, 411.6169
572.6110, 304.3591
573.7840, 257.0767
574.9570, 262.7690
576.1290, 244.4365
577.3020, 201.0789
578.4740, 162.6956
579.6460, 120.2871
580.8180, 144.8528
581.9900, 84.39258
583.1620, 95.90527
584.3330, 69.39136
585.5040, 30.84888
586.6760, 71.27686
587.8470, 24.68164
589.0180, 24.08081
590.1880, 77.49243
591.3590, 29.19556
592.5290, 2.299561
593.7000, 26.79736
594.8700, 7.652100
596.0400, 27.23950
597.2090, 27.74512
598.3790, 54.26172
599.5490, 12.77905
600.7180, 90.31543
601.8870, 73.89404
603.0560, 100.5232
604.2250, 52.23560
605.3940, 26.01025
606.5620, 20.16626
607.7300, 7.691650
608.8990, 15.59082
610.0670, 88.53540
611.2350, 25.56519
612.4020, 67.64746
613.5700, 25.80444
614.7370, 53.01587
615.9050, 3.704346
617.0720, 21.61548
618.2390, 58.98877
619.4060, 40.43579
620.5720, 39.94751
621.7390, 18.52393
622.9050, 63.15503
624.0710, 85.86450
625.2370, 24.66455
626.4030, 36.47607
627.5690, 55.42017
628.7340, 64.39331
629.9000, 52.44775
631.0650, 30.57837
632.2300, 37.94373
633.3950, 49.03857
634.5600, 45.37842
635.7240, 50.34753
636.8890, 32.28442
638.0530, 40.84558
639.2170, 37.48096
640.3810, 12.18982
641.5450, 45.96008
642.7080, 30.80933
643.8720, 2.730835
645.0350, 39.71021
646.1980, 0.2325440
647.3610, 34.88245
648.5240, 16.07446
649.6870, 36.66577
650.8490, 51.36047
652.0120, 32.98975
653.1740, 5.581543
654.3360, 17.90601
655.4980, 10.53503
656.6600, 8.081055
657.8210, 1.235962
658.9830, 16.49097
660.1440, 7.309082
661.3050, 26.82410
662.4660, 16.49500
663.6270, 29.93225
664.7870, 6.908325
665.9480, 10.82397
667.1080, 13.31897
668.2680, 8.467041
669.4280, 47.19336
670.5880, 25.87292
671.7480, 62.49976
672.9070, 38.08191
674.0670, 56.61511
675.2260, 45.10303
676.3850, 37.54370
677.5440, 101.9349
678.7030, 61.28369
679.8610, 99.58777
681.0200, 55.84912
682.1780, 131.0652
683.3360, 159.2400
684.4940, 163.3745
685.6520, 106.4686
686.8090, 116.5210
687.9670, 155.5316
689.1240, 150.5020
690.2810, 148.4323
691.4380, 106.3223
692.5950, 127.1707
693.7520, 228.9784
694.9080, 204.7480
696.0650, 256.4801
697.2210, 186.1743
698.3770, 223.8302
699.5330, 248.4486
700.6880, 264.0299
701.8440, 253.5740
702.9990, 206.0826
704.1550, 290.5546
705.3100, 346.9894
706.4650, 326.3872
707.6190, 275.7485
708.7740, 361.0730
709.9290, 302.3611
711.0830, 331.6124
712.2370, 404.8276
713.3910, 354.0066
714.5450, 374.1494
715.6980, 466.2562
716.8520, 458.3330
718.0050, 533.3739
719.1580, 532.3794
720.3110, 612.3491
721.4640, 595.1794
722.6170, 658.0142
723.7700, 715.7012
724.9220, 822.1838
726.0740, 912.7943
727.2260, 1004.167
728.3780, 1134.494
729.5300, 1216.002
730.6810, 1436.264
731.8330, 1595.352
732.9840, 1731.519
734.1350, 1886.344
735.2860, 2134.373
736.4370, 2353.284
737.5880, 2504.441
738.7380, 2707.875
739.8880, 2852.556
741.0390, 2902.167
742.1890, 2946.999
743.3380, 2904.770
744.4880, 2947.090
745.6380, 2899.796
746.7870, 2915.996
747.9360, 2878.667
749.0850, 2899.662
750.2340, 3024.510
751.3830, 3204.620
752.5310, 3446.261
753.6800, 3685.098
754.8280, 3956.293
755.9760, 4394.925
757.1240, 4795.121
758.2720, 5306.393
759.4190, 5755.604
760.5670, 6462.076
761.7140, 6788.659
762.8610, 7197.735
764.0080, 7307.569
765.1550, 7565.705
766.3020, 7356.449
767.4480, 7107.553
768.5950, 6510.329
769.7410, 6036.406
770.8870, 5333.944
772.0330, 4731.718
773.1780, 4175.650
774.3240, 3669.204
775.4690, 3136.824
776.6140, 2873.867
777.7590, 2434.034
778.9040, 2145.726
780.0490, 2029.239
781.1940, 1856.645
782.3380, 1718.757
783.4820, 1520.493
784.6260, 1499.681
785.7700, 1337.613
786.9140, 1198.674
788.0580, 1234.175
789.2010, 1100.804
790.3450, 1076.657
791.4880, 1030.879
792.6310, 1014.588
793.7730, 960.9980
794.9160, 1018.237
796.0590, 967.0198
797.2010, 916.6016
798.3430, 961.7686
799.4850, 1018.702
800.6270, 1018.174
801.7690, 1124.150
802.9100, 1115.052
804.0520, 1087.135
805.1930, 1126.713
806.3340, 1263.605
807.4750, 1351.888
808.6160, 1458.549
809.7560, 1578.971
810.8970, 1664.997
812.0370, 1836.348
813.1770, 2048.511
814.3170, 2270.461
815.4570, 2395.046
816.5960, 2618.399
817.7360, 2880.957
818.8750, 3018.238
820.0140, 3161.914
821.1530, 3369.702
822.2920, 3699.008
823.4310, 3974.056
824.5690, 4486.647
825.7070, 4972.396
826.8460, 5442.120
827.9840, 6125.830
829.1220, 6721.359
830.2590, 7650.972
831.3970, 8281.915
832.5340, 8550.845
833.6710, 8814.780
834.8080, 8744.629
835.9450, 8697.552
837.0820, 8416.476
838.2190, 8173.394
839.3550, 7746.723
840.4910, 7276.638
841.6270, 6828.547
842.7630, 6203.391
843.8990, 5634.063
845.0350, 4922.264
846.1700, 4400.165
847.3060, 3815.064
848.4410, 3313.962
849.5760, 2966.859
850.7100, 2448.755
851.8450, 2129.650
852.9800, 1919.830
854.1140, 1642.724
855.2480, 1392.619
856.3820, 1274.513
857.5160, 1139.408
858.6500, 1011.303
859.7830, 860.6338
860.9170, 727.5322
862.0500, 668.7188
863.1830, 571.6221
864.3160, 530.5291
865.4480, 476.5203
866.5810, 449.3523
867.7130, 388.2695
868.8460, 402.2974
869.9780, 347.2317
871.1100, 335.2395
872.2410, 271.1841
873.3730, 250.4463
874.5050, 273.4639
875.6360, 273.2051
876.7670, 223.7812
877.8980, 193.9451
879.0290, 208.3557
880.1590, 212.0010
881.2900, 192.0674
882.4200, 189.5342
883.5500, 171.0420
884.6800, 165.4919
885.8100, 172.6619
886.9400, 173.8481
888.0690, 155.0620
889.1990, 122.2935
890.3280, 95.55347
891.4570, 132.7036
892.5860, 154.9915
893.7140, 148.3069
894.8430, 111.6455
895.9710, 75.14746
897.1000, 94.54004
898.2280, 128.9678
899.3560, 93.43750
900.4830, 105.9285
901.6110, 41.42969
902.7380, 65.96069
903.8660, 37.52515
904.9930, 107.1206
906.1200, 59.74048
907.2460, 88.39111
908.3730, 98.07153
909.5000, 43.78125
910.6260, 17.52197
911.7520, 1.710938
912.8780, 13.08594
914.0040, 34.91138
915.1290, 97.76538
916.2550, 15.65674
917.3800, 88.57617
918.5050, 125.5217
919.6300, 74.49780
920.7550, 121.4941
921.8800, 135.5198
923.0040, 134.5742
924.1290, 135.6433
925.2530, 164.7258
926.3770, 150.8379
927.5010, 241.9709
928.6250, 238.1321
929.7480, 346.3142
930.8720, 376.5256
931.9950, 472.7610
933.1180, 479.0146
934.2410, 526.2937
935.3640, 551.5894
936.4860, 592.9065
937.6090, 690.2419
938.7310, 651.5989
939.8530, 706.9824
940.9750, 682.4004
942.0970, 568.8403
943.2180, 541.2952
944.3400, 482.7683
945.4610, 430.2178
946.5820, 403.2134
947.7030, 353.3018
948.8240, 336.8574
949.9450, 300.4302
951.0650, 258.0181
952.1860, 225.6223
953.3060, 198.2405
954.4260, 188.8835
955.5460, 150.5408
956.6650, 165.2178
957.7850, 143.9102
958.9040, 116.6167
960.0230, 148.3376
961.1420, 61.07227
962.2610, 51.82373
963.3800, 112.6011
964.4990, 42.39307
965.6170, 51.19849
966.7350, 55.01636
967.8530, 41.84814
968.9710, 32.69238
970.0890, 60.54932
971.2070, 82.41821
972.3240, 49.29932
973.4410, 17.80688
974.5580, 43.09497
975.6750, 40.00928
976.7920, 45.93628
977.9090, 59.87646
979.0250, 9.829346
980.1410, 31.79443
981.2580, 51.77246
982.3740, 77.76270
983.4890, 47.76587
984.6050, 100.7825
985.7200, 36.81445
986.8360, 39.13745
987.9510, 26.91187
989.0660, 1.974854
990.1810, 70.05054
991.2950, 87.13818
992.4100, 35.23853
993.5240, 41.64917
994.6390, 27.46240
995.7530, 11.41382
996.8660, 20.72119
997.9800, 72.86890
999.0940, 9.033936
1000.207, 90.21143
1001.320, 13.40137
1002.433, 4.396729
1003.546, 0.8159180
1004.659, 2.959473
1005.772, 21.27637
1006.884, 58.47607
1007.996, 1.237305
1009.108, 22.98804
1010.220, 41.73389
1011.332, 4.481934
1012.444, 58.21948
1013.555, 40.96631
1014.666, 20.71606
1015.777, 2.538330
1016.888, 10.80273
1017.999, 9.921631
1019.110, 14.47266
1020.220, 69.76855
1021.331, 6.075195
1022.441, 34.39209
1023.551, 12.49023
1024.661, 46.17310
1025.770, 18.15649
1026.880, 7.496582
1027.989, 33.84644
1029.098, 3.521729
1030.207, 32.29736
1031.316, 29.76196
1032.425, 62.33398
1033.533, 26.72925
1034.642, 41.14697
1035.750, 56.55786
1036.858, 93.13745
1037.966, 71.78711
1039.073, 138.2222
1040.181, 103.5581
1041.288, 148.0073
1042.396, 87.46387
1043.503, 121.9275
1044.610, 88.39771
1045.716, 121.1157
1046.823, 129.5989
1047.929, 139.5737
1049.036, 129.4128
1050.142, 148.0610
1051.248, 238.8899
1052.353, 175.4044
1053.459, 187.9442
1054.564, 229.4707
1055.670, 155.7769
1056.775, 198.5850
1057.880, 212.1271
1058.985, 294.6748
1060.089, 271.3477
1061.194, 188.2655
1062.298, 280.1772
1063.402, 289.8669
1064.506, 362.8611
1065.610, 886.4609
1066.713, 615.9507
1067.817, 963.7078
1068.920, 410.8853
1070.023, 451.7976
1071.126, 461.3911
1072.229, 517.2253
1073.332, 592.6316
1074.435, 657.2559
1075.537, 673.8687
1076.639, 714.4761
1077.741, 859.1697
1078.843, 874.1969
1079.945, 1030.308
1081.046, 1114.901
1082.148, 1260.519
1083.249, 1412.559
1084.350, 1648.502
1085.451, 1986.217
1086.551, 2524.090
1087.652, 2963.945
1088.752, 3770.140
1089.853, 4791.352
1090.953, 5933.068
1092.053, 7371.860
1093.152, 9023.689
1094.252, 10553.14
1095.351, 12111.74
1096.451, 13520.50
1097.550, 13759.23
1098.649, 12939.86
1099.748, 11077.89
1100.846, 8933.564
1101.945, 6862.256
1103.043, 5273.882
1104.141, 4122.508
1105.239, 3123.235
1106.337, 2565.454
1107.434, 2180.222
1108.532, 1883.929
1109.629, 1535.763
1110.726, 1305.484
1111.823, 1172.194
1112.920, 1010.864
1114.017, 893.5688
1115.113, 747.3467
1116.210, 719.1826
1117.306, 669.5312
1118.402, 685.0385
1119.498, 627.5112
1120.593, 595.4465
1121.689, 567.1763
1122.784, 486.7776
1123.879, 460.2136
1124.974, 502.0870
1126.069, 395.2572
1127.164, 378.8909
1128.259, 403.6848
1129.353, 331.4160
1130.447, 288.2222
1131.541, 196.9417
1132.635, 194.6234
1133.729, 192.1855
1134.822, 123.7329
1135.916, 106.4159
1137.009, 160.0448
1138.102, 125.5897
1139.195, 59.82385
1140.288, 117.3168
1141.380, 79.22083
1142.473, 122.3822
1143.565, 38.93091
1144.657, 120.3329
1145.749, 78.29907
1146.841, 30.10803
1147.932, 29.60864
1149.024, 49.14392
1150.115, 9.988403
1151.206, 24.45801
1152.297, 52.04712
1153.388, 35.61353
1154.479, 3.919312
1155.569, 27.53503
1156.659, 22.12537
1157.750, 28.77893
1158.839, 65.23145
1159.929, 4.691650
1161.019, 31.98987
1162.108, 9.525146
1163.198, 11.08057
1164.287, 16.39246
1165.376, 14.80981
1166.465, 42.30151
1167.553, 8.771118
1168.642, 7.133545
1169.730, 17.46753
1170.818, 5.213989
1171.906, 31.09351
1172.994, 36.39026
1174.082, 32.02710
1175.170, 46.96301
1176.257, 7.238892
1177.344, 42.51294
1178.431, 14.20142
1179.518, 11.80872
1180.605, 11.47095
1181.691, 11.22717
1182.778, 56.07898
1183.864, 20.69543
1184.950, 26.89392
1186.036, 1.882935
1187.122, 8.481812
1188.207, 33.64197
1189.292, 28.92615
1190.378, 14.14600
1191.463, 6.501343
1192.548, 6.878296
1193.632, 7.048706
1194.717, 5.244507
1195.801, 27.52417
1196.886, 17.69299
1197.970, 43.90991
1199.054, 1.966187
1200.137, 8.291748
1201.221, 48.43713
1202.305, 8.314575
1203.388, 17.33215
1204.471, 33.62549
1205.554, 37.73840
1206.637, 47.91211
1207.719, 21.09229
1208.802, 26.81348
1209.884, 4.200684
1210.966, 19.77869
1212.048, 64.26550
1213.130, 6.106323
1214.212, 9.055542
1215.293, 22.97131
1216.374, 24.07776
1217.456, 12.69788
1218.536, 13.26196
1219.617, 2.545776
1220.698, 26.43054
1221.778, 16.78918
1222.859, 14.69775
1223.939, 1.164429
1225.019, 35.34302
1226.099, 20.54871
1227.178, 27.42114
1228.258, 73.19910
1229.337, 6.882935
1230.417, 42.58545
1231.496, 38.43384
1232.574, 59.16284
1233.653, 92.94434
1234.732, 30.75317
1235.810, 53.48035
1236.888, 21.22424
1237.966, 36.07751
1239.044, 14.83337
1240.122, 33.91846
1241.199, 36.98450
1242.277, 46.79858
1243.354, 38.56799
1244.431, 21.29517
1245.508, 14.89038
1246.585, 0.4378660
1247.661, 3.069824
1248.738, 25.77319
1249.814, 9.336670
1250.890, 31.92505
1251.966, 74.33545
1253.042, 34.70264
1254.117, 84.05701
1255.193, 60.40222
1256.268, 52.74512
1257.343, 3.078247
1258.418, 28.39966
