##NAMES=Azurite
##RRUFFID=R050638
##IDEAL CHEMISTRY=Cu^2+^_3_(CO_3_)_2_(OH)_2_
##LOCALITY=Zacatecas, Mexico
##OWNER=RRUFF
##SOURCE=University of Arizona Mineral Museum
##DESCRIPTION=Blue bladed crystals
##STATUS=The identification of this mineral has been confirmed by X-ray diffraction and chemical analysis
##URL=rruff.info/R050638
##MEASURED CHEMISTRY=Cu_3.00_(CO_3_)_2_(OH)_2_
##PIN_ID=M00402
##ORIENTATION=Laser parallel to c* (0 0 1). Fiducial mark perpendicular to laser is parallel to -a [-1 0 0]
52.67100, 0.0000000E+00
53.91000, 104.4734
55.14900, 155.1394
56.38700, 158.6161
57.62600, 203.4933
58.86400, 121.5501
60.10300, 29.88354
61.34100, 25.19269
62.57900, 59.76575
63.81700, 28.93347
65.05400, 7.309326
66.29200, 145.4011
67.52900, 460.5798
68.76700, 943.6945
70.00400, 1966.320
71.24100, 3751.105
72.47700, 6531.717
73.71400, 11330.83
74.95100, 19379.15
76.18700, 28849.40
77.42300, 34032.36
78.65900, 35831.80
79.89500, 40999.56
81.13100, 46280.48
82.36700, 49597.41
83.60200, 47775.23
84.83700, 43918.87
86.07200, 37403.38
87.30800, 29106.69
88.54200, 20392.67
89.77700, 14019.22
91.01200, 10228.20
92.24600, 7929.478
93.48000, 6195.937
94.71400, 4843.487
95.94800, 4200.057
97.18200, 3562.590
98.41600, 3214.034
99.64900, 3130.347
100.8830, 3209.493
102.1160, 3241.437
103.3490, 3855.151
104.5820, 4378.607
105.8150, 4860.782
107.0470, 4892.653
108.2800, 4844.201
109.5120, 5365.406
110.7440, 5221.250
111.9760, 3721.717
113.2080, 3037.789
114.4400, 2893.455
115.6710, 2849.991
116.9030, 2845.156
118.1340, 2663.259
119.3650, 2738.215
120.5960, 3890.540
121.8270, 5779.236
123.0580, 8440.300
124.2880, 11289.73
125.5190, 10929.54
126.7490, 9717.614
127.9790, 10486.64
129.2090, 12928.62
130.4390, 15378.54
131.6680, 17345.41
132.8980, 17393.31
134.1270, 16132.32
135.3560, 14968.45
136.5850, 13634.74
137.8140, 11856.19
139.0430, 10324.84
140.2710, 8837.687
141.5000, 7750.745
142.7280, 7038.024
143.9560, 6622.531
145.1840, 6889.272
146.4120, 6927.256
147.6390, 6592.480
148.8670, 5571.952
150.0940, 4987.673
151.3210, 4887.645
152.5490, 5044.868
153.7750, 4711.347
155.0020, 4339.076
156.2290, 4007.060
157.4550, 3610.299
158.6810, 3535.792
159.9080, 3624.534
161.1340, 4690.529
162.3590, 5921.773
163.5850, 7028.262
164.8110, 7670.999
166.0360, 7704.978
167.2610, 8264.198
168.4860, 9549.659
169.7110, 11743.36
170.9360, 13606.30
172.1610, 14651.47
173.3850, 13795.88
174.6100, 12308.52
175.8340, 11258.39
177.0580, 10233.99
178.2820, 8933.069
179.5050, 7699.701
180.7290, 6522.631
181.9520, 5718.130
183.1760, 4873.911
184.3990, 4083.657
185.6220, 3285.949
186.8450, 2795.518
188.0670, 2423.341
189.2900, 2264.398
190.5120, 2231.691
191.7340, 2126.220
192.9560, 2098.984
194.1780, 2162.017
195.4000, 2028.329
196.6220, 2116.883
197.8430, 1981.698
199.0640, 1751.743
200.2860, 1870.637
201.5070, 1884.291
202.7270, 2113.701
203.9480, 1823.878
205.1690, 1262.749
206.3890, 611.0698
207.6090, 294.2031
208.8290, 104.1255
210.0490, 36.37939
211.2690, 124.2583
212.4890, 76.16357
213.7080, 95.64746
214.9280, 205.6045
216.1470, 120.0103
217.3660, 150.8472
218.5850, 106.0962
219.8030, 118.7334
221.0220, 240.7427
222.2400, 299.1074
223.4590, 524.8149
224.6770, 771.8521
225.8950, 1097.207
227.1120, 1688.869
228.3300, 2442.828
229.5480, 3234.074
230.7650, 3741.598
231.9820, 4108.391
233.1990, 4607.446
234.4160, 5521.754
235.6330, 7087.306
236.8490, 9469.098
238.0660, 13066.12
239.2820, 18006.37
240.4980, 21931.83
241.7140, 23164.52
242.9300, 21551.40
244.1460, 20694.50
245.3610, 21224.80
246.5770, 21353.29
247.7920, 20772.99
249.0070, 19852.87
250.2220, 18449.94
251.4370, 16071.18
252.6510, 13251.62
253.8660, 10210.23
255.0800, 7435.009
256.2940, 5833.964
257.5080, 4793.085
258.7220, 4620.374
259.9360, 4641.825
261.1490, 4809.437
262.3630, 4341.204
263.5760, 4102.120
264.7890, 4439.178
266.0020, 4544.371
267.2150, 4933.698
268.4270, 5220.159
269.6400, 5711.751
270.8520, 6327.473
272.0640, 7101.322
273.2760, 7888.300
274.4880, 8647.403
275.7000, 9127.635
276.9120, 9633.996
278.1230, 10073.48
279.3340, 10051.10
280.5450, 10080.85
281.7560, 9802.721
282.9670, 9305.722
284.1780, 8715.851
285.3880, 7543.104
286.5980, 6442.484
287.8090, 5283.986
289.0190, 4323.612
290.2290, 3217.361
291.4380, 2333.230
292.6480, 1712.220
293.8570, 1161.328
295.0670, 882.5547
296.2760, 512.8984
297.4850, 206.3628
298.6930, 9.948242
299.9020, 137.3491
301.1110, 168.5474
302.3190, 286.6504
303.5270, 300.6753
304.7350, 356.6265
305.9430, 434.5176
307.1510, 407.3638
308.3580, 527.7881
309.5660, 441.5547
310.7730, 333.6016
311.9800, 349.0610
313.1870, 204.7778
314.3940, 31.37207
315.6010, 24.27539
316.8070, 249.2109
318.0130, 666.7222
319.2200, 903.9087
320.4260, 1462.142
321.6310, 1958.330
322.8370, 2344.254
324.0430, 2797.637
325.2480, 3090.032
326.4540, 3335.274
327.6590, 3421.037
328.8640, 3477.318
330.0680, 3369.636
331.2730, 2981.885
332.4780, 2851.553
333.6820, 2570.868
334.8860, 2146.012
336.0900, 1977.098
337.2940, 1604.689
338.4980, 1431.162
339.7010, 1190.134
340.9050, 1039.965
342.1080, 947.2227
343.3110, 817.6943
344.5140, 735.1157
345.7170, 859.9077
346.9200, 851.8813
348.1220, 942.8813
349.3240, 1123.475
350.5270, 1193.680
351.7290, 1371.734
352.9310, 1661.655
354.1320, 1965.238
355.3340, 2259.434
356.5350, 2516.299
357.7370, 2907.277
358.9380, 3256.396
360.1390, 3657.649
361.3400, 4070.791
362.5400, 4414.099
363.7410, 4899.638
364.9410, 5446.286
366.1410, 5953.041
367.3410, 6684.896
368.5410, 7480.867
369.7410, 8202.938
370.9400, 8899.111
372.1400, 9907.386
373.3390, 11010.75
374.5380, 12204.21
375.7370, 13252.76
376.9360, 14250.39
378.1350, 15237.12
379.3330, 16386.94
380.5310, 17392.84
381.7300, 18400.82
382.9280, 19682.90
384.1260, 21343.06
385.3230, 23052.30
386.5210, 25217.62
387.7180, 28034.01
388.9160, 32101.48
390.1130, 36370.00
391.3100, 41921.62
392.5060, 46856.30
393.7030, 50918.05
394.9000, 53644.87
396.0960, 54924.73
397.2920, 55844.68
398.4880, 55565.68
399.6840, 54277.74
400.8800, 51972.86
402.0750, 49078.04
403.2710, 44703.28
404.4660, 39973.57
405.6610, 34718.91
406.8560, 29771.31
408.0510, 25070.77
409.2450, 21434.27
410.4400, 18248.82
411.6340, 15750.42
412.8280, 13721.07
414.0220, 12113.76
415.2160, 10702.50
416.4100, 9463.285
417.6030, 8282.118
418.7970, 7402.989
419.9900, 6716.906
421.1830, 5912.864
422.3760, 5298.860
423.5690, 4628.901
424.7610, 4115.978
425.9540, 3729.095
427.1460, 3247.248
428.3380, 2955.439
429.5300, 2593.666
430.7220, 2222.927
431.9140, 2017.223
433.1050, 1777.552
434.2970, 1575.914
435.4880, 1370.308
436.6790, 1189.733
437.8700, 1048.188
439.0610, 851.7251
440.2510, 695.0134
441.4420, 637.0354
442.6320, 514.4629
443.8220, 389.4888
445.0120, 366.8643
446.2020, 200.5000
447.3910, 165.4578
448.5810, 169.4612
449.7700, 104.1775
450.9600, 52.43970
452.1490, 68.89014
453.3370, 5.807617
454.5260, 45.39697
455.7150, 22.07812
456.9030, 0.4587400
458.0910, 27.01392
459.2800, 30.29712
460.4670, 16.84131
461.6550, 28.58350
462.8430, 2.431641
464.0300, 56.33447
465.2180, 11.88672
466.4050, 35.87793
467.5920, 2.258301
468.7790, 55.17993
469.9650, 17.40918
471.1520, 39.26831
472.3380, 38.59277
473.5250, 12.05835
474.7110, 39.95972
475.8970, 69.79004
477.0820, 62.32495
478.2680, 17.26709
479.4540, 3.262939
480.6390, 19.25879
481.8240, 45.86255
483.0090, 19.86011
484.1940, 5.106689
485.3780, 51.87866
486.5630, 67.91162
487.7470, 15.05371
488.9320, 6.346680
490.1160, 56.85376
491.3000, 9.159180
492.4830, 66.59326
493.6670, 7.452881
494.8500, 14.73584
496.0340, 100.4993
497.2170, 47.48413
498.4000, 78.78687
499.5820, 138.1016
500.7650, 77.38477
501.9480, 76.18237
503.1300, 38.05542
504.3120, 37.30664
505.4940, 99.38477
506.6760, 130.3228
507.8580, 131.5225
509.0390, 106.7576
510.2210, 102.2268
511.4020, 145.3840
512.5830, 143.3872
513.7640, 138.7502
514.9450, 244.1443
516.1250, 244.4868
517.3060, 241.6570
518.4860, 334.7292
519.6660, 455.0852
520.8460, 467.1387
522.0260, 534.5352
523.2060, 653.3286
524.3850, 912.4097
525.5650, 1069.915
526.7440, 1180.820
527.9230, 1585.738
529.1020, 1815.469
530.2810, 2243.333
531.4590, 2569.286
532.6380, 3045.939
533.8160, 3529.145
534.9940, 3742.150
536.1720, 3958.171
537.3500, 4029.800
538.5270, 4057.554
539.7050, 3931.609
540.8820, 3832.748
542.0590, 3662.751
543.2360, 3327.484
544.4130, 2994.298
545.5900, 2673.253
546.7660, 2307.878
547.9430, 2088.575
549.1190, 1780.884
550.2950, 1498.398
551.4710, 1316.626
552.6470, 1105.855
553.8220, 956.2461
554.9980, 914.3906
556.1730, 752.4524
557.3480, 730.4714
558.5230, 663.4470
559.6980, 524.3789
560.8730, 528.2666
562.0470, 497.1099
563.2220, 506.9084
564.3960, 447.6616
565.5700, 396.3691
566.7440, 372.0305
567.9170, 358.6455
569.0910, 363.2134
570.2640, 317.7344
571.4380, 310.2075
572.6110, 338.6331
573.7840, 256.0098
574.9570, 260.3384
576.1290, 226.6177
577.3020, 239.8477
578.4740, 158.0281
579.6460, 139.1587
580.8180, 87.23755
581.9900, 57.25781
583.1620, 83.21289
584.3330, 69.10889
585.5040, 52.96045
586.6760, 25.76855
587.8470, 27.25439
589.0180, 45.29321
590.1880, 37.02734
591.3590, 5.760742
592.5290, 33.10791
593.7000, 5.161865
594.8700, 25.87817
596.0400, 9.366943
597.2090, 61.85449
598.3790, 13.18628
599.5490, 42.26294
600.7180, 15.54126
601.8870, 3.099609
603.0560, 43.91089
604.2250, 21.95508
605.3940, 1.938477
606.5620, 24.66235
607.7300, 23.08887
608.8990, 7.266846
610.0670, 11.61206
611.2350, 26.35181
612.4020, 9.696533
613.5700, 23.98389
614.7370, 4.363525
615.9050, 14.65723
617.0720, 38.31348
618.2390, 2.791992
619.4060, 19.19873
620.5720, 20.09961
621.7390, 27.87549
622.9050, 24.11401
624.0710, 21.82349
625.2370, 10.81299
626.4030, 11.56445
627.5690, 13.26099
628.7340, 21.27173
629.9000, 16.41089
631.0650, 18.22205
632.2300, 21.34656
633.3950, 12.36194
634.5600, 20.35229
635.7240, 13.15198
636.8890, 0.4464110
638.0530, 22.50684
639.2170, 7.085571
640.3810, 27.26416
641.5450, 51.51855
642.7080, 1.682373
643.8720, 8.006836
645.0350, 33.17236
646.1980, 2.845215
647.3610, 8.940918
648.5240, 23.88257
649.6870, 46.36597
650.8490, 9.714478
652.0120, 7.143799
653.1740, 14.65283
654.3360, 11.75525
655.4980, 13.08997
656.6600, 20.11829
657.8210, 23.54077
658.9830, 8.659058
660.1440, 21.70361
661.3050, 36.32300
662.4660, 32.55798
663.6270, 16.63025
664.7870, 3.899780
665.9480, 20.75476
667.1080, 18.33862
668.2680, 26.85156
669.4280, 81.29553
670.5880, 71.67749
671.7480, 24.99670
672.9070, 130.2471
674.0670, 59.44055
675.2260, 55.57080
676.3850, 83.63684
677.5440, 70.64221
678.7030, 128.5859
679.8610, 114.4738
681.0200, 126.3047
682.1780, 154.0801
683.3360, 139.8016
684.4940, 118.4690
685.6520, 153.0804
686.8090, 139.6390
687.9670, 199.1438
689.1240, 151.5984
690.2810, 201.0005
691.4380, 182.3528
692.5950, 150.6553
693.7520, 182.9056
694.9080, 220.1063
696.0650, 217.2582
697.2210, 225.3611
698.3770, 239.4159
699.5330, 247.4224
700.6880, 280.3807
701.8440, 297.2914
702.9990, 314.1545
704.1550, 290.9702
705.3100, 327.7393
706.4650, 296.4614
707.6190, 372.1371
708.7740, 403.7664
709.9290, 434.3497
711.0830, 483.8877
712.2370, 506.3466
713.3910, 553.8267
714.5450, 543.2285
715.6980, 609.5857
716.8520, 589.8989
718.0050, 662.1677
719.1580, 753.3396
720.3110, 874.7456
721.4640, 919.4023
722.6170, 1013.599
723.7700, 1133.436
724.9220, 1289.813
726.0740, 1445.736
727.2260, 1632.732
728.3780, 1839.727
729.5300, 2047.422
730.6810, 2303.722
731.8330, 2623.189
732.9840, 2887.677
734.1350, 3134.785
735.2860, 3324.091
736.4370, 3497.196
737.5880, 3578.208
738.7380, 3669.883
739.8880, 3685.804
741.0390, 3637.898
742.1890, 3653.076
743.3380, 3587.617
744.4880, 3503.356
745.6380, 3494.637
746.7870, 3580.513
747.9360, 3609.829
749.0850, 3931.819
750.2340, 4065.700
751.3830, 4423.010
752.5310, 4836.819
753.6800, 5346.847
754.8280, 6009.769
755.9760, 6437.354
757.1240, 7081.305
758.2720, 7583.282
759.4190, 7963.230
760.5670, 8078.753
761.7140, 8221.628
762.8610, 8033.716
764.0080, 7703.538
765.1550, 7339.290
766.3020, 6669.909
767.4480, 6111.040
768.5950, 5492.534
769.7410, 4774.894
770.8870, 4279.093
772.0330, 3752.838
773.1780, 3271.125
774.3240, 2940.896
775.4690, 2638.417
776.6140, 2376.589
777.7590, 2110.720
778.9040, 1900.853
780.0490, 1718.441
781.1940, 1543.923
782.3380, 1506.991
783.4820, 1340.197
784.6260, 1319.511
785.7700, 1211.532
786.9140, 1163.485
788.0580, 1050.172
789.2010, 1081.137
790.3450, 959.2239
791.4880, 954.9177
792.6310, 972.5461
793.7730, 961.1919
794.9160, 939.9756
796.0590, 916.8228
797.2010, 961.3511
798.3430, 937.1470
799.4850, 985.5635
800.6270, 956.5479
801.7690, 974.2083
802.9100, 1073.408
804.0520, 1187.172
805.1930, 1247.885
806.3340, 1408.749
807.4750, 1545.442
808.6160, 1762.009
809.7560, 1926.840
810.8970, 2128.077
812.0370, 2213.479
813.1770, 2328.824
814.3170, 2474.526
815.4570, 2501.062
816.5960, 2599.258
817.7360, 2719.332
818.8750, 2836.503
820.0140, 3006.904
821.1530, 3293.183
822.2920, 3727.284
823.4310, 4360.673
824.5690, 4932.952
825.7070, 5448.576
826.8460, 5977.957
827.9840, 6411.581
829.1220, 6712.166
830.2590, 6921.546
831.3970, 7039.119
832.5340, 7082.731
833.6710, 6965.392
834.8080, 6932.024
835.9450, 6662.658
837.0820, 6424.294
838.2190, 6063.934
839.3550, 5678.578
840.4910, 5154.224
841.6270, 4729.874
842.7630, 4230.526
843.8990, 3791.186
845.0350, 3286.849
846.1700, 2906.517
847.3060, 2567.191
848.4410, 2143.869
849.5760, 1892.554
850.7100, 1506.244
851.8450, 1444.940
852.9800, 1179.644
854.1140, 1082.354
855.2480, 861.0713
856.3820, 815.7969
857.5160, 741.5339
858.6500, 631.2861
859.7830, 533.0513
860.9170, 495.3621
862.0500, 421.2168
863.1830, 352.0332
864.3160, 313.5698
865.4480, 329.4248
866.5810, 313.2998
867.7130, 279.2217
868.8460, 181.1438
869.9780, 236.2146
871.1100, 156.1538
872.2410, 177.0752
873.3730, 198.1570
874.5050, 206.8218
875.6360, 206.3860
876.7670, 173.2852
877.8980, 180.9500
879.0290, 155.6765
880.1590, 130.6074
881.2900, 194.7864
882.4200, 199.9543
883.5500, 198.9756
884.6800, 156.8896
885.8100, 173.1855
886.9400, 123.2129
888.0690, 160.3315
889.1990, 175.8232
890.3280, 199.3572
891.4570, 153.6018
892.5860, 139.2063
893.7140, 202.1755
894.8430, 166.5684
895.9710, 226.2788
897.1000, 226.6506
898.2280, 219.7092
899.3560, 237.6245
900.4830, 242.8257
901.6110, 237.7190
902.7380, 320.6416
903.8660, 300.5964
904.9930, 275.5811
906.1200, 346.5986
907.2460, 361.6545
908.3730, 331.7405
909.5000, 433.8633
910.6260, 391.0190
911.7520, 498.2031
912.8780, 574.4185
914.0040, 589.6611
915.1290, 684.9299
916.2550, 742.2212
917.3800, 816.5435
918.5050, 938.8989
919.6300, 1010.281
920.7550, 1152.695
921.8800, 1416.137
923.0040, 1563.606
924.1290, 1757.114
925.2530, 2080.651
926.3770, 2366.220
927.5010, 2641.820
928.6250, 2983.447
929.7480, 3473.099
930.8720, 3699.776
931.9950, 4041.480
933.1180, 4206.211
934.2410, 4373.967
935.3640, 4522.759
936.4860, 4424.574
937.6090, 4335.420
938.7310, 4230.293
939.8530, 3983.190
940.9750, 3715.114
942.0970, 3355.061
943.2180, 3049.031
944.3400, 2720.032
945.4610, 2390.057
946.5820, 2072.102
947.7030, 1813.177
948.8240, 1632.939
949.9450, 1406.333
951.0650, 1243.150
952.1860, 1078.698
953.3060, 994.8789
954.4260, 881.0786
955.5460, 801.3555
956.6650, 772.5308
957.7850, 685.7842
958.9040, 669.0544
960.0230, 639.3423
961.1420, 640.6460
962.2610, 546.9678
963.3800, 500.3059
964.4990, 490.6599
965.6170, 436.0325
966.7350, 411.4290
967.8530, 408.8413
968.9710, 298.2700
970.0890, 356.7146
971.2070, 315.1750
972.3240, 276.6516
973.4410, 290.1438
974.5580, 190.6519
975.6750, 213.1758
976.7920, 167.7158
977.9090, 188.2727
979.0250, 172.5361
980.1410, 153.4766
981.2580, 133.0342
982.3740, 149.6519
983.4890, 91.28857
984.6050, 143.9409
985.7200, 151.6086
986.8360, 106.2917
987.9510, 57.99072
989.0660, 54.70410
990.1810, 32.43262
991.2950, 28.17529
992.4100, 5.850342
993.5240, 11.70581
994.6390, 22.50684
995.7530, 2.710938
996.8660, 20.09839
997.9800, 27.07812
999.0940, 7.751953
1000.207, 21.59595
1001.320, 0.4543460
1002.433, 21.32495
1003.546, 4.791260
1004.659, 32.89673
1005.772, 79.99854
1006.884, 0.1132810
1007.996, 48.21704
1009.108, 90.32251
1010.220, 25.44702
1011.332, 68.56714
1012.444, 17.69824
1013.555, 48.82275
1014.666, 28.29639
1015.777, 51.91528
1016.888, 47.43262
1017.999, 16.25122
1019.110, 50.56714
1020.220, 16.67041
1021.331, 43.15820
1022.441, 23.87720
1023.551, 18.20557
1024.661, 16.83716
1025.770, 17.04126
1026.880, 32.95166
1027.989, 16.39941
1029.098, 54.81787
1030.207, 79.11206
1031.316, 100.0195
1032.425, 48.47949
1033.533, 4.608154
1034.642, 35.77686
1035.750, 66.69849
1036.858, 99.71655
1037.966, 92.65259
1039.073, 151.0952
1040.181, 80.62939
1041.288, 130.7844
1042.396, 143.0569
1043.503, 106.8945
1044.610, 151.4202
1045.716, 195.3972
1046.823, 145.4019
1047.929, 88.10669
1049.036, 212.4597
1050.142, 234.7041
1051.248, 159.8228
1052.353, 245.7540
1053.459, 233.9607
1054.564, 275.0676
1055.670, 298.5092
1056.775, 237.0750
1057.880, 248.1171
1058.985, 285.4907
1060.089, 280.5590
1061.194, 311.0398
1062.298, 351.1586
1063.402, 347.2856
1064.506, 413.2886
1065.610, 434.4458
1066.713, 470.7649
1067.817, 493.9463
1068.920, 550.1127
1070.023, 581.2705
1071.126, 726.4321
1072.229, 704.5778
1073.332, 817.7850
1074.435, 775.0544
1075.537, 960.2837
1076.639, 1054.126
1077.741, 1114.262
1078.843, 1295.380
1079.945, 1498.667
1081.046, 1701.968
1082.148, 2046.394
1083.249, 2364.489
1084.350, 2868.033
1085.451, 3527.346
1086.551, 4470.519
1087.652, 5658.661
1088.752, 7469.815
1089.853, 9569.871
1090.953, 12073.86
1092.053, 14180.92
1093.152, 15696.05
1094.252, 16087.29
1095.351, 15770.38
1096.451, 14571.48
1097.550, 12959.83
1098.649, 10921.58
1099.748, 8900.679
1100.846, 6931.862
1101.945, 5552.964
1103.043, 4280.072
1104.141, 3381.217
1105.239, 2839.231
1106.337, 2361.345
1107.434, 1934.428
1108.532, 1648.602
1109.629, 1409.883
1110.726, 1267.804
1111.823, 1069.915
1112.920, 970.8313
1114.017, 958.8439
1115.113, 763.6309
1116.210, 769.7357
1117.306, 730.8174
1118.402, 680.9016
1119.498, 678.9258
1120.593, 630.9141
1121.689, 632.9282
1122.784, 585.8015
1123.879, 532.8274
1124.974, 507.4161
1126.069, 453.8160
1127.164, 418.1595
1128.259, 386.0353
1129.353, 328.9377
1130.447, 289.0341
1131.541, 228.0184
1132.635, 219.9744
1133.729, 156.7236
1134.822, 146.5015
1135.916, 112.1351
1137.009, 118.9413
1138.102, 105.8547
1139.195, 92.69006
1140.288, 58.82849
1141.380, 79.06812
1142.473, 77.04333
1143.565, 88.22339
1144.657, 55.54858
1145.749, 10.53687
1146.841, 13.27380
1147.932, 20.21069
1149.024, 26.73254
1150.115, 4.315063
1151.206, 16.96606
1152.297, 11.00024
1153.388, 16.87549
1154.479, 40.60840
1155.569, 20.95154
1156.659, 25.73987
1157.750, 19.19666
1158.839, 28.69373
1159.929, 11.00269
1161.019, 9.402588
1162.108, 25.83643
1163.198, 26.77917
1164.287, 33.56506
1165.376, 41.35022
1166.465, 32.94434
1167.553, 20.22900
1168.642, 32.57959
1169.730, 7.843262
1170.818, 10.90820
1171.906, 16.31616
1172.994, 6.421265
1174.082, 0.7685550
1175.170, 6.939697
1176.257, 37.28125
1177.344, 32.50208
1178.431, 3.636108
1179.518, 11.75293
1180.605, 5.144531
1181.691, 3.064209
1182.778, 5.0050002E-03
1183.864, 4.331177
1184.950, 22.05261
1186.036, 10.05884
1187.122, 7.074097
1188.207, 38.04895
1189.292, 6.805298
1190.378, 34.18347
1191.463, 9.243652
1192.548, 24.15662
1193.632, 23.21411
1194.717, 0.8979490
1195.801, 21.02637
1196.886, 13.88049
1197.970, 19.74451
1199.054, 20.73779
1200.137, 21.42419
1201.221, 21.27869
1202.305, 24.49402
1203.388, 18.47449
1204.471, 15.41675
1205.554, 17.27441
1206.637, 30.76392
1207.719, 29.09583
1208.802, 33.93079
1209.884, 22.22144
1210.966, 13.60449
1212.048, 9.312012
1213.130, 40.00903
1214.212, 5.718872
1215.293, 12.38770
1216.374, 21.53357
1217.456, 29.23901
1218.536, 26.02002
1219.617, 48.83472
1220.698, 79.47021
1221.778, 48.24475
1222.859, 31.08789
1223.939, 13.62915
1225.019, 39.36670
1226.099, 38.06702
1227.178, 8.742798
1228.258, 16.05310
1229.337, 37.38647
1230.417, 18.38232
1231.496, 38.06970
1232.574, 35.68237
1233.653, 26.33350
1234.732, 56.72571
1235.810, 32.36987
1236.888, 38.76367
1237.966, 16.22522
1239.044, 8.854004
1240.122, 85.32800
