##NAMES=Azurite
##RRUFFID=R050497
##IDEAL CHEMISTRY=Cu^2+^_3_(CO_3_)_2_(OH)_2_
##LOCALITY=Tsumeb mine, Tsumeb, Otavi District, Oshikoto, Namibia
##OWNER=RRUFF
##SOURCE=Marcus Origlieri
##DESCRIPTION=Blue prismatic single crystal
##STATUS=The identification of this mineral has been confirmed by X-ray diffraction and chemical analysis
##URL=rruff.info/R050497
##MEASURED CHEMISTRY=Cu_3.00_(CO_3_)_2_(OH)_2_
##PIN_ID=L00764
##ORIENTATION=Laser parallel to c* (0 0 1). Fiducial mark perpendicular to laser is parallel to -a [-1 0 0]
78.65900, 0.0000000E+00
79.89500, 1.035156
81.13100, 15.54724
82.36700, 67.90356
83.60200, 51.77917
84.83700, 40.15869
86.07200, 116.8171
87.30800, 25.14624
88.54200, 96.03137
89.77700, 102.9164
91.01200, 236.0544
92.24600, 289.1853
93.48000, 284.8413
94.71400, 368.3556
95.94800, 321.3682
97.18200, 234.8196
98.41600, 367.6084
99.64900, 284.1306
100.8830, 494.0432
102.1160, 332.2887
103.3490, 452.0369
104.5820, 657.1930
105.8150, 896.6848
107.0470, 1135.457
108.2800, 1199.466
109.5120, 1541.678
110.7440, 1611.067
111.9760, 897.5115
113.2080, 568.7164
114.4400, 630.6748
115.6710, 748.9426
116.9030, 953.0239
118.1340, 782.7124
119.3650, 929.0530
120.5960, 1300.087
121.8270, 2137.849
123.0580, 3791.372
124.2880, 5396.685
125.5190, 5649.813
126.7490, 4042.778
127.9790, 2745.602
129.2090, 2364.300
130.4390, 2125.886
131.6680, 2044.379
132.8980, 2217.787
134.1270, 2667.123
135.3560, 3425.394
136.5850, 3881.610
137.8140, 3654.778
139.0430, 2744.905
140.2710, 2066.997
141.5000, 1550.060
142.7280, 1044.101
143.9560, 860.5286
145.1840, 776.0708
146.4120, 803.1995
147.6390, 859.2318
148.8670, 761.7500
150.0940, 579.9126
151.3210, 523.0006
152.5490, 539.7634
153.7750, 573.9792
155.0020, 403.2513
156.2290, 475.5883
157.4550, 598.9885
158.6810, 693.4661
159.9080, 1136.024
161.1340, 1762.663
162.3590, 2714.385
163.5850, 3622.190
164.8110, 3931.076
166.0360, 3313.044
167.2610, 2558.092
168.4860, 1974.219
169.7110, 1577.423
170.9360, 1393.704
172.1610, 1197.058
173.3850, 1019.483
174.6100, 858.9781
175.8340, 702.5405
177.0580, 612.1691
178.2820, 499.8627
179.5050, 473.6199
180.7290, 326.4392
181.9520, 446.3202
183.1760, 474.2617
184.3990, 605.2627
185.6220, 785.3206
186.8450, 825.4302
188.0670, 853.5869
189.2900, 821.7854
190.5120, 716.0251
191.7340, 660.3066
192.9560, 629.6309
194.1780, 578.9983
195.4000, 557.4094
196.6220, 549.8650
197.8430, 552.3652
199.0640, 553.9102
200.2860, 545.5000
201.5070, 623.1357
202.7270, 721.8174
203.9480, 700.5447
205.1690, 516.3174
206.3890, 157.1365
207.6090, 57.00146
208.8290, 122.0879
210.0490, 37.13159
211.2690, 85.12964
212.4890, 103.0818
213.7080, 102.9883
214.9280, 106.8496
216.1470, 125.8253
217.3660, 98.46777
218.5850, 140.3027
219.8030, 132.1924
221.0220, 96.14429
222.2400, 152.1599
223.4590, 104.2432
224.6770, 80.39111
225.8950, 49.25562
227.1120, 20.34912
228.3300, 65.61841
229.5480, 149.0972
230.7650, 233.6985
231.9820, 165.4731
233.1990, 212.3989
234.4160, 291.9546
235.6330, 352.1311
236.8490, 576.4126
238.0660, 917.7888
239.2820, 1372.250
240.4980, 1978.791
241.7140, 2191.403
242.9300, 1914.082
244.1460, 1476.822
245.3610, 1096.615
246.5770, 923.4565
247.7920, 755.3435
249.0070, 684.2729
250.2220, 718.2427
251.4370, 824.2502
252.6510, 1035.294
253.8660, 1281.374
255.0800, 1745.488
256.2940, 2165.634
257.5080, 2839.813
258.7220, 2873.960
259.9360, 2964.246
261.1490, 2811.485
262.3630, 2343.729
263.5760, 1856.981
264.7890, 1701.241
266.0020, 1690.511
267.2150, 1877.792
268.4270, 2213.087
269.6400, 2617.396
270.8520, 3128.719
272.0640, 3816.058
273.2760, 4403.414
274.4880, 4760.788
275.7000, 4705.181
276.9120, 4479.590
278.1230, 4090.020
279.3340, 3508.468
280.5450, 2905.938
281.7560, 2551.427
282.9670, 2068.939
284.1780, 1791.470
285.3880, 1547.023
286.5980, 1276.596
287.8090, 1099.191
289.0190, 826.8076
290.2290, 671.3774
291.4380, 501.8979
292.6480, 428.3406
293.8570, 348.7002
295.0670, 301.9819
296.2760, 273.1985
297.4850, 201.3359
298.6930, 231.4609
299.9020, 141.6282
301.1110, 114.8347
302.3190, 196.0754
303.5270, 100.3755
304.7350, 79.71948
305.9430, 98.10181
307.1510, 92.53052
308.3580, 104.9924
309.5660, 99.49854
310.7730, 107.0435
311.9800, 197.6260
313.1870, 170.2424
314.3940, 210.9014
315.6010, 214.5916
316.8070, 242.3127
318.0130, 252.0647
319.2200, 380.8586
320.4260, 407.6985
321.6310, 467.5776
322.8370, 481.4929
324.0430, 610.4377
325.2480, 673.4116
326.4540, 666.4148
327.6590, 656.4502
328.8640, 680.5151
330.0680, 600.6147
331.2730, 648.7488
332.4780, 729.9131
333.6820, 642.1045
334.8860, 699.3237
336.0900, 745.5713
337.2940, 754.8459
338.4980, 809.4346
339.7010, 813.4866
340.9050, 883.8494
342.1080, 933.2454
343.3110, 966.6687
344.5140, 987.1235
345.7170, 1084.605
346.9200, 1242.112
348.1220, 1259.645
349.3240, 1465.206
350.5270, 1552.792
351.7290, 1615.408
352.9310, 1855.051
354.1320, 2117.833
355.3340, 2308.142
356.5350, 2582.063
357.7370, 2796.070
358.9380, 3185.142
360.1390, 3499.064
361.3400, 3890.015
362.5400, 4247.516
363.7410, 4782.803
364.9410, 5264.639
366.1410, 6015.468
367.3410, 6901.324
368.5410, 7518.862
369.7410, 8530.729
370.9400, 9420.214
372.1400, 10587.32
373.3390, 11682.46
374.5380, 12860.64
375.7370, 13570.86
376.9360, 14687.10
378.1350, 15270.39
379.3330, 15663.69
380.5310, 16085.04
381.7300, 16409.43
382.9280, 16941.83
384.1260, 17461.27
385.3230, 18746.74
386.5210, 20337.24
387.7180, 23067.77
388.9160, 26934.32
390.1130, 31889.90
391.3100, 37976.50
392.5060, 43387.12
393.7030, 47571.78
394.9000, 48381.46
396.0960, 46611.16
397.2920, 42608.88
398.4880, 37902.62
399.6840, 33298.40
400.8800, 29473.19
402.0750, 26153.00
403.2710, 23020.84
404.4660, 20445.69
405.6610, 18000.57
406.8560, 15822.47
408.0510, 13517.39
409.2450, 11609.33
410.4400, 9959.290
411.6340, 8472.278
412.8280, 7637.286
414.0220, 6603.314
415.2160, 5914.365
416.4100, 5222.434
417.6030, 4637.524
418.7970, 4206.693
419.9900, 3848.823
421.1830, 3479.972
422.3760, 3141.153
423.5690, 2855.342
424.7610, 2626.840
425.9540, 2459.066
427.1460, 2209.313
428.3380, 2044.578
429.5300, 1920.862
430.7220, 1667.165
431.9140, 1542.486
433.1050, 1415.826
434.2970, 1237.195
435.4880, 1086.251
436.6790, 1083.977
437.8700, 883.3245
439.0610, 830.3025
440.2510, 796.8762
441.4420, 727.9116
442.6320, 625.9609
443.8220, 564.4558
445.0120, 493.9880
446.2020, 507.3760
447.3910, 476.1643
448.5810, 453.7324
449.7700, 480.2949
450.9600, 427.8884
452.1490, 430.1379
453.3370, 360.1907
454.5260, 380.9963
455.7150, 348.0781
456.9030, 280.2134
458.0910, 344.9341
459.2800, 303.7217
460.4670, 307.4731
461.6550, 226.9182
462.8430, 215.2271
464.0300, 258.2031
465.2180, 257.4126
466.4050, 240.2363
467.5920, 222.1331
468.7790, 229.9834
469.9650, 178.6409
471.1520, 216.6431
472.3380, 221.0308
473.5250, 200.2825
474.7110, 166.6165
475.8970, 101.5425
477.0820, 151.5002
478.2680, 199.6289
479.4540, 129.6106
480.6390, 94.14502
481.8240, 112.0847
483.0090, 139.0786
484.1940, 129.6328
485.3780, 98.74951
486.5630, 84.04175
487.7470, 120.1025
488.9320, 148.1619
490.1160, 41.24634
491.3000, 109.8003
492.4830, 76.02148
493.6670, 61.10474
494.8500, 61.43018
496.0340, 56.20410
497.2170, 42.08936
498.4000, 21.53589
499.5820, 35.04248
500.7650, 41.26172
501.9480, 35.12280
503.1300, 13.52393
504.3120, 23.84668
505.4940, 25.73584
506.6760, 3.511719
507.8580, 8.618896
509.0390, 52.49707
510.2210, 24.93213
511.4020, 4.589355
512.5830, 54.69263
513.7640, 24.29517
514.9450, 137.9834
516.1250, 96.89648
517.3060, 104.5068
518.4860, 157.8457
519.6660, 143.3091
520.8460, 173.2568
522.0260, 205.2383
523.2060, 238.2737
524.3850, 346.6162
525.5650, 374.5798
526.7440, 414.4128
527.9230, 529.8486
529.1020, 578.2427
530.2810, 688.1416
531.4590, 761.1792
532.6380, 940.4717
533.8160, 972.7490
534.9940, 1036.886
536.1720, 939.7881
537.3500, 924.4053
538.5270, 782.2944
539.7050, 737.1104
540.8820, 610.3408
542.0590, 563.9561
543.2360, 400.1890
544.4130, 387.8054
545.5900, 308.4170
546.7660, 184.1189
547.9430, 238.7275
549.1190, 202.3806
550.2950, 107.0886
551.4710, 95.75098
552.6470, 113.2913
553.8220, 62.23975
554.9980, 63.94824
556.1730, 13.53979
557.3480, 67.12817
558.5230, 20.71338
559.6980, 2.704834
560.8730, 17.36816
562.0470, 6.070190
563.2220, 1.014282
564.3960, 45.57874
565.5700, 9.861084
566.7440, 28.69104
567.9170, 23.23828
569.0910, 35.78088
570.2640, 26.31836
571.4380, 29.85095
572.6110, 37.37805
573.7840, 30.89990
574.9570, 1.416016
576.1290, 31.07422
577.3020, 41.58618
578.4740, 50.88623
579.6460, 59.94507
580.8180, 36.30664
581.9900, 58.94214
583.1620, 25.61597
584.3330, 15.31140
585.5040, 8.976563
586.6760, 92.74255
587.8470, 34.51965
589.0180, 13.32446
590.1880, 45.14673
591.3590, 6.996948
592.5290, 37.86780
593.7000, 18.76355
594.8700, 13.68079
596.0400, 0.6175540
597.2090, 33.56726
598.3790, 37.45264
599.5490, 9.463745
600.7180, 40.46521
601.8870, 35.54114
603.0560, 48.58044
604.2250, 26.65637
605.3940, 13.76111
606.5620, 29.11157
607.7300, 14.97485
608.8990, 21.82776
610.0670, 2.329224
611.2350, 13.49585
612.4020, 12.69055
613.5700, 9.900879
614.7370, 5.866089
615.9050, 28.61816
617.0720, 26.07776
618.2390, 15.09070
619.4060, 27.80896
620.5720, 5.516357
621.7390, 0.7927250
622.9050, 45.87793
624.0710, 9.462158
625.2370, 24.17273
626.4030, 4.204834
627.5690, 33.39453
628.7340, 35.98230
629.9000, 34.55847
631.0650, 12.12292
632.2300, 26.67102
633.3950, 2.205933
634.5600, 23.71960
635.7240, 23.78101
636.8890, 2.683105
638.0530, 53.12549
639.2170, 22.55554
640.3810, 55.97034
641.5450, 24.37256
642.7080, 20.75903
643.8720, 77.12878
645.0350, 17.48535
646.1980, 24.82361
647.3610, 3.897095
648.5240, 20.39587
649.6870, 8.670532
650.8490, 11.07751
652.0120, 20.14124
653.1740, 51.34058
654.3360, 44.52515
655.4980, 13.30603
656.6600, 8.172119
657.8210, 15.92896
658.9830, 13.00867
660.1440, 32.06580
661.3050, 28.89526
662.4660, 29.09973
663.6270, 18.07581
664.7870, 11.96948
665.9480, 41.94958
667.1080, 3.148315
668.2680, 17.98853
669.4280, 39.57141
670.5880, 32.40271
671.7480, 22.21521
672.9070, 23.00647
674.0670, 28.77686
675.2260, 41.52747
676.3850, 107.2603
677.5440, 42.97791
678.7030, 48.67798
679.8610, 26.36108
681.0200, 103.0237
682.1780, 26.67102
683.3360, 71.29773
684.4940, 105.9092
685.6520, 60.50537
686.8090, 92.08557
687.9670, 66.65063
689.1240, 60.19983
690.2810, 65.73315
691.4380, 17.25049
692.5950, 41.74438
693.7520, 60.21985
694.9080, 79.67932
696.0650, 128.1234
697.2210, 121.5525
698.3770, 134.1523
699.5330, 130.3065
700.6880, 107.6903
701.8440, 112.1869
702.9990, 121.4009
704.1550, 100.7394
705.3100, 105.7723
706.4650, 106.0808
707.6190, 124.3743
708.7740, 124.6527
709.9290, 144.1833
711.0830, 163.1652
712.2370, 188.3990
713.3910, 217.6180
714.5450, 253.8116
715.6980, 286.3218
716.8520, 311.3928
718.0050, 341.4106
719.1580, 362.0215
720.3110, 431.0425
721.4640, 462.6078
722.6170, 461.1664
723.7700, 550.2852
724.9220, 591.3727
726.0740, 743.6096
727.2260, 774.4514
728.3780, 995.5210
729.5300, 1094.601
730.6810, 1321.624
731.8330, 1489.071
732.9840, 1491.670
734.1350, 1645.530
735.2860, 1668.118
736.4370, 1661.659
737.5880, 1580.620
738.7380, 1525.516
739.8880, 1524.662
741.0390, 1496.912
742.1890, 1578.091
743.3380, 1510.858
744.4880, 1563.355
745.6380, 1641.245
746.7870, 1797.069
747.9360, 1999.943
749.0850, 2185.013
750.2340, 2450.741
751.3830, 2808.085
752.5310, 3035.571
753.6800, 3531.976
754.8280, 3932.792
755.9760, 4314.582
757.1240, 4555.206
758.2720, 4770.977
759.4190, 4859.198
760.5670, 4720.016
761.7140, 4562.779
762.8610, 4085.984
764.0080, 3701.627
765.1550, 3309.096
766.3020, 2888.797
767.4480, 2543.500
768.5950, 2242.159
769.7410, 1992.389
770.8870, 1733.932
772.0330, 1534.613
773.1780, 1348.052
774.3240, 1185.043
775.4690, 1023.662
776.6140, 949.3124
777.7590, 725.6335
778.9040, 698.2678
780.0490, 544.5820
781.1940, 555.7877
782.3380, 567.3988
783.4820, 439.4666
784.6260, 440.7035
785.7700, 401.6704
786.9140, 323.7562
788.0580, 317.3972
789.2010, 280.8395
790.3450, 261.8531
791.4880, 301.3782
792.6310, 194.8159
793.7730, 165.0271
794.9160, 205.5393
796.0590, 226.3208
797.2010, 224.9757
798.3430, 196.1440
799.4850, 136.2765
800.6270, 190.3524
801.7690, 236.1187
802.9100, 174.2610
804.0520, 203.5315
805.1930, 184.1958
806.3340, 161.8998
807.4750, 230.0951
808.6160, 310.1489
809.7560, 372.9451
810.8970, 459.7522
812.0370, 569.6965
813.1770, 587.8728
814.3170, 609.3301
815.4570, 610.5122
816.5960, 594.7635
817.7360, 550.5967
818.8750, 585.5620
820.0140, 596.8640
821.1530, 652.2992
822.2920, 665.7351
823.4310, 734.0764
824.5690, 796.5073
825.7070, 880.8892
826.8460, 1014.212
827.9840, 1180.576
829.1220, 1282.057
830.2590, 1572.126
831.3970, 1767.431
832.5340, 2020.847
833.6710, 2179.262
834.8080, 2306.676
835.9450, 2368.087
837.0820, 2358.498
838.2190, 2210.908
839.3550, 2094.317
840.4910, 1892.724
841.6270, 1506.132
842.7630, 1405.539
843.8990, 1240.947
845.0350, 993.3530
846.1700, 857.7590
847.3060, 721.1648
848.4410, 588.5699
849.5760, 448.9746
850.7100, 414.3792
851.8450, 368.7842
852.9800, 262.0206
854.1140, 294.4438
855.2480, 203.8802
856.3820, 154.4319
857.5160, 161.8942
858.6500, 124.5854
859.7830, 154.0718
860.9170, 71.56323
862.0500, 135.0553
863.1830, 111.5734
864.3160, 81.58948
865.4480, 42.12402
866.5810, 20.67285
867.7130, 33.90662
868.8460, 24.46887
869.9780, 9.249268
871.1100, 63.82593
872.2410, 74.91931
873.3730, 65.51160
874.5050, 16.10535
875.6360, 12.72375
876.7670, 14.87109
877.8980, 29.52075
879.0290, 3.808960
880.1590, 94.16553
881.2900, 27.79480
882.4200, 47.51599
883.5500, 54.16357
884.6800, 9.822021
885.8100, 52.47717
886.9400, 49.13501
888.0690, 40.42261
889.1990, 34.09741
890.3280, 30.03186
891.4570, 25.54102
892.5860, 40.66162
893.7140, 29.34814
894.8430, 78.03711
895.9710, 105.7310
897.1000, 23.43176
898.2280, 69.13489
899.3560, 1.847290
900.4830, 40.56274
901.6110, 57.28662
902.7380, 57.01550
903.8660, 72.36987
904.9930, 77.83032
906.1200, 80.22302
907.2460, 89.96912
908.3730, 104.7228
909.5000, 110.4944
910.6260, 106.0668
911.7520, 118.0330
912.8780, 83.81616
914.0040, 88.60388
915.1290, 67.39465
916.2550, 102.1901
917.3800, 68.99463
918.5050, 82.80225
919.6300, 125.6165
920.7550, 120.4355
921.8800, 152.2656
923.0040, 202.1013
924.1290, 213.9446
925.2530, 212.8008
926.3770, 220.6631
927.5010, 243.5291
928.6250, 246.3997
929.7480, 268.7522
930.8720, 308.4424
931.9950, 305.0881
933.1180, 398.0044
934.2410, 414.9261
935.3640, 456.8663
936.4860, 322.8125
937.6090, 373.7659
938.7310, 339.7335
939.8530, 242.7063
940.9750, 304.6912
942.0970, 234.6844
943.2180, 199.6930
944.3400, 196.7074
945.4610, 147.7289
946.5820, 175.7598
947.7030, 112.7972
948.8240, 146.8406
949.9450, 85.88794
951.0650, 119.9407
952.1860, 70.99988
953.3060, 106.0725
954.4260, 83.14929
955.5460, 70.23315
956.6650, 103.3215
957.7850, 45.41431
958.9040, 98.51965
960.0230, 48.64148
961.1420, 49.77026
962.2610, 69.90381
963.3800, 40.04211
964.4990, 3.188843
965.6170, 24.34338
966.7350, 60.50269
967.8530, 25.66711
968.9710, 14.83557
970.0890, 94.00867
971.2070, 27.18616
972.3240, 89.36780
973.4410, 100.5576
974.5580, 80.75342
975.6750, 17.95630
976.7920, 20.16382
977.9090, 10.37585
979.0250, 75.59241
980.1410, 97.81372
981.2580, 88.03943
982.3740, 35.26929
983.4890, 55.50403
984.6050, 37.74304
985.7200, 72.98621
986.8360, 41.76624
987.9510, 92.46948
989.0660, 75.70898
990.1810, 4.042969
991.2950, 55.20789
992.4100, 7.536499
993.5240, 25.72070
994.6390, 17.98193
995.7530, 36.24707
996.8660, 47.51575
997.9800, 14.20715
999.0940, 36.06897
1000.207, 19.34937
1001.320, 18.36682
1002.433, 28.91406
1003.546, 6.801636
1004.659, 32.48376
1005.772, 14.22742
1006.884, 68.05957
1007.996, 26.34985
1009.108, 15.35681
1010.220, 31.72791
1011.332, 35.02246
1012.444, 12.46997
1013.555, 37.86731
1014.666, 23.83350
1015.777, 25.53979
1016.888, 24.13879
1017.999, 0.4312740
1019.110, 49.72363
1020.220, 10.01855
1021.331, 15.68384
1022.441, 25.61096
1023.551, 7.091919
1024.661, 18.76953
1025.770, 12.47632
1026.880, 11.81482
1027.989, 51.10840
1029.098, 9.404419
1030.207, 9.702881
1031.316, 22.00378
1032.425, 75.30725
1033.533, 28.61328
1034.642, 60.92163
1035.750, 39.70020
1036.858, 32.01294
1037.966, 51.58691
1039.073, 69.90405
1040.181, 70.65051
1041.288, 76.97168
1042.396, 49.30225
1043.503, 64.63562
1044.610, 1.970825
1045.716, 63.30835
1046.823, 88.64746
1047.929, 105.9884
1049.036, 73.33105
1050.142, 21.56104
1051.248, 98.90955
1052.353, 56.36914
1053.459, 117.7596
1054.564, 111.1134
1055.670, 109.4686
1056.775, 139.8256
1057.880, 130.1841
1058.985, 135.6196
1060.089, 131.9049
1061.194, 144.3729
1062.298, 137.7366
1063.402, 168.1018
1064.506, 131.0146
1065.610, 201.7330
1066.713, 125.1650
1067.817, 188.5339
1068.920, 284.9561
1070.023, 282.3262
1071.126, 295.7385
1072.229, 282.1560
1073.332, 265.5280
1074.435, 344.1165
1075.537, 345.7965
1076.639, 373.1929
1077.741, 423.5664
1078.843, 482.4729
1079.945, 541.9346
1081.046, 540.3884
1082.148, 734.7627
1083.249, 871.1487
1084.350, 1028.824
1085.451, 1348.732
1086.551, 1656.112
1087.652, 2169.514
1088.752, 2821.973
1089.853, 3776.421
1090.953, 4799.625
1092.053, 5626.896
1093.152, 5797.839
1094.252, 5404.217
1095.351, 4727.619
1096.451, 3746.994
1097.550, 2895.822
1098.649, 2340.195
1099.748, 1829.720
1100.846, 1354.092
1101.945, 1124.552
1103.043, 866.9221
1104.141, 755.2915
1105.239, 621.5547
1106.337, 558.2646
1107.434, 515.2871
1108.532, 373.6989
1109.629, 339.1477
1110.726, 305.5833
1111.823, 211.0542
1112.920, 216.4637
1114.017, 222.8195
1115.113, 233.2778
1116.210, 199.6726
1117.306, 184.0227
1118.402, 184.4287
1119.498, 140.9510
1120.593, 119.2953
1121.689, 125.5808
1122.784, 142.8472
1123.879, 126.3700
1124.974, 156.4932
1126.069, 131.8813
1127.164, 130.2017
1128.259, 84.57690
1129.353, 100.9868
1130.447, 84.82434
1131.541, 49.31580
1132.635, 52.63574
1133.729, 59.26929
1134.822, 76.58423
1135.916, 42.68652
1137.009, 31.99646
1138.102, 34.29419
1139.195, 54.09631
1140.288, 42.39880
1141.380, 33.13062
1142.473, 58.46729
1143.565, 20.76318
1144.657, 11.37476
1145.749, 68.91003
1146.841, 25.32104
1147.932, 1.477051
1149.024, 13.79846
1150.115, 59.08032
1151.206, 66.34827
1152.297, 88.61340
1153.388, 55.27197
1154.479, 70.42078
1155.569, 9.600098
1156.659, 65.14050
1157.750, 28.90466
1158.839, 19.15308
1159.929, 61.39905
1161.019, 25.64209
1162.108, 22.88245
1163.198, 51.18201
1164.287, 18.49438
1165.376, 22.72607
1166.465, 3.011108
1167.553, 62.21033
1168.642, 0.4285890
1169.730, 58.64148
1170.818, 2.148926
1171.906, 45.08545
1172.994, 74.00037
1174.082, 63.38989
1175.170, 61.58301
1176.257, 41.92004
1177.344, 54.10657
1178.431, 97.30847
1179.518, 39.48840
1180.605, 8.308472
1181.691, 82.40283
1182.778, 5.564697
1183.864, 14.72217
1184.950, 60.06384
1186.036, 35.21411
1187.122, 40.43018
1188.207, 59.69080
1189.292, 46.83289
1190.378, 46.01550
1191.463, 6.209229
1192.548, 31.38403
1193.632, 38.60352
1194.717, 2.270630
1195.801, 0.8790280
1196.886, 11.98413
1197.970, 78.11462
1199.054, 15.21179
1200.137, 65.30469
1201.221, 18.39380
1202.305, 17.47900
1203.388, 34.65186
1204.471, 3.810669
1205.554, 30.06323
1206.637, 23.98425
1207.719, 49.07605
1208.802, 1.754028
1209.884, 9.276489
1210.966, 11.30237
1212.048, 72.40393
1213.130, 31.18518
1214.212, 3.198486
1215.293, 16.79517
1216.374, 41.28125
1217.456, 28.26624
1218.536, 14.32288
1219.617, 17.35229
1220.698, 21.57397
1221.778, 38.54187
1222.859, 1.526245
1223.939, 80.39539
1225.019, 28.30469
1226.099, 39.20972
1227.178, 0.1601560
1228.258, 41.05518
1229.337, 7.015747
1230.417, 58.99976
1231.496, 14.10779
1232.574, 76.99084
1233.653, 75.03015
1234.732, 7.032471
1235.810, 1.831177
1236.888, 3.311768
1237.966, 24.63977
1239.044, 15.48401
1240.122, 18.40930
1241.199, 10.24756
1242.277, 24.08154
1243.354, 36.91113
1244.431, 11.73682
1245.508, 26.55786
1246.585, 42.38135
1247.661, 23.19385
1248.738, 61.00195
1249.814, 44.81409
1250.890, 8.377808
1251.966, 31.41772
1253.042, 5.209473
1254.117, 41.99536
1255.193, 24.77832
1256.268, 29.55676
1257.343, 44.33081
1258.418, 10.89917
1259.493, 38.85718
1260.567, 5.611816
1261.642, 41.36096
