##NAMES=Azurite
##RRUFFID=R050638
##IDEAL CHEMISTRY=Cu^2+^_3_(CO_3_)_2_(OH)_2_
##LOCALITY=Zacatecas, Mexico
##OWNER=RRUFF
##SOURCE=University of Arizona Mineral Museum
##DESCRIPTION=Blue bladed crystals
##STATUS=The identification of this mineral has been confirmed by X-ray diffraction and chemical analysis
##URL=rruff.info/R050638
##MEASURED CHEMISTRY=Cu_3.00_(CO_3_)_2_(OH)_2_
##PIN_ID=M00496
##ORIENTATION=Laser parallel to -b* (0 -1 0). Fiducial mark perpendicular to laser is parallel to -c [0 0 -1]
52.67100, 0.0000000E+00
53.91000, 36.88159
55.14900, 107.2250
56.38700, 51.12799
57.62600, 61.68909
58.86400, 93.18628
60.10300, 57.28998
61.34100, 2.200500
62.57900, 8.139587
63.81700, 20.04169
65.05400, 36.82336
66.29200, 5.785583
67.52900, 77.79993
68.76700, 248.6959
70.00400, 608.7262
71.24100, 1089.749
72.47700, 1251.618
73.71400, 1428.182
74.95100, 1879.300
76.18700, 2791.840
77.42300, 3815.690
78.65900, 5491.747
79.89500, 8798.923
81.13100, 14862.14
82.36700, 26586.33
83.60200, 38730.43
84.83700, 36076.44
86.07200, 22549.42
87.30800, 12593.37
88.54200, 7844.185
89.77700, 5425.808
91.01200, 4153.163
92.24600, 3744.173
93.48000, 3143.777
94.71400, 2464.923
95.94800, 2365.574
97.18200, 2110.696
98.41600, 1775.264
99.64900, 1826.252
100.8830, 1871.641
102.1160, 1710.414
103.3490, 1619.556
104.5820, 1582.051
105.8150, 1683.888
107.0470, 2113.056
108.2800, 2746.544
109.5120, 3661.344
110.7440, 3919.445
111.9760, 3054.841
113.2080, 2524.523
114.4400, 2184.510
115.6710, 2186.256
116.9030, 2163.197
118.1340, 1933.338
119.3650, 1747.163
120.5960, 1649.120
121.8270, 1549.178
123.0580, 1855.340
124.2880, 2277.607
125.5190, 2339.985
126.7490, 2508.434
127.9790, 3484.829
129.2090, 5377.162
130.4390, 9430.439
131.6680, 9290.387
132.8980, 14959.86
134.1270, 11187.06
135.3560, 9812.292
136.5850, 11615.57
137.8140, 17528.90
139.0430, 25501.29
140.2710, 26272.76
141.5000, 18364.31
142.7280, 11402.94
143.9560, 7732.666
145.1840, 5385.482
146.4120, 3983.396
147.6390, 3467.411
148.8670, 3321.528
150.0940, 3685.751
151.3210, 4974.081
152.5490, 7692.519
153.7750, 10846.07
155.0020, 11211.73
156.2290, 8022.499
157.4550, 4903.382
158.6810, 3167.381
159.9080, 2158.491
161.1340, 1796.714
162.3590, 1521.051
163.5850, 1680.500
164.8110, 1792.019
166.0360, 2247.263
167.2610, 2882.516
168.4860, 3761.411
169.7110, 5186.417
170.9360, 6598.531
172.1610, 6917.758
173.3850, 6364.095
174.6100, 6439.542
175.8340, 8043.847
177.0580, 11959.15
178.2820, 18312.71
179.5050, 20753.52
180.7290, 16656.60
181.9520, 10471.72
183.1760, 6682.371
184.3990, 4561.880
185.6220, 3432.878
186.8450, 2897.028
188.0670, 2646.299
189.2900, 2523.691
190.5120, 2599.198
191.7340, 2743.819
192.9560, 2795.547
194.1780, 2803.384
195.4000, 2697.328
196.6220, 2544.381
197.8430, 2383.541
199.0640, 2236.809
200.2860, 2203.122
201.5070, 2230.207
202.7270, 2245.095
203.9480, 1978.833
205.1690, 1414.233
206.3890, 642.1890
207.6090, 300.4788
208.8290, 243.0420
210.0490, 201.1860
211.2690, 264.6030
212.4890, 208.9648
213.7080, 244.6418
214.9280, 203.6077
216.1470, 192.7952
217.3660, 149.1943
218.5850, 112.7957
219.8030, 129.5903
221.0220, 115.5703
222.2400, 164.7285
223.4590, 138.0586
224.6770, 218.5540
225.8950, 288.2092
227.1120, 320.0193
228.3300, 445.9795
229.5480, 621.0850
230.7650, 879.3320
231.9820, 1180.716
233.1990, 1683.233
234.4160, 2475.879
235.6330, 3633.650
236.8490, 4714.541
238.0660, 4779.550
239.2820, 4467.673
240.4980, 4086.910
241.7140, 4169.255
242.9300, 5253.709
244.1460, 7238.269
245.3610, 11064.93
246.5770, 16872.70
247.7920, 21424.56
249.0070, 19438.53
250.2220, 13098.59
251.4370, 7914.745
252.6510, 4823.997
253.8660, 3224.341
255.0800, 2099.777
256.2940, 1637.302
257.5080, 1348.917
258.7220, 1509.620
259.9360, 2095.409
261.1490, 2630.284
262.3630, 2674.240
263.5760, 3081.272
264.7890, 3515.376
266.0020, 3164.550
267.2150, 2651.790
268.4270, 1964.097
269.6400, 1501.472
270.8520, 1236.914
272.0640, 1250.421
273.2760, 1308.996
274.4880, 1605.636
275.7000, 2077.344
276.9120, 2597.120
278.1230, 3171.963
279.3340, 3896.874
280.5450, 4236.854
281.7560, 4243.903
282.9670, 3910.018
284.1780, 3330.203
285.3880, 2740.456
286.5980, 2199.777
287.8090, 1721.165
289.0190, 1408.621
290.2290, 1071.144
291.4380, 848.7324
292.6480, 533.3884
293.8570, 380.1104
295.0670, 227.8982
296.2760, 46.75098
297.4850, 39.33105
298.6930, 91.35693
299.9020, 162.3354
301.1110, 216.2803
302.3190, 197.1934
303.5270, 191.0801
304.7350, 284.9397
305.9430, 245.7761
307.1510, 312.5945
308.3580, 259.4028
309.5660, 252.1882
310.7730, 274.9429
311.9800, 250.6777
313.1870, 150.3862
314.3940, 144.0398
315.6010, 33.64795
316.8070, 25.19458
318.0130, 63.33276
319.2200, 172.9297
320.4260, 333.5918
321.6310, 550.5969
322.8370, 780.0596
324.0430, 1144.786
325.2480, 1503.490
326.4540, 1983.148
327.6590, 2491.768
328.8640, 3103.344
330.0680, 3726.922
331.2730, 3994.558
332.4780, 4106.257
333.6820, 3744.039
334.8860, 3218.892
336.0900, 2676.820
337.2940, 2161.823
338.4980, 1811.898
339.7010, 1521.048
340.9050, 1332.260
342.1080, 1145.551
343.3110, 1081.916
344.5140, 993.3586
345.7170, 953.8789
346.9200, 885.4810
348.1220, 1024.175
349.3240, 1058.950
350.5270, 1067.815
351.7290, 1086.763
352.9310, 1178.805
354.1320, 1318.939
355.3340, 1481.152
356.5350, 1707.452
357.7370, 1893.837
358.9380, 2182.304
360.1390, 2558.844
361.3400, 2772.458
362.5400, 3239.145
363.7410, 3545.907
364.9410, 3988.742
366.1410, 4215.646
367.3410, 4520.620
368.5410, 4886.670
369.7410, 5161.787
370.9400, 5737.968
372.1400, 6020.226
373.3390, 6718.542
374.5380, 7221.933
375.7370, 8066.387
376.9360, 8917.904
378.1350, 9754.488
379.3330, 10634.13
380.5310, 11513.85
381.7300, 12385.63
382.9280, 13286.47
384.1260, 13729.37
385.3230, 14300.33
386.5210, 15091.35
387.7180, 15822.42
388.9160, 16860.55
390.1130, 18506.74
391.3100, 20812.98
392.5060, 23566.27
393.7030, 27595.62
394.9000, 32752.02
396.0960, 39196.46
397.2920, 46821.97
398.4880, 53876.52
399.6840, 58643.11
400.8800, 58505.75
402.0750, 53699.46
403.2710, 46247.19
404.4660, 38187.99
405.6610, 31686.81
406.8560, 26100.68
408.0510, 22268.60
409.2450, 18941.57
410.4400, 16437.57
411.6340, 14775.63
412.8280, 13370.72
414.0220, 12281.85
415.2160, 11474.03
416.4100, 10695.24
417.6030, 9923.490
418.7970, 8950.784
419.9900, 7915.119
421.1830, 7223.489
422.3760, 6457.898
423.5690, 5731.345
424.7610, 5195.830
425.9540, 4484.349
427.1460, 4143.908
428.3380, 3753.501
429.5300, 3303.129
430.7220, 3044.793
431.9140, 2586.492
433.1050, 2474.226
434.2970, 2161.993
435.4880, 1926.794
436.6790, 1770.628
437.8700, 1490.495
439.0610, 1410.394
440.2510, 1226.325
441.4420, 947.8169
442.6320, 1001.366
443.8220, 855.9343
445.0120, 758.7522
446.2020, 687.7190
447.3910, 596.0208
448.5810, 538.7034
449.7700, 473.8896
450.9600, 432.7964
452.1490, 378.3711
453.3370, 343.5183
454.5260, 329.9746
455.7150, 283.7207
456.9030, 286.3169
458.0910, 308.8647
459.2800, 350.1199
460.4670, 340.5288
461.6550, 273.5583
462.8430, 322.5676
464.0300, 310.0034
465.2180, 226.2566
466.4050, 264.0513
467.5920, 338.0332
468.7790, 246.1335
469.9650, 228.7273
471.1520, 307.6328
472.3380, 256.2588
473.5250, 275.3030
474.7110, 256.0439
475.8970, 233.9448
477.0820, 223.1375
478.2680, 201.2642
479.4540, 200.3862
480.6390, 166.5637
481.8240, 175.5630
483.0090, 167.5059
484.1940, 169.6902
485.3780, 184.4597
486.5630, 182.6902
487.7470, 208.1343
488.9320, 226.3728
490.1160, 230.5645
491.3000, 208.2488
492.4830, 177.6301
493.6670, 179.7505
494.8500, 142.1514
496.0340, 163.2119
497.2170, 178.8711
498.4000, 201.5771
499.5820, 183.7026
500.7650, 132.8147
501.9480, 164.0894
503.1300, 171.0581
504.3120, 149.3901
505.4940, 299.2681
506.6760, 107.5232
507.8580, 134.7288
509.0390, 209.8955
510.2210, 106.2585
511.4020, 121.0791
512.5830, 110.3369
513.7640, 122.0210
514.9450, 86.16846
516.1250, 184.5532
517.3060, 160.3623
518.4860, 216.5088
519.6660, 221.6357
520.8460, 176.1003
522.0260, 244.8113
523.2060, 268.1401
524.3850, 344.5747
525.5650, 384.3425
526.7440, 463.2971
527.9230, 609.7257
529.1020, 706.4596
530.2810, 911.3040
531.4590, 1112.627
532.6380, 1324.282
533.8160, 1611.723
534.9940, 1866.860
536.1720, 2170.289
537.3500, 2550.165
538.5270, 2870.943
539.7050, 3083.697
540.8820, 3149.820
542.0590, 3064.236
543.2360, 2846.172
544.4130, 2533.733
545.5900, 2202.028
546.7660, 1852.437
547.9430, 1594.196
549.1190, 1371.933
550.2950, 1158.724
551.4710, 1044.139
552.6470, 914.2361
553.8220, 818.3115
554.9980, 721.3752
556.1730, 630.4272
557.3480, 537.6465
558.5230, 496.6797
559.6980, 415.7133
560.8730, 432.0428
562.0470, 401.0299
563.2220, 391.0032
564.3960, 351.9620
565.5700, 412.9062
566.7440, 364.9015
567.9170, 333.8264
569.0910, 335.6479
570.2640, 239.5305
571.4380, 249.3969
572.6110, 218.2467
573.7840, 190.0797
574.9570, 217.8955
576.1290, 162.6937
577.3020, 141.4744
578.4740, 125.2368
579.6460, 89.98108
580.8180, 94.70667
581.9900, 53.41321
583.1620, 25.10901
584.3330, 49.80212
585.5040, 19.49463
586.6760, 32.21155
587.8470, 19.93408
589.0180, 45.32959
590.1880, 6.409302
591.3590, 19.83240
592.5290, 28.05396
593.7000, 54.27112
594.8700, 31.49890
596.0400, 38.72156
597.2090, 74.94836
598.3790, 35.21814
599.5490, 21.51196
600.7180, 67.84277
601.8870, 24.23669
603.0560, 5.678589
604.2250, 45.16016
605.3940, 24.70190
606.5620, 48.29395
607.7300, 65.94946
608.8990, 50.67798
610.0670, 25.47229
611.2350, 13.31982
612.4020, 10.78503
613.5700, 29.14575
614.7370, 11.86670
615.9050, 57.15698
617.0720, 12.25366
618.2390, 38.40027
619.4060, 28.61084
620.5720, 24.88098
621.7390, 37.00635
622.9050, 16.39758
624.0710, 54.03406
625.2370, 31.54041
626.4030, 52.11023
627.5690, 44.24512
628.7340, 15.56702
629.9000, 18.15210
631.0650, 39.07080
632.2300, 3.742310
633.3950, 25.39307
634.5600, 34.51111
635.7240, 12.48364
636.8890, 50.48657
638.0530, 5.578857
639.2170, 4.301636
640.3810, 10.86743
641.5450, 29.90588
642.7080, 9.638062
643.8720, 30.32263
645.0350, 5.034424
646.1980, 5.552734
647.3610, 39.08923
648.5240, 8.585205
649.6870, 10.96826
650.8490, 19.41821
652.0120, 41.75854
653.1740, 14.94214
654.3360, 49.29443
655.4980, 9.509277
656.6600, 23.62683
657.8210, 13.71680
658.9830, 14.75745
660.1440, 6.749146
661.3050, 2.544189
662.4660, 10.57251
663.6270, 8.594238
664.7870, 29.17798
665.9480, 22.90430
667.1080, 44.58289
668.2680, 85.21863
669.4280, 27.81714
670.5880, 33.36890
671.7480, 51.87512
672.9070, 48.33899
674.0670, 62.21875
675.2260, 47.13977
676.3850, 78.47656
677.5440, 85.77454
678.7030, 88.03479
679.8610, 64.25732
681.0200, 116.4390
682.1780, 75.58582
683.3360, 103.6931
684.4940, 130.7642
685.6520, 116.8013
686.8090, 87.80334
687.9670, 77.76733
689.1240, 97.21619
690.2810, 114.5796
691.4380, 152.4318
692.5950, 157.2512
693.7520, 183.0383
694.9080, 182.7932
696.0650, 134.5160
697.2210, 158.2046
698.3770, 155.8611
699.5330, 118.4852
700.6880, 209.0743
701.8440, 200.6313
702.9990, 172.1565
704.1550, 217.6497
705.3100, 203.1111
706.4650, 262.5408
707.6190, 210.9387
708.7740, 169.3053
709.9290, 241.6401
711.0830, 238.9434
712.2370, 253.2153
713.3910, 276.4557
714.5450, 276.6649
715.6980, 290.8430
716.8520, 302.9899
718.0050, 350.1058
719.1580, 356.1935
720.3110, 399.2513
721.4640, 358.2786
722.6170, 406.2749
723.7700, 439.2406
724.9220, 511.4443
726.0740, 562.3484
727.2260, 562.1713
728.3780, 624.6660
729.5300, 707.0831
730.6810, 817.9359
731.8330, 867.2367
732.9840, 974.9355
734.1350, 1094.898
735.2860, 1259.372
736.4370, 1367.598
737.5880, 1537.146
738.7380, 1790.431
739.8880, 1764.843
741.0390, 1892.831
742.1890, 1999.839
743.3380, 2002.424
744.4880, 2053.191
745.6380, 2044.420
746.7870, 2060.472
747.9360, 1987.402
749.0850, 1942.838
750.2340, 1964.962
751.3830, 1980.363
752.5310, 2103.346
753.6800, 2143.672
754.8280, 2262.753
755.9760, 2604.585
757.1240, 2788.710
758.2720, 3039.383
759.4190, 3379.226
760.5670, 3633.244
761.7140, 3797.317
762.8610, 3993.153
764.0080, 4038.342
765.1550, 3984.184
766.3020, 3740.749
767.4480, 3319.515
768.5950, 2984.325
769.7410, 2711.636
770.8870, 2452.246
772.0330, 2106.112
773.1780, 1853.690
774.3240, 1592.604
775.4690, 1447.911
776.6140, 1323.166
777.7590, 1149.993
778.9040, 1109.827
780.0490, 1017.490
781.1940, 916.4504
782.3380, 821.0397
783.4820, 779.0743
784.6260, 799.7231
785.7700, 782.4121
786.9140, 713.1307
788.0580, 726.6428
789.2010, 701.6881
790.3450, 645.2856
791.4880, 691.4463
792.6310, 636.1329
793.7730, 675.5715
794.9160, 665.5743
796.0590, 683.2288
797.2010, 701.8906
798.3430, 656.2031
799.4850, 740.2576
800.6270, 718.6816
801.7690, 742.9873
802.9100, 791.9473
804.0520, 838.7078
805.1930, 893.9807
806.3340, 909.9353
807.4750, 1019.766
808.6160, 1026.715
809.7560, 1210.050
810.8970, 1242.290
812.0370, 1320.773
813.1770, 1515.948
814.3170, 1721.664
815.4570, 1898.462
816.5960, 1992.269
817.7360, 2239.694
818.8750, 2400.810
820.0140, 2598.389
821.1530, 2994.328
822.2920, 3207.519
823.4310, 3605.579
824.5690, 4168.273
825.7070, 4735.817
826.8460, 5594.603
827.9840, 7055.592
829.1220, 7448.000
830.2590, 8470.181
831.3970, 8495.473
832.5340, 8538.757
833.6710, 8456.858
834.8080, 8067.128
835.9450, 7646.382
837.0820, 7067.320
838.2190, 6588.585
839.3550, 5939.845
840.4910, 5333.102
841.6270, 4640.355
842.7630, 4160.605
843.8990, 3685.852
845.0350, 3255.097
846.1700, 2887.339
847.3060, 2511.834
848.4410, 2142.815
849.5760, 1897.050
850.7100, 1613.283
851.8450, 1408.935
852.9800, 1289.745
854.1140, 1066.974
855.2480, 976.7800
856.3820, 908.2035
857.5160, 844.4294
858.6500, 751.6555
859.7830, 690.1055
860.9170, 615.8413
862.0500, 557.3398
863.1830, 483.6931
864.3160, 433.9281
865.4480, 386.1943
866.5810, 329.4492
867.7130, 323.7146
868.8460, 268.8374
869.9780, 301.4882
871.1100, 264.9823
872.2410, 277.1235
873.3730, 187.9316
874.5050, 219.2961
875.6360, 180.7682
876.7670, 212.8707
877.8980, 142.5471
879.0290, 167.1252
880.1590, 167.6270
881.2900, 173.9236
882.4200, 123.5916
883.5500, 144.1101
884.6800, 152.6516
885.8100, 111.2097
886.9400, 147.7817
888.0690, 119.3618
889.1990, 142.9606
890.3280, 145.5677
891.4570, 81.46814
892.5860, 123.5525
893.7140, 99.22412
894.8430, 152.9156
895.9710, 124.8036
897.1000, 119.5377
898.2280, 165.0867
899.3560, 99.86096
900.4830, 101.6573
901.6110, 129.4818
902.7380, 73.31335
903.8660, 94.16345
904.9930, 94.03857
906.1200, 77.92200
907.2460, 81.82190
908.3730, 117.7322
909.5000, 89.66748
910.6260, 104.6223
911.7520, 99.58569
912.8780, 77.56726
914.0040, 82.56433
915.1290, 129.5828
916.2550, 140.6132
917.3800, 144.6583
918.5050, 89.71790
919.6300, 82.79651
920.7550, 110.8917
921.8800, 127.9984
923.0040, 144.8495
924.1290, 192.2717
925.2530, 189.4335
926.3770, 225.6074
927.5010, 245.8042
928.6250, 302.0122
929.7480, 326.2422
930.8720, 344.4872
931.9950, 347.7482
933.1180, 422.0291
934.2410, 501.3279
935.3640, 455.6526
936.4860, 564.9945
937.6090, 522.3633
938.7310, 506.7532
939.8530, 478.1588
940.9750, 469.5793
942.0970, 396.0105
943.2180, 392.4575
944.3400, 321.9297
945.4610, 273.4297
946.5820, 289.9436
947.7030, 234.4705
948.8240, 214.0149
949.9450, 149.5721
951.0650, 126.1432
952.1860, 126.7296
953.3060, 91.33337
954.4260, 81.94971
955.5460, 83.57983
956.6650, 69.22241
957.7850, 76.87585
958.9040, 64.54163
960.0230, 38.22046
961.1420, 45.91455
962.2610, 64.62024
963.3800, 80.34216
964.4990, 58.07385
965.6170, 75.81909
966.7350, 25.57520
967.8530, 86.34143
968.9710, 38.12012
970.0890, 56.90906
971.2070, 57.71094
972.3240, 84.52380
973.4410, 54.34607
974.5580, 67.17712
975.6750, 33.01733
976.7920, 25.86658
977.9090, 35.48682
979.0250, 92.59216
980.1410, 52.46851
981.2580, 58.35400
982.3740, 62.24878
983.4890, 30.15283
984.6050, 57.06628
985.7200, 38.98901
986.8360, 67.92090
987.9510, 17.86206
989.0660, 23.18689
990.1810, 10.23193
991.2950, 32.73230
992.4100, 1.705566
993.5240, 1.688477
994.6390, 17.68103
995.7530, 13.68237
996.8660, 6.307129
997.9800, 9.427979
999.0940, 0.2618410
1000.207, 6.773926
1001.320, 3.818848
1002.433, 28.12756
1003.546, 14.07300
1004.659, 36.01343
1005.772, 49.95618
1006.884, 41.90662
1007.996, 30.86157
1009.108, 3.817139
1010.220, 22.76587
1011.332, 9.712891
1012.444, 33.65479
1013.555, 1.582031
1014.666, 48.41663
1015.777, 55.18933
1016.888, 19.85242
1017.999, 1.901367
1019.110, 24.95715
1020.220, 45.02039
1021.331, 11.09033
1022.441, 7.167480
1023.551, 31.25134
1024.661, 8.658203
1025.770, 13.56384
1026.880, 16.53271
1027.989, 56.63586
1029.098, 5.254639
1030.207, 23.85876
1031.316, 44.44324
1032.425, 36.66602
1033.533, 7.781006
1034.642, 8.901733
1035.750, 31.02808
1036.858, 28.86438
1037.966, 16.14502
1039.073, 28.41309
1040.181, 32.53711
1041.288, 41.58594
1042.396, 63.74243
1043.503, 91.90405
1044.610, 121.0703
1045.716, 46.28760
1046.823, 100.4629
1047.929, 73.93616
1049.036, 93.19177
1050.142, 95.37964
1051.248, 132.1113
1052.353, 135.3070
1053.459, 89.54871
1054.564, 169.7517
1055.670, 141.7250
1056.775, 187.9351
1057.880, 145.1511
1058.985, 159.4276
1060.089, 190.6476
1061.194, 162.8711
1062.298, 216.1354
1063.402, 210.4430
1064.506, 272.6758
1065.610, 304.7529
1066.713, 258.9971
1067.817, 314.7740
1068.920, 320.0200
1070.023, 332.3245
1071.126, 391.0231
1072.229, 385.2732
1073.332, 449.8164
1074.435, 508.1398
1075.537, 531.4924
1076.639, 607.1637
1077.741, 634.8550
1078.843, 689.2064
1079.945, 762.5361
1081.046, 825.6406
1082.148, 979.2087
1083.249, 1091.977
1084.350, 1276.226
1085.451, 1482.578
1086.551, 1742.395
1087.652, 2131.030
1088.752, 2662.676
1089.853, 3377.297
1090.953, 4323.022
1092.053, 5712.631
1093.152, 7721.498
1094.252, 9716.899
1095.351, 11615.49
1096.451, 12183.91
1097.550, 10980.23
1098.649, 8754.926
1099.748, 6681.414
1100.846, 5109.286
1101.945, 3979.792
1103.043, 3062.919
1104.141, 2352.288
1105.239, 1976.629
1106.337, 1627.889
1107.434, 1395.147
1108.532, 1181.404
1109.629, 1081.660
1110.726, 867.9131
1111.823, 807.1641
1112.920, 712.4440
1114.017, 668.7251
1115.113, 572.0575
1116.210, 516.3577
1117.306, 450.6885
1118.402, 406.1332
1119.498, 441.1909
1120.593, 342.6589
1121.689, 336.3645
1122.784, 312.9360
1123.879, 234.1622
1124.974, 287.5671
1126.069, 252.9205
1127.164, 246.1367
1128.259, 218.4250
1129.353, 221.5150
1130.447, 167.8335
1131.541, 170.0205
1132.635, 156.3313
1133.729, 146.5266
1134.822, 130.9056
1135.916, 131.7404
1137.009, 108.7655
1138.102, 111.1685
1139.195, 58.97290
1140.288, 53.27881
1141.380, 44.34277
1142.473, 62.86292
1143.565, 34.76953
1144.657, 12.83325
1145.749, 9.336304
1146.841, 6.035278
1147.932, 19.23547
1149.024, 32.37195
1150.115, 25.52063
1151.206, 57.67810
1152.297, 14.80212
1153.388, 35.97278
1154.479, 23.08826
1155.569, 36.19934
1156.659, 32.07458
1157.750, 53.74170
1158.839, 51.91284
1159.929, 17.00598
1161.019, 38.91785
1162.108, 1.998291
1163.198, 48.27295
1164.287, 38.34204
1165.376, 99.42029
1166.465, 27.47986
1167.553, 20.46533
1168.642, 11.39331
1169.730, 20.62646
1170.818, 43.64124
1171.906, 28.65112
1172.994, 50.65588
1174.082, 38.71729
1175.170, 22.73669
1176.257, 11.72595
1177.344, 28.75269
1178.431, 3.730713
1179.518, 10.70056
1180.605, 64.66418
1181.691, 0.3778080
1182.778, 38.58044
1183.864, 16.52258
1184.950, 69.45862
1186.036, 3.584717
1187.122, 29.33362
1188.207, 28.24597
1189.292, 15.21545
1190.378, 55.13818
1191.463, 48.15234
1192.548, 22.25806
1193.632, 13.14258
1194.717, 62.05811
1195.801, 3.985107
1196.886, 31.99731
1197.970, 14.87610
1199.054, 33.95862
1200.137, 7.144775
1201.221, 13.33093
1202.305, 43.46362
1203.388, 6.287109
1204.471, 20.22046
1205.554, 14.20300
1206.637, 28.00830
1207.719, 44.20239
1208.802, 18.63757
1209.884, 24.33142
1210.966, 2.872803
1212.048, 7.147095
1213.130, 2.810669
1214.212, 5.022339
1215.293, 6.655029
1216.374, 1.965576
1217.456, 5.704956
1218.536, 5.457275
1219.617, 6.041138
1220.698, 3.735718
1221.778, 6.321289
1222.859, 1.070801
1223.939, 13.69763
1225.019, 10.62280
1226.099, 12.89355
1227.178, 6.406860
1228.258, 4.245728
1229.337, 9.772827
1230.417, 0.7174070
1231.496, 9.093018
1232.574, 3.453125
1233.653, 22.53687
1234.732, 29.22473
1235.810, 53.78137
1236.888, 53.67371
1237.966, 61.64319
1239.044, 49.41699
1240.122, 61.88647
