##NAMES=Azurite
##RRUFFID=R050497
##IDEAL CHEMISTRY=Cu^2+^_3_(CO_3_)_2_(OH)_2_
##LOCALITY=Tsumeb mine, Tsumeb, Otavi District, Oshikoto, Namibia
##OWNER=RRUFF
##SOURCE=Marcus Origlieri
##DESCRIPTION=Blue prismatic single crystal
##STATUS=The identification of this mineral has been confirmed by X-ray diffraction and chemical analysis
##URL=rruff.info/R050497
##MEASURED CHEMISTRY=Cu_3.00_(CO_3_)_2_(OH)_2_
##PIN_ID=L01223
##ORIENTATION=Laser parallel to -a* (-1 0 0). Fiducial mark perpendicular to laser is parallel to b [0 1 0]
52.67100, 0.0000000E+00
53.91000, 37.44519
55.14900, 56.20255
56.38700, 83.89526
57.62600, 119.9633
58.86400, 136.2546
60.10300, 65.35864
61.34100, 21.87347
62.57900, 20.32886
63.81700, 22.60162
65.05400, 42.30249
66.29200, 1.232117
67.52900, 86.70081
68.76700, 180.8402
70.00400, 408.4446
71.24100, 793.3400
72.47700, 974.3573
73.71400, 1151.327
74.95100, 1629.091
76.18700, 2347.504
77.42300, 3130.441
78.65900, 4278.792
79.89500, 6362.458
81.13100, 8256.357
82.36700, 8068.410
83.60200, 6422.551
84.83700, 4628.764
86.07200, 3398.088
87.30800, 2544.464
88.54200, 2230.824
89.77700, 2185.105
91.01200, 2317.236
92.24600, 2417.133
93.48000, 2486.730
94.71400, 2297.975
95.94800, 2174.826
97.18200, 2231.250
98.41600, 2147.216
99.64900, 2383.702
100.8830, 2610.688
102.1160, 3142.153
103.3490, 4238.083
104.5820, 5308.466
105.8150, 7023.285
107.0470, 8964.528
108.2800, 12892.19
109.5120, 18873.26
110.7440, 21651.72
111.9760, 17512.56
113.2080, 11434.79
114.4400, 7189.386
115.6710, 5243.705
116.9030, 4359.302
118.1340, 3557.846
119.3650, 2830.725
120.5960, 2362.840
121.8270, 2170.193
123.0580, 2194.784
124.2880, 2217.614
125.5190, 2182.682
126.7490, 2155.927
127.9790, 2701.165
129.2090, 3317.390
130.4390, 3378.605
131.6680, 3179.807
132.8980, 2942.007
134.1270, 3131.260
135.3560, 3763.597
136.5850, 4492.032
137.8140, 5205.573
139.0430, 5915.234
140.2710, 6659.026
141.5000, 8536.954
142.7280, 8571.023
143.9560, 11555.25
145.1840, 3907.623
146.4120, 3290.158
147.6390, 3231.856
148.8670, 3358.718
150.0940, 3987.747
151.3210, 5151.943
152.5490, 5698.309
153.7750, 4710.845
155.0020, 3252.552
156.2290, 2263.431
157.4550, 1659.480
158.6810, 1376.702
159.9080, 1349.096
161.1340, 1433.659
162.3590, 1701.393
163.5850, 2081.295
164.8110, 2582.367
166.0360, 3268.607
167.2610, 4272.013
168.4860, 4987.585
169.7110, 4920.324
170.9360, 4134.229
172.1610, 3279.299
173.3850, 2578.534
174.6100, 2458.934
175.8340, 2732.498
177.0580, 2898.756
178.2820, 2622.630
179.5050, 2199.835
180.7290, 2002.672
181.9520, 1827.319
183.1760, 2126.025
184.3990, 2424.027
185.6220, 3003.965
186.8450, 3770.072
188.0670, 4570.348
189.2900, 5371.792
190.5120, 6436.398
191.7340, 6878.161
192.9560, 6737.083
194.1780, 6006.163
195.4000, 4918.395
196.6220, 4035.784
197.8430, 3280.327
199.0640, 2850.024
200.2860, 2641.659
201.5070, 2646.155
202.7270, 2785.501
203.9480, 2749.871
205.1690, 2487.097
206.3890, 2237.493
207.6090, 2354.857
208.8290, 2573.284
210.0490, 2894.966
211.2690, 2941.760
212.4890, 3025.555
213.7080, 2729.067
214.9280, 2235.876
216.1470, 1735.961
217.3660, 1315.312
218.5850, 1052.917
219.8030, 786.7676
221.0220, 654.8621
222.2400, 486.1838
223.4590, 355.7290
224.6770, 422.5039
225.8950, 438.5105
227.1120, 638.7349
228.3300, 979.1675
229.5480, 1413.800
230.7650, 2013.630
231.9820, 2672.659
233.1990, 3663.873
234.4160, 4663.263
235.6330, 4999.835
236.8490, 4365.590
238.0660, 4057.506
239.2820, 4045.588
240.4980, 4487.823
241.7140, 5278.206
242.9300, 6331.733
244.1460, 8195.404
245.3610, 10011.21
246.5770, 9905.162
247.7920, 7470.243
249.0070, 4839.459
250.2220, 5325.808
251.4370, 1747.286
252.6510, 990.8914
253.8660, 534.6226
255.0800, 219.4780
256.2940, 98.45605
257.5080, 66.55518
258.7220, 86.77319
259.9360, 551.1091
261.1490, 898.5605
262.3630, 573.1255
263.5760, 391.7976
264.7890, 315.5728
266.0020, 287.4490
267.2150, 207.4265
268.4270, 240.5032
269.6400, 292.6787
270.8520, 562.9521
272.0640, 910.3218
273.2760, 1497.788
274.4880, 1600.351
275.7000, 2187.011
276.9120, 2819.767
278.1230, 3244.621
279.3340, 3382.574
280.5450, 3392.625
281.7560, 3124.775
282.9670, 2883.022
284.1780, 2759.015
285.3880, 2650.808
286.5980, 2380.358
287.8090, 2209.009
289.0190, 2018.766
290.2290, 1787.631
291.4380, 1344.599
292.6480, 937.6689
293.8570, 583.8386
295.0670, 321.1162
296.2760, 176.4897
297.4850, 47.97778
298.6930, 58.44019
299.9020, 163.4783
301.1110, 236.6482
302.3190, 317.1782
303.5270, 325.2854
304.7350, 345.3481
305.9430, 314.3630
307.1510, 289.3296
308.3580, 240.2424
309.5660, 273.0757
310.7730, 148.8433
311.9800, 120.5305
313.1870, 7.143799
314.3940, 175.3345
315.6010, 280.9121
316.8070, 553.5806
318.0130, 820.3408
319.2200, 1142.809
320.4260, 1486.148
321.6310, 1999.185
322.8370, 2564.283
324.0430, 3204.386
325.2480, 3951.473
326.4540, 4804.558
327.6590, 5637.648
328.8640, 6119.784
330.0680, 6101.005
331.2730, 5636.324
332.4780, 4892.730
333.6820, 3872.224
334.8860, 3134.801
336.0900, 2274.458
337.2940, 1775.197
338.4980, 1392.017
339.7010, 1142.921
340.9050, 872.9062
342.1080, 740.9746
343.3110, 691.1152
344.5140, 589.3306
345.7170, 680.6467
346.9200, 716.0608
348.1220, 779.5767
349.3240, 947.1924
350.5270, 1144.911
351.7290, 1416.731
352.9310, 1691.653
354.1320, 1992.677
355.3340, 2533.806
356.5350, 3034.035
357.7370, 3610.367
358.9380, 4336.788
360.1390, 4803.296
361.3400, 5525.893
362.5400, 5942.586
363.7410, 6329.350
364.9410, 6489.133
366.1410, 6295.078
367.3410, 6143.760
368.5410, 6022.776
369.7410, 6166.653
370.9400, 6512.879
372.1400, 6837.386
373.3390, 7564.991
374.5380, 8343.393
375.7370, 9300.486
376.9360, 10067.39
378.1350, 11045.62
379.3330, 12143.96
380.5310, 12914.54
381.7300, 13638.79
382.9280, 14257.72
384.1260, 14918.56
385.3230, 15793.65
386.5210, 16685.81
387.7180, 18479.04
388.9160, 20220.33
390.1130, 22916.68
391.3100, 26144.10
392.5060, 30125.58
393.7030, 34686.11
394.9000, 39433.70
396.0960, 44381.36
397.2920, 48476.06
398.4880, 49429.83
399.6840, 47027.64
400.8800, 42493.51
402.0750, 36422.44
403.2710, 30332.41
404.4660, 26160.44
405.6610, 22061.51
406.8560, 19403.64
408.0510, 16981.82
409.2450, 15020.04
410.4400, 13260.30
411.6340, 11739.62
412.8280, 10252.97
414.0220, 9043.371
415.2160, 7871.817
416.4100, 7096.303
417.6030, 6274.833
418.7970, 5672.417
419.9900, 5152.028
421.1830, 4510.679
422.3760, 4138.791
423.5690, 3580.642
424.7610, 3299.489
425.9540, 2958.446
427.1460, 2787.396
428.3380, 2499.661
429.5300, 2256.056
430.7220, 2226.370
431.9140, 1955.556
433.1050, 1744.740
434.2970, 1602.017
435.4880, 1390.776
436.6790, 1225.544
437.8700, 1023.299
439.0610, 891.5276
440.2510, 840.2642
441.4420, 668.4282
442.6320, 645.5623
443.8220, 558.7314
445.0120, 529.5823
446.2020, 480.1553
447.3910, 448.1541
448.5810, 404.0715
449.7700, 351.3381
450.9600, 327.4534
452.1490, 251.9702
453.3370, 280.7856
454.5260, 233.2263
455.7150, 213.4382
456.9030, 286.6204
458.0910, 208.6953
459.2800, 226.8801
460.4670, 255.4980
461.6550, 243.8071
462.8430, 278.4207
464.0300, 289.6587
465.2180, 290.2180
466.4050, 268.6624
467.5920, 257.9280
468.7790, 295.9583
469.9650, 201.2539
471.1520, 174.9316
472.3380, 139.2729
473.5250, 198.5063
474.7110, 194.3179
475.8970, 162.2837
477.0820, 131.3123
478.2680, 146.4922
479.4540, 160.7842
480.6390, 203.9949
481.8240, 181.0110
483.0090, 196.7561
484.1940, 162.9951
485.3780, 168.0349
486.5630, 168.7874
487.7470, 179.6514
488.9320, 176.7502
490.1160, 213.7495
491.3000, 215.1260
492.4830, 131.0085
493.6670, 174.9888
494.8500, 136.9204
496.0340, 87.24512
497.2170, 94.89941
498.4000, 100.1267
499.5820, 125.6924
500.7650, 101.7932
501.9480, 66.79541
503.1300, 69.04565
504.3120, 23.59497
505.4940, 25.80371
506.6760, 26.72900
507.8580, 24.59644
509.0390, 2.511963
510.2210, 66.30762
511.4020, 101.1418
512.5830, 66.13208
513.7640, 49.66431
514.9450, 29.41699
516.1250, 43.41846
517.3060, 74.98389
518.4860, 29.53052
519.6660, 13.32471
520.8460, 54.15967
522.0260, 76.57324
523.2060, 8.298584
524.3850, 20.72266
525.5650, 4.174316
526.7440, 39.24121
527.9230, 101.9883
529.1020, 139.7710
530.2810, 149.0809
531.4590, 356.5667
532.6380, 463.7896
533.8160, 487.0188
534.9940, 659.8027
536.1720, 770.9446
537.3500, 870.6431
538.5270, 919.5231
539.7050, 960.2963
540.8820, 907.7710
542.0590, 875.1205
543.2360, 774.1797
544.4130, 672.1370
545.5900, 501.6107
546.7660, 462.9330
547.9430, 398.8346
549.1190, 283.0540
550.2950, 273.9388
551.4710, 212.7567
552.6470, 201.4911
553.8220, 174.0421
554.9980, 151.8776
556.1730, 136.5902
557.3480, 95.21326
558.5230, 88.80762
559.6980, 51.37280
560.8730, 55.90784
562.0470, 73.41284
563.2220, 30.88757
564.3960, 46.32654
565.5700, 50.73279
566.7440, 46.10632
567.9170, 50.44592
569.0910, 37.06384
570.2640, 10.97913
571.4380, 9.233643
572.6110, 6.600342
573.7840, 19.48975
574.9570, 4.441284
576.1290, 5.552002
577.3020, 6.494141
578.4740, 26.61438
579.6460, 22.20947
580.8180, 58.01245
581.9900, 27.68079
583.1620, 1.328857
584.3330, 18.07202
585.5040, 39.51831
586.6760, 37.01013
587.8470, 23.46667
589.0180, 12.05786
590.1880, 4.403809
591.3590, 1.145874
592.5290, 71.71436
593.7000, 40.34778
594.8700, 25.02454
596.0400, 12.24341
597.2090, 5.529175
598.3790, 31.36511
599.5490, 0.2805180
600.7180, 6.259399
601.8870, 32.30554
603.0560, 4.432983
604.2250, 2.372314
605.3940, 17.88647
606.5620, 31.22034
607.7300, 41.63660
608.8990, 25.14111
610.0670, 5.274292
611.2350, 20.62524
612.4020, 5.917969
613.5700, 39.85413
614.7370, 0.7152100
615.9050, 2.645264
617.0720, 16.35474
618.2390, 13.29321
619.4060, 11.32776
620.5720, 13.98022
621.7390, 1.271484
622.9050, 3.406372
624.0710, 4.140137
625.2370, 56.55273
626.4030, 31.03674
627.5690, 66.46167
628.7340, 113.8351
629.9000, 62.16394
631.0650, 95.44006
632.2300, 69.66907
633.3950, 65.84607
634.5600, 68.97034
635.7240, 52.20056
636.8890, 84.05908
638.0530, 57.02576
639.2170, 43.93726
640.3810, 92.79089
641.5450, 92.59546
642.7080, 112.3507
643.8720, 94.05920
645.0350, 116.7059
646.1980, 99.51770
647.3610, 105.1555
648.5240, 71.44592
649.6870, 115.2368
650.8490, 109.7264
652.0120, 112.3864
653.1740, 74.72607
654.3360, 82.81189
655.4980, 38.82605
656.6600, 63.06335
657.8210, 54.63770
658.9830, 65.41736
660.1440, 64.90173
661.3050, 35.29712
662.4660, 44.46313
663.6270, 25.98755
664.7870, 7.839355
665.9480, 0.1934810
667.1080, 11.52600
668.2680, 9.006470
669.4280, 30.80566
670.5880, 21.36951
671.7480, 33.88232
672.9070, 32.34631
674.0670, 57.76147
675.2260, 35.13159
676.3850, 61.45337
677.5440, 28.73059
678.7030, 77.95874
679.8610, 74.14441
681.0200, 82.28723
682.1780, 31.38818
683.3360, 118.4409
684.4940, 66.45508
685.6520, 76.42603
686.8090, 116.3551
687.9670, 80.24561
689.1240, 112.0947
690.2810, 116.9055
691.4380, 125.6782
692.5950, 148.4138
693.7520, 150.7903
694.9080, 115.7742
696.0650, 161.3984
697.2210, 184.9862
698.3770, 179.8147
699.5330, 238.0383
700.6880, 203.5177
701.8440, 218.9609
702.9990, 199.9487
704.1550, 240.2000
705.3100, 209.4584
706.4650, 194.6100
707.6190, 301.7699
708.7740, 298.6172
709.9290, 321.3342
711.0830, 305.1360
712.2370, 389.9758
713.3910, 398.9956
714.5450, 460.8333
715.6980, 441.1884
716.8520, 552.5330
718.0050, 568.8889
719.1580, 645.7689
720.3110, 696.1392
721.4640, 754.0790
722.6170, 850.8484
723.7700, 911.4282
724.9220, 1109.668
726.0740, 1151.993
727.2260, 1426.513
728.3780, 1542.245
729.5300, 1796.877
730.6810, 1962.131
731.8330, 2297.919
732.9840, 2547.604
734.1350, 2811.184
735.2860, 3085.916
736.4370, 3198.588
737.5880, 3370.573
738.7380, 3363.447
739.8880, 3264.883
741.0390, 3039.623
742.1890, 3031.054
743.3380, 2732.861
744.4880, 2618.343
745.6380, 2506.938
746.7870, 2346.836
747.9360, 2289.726
749.0850, 2337.471
750.2340, 2418.835
751.3830, 2686.529
752.5310, 3010.323
753.6800, 3404.531
754.8280, 3943.584
755.9760, 4650.564
757.1240, 5428.389
758.2720, 6348.091
759.4190, 7353.868
760.5670, 8218.834
761.7140, 8929.061
762.8610, 9307.784
764.0080, 9159.698
765.1550, 8971.887
766.3020, 8199.955
767.4480, 7367.775
768.5950, 6595.686
769.7410, 5625.207
770.8870, 4927.210
772.0330, 4247.583
773.1780, 3744.030
774.3240, 3127.552
775.4690, 2689.729
776.6140, 2350.319
777.7590, 1959.557
778.9040, 1719.799
780.0490, 1920.014
781.1940, 2042.520
782.3380, 1649.710
783.4820, 1043.225
784.6260, 998.4631
785.7700, 847.8170
786.9140, 795.5627
788.0580, 685.0214
789.2010, 640.4590
790.3450, 598.0084
791.4880, 621.0625
792.6310, 586.3040
793.7730, 525.7642
794.9160, 539.7550
796.0590, 508.6868
797.2010, 514.8352
798.3430, 503.9963
799.4850, 490.0581
800.6270, 425.6716
801.7690, 481.3147
802.9100, 445.6060
804.0520, 463.7017
805.1930, 520.0953
806.3340, 584.4316
807.4750, 608.2192
808.6160, 691.8090
809.7560, 722.6392
810.8970, 892.4403
812.0370, 1070.664
813.1770, 1214.507
814.3170, 1463.771
815.4570, 1653.506
816.5960, 1762.972
817.7360, 1691.389
818.8750, 1735.908
820.0140, 1773.694
821.1530, 1938.556
822.2920, 2106.878
823.4310, 2383.328
824.5690, 2619.174
825.7070, 2811.677
826.8460, 3062.877
827.9840, 3241.345
829.1220, 3493.258
830.2590, 3680.173
831.3970, 3856.091
832.5340, 3833.950
833.6710, 3587.873
834.8080, 3562.799
835.9450, 3260.729
837.0820, 3000.661
838.2190, 2678.598
839.3550, 2314.539
840.4910, 1976.486
841.6270, 1738.438
842.7630, 1559.397
843.8990, 1342.620
845.0350, 1136.029
846.1700, 1041.308
847.3060, 767.3030
848.4410, 642.3105
849.5760, 550.3347
850.7100, 504.3795
851.8450, 420.1913
852.9800, 375.5182
854.1140, 306.6097
855.2480, 249.7249
856.3820, 185.8524
857.5160, 140.0121
858.6500, 93.18396
859.7830, 103.3738
860.9170, 84.58618
862.0500, 77.82727
863.1830, 111.0968
864.3160, 1.380615
865.4480, 85.68677
866.5810, 34.01147
867.7130, 52.50806
868.8460, 50.30579
869.9780, 33.53699
871.1100, 42.19800
872.2410, 41.56604
873.3730, 47.78955
874.5050, 50.25647
875.6360, 76.12939
876.7670, 58.10083
877.8980, 56.40308
879.0290, 93.72986
880.1590, 108.1387
881.2900, 117.0902
882.4200, 120.5457
883.5500, 138.6853
884.6800, 144.0557
885.8100, 180.3461
886.9400, 167.6241
888.0690, 209.4772
889.1990, 219.3668
890.3280, 232.7308
891.4570, 218.6807
892.5860, 235.1036
893.7140, 264.5522
894.8430, 257.5848
895.9710, 270.4846
897.1000, 298.9274
898.2280, 324.0540
899.3560, 318.2158
900.4830, 378.3984
901.6110, 349.6013
902.7380, 420.8210
903.8660, 483.3202
904.9930, 466.5735
906.1200, 497.8489
907.2460, 543.1417
908.3730, 622.4550
909.5000, 655.7869
910.6260, 689.1375
911.7520, 766.5043
912.8780, 801.8895
914.0040, 889.2947
915.1290, 956.7158
916.2550, 1024.154
917.3800, 1139.608
918.5050, 1224.077
919.6300, 1424.562
920.7550, 1625.062
921.8800, 1823.578
923.0040, 2124.116
924.1290, 2440.675
925.2530, 2895.248
926.3770, 3234.842
927.5010, 3803.458
928.6250, 4466.089
929.7480, 5128.742
930.8720, 5693.412
931.9950, 6484.097
933.1180, 7050.801
934.2410, 7319.521
935.3640, 7581.262
936.4860, 7577.021
937.6090, 7408.806
938.7310, 7002.610
939.8530, 6678.435
940.9750, 6061.282
942.0970, 5328.152
943.2180, 4584.043
944.3400, 4061.957
945.4610, 3497.893
946.5820, 2911.852
947.7030, 2542.828
948.8240, 2138.823
949.9450, 1806.839
951.0650, 1644.874
952.1860, 1484.928
953.3060, 1345.999
954.4260, 1218.083
955.5460, 1116.330
956.6650, 1017.771
957.7850, 947.4375
958.9040, 874.5984
960.0230, 797.7820
961.1420, 768.9807
962.2610, 718.1982
963.3800, 709.4293
964.4990, 638.6737
965.6170, 594.9314
966.7350, 550.2026
967.8530, 492.4875
968.9710, 454.7876
970.0890, 454.1011
971.2070, 505.4275
972.3240, 449.7671
973.4410, 349.1196
974.5580, 398.4852
975.6750, 340.8636
976.7920, 368.2548
977.9090, 326.6587
979.0250, 346.0750
980.1410, 294.5037
981.2580, 272.9449
982.3740, 213.3984
983.4890, 248.8645
984.6050, 238.3425
985.7200, 180.8324
986.8360, 196.3342
987.9510, 119.8486
989.0660, 163.3754
990.1810, 99.91345
991.2950, 108.4634
992.4100, 77.02417
993.5240, 58.59607
994.6390, 78.17834
995.7530, 69.77161
996.8660, 12.37598
997.9800, 18.99133
999.0940, 53.60864
1000.207, 48.24426
1001.320, 7.109985
1002.433, 16.45557
1003.546, 27.79529
1004.659, 9.133057
1005.772, 52.46326
1006.884, 24.72156
1007.996, 29.98779
1009.108, 12.31433
1010.220, 14.36743
1011.332, 22.58411
1012.444, 45.51636
1013.555, 23.39856
1014.666, 35.23572
1015.777, 64.91479
1016.888, 34.59619
1017.999, 42.53113
1019.110, 37.51318
1020.220, 12.86279
1021.331, 6.157349
1022.441, 40.23694
1023.551, 34.73401
1024.661, 32.68958
1025.770, 16.37012
1026.880, 3.134155
1027.989, 8.457275
1029.098, 17.14600
1030.207, 5.495605
1031.316, 27.38086
1032.425, 39.92151
1033.533, 11.38989
1034.642, 25.05481
1035.750, 67.76367
1036.858, 0.8165280
1037.966, 45.85742
1039.073, 40.29846
1040.181, 56.05933
1041.288, 33.47681
1042.396, 26.43445
1043.503, 26.12598
1044.610, 28.82129
1045.716, 92.52063
1046.823, 55.22266
1047.929, 98.92761
1049.036, 61.97229
1050.142, 95.72986
1051.248, 108.4672
1052.353, 85.18335
1053.459, 103.9602
1054.564, 96.79810
1055.670, 121.4215
1056.775, 107.3612
1057.880, 129.1617
1058.985, 161.0730
1060.089, 171.0172
1061.194, 171.8409
1062.298, 184.7684
1063.402, 220.5048
1064.506, 241.3392
1065.610, 273.1064
1066.713, 263.3591
1067.817, 330.1090
1068.920, 367.7825
1070.023, 362.5560
1071.126, 460.3585
1072.229, 452.1683
1073.332, 572.8438
1074.435, 602.7668
1075.537, 616.4941
1076.639, 676.0679
1077.741, 788.8959
1078.843, 862.8729
1079.945, 993.7865
1081.046, 1120.854
1082.148, 1378.891
1083.249, 1601.786
1084.350, 1871.646
1085.451, 2313.544
1086.551, 2865.320
1087.652, 3543.123
1088.752, 4434.057
1089.853, 5705.555
1090.953, 7312.819
1092.053, 8952.804
1093.152, 10646.63
1094.252, 11741.66
1095.351, 11610.58
1096.451, 10114.42
1097.550, 8051.329
1098.649, 6110.307
1099.748, 4518.253
1100.846, 3423.562
1101.945, 2670.443
1103.043, 2054.374
1104.141, 1750.246
1105.239, 1421.107
1106.337, 1234.055
1107.434, 1009.837
1108.532, 869.7573
1109.629, 771.5652
1110.726, 697.3274
1111.823, 644.1526
1112.920, 536.9526
1114.017, 495.7612
1115.113, 454.6204
1116.210, 402.3665
1117.306, 393.1293
1118.402, 362.9005
1119.498, 358.8677
1120.593, 315.7476
1121.689, 317.5100
1122.784, 266.2764
1123.879, 282.9590
1124.974, 288.6665
1126.069, 221.2490
1127.164, 202.9851
1128.259, 162.7711
1129.353, 120.5942
1130.447, 133.1660
1131.541, 113.8293
1132.635, 108.4756
1133.729, 103.0953
1134.822, 93.41077
1135.916, 100.2524
1137.009, 94.76648
1138.102, 33.46167
1139.195, 33.33618
1140.288, 37.03418
1141.380, 23.18567
1142.473, 29.27661
1143.565, 18.29712
1144.657, 15.20068
1145.749, 13.22229
1146.841, 8.223511
1147.932, 6.137695
1149.024, 0.2542720
1150.115, 3.6743000E-02
1151.206, 23.86194
1152.297, 9.053223
1153.388, 7.616699
1154.479, 10.48560
1155.569, 0.3858640
1156.659, 27.01721
1157.750, 2.777100
1158.839, 3.980835
1159.929, 52.48499
1161.019, 39.04700
1162.108, 10.04651
1163.198, 21.74902
1164.287, 2.559082
1165.376, 28.78333
1166.465, 16.05139
1167.553, 1.739014
1168.642, 24.22656
1169.730, 20.55603
1170.818, 13.61377
1171.906, 2.103394
1172.994, 7.157104
1174.082, 26.23499
1175.170, 73.57043
1176.257, 85.31360
1177.344, 61.99817
1178.431, 133.2656
1179.518, 4.513550
1180.605, 14.63855
1181.691, 20.93176
1182.778, 35.08826
1183.864, 14.16650
1184.950, 31.45117
1186.036, 9.338013
1187.122, 13.13818
1188.207, 13.98608
1189.292, 12.92566
1190.378, 13.68225
1191.463, 12.12085
1192.548, 6.025757
1193.632, 59.75916
1194.717, 12.72632
1195.801, 29.81641
1196.886, 2.020508
1197.970, 35.89758
1199.054, 10.26050
1200.137, 12.32935
1201.221, 25.63745
1202.305, 24.78186
1203.388, 11.22241
1204.471, 3.859985
1205.554, 12.66711
1206.637, 10.10413
1207.719, 15.03491
1208.802, 18.05151
1209.884, 5.012207
1210.966, 0.9890140
1212.048, 20.02368
1213.130, 10.79565
1214.212, 17.38635
1215.293, 10.40808
1216.374, 40.20459
1217.456, 34.02893
1218.536, 2.931396
1219.617, 11.97986
1220.698, 45.06970
1221.778, 40.42871
1222.859, 29.78052
1223.939, 23.47266
1225.019, 5.397095
1226.099, 27.22754
1227.178, 11.17822
1228.258, 0.9138180
1229.337, 1.891235
1230.417, 11.26318
1231.496, 17.40601
1232.574, 5.078491
1233.653, 18.65344
1234.732, 21.19836
1235.810, 0.7592770
1236.888, 39.23083
1237.966, 5.727539
