##NAMES=Azurite
##RRUFFID=R050638
##IDEAL CHEMISTRY=Cu^2+^_3_(CO_3_)_2_(OH)_2_
##LOCALITY=Zacatecas, Mexico
##OWNER=RRUFF
##SOURCE=University of Arizona Mineral Museum
##DESCRIPTION=Blue bladed crystals
##STATUS=The identification of this mineral has been confirmed by X-ray diffraction and chemical analysis
##URL=rruff.info/R050638
##MEASURED CHEMISTRY=Cu_3.00_(CO_3_)_2_(OH)_2_
##PIN_ID=M00496
##ORIENTATION=Laser parallel to -b* (0 -1 0). Fiducial mark perpendicular to laser is parallel to -c [0 0 -1]
52.67100, 0.0000000E+00
53.91000, 42.40576
55.14900, 57.17010
56.38700, 85.15906
57.62600, 44.08569
58.86400, 105.8399
60.10300, 107.5202
61.34100, 90.22253
62.57900, 52.91095
63.81700, 7.610657
65.05400, 40.56201
66.29200, 26.16162
67.52900, 9.611450
68.76700, 107.9083
70.00400, 368.2543
71.24100, 671.3120
72.47700, 677.9664
73.71400, 500.0984
74.95100, 521.5930
76.18700, 774.3462
77.42300, 1095.264
78.65900, 1069.266
79.89500, 1405.279
81.13100, 1848.240
82.36700, 2835.093
83.60200, 4090.788
84.83700, 4162.296
86.07200, 2919.652
87.30800, 1954.848
88.54200, 1534.827
89.77700, 1407.543
91.01200, 1409.937
92.24600, 1714.946
93.48000, 1610.516
94.71400, 1363.602
95.94800, 1515.172
97.18200, 1329.199
98.41600, 1225.659
99.64900, 1348.534
100.8830, 1447.806
102.1160, 1294.461
103.3490, 1299.487
104.5820, 1455.873
105.8150, 1699.608
107.0470, 2238.683
108.2800, 3358.092
109.5120, 4997.824
110.7440, 6653.875
111.9760, 8645.237
113.2080, 9851.903
114.4400, 7468.870
115.6710, 5012.187
116.9030, 3437.237
118.1340, 2487.272
119.3650, 1934.005
120.5960, 1487.994
121.8270, 1363.170
123.0580, 1419.535
124.2880, 1560.090
125.5190, 1454.836
126.7490, 1472.729
127.9790, 1831.634
129.2090, 2661.542
130.4390, 4683.441
131.6680, 4240.306
132.8980, 6589.255
134.1270, 4111.163
135.3560, 2500.134
136.5850, 2050.183
137.8140, 2082.320
139.0430, 2506.552
140.2710, 3072.887
141.5000, 3689.331
142.7280, 4742.889
143.9560, 5468.565
145.1840, 4689.366
146.4120, 3276.292
147.6390, 2319.348
148.8670, 1880.536
150.0940, 1722.858
151.3210, 1791.315
152.5490, 2411.910
153.7750, 3004.644
155.0020, 2881.517
156.2290, 2270.530
157.4550, 1598.685
158.6810, 1236.981
159.9080, 1185.418
161.1340, 1266.998
162.3590, 1447.719
163.5850, 1846.581
164.8110, 2476.585
166.0360, 3408.729
167.2610, 4859.013
168.4860, 7467.438
169.7110, 11217.00
170.9360, 14759.71
172.1610, 13367.55
173.3850, 9409.537
174.6100, 5922.661
175.8340, 4004.924
177.0580, 3030.325
178.2820, 2566.345
179.5050, 2314.844
180.7290, 1796.385
181.9520, 1337.729
183.1760, 1178.107
184.3990, 1181.190
185.6220, 1092.408
186.8450, 1283.125
188.0670, 1551.990
189.2900, 1828.003
190.5120, 2186.162
191.7340, 2533.464
192.9560, 2872.906
194.1780, 2891.488
195.4000, 2827.209
196.6220, 2566.069
197.8430, 2324.069
199.0640, 2075.207
200.2860, 1977.924
201.5070, 2000.528
202.7270, 2163.996
203.9480, 1866.328
205.1690, 1266.477
206.3890, 657.3210
207.6090, 479.5046
208.8290, 501.1997
210.0490, 697.1455
211.2690, 782.8345
212.4890, 888.6489
213.7080, 990.1433
214.9280, 966.9253
216.1470, 779.1201
217.3660, 630.5305
218.5850, 516.1489
219.8030, 391.5410
221.0220, 298.9805
222.2400, 221.1812
223.4590, 137.5632
224.6770, 99.12231
225.8950, 196.8533
227.1120, 150.7517
228.3300, 270.8132
229.5480, 347.0334
230.7650, 506.4097
231.9820, 758.9392
233.1990, 1052.619
234.4160, 1478.445
235.6330, 2239.416
236.8490, 2827.528
238.0660, 3083.777
239.2820, 3101.158
240.4980, 3212.671
241.7140, 3909.314
242.9300, 5147.084
244.1460, 7632.975
245.3610, 11928.99
246.5770, 18371.13
247.7920, 23237.38
249.0070, 20824.75
250.2220, 14225.24
251.4370, 8488.846
252.6510, 5177.562
253.8660, 3357.390
255.0800, 2157.329
256.2940, 1465.375
257.5080, 1163.531
258.7220, 1148.793
259.9360, 1656.161
261.1490, 1799.710
262.3630, 1997.032
263.5760, 2144.445
264.7890, 2218.653
266.0020, 2147.516
267.2150, 1864.471
268.4270, 1645.516
269.6400, 1570.651
270.8520, 1765.876
272.0640, 1957.189
273.2760, 2506.592
274.4880, 3201.082
275.7000, 4107.661
276.9120, 5355.329
278.1230, 6488.085
279.3340, 7710.932
280.5450, 8352.870
281.7560, 8302.896
282.9670, 7615.010
284.1780, 6557.215
285.3880, 5419.510
286.5980, 4435.893
287.8090, 3670.363
289.0190, 2932.922
290.2290, 2432.569
291.4380, 1920.302
292.6480, 1479.122
293.8570, 1236.031
295.0670, 863.0249
296.2760, 610.1094
297.4850, 298.2803
298.6930, 177.5491
299.9020, 75.92725
301.1110, 54.60205
302.3190, 107.0352
303.5270, 160.3264
304.7350, 196.6367
305.9430, 191.8176
307.1510, 236.9270
308.3580, 217.9585
309.5660, 317.9180
310.7730, 248.8262
311.9800, 272.6724
313.1870, 186.4719
314.3940, 166.2031
315.6010, 137.8618
316.8070, 85.45044
318.0130, 33.04370
319.2200, 78.62012
320.4260, 256.2910
321.6310, 382.0691
322.8370, 534.9382
324.0430, 771.1558
325.2480, 1025.875
326.4540, 1319.881
327.6590, 1560.896
328.8640, 1969.927
330.0680, 2187.998
331.2730, 2223.120
332.4780, 2120.333
333.6820, 1847.644
334.8860, 1597.052
336.0900, 1339.553
337.2940, 1058.140
338.4980, 932.8105
339.7010, 831.5745
340.9050, 732.4294
342.1080, 730.3740
343.3110, 705.5728
344.5140, 786.5129
345.7170, 781.7227
346.9200, 871.0273
348.1220, 987.0039
349.3240, 1184.932
350.5270, 1336.531
351.7290, 1522.236
352.9310, 1708.042
354.1320, 1976.947
355.3340, 2379.945
356.5350, 2795.044
357.7370, 3228.246
358.9380, 3759.229
360.1390, 4245.935
361.3400, 4903.414
362.5400, 5450.978
363.7410, 6089.625
364.9410, 6818.358
366.1410, 7458.169
367.3410, 8078.068
368.5410, 8638.050
369.7410, 9457.114
370.9400, 10521.25
372.1400, 11525.47
373.3390, 12976.77
374.5380, 14298.14
375.7370, 15915.74
376.9360, 17545.44
378.1350, 19305.41
379.3330, 20827.44
380.5310, 22240.83
381.7300, 23359.67
382.9280, 24205.79
384.1260, 24728.77
385.3230, 24948.17
386.5210, 24816.28
387.7180, 25176.47
388.9160, 25360.72
390.1130, 25895.04
391.3100, 27587.43
392.5060, 29397.88
393.7030, 32773.40
394.9000, 37340.98
396.0960, 42755.62
397.2920, 49426.33
398.4880, 55738.10
399.6840, 59390.94
400.8800, 59546.82
402.0750, 55932.78
403.2710, 49517.79
404.4660, 43330.86
405.6610, 37504.99
406.8560, 33126.18
408.0510, 29530.41
409.2450, 26786.70
410.4400, 24149.05
411.6340, 21510.46
412.8280, 19170.92
414.0220, 16976.43
415.2160, 14710.99
416.4100, 12796.60
417.6030, 11438.27
418.7970, 9970.986
419.9900, 8980.751
421.1830, 7966.569
422.3760, 7283.434
423.5690, 6607.348
424.7610, 5969.308
425.9540, 5492.317
427.1460, 5150.374
428.3380, 4696.527
429.5300, 4420.676
430.7220, 4069.870
431.9140, 3591.109
433.1050, 3378.392
434.2970, 3036.719
435.4880, 2717.089
436.6790, 2494.650
437.8700, 2228.105
439.0610, 2082.395
440.2510, 1696.162
441.4420, 1499.657
442.6320, 1375.884
443.8220, 1289.342
445.0120, 1171.128
446.2020, 1029.399
447.3910, 885.6309
448.5810, 827.2571
449.7700, 831.0447
450.9600, 761.3745
452.1490, 665.4731
453.3370, 658.9373
454.5260, 558.0688
455.7150, 476.8152
456.9030, 510.6731
458.0910, 472.6931
459.2800, 477.3818
460.4670, 524.0239
461.6550, 548.5647
462.8430, 456.9597
464.0300, 472.5166
465.2180, 446.4600
466.4050, 425.4402
467.5920, 473.6401
468.7790, 415.9167
469.9650, 469.6223
471.1520, 384.8691
472.3380, 384.2749
473.5250, 342.8015
474.7110, 346.2358
475.8970, 287.5977
477.0820, 279.3918
478.2680, 284.4827
479.4540, 341.9985
480.6390, 294.7615
481.8240, 314.5940
483.0090, 297.9253
484.1940, 276.1433
485.3780, 240.6687
486.5630, 267.7788
487.7470, 264.9146
488.9320, 307.6594
490.1160, 285.3894
491.3000, 290.8950
492.4830, 278.2732
493.6670, 267.5955
494.8500, 265.1189
496.0340, 247.0730
497.2170, 255.2029
498.4000, 249.2693
499.5820, 257.3472
500.7650, 165.3704
501.9480, 170.6721
503.1300, 153.6128
504.3120, 162.3591
505.4940, 121.8120
506.6760, 113.7136
507.8580, 150.6042
509.0390, 87.28516
510.2210, 105.9177
511.4020, 63.88403
512.5830, 67.82324
513.7640, 39.20459
514.9450, 21.60303
516.1250, 18.62109
517.3060, 3.674072
518.4860, 2.772461
519.6660, 2.614746
520.8460, 1.675781
522.0260, 8.864014
523.2060, 9.285156
524.3850, 2.508301
525.5650, 14.28101
526.7440, 0.3193360
527.9230, 19.29102
529.1020, 37.67334
530.2810, 64.00586
531.4590, 65.69873
532.6380, 110.2686
533.8160, 116.4658
534.9940, 212.1748
536.1720, 218.5398
537.3500, 290.7621
538.5270, 332.9169
539.7050, 384.2799
540.8820, 387.1255
542.0590, 428.1885
543.2360, 318.6658
544.4130, 322.8041
545.5900, 306.5996
546.7660, 281.3796
547.9430, 259.2441
549.1190, 138.8525
550.2950, 152.4830
551.4710, 86.51379
552.6470, 87.07568
553.8220, 87.62134
554.9980, 110.2231
556.1730, 108.7349
557.3480, 60.22900
558.5230, 77.70508
559.6980, 118.1626
560.8730, 71.60156
562.0470, 141.0210
563.2220, 78.42102
564.3960, 63.80078
565.5700, 86.16003
566.7440, 69.49854
567.9170, 100.8158
569.0910, 30.11145
570.2640, 76.38367
571.4380, 60.63354
572.6110, 115.8605
573.7840, 59.06433
574.9570, 42.24463
576.1290, 43.40051
577.3020, 31.53186
578.4740, 69.63611
579.6460, 10.71521
580.8180, 30.76025
581.9900, 26.22400
583.1620, 71.26172
584.3330, 5.375977
585.5040, 46.53516
586.6760, 61.75366
587.8470, 39.03320
589.0180, 67.35571
590.1880, 31.73035
591.3590, 84.14062
592.5290, 51.60718
593.7000, 40.11658
594.8700, 35.64661
596.0400, 6.792603
597.2090, 22.77466
598.3790, 28.37769
599.5490, 5.023804
600.7180, 24.70557
601.8870, 17.55847
603.0560, 31.22229
604.2250, 80.07288
605.3940, 21.01978
606.5620, 52.03284
607.7300, 54.12878
608.8990, 10.69006
610.0670, 43.54260
611.2350, 50.85620
612.4020, 20.25513
613.5700, 12.27612
614.7370, 18.24634
615.9050, 31.83911
617.0720, 53.50964
618.2390, 25.27014
619.4060, 0.8936770
620.5720, 2.004761
621.7390, 33.96790
622.9050, 25.01257
624.0710, 22.27185
625.2370, 10.33374
626.4030, 15.39648
627.5690, 16.06836
628.7340, 60.68140
629.9000, 29.24841
631.0650, 74.76013
632.2300, 43.22778
633.3950, 15.64343
634.5600, 26.99817
635.7240, 47.29553
636.8890, 58.54077
638.0530, 62.73621
639.2170, 63.89246
640.3810, 67.63220
641.5450, 58.02698
642.7080, 74.02344
643.8720, 84.97168
645.0350, 101.8730
646.1980, 80.73047
647.3610, 153.5397
648.5240, 51.31018
649.6870, 54.02563
650.8490, 83.29980
652.0120, 151.2992
653.1740, 117.8717
654.3360, 76.40051
655.4980, 48.87842
656.6600, 122.2992
657.8210, 83.54065
658.9830, 112.6951
660.1440, 63.60559
661.3050, 78.48657
662.4660, 82.03564
663.6270, 79.14709
664.7870, 102.0023
665.9480, 125.0281
667.1080, 106.6653
668.2680, 134.5992
669.4280, 131.4896
670.5880, 109.3361
671.7480, 117.1353
672.9070, 143.8881
674.0670, 109.5979
675.2260, 131.2601
676.3850, 142.8778
677.5440, 148.4518
678.7030, 131.9829
679.8610, 177.4691
681.0200, 155.9148
682.1780, 124.3180
683.3360, 149.6753
684.4940, 181.9893
685.6520, 183.2629
686.8090, 172.4963
687.9670, 205.6886
689.1240, 198.8420
690.2810, 155.9562
691.4380, 229.0276
692.5950, 244.0603
693.7520, 198.0546
694.9080, 254.0094
696.0650, 244.9259
697.2210, 252.8040
698.3770, 273.6438
699.5330, 306.4452
700.6880, 295.2085
701.8440, 297.9338
702.9990, 359.6211
704.1550, 357.2703
705.3100, 411.8816
706.4650, 383.4553
707.6190, 458.9911
708.7740, 408.4380
709.9290, 442.8988
711.0830, 481.3221
712.2370, 505.7083
713.3910, 519.0569
714.5450, 555.3687
715.6980, 610.6432
716.8520, 679.7334
718.0050, 767.9346
719.1580, 736.3064
720.3110, 875.2053
721.4640, 926.3811
722.6170, 1122.831
723.7700, 1144.053
724.9220, 1295.778
726.0740, 1505.527
727.2260, 1672.522
728.3780, 1875.776
729.5300, 2106.036
730.6810, 2363.042
731.8330, 2831.978
732.9840, 3290.509
734.1350, 3658.229
735.2860, 4217.333
736.4370, 4677.637
737.5880, 5052.529
738.7380, 4848.716
739.8880, 4809.639
741.0390, 4517.815
742.1890, 4103.140
743.3380, 3650.302
744.4880, 3144.078
745.6380, 2919.815
746.7870, 2535.330
747.9360, 2322.767
749.0850, 2079.775
750.2340, 2052.240
751.3830, 1946.545
752.5310, 2067.728
753.6800, 2050.001
754.8280, 2288.347
755.9760, 2410.259
757.1240, 2635.872
758.2720, 3072.067
759.4190, 3410.022
760.5670, 3637.912
761.7140, 4098.298
762.8610, 4331.795
764.0080, 4409.979
765.1550, 4570.575
766.3020, 4336.138
767.4480, 4128.090
768.5950, 3708.048
769.7410, 3364.227
770.8870, 2990.525
772.0330, 2592.793
773.1780, 2256.454
774.3240, 1963.710
775.4690, 1685.430
776.6140, 1477.793
777.7590, 1258.341
778.9040, 1121.934
780.0490, 1007.238
781.1940, 904.8918
782.3380, 777.7292
783.4820, 720.8485
784.6260, 635.5078
785.7700, 575.1658
786.9140, 537.0208
788.0580, 495.9119
789.2010, 477.4558
790.3450, 478.0133
791.4880, 437.1149
792.6310, 386.3964
793.7730, 315.9440
794.9160, 417.0087
796.0590, 342.3336
797.2010, 339.1761
798.3430, 404.9923
799.4850, 393.1343
800.6270, 359.3345
801.7690, 345.4441
802.9100, 425.9847
804.0520, 377.5925
805.1930, 522.4500
806.3340, 377.4243
807.4750, 494.3331
808.6160, 553.8635
809.7560, 693.4984
810.8970, 773.4871
812.0370, 949.9458
813.1770, 1271.729
814.3170, 1598.636
815.4570, 1983.591
816.5960, 2331.318
817.7360, 2354.542
818.8750, 2163.529
820.0140, 1805.082
821.1530, 1568.952
822.2920, 1344.144
823.4310, 1220.331
824.5690, 1226.412
825.7070, 1271.728
826.8460, 1218.999
827.9840, 1194.849
829.1220, 1189.145
830.2590, 1285.435
831.3970, 1267.646
832.5340, 1290.925
833.6710, 1383.198
834.8080, 1409.466
835.9450, 1301.729
837.0820, 1315.987
838.2190, 1280.241
839.3550, 1276.490
840.4910, 1211.736
841.6270, 1085.978
842.7630, 987.2162
843.8990, 846.4507
845.0350, 775.6824
846.1700, 658.9114
847.3060, 636.1379
848.4410, 542.3618
849.5760, 478.5835
850.7100, 387.8030
851.8450, 341.0208
852.9800, 319.2373
854.1140, 269.4532
855.2480, 221.6680
856.3820, 214.8864
857.5160, 177.1053
858.6500, 183.8589
859.7830, 142.1155
860.9170, 103.5718
862.0500, 92.85645
863.1830, 85.16443
864.3160, 47.53259
865.4480, 80.21851
866.5810, 25.01538
867.7130, 33.59448
868.8460, 20.09216
869.9780, 0.8234860
871.1100, 16.28662
872.2410, 4.759277
873.3730, 37.24902
874.5050, 31.99622
875.6360, 51.36377
876.7670, 65.18530
877.8980, 73.16675
879.0290, 77.31750
880.1590, 88.92407
881.2900, 54.55042
882.4200, 28.20471
883.5500, 119.9292
884.6800, 83.25732
885.8100, 88.99133
886.9400, 78.75439
888.0690, 103.9801
889.1990, 71.79077
890.3280, 115.1558
891.4570, 94.30286
892.5860, 128.1968
893.7140, 91.47339
894.8430, 104.2725
895.9710, 77.91113
897.1000, 113.9053
898.2280, 105.1649
899.3560, 125.2104
900.4830, 112.2804
901.6110, 129.4650
902.7380, 146.0490
903.8660, 127.1704
904.9930, 154.4674
906.1200, 165.8423
907.2460, 155.7761
908.3730, 198.9568
909.5000, 182.1530
910.6260, 178.3641
911.7520, 190.5902
912.8780, 208.8279
914.0040, 161.0773
915.1290, 198.3381
916.2550, 206.6115
917.3800, 276.8972
918.5050, 320.1946
919.6300, 275.5011
920.7550, 318.8186
921.8800, 356.1425
923.0040, 373.4807
924.1290, 481.8340
925.2530, 537.1991
926.3770, 636.5715
927.5010, 712.9747
928.6250, 784.3472
929.7480, 891.7582
930.8720, 945.1782
931.9950, 1082.611
933.1180, 1233.054
934.2410, 1363.512
935.3640, 1364.983
936.4860, 1360.471
937.6090, 1307.973
938.7310, 1291.489
939.8530, 1208.018
940.9750, 1158.559
942.0970, 1136.109
943.2180, 1005.671
944.3400, 876.2461
945.4610, 825.8438
946.5820, 762.4524
947.7030, 627.0806
948.8240, 570.7212
949.9450, 513.3755
951.0650, 443.0443
952.1860, 383.7257
953.3060, 341.4159
954.4260, 300.5320
955.5460, 307.8276
956.6650, 245.5500
957.7850, 247.2827
958.9040, 227.0265
960.0230, 202.7805
961.1420, 197.5436
962.2610, 175.9082
963.3800, 235.0969
964.4990, 152.8866
965.6170, 158.6840
966.7350, 166.4900
967.8530, 101.3044
968.9710, 167.1328
970.0890, 155.9717
971.2070, 136.8256
972.3240, 100.6877
973.4410, 138.5647
974.5580, 107.4502
975.6750, 120.3436
976.7920, 103.2451
977.9090, 95.43445
979.0250, 105.0737
980.1410, 83.00098
981.2580, 92.94104
982.3740, 90.88953
983.4890, 96.84619
984.6050, 79.81079
985.7200, 41.78406
986.8360, 30.76575
987.9510, 34.75586
989.0660, 84.75842
990.1810, 69.77002
991.2950, 31.79004
992.4100, 23.18176
993.5240, 82.84985
994.6390, 11.11035
995.7530, 41.93542
996.8660, 26.98865
997.9800, 2.950439
999.0940, 15.88037
1000.207, 18.83850
1001.320, 9.729736
1002.433, 4.648071
1003.546, 13.55981
1004.659, 15.52417
1005.772, 20.62268
1006.884, 15.72742
1007.996, 11.16138
1009.108, 28.04663
1010.220, 36.93384
1011.332, 16.82654
1012.444, 20.71753
1013.555, 11.39233
1014.666, 1.509033
1015.777, 49.62915
1016.888, 1.400269
1017.999, 20.46765
1019.110, 9.380127
1020.220, 21.51379
1021.331, 14.91443
1022.441, 38.58704
1023.551, 16.26831
1024.661, 9.479614
1025.770, 16.94128
1026.880, 50.91284
1027.989, 58.80408
1029.098, 37.69714
1030.207, 12.04846
1031.316, 6.591187
1032.425, 5.506958
1033.533, 14.13696
1034.642, 1.759766
1035.750, 11.04028
1036.858, 43.73438
1037.966, 2.869751
1039.073, 51.65833
1040.181, 41.84460
1041.288, 59.53760
1042.396, 77.68103
1043.503, 43.22278
1044.610, 39.12268
1045.716, 50.25452
1046.823, 72.42151
1047.929, 71.91907
1049.036, 69.68042
1050.142, 88.06165
1051.248, 94.49060
1052.353, 104.6223
1053.459, 119.7449
1054.564, 131.8688
1055.670, 121.9939
1056.775, 114.2574
1057.880, 123.3855
1058.985, 126.8015
1060.089, 165.7329
1061.194, 158.9247
1062.298, 191.2533
1063.402, 227.3848
1064.506, 216.5408
1065.610, 286.6792
1066.713, 270.8416
1067.817, 251.9932
1068.920, 292.0958
1070.023, 302.2339
1071.126, 366.9446
1072.229, 376.8939
1073.332, 436.1117
1074.435, 439.2690
1075.537, 534.6287
1076.639, 504.2772
1077.741, 617.0364
1078.843, 703.5399
1079.945, 696.4077
1081.046, 787.9856
1082.148, 873.0005
1083.249, 1082.249
1084.350, 1283.831
1085.451, 1441.035
1086.551, 1731.266
1087.652, 2093.475
1088.752, 2592.781
1089.853, 3291.269
1090.953, 4078.940
1092.053, 5396.318
1093.152, 6925.718
1094.252, 8641.884
1095.351, 10126.08
1096.451, 10402.20
1097.550, 9293.300
1098.649, 7603.435
1099.748, 5855.661
1100.846, 4436.155
1101.945, 3346.828
1103.043, 2700.489
1104.141, 2109.716
1105.239, 1680.356
1106.337, 1459.541
1107.434, 1215.670
1108.532, 989.7443
1109.629, 870.8154
1110.726, 809.3030
1111.823, 695.3656
1112.920, 620.5691
1114.017, 553.6979
1115.113, 497.8500
1116.210, 430.8937
1117.306, 393.1118
1118.402, 346.3174
1119.498, 390.4813
1120.593, 312.5266
1121.689, 317.8202
1122.784, 292.9836
1123.879, 268.1261
1124.974, 261.7764
1126.069, 232.4792
1127.164, 217.5184
1128.259, 192.9275
1129.353, 170.0227
1130.447, 164.5359
1131.541, 118.2087
1132.635, 86.84229
1133.729, 109.6525
1134.822, 69.74146
1135.916, 78.48865
1137.009, 73.44324
1138.102, 48.42688
1139.195, 34.40601
1140.288, 36.12549
1141.380, 63.19531
1142.473, 42.92212
1143.565, 48.85583
1144.657, 43.93774
1145.749, 28.82812
1146.841, 32.71216
1147.932, 3.590332
1149.024, 4.417480
1150.115, 5.643311
1151.206, 34.60620
1152.297, 12.54785
1153.388, 23.06995
1154.479, 30.72437
1155.569, 6.629272
1156.659, 15.97314
1157.750, 36.33398
1158.839, 1.263672
1159.929, 43.68628
1161.019, 15.20117
1162.108, 11.51697
1163.198, 39.98792
1164.287, 4.691284
1165.376, 31.45850
1166.465, 14.90601
1167.553, 1.284668
1168.642, 9.938110
1169.730, 6.422974
1170.818, 17.28040
1171.906, 2.797729
1172.994, 21.49402
1174.082, 6.103149
1175.170, 1.178467
1176.257, 26.49182
1177.344, 19.09143
1178.431, 25.73279
1179.518, 64.41223
1180.605, 9.971436
1181.691, 8.657837
1182.778, 30.35071
1183.864, 45.95630
1184.950, 34.70032
1186.036, 54.38245
1187.122, 13.96887
1188.207, 42.94543
1189.292, 18.53223
1190.378, 30.08167
1191.463, 20.87512
1192.548, 11.51367
1193.632, 37.20142
1194.717, 30.76086
1195.801, 35.43384
1196.886, 30.01172
1197.970, 32.86218
1199.054, 5.985229
1200.137, 36.54968
1201.221, 0.9978030
1202.305, 3.516235
1203.388, 17.97266
1204.471, 32.48328
1205.554, 8.977905
1206.637, 1.538940
1207.719, 35.94080
1208.802, 4.509277
1209.884, 21.08875
1210.966, 2.417603
1212.048, 6.048340
1213.130, 10.50000
1214.212, 1.856323
1215.293, 21.31909
1216.374, 14.63220
1217.456, 19.77173
1218.536, 8.341064
1219.617, 3.535034
1220.698, 0.3143310
1221.778, 7.098022
1222.859, 6.253906
1223.939, 32.64368
1225.019, 24.20312
1226.099, 44.43372
1227.178, 48.96948
1228.258, 39.34436
1229.337, 16.77417
1230.417, 16.94006
1231.496, 1.655151
1232.574, 20.54211
1233.653, 15.23706
1234.732, 20.43958
1235.810, 23.86511
1236.888, 37.01685
1237.966, 50.07410
1239.044, 54.24243
1240.122, 0.3920900
