##NAMES=Azurite
##RRUFFID=R050638
##IDEAL CHEMISTRY=Cu^2+^_3_(CO_3_)_2_(OH)_2_
##LOCALITY=Zacatecas, Mexico
##OWNER=RRUFF
##SOURCE=University of Arizona Mineral Museum
##DESCRIPTION=Blue bladed crystals
##STATUS=The identification of this mineral has been confirmed by X-ray diffraction and chemical analysis
##URL=rruff.info/R050638
##MEASURED CHEMISTRY=Cu_3.00_(CO_3_)_2_(OH)_2_
##PIN_ID=M00225
##ORIENTATION=Laser parallel to (1 0 1). Fiducial mark perpendicular to laser is parallel to -b [0 -1 0]
73.71400, 0.0000000E+00
74.95100, 42.56567
76.18700, 37.49268
77.42300, 91.47266
78.65900, 349.8625
79.89500, 455.5298
81.13100, 860.2117
82.36700, 1429.406
83.60200, 2254.856
84.83700, 2880.333
86.07200, 2348.084
87.30800, 1747.806
88.54200, 1185.759
89.77700, 762.3865
91.01200, 699.3535
92.24600, 895.9014
93.48000, 697.0994
94.71400, 342.5122
95.94800, 272.6440
97.18200, 10.12646
98.41600, 163.3140
99.64900, 96.11401
100.8830, 292.2517
102.1160, 203.9763
103.3490, 581.1904
104.5820, 1161.818
105.8150, 1831.798
107.0470, 2281.082
108.2800, 2647.587
109.5120, 3498.822
110.7440, 3890.728
111.9760, 2594.430
113.2080, 2314.284
114.4400, 2806.403
115.6710, 3448.869
116.9030, 3401.754
118.1340, 2565.122
119.3650, 1596.029
120.5960, 928.5276
121.8270, 873.6621
123.0580, 1302.473
124.2880, 1988.996
125.5190, 1597.260
126.7490, 1021.296
127.9790, 1045.128
129.2090, 1481.777
130.4390, 2226.263
131.6680, 3044.600
132.8980, 3869.802
134.1270, 4484.885
135.3560, 4786.859
136.5850, 4471.739
137.8140, 3581.535
139.0430, 3031.257
140.2710, 2548.914
141.5000, 2465.005
142.7280, 2419.688
143.9560, 2711.293
145.1840, 2913.426
146.4120, 3158.014
147.6390, 2981.725
148.8670, 2370.256
150.0940, 1711.806
151.3210, 1430.575
152.5490, 1566.808
153.7750, 1677.184
155.0020, 1759.703
156.2290, 1758.089
157.4550, 1890.178
158.6810, 1620.134
159.9080, 1419.200
161.1340, 1189.378
162.3590, 1251.696
163.5850, 1600.154
164.8110, 1787.747
166.0360, 1884.473
167.2610, 2033.325
168.4860, 2390.301
169.7110, 3000.395
170.9360, 3695.603
172.1610, 4461.922
173.3850, 4666.349
174.6100, 4617.881
175.8340, 4090.515
177.0580, 3345.250
178.2820, 2767.081
179.5050, 2488.010
180.7290, 2409.031
181.9520, 2224.138
183.1760, 1983.322
184.3990, 1859.574
185.6220, 1521.210
186.8450, 1480.250
188.0670, 1023.671
189.2900, 1152.147
190.5120, 1272.681
191.7340, 1413.272
192.9560, 1687.924
194.1780, 1787.637
195.4000, 1726.411
196.6220, 1982.247
197.8430, 1963.146
199.0640, 1816.109
200.2860, 1864.135
201.5070, 2053.227
202.7270, 2241.382
203.9480, 2073.603
205.1690, 1188.888
206.3890, 361.2388
207.6090, 87.34497
208.8290, 268.8638
210.0490, 231.3174
211.2690, 170.7051
212.4890, 194.0266
213.7080, 107.2827
214.9280, 22.61816
216.1470, 24.14990
217.3660, 51.81152
218.5850, 122.4856
219.8030, 132.1790
221.0220, 223.0098
222.2400, 184.8970
223.4590, 248.1926
224.6770, 208.0920
225.8950, 176.6860
227.1120, 2.947998
228.3300, 114.7983
229.5480, 337.8530
230.7650, 439.0913
231.9820, 542.4946
233.1990, 657.8235
234.4160, 886.3052
235.6330, 1291.924
236.8490, 1715.668
238.0660, 2357.526
239.2820, 3177.487
240.4980, 3672.536
241.7140, 3809.666
242.9300, 3537.867
244.1460, 3391.133
245.3610, 3630.090
246.5770, 4302.474
247.7920, 5012.910
249.0070, 6130.395
250.2220, 6890.930
251.4370, 6852.510
252.6510, 5991.134
253.8660, 4879.802
255.0800, 3899.497
256.2940, 3107.210
257.5080, 2950.931
258.7220, 2928.649
259.9360, 3615.362
261.1490, 4001.074
262.3630, 3557.787
263.5760, 3642.505
264.7890, 4216.230
266.0020, 4612.963
267.2150, 4801.707
268.4270, 4837.463
269.6400, 4508.233
270.8520, 3928.018
272.0640, 3672.820
273.2760, 3507.639
274.4880, 3450.477
275.7000, 3624.333
276.9120, 3755.210
278.1230, 3949.108
279.3340, 4334.027
280.5450, 4706.967
281.7560, 4871.930
282.9670, 4905.916
284.1780, 4736.927
285.3880, 4336.960
286.5980, 3830.017
287.8090, 3188.868
289.0190, 2476.501
290.2290, 2034.976
291.4380, 1587.418
292.6480, 1240.775
293.8570, 996.9712
295.0670, 747.9773
296.2760, 602.8232
297.4850, 440.6992
298.6930, 386.6240
299.9020, 330.6042
301.1110, 125.6418
302.3190, 143.7383
303.5270, 129.8896
304.7350, 68.10205
305.9430, 99.37891
307.1510, 89.72607
308.3580, 95.14502
309.5660, 145.6316
310.7730, 154.1768
311.9800, 162.7876
313.1870, 262.4619
314.3940, 389.1860
315.6010, 390.9722
316.8070, 463.8179
318.0130, 612.7139
319.2200, 775.6672
320.4260, 961.6702
321.6310, 1094.730
322.8370, 1345.852
324.0430, 1515.016
325.2480, 1798.233
326.4540, 1969.499
327.6590, 2095.825
328.8640, 2319.200
330.0680, 2513.625
331.2730, 2496.099
332.4780, 2666.613
333.6820, 2788.175
334.8860, 2528.778
336.0900, 2402.432
337.2940, 2263.134
338.4980, 1971.880
339.7010, 1816.666
340.9050, 1593.494
342.1080, 1554.374
343.3110, 1484.309
344.5140, 1508.282
345.7170, 1578.304
346.9200, 1585.382
348.1220, 1693.493
349.3240, 1771.655
350.5270, 1957.859
351.7290, 2118.099
352.9310, 2256.267
354.1320, 2375.328
355.3340, 2635.314
356.5350, 3027.578
357.7370, 3219.290
358.9380, 3618.810
360.1390, 4019.858
361.3400, 4412.916
362.5400, 4920.078
363.7410, 5274.171
364.9410, 5957.835
366.1410, 6480.584
367.3410, 7183.521
368.5410, 7693.917
369.7410, 8366.689
370.9400, 9366.212
372.1400, 10063.23
373.3390, 10972.21
374.5380, 12045.23
375.7370, 13023.29
376.9360, 13975.38
378.1350, 15221.51
379.3330, 16301.67
380.5310, 17551.88
381.7300, 18881.11
382.9280, 20076.38
384.1260, 21468.67
385.3230, 22913.00
386.5210, 24475.38
387.7180, 26770.76
388.9160, 28871.20
390.1130, 31759.67
391.3100, 35122.17
392.5060, 38806.71
393.7030, 42280.27
394.9000, 44755.86
396.0960, 48234.47
397.2920, 51558.13
398.4880, 54688.80
399.6840, 57918.50
400.8800, 59941.25
402.0750, 60800.02
403.2710, 58380.79
404.4660, 54061.61
405.6610, 47607.45
406.8560, 40659.32
408.0510, 33959.21
409.2450, 28615.13
410.4400, 23785.08
411.6340, 20187.05
412.8280, 17333.05
414.0220, 14982.07
415.2160, 12992.12
416.4100, 11344.19
417.6030, 9910.290
418.7970, 8555.411
419.9900, 7637.555
421.1830, 6901.722
422.3760, 6155.914
423.5690, 5571.127
424.7610, 5001.364
425.9540, 4486.623
427.1460, 4078.906
428.3380, 3690.209
429.5300, 3401.535
430.7220, 3070.883
431.9140, 2819.253
433.1050, 2503.648
434.2970, 2302.065
435.4880, 2094.508
436.6790, 1876.976
437.8700, 1758.468
439.0610, 1530.986
440.2510, 1292.530
441.4420, 1105.101
442.6320, 1067.944
443.8220, 930.4758
445.0120, 891.3845
446.2020, 828.6680
447.3910, 713.4600
448.5810, 610.3235
449.7700, 558.3723
450.9600, 449.4602
452.1490, 464.5417
453.3370, 394.4395
454.5260, 394.2349
455.7150, 420.7334
456.9030, 338.9873
458.0910, 366.3997
459.2800, 285.2695
460.4670, 296.0920
461.6550, 282.6982
462.8430, 216.6377
464.0300, 226.3638
465.2180, 256.3765
466.4050, 248.0615
467.5920, 178.1345
468.7790, 112.4912
469.9650, 196.4597
471.1520, 215.1470
472.3380, 145.5627
473.5250, 159.5881
474.7110, 182.1384
475.8970, 133.5049
477.0820, 116.9326
478.2680, 108.9639
479.4540, 59.21045
480.6390, 125.6179
481.8240, 14.53687
483.0090, 37.34717
484.1940, 106.0991
485.3780, 15.91724
486.5630, 75.00220
487.7470, 68.38037
488.9320, 4.637695
490.1160, 74.24072
491.3000, 104.8313
492.4830, 34.65186
493.6670, 35.71924
494.8500, 67.77856
496.0340, 17.98975
497.2170, 17.34595
498.4000, 65.61841
499.5820, 50.76172
500.7650, 99.38306
501.9480, 48.85498
503.1300, 36.12598
504.3120, 28.17920
505.4940, 9.458740
506.6760, 51.33643
507.8580, 56.16699
509.0390, 75.80078
510.2210, 59.10938
511.4020, 96.63940
512.5830, 96.03882
513.7640, 170.6179
514.9450, 155.4438
516.1250, 199.8105
517.3060, 129.3760
518.4860, 252.0669
519.6660, 328.9333
520.8460, 258.4014
522.0260, 466.9600
523.2060, 420.3411
524.3850, 549.5256
525.5650, 657.5403
526.7440, 759.8728
527.9230, 892.8262
529.1020, 964.3345
530.2810, 1166.081
531.4590, 1284.243
532.6380, 1435.625
533.8160, 1657.145
534.9940, 1791.715
536.1720, 1973.522
537.3500, 2126.667
538.5270, 2276.701
539.7050, 2282.111
540.8820, 2277.509
542.0590, 2190.443
543.2360, 2073.782
544.4130, 1926.011
545.5900, 1669.050
546.7660, 1486.324
547.9430, 1185.747
549.1190, 1060.776
550.2950, 899.9453
551.4710, 835.0437
552.6470, 642.0796
553.8220, 514.1550
554.9980, 469.1064
556.1730, 438.1455
557.3480, 373.9888
558.5230, 359.8113
559.6980, 326.3979
560.8730, 297.0986
562.0470, 283.3206
563.2220, 261.0261
564.3960, 241.7173
565.5700, 240.4351
566.7440, 208.0977
567.9170, 225.7457
569.0910, 183.3788
570.2640, 161.9967
571.4380, 235.5991
572.6110, 195.1859
573.7840, 215.7567
574.9570, 146.3112
576.1290, 131.8492
577.3020, 91.37061
578.4740, 89.87524
579.6460, 75.36243
580.8180, 76.83228
581.9900, 82.28430
583.1620, 15.28162
584.3330, 24.87927
585.5040, 29.51404
586.6760, 18.18958
587.8470, 40.90039
589.0180, 56.65906
590.1880, 79.47461
591.3590, 84.35986
592.5290, 72.31799
593.7000, 36.34338
594.8700, 65.41772
596.0400, 59.55688
597.2090, 6.758545
598.3790, 55.99536
599.5490, 46.29407
600.7180, 12.65002
601.8870, 40.04614
603.0560, 12.49719
604.2250, 39.98950
605.3940, 59.53784
606.5620, 13.84668
607.7300, 26.79846
608.8990, 14.49438
610.0670, 55.23511
611.2350, 18.04248
612.4020, 12.89771
613.5700, 21.79822
614.7370, 33.25085
615.9050, 9.728760
617.0720, 6.246704
618.2390, 18.81482
619.4060, 12.92603
620.5720, 8.3495997E-02
621.7390, 25.71729
622.9050, 3.486206
624.0710, 26.78162
625.2370, 43.10107
626.4030, 24.51343
627.5690, 18.90576
628.7340, 16.37134
629.9000, 12.10193
631.0650, 36.45520
632.2300, 8.923462
633.3950, 32.26123
634.5600, 10.43274
635.7240, 29.82178
636.8890, 28.04126
638.0530, 35.22485
639.2170, 45.37329
640.3810, 3.489502
641.5450, 35.55933
642.7080, 47.59290
643.8720, 29.59253
645.0350, 25.84741
646.1980, 89.05066
647.3610, 29.91797
648.5240, 41.74622
649.6870, 65.53735
650.8490, 16.29443
652.0120, 70.00684
653.1740, 18.68469
654.3360, 47.31775
655.4980, 25.91260
656.6600, 64.46460
657.8210, 56.98071
658.9830, 47.45972
660.1440, 73.90015
661.3050, 22.30542
662.4660, 81.66565
663.6270, 34.99133
664.7870, 42.27527
665.9480, 87.51880
667.1080, 45.72815
668.2680, 72.89758
669.4280, 57.03101
670.5880, 108.1263
671.7480, 83.18860
672.9070, 72.21570
674.0670, 68.20642
675.2260, 53.75232
676.3850, 109.0752
677.5440, 42.95667
678.7030, 76.80054
679.8610, 84.60803
681.0200, 47.38574
682.1780, 85.12280
683.3360, 95.82458
684.4940, 122.4969
685.6520, 89.13696
686.8090, 76.74341
687.9670, 119.3135
689.1240, 98.85059
690.2810, 106.3535
691.4380, 112.8226
692.5950, 107.0054
693.7520, 126.6394
694.9080, 109.0299
696.0650, 147.3657
697.2210, 149.6696
698.3770, 132.9417
699.5330, 123.1814
700.6880, 166.3884
701.8440, 180.5646
702.9990, 176.7095
704.1550, 156.8232
705.3100, 240.9060
706.4650, 188.9575
707.6190, 259.9785
708.7740, 292.9685
709.9290, 281.9277
711.0830, 257.8562
712.2370, 298.7542
713.3910, 354.6215
714.5450, 349.4583
715.6980, 371.2645
716.8520, 393.0404
718.0050, 425.7860
719.1580, 497.5013
720.3110, 563.1865
721.4640, 564.8416
722.6170, 718.2207
723.7700, 701.9060
724.9220, 833.2101
726.0740, 917.1355
727.2260, 1054.547
728.3780, 1105.882
729.5300, 1260.698
730.6810, 1406.124
731.8330, 1555.224
732.9840, 1745.501
734.1350, 1876.874
735.2860, 2073.538
736.4370, 2236.440
737.5880, 2362.176
738.7380, 2540.448
739.8880, 2621.760
741.0390, 2736.280
742.1890, 2691.460
743.3380, 2692.845
744.4880, 2624.936
745.6380, 2650.345
746.7870, 2617.359
747.9360, 2747.081
749.0850, 2784.181
750.2340, 2957.554
751.3830, 3126.191
752.5310, 3412.209
753.6800, 3851.693
754.8280, 4256.352
755.9760, 4634.955
757.1240, 5315.139
758.2720, 5679.799
759.4190, 6208.837
760.5670, 6709.893
761.7140, 7094.942
762.8610, 7388.307
764.0080, 7433.432
765.1550, 7519.275
766.3020, 7287.533
767.4480, 6942.185
768.5950, 6419.496
769.7410, 5816.791
770.8870, 5112.841
772.0330, 4628.018
773.1780, 4009.808
774.3240, 3523.466
775.4690, 3173.041
776.6140, 2713.754
777.7590, 2407.819
778.9040, 2133.435
780.0490, 1959.052
781.1940, 1711.899
782.3380, 1546.898
783.4820, 1359.854
784.6260, 1239.105
785.7700, 1120.429
786.9140, 991.9990
788.0580, 1011.932
789.2010, 834.6970
790.3450, 840.6360
791.4880, 740.4312
792.6310, 712.9760
793.7730, 705.9648
794.9160, 717.7405
796.0590, 701.3755
797.2010, 633.8203
798.3430, 639.6484
799.4850, 609.3706
800.6270, 591.2551
801.7690, 595.3201
802.9100, 654.5402
804.0520, 676.4264
805.1930, 683.6758
806.3340, 772.3552
807.4750, 809.7798
808.6160, 858.7731
809.7560, 919.5302
810.8970, 964.6660
812.0370, 1017.579
813.1770, 1070.952
814.3170, 1135.881
815.4570, 1192.661
816.5960, 1208.645
817.7360, 1220.723
818.8750, 1226.189
820.0140, 1192.839
821.1530, 1189.696
822.2920, 1172.697
823.4310, 1339.659
824.5690, 1449.156
825.7070, 1643.030
826.8460, 1837.746
827.9840, 2144.516
829.1220, 2487.330
830.2590, 2784.085
831.3970, 3124.949
832.5340, 3499.706
833.6710, 3927.642
834.8080, 4214.579
835.9450, 4627.442
837.0820, 4766.256
838.2190, 5107.244
839.3550, 5178.225
840.4910, 5127.203
841.6270, 4987.136
842.7630, 4778.104
843.8990, 4371.071
845.0350, 3948.032
846.1700, 3477.990
847.3060, 2999.945
848.4410, 2494.896
849.5760, 2117.845
850.7100, 1780.791
851.8450, 1583.734
852.9800, 1300.674
854.1140, 1146.612
855.2480, 917.5487
856.3820, 798.4827
857.5160, 725.4153
858.6500, 606.3457
859.7830, 497.2817
860.9170, 509.2261
862.0500, 403.1799
863.1830, 349.1412
864.3160, 243.1161
865.4480, 244.1091
866.5810, 231.1267
867.7130, 190.1704
868.8460, 127.2378
869.9780, 172.3193
871.1100, 162.4233
872.2410, 91.54846
873.3730, 100.6814
874.5050, 62.83508
875.6360, 135.0076
876.7670, 69.19031
877.8980, 74.39246
879.0290, 95.60693
880.1590, 72.83984
881.2900, 95.09705
882.4200, 86.16431
883.5500, 61.63757
884.6800, 64.92883
885.8100, 62.24402
886.9400, 28.86096
888.0690, 7.207520
889.1990, 18.57312
890.3280, 10.94421
891.4570, 0.6684570
892.5860, 10.27222
893.7140, 15.86060
894.8430, 28.56299
895.9710, 8.998413
897.1000, 30.55908
898.2280, 37.11304
899.3560, 35.34192
900.4830, 29.82141
901.6110, 49.69128
902.7380, 37.79968
903.8660, 0.6916500
904.9930, 45.82764
906.1200, 15.37061
907.2460, 16.07446
908.3730, 2.485107
909.5000, 41.06250
910.6260, 31.65076
911.7520, 51.24841
912.8780, 9.142334
914.0040, 8.523071
915.1290, 26.11340
916.2550, 1.240479
917.3800, 5.416382
918.5050, 4.916260
919.6300, 20.77319
920.7550, 18.23462
921.8800, 33.19495
923.0040, 39.92126
924.1290, 41.66370
925.2530, 72.41968
926.3770, 55.18872
927.5010, 78.97107
928.6250, 44.76392
929.7480, 119.5760
930.8720, 94.39709
931.9950, 102.2277
933.1180, 105.0730
934.2410, 97.92725
935.3640, 132.7955
936.4860, 107.6826
937.6090, 71.58215
938.7310, 143.4933
939.8530, 137.4167
940.9750, 91.35327
942.0970, 113.2991
943.2180, 90.26123
944.3400, 121.2333
945.4610, 60.22266
946.5820, 38.22229
947.7030, 55.23230
948.8240, 6.258545
949.9450, 25.70691
951.0650, 26.33875
952.1860, 36.60535
953.3060, 34.45129
954.4260, 5.520996
955.5460, 34.39709
956.6650, 4.315674
957.7850, 12.22314
958.9040, 28.87622
960.0230, 29.98608
961.1420, 36.10669
962.2610, 35.24695
963.3800, 38.23376
964.4990, 38.15857
965.6170, 30.74231
966.7350, 45.92566
967.8530, 20.11865
968.9710, 42.32068
970.0890, 54.53101
971.2070, 52.75134
972.3240, 68.98096
973.4410, 69.21887
974.5580, 40.46533
975.6750, 25.72083
976.7920, 49.98523
977.9090, 61.25806
979.0250, 49.53918
980.1410, 17.82922
981.2580, 92.13110
982.3740, 89.44214
983.4890, 139.7617
984.6050, 70.08960
985.7200, 73.42676
986.8360, 58.77246
987.9510, 89.12671
989.0660, 100.4897
990.1810, 60.86133
991.2950, 61.24170
992.4100, 92.63062
993.5240, 85.02820
994.6390, 57.43445
995.7530, 33.84924
996.8660, 39.27258
997.9800, 78.70447
999.0940, 63.14478
1000.207, 51.59338
1001.320, 42.05029
1002.433, 46.51550
1003.546, 60.98926
1004.659, 66.47119
1005.772, 77.96094
1006.884, 15.45886
1007.996, 30.96436
1009.108, 19.47791
1010.220, 42.00720
1011.332, 72.84509
1012.444, 34.66138
1013.555, 3.214355
1014.666, 30.81006
1015.777, 59.37781
1016.888, 28.95483
1017.999, 69.53870
1019.110, 16.12976
1020.220, 9.272095
1021.331, 27.09546
1022.441, 49.31970
1023.551, 77.03149
1024.661, 63.24146
1025.770, 51.85632
1026.880, 39.45312
1027.989, 41.15601
1029.098, 38.92139
1030.207, 65.14233
1031.316, 40.90833
1032.425, 82.41260
1033.533, 76.08618
1034.642, 56.76538
1035.750, 76.74756
1036.858, 60.43823
1037.966, 54.11768
1039.073, 62.82031
1040.181, 53.52942
1041.288, 96.86169
1042.396, 135.6677
1043.503, 121.6829
1044.610, 97.41406
1045.716, 129.7209
1046.823, 84.07471
1047.929, 118.6403
1049.036, 101.3931
1050.142, 168.7340
1051.248, 182.4968
1052.353, 161.1765
1053.459, 143.1031
1054.564, 141.9165
1055.670, 139.6987
1056.775, 156.3881
1057.880, 161.2780
1058.985, 145.0861
1060.089, 205.8840
1061.194, 220.7841
1062.298, 287.1621
1063.402, 285.7991
1064.506, 230.7869
1065.610, 273.5626
1066.713, 269.4257
1067.817, 235.3066
1068.920, 345.5487
1070.023, 387.4252
1071.126, 387.2622
1072.229, 365.9625
1073.332, 393.1355
1074.435, 398.9818
1075.537, 412.0942
1076.639, 464.2812
1077.741, 559.0758
1078.843, 582.9780
1079.945, 632.9036
1081.046, 801.8301
1082.148, 848.6958
1083.249, 978.0337
1084.350, 1111.976
1085.451, 1444.026
1086.551, 1662.082
1087.652, 1977.428
1088.752, 2507.250
1089.853, 3090.822
1090.953, 3696.405
1092.053, 4458.329
1093.152, 5050.624
1094.252, 5760.850
1095.351, 6236.142
1096.451, 6538.031
1097.550, 6509.014
1098.649, 5948.927
1099.748, 5065.857
1100.846, 4187.827
1101.945, 3218.721
1103.043, 2492.804
1104.141, 1959.756
1105.239, 1580.651
1106.337, 1227.634
1107.434, 1057.664
1108.532, 839.6230
1109.629, 751.5183
1110.726, 634.4131
1111.823, 571.4127
1112.920, 503.0535
1114.017, 438.0963
1115.113, 421.9907
1116.210, 361.9049
1117.306, 410.9283
1118.402, 393.8213
1119.498, 470.7870
1120.593, 411.6945
1121.689, 425.5851
1122.784, 411.5562
1123.879, 414.4447
1124.974, 356.3323
1126.069, 327.3123
1127.164, 274.1975
1128.259, 259.0817
1129.353, 213.0496
1130.447, 173.9310
1131.541, 154.3242
1132.635, 138.7832
1133.729, 108.7177
1134.822, 46.79858
1135.916, 25.69519
1137.009, 67.62927
1138.102, 31.63428
1139.195, 83.53467
1140.288, 46.54358
1141.380, 28.30652
1142.473, 0.3022460
1143.565, 0.9202880
1144.657, 32.35571
1145.749, 8.423584
1146.841, 46.27100
1147.932, 42.60364
1149.024, 36.51465
1150.115, 39.47510
1151.206, 42.44763
1152.297, 7.917847
1153.388, 5.092896
1154.479, 6.723755
1155.569, 4.463745
1156.659, 33.36060
1157.750, 4.161987
1158.839, 6.059326
1159.929, 37.92322
1161.019, 59.73596
1162.108, 58.56885
1163.198, 35.35901
1164.287, 31.15112
1165.376, 52.96558
1166.465, 10.75134
1167.553, 48.60449
1168.642, 51.55725
1169.730, 36.47156
1170.818, 21.51880
1171.906, 14.39343
1172.994, 7.344238
1174.082, 2.112427
1175.170, 44.04272
1176.257, 3.034058
1177.344, 7.158936
1178.431, 10.49402
1179.518, 40.60632
1180.605, 3.531006
1181.691, 21.27087
1182.778, 40.98169
1183.864, 30.17175
1184.950, 10.61816
1186.036, 16.36914
1187.122, 25.79309
1188.207, 20.01111
1189.292, 12.26929
1190.378, 35.47327
1191.463, 8.248413
1192.548, 20.04517
1193.632, 28.78088
1194.717, 32.70105
1195.801, 9.537598
1196.886, 13.30237
1197.970, 10.94019
1199.054, 34.26013
1200.137, 14.42224
1201.221, 33.34985
1202.305, 7.890503
1203.388, 1.852295
1204.471, 63.36487
1205.554, 14.85132
1206.637, 1.638916
1207.719, 26.25330
1208.802, 19.27625
1209.884, 14.89648
1210.966, 11.44702
1212.048, 32.09509
1213.130, 14.36389
1214.212, 15.04822
1215.293, 0.5885010
1216.374, 5.154907
1217.456, 1.205688
1218.536, 20.58472
1219.617, 6.885864
1220.698, 63.64917
1221.778, 26.23926
1222.859, 0.3308110
1223.939, 33.55957
1225.019, 17.97754
1226.099, 56.23035
1227.178, 16.54419
1228.258, 34.02698
1229.337, 30.49768
1230.417, 22.09033
1231.496, 61.59924
1232.574, 3.965210
1233.653, 28.36389
1234.732, 57.68628
1235.810, 22.10278
1236.888, 11.37866
1237.966, 28.68799
1239.044, 65.00488
1240.122, 91.36304
1241.199, 20.68689
1242.277, 7.948242
1243.354, 11.39319
1244.431, 72.67920
1245.508, 42.98108
1246.585, 17.25757
1247.661, 82.49548
1248.738, 31.76221
1249.814, 45.98572
1250.890, 55.20459
1251.966, 31.41956
1253.042, 56.63025
1254.117, 59.83838
1255.193, 30.04175
1256.268, 70.24084
1257.343, 88.43616
1258.418, 33.62781
