##NAMES=Azurite
##RRUFFID=R050638
##IDEAL CHEMISTRY=Cu^2+^_3_(CO_3_)_2_(OH)_2_
##LOCALITY=Zacatecas, Mexico
##OWNER=RRUFF
##SOURCE=University of Arizona Mineral Museum
##DESCRIPTION=Blue bladed crystals
##STATUS=The identification of this mineral has been confirmed by X-ray diffraction and chemical analysis
##URL=rruff.info/R050638
##MEASURED CHEMISTRY=Cu_3.00_(CO_3_)_2_(OH)_2_
##PIN_ID=M00496
##ORIENTATION=Laser parallel to -b* (0 -1 0). Fiducial mark perpendicular to laser is parallel to -c [0 0 -1]
52.67100, 0.0000000E+00
53.91000, 37.11774
55.14900, 97.11768
56.38700, 106.9479
57.62600, 98.86749
58.86400, 179.0122
60.10300, 98.95654
61.34100, 71.12164
62.57900, 19.50006
63.81700, 24.24091
65.05400, 38.44482
66.29200, 10.43982
67.52900, 42.47791
68.76700, 200.0477
70.00400, 571.0640
71.24100, 1090.356
72.47700, 1142.757
73.71400, 1122.100
74.95100, 1404.224
76.18700, 2003.990
77.42300, 2925.268
78.65900, 3651.950
79.89500, 5703.936
81.13100, 9582.143
82.36700, 17261.49
83.60200, 25629.92
84.83700, 24336.39
86.07200, 15454.96
87.30800, 8929.566
88.54200, 5504.152
89.77700, 3965.654
91.01200, 3166.996
92.24600, 3123.098
93.48000, 2765.892
94.71400, 2215.323
95.94800, 2274.353
97.18200, 1869.945
98.41600, 1734.072
99.64900, 1772.708
100.8830, 1946.833
102.1160, 1781.428
103.3490, 1664.477
104.5820, 1816.963
105.8150, 2160.875
107.0470, 3009.200
108.2800, 4149.926
109.5120, 6386.044
110.7440, 8701.547
111.9760, 10807.42
113.2080, 12751.66
114.4400, 9708.253
115.6710, 6357.408
116.9030, 4363.685
118.1340, 3016.114
119.3650, 2357.026
120.5960, 1731.161
121.8270, 1603.516
123.0580, 1614.092
124.2880, 1978.889
125.5190, 1729.909
126.7490, 1794.097
127.9790, 2291.283
129.2090, 3448.452
130.4390, 6058.605
131.6680, 5822.413
132.8980, 9317.863
134.1270, 6405.021
135.3560, 4787.257
136.5850, 4682.583
137.8140, 6136.010
139.0430, 8409.551
140.2710, 9082.209
141.5000, 7117.997
142.7280, 5662.917
143.9560, 4942.976
145.1840, 4103.177
146.4120, 3094.524
147.6390, 2692.020
148.8670, 2487.667
150.0940, 2700.468
151.3210, 3644.424
152.5490, 5678.537
153.7750, 7868.806
155.0020, 8099.234
156.2290, 6066.820
157.4550, 3714.565
158.6810, 2297.469
159.9080, 1714.533
161.1340, 1401.755
162.3590, 1333.134
163.5850, 1580.671
164.8110, 1941.364
166.0360, 2534.212
167.2610, 3307.216
168.4860, 4692.375
169.7110, 6707.687
170.9360, 8794.149
172.1610, 8453.767
173.3850, 6569.539
174.6100, 5148.460
175.8340, 5105.531
177.0580, 6247.895
178.2820, 8609.955
179.5050, 9733.914
180.7290, 7822.912
181.9520, 5280.309
183.1760, 3554.289
184.3990, 2679.606
185.6220, 2398.042
186.8450, 2277.553
188.0670, 2412.230
189.2900, 2659.077
190.5120, 2879.076
191.7340, 3353.221
192.9560, 3767.508
194.1780, 3951.938
195.4000, 3736.513
196.6220, 3419.242
197.8430, 3087.161
199.0640, 2801.235
200.2860, 2722.954
201.5070, 2730.387
202.7270, 2852.616
203.9480, 2574.791
205.1690, 1760.318
206.3890, 850.4058
207.6090, 587.5466
208.8290, 651.3550
210.0490, 824.9077
211.2690, 1058.704
212.4890, 1234.876
213.7080, 1222.825
214.9280, 1320.207
216.1470, 1141.857
217.3660, 898.7642
218.5850, 659.9185
219.8030, 627.3093
221.0220, 499.9282
222.2400, 469.7661
223.4590, 479.8154
224.6770, 322.0691
225.8950, 461.5208
227.1120, 588.1641
228.3300, 643.9939
229.5480, 868.0044
230.7650, 1140.192
231.9820, 1527.549
233.1990, 2148.074
234.4160, 3144.760
235.6330, 4667.603
236.8490, 6057.599
238.0660, 6431.744
239.2820, 6119.035
240.4980, 5849.469
241.7140, 6346.042
242.9300, 7981.755
244.1460, 11097.60
245.3610, 16988.57
246.5770, 25832.69
247.7920, 33486.92
249.0070, 30600.28
250.2220, 20725.77
251.4370, 12256.38
252.6510, 7367.112
253.8660, 4484.963
255.0800, 3052.930
256.2940, 2079.011
257.5080, 1652.207
258.7220, 1545.515
259.9360, 2076.933
261.1490, 2426.461
262.3630, 2035.096
263.5760, 2068.831
264.7890, 2260.664
266.0020, 2046.591
267.2150, 1651.611
268.4270, 1260.725
269.6400, 1026.930
270.8520, 1058.226
272.0640, 1125.612
273.2760, 1295.087
274.4880, 1721.652
275.7000, 2348.306
276.9120, 3212.050
278.1230, 4048.885
279.3340, 4737.811
280.5450, 5212.827
281.7560, 5140.933
282.9670, 4766.129
284.1780, 4129.415
285.3880, 3448.790
286.5980, 2956.254
287.8090, 2311.807
289.0190, 1958.447
290.2290, 1654.175
291.4380, 1295.990
292.6480, 901.8911
293.8570, 718.8782
295.0670, 390.9502
296.2760, 287.1064
297.4850, 135.3472
298.6930, 12.67383
299.9020, 74.67358
301.1110, 162.5552
302.3190, 234.8728
303.5270, 244.2688
304.7350, 299.6157
305.9430, 254.9087
307.1510, 250.1575
308.3580, 358.3552
309.5660, 318.5173
310.7730, 233.6492
311.9800, 92.82349
313.1870, 130.7119
314.3940, 57.41357
315.6010, 2.849854
316.8070, 122.4985
318.0130, 317.1313
319.2200, 426.7234
320.4260, 671.2419
321.6310, 942.5593
322.8370, 1309.004
324.0430, 1667.305
325.2480, 2155.005
326.4540, 2946.705
327.6590, 3525.369
328.8640, 4302.056
330.0680, 4904.801
331.2730, 5196.632
332.4780, 4867.554
333.6820, 4314.715
334.8860, 3681.808
336.0900, 2918.178
337.2940, 2362.451
338.4980, 1808.072
339.7010, 1339.459
340.9050, 1228.319
342.1080, 1021.917
343.3110, 934.1497
344.5140, 724.3252
345.7170, 776.1724
346.9200, 799.1350
348.1220, 716.2026
349.3240, 818.3677
350.5270, 907.6443
351.7290, 1036.021
352.9310, 1111.498
354.1320, 1287.081
355.3340, 1415.787
356.5350, 1728.028
357.7370, 2084.938
358.9380, 2390.936
360.1390, 2793.030
361.3400, 3228.198
362.5400, 3611.453
363.7410, 4145.804
364.9410, 4561.222
366.1410, 4956.718
367.3410, 5187.294
368.5410, 5578.946
369.7410, 5739.680
370.9400, 6240.490
372.1400, 6716.373
373.3390, 7584.328
374.5380, 8257.360
375.7370, 9406.465
376.9360, 10203.64
378.1350, 11324.89
379.3330, 12377.21
380.5310, 13319.59
381.7300, 14107.04
382.9280, 14671.57
384.1260, 15438.15
385.3230, 15834.80
386.5210, 16169.52
387.7180, 16899.31
388.9160, 17452.15
390.1130, 18604.05
391.3100, 20288.02
392.5060, 22185.05
393.7030, 24924.14
394.9000, 28417.28
396.0960, 33709.48
397.2920, 39070.75
398.4880, 44648.05
399.6840, 47916.41
400.8800, 47407.83
402.0750, 44231.29
403.2710, 38171.81
404.4660, 32818.38
405.6610, 27658.00
406.8560, 23455.67
408.0510, 20489.38
409.2450, 17935.14
410.4400, 16089.95
411.6340, 14502.81
412.8280, 12797.71
414.0220, 11216.65
415.2160, 9836.638
416.4100, 8617.670
417.6030, 7748.745
418.7970, 6842.859
419.9900, 6085.015
421.1830, 5397.213
422.3760, 4795.453
423.5690, 4316.729
424.7610, 3769.047
425.9540, 3439.403
427.1460, 3129.797
428.3380, 2847.229
429.5300, 2578.616
430.7220, 2339.203
431.9140, 2104.744
433.1050, 1900.321
434.2970, 1708.933
435.4880, 1500.579
436.6790, 1355.259
437.8700, 1125.971
439.0610, 981.7170
440.2510, 835.4946
441.4420, 720.8284
442.6320, 593.8718
443.8220, 507.4741
445.0120, 372.0901
446.2020, 301.4958
447.3910, 213.3843
448.5810, 218.7090
449.7700, 109.8193
450.9600, 117.7139
452.1490, 59.15967
453.3370, 45.63696
454.5260, 21.86035
455.7150, 27.84009
456.9030, 2.656494
458.0910, 56.44043
459.2800, 8.989502
460.4670, 4.824463
461.6550, 28.75757
462.8430, 32.01880
464.0300, 15.37012
465.2180, 15.34351
466.4050, 10.03955
467.5920, 23.29932
468.7790, 13.54639
469.9650, 21.82959
471.1520, 54.95557
472.3380, 58.94263
473.5250, 48.03589
474.7110, 31.99585
475.8970, 7.243164
477.0820, 34.36304
478.2680, 6.715088
479.4540, 15.63330
480.6390, 43.45679
481.8240, 57.07373
483.0090, 43.53467
484.1940, 18.86304
485.3780, 1.149170
486.5630, 5.004883
487.7470, 26.68994
488.9320, 25.96216
490.1160, 51.67749
491.3000, 58.65088
492.4830, 61.22217
493.6670, 99.48462
494.8500, 59.22705
496.0340, 106.8745
497.2170, 73.05859
498.4000, 12.83228
499.5820, 36.81445
500.7650, 44.46997
501.9480, 33.48975
503.1300, 46.97485
504.3120, 57.63892
505.4940, 34.32178
506.6760, 62.01050
507.8580, 59.34985
509.0390, 60.71436
510.2210, 76.40771
511.4020, 67.65820
512.5830, 75.90723
513.7640, 76.18115
514.9450, 70.29468
516.1250, 131.0796
517.3060, 169.8975
518.4860, 219.2266
519.6660, 201.9646
520.8460, 254.9180
522.0260, 364.1133
523.2060, 336.5425
524.3850, 404.5991
525.5650, 431.0908
526.7440, 498.4878
527.9230, 578.2175
529.1020, 721.7375
530.2810, 822.4905
531.4590, 1009.459
532.6380, 1237.531
533.8160, 1464.158
534.9940, 1760.290
536.1720, 2077.746
537.3500, 2373.228
538.5270, 2527.641
539.7050, 2721.742
540.8820, 2793.192
542.0590, 2591.629
543.2360, 2277.322
544.4130, 2166.481
545.5900, 1835.799
546.7660, 1625.593
547.9430, 1347.211
549.1190, 1108.678
550.2950, 1008.738
551.4710, 880.7742
552.6470, 768.8091
553.8220, 666.8018
554.9980, 656.7720
556.1730, 522.7192
557.3480, 521.6433
558.5230, 433.5435
559.6980, 414.4199
560.8730, 384.2716
562.0470, 298.0986
563.2220, 389.9009
564.3960, 290.6772
565.5700, 280.4280
566.7440, 285.1526
567.9170, 302.8507
569.0910, 309.5220
570.2640, 321.1660
571.4380, 315.1298
572.6110, 263.3717
573.7840, 269.9324
574.9570, 216.4647
576.1290, 133.9681
577.3020, 168.4426
578.4740, 173.8878
579.6460, 101.3032
580.8180, 110.6887
581.9900, 42.04382
583.1620, 54.36279
584.3330, 14.64771
585.5040, 41.89648
586.6760, 22.13013
587.8470, 26.35498
589.0180, 43.42639
590.1880, 38.76306
591.3590, 4.9316000E-02
592.5290, 21.87817
593.7000, 38.28455
594.8700, 30.54370
596.0400, 40.30627
597.2090, 19.66467
598.3790, 17.51733
599.5490, 1.359253
600.7180, 24.12085
601.8870, 53.56519
603.0560, 16.95667
604.2250, 13.25427
605.3940, 51.33032
606.5620, 23.53564
607.7300, 23.64758
608.8990, 21.24048
610.0670, 20.90454
611.2350, 18.35974
612.4020, 14.42847
613.5700, 15.28564
614.7370, 44.21265
615.9050, 0.2252200
617.0720, 29.45654
618.2390, 20.38965
619.4060, 25.01929
620.5720, 8.322754
621.7390, 32.96082
622.9050, 13.64111
624.0710, 20.21240
625.2370, 49.79565
626.4030, 11.01379
627.5690, 8.166504
628.7340, 48.95325
629.9000, 7.829346
631.0650, 34.22839
632.2300, 20.76550
633.3950, 26.16638
634.5600, 12.04443
635.7240, 21.13599
636.8890, 45.39136
638.0530, 22.73462
639.2170, 88.42297
640.3810, 53.96045
641.5450, 43.44885
642.7080, 58.87659
643.8720, 17.26550
645.0350, 55.59656
646.1980, 55.86426
647.3610, 66.09668
648.5240, 47.28113
649.6870, 42.41418
650.8490, 33.49487
652.0120, 33.74512
653.1740, 80.49292
654.3360, 39.41846
655.4980, 54.15161
656.6600, 52.70312
657.8210, 30.88281
658.9830, 56.59790
660.1440, 46.26257
661.3050, 35.87500
662.4660, 72.43298
663.6270, 40.94299
664.7870, 68.39966
665.9480, 73.80774
667.1080, 55.67798
668.2680, 65.78943
669.4280, 53.73792
670.5880, 42.94727
671.7480, 91.10364
672.9070, 58.21448
674.0670, 86.27515
675.2260, 66.28979
676.3850, 137.2555
677.5440, 144.1807
678.7030, 85.06604
679.8610, 136.9052
681.0200, 136.7039
682.1780, 112.4623
683.3360, 192.1779
684.4940, 145.8557
685.6520, 100.4938
686.8090, 113.0880
687.9670, 123.6399
689.1240, 170.1504
690.2810, 179.6234
691.4380, 167.0590
692.5950, 206.4568
693.7520, 233.8176
694.9080, 197.1412
696.0650, 199.4281
697.2210, 259.6782
698.3770, 221.8916
699.5330, 246.0685
700.6880, 308.2089
701.8440, 260.3129
702.9990, 249.3807
704.1550, 328.4126
705.3100, 307.4084
706.4650, 357.3684
707.6190, 306.2928
708.7740, 346.1816
709.9290, 405.0350
711.0830, 388.8533
712.2370, 430.6362
713.3910, 487.3845
714.5450, 462.0978
715.6980, 535.7764
716.8520, 566.4204
718.0050, 566.0300
719.1580, 680.6055
720.3110, 730.1471
721.4640, 813.1301
722.6170, 929.3149
723.7700, 990.2898
724.9220, 1093.117
726.0740, 1263.266
727.2260, 1385.498
728.3780, 1586.938
729.5300, 1752.429
730.6810, 1951.297
731.8330, 2271.824
732.9840, 2650.112
734.1350, 3003.959
735.2860, 3479.154
736.4370, 3793.732
737.5880, 4048.259
738.7380, 4174.975
739.8880, 4072.053
741.0390, 4060.219
742.1890, 3795.673
743.3380, 3557.295
744.4880, 3324.492
745.6380, 3097.401
746.7870, 2875.267
747.9360, 2728.223
749.0850, 2679.136
750.2340, 2653.212
751.3830, 2729.419
752.5310, 2810.513
753.6800, 2921.741
754.8280, 3259.676
755.9760, 3667.729
757.1240, 4092.542
758.2720, 4761.780
759.4190, 5284.017
760.5670, 6021.759
761.7140, 6480.331
762.8610, 6716.025
764.0080, 7208.824
765.1550, 7088.043
766.3020, 6904.419
767.4480, 7018.200
768.5950, 6224.105
769.7410, 5669.343
770.8870, 5058.031
772.0330, 4449.263
773.1780, 4162.030
774.3240, 3413.364
775.4690, 2636.149
776.6140, 2269.332
777.7590, 2046.289
778.9040, 1830.560
780.0490, 1650.551
781.1940, 1479.911
782.3380, 1341.078
783.4820, 1199.260
784.6260, 1091.421
785.7700, 994.7683
786.9140, 882.6948
788.0580, 880.4749
789.2010, 764.0081
790.3450, 742.5254
791.4880, 677.0005
792.6310, 636.6184
793.7730, 634.5468
794.9160, 614.4242
796.0590, 627.7717
797.2010, 576.6917
798.3430, 635.3771
799.4850, 620.8015
800.6270, 594.9727
801.7690, 693.4965
802.9100, 602.5656
804.0520, 710.7094
805.1930, 670.4998
806.3340, 709.4795
807.4750, 825.2053
808.6160, 883.6946
809.7560, 1014.059
810.8970, 1243.848
812.0370, 1435.109
813.1770, 1639.026
814.3170, 2012.893
815.4570, 2303.807
816.5960, 2518.012
817.7360, 2473.846
818.8750, 2237.668
820.0140, 1962.213
821.1530, 1721.267
822.2920, 1712.141
823.4310, 1700.515
824.5690, 1834.041
825.7070, 2173.694
826.8460, 2433.732
827.9840, 2863.768
829.1220, 3215.782
830.2590, 3283.814
831.3970, 3481.844
832.5340, 3655.872
833.6710, 3699.899
834.8080, 3786.925
835.9450, 3973.950
837.0820, 3886.974
838.2190, 4023.998
839.3550, 3910.021
840.4910, 3714.044
841.6270, 3491.069
842.7630, 3189.093
843.8990, 2820.118
845.0350, 2584.144
846.1700, 2222.170
847.3060, 1867.199
848.4410, 1534.229
849.5760, 1465.260
850.7100, 1249.293
851.8450, 1037.329
852.9800, 924.3669
854.1140, 744.4072
855.2480, 691.4504
856.3820, 519.4968
857.5160, 508.5464
858.6500, 432.6022
859.7830, 366.6719
860.9170, 272.9031
862.0500, 285.9825
863.1830, 255.0723
864.3160, 190.1720
865.4480, 204.3335
866.5810, 190.4685
867.7130, 195.6196
868.8460, 144.7122
869.9780, 111.6655
871.1100, 111.9996
872.2410, 60.28149
873.3730, 17.66833
874.5050, 22.43726
875.6360, 74.09729
876.7670, 32.41479
877.8980, 54.99329
879.0290, 98.44360
880.1590, 63.21667
881.2900, 53.64746
882.4200, 49.99084
883.5500, 52.50562
884.6800, 65.01221
885.8100, 85.40918
886.9400, 92.95923
888.0690, 95.71094
889.1990, 111.4038
890.3280, 92.79797
891.4570, 78.47095
892.5860, 69.18103
893.7140, 75.90833
894.8430, 92.66333
895.9710, 72.44312
897.1000, 75.85547
898.2280, 71.72510
899.3560, 125.5176
900.4830, 119.9697
901.6110, 50.89087
902.7380, 135.0396
903.8660, 148.0255
904.9930, 214.0345
906.1200, 146.0593
907.2460, 206.1122
908.3730, 184.1818
909.5000, 177.2704
910.6260, 213.3866
911.7520, 186.5365
912.8780, 150.7146
914.0040, 243.9084
915.1290, 247.1316
916.2550, 291.3706
917.3800, 341.6250
918.5050, 351.8986
919.6300, 478.1870
920.7550, 438.4906
921.8800, 538.8083
923.0040, 594.1447
924.1290, 732.4976
925.2530, 792.8694
926.3770, 906.2594
927.5010, 997.6630
928.6250, 1267.084
929.7480, 1358.525
930.8720, 1473.982
931.9950, 1768.458
933.1180, 1947.953
934.2410, 2104.466
935.3640, 2190.997
936.4860, 2232.919
937.6090, 2253.110
938.7310, 2192.691
939.8530, 2051.288
940.9750, 1959.903
942.0970, 1879.534
943.2180, 1641.181
944.3400, 1507.847
945.4610, 1312.528
946.5820, 1124.225
947.7030, 1016.944
948.8240, 843.6848
949.9450, 698.4385
951.0650, 735.2080
952.1860, 588.9929
953.3060, 525.0420
954.4260, 494.6002
955.5460, 390.4241
956.6650, 375.2659
957.7850, 384.1250
958.9040, 336.9987
960.0230, 314.8862
961.1420, 295.7871
962.2610, 297.7062
963.3800, 289.6367
964.4990, 208.5828
965.6170, 225.5405
966.7350, 211.5121
967.8530, 224.4955
968.9710, 234.4906
970.0890, 168.4987
971.2070, 160.5181
972.3240, 156.5490
973.4410, 173.5917
974.5580, 121.6454
975.6750, 213.7104
976.7920, 157.7932
977.9090, 174.8872
979.0250, 147.9926
980.1410, 123.1094
981.2580, 136.2378
982.3740, 75.37720
983.4890, 81.52747
984.6050, 46.68884
985.7200, 28.86157
986.8360, 46.83325
987.9510, 34.23999
989.0660, 76.44727
990.1810, 70.66589
991.2950, 72.89563
992.4100, 6.136597
993.5240, 0.3887940
994.6390, 9.348267
995.7530, 12.92407
996.8660, 4.207275
997.9800, 39.50146
999.0940, 37.19141
1000.207, 30.11707
1001.320, 10.43652
1002.433, 33.23230
1003.546, 28.89905
1004.659, 6.563232
1005.772, 2.219238
1006.884, 6.866089
1007.996, 30.50452
1009.108, 17.85852
1010.220, 44.38745
1011.332, 60.21252
1012.444, 56.84180
1013.555, 14.48120
1014.666, 19.88452
1015.777, 28.74146
1016.888, 32.17590
1017.999, 27.23669
1019.110, 70.38293
1020.220, 14.69507
1021.331, 13.71350
1022.441, 34.96899
1023.551, 22.36194
1024.661, 23.31763
1025.770, 15.64648
1026.880, 4.156006
1027.989, 17.54761
1029.098, 12.20618
1030.207, 39.39001
1031.316, 1.005127
1032.425, 24.04639
1033.533, 14.59131
1034.642, 5.255859
1035.750, 3.736694
1036.858, 43.10205
1037.966, 19.51575
1039.073, 48.92920
1040.181, 45.61719
1041.288, 71.03894
1042.396, 92.46448
1043.503, 41.89905
1044.610, 37.33228
1045.716, 77.76965
1046.823, 91.10364
1047.929, 89.02002
1049.036, 93.46753
1050.142, 116.0784
1051.248, 126.5316
1052.353, 98.98816
1053.459, 147.4475
1054.564, 101.9097
1055.670, 77.80762
1056.775, 158.2753
1057.880, 136.9658
1058.985, 157.4945
1060.089, 136.9944
1061.194, 144.4719
1062.298, 172.6588
1063.402, 229.2021
1064.506, 204.6855
1065.610, 195.8141
1066.713, 178.3971
1067.817, 277.0027
1068.920, 255.5800
1070.023, 304.1570
1071.126, 359.7542
1072.229, 396.3384
1073.332, 382.9786
1074.435, 463.5355
1075.537, 467.0806
1076.639, 500.5824
1077.741, 539.1837
1078.843, 657.7798
1079.945, 660.7434
1081.046, 806.4862
1082.148, 821.1759
1083.249, 945.6301
1084.350, 1151.220
1085.451, 1337.749
1086.551, 1560.421
1087.652, 1919.971
1088.752, 2438.057
1089.853, 2990.732
1090.953, 3833.332
1092.053, 4952.945
1093.152, 6377.539
1094.252, 7929.619
1095.351, 9233.195
1096.451, 9494.649
1097.550, 8595.276
1098.649, 6970.347
1099.748, 5259.021
1100.846, 4164.639
1101.945, 3109.525
1103.043, 2394.108
1104.141, 1948.671
1105.239, 1609.323
1106.337, 1299.784
1107.434, 1057.408
1108.532, 989.3494
1109.629, 806.8665
1110.726, 696.4720
1111.823, 640.0828
1112.920, 559.6772
1114.017, 546.1884
1115.113, 447.6213
1116.210, 391.1586
1117.306, 393.7252
1118.402, 382.2209
1119.498, 268.7839
1120.593, 385.5627
1121.689, 307.5394
1122.784, 330.6600
1123.879, 264.2859
1124.974, 248.8656
1126.069, 231.4243
1127.164, 210.8240
1128.259, 181.3615
1129.353, 173.8987
1130.447, 161.9292
1131.541, 119.4763
1132.635, 84.06689
1133.729, 75.86841
1134.822, 106.4843
1135.916, 90.16907
1137.009, 81.41382
1138.102, 37.85107
1139.195, 83.19177
1140.288, 41.81238
1141.380, 2.785522
1142.473, 0.2771000
1143.565, 54.77502
1144.657, 33.04089
1145.749, 38.05542
1146.841, 35.40222
1147.932, 13.88953
1149.024, 19.13281
1150.115, 33.42517
1151.206, 0.1488040
1152.297, 1.106567
1153.388, 36.68762
1154.479, 9.395020
1155.569, 11.18726
1156.659, 21.98169
1157.750, 12.15686
1158.839, 30.27295
1159.929, 8.551270
1161.019, 24.65198
1162.108, 29.16943
1163.198, 1.214844
1164.287, 10.52625
1165.376, 18.95679
1166.465, 5.241699
1167.553, 14.88342
1168.642, 16.20715
1169.730, 60.21814
1170.818, 6.222656
1171.906, 41.25525
1172.994, 33.24353
1174.082, 19.30469
1175.170, 21.27954
1176.257, 30.42346
1177.344, 5.479126
1178.431, 47.53320
1179.518, 57.43530
1180.605, 9.411743
1181.691, 37.36548
1182.778, 38.45679
1183.864, 46.42249
1184.950, 35.49243
1186.036, 2.503418
1187.122, 50.51892
1188.207, 7.534058
1189.292, 15.60144
1190.378, 23.63086
1191.463, 36.50500
1192.548, 2.682373
1193.632, 16.47253
1194.717, 59.38171
1195.801, 1.688721
1196.886, 12.11389
1197.970, 10.91992
1199.054, 12.85022
1200.137, 13.62524
1201.221, 11.60242
1202.305, 13.53247
1203.388, 9.409790
1204.471, 21.46130
1205.554, 24.99707
1206.637, 35.92371
1207.719, 12.73181
1208.802, 14.42200
1209.884, 16.66235
1210.966, 12.98303
1212.048, 7.012695
1213.130, 8.254395
1214.212, 18.50378
1215.293, 33.20715
1216.374, 7.246460
1217.456, 28.72119
1218.536, 19.52612
1219.617, 12.74939
1220.698, 17.94238
1221.778, 14.71765
1222.859, 19.48535
1223.939, 20.12646
1225.019, 23.49292
1226.099, 9.933838
1227.178, 11.65674
1228.258, 3.578003
1229.337, 4.982910
1230.417, 13.58887
1231.496, 0.7633060
1232.574, 21.81873
1233.653, 26.39673
1234.732, 4.998291
1235.810, 58.54517
1236.888, 11.11072
1237.966, 20.32800
1239.044, 36.03357
1240.122, 14.55066
