##NAMES=Azurite
##RRUFFID=R050497
##IDEAL CHEMISTRY=Cu^2+^_3_(CO_3_)_2_(OH)_2_
##LOCALITY=Tsumeb mine, Tsumeb, Otavi District, Oshikoto, Namibia
##OWNER=RRUFF
##SOURCE=Marcus Origlieri
##DESCRIPTION=Blue prismatic single crystal
##STATUS=The identification of this mineral has been confirmed by X-ray diffraction and chemical analysis
##URL=rruff.info/R050497
##MEASURED CHEMISTRY=Cu_3.00_(CO_3_)_2_(OH)_2_
##PIN_ID=L00764
##ORIENTATION=Laser parallel to c* (0 0 1). Fiducial mark perpendicular to laser is parallel to -a [-1 0 0]
52.67100, 0.0000000E+00
53.91000, 76.50073
55.14900, 49.84082
56.38700, 170.5728
57.62600, 141.0908
58.86400, 32.25122
60.10300, 4.038086
61.34100, 8.657227
62.57900, 33.69531
63.81700, 84.80371
65.05400, 190.8936
66.29200, 362.7769
67.52900, 672.7861
68.76700, 915.3608
70.00400, 1690.064
71.24100, 2627.536
72.47700, 3394.444
73.71400, 4633.475
74.95100, 6476.339
76.18700, 9091.792
77.42300, 12722.61
78.65900, 19721.59
79.89500, 33074.58
81.13100, 47648.43
82.36700, 51187.00
83.60200, 40800.18
84.83700, 26269.94
86.07200, 17621.30
87.30800, 11331.20
88.54200, 8305.515
89.77700, 6476.155
91.01200, 5571.994
92.24600, 4790.912
93.48000, 4295.810
94.71400, 3702.615
95.94800, 3486.268
97.18200, 3339.714
98.41600, 2940.911
99.64900, 2829.821
100.8830, 2834.411
102.1160, 2478.653
103.3490, 2515.520
104.5820, 2595.988
105.8150, 2860.038
107.0470, 3172.647
108.2800, 3503.800
109.5120, 3559.224
110.7440, 4089.664
111.9760, 3563.346
113.2080, 3091.509
114.4400, 2862.160
115.6710, 2994.855
116.9030, 2710.777
118.1340, 2862.489
119.3650, 2647.786
120.5960, 2597.424
121.8270, 2757.311
123.0580, 3078.445
124.2880, 3525.826
125.5190, 4068.456
126.7490, 5033.245
127.9790, 7601.925
129.2090, 11119.52
130.4390, 12971.01
131.6680, 12308.49
132.8980, 11118.00
134.1270, 12085.58
135.3560, 16261.24
136.5850, 22727.01
137.8140, 26521.91
139.0430, 23599.95
140.2710, 17039.13
141.5000, 11541.48
142.7280, 8510.981
143.9560, 6528.664
145.1840, 5435.520
146.4120, 5051.557
147.6390, 5119.775
148.8670, 5969.181
150.0940, 7791.771
151.3210, 10735.55
152.5490, 12471.52
153.7750, 11084.67
155.0020, 7951.021
156.2290, 6137.557
157.4550, 3817.282
158.6810, 2837.195
159.9080, 2578.296
161.1340, 2596.583
162.3590, 2641.052
163.5850, 3209.706
164.8110, 3791.539
166.0360, 4897.553
167.2610, 7056.744
168.4860, 9225.114
169.7110, 10736.66
170.9360, 10302.37
172.1610, 9388.263
173.3850, 9894.321
174.6100, 12466.55
175.8340, 17334.42
177.0580, 21586.45
178.2820, 20438.80
179.5050, 15029.49
180.7290, 9848.516
181.9520, 6715.863
183.1760, 5085.544
184.3990, 3954.172
185.6220, 3538.069
186.8450, 3302.486
188.0670, 3298.073
189.2900, 3552.831
190.5120, 3889.756
191.7340, 4153.836
192.9560, 4233.067
194.1780, 4065.451
195.4000, 3365.019
196.6220, 2760.742
197.8430, 2423.658
199.0640, 2082.766
200.2860, 1829.888
201.5070, 1689.765
202.7270, 1615.431
203.9480, 1455.608
205.1690, 1026.368
206.3890, 783.6494
207.6090, 458.5371
208.8290, 283.9536
210.0490, 196.4727
211.2690, 229.0215
212.4890, 220.0083
213.7080, 124.4092
214.9280, 112.2031
216.1470, 97.36377
217.3660, 89.88232
218.5850, 23.73877
219.8030, 46.92725
221.0220, 57.42627
222.2400, 28.21289
223.4590, 115.2744
224.6770, 143.6045
225.8950, 286.1968
227.1120, 494.0283
228.3300, 612.1143
229.5480, 931.4219
230.7650, 1555.946
231.9820, 2161.676
233.1990, 3309.606
234.4160, 4243.729
235.6330, 4733.037
236.8490, 4228.523
238.0660, 3597.185
239.2820, 3201.015
240.4980, 3303.010
241.7140, 3777.165
242.9300, 4750.477
244.1460, 6599.941
245.3610, 8648.557
246.5770, 9753.319
247.7920, 7865.223
249.0070, 5431.266
250.2220, 3297.449
251.4370, 2079.768
252.6510, 1597.218
253.8660, 1202.798
255.0800, 924.5054
256.2940, 961.3389
257.5080, 1104.294
258.7220, 1426.371
259.9360, 2089.566
261.1490, 2927.876
262.3630, 3065.300
263.5760, 2934.827
264.7890, 2772.454
266.0020, 2304.176
267.2150, 1960.992
268.4270, 1600.899
269.6400, 1623.899
270.8520, 1674.989
272.0640, 2123.169
273.2760, 2665.437
274.4880, 3439.795
275.7000, 4416.242
276.9120, 5430.781
278.1230, 6515.410
279.3340, 6754.128
280.5450, 6769.940
281.7560, 6220.841
282.9670, 5364.831
284.1780, 4387.910
285.3880, 3596.077
286.5980, 2794.334
287.8090, 2142.678
289.0190, 1739.107
290.2290, 1247.624
291.4380, 886.2251
292.6480, 695.9116
293.8570, 415.6812
295.0670, 360.5337
296.2760, 133.4683
297.4850, 38.49365
298.6930, 189.3799
299.9020, 165.2153
301.1110, 217.9956
302.3190, 276.7344
303.5270, 297.4453
304.7350, 316.1172
305.9430, 254.7710
307.1510, 382.3896
308.3580, 262.9902
309.5660, 131.5630
310.7730, 186.0791
311.9800, 157.5464
313.1870, 162.9653
314.3940, 236.3398
315.6010, 112.5586
316.8070, 77.85303
318.0130, 169.9087
319.2200, 225.7446
320.4260, 631.6489
321.6310, 984.6372
322.8370, 1272.623
324.0430, 1820.557
325.2480, 2356.460
326.4540, 2984.312
327.6590, 3749.168
328.8640, 4641.038
330.0680, 5130.899
331.2730, 5126.792
332.4780, 4647.839
333.6820, 3936.301
334.8860, 3191.071
336.0900, 2510.964
337.2940, 2089.188
338.4980, 1560.480
339.7010, 1448.828
340.9050, 1159.530
342.1080, 941.2515
343.3110, 858.3623
344.5140, 708.0879
345.7170, 684.7905
346.9200, 699.5962
348.1220, 790.5220
349.3240, 594.5527
350.5270, 746.6895
351.7290, 766.5400
352.9310, 931.3516
354.1320, 970.1245
355.3340, 1210.039
356.5350, 1299.698
357.7370, 1530.866
358.9380, 1788.273
360.1390, 2020.418
361.3400, 2314.340
362.5400, 2662.854
363.7410, 2857.931
364.9410, 3182.303
366.1410, 3330.070
367.3410, 3504.603
368.5410, 3703.959
369.7410, 3962.531
370.9400, 4245.307
372.1400, 4663.657
373.3390, 5012.427
374.5380, 5600.564
375.7370, 6249.487
376.9360, 6885.490
378.1350, 7528.554
379.3330, 8144.525
380.5310, 8817.872
381.7300, 9401.119
382.9280, 9967.423
384.1260, 10662.79
385.3230, 11035.23
386.5210, 11851.72
387.7180, 12932.30
388.9160, 14420.94
390.1130, 16315.64
391.3100, 18994.38
392.5060, 22472.19
393.7030, 26926.03
394.9000, 31889.93
396.0960, 37399.88
397.2920, 42115.87
398.4880, 44439.90
399.6840, 43538.98
400.8800, 39568.11
402.0750, 33792.27
403.2710, 28387.47
404.4660, 23585.72
405.6610, 20079.00
406.8560, 17254.32
408.0510, 15424.68
409.2450, 13593.07
410.4400, 12839.50
411.6340, 11897.96
412.8280, 11428.46
414.0220, 10758.99
415.2160, 9959.558
416.4100, 9323.162
417.6030, 8603.797
418.7970, 7581.462
419.9900, 6800.163
421.1830, 5927.894
422.3760, 5174.654
423.5690, 4563.445
424.7610, 3869.264
425.9540, 3551.111
427.1460, 3085.987
428.3380, 2815.891
429.5300, 2377.821
430.7220, 2233.776
431.9140, 1955.757
433.1050, 1784.763
434.2970, 1414.793
435.4880, 1314.847
436.6790, 1103.925
437.8700, 986.0249
439.0610, 818.1475
440.2510, 786.2397
441.4420, 633.7891
442.6320, 674.8149
443.8220, 512.6963
445.0120, 411.1377
446.2020, 336.2275
447.3910, 265.2231
448.5810, 225.4517
449.7700, 123.2607
450.9600, 134.5698
452.1490, 203.8311
453.3370, 125.0791
454.5260, 183.6265
455.7150, 246.1353
456.9030, 57.12939
458.0910, 24.88770
459.2800, 101.4976
460.4670, 132.8159
461.6550, 77.86670
462.8430, 69.81055
464.0300, 106.7339
465.2180, 64.14795
466.4050, 0.3085940
467.5920, 77.95020
468.7790, 90.82520
469.9650, 49.87988
471.1520, 68.15283
472.3380, 97.52002
473.5250, 165.8325
474.7110, 34.87695
475.8970, 19.89453
477.0820, 29.12793
478.2680, 11.77783
479.4540, 63.61719
480.6390, 5.783691
481.8240, 53.82520
483.0090, 0.4951170
484.1940, 58.01904
485.3780, 18.39600
486.5630, 37.60498
487.7470, 83.03564
488.9320, 111.4595
490.1160, 116.3369
491.3000, 102.0352
492.4830, 118.4229
493.6670, 1.222656
494.8500, 26.91650
496.0340, 32.94775
497.2170, 31.19775
498.4000, 66.80273
499.5820, 32.85596
500.7650, 2.705078
501.9480, 42.97852
503.1300, 23.62256
504.3120, 13.80029
505.4940, 58.89307
506.6760, 25.81982
507.8580, 7.423340
509.0390, 15.31201
510.2210, 1.002930
511.4020, 20.99658
512.5830, 54.21973
513.7640, 66.45605
514.9450, 109.4785
516.1250, 52.84229
517.3060, 128.8975
518.4860, 139.7710
519.6660, 160.1758
520.8460, 232.9136
522.0260, 268.4590
523.2060, 278.0645
524.3850, 325.6650
525.5650, 367.8330
526.7440, 529.2520
527.9230, 623.3311
529.1020, 834.9629
530.2810, 955.6045
531.4590, 1104.510
532.6380, 1434.391
533.8160, 1834.941
534.9940, 2103.307
536.1720, 2497.622
537.3500, 2970.126
538.5270, 3259.255
539.7050, 3432.845
540.8820, 3302.239
542.0590, 3139.684
543.2360, 2863.665
544.4130, 2421.931
545.5900, 2044.301
546.7660, 1800.166
547.9430, 1530.030
549.1190, 1219.031
550.2950, 1116.844
551.4710, 862.7896
552.6470, 809.5498
553.8220, 772.9453
554.9980, 505.6611
556.1730, 553.3555
557.3480, 509.6006
558.5230, 499.3579
559.6980, 491.9834
560.8730, 392.2651
562.0470, 444.8423
563.2220, 423.5552
564.3960, 287.0845
565.5700, 386.5894
566.7440, 289.0684
567.9170, 307.5659
569.0910, 264.1724
570.2640, 248.6826
571.4380, 225.9536
572.6110, 250.3052
573.7840, 264.6304
574.9570, 287.9292
576.1290, 144.2017
577.3020, 220.4468
578.4740, 159.6646
579.6460, 228.8550
580.8180, 33.98193
581.9900, 70.10938
583.1620, 57.17383
584.3330, 63.23389
585.5040, 72.28662
586.6760, 161.3433
587.8470, 16.57959
589.0180, 116.4888
590.1880, 23.58545
591.3590, 8.317383
592.5290, 66.79150
593.7000, 19.91162
594.8700, 6.008789
596.0400, 40.08643
597.2090, 51.14990
598.3790, 38.20312
599.5490, 83.13330
600.7180, 54.17383
601.8870, 33.18994
603.0560, 90.16162
604.2250, 56.90234
605.3940, 64.94580
606.5620, 59.75488
607.7300, 13.45801
608.8990, 22.75439
610.0670, 25.12158
611.2350, 28.13037
612.4020, 27.92822
613.5700, 30.36865
614.7370, 41.76123
615.9050, 104.0269
617.0720, 107.9077
618.2390, 110.5122
619.4060, 118.0210
620.5720, 91.22949
621.7390, 74.39355
622.9050, 73.55127
624.0710, 62.39258
625.2370, 61.14453
626.4030, 74.58496
627.5690, 60.43408
628.7340, 97.37158
629.9000, 18.72656
631.0650, 46.10986
632.2300, 18.90332
633.3950, 18.35156
634.5600, 82.73975
635.7240, 90.92627
636.8890, 22.20752
638.0530, 71.60254
639.2170, 29.86279
640.3810, 3.862793
641.5450, 67.65820
642.7080, 14.75977
643.8720, 97.11963
645.0350, 17.07178
646.1980, 65.19775
647.3610, 12.79150
648.5240, 8.151367
649.6870, 90.74951
650.8490, 28.14258
652.0120, 37.76807
653.1740, 83.49756
654.3360, 45.66260
655.4980, 40.57031
656.6600, 36.16064
657.8210, 65.52441
658.9830, 18.03174
660.1440, 16.45264
661.3050, 74.00928
662.4660, 6.437988
663.6270, 5.823242
664.7870, 26.16650
665.9480, 93.52979
667.1080, 29.68164
668.2680, 82.14600
669.4280, 51.05957
670.5880, 24.04346
671.7480, 36.91748
672.9070, 57.84229
674.0670, 72.73242
675.2260, 8.590332
676.3850, 0.5922850
677.5440, 15.18213
678.7030, 46.91797
679.8610, 60.61865
681.0200, 54.92773
682.1780, 114.9214
683.3360, 65.52734
684.4940, 55.10107
685.6520, 133.6421
686.8090, 122.1548
687.9670, 83.63965
689.1240, 123.0947
690.2810, 85.52295
691.4380, 182.9219
692.5950, 38.29297
693.7520, 131.6313
694.9080, 141.9419
696.0650, 43.22559
697.2210, 94.47754
698.3770, 123.7017
699.5330, 32.89844
700.6880, 239.0635
701.8440, 79.20215
702.9990, 207.3130
704.1550, 158.3984
705.3100, 132.4580
706.4650, 103.4912
707.6190, 72.49902
708.7740, 133.4800
709.9290, 238.4355
711.0830, 167.3662
712.2370, 253.2715
713.3910, 230.1533
714.5450, 226.0098
715.6980, 177.8418
716.8520, 300.6514
718.0050, 161.4355
719.1580, 266.1968
720.3110, 381.9854
721.4640, 325.0854
722.6170, 377.8838
723.7700, 447.7788
724.9220, 354.8271
726.0740, 550.4507
727.2260, 532.1445
728.3780, 630.6846
729.5300, 743.3994
730.6810, 943.5259
731.8330, 979.2861
732.9840, 1174.797
734.1350, 1365.680
735.2860, 1484.746
736.4370, 1673.067
737.5880, 1783.046
738.7380, 1952.961
739.8880, 2018.667
741.0390, 1994.151
742.1890, 2112.088
743.3380, 2045.041
744.4880, 2042.499
745.6380, 1975.831
746.7870, 1931.464
747.9360, 1896.218
749.0850, 1786.304
750.2340, 1795.911
751.3830, 1738.420
752.5310, 1659.986
753.6800, 1655.818
754.8280, 1794.675
755.9760, 1976.567
757.1240, 2241.515
758.2720, 2290.531
759.4190, 2474.213
760.5670, 2687.665
761.7140, 2701.165
762.8610, 2723.485
764.0080, 2515.853
765.1550, 2381.416
766.3020, 2124.752
767.4480, 1942.566
768.5950, 1661.963
769.7410, 1431.011
770.8870, 1272.361
772.0330, 1111.376
773.1780, 1008.312
774.3240, 922.9834
775.4690, 814.4248
776.6140, 763.4990
777.7590, 708.0146
778.9040, 593.9229
780.0490, 636.2891
781.1940, 572.5161
782.3380, 522.2451
783.4820, 480.9668
784.6260, 532.4390
785.7700, 410.7139
786.9140, 477.3247
788.0580, 435.1206
789.2010, 408.5732
790.3450, 476.7896
791.4880, 457.8838
792.6310, 447.3296
793.7730, 510.3325
794.9160, 505.6284
796.0590, 432.0938
797.2010, 586.0127
798.3430, 653.5850
799.4850, 549.3354
800.6270, 622.0122
801.7690, 738.6782
802.9100, 819.7627
804.0520, 825.5820
805.1930, 818.7256
806.3340, 871.3013
807.4750, 918.8525
808.6160, 1041.124
809.7560, 1126.404
810.8970, 1321.999
812.0370, 1498.765
813.1770, 1503.562
814.3170, 1805.156
815.4570, 2019.109
816.5960, 2128.586
817.7360, 2551.240
818.8750, 2754.828
820.0140, 3173.861
821.1530, 3721.597
822.2920, 4155.208
823.4310, 4978.310
824.5690, 5704.395
825.7070, 7015.324
826.8460, 8737.425
827.9840, 10217.38
829.1220, 10849.49
830.2590, 11472.96
831.3970, 11812.09
832.5340, 11799.22
833.6710, 11330.79
834.8080, 10687.82
835.9450, 9880.966
837.0820, 9114.441
838.2190, 8083.600
839.3550, 7192.605
840.4910, 6309.778
841.6270, 5390.956
842.7630, 4702.140
843.8990, 4045.289
845.0350, 3513.310
846.1700, 2996.516
847.3060, 2659.729
848.4410, 2259.949
849.5760, 2041.177
850.7100, 1724.413
851.8450, 1468.657
852.9800, 1305.910
854.1140, 1163.170
855.2480, 934.4399
856.3820, 846.7173
857.5160, 794.0264
858.6500, 781.3477
859.7830, 622.7515
860.9170, 567.0996
862.0500, 495.4595
863.1830, 511.8301
864.3160, 369.9590
865.4480, 412.3667
866.5810, 355.0015
867.7130, 282.4541
868.8460, 282.0698
869.9780, 236.1157
871.1100, 262.7676
872.2410, 214.6475
873.3730, 244.7427
874.5050, 166.3916
875.6360, 189.0195
876.7670, 100.6187
877.8980, 89.42578
879.0290, 132.0562
880.1590, 148.8901
881.2900, 100.3770
882.4200, 182.9907
883.5500, 223.7202
884.6800, 306.4805
885.8100, 109.2915
886.9400, 161.1162
888.0690, 138.4355
889.1990, 180.2983
890.3280, 253.8887
891.4570, 220.5815
892.5860, 266.4907
893.7140, 271.4873
894.8430, 224.4336
895.9710, 171.2300
897.1000, 177.2417
898.2280, 250.2246
899.3560, 188.2607
900.4830, 218.3149
901.6110, 278.3867
902.7380, 259.4751
903.8660, 383.5786
904.9930, 296.7114
906.1200, 345.8618
907.2460, 219.0322
908.3730, 372.2397
909.5000, 287.4629
910.6260, 282.7012
911.7520, 496.9595
912.8780, 464.2627
914.0040, 439.5894
915.1290, 486.9404
916.2550, 501.8066
917.3800, 688.6958
918.5050, 655.0986
919.6300, 766.5298
920.7550, 965.9771
921.8800, 957.4502
923.0040, 1269.948
924.1290, 1509.468
925.2530, 1701.018
926.3770, 1783.604
927.5010, 2170.234
928.6250, 2502.880
929.7480, 2891.559
930.8720, 3343.278
931.9950, 3968.038
933.1180, 4227.821
934.2410, 4708.628
935.3640, 4967.452
936.4860, 4981.295
937.6090, 4955.161
938.7310, 4754.043
939.8530, 4530.973
940.9750, 4157.920
942.0970, 3773.921
943.2180, 3232.956
944.3400, 2900.018
945.4610, 2433.097
946.5820, 2096.191
947.7030, 1956.301
948.8240, 1615.430
949.9450, 1388.588
951.0650, 1202.771
952.1860, 1047.976
953.3060, 935.1948
954.4260, 780.4302
955.5460, 783.6802
956.6650, 716.9473
957.7850, 629.2295
958.9040, 606.5244
960.0230, 563.8340
961.1420, 553.1567
962.2610, 441.4932
963.3800, 451.8438
964.4990, 538.2070
965.6170, 381.5874
966.7350, 448.9800
967.8530, 351.3877
968.9710, 280.8101
970.0890, 217.2466
971.2070, 234.6968
972.3240, 333.1626
973.4410, 232.6416
974.5580, 306.1343
975.6750, 181.6401
976.7920, 168.1582
977.9090, 204.6909
979.0250, 206.2363
980.1410, 156.8018
981.2580, 212.3794
982.3740, 169.9697
983.4890, 120.5742
984.6050, 78.19189
985.7200, 80.82178
986.8360, 139.4644
987.9510, 97.11963
989.0660, 97.78662
990.1810, 78.46582
991.2950, 71.15820
992.4100, 82.86279
993.5240, 3.420898
994.6390, 46.30664
995.7530, 19.04932
996.8660, 46.80469
997.9800, 53.42871
999.0940, 27.34521
1000.207, 63.86865
1001.320, 9.908203
1002.433, 6.303711
1003.546, 20.50586
1004.659, 5.703125
1005.772, 104.8916
1006.884, 46.10742
1007.996, 58.32666
1009.108, 56.37402
1010.220, 54.77344
1011.332, 35.45264
1012.444, 5.320313
1013.555, 4.895996
1014.666, 49.10547
1015.777, 126.3213
1016.888, 15.42188
1017.999, 108.1758
1019.110, 1.939453
1020.220, 13.71143
1021.331, 39.50586
1022.441, 20.27197
1023.551, 19.75488
1024.661, 21.89111
1025.770, 59.90088
1026.880, 51.30127
1027.989, 10.72754
1029.098, 21.47607
1030.207, 43.70068
1031.316, 111.5049
1032.425, 88.75732
1033.533, 94.83105
1034.642, 25.39893
1035.750, 71.23291
1036.858, 78.20361
1037.966, 60.30176
1039.073, 107.9058
1040.181, 80.76758
1041.288, 50.25781
1042.396, 109.1323
1043.503, 168.1001
1044.610, 75.98779
1045.716, 127.0435
1046.823, 87.72119
1047.929, 193.6265
1049.036, 132.5371
1050.142, 135.4531
1051.248, 66.37402
1052.353, 41.30078
1053.459, 226.2324
1054.564, 177.1694
1055.670, 238.1099
1056.775, 257.9009
1057.880, 176.8511
1058.985, 249.1729
1060.089, 153.1313
1061.194, 220.0928
1062.298, 222.0581
1063.402, 202.7114
1064.506, 338.8892
1065.610, 192.1841
1066.713, 312.1626
1067.817, 305.1768
1068.920, 300.1665
1070.023, 338.6265
1071.126, 398.6206
1072.229, 487.9263
1073.332, 534.9238
1074.435, 471.7202
1075.537, 590.7212
1076.639, 543.9155
1077.741, 634.9189
1078.843, 754.9229
1079.945, 894.9277
1081.046, 915.9351
1082.148, 1013.897
1083.249, 1188.459
1084.350, 1295.438
1085.451, 1592.449
1086.551, 1955.459
1087.652, 2452.653
1088.752, 3162.977
1089.853, 3891.987
1090.953, 5250.996
1092.053, 7047.009
1093.152, 9159.022
1094.252, 11170.05
1095.351, 11965.08
1096.451, 10912.10
1097.550, 8826.120
1098.649, 6741.140
1099.748, 4912.256
1100.846, 4002.377
1101.945, 2934.393
1103.043, 2393.407
1104.141, 1851.431
1105.239, 1615.441
1106.337, 1266.450
1107.434, 1125.474
1108.532, 954.4893
1109.629, 963.6636
1110.726, 819.7109
1111.823, 638.0122
1112.920, 549.0054
1114.017, 520.9951
1115.113, 495.4351
1116.210, 470.4194
1117.306, 464.4048
1118.402, 393.3862
1119.498, 350.3711
1120.593, 289.3525
1121.689, 362.3301
1122.784, 353.4683
1123.879, 350.4385
1124.974, 320.4043
1126.069, 293.0298
1127.164, 240.1255
1128.259, 216.0796
1129.353, 239.0298
1130.447, 204.0059
1131.541, 280.9468
1132.635, 146.6748
1133.729, 194.6064
1134.822, 170.3848
1135.916, 118.7466
1137.009, 120.5210
1138.102, 143.0801
1139.195, 151.4346
1140.288, 15.75146
1141.380, 14.08252
1142.473, 42.95361
1143.565, 139.6304
1144.657, 88.49219
1145.749, 31.18604
1146.841, 76.23779
1147.932, 54.43262
1149.024, 29.34375
1150.115, 52.46533
1151.206, 135.2803
1152.297, 73.31445
1153.388, 84.68799
1154.479, 14.51318
1155.569, 80.71240
1156.659, 17.72754
1157.750, 55.53516
1158.839, 22.64160
1159.929, 72.13574
1161.019, 40.92822
1162.108, 58.80908
1163.198, 41.45850
1164.287, 11.23926
1165.376, 1.927734
1166.465, 27.60400
1167.553, 15.27539
1168.642, 71.93945
1169.730, 37.59717
1170.818, 59.24951
1171.906, 11.03857
1172.994, 81.58789
1174.082, 18.49121
1175.170, 67.10449
1176.257, 16.71240
1177.344, 3.312012
1178.431, 25.89795
1179.518, 36.47803
1180.605, 54.05176
1181.691, 85.25000
1182.778, 100.2739
1183.864, 116.8291
1184.950, 91.37842
1186.036, 30.92090
1187.122, 12.54297
1188.207, 88.99609
1189.292, 52.49707
1190.378, 37.98096
1191.463, 137.4595
1192.548, 93.98779
1193.632, 28.55469
1194.717, 60.12354
1195.801, 3.372070
1196.886, 116.0132
1197.970, 31.76709
1199.054, 56.28711
1200.137, 13.65137
1201.221, 71.00391
1202.305, 18.34863
1203.388, 58.70801
1204.471, 25.96387
1205.554, 92.46777
1206.637, 22.75684
1207.719, 45.10645
1208.802, 49.37939
1209.884, 53.64404
1210.966, 48.30762
1212.048, 12.28027
1213.130, 5.867676
1214.212, 3.609375
1215.293, 54.99951
1216.374, 90.22900
1217.456, 24.53760
1218.536, 19.83594
1219.617, 59.00977
1220.698, 67.20361
1221.778, 54.51807
1222.859, 52.70361
1223.939, 110.2075
1225.019, 119.3213
1226.099, 57.44141
1227.178, 101.5859
1228.258, 84.67578
1229.337, 36.75781
1230.417, 35.83105
1231.496, 68.00928
1232.574, 71.06543
1233.653, 55.25879
1234.732, 68.35693
1235.810, 89.33154
1236.888, 54.60498
1237.966, 56.37207
1239.044, 30.37939
