##NAMES=Azurite
##RRUFFID=R050638
##IDEAL CHEMISTRY=Cu^2+^_3_(CO_3_)_2_(OH)_2_
##LOCALITY=Zacatecas, Mexico
##OWNER=RRUFF
##SOURCE=University of Arizona Mineral Museum
##DESCRIPTION=Blue bladed crystals
##STATUS=The identification of this mineral has been confirmed by X-ray diffraction and chemical analysis
##URL=rruff.info/R050638
##MEASURED CHEMISTRY=Cu_3.00_(CO_3_)_2_(OH)_2_
##PIN_ID=M00381
##ORIENTATION=Laser parallel to a* (1 0 0). Fiducial mark perpendicular to laser is parallel to b [0 1 0]
52.67100, 0.0000000E+00
53.91000, 65.60144
55.14900, 100.9781
56.38700, 105.3452
57.62600, 130.9816
58.86400, 47.77588
60.10300, 24.06366
61.34100, 6.843445
62.57900, 81.80396
63.81700, 31.70215
65.05400, 53.42078
66.29200, 226.9033
67.52900, 461.1650
68.76700, 943.7080
70.00400, 1759.135
71.24100, 3076.120
72.47700, 5351.359
73.71400, 9197.627
74.95100, 14853.68
76.18700, 22420.27
77.42300, 29971.15
78.65900, 39043.13
79.89500, 52792.07
81.13100, 62389.80
82.36700, 60874.19
83.60200, 51625.15
84.83700, 39413.57
86.07200, 28878.54
87.30800, 20460.99
88.54200, 14246.80
89.77700, 10333.89
91.01200, 7722.142
92.24600, 6267.475
93.48000, 5046.234
94.71400, 3998.021
95.94800, 3586.642
97.18200, 3047.979
98.41600, 2648.997
99.64900, 2458.666
100.8830, 2170.978
102.1160, 2084.854
103.3490, 1991.328
104.5820, 2010.364
105.8150, 2191.944
107.0470, 2481.052
108.2800, 2683.674
109.5120, 3225.797
110.7440, 3284.406
111.9760, 2262.490
113.2080, 1720.039
114.4400, 1781.039
115.6710, 2068.565
116.9030, 2307.448
118.1340, 2399.066
119.3650, 2553.499
120.5960, 3078.201
121.8270, 4763.160
123.0580, 6912.377
124.2880, 8959.856
125.5190, 9912.600
126.7490, 11133.52
127.9790, 14529.38
129.2090, 18977.17
130.4390, 21581.89
131.6680, 22891.17
132.8980, 22277.25
134.1270, 21987.21
135.3560, 23647.44
136.5850, 25620.96
137.8140, 24933.28
139.0430, 21630.27
140.2710, 17659.41
141.5000, 14102.73
142.7280, 11368.21
143.9560, 9821.888
145.1840, 9134.748
146.4120, 8811.802
147.6390, 8404.048
148.8670, 8169.489
150.0940, 8672.133
151.3210, 9327.971
152.5490, 9343.014
153.7750, 8456.255
155.0020, 6869.701
156.2290, 5659.345
157.4550, 4677.190
158.6810, 4230.237
159.9080, 4149.485
161.1340, 4786.930
162.3590, 5953.572
163.5850, 7231.411
164.8110, 8720.442
166.0360, 10176.45
167.2610, 11026.08
168.4860, 13279.69
169.7110, 15275.48
170.9360, 16680.46
172.1610, 16853.61
173.3850, 16608.96
174.6100, 17551.48
175.8340, 18693.19
177.0580, 19310.07
178.2820, 17278.35
179.5050, 14109.38
180.7290, 11314.10
181.9520, 8843.408
183.1760, 7000.045
184.3990, 5750.292
185.6220, 4928.739
186.8450, 4191.700
188.0670, 3845.846
189.2900, 3703.176
190.5120, 3607.686
191.7340, 3559.372
192.9560, 3512.238
194.1780, 3336.336
195.4000, 3070.643
196.6220, 2811.136
197.8430, 2583.826
199.0640, 2378.139
200.2860, 2028.428
201.5070, 1983.999
202.7270, 1896.396
203.9480, 1691.567
205.1690, 1153.729
206.3890, 553.4592
207.6090, 192.6145
208.8290, 68.73486
210.0490, 51.85474
211.2690, 157.2715
212.4890, 98.66968
213.7080, 67.66309
214.9280, 43.27222
216.1470, 38.51172
217.3660, 20.39697
218.5850, 8.944580
219.8030, 51.17163
221.0220, 18.09521
222.2400, 46.26709
223.4590, 173.9114
224.6770, 370.8237
225.8950, 727.9946
227.1120, 1039.411
228.3300, 1620.065
229.5480, 2132.949
230.7650, 2668.055
231.9820, 3167.377
233.1990, 3917.907
234.4160, 4661.639
235.6330, 5103.565
236.8490, 5875.682
238.0660, 7313.981
239.2820, 8972.461
240.4980, 11017.11
241.7140, 12233.93
242.9300, 13373.91
244.1460, 15031.05
245.3610, 16539.35
246.5770, 16109.81
247.7920, 13966.41
249.0070, 11574.17
250.2220, 9087.067
251.4370, 7383.112
252.6510, 5718.298
253.8660, 4800.624
255.0800, 3824.087
256.2940, 3480.685
257.5080, 3449.415
258.7220, 3667.277
259.9360, 4224.267
261.1490, 4720.383
262.3630, 4452.624
263.5760, 4100.983
264.7890, 4096.453
266.0020, 3768.030
267.2150, 4027.712
268.4270, 4225.500
269.6400, 4831.390
270.8520, 5736.383
272.0640, 6789.477
273.2760, 8036.672
274.4880, 9399.969
275.7000, 10512.37
276.9120, 11226.86
278.1230, 11882.46
279.3340, 11747.10
280.5450, 11391.83
281.7560, 10370.64
282.9670, 9281.552
284.1780, 7979.555
285.3880, 6756.663
286.5980, 5610.873
287.8090, 4556.182
289.0190, 3640.592
290.2290, 2859.651
291.4380, 2175.709
292.6480, 1646.414
293.8570, 1157.216
295.0670, 813.0671
296.2760, 560.1108
297.4850, 312.2017
298.6930, 172.3884
299.9020, 94.67114
301.1110, 26.95093
302.3190, 132.4846
303.5270, 229.9465
304.7350, 302.3525
305.9430, 358.7188
307.1510, 341.0439
308.3580, 399.3394
309.5660, 392.6016
310.7730, 315.8398
311.9800, 295.0310
313.1870, 154.1731
314.3940, 101.2544
315.6010, 0.2587890
316.8070, 200.8389
318.0130, 485.0493
319.2200, 715.3713
320.4260, 1109.779
321.6310, 1503.291
322.8370, 2099.895
324.0430, 2627.553
325.2480, 3158.200
326.4540, 3627.794
327.6590, 4078.411
328.8640, 4212.893
330.0680, 4307.524
331.2730, 3990.577
332.4780, 3752.541
333.6820, 3289.429
334.8860, 2855.655
336.0900, 2381.427
337.2940, 2037.901
338.4980, 1750.375
339.7010, 1488.884
340.9050, 1287.346
342.1080, 1168.939
343.3110, 1112.056
344.5140, 1086.624
345.7170, 1091.825
346.9200, 1121.135
348.1220, 1208.076
349.3240, 1308.210
350.5270, 1427.184
351.7290, 1573.485
352.9310, 1808.577
354.1320, 2015.700
355.3340, 2403.050
356.5350, 2758.323
357.7370, 3195.792
358.9380, 3556.943
360.1390, 4041.470
361.3400, 4432.858
362.5400, 4961.429
363.7410, 5390.707
364.9410, 5727.581
366.1410, 6180.828
367.3410, 6531.500
368.5410, 7155.704
369.7410, 7718.979
370.9400, 8480.842
372.1400, 9162.789
373.3390, 9908.832
374.5380, 10842.95
375.7370, 11813.16
376.9360, 12693.45
378.1350, 13682.82
379.3330, 14618.27
380.5310, 15488.79
381.7300, 16293.38
382.9280, 16986.04
384.1260, 18017.78
385.3230, 19157.58
386.5210, 20839.44
387.7180, 23212.37
388.9160, 26099.37
390.1130, 30128.43
391.3100, 35424.55
392.5060, 40172.72
393.7030, 45220.96
394.9000, 49467.26
396.0960, 52853.62
397.2920, 54566.03
398.4880, 54381.49
399.6840, 51758.00
400.8800, 47617.56
402.0750, 42795.18
403.2710, 37568.86
404.4660, 33130.57
405.6610, 28800.32
406.8560, 25186.13
408.0510, 22308.98
409.2450, 19698.88
410.4400, 18004.82
411.6340, 16462.81
412.8280, 15142.83
414.0220, 14121.90
415.2160, 12833.01
416.4100, 11888.16
417.6030, 10782.35
418.7970, 9537.576
419.9900, 8605.842
421.1830, 7715.147
422.3760, 6879.486
423.5690, 6105.532
424.7610, 5387.921
425.9540, 4721.723
427.1460, 4152.206
428.3380, 3615.722
429.5300, 3195.273
430.7220, 2828.856
431.9140, 2474.472
433.1050, 2193.118
434.2970, 1930.796
435.4880, 1676.504
436.6790, 1447.241
437.8700, 1293.341
439.0610, 1006.135
440.2510, 986.1929
441.4420, 800.4685
442.6320, 615.0920
443.8220, 530.6704
445.0120, 466.3386
446.2020, 372.5203
447.3910, 326.1541
448.5810, 260.3105
449.7700, 216.6770
450.9600, 211.8230
452.1490, 180.0637
453.3370, 149.7915
454.5260, 158.9387
455.7150, 102.4863
456.9030, 85.88647
458.0910, 71.37109
459.2800, 89.82910
460.4670, 97.65161
461.6550, 89.24219
462.8430, 94.18726
464.0300, 77.08936
465.2180, 68.24365
466.4050, 59.66333
467.5920, 50.48755
468.7790, 86.45654
469.9650, 20.00928
471.1520, 85.22192
472.3380, 21.40601
473.5250, 13.62158
474.7110, 72.76929
475.8970, 46.85962
477.0820, 8.172852
478.2680, 39.03613
479.4540, 15.57422
480.6390, 18.63013
481.8240, 39.75049
483.0090, 14.47974
484.1940, 26.91309
485.3780, 11.32446
486.5630, 60.47241
487.7470, 70.88232
488.9320, 47.24854
490.1160, 88.65942
491.3000, 38.67529
492.4830, 11.05591
493.6670, 55.28345
494.8500, 6.932129
496.0340, 0.3264160
497.2170, 18.82422
498.4000, 30.19165
499.5820, 18.98218
500.7650, 26.59692
501.9480, 4.885742
503.1300, 8.372803
504.3120, 4.086670
505.4940, 6.677490
506.6760, 3.263916
507.8580, 55.11304
509.0390, 10.03003
510.2210, 25.61938
511.4020, 26.20264
512.5830, 73.16040
513.7640, 71.51733
514.9450, 102.8384
516.1250, 106.4558
517.3060, 140.6475
518.4860, 214.4229
519.6660, 223.1860
520.8460, 270.7253
522.0260, 340.0632
523.2060, 435.5962
524.3850, 598.2344
525.5650, 747.4072
526.7440, 923.7080
527.9230, 1074.824
529.1020, 1338.039
530.2810, 1683.802
531.4590, 2076.015
532.6380, 2486.548
533.8160, 2925.742
534.9940, 3202.466
536.1720, 3547.123
537.3500, 3868.184
538.5270, 3993.593
539.7050, 3967.684
540.8820, 3688.082
542.0590, 3399.077
543.2360, 3111.876
544.4130, 2818.781
545.5900, 2400.532
546.7660, 2063.137
547.9430, 1786.738
549.1190, 1515.083
550.2950, 1314.500
551.4710, 1145.979
552.6470, 931.2256
553.8220, 821.4404
554.9980, 766.6213
556.1730, 694.7686
557.3480, 579.8821
558.5230, 513.9617
559.6980, 471.0065
560.8730, 387.0166
562.0470, 367.6594
563.2220, 399.9307
564.3960, 324.8340
565.5700, 331.7009
566.7440, 323.5312
567.9170, 283.3247
569.0910, 214.0808
570.2640, 228.7993
571.4380, 220.4797
572.6110, 239.1219
573.7840, 245.7256
574.9570, 138.2903
576.1290, 231.8158
577.3020, 111.3019
578.4740, 64.74792
579.6460, 118.1498
580.8180, 73.51111
581.9900, 62.82837
583.1620, 48.09985
584.3330, 52.32227
585.5040, 41.63403
586.6760, 30.62585
587.8470, 14.72571
589.0180, 19.80774
590.1880, 31.11218
591.3590, 25.95142
592.5290, 42.97803
593.7000, 3.922241
594.8700, 37.86267
596.0400, 34.83240
597.2090, 26.16589
598.3790, 11.86548
599.5490, 49.95312
600.7180, 77.13293
601.8870, 72.65625
603.0560, 25.17493
604.2250, 47.28723
605.3940, 12.84644
606.5620, 3.485107
607.7300, 41.19836
608.8990, 27.00647
610.0670, 3.902588
611.2350, 13.97681
612.4020, 13.03003
613.5700, 9.273804
614.7370, 23.93066
615.9050, 43.48999
617.0720, 9.968994
618.2390, 17.77393
619.4060, 11.11609
620.5720, 22.85193
621.7390, 27.16345
622.9050, 22.84924
624.0710, 7.794800
625.2370, 8.681885
626.4030, 21.94458
627.5690, 26.01941
628.7340, 25.26807
629.9000, 10.02502
631.0650, 3.737427
632.2300, 14.80212
633.3950, 10.35352
634.5600, 1.033447
635.7240, 7.462280
636.8890, 2.514526
638.0530, 6.233643
639.2170, 10.81335
640.3810, 10.25537
641.5450, 17.42615
642.7080, 3.275269
643.8720, 22.37683
645.0350, 24.61804
646.1980, 19.67639
647.3610, 29.25085
648.5240, 12.59888
649.6870, 26.92590
650.8490, 25.94385
652.0120, 6.911377
653.1740, 5.691895
654.3360, 54.36279
655.4980, 20.87354
656.6600, 40.95044
657.8210, 43.85999
658.9830, 11.14392
660.1440, 28.91406
661.3050, 30.94958
662.4660, 18.75488
663.6270, 12.50000
664.7870, 7.815918
665.9480, 27.80151
667.1080, 37.36072
668.2680, 29.86316
669.4280, 0.3078610
670.5880, 26.68958
671.7480, 71.01343
672.9070, 24.28516
674.0670, 51.49902
675.2260, 54.65881
676.3850, 102.7651
677.5440, 69.82324
678.7030, 92.82959
679.8610, 65.78711
681.0200, 97.69312
682.1780, 117.5509
683.3360, 101.3621
684.4940, 116.1259
685.6520, 129.8430
686.8090, 126.5150
687.9670, 162.1418
689.1240, 140.7253
690.2810, 129.2651
691.4380, 191.7603
692.5950, 163.2131
693.7520, 228.6238
694.9080, 178.9923
696.0650, 208.3191
697.2210, 224.6047
698.3770, 219.8486
699.5330, 180.0515
700.6880, 223.2133
701.8440, 260.3344
702.9990, 269.4149
704.1550, 213.4550
705.3100, 234.4550
706.4650, 292.4149
707.6190, 220.3352
708.7740, 268.2158
709.9290, 289.0574
711.0830, 316.8596
712.2370, 333.6230
713.3910, 347.3477
714.5450, 370.0341
715.6980, 391.1863
716.8520, 411.2925
718.0050, 445.6780
719.1580, 472.0659
720.3110, 512.3281
721.4640, 526.3618
722.6170, 596.0374
723.7700, 670.7483
724.9220, 804.1686
726.0740, 852.2634
727.2260, 899.7942
728.3780, 1060.474
729.5300, 1219.281
730.6810, 1343.061
731.8330, 1501.007
732.9840, 1717.340
734.1350, 1891.476
735.2860, 2041.740
736.4370, 2278.292
737.5880, 2431.875
738.7380, 2638.009
739.8880, 2730.374
741.0390, 2811.059
742.1890, 2813.187
743.3380, 2897.261
744.4880, 2861.445
745.6380, 2888.167
746.7870, 2793.474
747.9360, 2879.629
749.0850, 2925.190
750.2340, 3061.083
751.3830, 3264.998
752.5310, 3489.112
753.6800, 3752.330
754.8280, 4038.465
755.9760, 4471.803
757.1240, 4820.676
758.2720, 5151.044
759.4190, 5557.951
760.5670, 5584.289
761.7140, 5593.984
762.8610, 5487.461
764.0080, 5248.941
765.1550, 4931.665
766.3020, 4528.110
767.4480, 4017.581
768.5950, 3578.992
769.7410, 3136.779
770.8870, 2749.293
772.0330, 2407.709
773.1780, 2097.797
774.3240, 1851.114
775.4690, 1694.301
776.6140, 1516.599
777.7590, 1430.028
778.9040, 1288.503
780.0490, 1188.412
781.1940, 1091.284
782.3380, 1034.002
783.4820, 971.7888
784.6260, 957.8615
785.7700, 923.3761
786.9140, 863.9370
788.0580, 827.7959
789.2010, 820.9099
790.3450, 855.0704
791.4880, 812.0830
792.6310, 878.1069
793.7730, 867.8093
794.9160, 905.6934
796.0590, 919.4060
797.2010, 981.8868
798.3430, 997.5647
799.4850, 979.4182
800.6270, 1104.050
801.7690, 1143.550
802.9100, 1189.489
804.0520, 1335.273
805.1930, 1389.214
806.3340, 1495.029
807.4750, 1702.269
808.6160, 1778.031
809.7560, 1941.444
810.8970, 2137.169
812.0370, 2370.334
813.1770, 2663.539
814.3170, 2875.311
815.4570, 3213.706
816.5960, 3658.391
817.7360, 4131.739
818.8750, 4713.461
820.0140, 5325.350
821.1530, 6168.102
822.2920, 7122.980
823.4310, 8122.972
824.5690, 9329.941
825.7070, 10830.13
826.8460, 12232.22
827.9840, 13437.23
829.1220, 14096.43
830.2590, 14288.63
831.3970, 14307.83
832.5340, 13997.04
833.6710, 13361.25
834.8080, 12424.47
835.9450, 11407.68
837.0820, 10424.90
838.2190, 9327.130
839.3550, 8332.357
840.4910, 7263.592
841.6270, 6430.830
842.7630, 5523.074
843.8990, 4839.321
845.0350, 4228.577
846.1700, 3667.836
847.3060, 3282.101
848.4410, 2830.373
849.5760, 2456.651
850.7100, 2171.936
851.8450, 1895.227
852.9800, 1677.527
854.1140, 1569.833
855.2480, 1366.149
856.3820, 1217.473
857.5160, 1056.807
858.6500, 950.1516
859.7830, 930.6462
860.9170, 773.0156
862.0500, 735.5426
863.1830, 652.9412
864.3160, 558.9950
865.4480, 512.4280
866.5810, 515.8401
867.7130, 451.0918
868.8460, 419.9441
869.9780, 423.7645
871.1100, 369.5962
872.2410, 374.0742
873.3730, 305.0391
874.5050, 315.7683
875.6360, 284.8124
876.7670, 306.0056
877.8980, 284.8536
879.0290, 298.3348
880.1590, 273.2102
881.2900, 291.0338
882.4200, 285.6189
883.5500, 250.2930
884.6800, 273.9509
885.8100, 262.3722
886.9400, 301.0183
888.0690, 298.2777
889.1990, 318.6794
890.3280, 285.7225
891.4570, 255.6055
892.5860, 298.8923
893.7140, 308.1133
894.8430, 276.7802
895.9710, 354.1455
897.1000, 349.5679
898.2280, 340.9275
899.3560, 384.4238
900.4830, 380.8201
901.6110, 377.2462
902.7380, 388.7032
903.8660, 393.1913
904.9930, 399.7083
906.1200, 423.2524
907.2460, 458.8187
908.3730, 489.9799
909.5000, 549.0291
910.6260, 582.6729
911.7520, 646.3485
912.8780, 712.0515
914.0040, 707.7816
915.1290, 859.5388
916.2550, 911.3177
917.3800, 938.1200
918.5050, 1072.952
919.6300, 1186.804
920.7550, 1390.685
921.8800, 1508.597
923.0040, 1819.535
924.1290, 2001.494
925.2530, 2361.481
926.3770, 2672.489
927.5010, 3020.529
928.6250, 3475.607
929.7480, 3946.705
930.8720, 4295.837
931.9950, 4745.005
933.1180, 5046.195
934.2410, 5226.421
935.3640, 5414.670
936.4860, 5395.938
937.6090, 5279.233
938.7310, 4951.551
939.8530, 4753.894
940.9750, 4366.258
942.0970, 4014.644
943.2180, 3503.055
944.3400, 3101.485
945.4610, 2723.934
946.5820, 2410.405
947.7030, 2092.895
948.8240, 1816.408
949.9450, 1559.938
951.0650, 1360.516
952.1860, 1195.754
953.3060, 1061.655
954.4260, 976.2644
955.5460, 915.8923
956.6650, 878.5367
957.7850, 795.1973
958.9040, 759.8733
960.0230, 694.5667
961.1420, 666.2773
962.2610, 600.0044
963.3800, 617.7472
964.4990, 502.5042
965.6170, 509.2753
966.7350, 427.0616
967.8530, 483.8646
968.9710, 394.6823
970.0890, 403.5145
971.2070, 363.3613
972.3240, 374.2249
973.4410, 273.1021
974.5580, 267.9939
975.6750, 262.8993
976.7920, 261.8190
977.9090, 248.7073
979.0250, 218.7040
980.1410, 224.6674
981.2580, 204.6453
982.3740, 194.6368
983.4890, 138.6429
984.6050, 146.6660
985.7200, 118.7023
986.8360, 78.75635
987.9510, 107.8246
989.0660, 118.9073
990.1810, 63.00476
991.2950, 35.11511
992.4100, 9.238647
993.5240, 6.625244
994.6390, 32.52136
995.7530, 61.31946
996.8660, 29.83203
997.9800, 71.00427
999.0940, 53.14734
1000.207, 30.68921
1001.320, 50.52332
1002.433, 12.36194
1003.546, 10.19324
1004.659, 37.01624
1005.772, 26.84045
1006.884, 60.66211
1007.996, 54.49451
1009.108, 11.33545
1010.220, 14.16992
1011.332, 52.99951
1012.444, 19.78894
1013.555, 28.62488
1014.666, 25.88586
1015.777, 18.72192
1016.888, 43.31519
1017.999, 18.15613
1019.110, 35.05969
1020.220, 38.90393
1021.331, 2.641479
1022.441, 30.59387
1023.551, 43.44177
1024.661, 38.64502
1025.770, 24.51392
1026.880, 23.65710
1027.989, 7.207520
1029.098, 45.04553
1030.207, 1.715454
1031.316, 5.760864
1032.425, 1.968628
1033.533, 16.34521
1034.642, 51.48926
1035.750, 22.63855
1036.858, 44.79321
1037.966, 75.30969
1039.073, 130.8182
1040.181, 44.01221
1041.288, 112.0952
1042.396, 46.33142
1043.503, 84.25073
1044.610, 144.3361
1045.716, 123.4597
1046.823, 101.6769
1047.929, 111.8723
1049.036, 156.1055
1050.142, 138.3069
1051.248, 140.3319
1052.353, 201.5392
1053.459, 188.7941
1054.564, 194.0061
1055.670, 153.2200
1056.775, 149.4359
1057.880, 226.2760
1058.985, 210.4955
1060.089, 234.1721
1061.194, 219.3943
1062.298, 249.6262
1063.402, 289.8502
1064.506, 342.4484
1065.610, 366.8479
1066.713, 381.9880
1067.817, 415.7410
1068.920, 472.9753
1070.023, 505.7168
1071.126, 542.9646
1072.229, 612.1052
1073.332, 666.4078
1074.435, 711.0256
1075.537, 752.5269
1076.639, 886.7458
1077.741, 948.0391
1078.843, 1034.302
1079.945, 1173.814
1081.046, 1370.973
1082.148, 1681.334
1083.249, 1914.793
1084.350, 2284.076
1085.451, 2797.271
1086.551, 3513.470
1087.652, 4531.393
1088.752, 5881.602
1089.853, 7660.956
1090.953, 9959.237
1092.053, 12813.89
1093.152, 14758.83
1094.252, 15916.36
1095.351, 15796.72
1096.451, 15305.97
1097.550, 11779.15
1098.649, 9514.642
1099.748, 7457.432
1100.846, 5795.795
1101.945, 4551.193
1103.043, 3581.495
1104.141, 2872.345
1105.239, 2347.501
1106.337, 1976.887
1107.434, 1661.070
1108.532, 1430.379
1109.629, 1284.018
1110.726, 1091.335
1111.823, 951.5435
1112.920, 854.9988
1114.017, 745.1981
1115.113, 695.6313
1116.210, 568.5710
1117.306, 567.7188
1118.402, 493.9127
1119.498, 476.2992
1120.593, 440.4812
1121.689, 425.2471
1122.784, 374.4373
1123.879, 368.5920
1124.974, 344.6866
1126.069, 266.5845
1127.164, 266.6680
1128.259, 238.5388
1129.353, 261.5457
1130.447, 195.9055
1131.541, 182.8954
1132.635, 168.9578
1133.729, 165.2288
1134.822, 99.86548
1135.916, 112.6191
1137.009, 69.31616
1138.102, 98.39087
1139.195, 72.98938
1140.288, 73.84351
1141.380, 70.42957
1142.473, 81.88452
1143.565, 28.72021
1144.657, 65.93311
1145.749, 5.076782
1146.841, 31.83533
1147.932, 20.01147
1149.024, 43.21594
1150.115, 12.63892
1151.206, 33.75220
1152.297, 17.02344
1153.388, 2.561401
1154.479, 28.04712
1155.569, 4.943115
1156.659, 31.96814
1157.750, 19.64502
1158.839, 44.56909
1159.929, 21.86768
1161.019, 2.558716
1162.108, 1.867310
1163.198, 4.206055
1164.287, 22.68079
1165.376, 58.94775
1166.465, 32.56750
1167.553, 41.17834
1168.642, 9.780029
1169.730, 10.36914
1170.818, 26.94543
1171.906, 0.4876710
1172.994, 21.06140
1174.082, 2.600586
1175.170, 15.87683
1176.257, 0.3803710
1177.344, 31.09766
1178.431, 50.56616
1179.518, 30.02490
1180.605, 63.51843
1181.691, 13.97107
1182.778, 53.54089
1183.864, 29.95032
1184.950, 47.37427
1186.036, 58.75757
1187.122, 59.21069
1188.207, 10.31360
1189.292, 69.02563
1190.378, 7.528809
1191.463, 48.77722
1192.548, 43.08472
1193.632, 76.49023
1194.717, 13.76575
1195.801, 21.13867
1196.886, 1.388550
1197.970, 9.706055
1199.054, 45.93750
1200.137, 10.14294
1201.221, 43.33313
1202.305, 1.512573
1203.388, 30.76440
1204.471, 13.96753
1205.554, 18.16931
1206.637, 57.53992
1207.719, 33.65137
1208.802, 40.83936
1209.884, 17.99524
1210.966, 1.121582
1212.048, 25.17798
1213.130, 3.734253
1214.212, 35.28821
1215.293, 0.3563230
1216.374, 60.38049
1217.456, 5.360840
1218.536, 51.43311
1219.617, 25.38489
1220.698, 33.36743
1221.778, 12.38025
1222.859, 4.429199
1223.939, 16.40698
1225.019, 24.42065
1226.099, 36.35217
1227.178, 54.40442
1228.258, 17.34729
1229.337, 7.293945
1230.417, 23.20837
1231.496, 21.09387
1232.574, 27.04688
1233.653, 5.067261
1234.732, 54.03894
1235.810, 22.59412
1236.888, 50.03149
1237.966, 28.97278
1239.044, 12.68152
1240.122, 27.49561
