##NAMES=Azurite
##RRUFFID=R050638
##IDEAL CHEMISTRY=Cu^2+^_3_(CO_3_)_2_(OH)_2_
##LOCALITY=Zacatecas, Mexico
##OWNER=RRUFF
##SOURCE=University of Arizona Mineral Museum
##DESCRIPTION=Blue bladed crystals
##STATUS=The identification of this mineral has been confirmed by X-ray diffraction and chemical analysis
##URL=rruff.info/R050638
##MEASURED CHEMISTRY=Cu_3.00_(CO_3_)_2_(OH)_2_
##PIN_ID=M00381
##ORIENTATION=Laser parallel to a* (1 0 0). Fiducial mark perpendicular to laser is parallel to b [0 1 0]
52.67100, 0.0000000E+00
53.91000, 63.62970
55.14900, 85.50366
56.38700, 87.91272
57.62600, 73.10040
58.86400, 86.91699
60.10300, 28.00085
61.34100, 10.17853
62.57900, 14.94141
63.81700, 36.76984
65.05400, 46.71912
66.29200, 16.82324
67.52900, 118.5085
68.76700, 304.0355
70.00400, 764.1884
71.24100, 1374.792
72.47700, 1949.663
73.71400, 2923.610
74.95100, 4571.454
76.18700, 6744.031
77.42300, 7824.197
78.65900, 7844.823
79.89500, 8697.796
81.13100, 9512.022
82.36700, 9567.405
83.60200, 9989.881
84.83700, 8731.473
86.07200, 7184.277
87.30800, 5840.254
88.54200, 4732.295
89.77700, 4148.311
91.01200, 3815.202
92.24600, 3845.875
93.48000, 3451.249
94.71400, 3185.265
95.94800, 3241.872
97.18200, 2902.030
98.41600, 2726.705
99.64900, 2816.865
100.8830, 2810.487
102.1160, 2566.548
103.3490, 2540.028
104.5820, 2728.909
105.8150, 3104.176
107.0470, 3434.815
108.2800, 3878.812
109.5120, 4496.157
110.7440, 4526.837
111.9760, 3238.843
113.2080, 2722.163
114.4400, 2819.996
115.6710, 3145.072
116.9030, 3256.651
118.1340, 2979.616
119.3650, 2763.423
120.5960, 2617.361
121.8270, 2777.351
123.0580, 3050.398
124.2880, 3242.508
125.5190, 3118.686
126.7490, 3103.894
127.9790, 3632.002
129.2090, 4396.005
130.4390, 5518.907
131.6680, 6669.727
132.8980, 7698.478
134.1270, 8435.214
135.3560, 9555.960
136.5850, 10236.73
137.8140, 10064.55
139.0430, 9412.413
140.2710, 9001.340
141.5000, 8516.334
142.7280, 8130.406
143.9560, 7717.557
145.1840, 7421.798
146.4120, 6899.129
147.6390, 6258.555
148.8670, 5391.080
150.0940, 4463.706
151.3210, 3940.433
152.5490, 3649.267
153.7750, 3327.207
155.0020, 2982.255
156.2290, 2749.413
157.4550, 2516.680
158.6810, 2416.058
159.9080, 2380.547
161.1340, 2591.146
162.3590, 2947.855
163.5850, 3271.674
164.8110, 3454.603
166.0360, 3582.639
167.2610, 3651.784
168.4860, 4087.036
169.7110, 4584.397
170.9360, 5307.867
172.1610, 5712.443
173.3850, 5327.127
174.6100, 5191.249
175.8340, 5086.540
177.0580, 5109.357
178.2820, 5232.153
179.5050, 5427.187
180.7290, 5838.200
181.9520, 6559.816
183.1760, 7652.569
184.3990, 8909.323
185.6220, 10534.46
186.8450, 11569.75
188.0670, 11869.71
189.2900, 11888.78
190.5120, 11923.97
191.7340, 11830.27
192.9560, 11457.66
194.1780, 11276.17
195.4000, 10778.77
196.6220, 10077.48
197.8430, 9086.294
199.0640, 8141.208
200.2860, 6997.988
201.5070, 6286.609
202.7270, 5604.064
203.9480, 4698.326
205.1690, 3415.476
206.3890, 2466.807
207.6090, 1804.917
208.8290, 1586.812
210.0490, 1323.686
211.2690, 1160.512
212.4890, 972.6904
213.7080, 963.2896
214.9280, 956.1538
216.1470, 854.2693
217.3660, 662.6235
218.5850, 706.2046
219.8030, 630.0022
221.0220, 662.0063
222.2400, 574.2075
223.4590, 565.5981
224.6770, 603.1709
225.8950, 667.9185
227.1120, 802.8352
228.3300, 832.9150
229.5480, 994.1526
230.7650, 1103.543
231.9820, 1202.081
233.1990, 1377.761
234.4160, 1700.577
235.6330, 2102.526
236.8490, 2968.603
238.0660, 4497.803
239.2820, 6518.124
240.4980, 8472.562
241.7140, 9099.112
242.9300, 8509.777
244.1460, 7876.549
245.3610, 7634.429
246.5770, 7487.415
247.7920, 7232.503
249.0070, 6850.693
250.2220, 6292.984
251.4370, 5486.372
252.6510, 4517.855
253.8660, 3441.436
255.0800, 2539.108
256.2940, 1926.874
257.5080, 1514.729
258.7220, 1393.673
259.9360, 1669.706
261.1490, 1726.823
262.3630, 1188.021
263.5760, 944.2920
264.7890, 830.6304
266.0020, 780.0320
267.2150, 938.4961
268.4270, 952.0229
269.6400, 1075.612
270.8520, 1106.264
272.0640, 1360.978
273.2760, 1352.754
274.4880, 1576.593
275.7000, 1603.495
276.9120, 1666.461
278.1230, 1651.493
279.3340, 1571.589
280.5450, 1521.752
281.7560, 1387.979
282.9670, 1256.272
284.1780, 1103.631
285.3880, 975.0557
286.5980, 828.5452
287.8090, 673.0996
289.0190, 442.7192
290.2290, 295.4036
291.4380, 238.1523
292.6480, 86.96509
293.8570, 15.84155
295.0670, 46.22021
296.2760, 15.23022
297.4850, 200.1836
298.6930, 201.1155
299.9020, 220.0264
301.1110, 309.9207
302.3190, 335.8181
303.5270, 298.7246
304.7350, 271.6328
305.9430, 317.5364
307.1510, 240.4468
308.3580, 304.3481
309.5660, 322.2549
310.7730, 264.1709
311.9800, 265.0842
313.1870, 200.9934
314.3940, 207.8823
315.6010, 75.75073
316.8070, 21.56738
318.0130, 4.674561
319.2200, 98.96924
320.4260, 221.3181
321.6310, 339.6772
322.8370, 476.9963
324.0430, 564.2397
325.2480, 648.4250
326.4540, 696.0891
327.6590, 732.6306
328.8640, 719.6470
330.0680, 744.6401
331.2730, 700.6809
332.4780, 742.7913
333.6820, 634.9844
334.8860, 570.2539
336.0900, 636.5850
337.2940, 573.9844
338.4980, 543.4441
339.7010, 585.9751
340.9050, 511.5667
342.1080, 461.2178
343.3110, 573.9302
344.5140, 597.7004
345.7170, 661.5544
346.9200, 750.4878
348.1220, 799.5017
349.3240, 915.5986
350.5270, 987.7788
351.7290, 1146.042
352.9310, 1231.386
354.1320, 1409.809
355.3340, 1518.309
356.5350, 1741.888
357.7370, 2089.545
358.9380, 2315.275
360.1390, 2470.077
361.3400, 2882.965
362.5400, 3108.926
363.7410, 3612.963
364.9410, 3897.072
366.1410, 4293.263
367.3410, 4864.534
368.5410, 5498.878
369.7410, 6123.313
370.9400, 6722.823
372.1400, 7470.412
373.3390, 8350.083
374.5380, 9285.829
375.7370, 9995.650
376.9360, 10820.56
378.1350, 11715.55
379.3330, 12598.61
380.5310, 13499.76
381.7300, 14692.98
382.9280, 16040.27
384.1260, 17718.63
385.3230, 19555.07
386.5210, 22649.58
387.7180, 26463.16
388.9160, 31205.84
390.1130, 37410.58
391.3100, 44149.40
392.5060, 50889.28
393.7030, 55754.24
394.9000, 58925.27
396.0960, 60051.33
397.2920, 60046.48
398.4880, 58889.66
399.6840, 57243.92
400.8800, 54526.23
402.0750, 50577.58
403.2710, 45927.00
404.4660, 41071.46
405.6610, 35654.97
406.8560, 30356.52
408.0510, 25736.12
409.2450, 21997.77
410.4400, 18788.46
411.6340, 16289.20
412.8280, 14261.98
414.0220, 12781.81
415.2160, 11308.68
416.4100, 10165.60
417.6030, 9139.558
418.7970, 8380.562
419.9900, 7584.603
421.1830, 7093.686
422.3760, 6392.808
423.5690, 5984.968
424.7610, 5484.168
425.9540, 5241.410
427.1460, 4821.685
428.3380, 4447.997
429.5300, 4198.349
430.7220, 3947.737
431.9140, 3588.162
433.1050, 3391.621
434.2970, 3127.114
435.4880, 3014.639
436.6790, 2727.197
437.8700, 2553.787
439.0610, 2425.468
440.2510, 2253.281
441.4420, 2146.200
442.6320, 2015.071
443.8220, 1844.015
445.0120, 1709.434
446.2020, 1660.543
447.3910, 1599.508
448.5810, 1501.893
449.7700, 1480.902
450.9600, 1463.780
452.1490, 1308.448
453.3370, 1407.218
454.5260, 1314.914
455.7150, 1287.812
456.9030, 1296.625
458.0910, 1327.671
459.2800, 1348.028
460.4670, 1267.124
461.6550, 1311.104
462.8430, 1306.413
464.0300, 1167.868
465.2180, 1303.178
466.4050, 1237.976
467.5920, 1260.131
468.7790, 1268.150
469.9650, 1263.785
471.1520, 1218.024
472.3380, 1184.189
473.5250, 1139.114
474.7110, 1096.804
475.8970, 993.1025
477.0820, 1012.282
478.2680, 983.2651
479.4540, 940.7900
480.6390, 989.7849
481.8240, 975.3044
483.0090, 974.4292
484.1940, 984.7881
485.3780, 954.3391
486.5630, 949.3711
487.7470, 898.3101
488.9320, 935.2312
490.1160, 919.3940
491.3000, 879.8264
492.4830, 830.1626
493.6670, 782.6318
494.8500, 776.6318
496.0340, 759.7017
497.2170, 698.7114
498.4000, 663.8274
499.5820, 657.2363
500.7650, 598.4761
501.9480, 598.8030
503.1300, 526.9170
504.3120, 493.4414
505.4940, 479.9343
506.6760, 464.5010
507.8580, 481.8325
509.0390, 455.4595
510.2210, 417.5718
511.4020, 413.1184
512.5830, 373.1985
513.7640, 389.8389
514.9450, 377.0432
516.1250, 363.8599
517.3060, 409.1785
518.4860, 354.8303
519.6660, 384.8442
520.8460, 405.1846
522.0260, 408.6667
523.2060, 525.7202
524.3850, 542.9800
525.5650, 635.9424
526.7440, 785.6228
527.9230, 808.8860
529.1020, 1025.375
530.2810, 1083.089
531.4590, 1308.830
532.6380, 1507.334
533.8160, 1662.503
534.9940, 1777.059
536.1720, 1868.688
537.3500, 1959.115
538.5270, 1862.824
539.7050, 1829.250
540.8820, 1839.250
542.0590, 1659.835
543.2360, 1652.631
544.4130, 1420.877
545.5900, 1370.316
546.7660, 1178.947
547.9430, 1039.473
549.1190, 926.5027
550.2950, 819.2456
551.4710, 690.7957
552.6470, 671.8740
553.8220, 658.5391
554.9980, 608.1167
556.1730, 545.6060
557.3480, 480.6267
558.5230, 481.6643
559.6980, 441.3096
560.8730, 426.5149
562.0470, 414.2903
563.2220, 368.6421
564.3960, 352.1124
565.5700, 316.5632
566.7440, 325.4934
567.9170, 335.4181
569.0910, 304.3010
570.2640, 319.5408
571.4380, 277.4971
572.6110, 285.9133
573.7840, 303.6964
574.9570, 208.6244
576.1290, 174.3680
577.3020, 158.0913
578.4740, 113.7089
579.6460, 128.4771
580.8180, 97.15027
581.9900, 94.80798
583.1620, 82.65125
584.3330, 133.1793
585.5040, 53.89685
586.6760, 66.65552
587.8470, 54.46094
589.0180, 7.305054
590.1880, 18.17896
591.3590, 33.09497
592.5290, 29.03650
593.7000, 24.01733
594.8700, 19.33472
596.0400, 5.408447
597.2090, 6.828613
598.3790, 15.74573
599.5490, 35.66138
600.7180, 26.61218
601.8870, 15.39636
603.0560, 38.62109
604.2250, 22.69519
605.3940, 1.818726
606.5620, 75.98218
607.7300, 64.22363
608.8990, 82.53784
610.0670, 62.93518
611.2350, 28.40601
612.4020, 25.93311
613.5700, 37.51575
614.7370, 28.16089
615.9050, 60.86414
617.0720, 37.64331
618.2390, 28.51294
619.4060, 8.366211
620.5720, 33.70435
621.7390, 22.26038
622.9050, 27.71594
624.0710, 26.65479
625.2370, 17.55579
626.4030, 46.41626
627.5690, 9.241089
628.7340, 64.02051
629.9000, 45.76550
631.0650, 32.47388
632.2300, 40.14282
633.3950, 34.77344
634.5600, 75.36426
635.7240, 70.91968
636.8890, 83.43945
638.0530, 72.92407
639.2170, 49.37256
640.3810, 42.78162
641.5450, 27.56360
642.7080, 29.52710
643.8720, 14.72363
645.0350, 2.075806
646.1980, 16.06580
647.3610, 29.84302
648.5240, 33.82629
649.6870, 7.113525
650.8490, 79.00232
652.0120, 7.219727
653.1740, 31.50110
654.3360, 55.85962
655.4980, 17.30847
656.6600, 24.82751
657.8210, 93.42102
658.9830, 19.12524
660.1440, 39.90173
661.3050, 57.76135
662.4660, 34.71350
663.6270, 37.74646
664.7870, 16.86206
665.9480, 44.04919
667.1080, 21.32251
668.2680, 56.67017
669.4280, 76.11072
670.5880, 44.65442
671.7480, 72.75879
672.9070, 35.59595
674.0670, 9.987061
675.2260, 4.681396
676.3850, 24.11072
677.5440, 3.062988
678.7030, 7.716187
679.8610, 17.89661
681.0200, 28.89111
682.1780, 21.62793
683.3360, 6.687988
684.4940, 32.92957
685.6520, 76.49768
686.8090, 84.02332
687.9670, 49.50720
689.1240, 19.94507
690.2810, 79.33020
691.4380, 44.67310
692.5950, 67.96948
693.7520, 22.22266
694.9080, 24.42468
696.0650, 43.57605
697.2210, 41.68091
698.3770, 69.73938
699.5330, 89.75549
700.6880, 52.73157
701.8440, 81.66333
702.9990, 70.55457
704.1550, 70.40417
705.3100, 38.21216
706.4650, 118.9741
707.6190, 95.69922
708.7740, 80.38574
709.9290, 42.03235
711.0830, 61.63452
712.2370, 128.1952
713.3910, 102.7203
714.5450, 151.2081
715.6980, 172.6605
716.8520, 213.0776
718.0050, 201.4597
719.1580, 248.8068
720.3110, 236.1190
721.4640, 192.3964
722.6170, 276.6389
723.7700, 261.8466
724.9220, 306.0190
726.0740, 300.1567
727.2260, 310.2592
728.3780, 300.2605
729.5300, 362.2922
730.6810, 345.2882
731.8330, 378.2487
732.9840, 432.1733
734.1350, 523.0552
735.2860, 498.6573
736.4370, 560.5330
737.5880, 582.8000
738.7380, 646.8169
739.8880, 593.2784
741.0390, 695.7839
742.1890, 630.3843
743.3380, 728.8376
744.4880, 730.4316
745.6380, 722.5366
746.7870, 745.2820
747.9360, 827.7825
749.0850, 826.4214
750.2340, 860.0759
751.3830, 922.8040
752.5310, 928.7759
753.6800, 1058.239
754.8280, 1076.577
755.9760, 1224.290
757.1240, 1309.198
758.2720, 1399.562
759.4190, 1505.453
760.5670, 1522.818
761.7140, 1488.493
762.8610, 1441.093
764.0080, 1508.417
765.1550, 1425.257
766.3020, 1261.186
767.4480, 1235.130
768.5950, 1055.828
769.7410, 1026.252
770.8870, 957.7676
772.0330, 827.1453
773.1780, 797.9873
774.3240, 756.7542
775.4690, 691.5752
776.6140, 582.2852
777.7590, 561.6956
778.9040, 504.9369
780.0490, 566.7505
781.1940, 537.4373
782.3380, 499.7068
783.4820, 502.0007
784.6260, 444.2130
785.7700, 472.6526
786.9140, 411.7891
788.0580, 432.4316
789.2010, 444.6317
790.3450, 424.2897
791.4880, 400.3783
792.6310, 454.8944
793.7730, 397.7889
794.9160, 411.1720
796.0590, 402.2126
797.2010, 425.8816
798.3430, 422.2140
799.4850, 419.3949
800.6270, 396.9944
801.7690, 385.3773
802.9100, 410.1465
804.0520, 497.9890
805.1930, 457.3370
806.3340, 531.4486
807.4750, 543.3245
808.6160, 577.1616
809.7560, 598.2246
810.8970, 670.6121
812.0370, 739.6013
813.1770, 779.5056
814.3170, 946.6016
815.4570, 1037.402
816.5960, 1159.474
817.7360, 1339.962
818.8750, 1458.851
820.0140, 1723.519
821.1530, 1929.723
822.2920, 2299.722
823.4310, 2666.518
824.5690, 3131.406
825.7070, 3537.778
826.8460, 3768.424
827.9840, 4097.252
829.1220, 4315.537
830.2590, 4549.225
831.3970, 4587.986
832.5340, 4653.823
833.6710, 4581.116
834.8080, 4391.378
835.9450, 4151.106
837.0820, 3877.091
838.2190, 3553.576
839.3550, 3213.473
840.4910, 2928.238
841.6270, 2600.009
842.7630, 2300.288
843.8990, 1903.558
845.0350, 1632.641
846.1700, 1409.577
847.3060, 1238.984
848.4410, 1015.708
849.5760, 915.0522
850.7100, 761.2382
851.8450, 678.5945
852.9800, 621.9573
854.1140, 494.3270
855.2480, 461.7037
856.3820, 361.0879
857.5160, 337.4795
858.6500, 310.8793
859.7830, 279.2871
860.9170, 317.7031
862.0500, 293.1282
863.1830, 255.5620
864.3160, 263.0051
865.4480, 234.4592
866.5810, 207.9231
867.7130, 186.3972
868.8460, 215.8816
869.9780, 259.5933
871.1100, 219.1243
872.2410, 279.7686
873.3730, 291.3060
874.5050, 303.5942
875.6360, 340.9097
876.7670, 314.2375
877.8980, 386.4868
879.0290, 395.9888
880.1590, 404.6804
881.2900, 445.0356
882.4200, 438.8282
883.5500, 477.7098
884.6800, 504.5117
885.8100, 538.6611
886.9400, 567.6674
888.0690, 591.1672
889.1990, 619.6580
890.3280, 640.9673
891.4570, 684.0356
892.5860, 693.1355
893.7140, 725.2666
894.8430, 757.0013
895.9710, 786.5605
897.1000, 827.8208
898.2280, 864.0585
899.3560, 915.3241
900.4830, 963.7437
901.6110, 1005.920
902.7380, 1108.252
903.8660, 1178.608
904.9930, 1282.987
906.1200, 1290.387
907.2460, 1441.812
908.3730, 1501.269
909.5000, 1586.751
910.6260, 1736.254
911.7520, 1882.909
912.8780, 2040.453
914.0040, 2234.194
915.1290, 2484.782
916.2550, 2736.515
917.3800, 3016.174
918.5050, 3391.861
919.6300, 3807.007
920.7550, 4199.330
921.8800, 4825.117
923.0040, 5435.945
924.1290, 6092.804
925.2530, 6932.715
926.3770, 8102.660
927.5010, 9092.647
928.6250, 10292.68
929.7480, 11442.75
930.8720, 12399.86
931.9950, 13212.04
933.1180, 14075.25
934.2410, 14309.51
935.3640, 14494.82
936.4860, 14377.18
937.6090, 13845.58
938.7310, 13210.02
939.8530, 12237.51
940.9750, 11240.04
942.0970, 10213.62
943.2180, 9024.259
944.3400, 7929.945
945.4610, 6928.691
946.5820, 6025.020
947.7030, 5210.674
948.8240, 4517.202
949.9450, 3893.122
951.0650, 3410.084
952.1860, 3049.082
953.3060, 2699.124
954.4260, 2420.197
955.5460, 2223.303
956.6650, 2081.459
957.7850, 1956.645
958.9040, 1861.869
960.0230, 1658.124
961.1420, 1596.414
962.2610, 1438.735
963.3800, 1379.084
964.4990, 1347.461
965.6170, 1247.864
966.7350, 1179.301
967.8530, 1170.768
968.9710, 1053.272
970.0890, 959.8035
971.2070, 992.3606
972.3240, 849.9441
973.4410, 784.5559
974.5580, 748.1929
975.6750, 696.8557
976.7920, 702.5435
977.9090, 631.2646
979.0250, 537.0090
980.1410, 509.7780
981.2580, 509.5713
982.3740, 465.3912
983.4890, 465.2371
984.6050, 415.1053
985.7200, 380.9973
986.8360, 329.9120
987.9510, 256.8494
989.0660, 283.8098
990.1810, 191.7927
991.2950, 188.7980
992.4100, 113.8265
993.5240, 145.8771
994.6390, 124.9497
995.7530, 97.04443
996.8660, 84.16101
997.9800, 73.29968
999.0940, 19.46008
1000.207, 51.64197
1001.320, 30.84668
1002.433, 22.07446
1003.546, 18.65063
1004.659, 2.381226
1005.772, 12.09070
1006.884, 29.21985
1007.996, 43.09387
1009.108, 17.67126
1010.220, 61.30652
1011.332, 74.15527
1012.444, 46.64124
1013.555, 22.99402
1014.666, 37.06042
1015.777, 0.9241940
1016.888, 7.932617
1017.999, 18.85156
1019.110, 7.994019
1020.220, 6.634033
1021.331, 49.46484
1022.441, 27.63562
1023.551, 18.78931
1024.661, 51.04968
1025.770, 23.62659
1026.880, 16.29541
1027.989, 40.44299
1029.098, 39.13562
1030.207, 18.49207
1031.316, 21.15259
1032.425, 25.28979
1033.533, 60.64209
1034.642, 43.25464
1035.750, 37.97803
1036.858, 50.96851
1037.966, 30.71167
1039.073, 35.28308
1040.181, 39.29895
1041.288, 29.75525
1042.396, 26.96423
1043.503, 15.23657
1044.610, 7.740356
1045.716, 3.568237
1046.823, 9.617554
1047.929, 19.31592
1049.036, 6.694824
1050.142, 1.831909
1051.248, 24.13367
1052.353, 30.73267
1053.459, 51.74963
1054.564, 65.88599
1055.670, 76.84875
1056.775, 91.82324
1057.880, 119.8088
1058.985, 113.8059
1060.089, 154.8135
1061.194, 111.8920
1062.298, 167.9307
1063.402, 162.2124
1064.506, 165.6150
1065.610, 226.1802
1066.713, 262.8856
1067.817, 289.5139
1068.920, 316.1292
1070.023, 379.4573
1071.126, 438.9528
1072.229, 454.1499
1073.332, 519.4233
1074.435, 625.5486
1075.537, 676.5803
1076.639, 693.9551
1077.741, 824.4600
1078.843, 811.0999
1079.945, 1068.375
1081.046, 1179.595
1082.148, 1424.894
1083.249, 1631.676
1084.350, 2094.676
1085.451, 2392.623
1086.551, 3128.520
1087.652, 3926.106
1088.752, 5261.576
1089.853, 7003.841
1090.953, 8776.162
1092.053, 10719.85
1093.152, 11634.72
1094.252, 11740.17
1095.351, 11248.13
1096.451, 10245.41
1097.550, 8812.637
1098.649, 7447.911
1099.748, 5972.280
1100.846, 4640.601
1101.945, 3671.927
1103.043, 2960.168
1104.141, 2300.778
1105.239, 1800.523
1106.337, 1495.750
1107.434, 1297.121
1108.532, 1150.346
1109.629, 986.8728
1110.726, 821.2135
1111.823, 722.5288
1112.920, 638.7571
1114.017, 596.9873
1115.113, 492.2573
1116.210, 513.4832
1117.306, 447.7843
1118.402, 486.0715
1119.498, 473.3862
1120.593, 455.7207
1121.689, 408.0149
1122.784, 413.2219
1123.879, 377.6711
1124.974, 369.8704
1126.069, 307.0796
1127.164, 279.7473
1128.259, 262.4563
1129.353, 189.6377
1130.447, 152.8142
1131.541, 89.98547
1132.635, 108.3690
1133.729, 38.88867
1134.822, 13.18567
1135.916, 36.20581
1137.009, 65.38025
1138.102, 28.43799
1139.195, 2.591187
1140.288, 12.95593
1141.380, 61.94238
1142.473, 7.185303
1143.565, 7.282837
1144.657, 34.37207
1145.749, 38.32214
1146.841, 56.92786
1147.932, 9.963867
1149.024, 2.058838
1150.115, 16.24707
1151.206, 8.314087
1152.297, 3.653442
1153.388, 20.24756
1154.479, 12.63171
1155.569, 4.243408
1156.659, 17.73804
1157.750, 42.04797
1158.839, 0.2337650
1159.929, 12.56592
1161.019, 34.58569
1162.108, 27.17053
1163.198, 24.08252
1164.287, 22.63586
1165.376, 3.655396
1166.465, 27.03467
1167.553, 8.156250
1168.642, 3.470581
1169.730, 21.16809
1170.818, 3.203735
1171.906, 28.59583
1172.994, 8.021973
1174.082, 8.528320
1175.170, 15.06311
1176.257, 14.45300
1177.344, 14.96057
1178.431, 32.27881
1179.518, 19.89709
1180.605, 8.889404
1181.691, 13.55188
1182.778, 7.979248
1183.864, 23.39832
1184.950, 20.79431
1186.036, 42.17590
1187.122, 51.54553
1188.207, 51.31799
1189.292, 50.96631
1190.378, 56.62695
1191.463, 30.01526
1192.548, 39.37622
1193.632, 24.76929
1194.717, 22.04761
1195.801, 18.44910
1196.886, 15.70642
1197.970, 18.44226
1199.054, 19.58813
1200.137, 29.42200
1201.221, 24.72253
1202.305, 37.87708
1203.388, 35.06079
1204.471, 57.22009
1205.554, 13.51501
1206.637, 33.84668
1207.719, 4.918945
1208.802, 26.03613
1209.884, 6.907471
1210.966, 12.15002
1212.048, 43.12097
1213.130, 2.091187
1214.212, 19.05127
1215.293, 21.03137
1216.374, 22.96924
1217.456, 33.85266
1218.536, 23.24243
1219.617, 55.80029
1220.698, 20.30481
1221.778, 6.589233
1222.859, 3.524048
1223.939, 44.33838
1225.019, 25.19458
1226.099, 63.13635
1227.178, 75.13550
1228.258, 17.79529
1229.337, 53.74780
1230.417, 2.271240
1231.496, 60.28149
1232.574, 79.09424
1233.653, 42.65625
1234.732, 37.25793
1235.810, 107.0199
1236.888, 59.64062
1237.966, 100.1687
1239.044, 14.78979
1240.122, 66.88110
