##NAMES=Baddeleyite
##RRUFFID=R060078
##IDEAL CHEMISTRY=Zr^4+^O_2_
##LOCALITY=Wetloo mine, Mogok, Burma
##OWNER=RRUFF
##SOURCE=Marcus Origlieri
##DESCRIPTION=Dark brown fragment
##STATUS=The identification of this mineral has been confirmed by X-ray diffraction and chemical analysis
##URL=rruff.info/R060078
##MEASURED CHEMISTRY=(Zr_0.99_Hf_0.01_)_Î£=1_O_2_
##PIN_ID=L00545
##ORIENTATION=Laser parallel to b* (0 1 0). Fiducial mark perpendicular to laser is parallel to c [0 0 1]
51.43100, 0.0000000E+00
52.67100, 61.92749
53.91000, 132.8244
55.14900, 681.8262
56.38700, 683.0894
57.62600, 369.1504
58.86400, 431.3491
60.10300, 348.9833
61.34100, 213.5762
62.57900, 118.3422
63.81700, 38.06921
65.05400, 62.09076
66.29200, 109.1533
67.52900, 108.6437
68.76700, 40.90747
70.00400, 100.7397
71.24100, 262.9961
72.47700, 319.5483
73.71400, 420.0879
74.95100, 669.3308
76.18700, 923.0229
77.42300, 1036.939
78.65900, 1301.892
79.89500, 1589.741
81.13100, 2031.375
82.36700, 2475.697
83.60200, 2861.600
84.83700, 3114.986
86.07200, 3385.752
87.30800, 3843.808
88.54200, 4512.054
89.77700, 5474.350
91.01200, 7287.526
92.24600, 10178.43
93.48000, 14143.92
94.71400, 19124.92
95.94800, 22222.34
97.18200, 21810.11
98.41600, 18610.19
99.64900, 16028.51
100.8830, 13870.04
102.1160, 12030.74
103.3490, 10493.59
104.5820, 9767.635
105.8150, 9024.922
107.0470, 8585.500
108.2800, 8446.405
109.5120, 8234.634
110.7440, 7283.159
111.9760, 6280.920
113.2080, 5850.875
114.4400, 5639.972
115.6710, 5614.169
116.9030, 5445.426
118.1340, 5181.706
119.3650, 5132.975
120.5960, 4919.197
121.8270, 4700.345
123.0580, 4699.385
124.2880, 4454.294
125.5190, 4244.888
126.7490, 4151.672
127.9790, 4125.619
129.2090, 4191.696
130.4390, 3987.886
131.6680, 3974.174
132.8980, 3726.517
134.1270, 3741.028
135.3560, 3719.838
136.5850, 3817.980
137.8140, 3847.475
139.0430, 3814.340
140.2710, 3823.590
141.5000, 3598.236
142.7280, 3466.291
143.9560, 3767.763
145.1840, 3593.659
146.4120, 3719.983
147.6390, 3753.742
148.8670, 3793.938
150.0940, 3899.572
151.3210, 4122.650
152.5490, 4294.661
153.7750, 4546.583
155.0020, 4774.688
156.2290, 5075.164
157.4550, 5294.956
158.6810, 5503.141
159.9080, 5926.773
161.1340, 6474.852
162.3590, 7133.196
163.5850, 8077.675
164.8110, 9416.165
166.0360, 11719.41
167.2610, 15813.23
168.4860, 21316.44
169.7110, 26734.92
170.9360, 27823.66
172.1610, 24903.62
173.3850, 21503.83
174.6100, 19442.29
175.8340, 17841.99
177.0580, 17626.95
178.2820, 19042.14
179.5050, 24122.57
180.7290, 32633.25
181.9520, 43812.18
183.1760, 49973.34
184.3990, 46818.75
185.6220, 38185.41
186.8450, 32105.29
188.0670, 26933.39
189.2900, 22297.75
190.5120, 18676.33
191.7340, 16562.14
192.9560, 15090.18
194.1780, 13828.44
195.4000, 12785.93
196.6220, 11485.64
197.8430, 10302.58
199.0640, 9468.557
200.2860, 8837.206
201.5070, 8629.546
202.7270, 8325.540
203.9480, 7908.325
205.1690, 7260.572
206.3890, 6835.357
207.6090, 6742.222
208.8290, 6451.297
210.0490, 6324.962
211.2690, 6586.488
212.4890, 6383.245
213.7080, 6405.404
214.9280, 6472.041
216.1470, 6098.121
217.3660, 5926.365
218.5850, 5555.195
219.8030, 5248.590
221.0220, 5328.532
222.2400, 5127.002
223.4590, 4895.984
224.6770, 4856.466
225.8950, 4724.430
227.1120, 4722.867
228.3300, 4657.761
229.5480, 4521.102
230.7650, 4579.873
231.9820, 4517.068
233.1990, 4460.678
234.4160, 4629.686
235.6330, 4681.086
236.8490, 4731.609
238.0660, 4862.985
239.2820, 4887.547
240.4980, 5000.427
241.7140, 5128.660
242.9300, 5057.238
244.1460, 5127.238
245.3610, 5171.410
246.5770, 5064.992
247.7920, 5441.900
249.0070, 5336.123
250.2220, 5654.661
251.4370, 5800.508
252.6510, 5725.107
253.8660, 5665.918
255.0800, 5543.404
256.2940, 5340.724
257.5080, 5210.124
258.7220, 5382.391
259.9360, 5164.767
261.1490, 5306.182
262.3630, 5108.480
263.5760, 5197.186
264.7890, 5046.238
266.0020, 5262.986
267.2150, 5255.637
268.4270, 5327.910
269.6400, 5474.875
270.8520, 5620.774
272.0640, 5760.514
273.2760, 6147.809
274.4880, 6501.984
275.7000, 6690.090
276.9120, 7287.629
278.1230, 7557.082
279.3340, 7843.564
280.5450, 8208.534
281.7560, 8491.752
282.9670, 9025.856
284.1780, 9331.418
285.3880, 9581.762
286.5980, 9826.292
287.8090, 10385.01
289.0190, 10751.92
290.2290, 11279.01
291.4380, 11682.30
292.6480, 12526.76
293.8570, 13570.40
295.0670, 14795.22
296.2760, 16081.22
297.4850, 18064.40
298.6930, 19362.75
299.9020, 20439.28
301.1110, 20173.97
302.3190, 19403.82
303.5270, 18282.83
304.7350, 16761.99
305.9430, 15589.29
307.1510, 14568.74
308.3580, 13578.32
309.5660, 12998.02
310.7730, 12081.85
311.9800, 11577.80
313.1870, 11347.88
314.3940, 10947.04
315.6010, 10829.83
316.8070, 10679.78
318.0130, 10752.32
319.2200, 10702.97
320.4260, 10820.73
321.6310, 10954.60
322.8370, 10962.58
324.0430, 11148.68
325.2480, 11041.89
326.4540, 10859.21
327.6590, 10419.63
328.8640, 10156.17
330.0680, 10026.81
331.2730, 10230.56
332.4780, 10898.41
333.6820, 12043.37
334.8860, 13722.44
336.0900, 16567.61
337.2940, 20323.88
338.4980, 24750.26
339.7010, 27985.73
340.9050, 29437.32
342.1080, 28501.00
343.3110, 25707.79
344.5140, 22498.74
345.7170, 19103.89
346.9200, 15931.21
348.1220, 13423.72
349.3240, 11398.42
350.5270, 9700.300
351.7290, 8224.377
352.9310, 6949.641
354.1320, 5874.096
355.3340, 4933.740
356.5350, 4381.590
357.7370, 4137.639
358.9380, 3997.882
360.1390, 3689.311
361.3400, 3849.909
362.5400, 4034.672
363.7410, 4439.597
364.9410, 5170.682
366.1410, 6308.923
367.3410, 8088.319
368.5410, 10468.87
369.7410, 13145.57
370.9400, 15341.42
372.1400, 15986.42
373.3390, 15186.56
374.5380, 14137.85
375.7370, 12665.28
376.9360, 11094.86
378.1350, 9566.569
379.3330, 8427.420
380.5310, 7235.409
381.7300, 6063.533
382.9280, 5046.793
384.1260, 4101.188
385.3230, 3378.713
386.5210, 2747.371
387.7180, 2258.160
388.9160, 1671.078
390.1130, 1238.126
391.3100, 837.3008
392.5060, 546.6934
393.7030, 454.0322
394.9000, 165.5859
396.0960, 15.26465
397.2920, 89.96289
398.4880, 314.1416
399.6840, 398.3672
400.8800, 501.6807
402.0750, 546.1309
403.2710, 613.7422
404.4660, 643.5439
405.6610, 707.5527
406.8560, 744.6953
408.0510, 744.3066
409.2450, 824.0713
410.4400, 816.1309
411.6340, 858.4854
412.8280, 792.1543
414.0220, 712.1084
415.2160, 612.3115
416.4100, 617.7197
417.6030, 629.3359
418.7970, 550.1670
419.9900, 425.1768
421.1830, 309.3076
422.3760, 287.5078
423.5690, 193.7695
424.7610, 115.0498
425.9540, 34.68555
427.1460, 14.50293
428.3380, 150.3652
429.5300, 140.3438
430.7220, 258.4326
431.9140, 317.6338
433.1050, 289.9463
434.2970, 395.3701
435.4880, 413.9053
436.6790, 498.5508
437.8700, 775.3076
439.0610, 786.1738
440.2510, 884.1504
441.4420, 898.2363
442.6320, 1087.433
443.8220, 1131.738
445.0120, 1351.152
446.2020, 1412.677
447.3910, 1656.309
448.5810, 2014.051
449.7700, 2363.900
450.9600, 2651.858
452.1490, 3193.926
453.3370, 3526.102
454.5260, 4392.387
455.7150, 5006.777
456.9030, 5919.279
458.0910, 7243.889
459.2800, 8941.604
460.4670, 10902.43
461.6550, 13633.37
462.8430, 17180.41
464.0300, 21606.56
465.2180, 26888.83
466.4050, 32305.20
467.5920, 36205.68
468.7790, 37328.27
469.9650, 35650.95
471.1520, 32061.76
472.3380, 27670.67
473.5250, 23130.70
474.7110, 19122.83
475.8970, 15872.06
477.0820, 12947.41
478.2680, 10572.87
479.4540, 8802.438
480.6390, 7220.113
481.8240, 5860.898
483.0090, 4969.791
484.1940, 4058.795
485.3780, 3455.906
486.5630, 3285.128
487.7470, 2999.457
488.9320, 2799.896
490.1160, 2850.443
491.3000, 2811.097
492.4830, 2825.859
493.6670, 2975.727
494.8500, 2836.702
496.0340, 2701.783
497.2170, 2544.970
498.4000, 2314.262
499.5820, 2074.168
500.7650, 1810.159
501.9480, 1499.764
503.1300, 1371.473
504.3120, 1089.284
505.4940, 1004.198
506.6760, 893.2148
507.8580, 760.3340
509.0390, 630.5547
510.2210, 556.8770
511.4020, 519.4746
512.5830, 496.8662
513.7640, 515.5518
514.9450, 542.3291
516.1250, 551.2295
517.3060, 602.2412
518.4860, 748.3701
519.6660, 780.6299
520.8460, 851.0322
522.0260, 832.5645
523.2060, 1050.259
524.3850, 1072.086
525.5650, 1255.036
526.7440, 1441.135
527.9230, 1623.370
529.1020, 1946.769
530.2810, 2182.347
531.4590, 2377.094
532.6380, 2531.996
533.8160, 2527.030
534.9940, 2726.210
536.1720, 3042.532
537.3500, 3323.984
538.5270, 3614.114
539.7050, 4074.492
540.8820, 4599.617
542.0590, 5296.336
543.2360, 6294.420
544.4130, 7571.062
545.5900, 9233.981
546.7660, 11040.27
547.9430, 13292.03
549.1190, 15642.77
550.2950, 17229.56
551.4710, 18226.04
552.6470, 18069.99
553.8220, 16926.66
554.9980, 15340.03
556.1730, 13650.84
557.3480, 11993.18
558.5230, 10341.34
559.6980, 8819.012
560.8730, 7655.105
562.0470, 6526.111
563.2220, 5415.569
564.3960, 4587.362
565.5700, 3936.036
566.7440, 3384.823
567.9170, 2708.068
569.0910, 2413.201
570.2640, 2233.900
571.4380, 2043.778
572.6110, 1615.811
573.7840, 1456.996
574.9570, 1280.330
576.1290, 1184.809
577.3020, 1031.430
578.4740, 944.6465
579.6460, 881.0830
580.8180, 835.1191
581.9900, 812.2949
583.1620, 870.6084
584.3330, 923.0586
585.5040, 928.6445
586.6760, 1070.367
587.8470, 1364.225
589.0180, 1469.216
590.1880, 1797.346
591.3590, 2078.610
592.5290, 2293.009
593.7000, 2624.538
594.8700, 3249.199
596.0400, 3978.993
597.2090, 4692.921
598.3790, 5365.979
599.5490, 6211.165
600.7180, 7135.482
601.8870, 8295.926
603.0560, 9125.501
604.2250, 10129.20
605.3940, 10643.03
606.5620, 11299.98
607.7300, 11718.06
608.8990, 12012.27
610.0670, 11800.60
611.2350, 11620.06
612.4020, 11117.65
613.5700, 10618.36
614.7370, 10171.20
615.9050, 9659.162
617.0720, 9436.241
618.2390, 9422.441
619.4060, 9441.759
620.5720, 9896.201
621.7390, 10795.76
622.9050, 11948.43
624.0710, 13880.22
625.2370, 16045.13
626.4030, 18532.15
627.5690, 21055.29
628.7340, 24048.55
629.9000, 26202.92
631.0650, 27465.40
632.2300, 27404.00
633.3950, 26346.71
634.5600, 24665.54
635.7240, 22364.47
636.8890, 19888.51
638.0530, 17294.67
639.2170, 15122.94
640.3810, 12983.31
641.5450, 11085.80
642.7080, 9310.391
643.8720, 7847.093
645.0350, 6595.901
646.1980, 5659.815
647.3610, 4818.836
648.5240, 4195.963
649.6870, 3666.193
650.8490, 3403.881
652.0120, 2921.744
653.1740, 2616.649
654.3360, 2347.372
655.4980, 2058.578
656.6600, 1887.991
657.8210, 1796.700
658.9830, 1649.946
660.1440, 1485.551
661.3050, 1339.127
662.4660, 1282.415
663.6270, 1341.795
664.7870, 1224.524
665.9480, 1239.854
667.1080, 1315.230
668.2680, 1322.720
669.4280, 1248.189
670.5880, 1228.241
671.7480, 1291.173
672.9070, 1303.976
674.0670, 1263.037
675.2260, 1495.885
676.3850, 1535.285
677.5440, 1729.354
678.7030, 1656.649
679.8610, 1822.643
681.0200, 1910.185
682.1780, 2047.550
683.3360, 2231.725
684.4940, 2258.683
685.6520, 2386.799
686.8090, 2523.740
687.9670, 2791.684
689.1240, 3089.855
690.2810, 3127.248
691.4380, 3565.310
692.5950, 3662.755
693.7520, 4168.797
694.9080, 4334.070
696.0650, 4530.713
697.2210, 4853.899
698.3770, 5001.127
699.5330, 5211.471
700.6880, 5285.646
701.8440, 5294.887
702.9990, 5451.297
704.1550, 5401.697
705.3100, 5358.751
706.4650, 5085.174
707.6190, 4915.344
708.7740, 4597.949
709.9290, 4279.818
711.0830, 3993.137
712.2370, 3585.567
713.3910, 3329.319
714.5450, 2901.074
715.6980, 2800.568
716.8520, 2561.295
718.0050, 2240.311
719.1580, 1989.585
720.3110, 1847.173
721.4640, 1643.188
722.6170, 1414.122
723.7700, 1264.314
724.9220, 1116.887
726.0740, 1091.261
727.2260, 892.2910
728.3780, 853.2383
729.5300, 763.7373
730.6810, 869.8145
731.8330, 728.4775
732.9840, 687.7432
734.1350, 788.7715
735.2860, 768.9375
736.4370, 758.0312
737.5880, 639.0137
738.7380, 633.0488
739.8880, 663.8320
741.0390, 660.3721
742.1890, 780.1758
743.3380, 697.9199
744.4880, 763.4971
745.6380, 655.4590
746.7870, 838.5938
747.9360, 839.6992
749.0850, 794.9102
750.2340, 729.2490
751.3830, 764.8828
752.5310, 760.5566
753.6800, 738.3613
754.8280, 692.9688
755.9760, 680.1982
757.1240, 770.3467
758.2720, 594.8818
759.4190, 638.4170
760.5670, 528.9512
761.7140, 564.4834
762.8610, 417.0449
764.0080, 349.8037
765.1550, 472.3252
766.3020, 271.9531
767.4480, 337.4746
768.5950, 434.9775
769.7410, 264.7754
770.8870, 376.2607
772.0330, 296.7344
773.1780, 300.1982
774.3240, 234.6494
775.4690, 142.0889
776.6140, 286.5137
777.7590, 263.9238
778.9040, 22.32031
780.0490, 218.6982
781.1940, 49.06055
782.3380, 168.4053
783.4820, 71.73047
784.6260, 202.0361
785.7700, 51.32227
786.9140, 36.58789
788.0580, 62.16992
789.2010, 93.97754
790.3450, 55.20508
791.4880, 13.86816
792.6310, 83.91602
793.7730, 30.94141
794.9160, 65.01660
796.0590, 103.1562
797.2010, 155.3848
798.3430, 98.64746
799.4850, 239.0830
800.6270, 105.6807
801.7690, 69.37598
802.9100, 160.1562
804.0520, 122.0645
805.1930, 221.0889
806.3340, 279.2764
807.4750, 235.6631
808.6160, 180.8691
809.7560, 93.58398
810.8970, 137.0459
812.0370, 133.0049
813.1770, 70.10059
814.3170, 60.30176
815.4570, 189.6035
816.5960, 84.07715
817.7360, 102.8340
818.8750, 189.5547
820.0140, 132.3252
821.1530, 9.258301
822.2920, 70.39990
823.4310, 113.3320
824.5690, 37.99268
825.7070, 82.43262
826.8460, 63.01172
827.9840, 2.725098
829.1220, 64.45605
830.2590, 115.4424
831.3970, 32.51074
832.5340, 47.70508
833.6710, 82.04053
834.8080, 92.53564
835.9450, 24.80127
837.0820, 93.02881
838.2190, 27.78760
839.3550, 6.218750
840.4910, 20.90186
841.6270, 21.84570
842.7630, 62.45947
843.8990, 109.9653
845.0350, 68.37451
846.1700, 26.12109
847.3060, 59.02441
848.4410, 88.05615
849.5760, 117.9814
850.7100, 171.8105
851.8450, 194.6733
852.9800, 260.1953
854.1140, 241.7598
855.2480, 229.2378
856.3820, 216.6274
857.5160, 265.9258
858.6500, 280.1387
859.7830, 267.2646
860.9170, 295.3037
862.0500, 296.2573
863.1830, 302.1245
864.3160, 238.9043
865.4480, 306.5928
866.5810, 291.1924
867.7130, 377.7051
868.8460, 317.1343
869.9780, 342.4746
871.1100, 337.7275
872.2410, 349.5508
873.3730, 365.9688
874.5050, 366.9604
875.6360, 407.8643
876.7670, 336.6831
877.8980, 417.4092
879.0290, 438.0503
880.1590, 484.6060
881.2900, 416.0786
882.4200, 401.4634
883.5500, 321.7593
884.6800, 317.9580
885.8100, 394.1660
886.9400, 503.2798
888.0690, 498.2090
889.1990, 367.0552
890.3280, 521.8057
891.4570, 562.4717
892.5860, 482.0522
893.7140, 666.5449
894.8430, 593.9536
895.9710, 599.2773
897.1000, 568.5161
898.2280, 551.6699
899.3560, 514.7378
900.4830, 697.7173
901.6110, 539.6113
902.7380, 565.4282
903.8660, 665.1587
904.9930, 523.8096
906.1200, 656.3721
907.2460, 686.8481
908.3730, 660.2383
909.5000, 639.5420
910.6260, 633.7598
911.7520, 657.8896
912.8780, 696.9341
914.0040, 635.8955
915.1290, 641.7949
916.2550, 692.7212
917.3800, 773.4478
918.5050, 686.0879
919.6300, 786.6465
920.7550, 759.2749
921.8800, 665.6631
923.0040, 742.9639
924.1290, 802.9883
925.2530, 525.6909
926.3770, 710.8257
927.5010, 584.6982
928.6250, 743.1030
929.7480, 774.3149
930.8720, 709.4072
931.9950, 743.8145
933.1180, 582.8760
934.2410, 722.9766
935.3640, 695.5684
936.4860, 668.8613
937.6090, 775.8447
938.7310, 704.6768
939.8530, 713.7837
940.9750, 630.5225
942.0970, 536.8135
943.2180, 464.1792
944.3400, 648.5176
945.4610, 446.3960
946.5820, 612.4648
947.7030, 561.4106
948.8240, 522.8066
949.9450, 488.7495
951.0650, 528.4897
952.1860, 341.3638
953.3060, 521.8901
954.4260, 406.1533
955.5460, 398.5654
956.6650, 430.0571
957.7850, 444.4697
958.9040, 454.9414
960.0230, 479.9473
961.1420, 458.2549
962.2610, 426.0610
963.3800, 412.4033
964.4990, 407.3208
965.6170, 434.6211
966.7350, 396.1743
967.8530, 419.7266
968.9710, 426.1787
970.0890, 411.9292
971.2070, 426.3862
972.3240, 329.6860
973.4410, 518.0811
974.5580, 481.8599
975.6750, 318.5942
976.7920, 415.6753
977.9090, 395.4297
979.0250, 424.4404
980.1410, 266.0952
981.2580, 392.5630
982.3740, 431.8174
983.4890, 343.8062
984.6050, 459.3872
985.7200, 401.8579
986.8360, 388.4863
987.9510, 584.8643
989.0660, 473.9390
990.1810, 354.7373
991.2950, 302.2056
992.4100, 383.2280
993.5240, 363.3135
994.6390, 447.1240
995.7530, 459.2119
996.8660, 488.1577
997.9800, 537.0659
999.0940, 553.6187
1000.207, 554.9883
1001.320, 506.3662
1002.433, 533.5522
1003.546, 396.1099
1004.659, 368.8867
1005.772, 500.5864
1006.884, 410.2417
1007.996, 431.3550
1009.108, 333.0142
1010.220, 453.9038
1011.332, 354.0078
1012.444, 369.8208
1013.555, 399.6655
1014.666, 291.7046
1015.777, 346.3257
1016.888, 356.6899
1017.999, 259.0518
1019.110, 215.2759
1020.220, 214.5396
1021.331, 298.3262
1022.441, 400.5532
1023.551, 326.0532
1024.661, 400.7144
1025.770, 426.4155
1026.880, 372.7681
1027.989, 392.5269
1029.098, 417.1523
1030.207, 344.8408
1031.316, 266.3604
1032.425, 370.8125
1033.533, 240.0264
1034.642, 219.4434
1035.750, 279.8291
1036.858, 260.1631
1037.966, 329.0659
1039.073, 326.1240
1040.181, 262.4194
1041.288, 367.6357
1042.396, 295.8740
1043.503, 374.2554
1044.610, 318.1470
1045.716, 356.2363
1046.823, 307.2192
1047.929, 213.8779
1049.036, 172.8765
1050.142, 250.1128
1051.248, 287.1978
1052.353, 295.3340
1053.459, 155.6299
1054.564, 234.7192
1055.670, 233.5469
1056.775, 147.3896
1057.880, 252.1787
1058.985, 101.3159
1060.089, 229.0845
1061.194, 294.8354
1062.298, 185.5796
1063.402, 133.4111
1064.506, 195.1343
1065.610, 213.8628
1066.713, 202.5303
1067.817, 181.2856
1068.920, 122.2578
1070.023, 189.0664
1071.126, 110.8833
1072.229, 207.7202
1073.332, 68.57568
1074.435, 154.8940
1075.537, 46.85254
1076.639, 63.55322
1077.741, 115.5908
1078.843, 117.2812
1079.945, 216.3633
1081.046, 217.4746
1082.148, 89.60303
1083.249, 86.74756
1084.350, 134.9380
1085.451, 6.686523
1086.551, 37.54297
1087.652, 56.69092
1088.752, 99.88379
1089.853, 117.1997
1090.953, 1.460938
1092.053, 147.8599
1093.152, 41.19775
1094.252, 205.5635
1095.351, 161.9546
1096.451, 97.35596
1097.550, 73.75488
1098.649, 1.801758
1099.748, 116.6553
1100.846, 53.14062
1101.945, 29.66016
1103.043, 79.21729
1104.141, 3.783203
1105.239, 26.69189
1106.337, 64.15576
1107.434, 93.75098
1108.532, 111.3608
1109.629, 125.2061
1110.726, 116.1313
1111.823, 89.29150
1112.920, 66.74365
1114.017, 26.43164
1115.113, 42.27197
1116.210, 17.16846
1117.306, 76.52930
1118.402, 135.2275
1119.498, 162.9253
1120.593, 280.6196
1121.689, 237.3164
1122.784, 250.0073
1123.879, 265.6987
1124.974, 183.3887
1126.069, 90.07666
1127.164, 79.76660
1128.259, 119.4551
1129.353, 125.1421
1130.447, 3.170898
1131.541, 87.51172
1132.635, 2.805664
1133.729, 157.8726
1134.822, 87.54736
1135.916, 81.22314
1137.009, 59.89697
1138.102, 154.5708
1139.195, 7.244141
1140.288, 130.9141
1141.380, 88.89209
1142.473, 112.5605
1143.565, 149.2310
1144.657, 107.4766
1145.749, 63.14502
1146.841, 62.81006
1147.932, 139.4756
1149.024, 114.1421
1150.115, 187.8135
1151.206, 24.38232
1152.297, 19.04346
1153.388, 6.547363
1154.479, 106.1152
1155.569, 203.7822
1156.659, 192.4487
1157.750, 83.11475
1158.839, 35.78223
1159.929, 58.93945
1161.019, 34.51025
1162.108, 140.2705
1163.198, 93.93555
1164.287, 106.6016
1165.376, 155.8784
1166.465, 41.45312
1167.553, 72.19824
1168.642, 31.14893
1169.730, 107.6226
1170.818, 29.26562
1171.906, 105.9087
1172.994, 45.55371
1174.082, 63.20020
1175.170, 126.8486
1176.257, 85.50000
1177.344, 17.84717
1178.431, 100.1997
1179.518, 98.40186
1180.605, 1.107910
1181.691, 18.49658
1182.778, 24.89648
1183.864, 6.297852
1184.950, 0.1386720
1186.036, 61.39844
1187.122, 41.66895
1188.207, 56.11475
1189.292, 100.7251
1190.378, 56.88232
1191.463, 6.919922
1192.548, 58.54395
1193.632, 23.17285
1194.717, 70.64307
1195.801, 92.27881
1196.886, 159.9189
1197.970, 48.56299
1199.054, 3.211426
1200.137, 71.70068
1201.221, 42.35547
1202.305, 44.82275
1203.388, 54.13672
1204.471, 48.33643
1205.554, 49.31104
1206.637, 27.31152
1207.719, 42.47217
1208.802, 131.0005
1209.884, 119.5479
1210.966, 102.2129
1212.048, 141.7036
1213.130, 117.0005
1214.212, 140.2036
1215.293, 191.2900
1216.374, 168.8491
1217.456, 196.9551
1218.536, 205.2378
1219.617, 270.8008
1220.698, 275.4482
1221.778, 299.2539
1222.859, 153.9507
1223.939, 169.3896
1225.019, 195.0894
1226.099, 186.7915
1227.178, 216.4023
1228.258, 194.3101
1229.337, 209.3105
1230.417, 158.2344
1231.496, 95.65527
1232.574, 89.89062
1233.653, 61.46436
1234.732, 76.06396
1235.810, 1.945801
1236.888, 41.57764
1237.966, 104.2310
1239.044, 85.94141
1240.122, 223.6519
1241.199, 51.36279
