##NAMES=Baddeleyite
##RRUFFID=R060016
##IDEAL CHEMISTRY=Zr^4+^O_2_
##LOCALITY=Wet Loo, Myanmar
##OWNER=RRUFF
##SOURCE=American Museum of Natural History
##DESCRIPTION=Brown crystal fragment
##STATUS=The identification of this mineral has been confirmed by X-ray diffraction and chemical analysis
##URL=rruff.info/R060016
##MEASURED CHEMISTRY=(Zr_0.99_Ti_0.01_)_Î£=1_O_2_
##PIN_ID=M00268
##ORIENTATION=Laser parallel to b* (0 1 0). Fiducial mark perpendicular to laser is parallel to -c [0 0 -1]
129.5460, 0.0000000E+00
130.7790, 95.73584
132.0110, 14.11963
133.2430, 89.37158
134.4750, 83.00928
135.7070, 95.19629
136.9380, 133.6680
138.1700, 2.668945
139.4010, 123.5117
140.6330, 9.974121
141.8640, 55.93750
143.0950, 35.08740
144.3250, 46.35449
145.5560, 112.8623
146.7860, 45.31982
148.0160, 2.177734
149.2470, 63.25439
150.4760, 66.50195
151.7060, 216.4365
152.9360, 137.9253
154.1650, 425.8428
155.3950, 355.0723
156.6240, 451.5073
157.8530, 677.0503
159.0820, 861.6147
160.3100, 1079.122
161.5390, 1145.501
162.7670, 1472.687
163.9950, 1899.626
165.2230, 2253.348
166.4510, 2862.007
167.6790, 3507.630
168.9060, 4188.138
170.1340, 5051.430
171.3610, 6026.417
172.5880, 7597.028
173.8150, 9981.202
175.0420, 11819.89
176.2690, 12850.04
177.4950, 13579.62
178.7210, 13308.60
179.9470, 12053.94
181.1730, 10592.62
182.3990, 9442.612
183.6250, 9233.901
184.8500, 10643.46
186.0760, 13233.29
187.3010, 16038.35
188.5260, 18306.64
189.7510, 19919.14
190.9750, 19348.85
192.2000, 16613.74
193.4240, 13163.83
194.6490, 9694.074
195.8730, 7079.485
197.0970, 5368.050
198.3200, 4267.883
199.5440, 3794.687
200.7670, 3538.190
201.9910, 3415.557
203.2140, 3219.143
204.4370, 3036.119
205.6590, 2850.257
206.8820, 2857.352
208.1050, 2710.216
209.3270, 2745.891
210.5490, 2658.387
211.7710, 2560.738
212.9930, 2683.973
214.2150, 2654.104
215.4360, 2770.145
216.6570, 2732.108
217.8790, 2984.002
219.1000, 3022.836
220.3210, 2996.615
221.5410, 2933.350
222.7620, 2760.044
223.9820, 2670.703
225.2030, 2376.331
226.4230, 2155.933
227.6430, 1949.511
228.8620, 1801.069
230.0820, 1755.611
231.3010, 1820.137
232.5210, 1578.651
233.7400, 1710.155
234.9590, 1562.651
236.1780, 1571.140
237.3960, 1719.623
238.6150, 1822.103
239.8330, 1884.579
241.0510, 1853.050
242.2690, 1980.520
243.4870, 1950.984
244.7050, 2055.447
245.9230, 2134.905
247.1400, 2120.361
248.3570, 2270.814
249.5740, 2134.266
250.7910, 2136.714
252.0080, 2219.160
253.2240, 2378.604
254.4410, 2381.049
255.6570, 2588.491
256.8730, 2610.933
258.0890, 2661.374
259.3050, 2585.814
260.5210, 2583.256
261.7360, 2538.697
262.9510, 2396.140
264.1670, 2225.584
265.3820, 2231.770
266.5960, 2121.488
267.8110, 2180.242
269.0260, 2212.521
270.2400, 2360.247
271.4540, 2423.732
272.6680, 2529.667
273.8820, 2580.093
275.0960, 2841.802
276.3090, 2939.948
277.5230, 3024.091
278.7360, 3174.388
279.9490, 3490.814
281.1620, 3559.354
282.3750, 3921.760
283.5880, 3953.363
284.8000, 4222.657
286.0120, 4534.768
287.2240, 4829.490
288.4360, 4764.040
289.6480, 5120.866
290.8600, 5289.723
292.0710, 5698.829
293.2830, 6069.095
294.4940, 6172.488
295.7050, 6642.049
296.9160, 6773.745
298.1260, 7181.567
299.3370, 7841.508
300.5470, 8120.561
301.7580, 8794.722
302.9680, 9408.978
304.1770, 9814.332
305.3870, 10096.78
306.5970, 10066.30
307.8060, 9839.916
309.0150, 9399.604
310.2250, 8467.366
311.4340, 7844.199
312.6420, 7196.098
313.8510, 6812.058
315.0590, 6429.075
316.2680, 6014.146
317.4760, 5985.268
318.6840, 5959.439
319.8920, 6132.653
321.0990, 6209.910
322.3070, 6407.208
323.5140, 6549.545
324.7210, 7035.919
325.9280, 7031.328
327.1350, 7436.770
328.3420, 7745.244
329.5490, 7868.750
330.7550, 7907.375
331.9610, 7973.849
333.1670, 7635.441
334.3730, 7391.060
335.5790, 7072.702
336.7840, 6838.370
337.9900, 7005.062
339.1950, 7417.777
340.4000, 7893.514
341.6050, 9056.272
342.8100, 10321.05
344.0150, 11684.85
345.2190, 12624.66
346.4230, 13023.49
347.6280, 12596.31
348.8320, 11574.12
350.0350, 10056.93
351.2390, 8264.730
352.4430, 6588.521
353.6460, 5142.306
354.8490, 4103.083
356.0520, 3434.856
357.2550, 2821.625
358.4580, 2414.390
359.6600, 2212.152
360.8630, 2055.912
362.0650, 1933.670
363.2670, 1955.426
364.4690, 1975.813
365.6710, 2051.935
366.8720, 2270.688
368.0740, 2507.442
369.2750, 2856.195
370.4760, 3473.949
371.6770, 4232.704
372.8780, 5062.459
374.0780, 6153.215
375.2790, 7087.973
376.4790, 8098.731
377.6790, 8736.493
378.8790, 8573.254
380.0790, 8222.020
381.2790, 7273.787
382.4780, 6370.555
383.6780, 5251.327
384.8770, 4283.104
386.0760, 3501.881
387.2750, 2900.663
388.4730, 2289.449
389.6720, 1890.238
390.8700, 1544.032
392.0690, 1101.831
393.2670, 901.6338
394.4650, 658.4419
395.6620, 428.2549
396.8600, 393.0732
398.0570, 316.8975
399.2550, 1.728027
400.4520, 35.54883
401.6490, 8.367676
402.8450, 126.8208
404.0420, 204.0483
405.2390, 178.3345
406.4350, 266.6714
407.6310, 375.0820
408.8270, 297.5923
410.0230, 348.2012
411.2190, 459.9258
412.4140, 456.8896
413.6090, 390.1201
414.8050, 337.6538
416.0000, 345.5112
417.1940, 338.6982
418.3890, 299.1646
419.5840, 364.8833
420.7780, 207.7803
421.9720, 290.7725
423.1660, 125.8970
424.3600, 95.07666
425.5540, 72.29395
426.7480, 88.46240
427.9410, 82.25000
429.1340, 139.0767
430.3270, 204.9341
431.5200, 163.8242
432.7130, 247.7437
433.9060, 247.6953
435.0980, 388.6807
436.2900, 294.6938
437.4830, 441.7329
438.6750, 458.7998
439.8660, 590.8921
441.0580, 621.0103
442.2500, 648.6279
443.4410, 689.3223
444.6320, 679.5156
445.8230, 752.7334
447.0140, 774.9756
448.2050, 792.2422
449.3950, 930.5327
450.5860, 1128.847
451.7760, 1226.186
452.9660, 1455.774
454.1560, 1604.933
455.3450, 1923.341
456.5350, 2119.774
457.7240, 2427.229
458.9140, 2989.709
460.1030, 3388.211
461.2920, 3992.737
462.4810, 4778.287
463.6690, 5796.859
464.8580, 6951.456
466.0460, 8425.075
467.2340, 10158.72
468.4220, 12031.39
469.6100, 14039.08
470.7970, 16551.79
471.9850, 18670.53
473.1720, 20247.30
474.3590, 20455.08
475.5460, 19547.90
476.7330, 17527.73
477.9200, 14806.59
479.1060, 11973.48
480.2930, 9480.393
481.4790, 7224.329
482.6650, 5730.291
483.8510, 4507.278
485.0370, 3735.292
486.2220, 3122.330
487.4080, 2699.396
488.5930, 2392.486
489.7780, 2261.604
490.9630, 2127.747
492.1480, 2000.917
493.3320, 1945.196
494.5170, 1980.340
495.7010, 1905.593
496.8850, 1938.874
498.0690, 2030.183
499.2530, 1793.520
500.4360, 1880.886
501.6200, 1647.282
502.8030, 1624.706
503.9860, 1277.160
505.1690, 1240.643
506.3520, 897.1567
507.5350, 810.7007
508.7170, 748.2749
509.9000, 745.8799
511.0820, 592.5161
512.2640, 456.1880
513.4460, 580.8921
514.6270, 512.6309
515.8090, 423.4009
516.9900, 460.2046
518.1710, 462.0474
519.3530, 443.9380
520.5330, 469.8667
521.7140, 557.8418
522.8950, 586.8608
524.0750, 659.9390
525.2550, 804.0630
526.4350, 891.2515
527.6150, 963.4849
528.7950, 1134.764
529.9750, 1292.105
531.1540, 1392.506
532.3340, 1585.956
533.5130, 1796.454
534.6920, 1897.006
535.8700, 2068.612
537.0490, 2118.278
538.2280, 2172.011
539.4060, 2217.799
540.5840, 2086.653
541.7620, 2018.015
542.9400, 2211.075
544.1180, 2342.910
545.2950, 2470.239
546.4720, 2745.108
547.6500, 3081.534
548.8270, 3551.867
550.0040, 4023.686
551.1800, 4526.342
552.3570, 5208.013
553.5330, 5907.750
554.7090, 6480.784
555.8850, 6936.124
557.0610, 7001.889
558.2370, 6708.311
559.4130, 6265.313
560.5880, 5754.812
561.7630, 4974.502
562.9380, 4164.667
564.1130, 3477.114
565.2880, 2812.391
566.4630, 2546.611
567.6370, 2101.215
568.8120, 1833.764
569.9860, 1629.380
571.1600, 1411.066
572.3330, 1239.301
573.5070, 1068.738
574.6810, 918.3604
575.8540, 787.4854
577.0270, 686.5146
578.2000, 598.6094
579.3730, 553.9346
580.5460, 526.0093
581.7180, 566.3174
582.8910, 536.6851
584.0630, 612.1162
585.2350, 646.6108
586.4070, 649.6709
587.5780, 628.7866
588.7500, 667.4731
589.9210, 726.2197
591.0930, 718.0273
592.2640, 868.0645
593.4350, 949.8223
594.6050, 1150.811
595.7760, 1387.858
596.9460, 1527.966
598.1170, 1845.134
599.2870, 2260.362
600.4570, 2529.650
601.6260, 2979.000
602.7960, 3472.408
603.9650, 4072.876
605.1350, 4617.415
606.3040, 5087.014
607.4730, 5555.671
608.6420, 6199.389
609.8100, 6635.171
610.9790, 6779.013
612.1470, 7038.913
613.3150, 6965.877
614.4830, 6843.902
615.6510, 6484.984
616.8190, 6170.127
617.9860, 5989.328
619.1540, 5692.589
620.3210, 5390.911
621.4880, 5179.293
622.6550, 5173.732
623.8220, 5391.143
624.9880, 5735.791
626.1550, 6374.407
627.3210, 7077.084
628.4870, 8082.818
629.6530, 9235.611
630.8190, 10344.46
631.9840, 11493.36
633.1500, 12656.33
634.3150, 13643.35
635.4800, 14208.43
636.6450, 14351.56
637.8100, 13720.75
638.9740, 12614.99
640.1390, 11283.30
641.3030, 10153.65
642.4670, 8639.063
643.6310, 7220.533
644.7950, 6019.056
645.9590, 5222.634
647.1220, 4322.267
648.2850, 3745.955
649.4490, 3230.697
650.6120, 2697.494
651.7740, 2432.112
652.9370, 2124.104
654.1000, 1800.480
655.2620, 1742.492
656.4240, 1560.646
657.5860, 1366.108
658.7480, 1165.444
659.9100, 1101.433
661.0710, 950.4785
662.2330, 958.6475
663.3940, 891.7583
664.5550, 877.6313
665.7160, 909.7158
666.8770, 880.4253
668.0370, 700.3765
669.1980, 813.8984
670.3580, 763.0688
671.5180, 744.7471
672.6780, 798.0132
673.8380, 688.0654
674.9970, 742.7080
676.1570, 882.8882
677.3160, 875.9224
678.4750, 834.9795
679.6340, 929.8354
680.7930, 806.1660
681.9520, 848.0337
683.1100, 1064.664
684.2680, 1122.101
685.4270, 1093.926
686.5850, 1219.353
687.7420, 1409.272
688.9000, 1414.929
690.0580, 1486.885
691.2150, 1659.096
692.3720, 1720.257
693.5290, 1803.565
694.6860, 2062.857
695.8430, 2066.506
696.9990, 2188.019
698.1560, 2383.252
699.3120, 2474.031
700.4680, 2644.652
701.6240, 2723.379
702.7800, 2766.914
703.9350, 2968.893
705.0900, 3012.101
706.2460, 2978.562
707.4010, 3087.293
708.5560, 3055.474
709.7110, 2854.787
710.8650, 2660.933
712.0200, 2382.915
713.1740, 2445.081
714.3280, 2238.851
715.4820, 2073.678
716.6360, 1958.488
717.7890, 1720.726
718.9430, 1577.468
720.0960, 1358.390
721.2490, 1244.470
722.4020, 1211.040
723.5550, 1132.477
724.7080, 958.9087
725.8600, 794.1719
727.0130, 840.6953
728.1650, 730.7588
729.3170, 708.7822
730.4690, 669.8271
731.6200, 600.9170
732.7720, 583.0005
733.9230, 559.2573
735.0740, 450.1909
736.2250, 530.3877
737.3760, 562.5190
738.5270, 528.8647
739.6780, 459.1943
740.8280, 498.3638
741.9780, 461.8511
743.1280, 553.8101
744.2780, 479.5430
745.4280, 559.7593
746.5770, 598.9844
747.7270, 475.4258
748.8760, 515.7173
750.0250, 518.0752
751.1740, 426.3989
752.3230, 499.0303
753.4720, 499.3057
754.6200, 494.6416
755.7680, 571.0894
756.9160, 453.5337
758.0640, 504.7188
759.2120, 483.0591
760.3600, 423.6411
761.5070, 509.3506
762.6550, 389.7432
763.8020, 378.0923
764.9490, 301.3013
766.0960, 268.6802
767.2420, 292.0020
768.3890, 241.3242
769.5350, 291.6465
770.6810, 226.9688
771.8270, 168.2900
772.9730, 139.6113
774.1190, 363.9307
775.2640, 210.5034
776.4100, 222.5635
777.5550, 89.87549
778.7000, 119.1841
779.8450, 89.48779
780.9900, 78.78809
782.1340, 114.0830
783.2790, 82.65088
784.4230, 189.6572
785.5670, 82.93555
786.7110, 9.206055
787.8550, 50.65186
788.9980, 36.07178
790.1420, 3.833984
791.2850, 21.60693
792.4280, 50.62061
793.5710, 3.176270
794.7140, 45.98389
795.8560, 77.81641
796.9990, 28.69141
798.1410, 66.58740
799.2830, 48.52295
800.4250, 110.4692
801.5670, 54.40869
802.7090, 119.4790
803.8500, 45.62256
804.9920, 46.80078
806.1330, 101.0176
807.2740, 92.30273
808.4150, 49.52295
809.5550, 39.91895
810.6960, 65.35693
811.8360, 55.85205
812.9760, 77.40039
814.1160, 104.0146
815.2560, 53.71094
816.3960, 95.46387
817.5350, 84.29688
818.6750, 10.16992
819.8140, 99.11621
820.9530, 124.9854
822.0920, 64.06494
823.2310, 6.269043
824.3690, 106.1611
825.5080, 18.50439
826.6460, 50.89893
827.7840, 67.01025
828.9220, 14.33789
830.0600, 75.93945
831.1970, 71.22998
832.3350, 88.73193
833.4720, 114.6094
834.6090, 58.57275
835.7460, 79.47412
836.8830, 25.64209
838.0190, 39.53564
839.1560, 79.20117
840.2920, 37.15576
841.4280, 58.41211
842.5640, 53.93799
843.7000, 49.43506
844.8360, 39.88818
845.9710, 39.37695
847.1070, 85.81494
848.2420, 29.20850
849.3770, 93.51221
850.5120, 0.9047850
851.6460, 69.06055
852.7810, 73.17041
853.9150, 15.50488
855.0490, 82.66211
856.1830, 78.61279
857.3170, 75.52295
858.4510, 102.3843
859.5840, 114.2007
860.7180, 118.9746
861.8510, 136.7051
862.9840, 74.39355
864.1170, 173.0293
865.2500, 265.6260
866.3820, 192.1826
867.5150, 188.6997
868.6470, 197.1768
869.7790, 258.6138
870.9110, 238.8477
872.0430, 190.3677
873.1740, 243.6968
874.3060, 178.9858
875.4370, 185.2314
876.5680, 228.4556
877.6990, 174.6382
878.8300, 93.90576
879.9600, 158.9873
881.0910, 241.0220
882.2210, 262.0146
883.3510, 123.9658
884.4810, 230.8643
885.6110, 219.7192
886.7410, 136.5308
887.8700, 190.2900
888.9990, 258.0029
890.1290, 242.6729
891.2580, 221.2998
892.3860, 224.8823
893.5150, 158.4199
894.6440, 256.9058
895.7720, 216.3477
896.9000, 203.7432
898.0280, 254.1001
899.1560, 267.4121
900.2840, 168.6797
901.4110, 265.8955
902.5390, 283.0664
903.6660, 361.3452
904.7930, 300.4272
905.9200, 387.4644
907.0470, 292.4565
908.1730, 356.6045
909.3000, 352.5073
910.4260, 323.5205
911.5520, 375.3325
912.6780, 312.1006
913.8030, 347.8765
914.9290, 326.5522
916.0540, 354.1836
917.1800, 320.9175
918.3050, 317.5195
919.4300, 350.1226
920.5550, 365.5718
921.6790, 373.9756
922.8040, 272.3325
923.9280, 312.6431
925.0520, 373.1416
926.1760, 432.2734
927.3000, 317.0283
928.4230, 412.4512
929.5470, 325.7505
930.6700, 367.5293
931.7930, 444.3535
932.9160, 364.5464
934.0390, 329.7783
935.1620, 314.7891
936.2840, 292.8628
937.4070, 329.5420
938.5290, 311.9434
939.6510, 379.7949
940.7730, 341.2949
941.8940, 314.1445
943.0160, 266.2842
944.1370, 318.8706
945.2580, 356.8296
946.3800, 348.0044
947.5000, 317.5913
948.6210, 313.6440
949.7420, 280.8457
950.8620, 338.0273
951.9820, 302.7144
953.1020, 255.3926
954.2220, 298.0703
955.3420, 217.7119
956.4620, 235.7251
957.5810, 259.4365
958.7000, 172.4097
959.8190, 243.9492
960.9380, 289.9551
962.0570, 158.7939
963.1760, 171.4258
964.2940, 280.1011
965.4120, 139.7720
966.5300, 148.5845
967.6480, 223.5488
968.7660, 186.4761
969.8840, 146.1030
971.0010, 184.7847
972.1190, 110.8784
973.2360, 159.8335
974.3530, 199.2148
975.4690, 223.8511
976.5860, 179.5078
977.7030, 205.1738
978.8190, 182.3564
979.9350, 155.5464
981.0510, 154.1465
982.1670, 155.0859
983.2830, 161.2026
984.3980, 130.0771
985.5130, 218.3608
986.6290, 187.5737
987.7440, 105.8081
988.8590, 122.4351
989.9730, 184.6387
991.0880, 172.2817
992.2020, 211.0430
993.3160, 246.3062
994.4300, 184.6929
995.5440, 180.0747
996.6580, 241.6162
997.7720, 200.8867
998.8850, 181.7056
999.9980, 233.4556
1001.111, 250.1733
1002.224, 175.8354
1003.337, 217.4917
1004.450, 185.2930
1005.562, 222.9062
1006.674, 195.5571
1007.786, 187.1167
1008.898, 173.4785
1010.010, 254.7842
1011.122, 222.2681
1012.233, 126.4624
1013.344, 247.1284
1014.455, 296.0054
1015.566, 197.3843
1016.677, 250.7427
1017.788, 217.8706
1018.898, 199.1318
1020.009, 175.3101
1021.119, 164.5059
1022.229, 159.3784
1023.339, 151.2549
1024.448, 171.8882
1025.558, 173.8906
1026.667, 173.8794
1027.776, 169.1821
1028.885, 215.1636
1029.994, 152.9609
1031.103, 191.6099
1032.211, 202.5557
1033.320, 178.5249
1034.428, 227.6143
1035.536, 169.5137
1036.644, 101.4502
1037.751, 244.3643
1038.859, 142.2568
1039.966, 214.1284
1041.074, 85.97900
1042.181, 150.8076
1043.288, 94.61475
1044.394, 200.4014
1045.501, 142.1689
1046.607, 115.9175
1047.713, 159.6455
1048.820, 148.3540
1049.925, 90.04346
1051.031, 109.7134
1052.137, 97.36328
1053.242, 130.9941
1054.348, 151.6064
1055.453, 126.2012
1056.558, 130.6631
1057.662, 131.5850
1058.767, 152.7480
1059.871, 133.2778
1060.976, 52.77832
1062.080, 50.27490
1063.184, 90.75366
1064.288, 147.2229
1065.391, 105.6912
1066.495, 83.14844
1067.598, 107.6055
1068.701, 132.0356
1069.804, 35.40356
1070.907, 42.86035
1072.010, 33.33032
1073.112, 45.79346
1074.214, 61.25269
1075.317, 75.72363
1076.419, 86.62524
1077.521, 95.55664
1078.622, 95.03857
1079.724, 127.5264
1080.825, 104.0198
1081.926, 123.5247
1083.027, 99.04883
1084.128, 73.57935
1085.229, 148.1279
1086.329, 28.65698
1087.430, 117.2175
1088.530, 46.63867
1089.630, 36.19653
1090.730, 91.82056
1091.830, 115.0906
1092.929, 52.74072
1094.029, 46.39380
1095.128, 54.70435
1096.227, 91.16748
1097.326, 75.85449
1098.425, 75.48755
1099.523, 5.613770
1100.622, 43.36523
1101.720, 3.120117
1102.818, 21.25586
1103.916, 42.55078
1105.014, 112.0220
1106.111, 31.79688
1107.209, 19.37769
1108.306, 102.4490
1109.403, 42.72949
1110.500, 6.0791001E-02
1111.597, 38.15601
1112.694, 68.52832
1113.790, 25.21240
1114.887, 19.89575
1115.983, 31.61401
1117.079, 26.19800
1118.174, 26.95532
1119.270, 23.70972
1120.366, 86.19043
1121.461, 41.78931
1122.556, 21.05005
1123.651, 91.69141
1124.746, 73.43237
1125.841, 64.17065
1126.935, 118.9055
1128.030, 73.63794
1129.124, 102.3660
1130.218, 35.09619
1131.312, 85.82080
1132.405, 160.5405
1133.499, 108.2559
1134.592, 102.9668
1135.686, 16.67285
1136.779, 76.37378
1137.871, 46.92944
1138.964, 146.7361
1140.057, 47.25757
1141.149, 76.08374
1142.241, 133.5295
1143.334, 41.13989
1144.425, 90.61914
1145.517, 124.2314
1146.609, 84.87402
1147.700, 193.6482
1148.791, 101.2539
1149.883, 84.86206
1150.974, 79.46802
1152.064, 161.0723
1153.155, 103.6787
1154.245, 75.28442
1155.336, 4.887939
1156.426, 82.48877
1157.516, 97.08838
1158.606, 213.6870
1159.695, 58.28760
1160.785, 40.88745
1161.874, 32.51318
1162.963, 120.1130
1164.052, 109.6948
1165.141, 141.2756
1166.230, 127.8594
1167.318, 123.4429
1168.406, 82.87305
1169.495, 123.4553
1170.583, 140.0374
1171.670, 51.61890
1172.758, 99.99951
1173.846, 134.5811
1174.933, 109.0059
1176.020, 64.98779
1177.107, 89.56958
1178.194, 65.09766
1179.281, 69.68018
1180.367, 47.26343
1181.454, 114.6987
1182.540, 45.22168
1183.626, 109.6987
1184.712, 95.28540
1185.798, 48.87305
1186.883, 10.46191
1187.969, 79.05249
1189.054, 88.64453
1190.139, 75.23804
1191.224, 35.83301
1192.309, 46.13403
1193.393, 31.04785
1194.478, 82.93872
1195.562, 51.54077
1196.646, 31.13062
1197.730, 92.01245
1198.814, 124.6206
1199.897, 49.23096
1200.981, 61.48169
1202.064, 52.80664
1203.147, 33.39429
1204.230, 79.43579
1205.313, 35.89575
1206.396, 64.42334
1207.478, 81.00366
1208.560, 135.6284
1209.642, 109.2571
1210.724, 121.8887
1211.806, 67.52222
1212.888, 40.15796
1213.969, 157.7952
1215.051, 71.36670
1216.132, 125.0078
1217.213, 103.3953
1218.294, 197.5803
1219.374, 108.0640
1220.455, 134.5098
1221.535, 87.24951
1222.616, 66.90454
1223.696, 74.93213
1224.775, 182.9502
1225.855, 100.5042
1226.935, 108.1677
1228.014, 174.8208
1229.093, 118.4790
1230.172, 75.74146
1231.251, 147.2759
1232.330, 36.48901
1233.408, 103.1995
1234.487, 12.74341
1235.565, 166.4219
1236.643, 168.9304
1237.721, 91.82007
1238.799, 106.5022
1239.876, 137.9553
1240.954, 79.11597
1242.031, 30.89404
1243.108, 102.5876
1244.185, 123.1055
1245.262, 140.6055
1246.338, 128.9265
1247.415, 132.6963
1248.491, 59.24072
1249.567, 78.77661
1250.643, 44.48657
1251.719, 14.88770
1252.795, 60.11035
1253.870, 26.82690
1254.945, 76.54492
1256.021, 118.2654
1257.096, 106.9883
1258.170, 14.72900
1259.245, 51.47192
1260.320, 94.11987
1261.394, 173.8682
1262.468, 20.61865
1263.542, 56.37183
1264.616, 39.12695
1265.690, 99.72363
1266.763, 71.48413
1267.836, 89.10303
1268.910, 28.12988
1269.983, 33.60620
1271.055, 25.40405
1272.128, 82.17188
1273.201, 57.90088
1274.273, 97.67603
1275.345, 2.545410
1276.417, 36.76416
1277.489, 62.01001
1278.561, 12.78784
1279.632, 36.57324
1280.704, 8.362305
1281.775, 30.15454
1282.846, 53.95020
1283.917, 39.74927
1284.988, 36.38452
1286.058, 31.19043
1287.129, 41.99951
1288.199, 27.81152
1289.269, 62.62695
1290.339, 50.44287
1291.409, 3.735840
1292.478, 55.08862
1293.548, 69.91650
1294.617, 10.74756
1295.686, 64.58179
1296.755, 141.4192
1297.824, 47.26001
1298.893, 39.10376
1299.961, 58.95093
1301.029, 8.800781
1302.097, 39.65430
1303.165, 67.51099
1304.233, 18.62915
1305.301, 65.23022
1306.368, 143.0920
1307.436, 146.9573
1308.503, 86.82568
