##NAMES=Baddeleyite
##RRUFFID=R060016
##IDEAL CHEMISTRY=Zr^4+^O_2_
##LOCALITY=Wet Loo, Myanmar
##OWNER=RRUFF
##SOURCE=American Museum of Natural History
##DESCRIPTION=Brown crystal fragment
##STATUS=The identification of this mineral has been confirmed by X-ray diffraction and chemical analysis
##URL=rruff.info/R060016
##MEASURED CHEMISTRY=(Zr_0.99_Ti_0.01_)_Î£=1_O_2_
##PIN_ID=M00083
##ORIENTATION=Laser parallel to (1 0 -1). Fiducial mark perpendicular to laser is parallel to b [0 1 0]
40.39300, 0.0000000E+00
41.63700, 15.16183
42.88100, 7.9620004E-02
44.12400, 9.251709
45.36700, 16.51785
46.61100, 8.055298
47.85400, 35.02728
49.09700, 13.41232
50.33900, 23.86020
51.58200, 29.36569
52.82400, 21.99667
54.06700, 25.51746
55.30900, 32.37610
56.55100, 34.40771
57.79200, 37.81573
59.03400, 58.22260
60.27600, 53.65500
61.51700, 45.29837
62.75800, 45.93863
63.99900, 43.48062
65.24000, 48.09671
66.48100, 25.78372
67.72100, 34.53906
68.96100, 18.36057
70.20200, 26.24707
71.44200, 6.198822
72.68200, 15.21600
73.92100, 3.701538
75.16100, 4.554688
76.40000, 3.655579
77.64000, 10.07199
78.87900, 15.73947
80.11800, 2.349548
81.35600, 2.904968
82.59500, 3.591309
83.83400, 10.86377
85.07200, 6.726868
86.31000, 20.36035
87.54800, 52.03311
88.78600, 82.74207
90.02400, 135.4857
91.26100, 250.2632
92.49800, 400.0742
93.73600, 540.9197
94.97300, 756.7984
96.21000, 917.7104
97.44600, 1114.659
98.68300, 1354.648
99.91900, 1577.681
101.1560, 1728.760
102.3920, 1818.887
103.6280, 1723.059
104.8630, 1539.274
106.0990, 1304.531
107.3350, 1085.828
108.5700, 879.1640
109.8050, 613.5366
111.0400, 494.9450
112.2750, 448.3880
113.5100, 432.8644
114.7440, 421.3722
115.9780, 382.9052
117.2130, 373.4610
118.4470, 371.0378
119.6810, 351.6334
120.9140, 356.2460
122.1480, 376.8739
123.3810, 368.5154
124.6150, 365.1680
125.8480, 346.8295
127.0810, 328.5000
128.3130, 380.1791
129.5460, 339.8665
130.7790, 375.5598
132.0110, 366.2494
133.2430, 359.9373
134.4750, 386.6129
135.7070, 368.2950
136.9380, 378.9821
138.1700, 389.5856
139.4010, 426.4033
140.6330, 399.1381
141.8640, 413.8892
143.0950, 396.6567
144.3250, 429.4535
145.5560, 423.2538
146.7860, 438.1387
148.0160, 442.9094
149.2470, 417.8282
150.4760, 442.7260
151.7060, 473.6797
152.9360, 471.6949
154.1650, 520.7780
155.3950, 541.9334
156.6240, 577.1627
157.8530, 605.4623
159.0820, 691.8220
160.3100, 763.2216
161.5390, 906.6782
162.7670, 1109.163
163.9950, 1410.663
165.2230, 1874.170
166.4510, 2620.684
167.6790, 3363.205
168.9060, 4109.733
170.1340, 4329.269
171.3610, 4363.813
172.5880, 4776.366
173.8150, 5512.925
175.0420, 6304.492
176.2690, 6855.067
177.4950, 7537.650
178.7210, 7872.244
179.9470, 7953.842
181.1730, 7752.451
182.3990, 7257.066
183.6250, 6237.691
184.8500, 5913.324
186.0760, 6399.964
187.3010, 7157.615
188.5260, 7802.180
189.7510, 8249.704
190.9750, 7933.186
192.2000, 7044.682
193.4240, 5425.159
194.6490, 3617.611
195.8730, 2344.057
197.0970, 1584.479
198.3200, 1086.887
199.5440, 860.2735
200.7670, 682.6373
201.9910, 593.9965
203.2140, 496.3466
204.4370, 417.6818
205.6590, 338.9681
206.8820, 335.2261
208.1050, 351.4454
209.3270, 353.6425
210.5490, 417.8320
211.7710, 466.0430
212.9930, 531.2967
214.2150, 550.4514
215.4360, 555.7171
216.6570, 556.8728
217.8790, 627.1539
219.1000, 648.1666
220.3210, 615.4172
221.5410, 616.0613
222.7620, 582.7248
223.9820, 468.9097
225.2030, 357.3679
226.4230, 259.5382
227.6430, 181.6151
228.8620, 131.7219
230.0820, 117.1464
231.3010, 79.87878
232.5210, 92.38318
233.7400, 62.90149
234.9590, 32.43359
236.1780, 44.97931
237.3960, 40.53845
238.6150, 45.11115
239.8330, 25.69702
241.0510, 40.29614
242.2690, 50.90833
243.4870, 50.53345
244.7050, 30.17133
245.9230, 0.1780400
247.1400, 30.48486
248.3570, 23.16016
249.5740, 27.84753
250.7910, 41.54706
252.0080, 4.741638
253.2240, 33.98096
254.4410, 5.715088
255.6570, 23.46069
256.8730, 29.37390
258.0890, 50.64056
259.3050, 47.86798
260.5210, 69.67578
261.7360, 44.68494
262.9510, 16.85968
264.1670, 16.56818
265.3820, 43.84363
266.5960, 25.14227
267.8110, 30.50592
269.0260, 54.34033
270.2400, 38.81714
271.4540, 73.63208
272.6680, 45.14288
273.8820, 32.52686
275.0960, 78.98871
276.3090, 121.4408
277.5230, 87.53540
278.7360, 107.0884
279.9490, 139.4804
281.1620, 144.8412
282.3750, 151.8038
283.5880, 215.2316
284.8000, 191.2121
286.0120, 179.2014
287.2240, 221.1997
288.4360, 266.2067
289.6480, 296.2225
290.8600, 343.2469
292.0710, 408.2800
293.2830, 434.3213
294.4940, 519.3713
295.7050, 604.4299
296.9160, 694.4968
298.1260, 762.5721
299.3370, 857.6567
300.5470, 967.7488
301.7580, 1033.848
302.9680, 1037.956
304.1770, 1164.070
305.3870, 1122.191
306.5970, 1148.319
307.8060, 1075.203
309.0150, 999.2424
310.2250, 896.7386
311.4340, 805.8911
312.6420, 798.0498
313.8510, 736.2147
315.0590, 734.3859
316.2680, 742.5633
317.4760, 847.7470
318.6840, 970.9370
319.8920, 1122.133
321.0990, 1401.336
322.3070, 1711.545
323.5140, 1973.760
324.7210, 2298.981
325.9280, 2427.210
327.1350, 2564.444
328.3420, 2820.685
329.5490, 3035.932
330.7550, 3219.186
331.9610, 3270.446
333.1670, 3215.712
334.3730, 3097.986
335.5790, 2953.266
336.7840, 2881.554
337.9900, 2786.850
339.1950, 2877.154
340.4000, 2909.464
341.6050, 2937.783
342.8100, 3051.110
344.0150, 3312.446
345.2190, 3398.788
346.4230, 3375.140
347.6280, 3232.500
348.8320, 2858.869
350.0350, 2379.246
351.2390, 1924.632
352.4430, 1567.028
353.6460, 1142.432
354.8490, 904.8464
356.0520, 665.2700
357.2550, 604.7032
358.4580, 456.1456
359.6600, 410.5980
360.8630, 374.0597
362.0650, 287.5315
363.2670, 285.0126
364.4690, 294.5044
365.6710, 321.0059
366.8720, 338.0477
368.0740, 335.0460
369.2750, 421.5824
370.4760, 451.1321
371.6770, 550.6962
372.8780, 650.2714
374.0780, 697.8572
375.2790, 788.4525
376.4790, 904.0601
377.6790, 889.6768
378.8790, 990.3025
380.0790, 942.9373
381.2790, 963.5811
382.4780, 939.2341
383.6780, 858.8962
384.8770, 780.5672
386.0760, 640.2473
387.2750, 511.9365
388.4730, 447.6346
389.6720, 296.3426
390.8700, 221.0502
392.0690, 158.7761
393.2670, 132.5109
394.4650, 82.25647
395.6620, 63.01111
396.8600, 30.72571
398.0570, 23.50128
399.2550, 27.28583
400.4520, 11.92053
401.6490, 0.8717650
402.8450, 19.33228
404.0420, 25.54169
405.2390, 12.75940
406.4350, 33.97949
407.6310, 25.21155
408.8270, 35.45160
410.0230, 35.70398
411.2190, 36.73920
412.4140, 45.24744
413.6090, 38.54272
414.8050, 44.63739
416.0000, 38.94305
417.1940, 36.51776
418.3890, 37.87054
419.5840, 19.23669
420.7780, 12.60773
421.9720, 20.98047
423.1660, 36.35876
424.3600, 35.74945
425.5540, 41.84784
426.7480, 18.54523
427.9410, 55.05762
429.1340, 23.67023
430.3270, 76.29254
431.5200, 84.92456
432.7130, 130.5663
433.9060, 121.2180
435.0980, 164.8795
436.2900, 188.5508
437.4830, 226.2322
438.6750, 296.9233
439.8660, 307.6246
441.0580, 375.0010
442.2500, 380.3048
443.4410, 496.0363
444.6320, 569.7778
445.8230, 651.6202
447.0140, 682.3821
448.2050, 887.1543
449.3950, 958.9365
450.5860, 1132.729
451.7760, 1314.532
452.9660, 1573.346
454.1560, 1853.169
455.3450, 2201.004
456.5350, 2650.848
457.7240, 3249.703
458.9140, 3865.569
460.1030, 4678.445
461.2920, 5902.332
462.4810, 7279.230
463.6690, 9210.138
464.8580, 11048.06
466.0460, 13114.99
467.2340, 15000.93
468.4220, 16821.88
469.6100, 18216.84
470.7970, 19410.82
471.9850, 20423.80
473.1720, 20787.79
474.3590, 20322.80
475.5460, 18776.82
476.7330, 16597.85
477.9200, 13973.89
479.1060, 11209.94
480.2930, 8931.009
481.4790, 6875.083
482.6650, 5556.169
483.8510, 4521.265
485.0370, 3679.374
486.2220, 3192.494
487.4080, 2747.625
488.5930, 2407.769
489.7780, 2175.923
490.9630, 2107.090
492.1480, 1952.267
493.3320, 1979.457
494.5170, 1917.657
495.7010, 1816.870
496.8850, 1827.094
498.0690, 1755.330
499.2530, 1769.577
500.4360, 1648.837
501.6200, 1585.107
502.8030, 1393.390
503.9860, 1247.684
505.1690, 987.9894
506.3520, 885.3070
507.5350, 738.6362
508.7170, 648.9773
509.9000, 498.3300
511.0820, 427.6945
512.2640, 463.0707
513.4460, 367.4586
514.6270, 393.8582
515.8090, 372.2697
516.9900, 291.6927
518.1710, 305.1277
519.3530, 302.5742
520.5330, 302.0326
521.7140, 310.5026
522.8950, 290.9844
524.0750, 370.5059
525.2550, 354.0111
526.4350, 481.5282
527.6150, 551.0601
528.7950, 681.6116
529.9750, 764.1641
531.1540, 873.8855
532.3340, 920.4612
533.5130, 973.0493
534.6920, 1171.653
535.8700, 1140.638
537.0490, 1217.271
538.2280, 1175.923
539.4060, 1135.190
540.5840, 1104.868
541.7620, 1068.565
542.9400, 1120.244
544.1180, 1174.500
545.2950, 1288.641
546.4720, 1409.493
547.6500, 1628.052
548.8270, 1849.472
550.0040, 2140.381
551.1800, 2363.818
552.3570, 2564.196
553.5330, 2693.535
554.7090, 2798.425
555.8850, 2803.698
557.0610, 2763.656
558.2370, 2588.941
559.4130, 2252.379
560.5880, 1880.762
561.7630, 1538.177
562.9380, 1235.974
564.1130, 943.3361
565.2880, 754.8893
566.4630, 605.5022
567.6370, 448.5372
568.8120, 412.1350
569.9860, 318.2083
571.1600, 238.2972
572.3330, 163.4012
573.5070, 143.5223
574.6810, 115.6580
575.8540, 80.81055
577.0270, 59.98108
578.2000, 19.16895
579.3730, 49.37549
580.5460, 63.59937
581.7180, 16.83911
582.8910, 14.90503
584.0630, 12.36316
585.2350, 43.64587
586.4070, 7.056885
587.5780, 32.25488
588.7500, 32.58093
589.9210, 34.92188
591.0930, 97.27710
592.2640, 105.6465
593.4350, 109.0298
594.6050, 134.4272
595.7760, 183.3876
596.9460, 200.2732
598.1170, 315.7203
599.2870, 378.1881
600.4570, 465.6699
601.6260, 628.1655
602.7960, 764.6785
603.9650, 920.2061
605.1350, 1153.749
606.3040, 1433.313
607.4730, 1596.892
608.6420, 1854.484
609.8100, 2067.090
610.9790, 2266.714
612.1470, 2475.357
613.3150, 2517.014
614.4830, 2606.686
615.6510, 2470.374
616.8190, 2356.074
617.9860, 2117.798
619.1540, 1838.535
620.3210, 1652.288
621.4880, 1452.055
622.6550, 1268.834
623.8220, 1171.628
624.9880, 1091.434
626.1550, 1068.255
627.3210, 1060.090
628.4870, 1010.939
629.6530, 1098.801
630.8190, 1106.676
631.9840, 1178.564
633.1500, 1234.466
634.3150, 1237.382
635.4800, 1217.311
636.6450, 1159.253
637.8100, 1070.208
638.9740, 985.1748
640.1390, 839.1544
641.3030, 783.1462
642.4670, 628.1511
643.6310, 544.1692
644.7950, 418.1995
645.9590, 352.2419
647.1220, 309.2963
648.2850, 260.3629
649.4490, 218.4418
650.6120, 164.5332
651.7740, 118.6365
652.9370, 99.49915
654.1000, 90.87988
655.2620, 71.01904
656.4240, 89.17053
657.5860, 84.33374
658.7480, 51.50830
659.9100, 29.69421
661.0710, 3.891724
662.2330, 8.100586
663.3940, 2.679321
664.5550, 18.55139
665.7160, 3.792969
666.8770, 1.045654
668.0370, 0.6910400
669.1980, 5.583008
670.3580, 11.13135
671.5180, 19.16394
672.6780, 11.46985
673.8380, 4.566284
674.9970, 20.10559
676.1570, 0.6325680
677.3160, 12.42102
678.4750, 27.22266
679.6340, 22.58630
680.7930, 3.705811
681.9520, 8.912109
683.1100, 32.48462
684.2680, 30.12781
685.4270, 15.62024
686.5850, 2.207642
687.7420, 0.6729740
688.9000, 11.95459
690.0580, 4.817261
691.2150, 38.39844
692.3720, 21.21094
693.5290, 30.85400
694.6860, 72.68628
695.8430, 82.55933
696.9990, 54.18665
698.1560, 76.25562
699.3120, 66.92249
700.4680, 50.64331
701.6240, 60.58453
702.7800, 61.74738
703.9350, 52.63422
705.0900, 82.64349
706.2460, 103.4314
707.4010, 107.2067
708.5560, 110.1588
709.7110, 87.16992
710.8650, 96.07397
712.0200, 61.46204
713.1740, 92.27985
714.3280, 103.6909
715.4820, 71.27417
716.6360, 73.77795
717.7890, 69.54010
718.9430, 96.05957
720.0960, 68.25647
721.2490, 110.4911
722.4020, 36.20844
723.5550, 45.17773
724.7080, 105.0747
725.8600, 76.20734
727.0130, 90.09430
728.1650, 89.14417
729.3170, 99.07654
730.4690, 81.97778
731.6200, 65.88354
732.7720, 87.65369
733.9230, 124.5927
735.0740, 129.7888
736.2250, 137.2861
737.3760, 168.7479
738.5270, 147.7092
739.6780, 153.6438
740.8280, 210.3267
741.9780, 199.5135
743.1280, 188.7272
744.2780, 231.5079
745.4280, 257.6064
746.5770, 295.5618
747.7270, 287.5240
748.8760, 322.4557
750.0250, 308.8203
751.1740, 334.0129
752.3230, 329.8528
753.4720, 317.4355
754.6200, 313.4517
755.7680, 308.7365
756.9160, 283.7144
758.0640, 292.3937
759.2120, 251.4659
760.3600, 290.4479
761.5070, 250.5160
762.6550, 212.5004
763.8020, 225.7772
764.9490, 184.9662
766.0960, 159.3205
767.2420, 173.3083
768.3890, 143.3890
769.5350, 95.49750
770.6810, 143.7228
771.8270, 107.9764
772.9730, 107.1086
774.1190, 105.2321
775.2640, 52.23145
776.4100, 105.2211
777.5550, 97.21033
778.7000, 81.19916
779.8450, 52.37860
780.9900, 26.64093
782.1340, 66.62775
783.2790, 49.61395
784.4230, 67.59924
785.5670, 31.64850
786.7110, 49.71686
787.8550, 62.86914
788.9980, 45.84961
790.1420, 39.02087
791.2850, 44.05634
792.4280, 31.89282
793.5710, 31.86609
794.7140, 26.20392
795.8560, 21.17389
796.9990, 27.14172
798.1410, 13.16345
799.2830, 33.19501
800.4250, 41.15619
801.5670, 36.08704
802.7090, 21.04321
803.8500, 8.996643
804.9920, 13.94470
806.1330, 40.88147
807.2740, 7.057983
808.4150, 24.99396
809.5550, 26.93256
810.6960, 9.895752
811.8360, 35.12616
812.9760, 3.262878
814.1160, 37.17377
815.2560, 14.75806
816.3960, 3.752930
817.5350, 25.62476
818.6750, 9.233154
819.8140, 10.18793
820.9530, 16.24890
822.0920, 13.14594
823.2310, 3.229980
824.3690, 10.12750
825.5080, 7.919861
826.6460, 22.90186
827.7840, 22.18713
828.9220, 1.683838
830.0600, 6.642090
831.1970, 2.601379
832.3350, 2.415405
833.4720, 15.14325
834.6090, 4.5170002E-03
835.7460, 14.72064
836.8830, 11.42999
838.0190, 4.208679
839.1560, 16.42688
840.2920, 17.88788
841.4280, 12.22308
842.5640, 15.75159
843.7000, 7.603760
844.8360, 9.978882
845.9710, 6.765625
847.1070, 11.38647
848.2420, 2.2583000E-02
849.3770, 23.55579
850.5120, 0.2368770
851.6460, 2.204529
852.7810, 0.6433720
853.9150, 4.447266
855.0490, 0.2948610
856.1830, 6.190491
857.3170, 5.694763
858.4510, 15.18701
859.5840, 15.65948
860.7180, 23.13367
861.8510, 7.589539
862.9840, 31.05176
864.1170, 14.48932
865.2500, 22.92218
866.3820, 35.34192
867.5150, 34.75372
868.6470, 31.68579
869.7790, 1.446838
870.9110, 11.93268
872.0430, 4.301514
873.1740, 11.34320
874.3060, 27.02478
875.4370, 35.43695
876.5680, 1.753540
877.6990, 15.06201
878.8300, 14.45288
879.9600, 15.22815
881.0910, 21.25128
882.2210, 42.53528
883.3510, 35.77191
884.4810, 1.000244
885.6110, 7.736023
886.7410, 18.45355
887.8700, 20.64764
888.9990, 15.99377
890.1290, 33.15033
891.2580, 21.68024
892.3860, 55.79218
893.5150, 4.901672
894.6440, 29.99585
895.7720, 48.08472
896.9000, 31.20142
898.0280, 48.26666
899.1560, 18.32281
900.2840, 23.36707
901.4110, 15.45685
902.5390, 49.50055
903.6660, 32.56775
904.7930, 30.61603
905.9200, 22.60699
907.0470, 21.16876
908.1730, 29.63763
909.3000, 30.59479
910.4260, 45.57446
911.5520, 65.51147
912.6780, 53.43903
913.8030, 54.35712
914.9290, 27.26581
916.0540, 22.16321
917.1800, 51.04877
918.3050, 70.02661
919.4300, 60.89301
920.5550, 40.74994
921.6790, 38.59662
922.8040, 30.45752
923.9280, 59.28284
925.0520, 29.09851
926.1760, 42.90283
927.3000, 58.69708
928.4230, 32.48169
929.5470, 42.25519
930.6700, 63.01843
931.7930, 60.77197
932.9160, 44.51593
934.0390, 43.29675
935.1620, 60.02020
936.2840, 68.73450
937.4070, 73.28290
938.5290, 62.13770
939.6510, 68.82245
940.7730, 66.49762
941.8940, 28.16321
943.0160, 34.81702
944.1370, 61.46075
945.2580, 28.09473
946.3800, 40.93805
947.5000, 45.54980
948.6210, 31.75024
949.7420, 45.90021
950.8620, 27.48267
951.9820, 23.60913
953.1020, 55.42456
954.2220, 23.97772
955.3420, 3.561768
956.4620, 19.85773
957.5810, 6.105164
958.7000, 36.67523
959.8190, 29.16718
960.9380, 21.85272
962.0570, 54.59918
963.1760, 29.36853
964.2940, 19.55133
965.4120, 18.91370
966.5300, 33.09863
967.6480, 57.25360
968.7660, 26.66681
969.8840, 45.64893
971.0010, 48.04364
972.1190, 32.39508
973.2360, 2.636536
974.3530, 50.01990
975.4690, 62.77539
976.5860, 7.943298
977.7030, 45.26093
978.8190, 55.58997
979.9350, 20.74799
981.0510, 38.94568
982.1670, 55.14838
983.2830, 48.86548
984.3980, 23.15149
985.5130, 65.84253
986.6290, 38.35980
987.7440, 8.954651
988.8590, 29.29175
989.9730, 42.86963
991.0880, 36.76794
992.2020, 36.62665
993.3160, 39.75293
994.4300, 36.87262
995.5440, 42.06226
996.6580, 34.92346
997.7720, 40.65948
998.8850, 37.59528
999.9980, 49.29285
1001.111, 42.46606
1002.224, 47.63220
1003.337, 68.79126
1004.450, 47.05865
1005.562, 37.92627
1006.674, 46.48962
1007.786, 27.08563
1008.898, 17.17908
1010.010, 35.29572
1011.122, 32.66077
1012.233, 14.51874
1013.344, 24.34637
1014.455, 0.6032100
1015.566, 22.53790
1016.677, 51.61218
1017.788, 56.67615
1018.898, 17.76697
1020.009, 44.42108
1021.119, 25.24347
1022.229, 1.094849
1023.339, 30.83850
1024.448, 22.82764
1025.558, 5.455994
1026.667, 57.56165
1027.776, 51.87372
1028.885, 23.78888
1029.994, 14.78992
1031.103, 35.70044
1032.211, 25.69037
1033.320, 29.38348
1034.428, 10.16003
1035.536, 17.76648
1036.644, 9.734802
1037.751, 11.60547
1038.859, 34.44342
1039.966, 18.15973
1041.074, 6.843140
1042.181, 41.64264
1043.288, 13.44934
1044.394, 23.37512
1045.501, 31.30554
1046.607, 37.23181
1047.713, 25.15344
1048.820, 26.87927
1049.925, 27.51691
1051.031, 0.4248660
1052.137, 25.32764
1053.242, 28.22589
1054.348, 29.05493
1055.453, 12.85925
1056.558, 20.57410
1057.662, 22.45520
1058.767, 25.13983
1059.871, 35.95471
1060.976, 23.82361
1062.080, 17.53186
1063.184, 23.32336
1064.288, 38.18048
1065.391, 26.03375
1066.495, 4.827271
1067.598, 23.60468
1068.701, 15.44647
1069.804, 14.28455
1070.907, 21.11902
1072.010, 17.76184
1073.112, 22.42975
1074.214, 24.60156
1075.317, 24.19055
1076.419, 34.85693
1077.521, 26.67096
1078.622, 21.24567
1079.724, 47.95984
1080.825, 26.70850
1081.926, 14.33862
1083.027, 20.11298
1084.128, 44.72089
1085.229, 41.28381
1086.329, 22.10376
1087.430, 0.6933590
1088.530, 33.79431
1089.630, 14.34314
1090.730, 35.60730
1091.830, 30.34381
1092.929, 36.01440
1094.029, 23.61243
1095.128, 25.43542
1096.227, 48.15088
1097.326, 35.28088
1098.425, 12.38110
1099.523, 32.12805
1100.622, 12.95874
1101.720, 12.65723
1102.818, 26.47296
1103.916, 20.29639
1105.014, 4.957642
1106.111, 0.3389280
1107.209, 18.16022
1108.306, 4.013245
1109.403, 21.48914
1110.500, 8.313049
1111.597, 6.152283
1112.694, 5.150085
1113.790, 32.66132
1114.887, 23.49347
1115.983, 28.32697
1117.079, 27.14288
1118.174, 38.97626
1119.270, 29.79504
1120.366, 11.19989
1121.461, 11.99139
1122.556, 21.83325
1123.651, 24.66223
1124.746, 28.95844
1125.841, 40.33478
1126.935, 30.16595
1128.030, 44.00653
1129.124, 30.83075
1130.218, 6.670898
1131.312, 74.50610
1132.405, 45.34521
1133.499, 43.18347
1134.592, 10.02087
1135.686, 44.85730
1136.779, 60.69690
1137.871, 37.53711
1138.964, 40.38373
1140.057, 73.20215
1141.149, 61.96704
1142.241, 50.81848
1143.334, 74.66577
1144.425, 70.42029
1145.517, 50.23651
1146.609, 28.87531
1147.700, 96.69971
1148.791, 44.56244
1149.883, 49.42480
1150.974, 65.23743
1152.064, 42.10950
1153.155, 23.96674
1154.245, 34.66217
1155.336, 37.12628
1156.426, 11.97839
1157.516, 26.50861
1158.606, 50.39246
1159.695, 31.27942
1160.785, 40.16199
1161.874, 29.00769
1162.963, 43.89545
1164.052, 28.78320
1165.141, 34.67230
1166.230, 38.50574
1167.318, 29.37457
1168.406, 37.21063
1169.495, 53.05597
1170.583, 28.94891
1171.670, 41.82593
1172.758, 64.65527
1173.846, 54.32574
1174.933, 30.18976
1176.020, 5.087158
1177.107, 12.07526
1178.194, 11.97601
1179.281, 25.87701
1180.367, 29.77911
1181.454, 39.68280
1182.540, 23.48499
1183.626, 53.38947
1184.712, 19.29431
1185.798, 2.199890
1186.883, 37.08167
1187.969, 44.98932
1189.054, 25.89777
1190.139, 30.80762
1191.224, 13.71826
1192.309, 26.62933
1193.393, 27.54181
1194.478, 21.45502
1195.562, 27.36896
1196.646, 49.28345
1197.730, 17.15155
1198.814, 50.06775
1199.897, 33.98401
1200.981, 20.89709
1202.064, 25.81525
1203.147, 18.73407
1204.230, 12.65362
1205.313, 13.57385
1206.396, 26.49585
1207.478, 32.41919
1208.560, 23.34326
1209.642, 17.26910
1210.724, 20.91412
1211.806, 16.67773
1212.888, 23.60736
1213.969, 26.62848
1215.051, 26.56073
1216.132, 30.92853
1217.213, 27.29077
1218.294, 31.57800
1219.374, 20.51819
1220.455, 13.46027
1221.535, 10.94354
1222.616, 52.74756
1223.696, 8.695129
1224.775, 40.64429
1225.855, 24.59412
1226.935, 30.57343
1228.014, 43.52600
1229.093, 13.48004
1230.172, 27.98895
