##NAMES=Baddeleyite
##RRUFFID=R060016
##IDEAL CHEMISTRY=Zr^4+^O_2_
##LOCALITY=Wet Loo, Myanmar
##OWNER=RRUFF
##SOURCE=American Museum of Natural History
##DESCRIPTION=Brown crystal fragment
##STATUS=The identification of this mineral has been confirmed by X-ray diffraction and chemical analysis
##URL=rruff.info/R060016
##MEASURED CHEMISTRY=(Zr_0.99_Ti_0.01_)_Î£=1_O_2_
##PIN_ID=M00268
##ORIENTATION=Laser parallel to b* (0 1 0). Fiducial mark perpendicular to laser is parallel to -c [0 0 -1]
151.7060, 0.0000000E+00
152.9360, 0.6018070
154.1650, 23.12744
155.3950, 20.88477
156.6240, 6.408203
157.8530, 27.10620
159.0820, 9.218994
160.3100, 55.52295
161.5390, 179.1562
162.7670, 166.6287
163.9950, 305.5449
165.2230, 382.5781
166.4510, 454.4570
167.6790, 617.9546
168.9060, 652.8921
170.1340, 895.1494
171.3610, 1128.615
172.5880, 1381.178
173.8150, 1947.733
175.0420, 2529.183
176.2690, 3430.441
177.4950, 4306.433
178.7210, 4775.091
179.9470, 4630.354
181.1730, 3826.173
182.3990, 3035.498
183.6250, 2742.292
184.8500, 2810.572
186.0760, 3531.398
187.3010, 4552.780
188.5260, 6260.665
189.7510, 8380.985
190.9750, 10424.69
192.2000, 10447.73
193.4240, 8474.071
194.6490, 5936.685
195.8730, 3842.547
197.0970, 2516.632
198.3200, 1723.925
199.5440, 1361.406
200.7670, 1163.062
201.9910, 1098.881
203.2140, 925.8506
204.4370, 743.9604
205.6590, 754.2007
206.8820, 615.5635
208.1050, 618.0405
209.3270, 515.6245
210.5490, 590.3086
211.7710, 432.0872
212.9930, 493.9531
214.2150, 427.9021
215.4360, 381.0801
216.6570, 540.8608
217.8790, 382.4421
219.1000, 560.7817
220.3210, 530.7874
221.5410, 511.0063
222.7620, 485.2683
223.9820, 410.4307
225.2030, 419.4861
226.4230, 322.4026
227.6430, 361.1978
228.8620, 250.8757
230.0820, 161.4697
231.3010, 245.9934
232.5210, 264.4580
233.7400, 271.8716
234.9590, 230.2422
236.1780, 98.57617
237.3960, 195.8789
238.6150, 224.1548
239.8330, 151.4072
241.0510, 265.6401
242.2690, 236.8560
243.4870, 266.0569
244.7050, 349.2451
245.9230, 327.4224
247.1400, 342.5898
248.3570, 345.7488
249.5740, 400.9001
250.7910, 396.0444
252.0080, 442.1829
253.2240, 513.3157
254.4410, 434.4436
255.6570, 536.5667
256.8730, 624.6855
258.0890, 563.8003
259.3050, 701.9109
260.5210, 615.0164
261.7360, 610.1174
262.9510, 608.2131
264.1670, 483.3027
265.3820, 490.3865
266.5960, 373.4641
267.8110, 511.5356
269.0260, 470.6006
270.2400, 440.6592
271.4540, 584.7112
272.6680, 507.7559
273.8820, 630.7937
275.0960, 625.3662
276.3090, 624.8489
277.5230, 617.1006
278.7360, 674.2642
279.9490, 646.6052
281.1620, 758.6631
282.3750, 875.7876
283.5880, 1024.695
284.8000, 1079.953
286.0120, 1166.007
287.2240, 1289.887
288.4360, 1374.864
289.6480, 1536.806
290.8600, 1513.250
292.0710, 1694.210
293.2830, 1700.581
294.4940, 1678.943
295.7050, 1895.295
296.9160, 1946.639
298.1260, 2100.050
299.3370, 2313.137
300.5470, 2434.611
301.7580, 2756.100
302.9680, 2990.851
304.1770, 3352.848
305.3870, 3609.973
306.5970, 3781.253
307.8060, 3902.671
309.0150, 3712.215
310.2250, 3382.871
311.4340, 3007.631
312.6420, 2748.485
313.8510, 2409.424
315.0590, 2262.443
316.2680, 2117.535
317.4760, 1974.693
318.6840, 1963.913
319.8920, 1810.190
321.0990, 1877.520
322.3070, 1834.898
323.5140, 1896.322
324.7210, 1907.787
325.9280, 1997.291
327.1350, 1929.831
328.3420, 1865.405
329.5490, 1985.011
330.7550, 2094.645
331.9610, 2035.305
333.1670, 2072.989
334.3730, 1959.695
335.5790, 2031.420
336.7840, 2092.162
337.9900, 2138.921
339.1950, 2328.692
340.4000, 2638.478
341.6050, 3141.274
342.8100, 3700.082
344.0150, 4540.898
345.2190, 5312.723
346.4230, 6083.556
347.6280, 6598.397
348.8320, 6538.243
350.0350, 5901.094
351.2390, 4958.951
352.4430, 3941.811
353.6460, 2956.675
354.8490, 2366.542
356.0520, 1799.411
357.2550, 1543.282
358.4580, 1260.154
359.6600, 993.0283
360.8630, 833.9019
362.0650, 796.7727
363.2670, 669.6372
364.4690, 622.4917
365.6710, 549.3337
366.8720, 639.1614
368.0740, 656.9751
369.2750, 704.7751
370.4760, 684.5618
371.6770, 746.3357
372.8780, 820.0977
374.0780, 1019.848
375.2790, 1205.587
376.4790, 1495.316
377.6790, 1687.035
378.8790, 1928.742
380.0790, 1930.440
381.2790, 1873.128
382.4780, 1688.806
383.6780, 1540.474
384.8770, 1404.133
386.0760, 1225.782
387.2750, 1034.421
388.4730, 824.0522
389.6720, 704.6733
390.8700, 504.2859
392.0690, 440.8892
393.2670, 266.4832
394.4650, 264.0684
395.6620, 266.6443
396.8600, 163.2117
398.0570, 91.77002
399.2550, 105.3193
400.4520, 87.85962
401.6490, 13.60913
402.8450, 1.096924
404.0420, 90.60059
405.2390, 73.14404
406.4350, 77.72266
407.6310, 87.33765
408.8270, 117.9919
410.0230, 126.6936
411.2190, 125.4448
412.4140, 130.2458
413.6090, 137.0974
414.8050, 114.0017
416.0000, 118.9526
417.1940, 148.9519
418.3890, 129.0073
419.5840, 146.1135
420.7780, 104.2749
421.9720, 96.49243
423.1660, 84.79565
424.3600, 10.19849
425.5540, 22.69702
426.7480, 51.30737
427.9410, 58.95996
429.1340, 8.861816
430.3270, 11.79517
431.5200, 43.16846
432.7130, 77.06055
433.9060, 77.92383
435.0980, 56.76245
436.2900, 124.5769
437.4830, 71.38965
438.6750, 107.2014
439.8660, 147.0122
441.0580, 82.82202
442.2500, 137.6370
443.4410, 178.4575
444.6320, 164.2827
445.8230, 200.1121
447.0140, 193.9443
448.2050, 182.7832
449.3950, 207.3228
450.5860, 204.7295
451.7760, 240.3052
452.9660, 236.1455
454.1560, 267.9844
455.3450, 309.8220
456.5350, 337.1101
457.7240, 393.4902
458.9140, 431.3206
460.1030, 481.1475
461.2920, 548.9712
462.4810, 563.7915
463.6690, 656.6074
464.8580, 690.4197
466.0460, 949.2273
467.2340, 1090.030
468.4220, 1205.829
469.6100, 1501.623
470.7970, 1684.412
471.9850, 1993.196
473.1720, 2252.975
474.3590, 2390.747
475.5460, 2387.515
476.7330, 2199.277
477.9200, 1986.034
479.1060, 1748.785
480.2930, 1307.531
481.4790, 1022.271
482.6650, 804.0046
483.8510, 637.7332
485.0370, 586.4556
486.2220, 439.1721
487.4080, 384.8828
488.5930, 434.5879
489.7780, 433.2869
490.9630, 343.9805
492.1480, 365.6677
493.3320, 374.3494
494.5170, 366.0254
495.7010, 389.6956
496.8850, 409.3599
498.0690, 389.0186
499.2530, 488.6714
500.4360, 396.3188
501.6200, 471.9751
502.8030, 404.6255
503.9860, 354.2710
505.1690, 347.9150
506.3520, 308.5537
507.5350, 239.1929
508.7170, 294.8396
509.9000, 145.4893
511.0820, 185.1331
512.2640, 187.7722
513.4460, 236.4106
514.6270, 239.4062
515.8090, 150.7195
516.9900, 247.3906
518.1710, 205.0569
519.3530, 188.7188
520.5330, 232.3760
521.7140, 228.0466
522.8950, 233.7134
524.0750, 260.3823
525.2550, 269.0557
526.4350, 304.7302
527.6150, 326.4243
528.7950, 301.1294
529.9750, 384.8508
531.1540, 412.5696
532.3340, 495.3005
533.5130, 473.0308
534.6920, 596.7581
535.8700, 536.4868
537.0490, 598.2266
538.2280, 597.9734
539.4060, 568.7173
540.5840, 546.4578
541.7620, 616.1953
542.9400, 518.9385
544.1180, 623.7429
545.2950, 683.3030
546.4720, 625.2080
547.6500, 797.1729
548.8270, 719.8157
550.0040, 829.8218
551.1800, 873.8718
552.3570, 970.3477
553.5330, 1149.874
554.7090, 1313.072
555.8850, 1383.816
557.0610, 1520.987
558.2370, 1590.827
559.4130, 1563.765
560.5880, 1413.938
561.7630, 1256.027
562.9380, 1053.729
564.1130, 889.9087
565.2880, 795.8142
566.4630, 708.3975
567.6370, 551.1943
568.8120, 587.1978
569.9860, 471.3342
571.1600, 520.6646
572.3330, 371.1768
573.5070, 331.9817
574.6810, 345.7961
575.8540, 275.6191
577.0270, 213.4507
578.2000, 236.2913
579.3730, 152.1411
580.5460, 231.9995
581.7180, 242.8669
582.8910, 263.7434
584.0630, 177.6287
585.2350, 190.5229
586.4070, 146.4263
587.5780, 261.3384
588.7500, 260.2598
589.9210, 231.1902
591.0930, 281.1292
592.2640, 288.0771
593.4350, 309.0339
594.6050, 395.9998
595.7760, 408.9746
596.9460, 516.9587
598.1170, 552.9517
599.2870, 570.9539
600.4570, 781.9648
601.6260, 797.9846
602.7960, 868.0139
603.9650, 1053.052
605.1350, 1173.100
606.3040, 1303.156
607.4730, 1450.223
608.6420, 1669.298
609.8100, 1841.383
610.9790, 1870.476
612.1470, 1924.579
613.3150, 2028.692
614.4830, 2059.814
615.6510, 1998.946
616.8190, 1819.088
617.9860, 1856.239
619.1540, 1628.400
620.3210, 1669.571
621.4880, 1391.750
622.6550, 1340.940
623.8220, 1309.139
624.9880, 1324.348
626.1550, 1234.567
627.3210, 1303.796
628.4870, 1347.035
629.6530, 1550.285
630.8190, 1636.543
631.9840, 1841.812
633.1500, 2112.090
634.3150, 2183.379
635.4800, 2526.677
636.6450, 2577.986
637.8100, 2559.304
638.9740, 2439.632
640.1390, 2371.971
641.3030, 2125.629
642.4670, 1802.987
643.6310, 1619.355
644.7950, 1310.624
645.9590, 1185.013
647.1220, 927.5828
648.2850, 831.9087
649.4490, 722.9163
650.6120, 579.3442
651.7740, 558.7820
652.9370, 551.0342
654.1000, 440.0432
655.2620, 424.8770
656.4240, 380.9504
657.5860, 280.4351
658.7480, 304.9287
659.9100, 291.4316
661.0710, 231.9575
662.2330, 210.4785
663.3940, 278.4373
664.5550, 250.8391
665.7160, 155.3032
666.8770, 197.4163
668.0370, 267.2754
669.1980, 192.4592
670.3580, 235.7429
671.5180, 215.8008
672.6780, 256.5090
673.8380, 177.1133
674.9970, 231.7510
676.1570, 221.5952
677.3160, 265.6335
678.4750, 252.2676
679.6340, 221.9087
680.7930, 229.5601
681.9520, 274.1409
683.1100, 287.8035
684.2680, 288.3555
685.4270, 274.0574
686.5850, 295.7971
687.7420, 320.3926
688.9000, 330.1780
690.0580, 398.2319
691.2150, 386.4434
692.3720, 422.7466
693.5290, 480.3813
694.6860, 500.4580
695.8430, 647.5581
696.9990, 686.7026
698.1560, 732.9143
699.3120, 640.1675
700.4680, 877.5085
701.6240, 801.8684
702.7800, 877.2705
703.9350, 901.7139
705.0900, 980.1941
706.2460, 917.6919
707.4010, 972.2148
708.5560, 923.7664
709.7110, 925.3262
710.8650, 883.9036
712.0200, 865.4983
713.1740, 793.1045
714.3280, 804.7158
715.4820, 679.3335
716.6360, 651.9609
717.7890, 553.5952
718.9430, 532.2354
720.0960, 447.8813
721.2490, 447.5339
722.4020, 427.1936
723.5550, 267.8589
724.7080, 344.5291
725.8600, 293.2046
727.0130, 217.8853
728.1650, 277.5706
729.3170, 186.2610
730.4690, 220.9558
731.6200, 224.6558
732.7720, 188.3601
733.9230, 180.0691
735.0740, 225.7822
736.2250, 126.5002
737.3760, 159.2222
738.5270, 113.9482
739.6780, 121.6787
740.8280, 115.4131
741.9780, 156.1521
743.1280, 218.8950
744.2780, 172.6416
745.4280, 145.3921
746.5770, 189.1460
747.7270, 156.9036
748.8760, 81.66455
750.0250, 169.4290
751.1740, 91.28174
752.3230, 155.0525
753.4720, 83.83618
754.6200, 121.6985
755.7680, 182.4780
756.9160, 93.26050
758.0640, 115.0454
759.2120, 131.8333
760.3600, 180.6238
761.5070, 151.4167
762.6550, 174.2119
763.8020, 78.16943
764.9490, 138.9697
766.0960, 136.8726
767.2420, 181.6765
768.3890, 36.48242
769.5350, 95.29028
770.6810, 102.0999
771.8270, 79.91113
772.9730, 109.7239
774.1190, 30.53809
775.2640, 70.35352
776.4100, 104.1704
777.5550, 15.00171
778.7000, 62.17896
779.8450, 141.6121
780.9900, 35.40332
782.1340, 21.72461
783.2790, 8.114502
784.4230, 25.07178
785.5670, 52.28906
786.7110, 30.53198
787.8550, 9.214355
788.9980, 37.96094
790.1420, 16.29199
791.2850, 43.55371
792.4280, 87.83862
793.5710, 43.17017
794.7140, 16.47437
795.8560, 8.118408
796.9990, 14.76245
798.1410, 63.59424
799.2830, 53.01343
800.4250, 21.37549
801.5670, 27.77881
802.7090, 12.20020
803.8500, 85.63208
804.9920, 49.11279
806.1330, 69.62402
807.2740, 2.823486
808.4150, 51.70532
809.5550, 5.190186
810.6960, 10.26514
811.8360, 10.33350
812.9760, 44.94385
814.1160, 31.58423
815.2560, 51.75171
816.3960, 35.08569
817.5350, 13.41846
818.6750, 22.25098
819.8140, 68.05933
820.9530, 20.63184
822.0920, 66.47070
823.2310, 48.77344
824.3690, 50.05762
825.5080, 23.41797
826.6460, 32.06616
827.7840, 8.396240
828.9220, 32.66943
830.0600, 42.41968
831.1970, 21.68530
832.3350, 68.41968
833.4720, 33.67603
834.6090, 30.81958
835.7460, 128.0654
836.8830, 0.3657230
838.0190, 49.59009
839.1560, 79.85156
840.2920, 62.27002
841.4280, 105.4758
842.5640, 85.67432
843.7000, 130.8054
844.8360, 133.0442
845.9710, 132.7883
847.1070, 114.9661
848.2420, 177.1836
849.3770, 159.3274
850.5120, 123.4819
851.6460, 176.6292
852.7810, 186.6494
853.9150, 267.1248
855.0490, 211.2522
856.1830, 245.4973
857.3170, 303.7710
858.4510, 204.3625
859.5840, 211.4570
860.7180, 265.5435
861.8510, 249.6211
862.9840, 274.6902
864.1170, 267.7507
865.2500, 245.8025
866.3820, 173.8455
867.5150, 213.8796
868.6470, 184.9121
869.7790, 103.9355
870.9110, 166.9541
872.0430, 170.9663
873.1740, 150.9697
874.3060, 160.9639
875.4370, 129.9490
876.5680, 209.9246
877.6990, 119.9995
878.8300, 169.9565
879.9600, 144.9041
881.0910, 143.8420
882.2210, 74.77051
883.3510, 93.68970
884.4810, 94.60107
885.6110, 137.5039
886.7410, 56.39697
887.8700, 90.27979
888.9990, 72.15234
890.1290, 58.01538
891.2580, 141.8672
892.3860, 187.7092
893.5150, 192.5410
894.6440, 105.3674
895.7720, 144.1843
896.9000, 88.99585
898.0280, 216.8018
899.1560, 54.59717
900.2840, 209.4214
901.4110, 61.19629
902.5390, 188.9663
903.6660, 154.7197
904.7930, 188.4626
905.9200, 196.1951
907.0470, 186.9282
908.1730, 157.6394
909.3000, 108.3403
910.4260, 140.0303
911.5520, 170.7512
912.6780, 82.41992
913.8030, 133.0776
914.9290, 172.4153
916.0540, 163.0605
917.1800, 67.57153
918.3050, 72.67847
919.4300, 79.41162
920.5550, 117.6145
921.6790, 109.2825
922.8040, 110.1809
923.9280, 126.8071
925.0520, 145.3608
926.1760, 169.0989
927.3000, 204.0791
928.4230, 174.7947
929.5470, 117.1558
930.6700, 141.6658
931.7930, 90.16602
932.9160, 106.6558
934.0390, 117.1240
935.1620, 150.5364
936.2840, 160.5701
937.4070, 153.0356
938.5290, 154.8062
939.6510, 128.5659
940.7730, 105.6985
941.8940, 105.5073
943.0160, 50.82568
944.1370, 33.68530
945.2580, 41.42725
946.3800, 71.80981
947.5000, 74.15771
948.6210, 71.27246
949.7420, 107.2434
950.8620, 49.59155
951.9820, 78.93115
953.1020, 57.25952
954.2220, 87.65674
955.3420, 84.97144
956.4620, 15.59473
957.5810, 42.68726
958.7000, 56.96094
959.8190, 3.773682
960.9380, 28.47314
962.0570, 12.87500
963.1760, 103.7866
964.2940, 8.004883
965.4120, 83.32788
966.5300, 9.508545
967.6480, 68.66699
968.7660, 16.16553
969.8840, 67.96411
971.0010, 2.901611
972.1190, 54.18018
973.2360, 37.28809
974.3530, 18.38770
975.4690, 47.47705
976.5860, 59.55835
977.7030, 1.341797
978.8190, 34.80493
979.9350, 6.489990
981.0510, 54.52466
982.1670, 37.55078
983.2830, 1.431641
984.3980, 115.5691
985.5130, 87.56152
986.6290, 0.5344240
987.7440, 13.50269
988.8590, 53.45972
989.9730, 25.40869
991.0880, 22.34839
992.2020, 8.278564
993.3160, 160.2310
994.4300, 81.18237
995.5440, 161.0842
996.6580, 117.9783
997.7720, 135.8645
998.8850, 219.7424
999.9980, 240.6140
1001.111, 201.4771
1002.224, 187.9871
1003.337, 157.8340
1004.450, 163.5054
1005.562, 100.0090
1006.674, 112.8328
1007.786, 93.64868
1008.898, 57.45679
1010.010, 82.25732
1011.122, 27.05029
1012.233, 85.83423
1013.344, 125.6111
1014.455, 57.38037
1015.566, 111.1421
1016.677, 128.8962
1017.788, 138.0269
1018.898, 156.0256
1020.009, 141.7576
1021.119, 149.3970
1022.229, 123.1145
1023.339, 135.8145
1024.448, 126.6040
1025.558, 72.12769
1026.667, 123.8164
1027.776, 91.44409
1028.885, 98.26025
1029.994, 114.9966
1031.103, 72.66504
1032.211, 68.31787
1033.320, 38.09277
1034.428, 71.73169
1035.536, 45.26294
1036.644, 64.88794
1037.751, 52.50610
1038.859, 95.11743
1039.966, 42.72217
1041.074, 123.3201
1042.181, 44.91138
1043.288, 45.49585
1044.394, 34.07397
1045.501, 100.6453
1046.607, 76.19702
1047.713, 117.7551
1048.820, 40.32227
1049.925, 2.117432
1051.031, 7.546875
1052.137, 18.26904
1053.242, 0.6264650
1054.348, 47.61694
1055.453, 2.849121
1056.558, 25.67798
1057.662, 42.19849
1058.767, 52.71313
1059.871, 83.22656
1060.976, 94.40430
1062.080, 99.05566
1063.184, 124.7502
1064.288, 81.28711
1065.391, 79.81836
1066.495, 38.34375
1067.598, 3.467529
1068.701, 88.05591
1069.804, 45.58081
1070.907, 126.1089
1072.010, 84.38086
1073.112, 87.92676
1074.214, 110.8772
1075.317, 157.4470
1076.419, 138.9858
1077.521, 103.4580
1078.622, 180.9805
1079.724, 94.55005
1080.825, 91.11963
1081.926, 161.6982
1083.027, 90.28271
1084.128, 109.8625
1085.229, 139.4373
1086.329, 86.00732
1087.430, 136.5813
1088.530, 51.15063
1089.630, 106.9109
1090.730, 95.46387
1091.830, 111.0278
1092.929, 79.50854
1094.029, 10.02075
1095.128, 105.1851
1096.227, 57.72363
1097.326, 8.776855
1098.425, 92.30566
1099.523, 61.35767
1100.622, 64.87866
1101.720, 136.5037
1102.818, 42.01758
1103.916, 27.46729
1105.014, 43.97876
1106.111, 54.44409
1107.209, 64.74194
1108.306, 39.24292
1109.403, 14.74097
1110.500, 4.295898
1111.597, 21.26685
1112.694, 60.64624
1113.790, 43.11621
1114.887, 65.53540
1115.983, 42.01807
1117.079, 66.47925
1118.174, 12.06250
1119.270, 57.50732
1120.366, 26.61157
1121.461, 28.05322
1122.556, 74.36670
1123.651, 120.6406
1124.746, 4.585938
1125.841, 3.018311
1126.935, 112.4478
1128.030, 51.87500
1129.124, 97.30029
1130.218, 22.72363
1131.312, 10.14502
1132.405, 27.56445
1133.499, 25.01782
1134.592, 51.38354
1135.686, 12.21655
1136.779, 9.825928
1137.871, 45.55664
1138.964, 30.93774
1140.057, 25.31763
1141.149, 81.69629
1142.241, 14.07349
1143.334, 57.34106
1144.425, 6.715820
1145.517, 66.08936
1146.609, 38.46191
1147.700, 14.83350
1148.791, 6.795898
1149.883, 4.570068
1150.974, 3.932129
1152.064, 5.293945
1153.155, 9.655273
1154.245, 3.015869
1155.336, 37.37573
1156.426, 59.73560
1157.516, 27.09497
1158.606, 17.54639
1159.695, 3.196777
1160.785, 19.84863
1161.874, 19.05542
1162.963, 44.81836
1164.052, 6.853271
1165.141, 38.43433
1166.230, 42.76050
1167.318, 100.0811
1168.406, 75.40747
1169.495, 113.7341
1170.583, 102.0400
1171.670, 58.37695
1172.758, 84.70386
1173.846, 33.03125
1174.933, 44.35913
1176.020, 81.64624
1177.107, 8.974609
1178.194, 62.30420
1179.281, 26.63379
1180.367, 1.955078
1181.454, 6.599365
1182.540, 7.650635
1183.626, 20.55054
1184.712, 9.900391
1185.798, 28.42725
1186.883, 26.84204
1187.969, 41.10913
1189.054, 67.43872
1190.139, 14.76978
1191.224, 7.101563
1192.309, 39.56567
1193.393, 23.75171
1194.478, 75.06982
1195.562, 13.38892
1196.646, 23.70898
1197.730, 18.97217
1198.814, 30.40479
1199.897, 32.72266
1200.981, 12.04175
1202.064, 21.63818
1203.147, 84.67651
1204.230, 14.00781
1205.313, 59.30542
1206.396, 35.62012
1207.478, 46.93579
1208.560, 58.25342
1209.642, 47.56616
1210.724, 43.89258
1211.806, 47.21411
1212.888, 63.53662
1213.969, 71.86060
1215.051, 62.18604
1216.132, 63.38794
1217.213, 18.84106
1218.294, 52.17065
1219.374, 70.50171
1220.455, 81.84229
1221.535, 24.18457
1222.616, 76.52856
1223.696, 1.878662
1224.775, 57.06738
1225.855, 98.42310
1226.935, 112.7810
1228.014, 117.0251
1229.093, 100.3892
1230.172, 127.7612
1231.251, 117.1357
1232.330, 43.52026
1233.408, 40.90723
1234.487, 20.02026
1235.565, 45.69727
1236.643, 44.09570
1237.721, 41.49756
1238.799, 52.07422
1239.876, 35.28198
1240.954, 65.60547
1242.031, 87.38428
1243.108, 113.8057
1244.185, 97.22974
1245.262, 66.65723
1246.338, 92.09155
1247.415, 90.53491
1248.491, 139.9929
1249.567, 107.4463
1250.643, 119.9043
1251.719, 115.3657
1252.795, 86.83447
1253.870, 75.30737
1254.945, 74.22583
1256.021, 82.90405
1257.096, 83.68481
1258.170, 126.1812
1259.245, 151.6809
1260.320, 177.1841
1261.394, 152.6895
1262.468, 174.2212
1263.542, 160.0583
1264.616, 173.5762
1265.690, 170.6965
1266.763, 165.1682
1267.836, 166.6699
1268.910, 153.2158
1269.983, 153.8196
1271.055, 140.9084
1272.128, 164.8777
1273.201, 136.4414
1274.273, 149.4961
1275.345, 141.5811
1276.417, 167.1570
1277.489, 157.5125
1278.561, 201.9390
1279.632, 145.2683
1280.704, 118.8621
1281.775, 105.4602
1282.846, 136.0630
1283.917, 109.6702
1284.988, 223.2812
1286.058, 150.8967
1287.129, 212.5168
1288.199, 122.1958
1289.269, 153.6841
1290.339, 150.2488
1291.409, 139.8792
1292.478, 238.5220
1293.548, 193.8799
1294.617, 180.5312
1295.686, 134.1873
1296.755, 195.8477
1297.824, 141.5122
1298.893, 234.1809
1299.961, 184.8538
1301.029, 119.5308
1302.097, 243.2122
1303.165, 215.8972
1304.233, 218.5864
1305.301, 214.2798
1306.368, 212.9771
1307.436, 202.6785
1308.503, 251.3855
1309.570, 252.0967
1310.637, 316.6221
1311.703, 277.1165
1312.770, 320.8433
1313.836, 255.2673
1314.902, 262.0063
1315.968, 299.7544
1317.034, 250.5073
1318.100, 259.0076
1319.165, 288.0269
1320.231, 219.7935
1321.296, 211.6392
1322.361, 182.0259
1323.426, 196.1975
1324.491, 169.9841
1325.555, 166.7756
1326.620, 170.9214
1327.684, 169.7275
