##NAMES=Baddeleyite
##RRUFFID=R060078
##IDEAL CHEMISTRY=Zr^4+^O_2_
##LOCALITY=Wetloo mine, Mogok, Burma
##OWNER=RRUFF
##SOURCE=Marcus Origlieri
##DESCRIPTION=Dark brown fragment
##STATUS=The identification of this mineral has been confirmed by X-ray diffraction and chemical analysis
##URL=rruff.info/R060078
##MEASURED CHEMISTRY=(Zr_0.99_Hf_0.01_)_Î£=1_O_2_
##PIN_ID=L00545
##ORIENTATION=Laser parallel to b* (0 1 0). Fiducial mark perpendicular to laser is parallel to c [0 0 1]
51.43100, 0.0000000E+00
52.67100, 58.80762
53.91000, 105.5362
55.14900, 196.0661
56.38700, 277.2397
57.62600, 318.7880
58.86400, 384.3845
60.10300, 334.3188
61.34100, 191.5655
62.57900, 86.08606
63.81700, 7.600159
65.05400, 71.25513
66.29200, 98.84961
67.52900, 94.52051
68.76700, 68.57141
70.00400, 61.72107
71.24100, 224.0924
72.47700, 285.2683
73.71400, 292.9781
74.95100, 580.9725
76.18700, 717.0288
77.42300, 963.9495
78.65900, 1238.656
79.89500, 1431.749
81.13100, 1797.395
82.36700, 2065.411
83.60200, 2330.707
84.83700, 2569.193
86.07200, 2786.783
87.30800, 3040.395
88.54200, 3393.946
89.77700, 4200.313
91.01200, 5058.348
92.24600, 6526.916
93.48000, 8580.900
94.71400, 10804.22
95.94800, 12349.80
97.18200, 11993.59
98.41600, 10598.54
99.64900, 9578.607
100.8830, 8467.753
102.1160, 7550.947
103.3490, 7027.167
104.5820, 6529.416
105.8150, 6345.738
107.0470, 6375.174
108.2800, 6355.752
109.5120, 6464.467
110.7440, 5612.293
111.9760, 5217.197
113.2080, 5050.138
114.4400, 4885.084
115.6710, 4935.996
116.9030, 4758.844
118.1340, 4638.596
119.3650, 4319.229
120.5960, 4401.712
121.8270, 4224.020
123.0580, 4073.134
124.2880, 4028.027
125.5190, 3934.543
126.7490, 3839.189
127.9790, 3663.086
129.2090, 3704.065
130.4390, 3631.157
131.6680, 3638.347
132.8980, 3611.593
134.1270, 3569.988
135.3560, 3561.428
136.5850, 3500.625
137.8140, 3492.918
139.0430, 3574.551
140.2710, 3500.537
141.5000, 3505.888
142.7280, 3338.612
143.9560, 3505.719
145.1840, 3495.213
146.4120, 3637.102
147.6390, 3641.387
148.8670, 3783.073
150.0940, 3975.163
151.3210, 4081.657
152.5490, 4264.157
153.7750, 4389.146
155.0020, 4605.958
156.2290, 4754.766
157.4550, 4943.704
158.6810, 5370.879
159.9080, 5673.203
161.1340, 6123.738
162.3590, 6929.334
163.5850, 7768.930
164.8110, 9088.308
166.0360, 11346.38
167.2610, 15066.93
168.4860, 20307.84
169.7110, 25207.11
170.9360, 25852.68
172.1610, 23132.51
173.3850, 20586.61
174.6100, 18864.95
175.8340, 17822.56
177.0580, 17977.43
178.2820, 20789.55
179.5050, 26933.93
180.7290, 38016.57
181.9520, 51211.44
183.1760, 57623.59
184.3990, 53584.98
185.6220, 44100.62
186.8450, 37064.50
188.0670, 30811.64
189.2900, 25357.02
190.5120, 21075.64
191.7340, 18150.50
192.9560, 16429.60
194.1780, 14701.93
195.4000, 13443.49
196.6220, 11807.29
197.8430, 10569.33
199.0640, 9519.259
200.2860, 8938.854
201.5070, 8439.109
202.7270, 8165.152
203.9480, 7683.017
205.1690, 7180.623
206.3890, 6730.617
207.6090, 6512.795
208.8290, 6409.844
210.0490, 6464.662
211.2690, 6444.098
212.4890, 6541.972
213.7080, 6698.090
214.9280, 6619.729
216.1470, 6336.618
217.3660, 5773.335
218.5850, 5682.582
219.8030, 5196.340
221.0220, 5085.592
222.2400, 4935.325
223.4590, 4774.523
224.6770, 4700.174
225.8950, 4674.267
227.1120, 4598.787
228.3300, 4688.723
229.5480, 4450.066
230.7650, 4258.804
231.9820, 4436.928
233.1990, 4325.427
234.4160, 4470.294
235.6330, 4511.519
236.8490, 4602.093
238.0660, 4593.009
239.2820, 4662.260
240.4980, 4715.132
241.7140, 4712.745
242.9300, 4795.969
244.1460, 4890.503
245.3610, 4865.346
246.5770, 4995.521
247.7920, 5000.934
249.0070, 5202.672
250.2220, 5301.697
251.4370, 5446.009
252.6510, 5386.600
253.8660, 5320.466
255.0800, 5233.802
256.2940, 5114.010
257.5080, 4999.024
258.7220, 5090.309
259.9360, 4983.476
261.1490, 5088.131
262.3630, 4921.458
263.5760, 4904.658
264.7890, 4896.729
266.0020, 4957.164
267.2150, 5054.559
268.4270, 5249.631
269.6400, 5281.621
270.8520, 5478.495
272.0640, 5561.768
273.2760, 5879.996
274.4880, 6170.447
275.7000, 6521.031
276.9120, 6890.473
278.1230, 7133.699
279.3340, 7481.677
280.5450, 7993.543
281.7560, 8107.912
282.9670, 8615.750
284.1780, 8777.525
285.3880, 9098.143
286.5980, 9290.836
287.8090, 10122.92
289.0190, 10310.99
290.2290, 11037.23
291.4380, 11740.83
292.6480, 12447.44
293.8570, 13532.22
295.0670, 14821.18
296.2760, 16928.32
297.4850, 18524.62
298.6930, 20201.10
299.9020, 21094.75
301.1110, 20586.56
302.3190, 19890.54
303.5270, 18418.68
304.7350, 17140.98
305.9430, 15898.42
307.1510, 14737.00
308.3580, 13548.72
309.5660, 12783.58
310.7730, 12032.57
311.9800, 11306.69
313.1870, 11028.94
314.3940, 10622.31
315.6010, 10382.81
316.8070, 10384.43
318.0130, 10099.18
319.2200, 10158.04
320.4260, 10316.03
321.6310, 10476.13
322.8370, 10445.36
324.0430, 10581.70
325.2480, 10590.16
326.4540, 10291.73
327.6590, 10214.42
328.8640, 10056.23
330.0680, 10100.15
331.2730, 10610.18
332.4780, 11612.33
333.6820, 13637.59
334.8860, 16036.95
336.0900, 20121.43
337.2940, 24773.01
338.4980, 30586.71
339.7010, 34421.52
340.9050, 36250.43
342.1080, 34881.45
343.3110, 31301.57
344.5140, 27190.87
345.7170, 23412.35
346.9200, 19558.00
348.1220, 16604.84
349.3240, 13885.85
350.5270, 11968.05
351.7290, 10031.43
352.9310, 8434.004
354.1320, 7222.762
355.3340, 5966.703
356.5350, 5210.835
357.7370, 4729.164
358.9380, 4208.684
360.1390, 3822.383
361.3400, 3821.254
362.5400, 3653.286
363.7410, 3937.479
364.9410, 3988.828
366.1410, 4486.331
367.3410, 5347.988
368.5410, 6450.797
369.7410, 7808.799
370.9400, 8794.903
372.1400, 9252.155
373.3390, 9297.554
374.5380, 9033.094
375.7370, 8985.774
376.9360, 8353.597
378.1350, 7697.558
379.3330, 6927.656
380.5310, 5890.889
381.7300, 5023.263
382.9280, 4312.768
384.1260, 3606.403
385.3230, 3100.174
386.5210, 2588.074
387.7180, 2108.104
388.9160, 1526.264
390.1130, 1318.551
391.3100, 880.9648
392.5060, 555.5049
393.7030, 560.1699
394.9000, 484.9600
396.0960, 103.8730
397.2920, 47.90918
398.4880, 184.9365
399.6840, 153.7539
400.8800, 161.5322
402.0750, 238.2764
403.2710, 481.0215
404.4660, 610.8740
405.6610, 578.8975
406.8560, 753.0781
408.0510, 596.4980
409.2450, 578.0879
410.4400, 717.8398
411.6340, 668.8203
412.8280, 698.0078
414.0220, 561.4180
415.2160, 507.9893
416.4100, 593.6992
417.6030, 500.5869
418.7970, 331.6143
419.9900, 361.7012
421.1830, 352.8662
422.3760, 185.1035
423.5690, 98.34180
424.7610, 123.5459
425.9540, 41.27246
427.1460, 19.81934
428.3380, 54.84473
429.5300, 92.17871
430.7220, 9.306641
431.9140, 82.50879
433.1050, 134.8125
434.2970, 68.22070
435.4880, 276.7246
436.6790, 305.3330
437.8700, 303.0449
439.0610, 318.8613
440.2510, 311.7803
441.4420, 394.8018
442.6320, 376.9258
443.8220, 553.1523
445.0120, 590.4805
446.2020, 499.9092
447.3910, 669.4395
448.5810, 760.0703
449.7700, 897.8018
450.9600, 936.6338
452.1490, 1113.564
453.3370, 1237.746
454.5260, 1510.065
455.7150, 1611.955
456.9030, 2106.282
458.0910, 2467.710
459.2800, 2715.235
460.4670, 3571.857
461.6550, 4440.610
462.8430, 5571.399
464.0300, 6823.316
465.2180, 8285.331
466.4050, 9746.442
467.5920, 10775.65
468.7790, 10837.96
469.9650, 10276.36
471.1520, 9344.859
472.3380, 8472.454
473.5250, 6807.147
474.7110, 5570.936
475.8970, 4602.818
477.0820, 3488.800
478.2680, 2963.875
479.4540, 2456.047
480.6390, 2014.312
481.8240, 1574.674
483.0090, 1512.129
484.1940, 1190.681
485.3780, 1126.326
486.5630, 1165.065
487.7470, 1101.899
488.9320, 1112.827
490.1160, 1160.847
491.3000, 1302.959
492.4830, 1349.164
493.6670, 1451.459
494.8500, 1279.846
496.0340, 1311.321
497.2170, 1096.888
498.4000, 919.5420
499.5820, 948.2852
500.7650, 818.1162
501.9480, 681.0342
503.1300, 599.0381
504.3120, 536.1299
505.4940, 343.3057
506.6760, 289.5674
507.8580, 233.9141
509.0390, 114.3447
510.2210, 270.8574
511.4020, 99.46582
512.5830, 189.1611
513.7640, 145.9609
514.9450, 135.8691
516.1250, 232.8857
517.3060, 400.0107
518.4860, 518.2705
519.6660, 435.6240
520.8460, 619.1084
522.0260, 627.7246
523.2060, 839.4287
524.3850, 857.2441
525.5650, 992.1719
526.7440, 1128.369
527.9230, 1280.369
529.1020, 1391.654
530.2810, 1633.061
531.4590, 1781.593
532.6380, 1840.246
533.8160, 1980.018
534.9940, 1938.905
536.1720, 2224.906
537.3500, 2071.023
538.5270, 2315.245
539.7050, 2497.578
540.8820, 2834.531
542.0590, 3381.545
543.2360, 3815.836
544.4130, 4511.229
545.5900, 5133.091
546.7660, 6035.793
547.9430, 7250.160
549.1190, 8247.014
550.2950, 8936.333
551.4710, 9150.614
552.6470, 8917.278
553.8220, 8462.582
554.9980, 7611.271
556.1730, 6968.383
557.3480, 6017.397
558.5230, 5291.752
559.6980, 4550.201
560.8730, 4077.835
562.0470, 3581.910
563.2220, 3044.512
564.3960, 2581.663
565.5700, 2025.229
566.7440, 1814.609
567.9170, 1803.823
569.0910, 1380.420
570.2640, 1223.482
571.4380, 1110.765
572.6110, 919.9434
573.7840, 737.4473
574.9570, 775.0537
576.1290, 554.5996
577.3020, 477.4248
578.4740, 619.3564
579.6460, 569.3896
580.8180, 576.5254
581.9900, 572.7578
583.1620, 603.0947
584.3330, 620.5303
585.5040, 710.8672
586.6760, 818.1953
587.8470, 953.4365
589.0180, 1092.263
590.1880, 1288.188
591.3590, 1538.035
592.5290, 1790.318
593.7000, 2195.525
594.8700, 2523.825
596.0400, 3038.219
597.2090, 3536.702
598.3790, 4155.276
599.5490, 4638.941
600.7180, 5685.695
601.8870, 6232.536
603.0560, 7123.465
604.2250, 7589.387
605.3940, 8048.598
606.5620, 8269.800
607.7300, 8584.098
608.8990, 8589.478
610.0670, 8491.951
611.2350, 8028.514
612.4020, 7666.163
613.5700, 7110.895
614.7370, 6667.712
615.9050, 6167.615
617.0720, 5897.598
618.2390, 5661.665
619.4060, 5694.812
620.5720, 5993.039
621.7390, 6290.348
622.9050, 6954.735
624.0710, 7831.203
625.2370, 9082.748
626.4030, 10538.38
627.5690, 11949.08
628.7340, 13183.86
629.9000, 14403.72
631.0650, 15227.66
632.2300, 14909.66
633.3950, 14264.75
634.5600, 13373.91
635.7240, 11935.15
636.8890, 10497.46
638.0530, 9239.846
639.2170, 8069.305
640.3810, 6894.832
641.5450, 5764.436
642.7080, 4865.109
643.8720, 4128.854
645.0350, 3472.668
646.1980, 2948.554
647.3610, 2652.508
648.5240, 2360.532
649.6870, 2045.625
650.8490, 1904.006
652.0120, 1622.571
653.1740, 1377.265
654.3360, 1431.645
655.4980, 1244.601
656.6600, 1275.708
657.8210, 1224.664
658.9830, 1023.779
660.1440, 1117.975
661.3050, 984.0586
662.4660, 915.6064
663.6270, 1069.434
664.7870, 974.4609
665.9480, 999.9746
667.1080, 1081.676
668.2680, 1129.360
669.4280, 1121.855
670.5880, 1090.605
671.7480, 1143.236
672.9070, 1099.562
674.0670, 1252.098
675.2260, 1259.906
676.3850, 1343.413
677.5440, 1502.751
678.7030, 1621.187
679.8610, 1784.962
681.0200, 1770.262
682.1780, 1948.455
683.3360, 1983.490
684.4940, 2055.873
685.6520, 2243.448
686.8090, 2358.999
687.9670, 2526.210
689.1240, 2619.069
690.2810, 3018.145
691.4380, 3266.313
692.5950, 3399.998
693.7520, 3720.871
694.9080, 3741.094
696.0650, 3998.886
697.2210, 4244.182
698.3770, 4475.375
699.5330, 4578.475
700.6880, 4856.801
701.8440, 4885.400
702.9990, 4940.211
704.1550, 4623.082
705.3100, 4803.365
706.4650, 4504.977
707.6190, 4372.044
708.7740, 4171.283
709.9290, 3819.160
711.0830, 3625.332
712.2370, 3303.674
713.3910, 2942.021
714.5450, 2760.465
715.6980, 2651.603
716.8520, 2348.360
718.0050, 2230.746
719.1580, 1928.266
720.3110, 1890.824
721.4640, 1654.915
722.6170, 1424.988
723.7700, 1296.902
724.9220, 1328.074
726.0740, 1222.646
727.2260, 1127.334
728.3780, 1061.342
729.5300, 979.0869
730.6810, 1017.995
731.8330, 933.7441
732.9840, 997.4619
734.1350, 802.2646
735.2860, 903.7598
736.4370, 846.2666
737.5880, 847.5518
738.7380, 837.8525
739.8880, 866.0840
741.0390, 839.6348
742.1890, 868.3457
743.3380, 825.6260
744.4880, 814.8809
745.6380, 853.3916
746.7870, 934.8350
747.9360, 772.9531
749.0850, 812.8369
750.2340, 727.5044
751.3830, 697.9746
752.5310, 736.7681
753.6800, 636.0371
754.8280, 722.2422
755.9760, 658.4746
757.1240, 596.6348
758.2720, 658.7847
759.4190, 425.0005
760.5670, 627.1274
761.7140, 571.2432
762.8610, 379.6353
764.0080, 400.7603
765.1550, 415.8350
766.3020, 426.8950
767.4480, 287.9399
768.5950, 255.9678
769.7410, 324.9795
770.8870, 376.9736
772.0330, 310.1069
773.1780, 299.0645
774.3240, 122.1782
775.4690, 167.2476
776.6140, 126.1465
777.7590, 195.0234
778.9040, 194.8789
780.0490, 153.7129
781.1940, 146.5234
782.3380, 128.9473
783.4820, 91.07373
784.6260, 112.8120
785.7700, 98.52490
786.9140, 123.2314
788.0580, 31.03662
789.2010, 13.42480
790.3450, 63.84326
791.4880, 89.34375
792.6310, 78.85205
793.7730, 78.20996
794.9160, 191.9551
796.0590, 20.84033
797.2010, 172.7827
798.3430, 167.8584
799.4850, 2.066895
800.6270, 89.32764
801.7690, 55.68408
802.9100, 161.1226
804.0520, 95.69678
805.1930, 141.3750
806.3340, 135.1831
807.4750, 136.1187
808.6160, 131.1846
809.7560, 107.3784
810.8970, 107.8213
812.0370, 93.35986
813.1770, 101.6675
814.3170, 64.33252
815.4570, 79.09912
816.5960, 49.97607
817.7360, 54.94531
818.8750, 50.01562
820.0140, 92.08203
821.1530, 46.37646
822.2920, 68.23047
823.4310, 8.219238
824.5690, 109.7466
825.7070, 3.412109
826.8460, 34.16309
827.9840, 63.01660
829.1220, 14.00830
830.2590, 90.34082
831.3970, 41.21826
832.5340, 69.10791
833.6710, 108.0747
834.8080, 4.257813
835.9450, 14.69043
837.0820, 85.76855
838.2190, 17.15332
839.3550, 80.44385
840.4910, 84.65771
841.6270, 2.205566
842.7630, 31.82324
843.8990, 26.23975
845.0350, 48.57666
846.1700, 34.30322
847.3060, 162.9355
848.4410, 28.50146
849.5760, 160.9673
850.7100, 100.3604
851.8450, 72.67041
852.9800, 147.8916
854.1140, 178.0352
855.2480, 172.1055
856.3820, 259.1006
857.5160, 143.0288
858.6500, 220.8770
859.7830, 160.6528
860.9170, 221.3506
862.0500, 282.9746
863.1830, 269.5347
864.3160, 246.0269
865.4480, 272.4473
866.5810, 261.3237
867.7130, 281.0811
868.8460, 289.2930
869.9780, 283.4360
871.1100, 332.5083
872.2410, 332.5137
873.3730, 388.3652
874.5050, 386.9878
875.6360, 451.1289
876.7670, 382.8691
877.8980, 294.5430
879.0290, 264.1450
880.1590, 268.5312
881.2900, 250.3682
882.4200, 257.8965
883.5500, 285.7959
884.6800, 316.0190
885.8100, 344.1704
886.9400, 369.8584
888.0690, 333.2725
889.1990, 408.2217
890.3280, 423.1030
891.4570, 415.9180
892.5860, 478.6655
893.7140, 474.4585
894.8430, 416.9604
895.9710, 479.5063
897.1000, 446.9849
898.2280, 393.3970
899.3560, 431.7393
900.4830, 488.0142
901.6110, 532.2217
902.7380, 556.0576
903.8660, 449.4341
904.9930, 541.4395
906.1200, 556.3779
907.2460, 426.2485
908.3730, 514.0503
909.5000, 427.7842
910.6260, 432.4629
911.7520, 512.0732
912.8780, 537.6152
914.0040, 546.0908
915.1290, 558.5005
916.2550, 529.8667
917.3800, 544.1660
918.5050, 505.3979
919.6300, 490.7056
920.7550, 487.2886
921.8800, 470.7588
923.0040, 460.7441
924.1290, 508.4414
925.2530, 474.9121
926.3770, 552.3950
927.5010, 453.0962
928.6250, 418.2207
929.7480, 468.6328
930.8720, 472.7563
931.9950, 590.7188
933.1180, 559.5977
934.2410, 540.5859
935.3640, 572.1074
936.4860, 482.3442
937.6090, 446.3784
938.7310, 421.9214
939.8530, 446.2725
940.9750, 429.6343
942.0970, 453.5767
943.2180, 461.9028
944.3400, 495.2939
945.4610, 465.0112
946.5820, 464.5093
947.7030, 409.7275
948.8240, 447.2397
949.9450, 412.9131
951.0650, 458.5386
952.1860, 414.7080
953.3060, 365.5112
954.4260, 287.3813
955.5460, 382.4409
956.6650, 344.7144
957.7850, 419.3848
958.9040, 422.4194
960.0230, 390.4351
961.1420, 387.8208
962.2610, 330.7139
963.3800, 320.7788
964.4990, 204.8711
965.6170, 285.2764
966.7350, 244.1709
967.8530, 218.8828
968.9710, 323.2007
970.0890, 384.0459
971.2070, 357.7979
972.3240, 400.3921
973.4410, 321.9492
974.5580, 381.2998
975.6750, 308.8950
976.7920, 304.0664
977.9090, 284.9180
979.0250, 425.6782
980.1410, 316.6929
981.2580, 363.3521
982.3740, 382.4390
983.4890, 291.2915
984.6050, 297.1533
985.7200, 393.7988
986.8360, 320.7324
987.9510, 336.0234
989.0660, 401.6641
990.1810, 275.1479
991.2950, 328.5669
992.4100, 294.0635
993.5240, 397.2876
994.6390, 249.2793
995.7530, 349.9873
996.8660, 328.8765
997.9800, 392.1763
999.0940, 317.9692
1000.207, 403.1431
1001.320, 287.0825
1002.433, 368.1060
1003.546, 244.1001
1004.659, 313.9590
1005.772, 396.1499
1006.884, 230.2451
1007.996, 256.5337
1009.108, 317.7749
1010.220, 271.0547
1011.332, 237.1987
1012.444, 332.8574
1013.555, 361.9951
1014.666, 301.1265
1015.777, 254.0347
1016.888, 268.9116
1017.999, 219.1021
1019.110, 222.6318
1020.220, 238.1841
1021.331, 333.1284
1022.441, 323.1401
1023.551, 286.3320
1024.661, 373.2729
1025.770, 327.1758
1026.880, 369.0244
1027.989, 312.8462
1029.098, 338.5659
1030.207, 319.3369
1031.316, 267.2080
1032.425, 237.6392
1033.533, 194.2993
1034.642, 284.9712
1035.750, 156.6191
1036.858, 233.2437
1037.966, 323.8447
1039.073, 157.4229
1040.181, 249.9785
1041.288, 233.3550
1042.396, 267.8667
1043.503, 157.2871
1044.610, 197.6040
1045.716, 183.0518
1046.823, 148.4785
1047.929, 190.3193
1049.036, 279.2480
1050.142, 168.6138
1051.248, 269.9658
1052.353, 147.6143
1053.459, 233.9214
1054.564, 222.2095
1055.670, 218.4600
1056.775, 185.6416
1057.880, 193.8862
1058.985, 101.1094
1060.089, 159.8750
1061.194, 148.0479
1062.298, 47.55322
1063.402, 199.8745
1064.506, 170.1772
1065.610, 195.4761
1066.713, 146.8105
1067.817, 179.1802
1068.920, 152.3457
1070.023, 157.9263
1071.126, 122.3174
1072.229, 108.7451
1073.332, 110.1948
1074.435, 67.95605
1075.537, 152.4707
1076.639, 50.32568
1077.741, 142.9053
1078.843, 128.5137
1079.945, 137.1509
1081.046, 129.8140
1082.148, 140.5054
1083.249, 80.25244
1084.350, 10.97656
1085.451, 74.80322
1086.551, 93.60205
1087.652, 101.3159
1088.752, 7.165039
1089.853, 172.0293
1090.953, 32.10889
1092.053, 69.74805
1093.152, 3.356934
1094.252, 42.54297
1095.351, 156.4614
1096.451, 93.40771
1097.550, 67.97217
1098.649, 8.074707
1099.748, 101.7920
1100.846, 83.51318
1101.945, 20.46484
1103.043, 143.4307
1104.141, 86.41699
1105.239, 35.40576
1106.337, 50.40576
1107.434, 8.408691
1108.532, 11.41211
1109.629, 12.43262
1110.726, 8.900879
1111.823, 41.51318
1112.920, 1.572754
1114.017, 20.35889
1115.113, 49.70068
1116.210, 40.77490
1117.306, 116.8491
1118.402, 253.9312
1119.498, 171.0220
1120.593, 185.1172
1121.689, 269.2148
1122.784, 200.3154
1123.879, 199.4146
1124.974, 141.5200
1126.069, 161.6270
1127.164, 100.7393
1128.259, 9.146973
1129.353, 16.95996
1130.447, 99.06689
1131.541, 19.17578
1132.635, 29.28369
1133.729, 39.39307
1134.822, 46.50293
1135.916, 187.6143
1137.009, 37.72656
1138.102, 142.8398
1139.195, 106.9521
1140.288, 57.06543
1141.380, 110.1782
1142.473, 65.29053
1143.565, 14.40430
1144.657, 121.5190
1145.749, 162.6392
1146.841, 28.76465
1147.932, 114.8955
1149.024, 38.03271
1150.115, 4.173828
1151.206, 69.31787
1152.297, 46.53467
1153.388, 110.5952
1154.479, 54.72998
1155.569, 23.86621
1156.659, 17.00391
1157.750, 101.1431
1158.839, 117.2837
1159.929, 68.42676
1161.019, 41.57227
1162.108, 5.719727
1163.198, 95.86963
1164.287, 61.02246
1165.376, 63.17871
1166.465, 95.33740
1167.553, 70.49951
1168.642, 87.66406
1169.730, 101.8325
1170.818, 107.0039
1171.906, 105.1787
1172.994, 112.3579
1174.082, 63.45947
1175.170, 145.7007
1176.257, 101.8652
1177.344, 172.0332
1178.431, 8.793945
1179.518, 102.6216
1180.605, 35.50732
1181.691, 24.64062
1182.778, 99.22217
1183.864, 29.87451
1184.950, 155.9756
1186.036, 113.0815
1187.122, 145.1924
1188.207, 60.30859
1189.292, 101.4302
1190.378, 11.54004
1191.463, 104.5864
1192.548, 12.28271
1193.632, 6.410645
1194.717, 19.54736
1195.801, 47.68896
1196.886, 53.10693
1197.970, 39.98682
1199.054, 51.14648
1200.137, 66.31152
1201.221, 27.47998
1202.305, 121.6533
1203.388, 52.83105
1204.471, 4.987305
1205.554, 62.05664
1206.637, 83.75635
1207.719, 62.12842
1208.802, 149.2871
1209.884, 54.45215
1210.966, 99.62012
1212.048, 141.7954
1213.130, 222.1470
1214.212, 143.2700
1215.293, 232.5034
1216.374, 200.6191
1217.456, 269.8076
1218.536, 230.0000
1219.617, 269.6831
1220.698, 241.8804
1221.778, 309.3950
1222.859, 276.1094
1223.939, 245.1064
1225.019, 219.1431
1226.099, 222.3525
1227.178, 164.5630
1228.258, 168.9453
1229.337, 16.20996
1230.417, 139.4297
1231.496, 126.6577
1232.574, 85.59229
1233.653, 188.8315
1234.732, 157.0737
1235.810, 24.16113
1236.888, 155.3174
1237.966, 80.20850
1239.044, 180.1348
1240.122, 185.0791
1241.199, 110.6489
