##NAMES=Baddeleyite
##RRUFFID=R060078
##IDEAL CHEMISTRY=Zr^4+^O_2_
##LOCALITY=Wetloo mine, Mogok, Burma
##OWNER=RRUFF
##SOURCE=Marcus Origlieri
##DESCRIPTION=Dark brown fragment
##STATUS=The identification of this mineral has been confirmed by X-ray diffraction and chemical analysis
##URL=rruff.info/R060078
##MEASURED CHEMISTRY=(Zr_0.99_Hf_0.01_)_Î£=1_O_2_
##PIN_ID=L01430
##ORIENTATION=Laser parallel to c* (0 0 1). Fiducial mark perpendicular to laser is parallel to a [1 0 0]
51.43100, 0.0000000E+00
52.67100, 104.0720
53.91000, 187.8019
55.14900, 294.6726
56.38700, 351.0457
57.62600, 691.4184
58.86400, 723.1951
60.10300, 550.4153
61.34100, 177.7797
62.57900, 0.6450200
63.81700, 159.7941
65.05400, 169.3722
66.29200, 124.8726
67.52900, 66.01562
68.76700, 944.6951
70.00400, 2231.639
71.24100, 2975.358
72.47700, 1992.362
73.71400, 1636.180
74.95100, 2271.382
76.18700, 2820.586
77.42300, 1953.458
78.65900, 1703.699
79.89500, 2542.069
81.13100, 3836.377
82.36700, 5682.467
83.60200, 7150.188
84.83700, 6795.399
86.07200, 5656.958
87.30800, 5964.734
88.54200, 6557.588
89.77700, 8017.319
91.01200, 10269.69
92.24600, 11371.49
93.48000, 11086.52
94.71400, 11143.67
95.94800, 10896.82
97.18200, 10810.88
98.41600, 11774.77
99.64900, 13216.42
100.8830, 14701.78
102.1160, 18875.79
103.3490, 26918.39
104.5820, 38461.56
105.8150, 47849.31
107.0470, 44880.67
108.2800, 37668.70
109.5120, 32386.43
110.7440, 22101.90
111.9760, 14347.06
113.2080, 12217.88
114.4400, 12431.28
115.6710, 13488.22
116.9030, 12210.63
118.1340, 11370.48
119.3650, 10328.70
120.5960, 9951.269
121.8270, 10211.12
123.0580, 9391.525
124.2880, 10261.56
125.5190, 8674.853
126.7490, 8096.390
127.9790, 7980.141
129.2090, 8362.066
130.4390, 8155.170
131.6680, 7831.320
132.8980, 7005.553
134.1270, 6678.161
135.3560, 6685.209
136.5850, 6807.730
137.8140, 7558.754
139.0430, 8081.307
140.2710, 7600.410
141.5000, 6738.074
142.7280, 6153.316
143.9560, 5845.148
145.1840, 5711.578
146.4120, 5862.611
147.6390, 5840.256
148.8670, 5565.513
150.0940, 5731.387
151.3210, 5786.329
152.5490, 6768.990
153.7750, 6290.723
155.0020, 6179.070
156.2290, 6735.109
157.4550, 5140.177
158.6810, 5148.531
159.9080, 5288.256
161.1340, 5770.507
162.3590, 6480.434
163.5850, 7648.100
164.8110, 7934.002
166.0360, 8549.745
167.2610, 9025.810
168.4860, 9387.397
169.7110, 10215.85
170.9360, 10873.02
172.1610, 11629.78
173.3850, 12082.99
174.6100, 13844.61
175.8340, 17195.60
177.0580, 22977.97
178.2820, 32679.69
179.5050, 44379.78
180.7290, 45489.23
181.9520, 35942.05
183.1760, 25013.21
184.3990, 18993.74
185.6220, 16626.61
186.8450, 16794.84
188.0670, 19038.41
189.2900, 24408.31
190.5120, 34369.55
191.7340, 50703.15
192.9560, 55413.05
194.1780, 51330.30
195.4000, 35942.86
196.6220, 24544.75
197.8430, 18793.95
199.0640, 17855.49
200.2860, 15925.63
201.5070, 16613.29
202.7270, 16359.34
203.9480, 13957.21
205.1690, 10519.19
206.3890, 8675.293
207.6090, 7702.604
208.8290, 7194.029
210.0490, 7046.137
211.2690, 7009.924
212.4890, 6748.428
213.7080, 6820.912
214.9280, 6770.395
216.1470, 6189.755
217.3660, 6319.963
218.5850, 6379.986
219.8030, 6722.795
221.0220, 7285.359
222.2400, 11461.66
223.4590, 9399.663
224.6770, 11011.36
225.8950, 7878.721
227.1120, 6969.729
228.3300, 6198.368
229.5480, 5686.618
230.7650, 5414.646
231.9820, 5086.979
233.1990, 5373.877
234.4160, 5064.414
235.6330, 5222.487
236.8490, 5740.082
238.0660, 4470.182
239.2820, 3917.783
240.4980, 3936.873
241.7140, 3896.442
242.9300, 3756.480
244.1460, 3897.980
245.3610, 4181.933
246.5770, 4287.331
247.7920, 4499.167
249.0070, 4217.434
250.2220, 4303.123
251.4370, 4228.229
252.6510, 4217.744
253.8660, 4177.661
255.0800, 4287.972
256.2940, 4455.674
257.5080, 4966.752
258.7220, 6692.205
259.9360, 6190.368
261.1490, 7170.736
262.3630, 5797.564
263.5760, 5006.301
264.7890, 4167.895
266.0020, 4210.237
267.2150, 4061.695
268.4270, 3942.817
269.6400, 4141.371
270.8520, 4119.289
272.0640, 4041.000
273.2760, 4185.455
274.4880, 4411.797
275.7000, 4565.331
276.9120, 4598.443
278.1230, 4699.128
279.3340, 4799.078
280.5450, 5018.865
281.7560, 5290.062
282.9670, 5601.402
284.1780, 5848.532
285.3880, 6331.768
286.5980, 6532.240
287.8090, 6907.465
289.0190, 7078.691
290.2290, 7649.504
291.4380, 7969.704
292.6480, 8485.796
293.8570, 8936.429
295.0670, 11614.38
296.2760, 12720.18
297.4850, 15881.75
298.6930, 11112.54
299.9020, 10636.57
301.1110, 11206.82
302.3190, 12172.29
303.5270, 12990.98
304.7350, 14837.89
305.9430, 16738.00
307.1510, 18652.31
308.3580, 19537.81
309.5660, 19829.50
310.7730, 18914.38
311.9800, 16208.41
313.1870, 14287.61
314.3940, 12528.98
315.6010, 11434.50
316.8070, 10284.17
318.0130, 9966.991
319.2200, 9381.962
320.4260, 9414.078
321.6310, 9390.341
322.8370, 9386.749
324.0430, 9744.295
325.2480, 10195.99
326.4540, 10717.82
327.6590, 11132.78
328.8640, 12055.88
330.0680, 13195.13
331.2730, 14941.50
332.4780, 17647.01
333.6820, 19353.64
334.8860, 19411.41
336.0900, 17477.31
337.2940, 14588.33
338.4980, 12344.49
339.7010, 10877.76
340.9050, 10290.17
342.1080, 10603.69
343.3110, 11645.33
344.5140, 13658.21
345.7170, 17074.33
346.9200, 21169.68
348.1220, 25353.27
349.3240, 27076.11
350.5270, 25016.19
351.7290, 20847.52
352.9310, 16062.08
354.1320, 12220.89
355.3340, 9165.964
356.5350, 7118.312
357.7370, 5732.919
358.9380, 4679.760
360.1390, 3926.811
361.3400, 3313.069
362.5400, 3026.533
363.7410, 2860.195
364.9410, 2963.056
366.1410, 2767.111
367.3410, 3087.355
368.5410, 2953.787
369.7410, 3229.403
370.9400, 3587.201
372.1400, 4679.178
373.3390, 5361.329
374.5380, 6230.657
375.7370, 8082.153
376.9360, 10807.82
378.1350, 14385.65
379.3330, 17332.65
380.5310, 18736.80
381.7300, 17503.12
382.9280, 15705.59
384.1260, 13989.22
385.3230, 12545.00
386.5210, 10868.93
387.7180, 8885.018
388.9160, 6978.252
390.1130, 5480.630
391.3100, 4172.282
392.5060, 3045.815
393.7030, 2309.622
394.9000, 1582.568
396.0960, 1210.650
397.2920, 923.8691
398.4880, 728.2236
399.6840, 458.8711
400.8800, 244.3301
402.0750, 92.08105
403.2710, 164.0410
404.4660, 259.1357
405.6610, 412.2471
406.8560, 508.4443
408.0510, 548.7773
409.2450, 532.2656
410.4400, 669.9072
411.6340, 670.7676
412.8280, 814.8496
414.0220, 866.0449
415.2160, 888.7061
416.4100, 965.9414
417.6030, 917.3350
418.7970, 893.0781
419.9900, 876.1650
421.1830, 914.5859
422.3760, 818.9053
423.5690, 872.4590
424.7610, 631.8945
425.9540, 544.5645
427.1460, 404.4316
428.3380, 307.0830
429.5300, 133.5264
430.7220, 204.6338
431.9140, 66.79004
433.1050, 77.93652
434.2970, 19.08008
435.4880, 142.8047
436.6790, 131.7783
437.8700, 130.8379
439.0610, 150.9805
440.2510, 376.2100
441.4420, 354.5420
442.6320, 495.9766
443.8220, 561.5098
445.0120, 584.1445
446.2020, 759.8789
447.3910, 794.7109
448.5810, 999.6426
449.7700, 957.6719
450.9600, 1180.798
452.1490, 1294.021
453.3370, 1417.340
454.5260, 1835.755
455.7150, 1971.267
456.9030, 2341.871
458.0910, 2726.572
459.2800, 3031.367
460.4670, 4456.256
461.6550, 7407.238
462.8430, 6771.314
464.0300, 10955.48
465.2180, 7511.747
466.4050, 8989.100
467.5920, 11509.55
468.7790, 13737.09
469.9650, 17230.72
471.1520, 21520.45
472.3380, 27377.26
473.5250, 33860.16
474.7110, 40521.16
475.8970, 43746.25
477.0820, 43281.41
478.2680, 37968.69
479.4540, 30442.04
480.6390, 24035.49
481.8240, 18348.02
483.0090, 13955.79
484.1940, 10101.36
485.3780, 7878.158
486.5630, 6289.047
487.7470, 5377.024
488.9320, 4549.088
490.1160, 3903.237
491.3000, 3538.471
492.4830, 3368.790
493.6670, 3278.192
494.8500, 3111.676
496.0340, 3174.243
497.2170, 3232.892
498.4000, 3408.619
499.5820, 3940.424
500.7650, 4481.309
501.9480, 4583.271
503.1300, 5154.311
504.3120, 4384.424
505.4940, 3434.614
506.6760, 2768.879
507.8580, 2274.219
509.0390, 1718.631
510.2210, 1410.116
511.4020, 1252.675
512.5830, 957.7256
513.7640, 967.0508
514.9450, 664.8672
516.1250, 804.7598
517.3060, 719.7441
518.4860, 566.8125
519.6660, 676.9639
520.8460, 702.2021
522.0260, 650.5166
523.2060, 667.9219
524.3850, 758.4150
525.5650, 969.0225
526.7440, 1020.219
527.9230, 1229.355
529.1020, 1291.403
530.2810, 1601.411
531.4590, 1841.508
532.6380, 2014.693
533.8160, 2544.989
534.9940, 2895.354
536.1720, 3555.819
537.3500, 4535.371
538.5270, 5105.025
539.7050, 5013.660
540.8820, 4988.420
542.0590, 4883.854
543.2360, 4704.202
544.4130, 4224.293
545.5900, 4123.096
546.7660, 3861.700
547.9430, 3585.844
549.1190, 4267.197
550.2950, 4524.564
551.4710, 5152.618
552.6470, 6128.004
553.8220, 7361.174
554.9980, 8656.346
556.1730, 10414.58
557.3480, 11339.43
558.5230, 12455.96
559.6980, 12145.00
560.8730, 11287.26
562.0470, 9854.336
563.2220, 8704.245
564.3960, 6842.295
565.5700, 5511.373
566.7440, 4626.519
567.9170, 3862.393
569.0910, 3156.417
570.2640, 2605.512
571.4380, 2258.640
572.6110, 1778.984
573.7840, 1505.268
574.9570, 1316.015
576.1290, 963.7461
577.3020, 992.9600
578.4740, 730.9912
579.6460, 548.0488
580.8180, 469.6035
581.9900, 443.7354
583.1620, 141.9785
584.3330, 256.3281
585.5040, 507.7852
586.6760, 232.3467
587.8470, 134.0176
589.0180, 302.7949
590.1880, 319.6797
591.3590, 161.6680
592.5290, 543.7598
593.7000, 594.9551
594.8700, 788.2568
596.0400, 1096.660
597.2090, 1257.164
598.3790, 1716.770
599.5490, 1833.475
600.7180, 2266.275
601.8870, 2955.177
603.0560, 3356.173
604.2250, 4370.264
605.3940, 5061.452
606.5620, 6143.744
607.7300, 7319.130
608.8990, 8482.607
610.0670, 9204.175
611.2350, 10559.84
612.4020, 11659.60
613.5700, 12510.45
614.7370, 13941.39
615.9050, 13899.43
617.0720, 13731.55
618.2390, 13108.76
619.4060, 12147.07
620.5720, 10956.46
621.7390, 10110.94
622.9050, 9368.501
624.0710, 8859.151
625.2370, 8817.884
626.4030, 9040.705
627.5690, 9898.607
628.7340, 10791.60
629.9000, 12208.67
631.0650, 14003.82
632.2300, 16362.06
633.3950, 19128.38
634.5600, 22541.78
635.7240, 25524.25
636.8890, 27719.81
638.0530, 28175.84
639.2170, 28290.17
640.3810, 26549.97
641.5450, 23309.85
642.7080, 20045.80
643.8720, 16551.84
645.0350, 13842.94
646.1980, 11292.13
647.3610, 9297.394
648.5240, 7980.730
649.6870, 6397.144
650.8490, 5663.940
652.0120, 4764.377
653.1740, 4064.596
654.3360, 3446.314
655.4980, 2933.901
656.6600, 2758.558
657.8210, 2291.254
658.9830, 2128.930
660.1440, 1995.405
661.3050, 1789.241
662.4660, 1472.085
663.6270, 1401.861
664.7870, 1195.369
665.9480, 1024.836
667.1080, 959.1729
668.2680, 855.9912
669.4280, 902.1240
670.5880, 895.0195
671.7480, 932.8633
672.9070, 1055.300
674.0670, 944.2490
675.2260, 822.7129
676.3850, 965.7939
677.5440, 871.0225
678.7030, 831.4160
679.8610, 828.5801
681.0200, 962.2617
682.1780, 984.7676
683.3360, 967.4980
684.4940, 1208.162
685.6520, 1298.545
686.8090, 1295.730
687.9670, 1454.354
689.1240, 1552.907
690.2810, 1519.976
691.4380, 1743.089
692.5950, 2048.637
693.7520, 1931.912
694.9080, 2278.437
696.0650, 2544.039
697.2210, 2555.838
698.3770, 2771.674
699.5330, 3048.312
700.6880, 3226.311
701.8440, 3430.955
702.9990, 3869.085
704.1550, 3939.754
705.3100, 4052.876
706.4650, 4241.306
707.6190, 4251.146
708.7740, 4402.803
709.9290, 4330.896
711.0830, 4304.547
712.2370, 3926.623
713.3910, 3841.748
714.5450, 3592.292
715.6980, 3448.590
716.8520, 2953.354
718.0050, 2798.554
719.1580, 2609.743
720.3110, 2252.005
721.4640, 2065.319
722.6170, 1761.252
723.7700, 1504.209
724.9220, 1414.258
726.0740, 1064.541
727.2260, 1281.502
728.3780, 1030.519
729.5300, 1064.077
730.6810, 816.3262
731.8330, 741.0430
732.9840, 846.3037
734.1350, 654.7246
735.2860, 782.9395
736.4370, 825.5664
737.5880, 760.4365
738.7380, 572.1953
739.8880, 739.3047
741.0390, 818.1016
742.1890, 725.6084
743.3380, 821.6582
744.4880, 738.2568
745.6380, 886.8887
746.7870, 830.2207
747.9360, 833.5439
749.0850, 843.1494
750.2340, 865.6904
751.3830, 846.4893
752.5310, 985.5977
753.6800, 1012.865
754.8280, 968.3066
755.9760, 1095.545
757.1240, 1088.769
758.2720, 1108.978
759.4190, 924.1680
760.5670, 975.3408
761.7140, 942.4971
762.8610, 868.8047
764.0080, 851.7510
765.1550, 747.8477
766.3020, 752.9229
767.4480, 616.9756
768.5950, 535.0068
769.7410, 575.0146
770.8870, 490.9980
772.0330, 459.9570
773.1780, 494.8896
774.3240, 343.7959
775.4690, 440.6758
776.6140, 350.3184
777.7590, 304.5723
778.9040, 251.1465
780.0490, 222.9111
781.1940, 189.6445
782.3380, 191.3477
783.4820, 261.0195
784.6260, 246.6582
785.7700, 171.0039
786.9140, 120.8340
788.0580, 34.37109
789.2010, 63.13086
790.3450, 15.29004
791.4880, 60.33203
792.6310, 9.968750
793.7730, 68.77832
794.9160, 31.61328
796.0590, 27.51562
797.2010, 37.48730
798.3430, 5.534180
799.4850, 53.56348
800.6270, 48.83105
801.7690, 143.1250
802.9100, 53.54395
804.0520, 99.05664
805.1930, 52.68555
806.3340, 169.4092
807.4750, 47.29199
808.6160, 43.11035
809.7560, 130.7871
810.8970, 72.43457
812.0370, 91.84180
813.1770, 34.24707
814.3170, 80.75000
815.4570, 175.3789
816.5960, 168.1836
817.7360, 141.1650
818.8750, 55.30664
820.0140, 55.56836
821.1530, 114.9502
822.2920, 106.4873
823.4310, 67.17578
824.5690, 164.9961
825.7070, 111.0029
826.8460, 82.16895
827.9840, 157.4834
829.1220, 142.9873
830.2590, 133.1934
831.3970, 115.3311
832.5340, 94.58301
833.6710, 59.79004
834.8080, 38.14551
835.9450, 92.64160
837.0820, 42.69141
838.2190, 49.08105
839.3550, 19.00488
840.4910, 9.931641
841.6270, 87.25879
842.7630, 23.62793
843.8990, 169.1445
845.0350, 50.88672
846.1700, 51.20508
847.3060, 41.17969
848.4410, 101.0322
849.5760, 64.77930
850.7100, 56.41113
851.8450, 19.92188
852.9800, 141.2969
854.1140, 179.5684
855.2480, 264.7422
856.3820, 271.6162
857.5160, 186.8203
858.6500, 291.7139
859.7830, 222.5195
860.9170, 302.2266
862.0500, 204.8477
863.1830, 234.3682
864.3160, 233.7920
865.4480, 274.1172
866.5810, 303.3496
867.7130, 268.4902
868.8460, 228.5361
869.9780, 298.4814
871.1100, 324.3350
872.2410, 288.0967
873.3730, 372.7637
874.5050, 389.3418
875.6360, 350.8340
876.7670, 391.2344
877.8980, 441.5469
879.0290, 366.7734
880.1590, 227.8213
881.2900, 421.7734
882.4200, 536.1895
883.5500, 575.3408
884.6800, 314.0586
885.8100, 440.5186
886.9400, 411.4746
888.0690, 375.9492
889.1990, 556.7227
890.3280, 338.6807
891.4570, 515.8350
892.5860, 535.1152
893.7140, 626.5303
894.8430, 561.4717
895.9710, 544.6279
897.1000, 684.1494
898.2280, 736.9482
899.3560, 653.5518
900.4830, 749.0410
901.6110, 524.6680
902.7380, 580.8184
903.8660, 757.9658
904.9930, 681.9980
906.1200, 779.9258
907.2460, 811.5039
908.3730, 541.8857
909.5000, 795.8643
910.6260, 823.2686
911.7520, 618.0605
912.8780, 853.8379
914.0040, 680.5146
915.1290, 653.1006
916.2550, 735.4883
917.3800, 703.2520
918.5050, 851.5049
919.6300, 825.7119
920.7550, 784.3135
921.8800, 810.6602
923.0040, 644.7188
924.1290, 834.9834
925.2530, 778.0127
926.3770, 845.3301
927.5010, 936.5771
928.6250, 820.8096
929.7480, 923.4326
930.8720, 683.0137
931.9950, 731.2793
933.1180, 747.6543
934.2410, 950.1670
935.3640, 709.2402
936.4860, 747.3398
937.6090, 898.4746
938.7310, 888.4404
939.8530, 945.0049
940.9750, 798.3613
942.0970, 837.6426
943.2180, 830.8779
944.3400, 1008.235
945.4610, 1034.658
946.5820, 895.3525
947.7030, 749.2666
948.8240, 939.6201
949.9450, 811.1221
951.0650, 846.7656
952.1860, 706.7607
953.3060, 720.0928
954.4260, 736.1855
955.5460, 829.8779
956.6650, 976.0693
957.7850, 760.8066
958.9040, 764.7959
960.0230, 790.4355
961.1420, 736.2578
962.2610, 749.6855
963.3800, 799.5400
964.4990, 753.3809
965.6170, 891.0586
966.7350, 710.6426
967.8530, 672.3477
968.9710, 625.0625
970.0890, 709.9639
971.2070, 724.2754
972.3240, 717.5371
973.4410, 793.1553
974.5580, 741.6016
975.6750, 827.7031
976.7920, 914.5547
977.9090, 775.2510
979.0250, 762.6689
980.1410, 693.3682
981.2580, 773.7080
982.3740, 763.5400
983.4890, 793.0000
984.6050, 845.4346
985.7200, 800.4785
986.8360, 857.7803
987.9510, 867.6074
989.0660, 862.9873
990.1810, 846.3652
991.2950, 854.5078
992.4100, 851.7910
993.5240, 864.4355
994.6390, 867.3613
995.7530, 897.5449
996.8660, 919.4756
997.9800, 936.8984
999.0940, 914.2373
1000.207, 918.0049
1001.320, 921.1924
1002.433, 915.2217
1003.546, 918.5879
1004.659, 876.3799
1005.772, 858.3496
1006.884, 841.2832
1007.996, 862.1211
1009.108, 830.4473
1010.220, 830.3906
1011.332, 832.9521
1012.444, 790.0898
1013.555, 841.9912
1014.666, 846.3096
1015.777, 865.5605
1016.888, 841.0752
1017.999, 928.5635
1019.110, 770.7324
1020.220, 677.9297
1021.331, 805.8340
1022.441, 751.3916
1023.551, 762.2617
1024.661, 756.9023
1025.770, 756.2168
1026.880, 734.5068
1027.989, 709.7754
1029.098, 667.0215
1030.207, 726.2783
1031.316, 710.5195
1032.425, 780.7441
1033.533, 797.9492
1034.642, 777.4443
1035.750, 738.3008
1036.858, 737.4473
1037.966, 744.5752
1039.073, 739.6855
1040.181, 785.0322
1041.288, 665.1064
1042.396, 753.1650
1043.503, 689.2070
1044.610, 718.8125
1045.716, 696.2422
1046.823, 681.9834
1047.929, 710.8848
1049.036, 652.3496
1050.142, 741.3311
1051.248, 768.3008
1052.353, 757.2549
1053.459, 790.6045
1054.564, 776.5547
1055.670, 790.9600
1056.775, 738.8662
1057.880, 746.8867
1058.985, 692.7939
1060.089, 683.7549
1061.194, 796.6641
1062.298, 743.5693
1063.402, 907.4883
1064.506, 733.9600
1065.610, 790.8916
1066.713, 768.8330
1067.817, 804.7764
1068.920, 741.7363
1070.023, 778.9521
1071.126, 827.2666
1072.229, 788.2793
1073.332, 732.8252
1074.435, 664.9102
1075.537, 614.0459
1076.639, 682.3584
1077.741, 682.5361
1078.843, 677.9180
1079.945, 643.1455
1081.046, 682.4102
1082.148, 750.4287
1083.249, 647.7490
1084.350, 695.1475
1085.451, 649.5889
1086.551, 615.0840
1087.652, 566.6113
1088.752, 696.1719
1089.853, 637.7803
1090.953, 769.4385
1092.053, 528.1465
1093.152, 642.9238
1094.252, 429.7520
1095.351, 566.6260
1096.451, 536.5654
1097.550, 554.5684
1098.649, 429.6318
1099.748, 749.7539
1100.846, 620.7188
1101.945, 454.1465
1103.043, 592.4043
1104.141, 443.7178
1105.239, 411.0508
1106.337, 470.4297
1107.434, 425.8438
1108.532, 372.2900
1109.629, 553.7910
1110.726, 353.3340
1111.823, 358.9561
1112.920, 489.6270
1114.017, 486.5908
1115.113, 558.3105
1116.210, 569.0508
1117.306, 526.8408
1118.402, 418.6299
1119.498, 488.0195
1120.593, 527.9639
1121.689, 588.3271
1122.784, 594.5684
1123.879, 592.5381
1124.974, 586.2695
1126.069, 545.3027
1127.164, 495.2402
1128.259, 465.1875
1129.353, 346.2090
1130.447, 329.1270
1131.541, 276.6191
1132.635, 246.1240
1133.729, 214.3320
1134.822, 235.6494
1135.916, 229.5752
1137.009, 244.7539
1138.102, 165.8252
1139.195, 223.9102
1140.288, 143.0059
1141.380, 127.1123
1142.473, 90.23047
1143.565, 163.3594
1144.657, 275.4980
1145.749, 258.6494
1146.841, 164.8203
1147.932, 285.0020
1149.024, 285.1924
1150.115, 182.3926
1151.206, 235.6094
1152.297, 189.8369
1153.388, 224.0771
1154.479, 180.3311
1155.569, 165.5947
1156.659, 167.4238
1157.750, 181.1641
1158.839, 158.4648
1159.929, 164.7764
1161.019, 182.7070
1162.108, 216.3193
1163.198, 197.4404
1164.287, 21.88086
1165.376, 123.2432
1166.465, 168.6191
1167.553, 18.00391
1168.642, 143.3994
1169.730, 60.80664
1170.818, 16.77539
1171.906, 125.6494
1172.994, 107.0850
1174.082, 108.5332
1175.170, 108.0059
1176.257, 87.47949
1177.344, 33.74023
1178.431, 6.783203
1179.518, 44.28809
1180.605, 72.20410
1181.691, 25.70898
1182.778, 49.22461
1183.864, 82.24805
1184.950, 37.26074
1186.036, 71.21875
1187.122, 65.29004
1188.207, 7.191406
1189.292, 31.33789
1190.378, 3.122070
1191.463, 48.42773
1192.548, 347.9912
1193.632, 755.5645
1194.717, 65.85059
1195.801, 36.72168
1196.886, 960.3066
1197.970, 85.90234
1199.054, 80.50879
1200.137, 73.12598
1201.221, 59.75488
1202.305, 66.42480
1203.388, 69.04492
1204.471, 50.70703
1205.554, 33.37793
1206.637, 33.94043
1207.719, 108.7393
1208.802, 199.6963
1209.884, 122.9072
1210.966, 28.52246
1212.048, 62.85352
1213.130, 45.75488
1214.212, 163.6289
1215.293, 27.91992
1216.374, 173.4785
1217.456, 135.0439
1218.536, 35.61914
1219.617, 68.20215
1220.698, 179.7910
1221.778, 132.1436
1222.859, 208.1631
1223.939, 211.7793
1225.019, 214.4023
1226.099, 218.3916
1227.178, 214.6670
1228.258, 169.3096
1229.337, 127.9570
1230.417, 83.61133
1231.496, 84.84082
1232.574, 77.93457
1233.653, 101.6045
1234.732, 93.27734
1235.810, 106.9561
1236.888, 103.6396
1237.966, 124.8359
1239.044, 63.01660
1240.122, 156.7500
1241.199, 95.44727
