##NAMES=Baddeleyite
##RRUFFID=R060078
##IDEAL CHEMISTRY=Zr^4+^O_2_
##LOCALITY=Wetloo mine, Mogok, Burma
##OWNER=RRUFF
##SOURCE=Marcus Origlieri
##DESCRIPTION=Dark brown fragment
##STATUS=The identification of this mineral has been confirmed by X-ray diffraction and chemical analysis
##URL=rruff.info/R060078
##MEASURED CHEMISTRY=(Zr_0.99_Hf_0.01_)_Î£=1_O_2_
##PIN_ID=L01986
##ORIENTATION=Laser parallel to a* (1 0 0). Fiducial mark perpendicular to laser is parallel to -b [0 -1 0]
72.47700, 0.0000000E+00
73.71400, 61.50146
74.95100, 291.6255
76.18700, 519.6851
77.42300, 309.7856
78.65900, 327.4531
79.89500, 279.2100
81.13100, 247.5723
82.36700, 321.1211
83.60200, 429.0996
84.83700, 271.2715
86.07200, 51.74414
87.30800, 318.7754
88.54200, 317.7275
89.77700, 495.0615
91.01200, 874.3301
92.24600, 925.1514
93.48000, 1174.206
94.71400, 1400.345
95.94800, 1832.565
97.18200, 2056.715
98.41600, 2260.680
99.64900, 2209.229
100.8830, 2448.149
102.1160, 2924.267
103.3490, 3653.439
104.5820, 4801.546
105.8150, 6141.485
107.0470, 6871.168
108.2800, 7065.520
109.5120, 5972.475
110.7440, 3921.961
111.9760, 2426.919
113.2080, 1745.301
114.4400, 1607.145
115.6710, 1817.224
116.9030, 1559.826
118.1340, 1534.054
119.3650, 1357.021
120.5960, 872.1338
121.8270, 577.6289
123.0580, 561.7266
124.2880, 496.8486
125.5190, 246.8555
126.7490, 205.7900
127.9790, 195.6777
129.2090, 256.5361
130.4390, 257.3701
131.6680, 257.1875
132.8980, 187.9902
134.1270, 143.7822
135.3560, 146.5674
136.5850, 202.3457
137.8140, 329.1182
139.0430, 345.8887
140.2710, 432.6572
141.5000, 302.4268
142.7280, 101.1973
143.9560, 263.9707
145.1840, 143.7490
146.4120, 214.4727
147.6390, 305.0195
148.8670, 285.4629
150.0940, 363.8447
151.3210, 467.1914
152.5490, 586.5283
153.7750, 542.8701
155.0020, 524.2285
156.2290, 513.8486
157.4550, 632.3994
158.6810, 620.8662
159.9080, 763.5254
161.1340, 946.1689
162.3590, 1314.608
163.5850, 1763.325
164.8110, 2335.563
166.0360, 3145.008
167.2610, 3895.910
168.4860, 5392.871
169.7110, 7528.994
170.9360, 9877.647
172.1610, 10981.47
173.3850, 11009.81
174.6100, 12070.58
175.8340, 13995.22
177.0580, 17308.20
178.2820, 22164.59
179.5050, 29063.23
180.7290, 35412.19
181.9520, 37472.38
183.1760, 34647.70
184.3990, 27353.11
185.6220, 19372.59
186.8450, 15381.11
188.0670, 14627.68
189.2900, 16062.29
190.5120, 19488.94
191.7340, 25280.62
192.9560, 31734.33
194.1780, 34118.06
195.4000, 30384.81
196.6220, 21968.59
197.8430, 13123.38
199.0640, 7769.188
200.2860, 5219.016
201.5070, 4171.865
202.7270, 3186.731
203.9480, 2535.616
205.1690, 1714.522
206.3890, 1319.446
207.6090, 1085.390
208.8290, 903.3535
210.0490, 928.3359
211.2690, 1065.338
212.4890, 1341.359
213.7080, 1620.401
214.9280, 1837.463
216.1470, 1764.545
217.3660, 1791.647
218.5850, 1871.769
219.8030, 1987.586
221.0220, 2288.817
222.2400, 2849.996
223.4590, 3542.893
224.6770, 3857.361
225.8950, 3682.309
227.1120, 3003.493
228.3300, 1944.370
229.5480, 1078.388
230.7650, 716.6797
231.9820, 457.2168
233.1990, 294.9756
234.4160, 198.9336
235.6330, 41.07227
236.8490, 160.3779
238.0660, 89.83496
239.2820, 36.56738
240.4980, 28.85254
241.7140, 131.0283
242.9300, 0.1279300
244.1460, 197.1309
245.3610, 198.0898
246.5770, 33.99023
247.7920, 190.8535
249.0070, 106.6719
250.2220, 128.4502
251.4370, 146.1992
252.6510, 84.92676
253.8660, 122.6221
255.0800, 8.297852
256.2940, 93.93262
257.5080, 16.45215
258.7220, 218.8799
259.9360, 640.3525
261.1490, 310.8672
262.3630, 375.4209
263.5760, 86.99512
264.7890, 202.4170
266.0020, 143.8760
267.2150, 131.3574
268.4270, 162.8662
269.6400, 19.58594
270.8520, 19.95898
272.0640, 14.08789
273.2760, 29.86133
274.4880, 46.56055
275.7000, 134.5127
276.9120, 132.1221
278.1230, 192.7275
279.3340, 260.0566
280.5450, 280.6465
281.7560, 361.2930
282.9670, 470.5527
284.1780, 433.2090
285.3880, 483.2900
286.5980, 648.8389
287.8090, 732.6162
289.0190, 851.2930
290.2290, 948.1631
291.4380, 1131.630
292.6480, 1197.246
293.8570, 1433.601
295.0670, 1781.663
296.2760, 1964.299
297.4850, 2425.271
298.6930, 2827.930
299.9020, 3221.600
301.1110, 3565.282
302.3190, 4189.956
303.5270, 4627.566
304.7350, 5407.101
305.9430, 6001.565
307.1510, 6914.916
308.3580, 7668.164
309.5660, 8060.332
310.7730, 7643.477
311.9800, 8402.596
313.1870, 6122.753
314.3940, 5051.883
315.6010, 4227.887
316.8070, 3699.778
318.0130, 3093.656
319.2200, 2817.515
320.4260, 2776.389
321.6310, 2674.284
322.8370, 2739.203
324.0430, 2977.140
325.2480, 3297.097
326.4540, 3522.070
327.6590, 3677.062
328.8640, 3755.068
330.0680, 3664.094
331.2730, 4183.133
332.4780, 4291.189
333.6820, 4753.261
334.8860, 5239.348
336.0900, 5821.451
337.2940, 6092.570
338.4980, 6406.705
339.7010, 6830.856
340.9050, 7723.025
342.1080, 8441.208
343.3110, 9240.410
344.5140, 10436.63
345.7170, 12247.86
346.9200, 14353.11
348.1220, 16687.38
349.3240, 18529.67
350.5270, 19069.97
351.7290, 17969.29
352.9310, 15157.63
354.1320, 11614.98
355.3340, 8849.353
356.5350, 6731.747
357.7370, 5238.155
358.9380, 4359.584
360.1390, 3687.029
361.3400, 3264.493
362.5400, 3012.977
363.7410, 2976.477
364.9410, 3036.027
366.1410, 3066.619
367.3410, 3370.250
368.5410, 3824.914
369.7410, 4553.610
370.9400, 5199.337
372.1400, 6235.094
373.3390, 7505.878
374.5380, 9258.687
375.7370, 10853.52
376.9360, 12803.38
378.1350, 14477.00
379.3330, 16240.17
380.5310, 18026.10
381.7300, 19884.04
382.9280, 21719.01
384.1260, 23192.58
385.3230, 24033.45
386.5210, 23687.21
387.7180, 21820.29
388.9160, 18658.35
390.1130, 15329.27
391.3100, 11788.35
392.5060, 9091.510
393.7030, 7342.105
394.9000, 5450.501
396.0960, 4408.855
397.2920, 3533.365
398.4880, 2809.855
399.6840, 2403.104
400.8800, 1961.994
402.0750, 1565.275
403.2710, 1417.611
404.4660, 1263.972
405.6610, 957.3545
406.8560, 840.7617
408.0510, 774.6445
409.2450, 637.1846
410.4400, 309.8486
411.6340, 367.1348
412.8280, 179.2842
414.0220, 300.6533
415.2160, 54.69531
416.4100, 36.62891
417.6030, 9.285156
418.7970, 51.39062
419.9900, 13.99902
421.1830, 103.3916
422.3760, 141.8262
423.5690, 180.3223
424.7610, 255.8926
425.9540, 157.5762
427.1460, 55.32324
428.3380, 119.0879
429.5300, 146.8994
430.7220, 188.7676
431.9140, 132.7129
433.1050, 44.29297
434.2970, 75.67480
435.4880, 60.33398
436.6790, 22.37500
437.8700, 34.56055
439.0610, 106.5020
440.2510, 31.59668
441.4420, 167.0596
442.6320, 533.8770
443.8220, 382.0674
445.0120, 489.3418
446.2020, 538.5518
447.3910, 374.8467
448.5810, 777.1768
449.7700, 878.5430
450.9600, 1011.947
452.1490, 1384.389
453.3370, 1552.868
454.5260, 1694.386
455.7150, 2152.943
456.9030, 2543.540
458.0910, 3071.178
459.2800, 3758.854
460.4670, 4698.574
461.6550, 5693.333
462.8430, 6978.138
464.0300, 8697.978
465.2180, 10748.87
466.4050, 13071.80
467.5920, 15975.28
468.7790, 19612.79
469.9650, 22846.85
471.1520, 27047.94
472.3380, 31480.09
473.5250, 36922.28
474.7110, 42508.51
475.8970, 47008.79
477.0820, 49264.11
478.2680, 47489.47
479.4540, 41652.88
480.6390, 33968.33
481.8240, 26372.83
483.0090, 19831.38
484.1940, 15071.97
485.3780, 11784.60
486.5630, 9139.284
487.7470, 7535.012
488.9320, 6249.785
490.1160, 5547.604
491.3000, 5161.468
492.4830, 4548.380
493.6670, 4382.338
494.8500, 4317.343
496.0340, 4331.393
497.2170, 4292.492
498.4000, 4304.639
499.5820, 4512.831
500.7650, 5056.073
501.9480, 5200.360
503.1300, 5447.695
504.3120, 5127.080
505.4940, 4470.512
506.6760, 3703.994
507.8580, 2921.522
509.0390, 2316.101
510.2210, 1711.731
511.4020, 1271.414
512.5830, 1144.168
513.7640, 871.9697
514.9450, 765.8447
516.1250, 602.7744
517.3060, 411.7520
518.4860, 387.7783
519.6660, 296.8535
520.8460, 306.9795
522.0260, 291.1572
523.2060, 199.3848
524.3850, 217.6611
525.5650, 97.98633
526.7440, 163.7451
527.9230, 194.8369
529.1020, 294.4033
530.2810, 489.0537
531.4590, 599.8281
532.6380, 602.7217
533.8160, 802.6904
534.9940, 794.7646
536.1720, 948.9482
537.3500, 1083.216
538.5270, 1232.594
539.7050, 1351.048
540.8820, 1483.621
542.0590, 1360.256
543.2360, 1474.977
544.4130, 1271.759
545.5900, 1529.601
546.7660, 1745.508
547.9430, 1898.470
549.1190, 2222.494
550.2950, 2497.612
551.4710, 3149.857
552.6470, 3534.205
553.8220, 4079.655
554.9980, 4715.221
556.1730, 5238.864
557.3480, 5851.997
558.5230, 6307.214
559.6980, 6261.133
560.8730, 5846.602
562.0470, 5163.484
563.2220, 4230.621
564.3960, 3357.782
565.5700, 2620.963
566.7440, 1899.146
567.9170, 1485.814
569.0910, 1243.158
570.2640, 827.1514
571.4380, 764.7432
572.6110, 575.1943
573.7840, 372.8164
574.9570, 392.3252
576.1290, 53.30664
577.3020, 361.2119
578.4740, 133.4502
579.6460, 85.07031
580.8180, 112.2100
581.9900, 20.08203
583.1620, 93.33984
584.3330, 45.66016
585.5040, 83.03906
586.6760, 254.4766
587.8470, 159.9707
589.0180, 309.5254
590.1880, 321.1426
591.3590, 295.8184
592.5290, 456.5605
593.7000, 613.3770
594.8700, 806.2520
596.0400, 1082.188
597.2090, 1231.182
598.3790, 1484.231
599.5490, 1832.343
600.7180, 2268.512
601.8870, 2747.735
603.0560, 3415.016
604.2250, 4215.351
605.3940, 4863.748
606.5620, 5957.205
607.7300, 7176.717
608.8990, 8484.285
610.0670, 9474.905
611.2350, 11164.58
612.4020, 12412.32
613.5700, 13914.11
614.7370, 15054.96
615.9050, 16316.86
617.0720, 16832.82
618.2390, 16335.83
619.4060, 15088.91
620.5720, 13438.03
621.7390, 11260.21
622.9050, 9405.440
624.0710, 7698.723
625.2370, 6430.061
626.4030, 5262.451
627.5690, 4358.891
628.7340, 3855.384
629.9000, 3448.928
631.0650, 3153.525
632.2300, 2791.172
633.3950, 2641.869
634.5600, 2535.617
635.7240, 2434.418
636.8890, 2420.268
638.0530, 2282.168
639.2170, 2130.117
640.3810, 2034.117
641.5450, 1581.164
642.7080, 1443.260
643.8720, 1219.406
645.0350, 1033.599
646.1980, 874.3740
647.3610, 738.1904
648.5240, 570.6055
649.6870, 521.9258
650.8490, 439.6777
652.0120, 333.3145
653.1740, 337.8330
654.3360, 202.7520
655.4980, 307.3838
656.6600, 253.0381
657.8210, 153.7363
658.9830, 150.4785
660.1440, 113.6943
661.3050, 184.7188
662.4660, 144.5908
663.6270, 129.5039
664.7870, 244.4600
665.9480, 202.6680
667.1080, 153.4111
668.2680, 202.3965
669.4280, 86.97070
670.5880, 218.0264
671.7480, 148.3047
672.9070, 241.4844
674.0670, 262.5283
675.2260, 214.5303
676.3850, 176.8789
677.5440, 290.4609
678.7030, 160.0625
679.8610, 160.1201
681.0200, 290.6074
682.1780, 248.3711
683.3360, 324.7764
684.4940, 280.3672
685.6520, 359.9023
686.8090, 226.3574
687.9670, 307.7266
689.1240, 314.7100
690.2810, 402.9434
691.4380, 521.6260
692.5950, 494.1777
693.7520, 548.7393
694.9080, 434.9131
696.0650, 574.6045
697.2210, 568.2939
698.3770, 621.3672
699.5330, 671.0928
700.6880, 787.8906
701.8440, 772.6562
702.9990, 670.6611
704.1550, 707.1494
705.3100, 847.3262
706.4650, 808.0439
707.6190, 947.8311
708.7740, 790.1279
709.9290, 1010.738
711.0830, 1052.248
712.2370, 1159.656
713.3910, 1136.116
714.5450, 1116.767
715.6980, 1094.837
716.8520, 946.6191
718.0050, 1025.370
719.1580, 850.2334
720.3110, 962.0762
721.4640, 901.3037
722.6170, 770.6025
723.7700, 745.8936
724.9220, 683.7900
726.0740, 624.7061
727.2260, 734.3984
728.3780, 491.4502
729.5300, 679.4795
730.6810, 782.2100
731.8330, 806.4951
732.9840, 503.2959
734.1350, 618.6943
735.2860, 565.5859
736.4370, 505.5752
737.5880, 529.0068
738.7380, 782.0117
739.8880, 675.0469
741.0390, 548.1436
742.1890, 746.1660
743.3380, 995.5615
744.4880, 745.9082
745.6380, 738.9990
746.7870, 1030.278
747.9360, 974.3203
749.0850, 1127.461
750.2340, 1085.967
751.3830, 1246.018
752.5310, 1143.067
753.6800, 1287.483
754.8280, 1101.160
755.9760, 1563.215
757.1240, 1642.437
758.2720, 1368.489
759.4190, 1103.667
760.5670, 1080.718
761.7140, 956.1553
762.8610, 842.6934
764.0080, 784.7354
765.1550, 689.7764
766.3020, 696.8584
767.4480, 689.4590
768.5950, 532.4883
769.7410, 438.5137
770.8870, 375.9131
772.0330, 305.9287
773.1780, 438.1973
774.3240, 306.2617
775.4690, 436.2578
776.6140, 232.8330
777.7590, 254.9443
778.9040, 178.9180
780.0490, 103.8857
781.1940, 206.8447
782.3380, 106.7939
783.4820, 7.264648
784.6260, 222.6650
785.7700, 41.58594
786.9140, 25.50488
788.0580, 10.61719
789.2010, 95.20215
790.3450, 65.08301
791.4880, 96.11230
792.6310, 20.99414
793.7730, 63.72656
794.9160, 37.43457
796.0590, 74.12988
797.2010, 88.05176
798.3430, 8.518555
799.4850, 109.1289
800.6270, 87.76270
801.7690, 118.3799
802.9100, 9.983398
804.0520, 38.42969
805.1930, 74.88477
806.3340, 98.33984
807.4750, 88.11914
808.6160, 57.64648
809.7560, 86.35840
810.8970, 0.8593750
812.0370, 95.82812
813.1770, 177.8105
814.3170, 53.65820
815.4570, 41.38281
816.5960, 105.5938
817.7360, 104.3652
818.8750, 0.6992190
820.0140, 7.184570
821.1530, 11.95996
822.2920, 25.40430
823.4310, 11.62305
824.5690, 19.63770
825.7070, 11.94531
826.8460, 46.29590
827.9840, 4.108398
829.1220, 0.5605470
830.2590, 37.05176
831.3970, 33.60156
832.5340, 30.45117
833.6710, 60.87598
834.8080, 1.606445
835.9450, 26.38867
837.0820, 5.771484
838.2190, 56.10840
839.3550, 42.19336
840.4910, 32.08496
841.6270, 9.170898
842.7630, 79.30762
843.8990, 20.46582
845.0350, 11.20020
846.1700, 111.8906
847.3060, 37.44629
848.4410, 49.14551
849.5760, 1.296875
850.7100, 91.20801
851.8450, 13.68262
852.9800, 145.1104
854.1140, 33.48926
855.2480, 34.16211
856.3820, 182.0928
857.5160, 90.31836
858.6500, 33.51172
859.7830, 90.66309
860.9170, 203.7822
862.0500, 155.8711
863.1830, 68.93066
864.3160, 70.95215
865.4480, 53.93848
866.5810, 37.88477
867.7130, 14.21289
868.8460, 75.62305
869.9780, 71.42188
871.1100, 152.1836
872.2410, 159.9131
873.3730, 39.61133
874.5050, 257.2646
875.6360, 166.8955
876.7670, 154.4961
877.8980, 212.0635
879.0290, 53.60059
880.1590, 57.09473
881.2900, 164.5459
882.4200, 136.9658
883.5500, 237.3516
884.6800, 157.7061
885.8100, 55.02832
886.9400, 193.3066
888.0690, 216.5527
889.1990, 61.76758
890.3280, 109.9395
891.4570, 190.0732
892.5860, 74.17480
893.7140, 215.2354
894.8430, 165.2637
895.9710, 243.2588
897.1000, 136.2246
898.2280, 127.1533
899.3560, 221.0479
900.4830, 243.9092
901.6110, 181.7520
902.7380, 124.5625
903.8660, 211.3359
904.9930, 264.0771
906.1200, 145.7871
907.2460, 207.4619
908.3730, 162.1035
909.5000, 186.7119
910.6260, 283.2930
911.7520, 128.8418
912.8780, 181.3535
914.0040, 224.8301
915.1290, 222.2881
916.2550, 224.7139
917.3800, 281.1064
918.5050, 286.4736
919.6300, 280.6641
920.7550, 203.9678
921.8800, 354.2383
923.0040, 352.5547
924.1290, 202.4648
925.2530, 321.5029
926.3770, 220.6738
927.5010, 149.4580
928.6250, 199.5400
929.7480, 263.6133
930.8720, 274.6553
931.9950, 338.6670
933.1180, 320.6475
934.2410, 355.9688
935.3640, 337.8945
936.4860, 227.7891
937.6090, 337.6533
938.7310, 378.2773
939.8530, 232.3740
940.9750, 413.2422
942.0970, 484.5293
943.2180, 372.6084
944.3400, 318.9746
945.4610, 225.7041
946.5820, 155.5801
947.7030, 101.5039
948.8240, 112.3672
949.9450, 201.4414
951.0650, 166.7852
952.1860, 154.6807
953.3060, 156.1514
954.4260, 314.3594
955.5460, 206.9316
956.6650, 244.3223
957.7850, 286.7744
958.9040, 163.3105
960.0230, 223.9385
961.1420, 192.9551
962.2610, 69.72559
963.3800, 256.0479
964.4990, 359.5049
965.6170, 195.5840
966.7350, 371.7920
967.8530, 178.1133
968.9710, 124.4434
970.0890, 213.4111
971.2070, 189.7441
972.3240, 193.0078
973.4410, 181.3193
974.5580, 200.6777
975.6750, 197.8564
976.7920, 248.1348
977.9090, 211.6992
979.0250, 217.2422
980.1410, 236.2979
981.2580, 176.0771
982.3740, 194.0000
983.4890, 282.0742
984.6050, 205.1357
985.7200, 142.6855
986.8360, 320.4814
987.9510, 226.1123
989.0660, 235.0381
990.1810, 225.7324
991.2950, 213.4434
992.4100, 258.7705
993.5240, 228.0205
994.6390, 243.5332
995.7530, 206.9170
996.8660, 261.5361
997.9800, 205.3740
999.0940, 231.2061
1000.207, 315.6943
1001.320, 418.7441
1002.433, 300.1045
1003.546, 189.8623
1004.659, 165.5146
1005.772, 290.9482
1006.884, 374.3936
1007.996, 193.2402
1009.108, 306.4375
1010.220, 303.8555
1011.332, 287.2021
1012.444, 307.8955
1013.555, 274.5850
1014.666, 258.7148
1015.777, 268.0312
1016.888, 231.1494
1017.999, 322.4971
1019.110, 209.7373
1020.220, 211.6006
1021.331, 272.9102
1022.441, 331.2070
1023.551, 283.1279
1024.661, 252.7764
1025.770, 351.0361
1026.880, 241.1172
1027.989, 266.3535
1029.098, 154.4531
1030.207, 355.0420
1031.316, 207.8564
1032.425, 147.5684
1033.533, 293.7637
1034.642, 232.7412
1035.750, 278.0576
1036.858, 204.6523
1037.966, 397.8047
1039.073, 276.0391
1040.181, 351.7939
1041.288, 322.9199
1042.396, 136.7773
1043.503, 168.1621
1044.610, 233.2598
1045.716, 231.7627
1046.823, 261.7139
1047.929, 292.0938
1049.036, 250.5977
1050.142, 336.6514
1051.248, 324.1357
1052.353, 350.1797
1053.459, 285.2188
1054.564, 236.2510
1055.670, 277.3291
1056.775, 402.5459
1057.880, 333.5498
1058.985, 328.5830
1060.089, 271.6055
1061.194, 213.2744
1062.298, 311.3125
1063.402, 192.3447
1064.506, 323.3711
1065.610, 348.3887
1066.713, 427.4023
1067.817, 282.1514
1068.920, 309.1553
1070.023, 304.1533
1071.126, 275.1436
1072.229, 286.1309
1073.332, 356.1250
1074.435, 346.1436
1075.537, 287.0488
1076.639, 222.1104
1077.741, 296.9033
1078.843, 269.9990
1079.945, 216.9756
1081.046, 222.5723
1082.148, 273.2549
1083.249, 321.6309
1084.350, 329.7559
1085.451, 271.8877
1086.551, 224.7246
1087.652, 300.8799
1088.752, 169.0352
1089.853, 269.1973
1090.953, 184.3701
1092.053, 238.5430
1093.152, 211.7256
1094.252, 180.9150
1095.351, 322.5244
1096.451, 178.7373
1097.550, 348.9570
1098.649, 246.1924
1099.748, 128.4443
1100.846, 203.7109
1101.945, 176.9912
1103.043, 275.2891
1104.141, 242.6006
1105.239, 189.9199
1106.337, 204.2627
1107.434, 119.6260
1108.532, 170.5723
1109.629, 191.9648
1110.726, 190.3877
1111.823, 73.81738
1112.920, 137.2529
1114.017, 282.6885
1115.113, 65.14551
1116.210, 220.6064
1117.306, 68.08008
1118.402, 195.5537
1119.498, 201.0352
1120.593, 119.5186
1121.689, 111.0244
1122.784, 276.5537
1123.879, 212.0820
1124.974, 319.6123
1126.069, 174.1494
1127.164, 148.6885
1128.259, 229.2266
1129.353, 187.7676
1130.447, 170.3096
1131.541, 204.8584
1132.635, 131.4121
1133.729, 156.9727
1134.822, 190.5527
1135.916, 151.1377
1137.009, 114.7266
1138.102, 115.3174
1139.195, 101.5078
1140.288, 36.49121
1141.380, 122.0947
1142.473, 223.6816
1143.565, 270.2705
1144.657, 87.86035
1145.749, 104.4590
1146.841, 155.0635
1147.932, 36.67090
1149.024, 180.8682
1150.115, 119.4805
1151.206, 77.09473
1152.297, 211.7168
1153.388, 114.3418
1154.479, 113.9697
1155.569, 200.6055
1156.659, 48.24512
1157.750, 189.8887
1158.839, 39.54004
1159.929, 27.46191
1161.019, 11.88086
1162.108, 131.7744
1163.198, 97.99609
1164.287, 28.66113
1165.376, 50.67285
1166.465, 6.027344
1167.553, 10.61816
1168.642, 142.2695
1169.730, 3.077148
1170.818, 78.10352
1171.906, 81.76367
1172.994, 70.42480
1174.082, 26.90723
1175.170, 66.75000
1176.257, 78.41211
1177.344, 88.08008
1178.431, 49.25000
1179.518, 120.4004
1180.605, 39.05371
1181.691, 28.29004
1182.778, 134.6865
1183.864, 33.04785
1184.950, 7.703125
1186.036, 68.64062
1187.122, 39.01367
1188.207, 58.59570
1189.292, 94.21094
1190.378, 133.8281
1191.463, 138.4492
1192.548, 124.4150
1193.632, 69.70605
1194.717, 64.33887
1195.801, 24.97656
1196.886, 4.617188
1197.970, 31.73730
1199.054, 13.01660
1200.137, 53.53320
1201.221, 107.1738
1202.305, 73.81836
1203.388, 86.46680
1204.471, 87.63184
1205.554, 48.71191
1206.637, 27.92285
1207.719, 30.43555
1208.802, 20.19238
1209.884, 32.83203
1210.966, 23.47559
1212.048, 53.12402
1213.130, 3.223633
1214.212, 64.43164
1215.293, 72.08984
1216.374, 30.24805
1217.456, 130.4023
1218.536, 295.0557
1219.617, 161.7129
1220.698, 161.3730
1221.778, 271.0371
1222.859, 274.7031
1223.939, 214.3730
1225.019, 409.0469
1226.099, 142.7256
1227.178, 186.4092
1228.258, 232.0947
1229.337, 196.7852
1230.417, 155.4775
1231.496, 82.17285
1232.574, 136.8721
1233.653, 175.5742
1234.732, 49.27832
1235.810, 65.98633
1236.888, 151.6963
1237.966, 9.588867
1239.044, 50.12207
1240.122, 21.83398
1241.199, 65.54980
1242.277, 134.2773
1243.354, 235.0059
1244.431, 122.7363
1245.508, 202.8291
1246.585, 96.56543
1247.661, 85.30469
1248.738, 45.04590
1249.814, 193.7900
1250.890, 81.16406
1251.966, 145.9131
1253.042, 149.6641
1254.117, 118.4170
1255.193, 162.9736
1256.268, 93.93457
1257.343, 185.6973
1258.418, 239.4629
