##NAMES=Baddeleyite
##RRUFFID=R060078
##IDEAL CHEMISTRY=Zr^4+^O_2_
##LOCALITY=Wetloo mine, Mogok, Burma
##OWNER=RRUFF
##SOURCE=Marcus Origlieri
##DESCRIPTION=Dark brown fragment
##STATUS=The identification of this mineral has been confirmed by X-ray diffraction and chemical analysis
##URL=rruff.info/R060078
##MEASURED CHEMISTRY=(Zr_0.99_Hf_0.01_)_Î£=1_O_2_
##PIN_ID=L01986
##ORIENTATION=Laser parallel to a* (1 0 0). Fiducial mark perpendicular to laser is parallel to -b [0 -1 0]
72.47700, 0.0000000E+00
73.71400, 934.6274
74.95100, 470.9722
76.18700, 561.8511
77.42300, 249.6650
78.65900, 61.21680
79.89500, 21.77393
81.13100, 11.38330
82.36700, 260.2500
83.60200, 493.5640
84.83700, 310.3633
86.07200, 93.71729
87.30800, 102.8931
88.54200, 169.3052
89.77700, 531.4805
91.01200, 978.0303
92.24600, 1311.617
93.48000, 1704.935
94.71400, 2285.719
95.94800, 3146.743
97.18200, 3623.809
98.41600, 3877.750
99.64900, 4097.429
100.8830, 4426.729
102.1160, 5166.552
103.3490, 6312.807
104.5820, 7943.411
105.8150, 10090.28
107.0470, 11373.36
108.2800, 11506.57
109.5120, 9732.904
110.7440, 6475.171
111.9760, 3819.326
113.2080, 2573.308
114.4400, 2301.057
115.6710, 2280.525
116.9030, 1897.675
118.1340, 1596.474
119.3650, 1114.889
120.5960, 835.8965
121.8270, 1021.473
123.0580, 946.6069
124.2880, 709.3066
125.5190, 410.5776
126.7490, 389.4209
127.9790, 400.8301
129.2090, 452.7964
130.4390, 440.3057
131.6680, 350.3340
132.8980, 179.8618
134.1270, 128.8677
135.3560, 176.3340
136.5850, 282.2427
137.8140, 223.5781
139.0430, 361.3242
140.2710, 227.4673
141.5000, 186.9932
142.7280, 63.88965
143.9560, 74.14502
145.1840, 22.74707
146.4120, 3.214355
147.6390, 45.59766
148.8670, 71.05176
150.0940, 124.8159
151.3210, 317.6416
152.5490, 345.5596
153.7750, 345.5908
155.0020, 415.7515
156.2290, 286.0537
157.4550, 360.5078
158.6810, 462.1221
159.9080, 673.9028
161.1340, 745.8560
162.3590, 973.9834
163.5850, 1280.290
164.8110, 1596.777
166.0360, 2292.446
167.2610, 2716.298
168.4860, 3731.335
169.7110, 5008.559
170.9360, 6297.011
172.1610, 6612.804
173.3850, 6993.028
174.6100, 7788.758
175.8340, 9503.957
177.0580, 11698.59
178.2820, 15098.65
179.5050, 20125.09
180.7290, 24259.88
181.9520, 27209.97
183.1760, 27517.36
184.3990, 24376.04
185.6220, 19730.00
186.8450, 18500.13
188.0670, 19415.38
189.2900, 22695.74
190.5120, 27827.21
191.7340, 36473.78
192.9560, 46058.47
194.1780, 50563.25
195.4000, 47128.16
196.6220, 35511.16
197.8430, 21557.27
199.0640, 12152.48
200.2860, 7869.803
201.5070, 5777.225
202.7270, 4612.748
203.9480, 3657.368
205.1690, 2734.648
206.3890, 2105.907
207.6090, 1859.822
208.8290, 1501.833
210.0490, 1367.937
211.2690, 1275.134
212.4890, 1219.423
213.7080, 1083.483
214.9280, 972.0508
216.1470, 923.8311
217.3660, 841.9131
218.5850, 803.2085
219.8030, 782.5791
221.0220, 774.2710
222.2400, 843.9038
223.4590, 771.2646
224.6770, 753.2920
225.8950, 800.9189
227.1120, 570.7402
228.3300, 611.2539
229.5480, 489.3379
230.7650, 284.8271
231.9820, 370.6963
233.1990, 282.9150
234.4160, 279.4648
235.6330, 259.3267
236.8490, 150.4805
238.0660, 315.9146
239.2820, 209.6084
240.4980, 234.5488
241.7140, 296.7241
242.9300, 269.1240
244.1460, 262.7402
245.3610, 347.5630
246.5770, 208.5840
247.7920, 249.7983
249.0070, 299.1968
250.2220, 280.7729
251.4370, 365.5220
252.6510, 276.4375
253.8660, 519.5146
255.0800, 347.7480
256.2940, 476.1318
257.5080, 289.6621
258.7220, 731.3354
259.9360, 1119.148
261.1490, 978.0972
262.3630, 512.1782
263.5760, 561.3896
264.7890, 511.7271
266.0020, 537.5210
267.2150, 481.4463
268.4270, 598.2949
269.6400, 568.4219
270.8520, 702.5312
272.0640, 425.6704
273.2760, 747.2002
274.4880, 706.8018
275.7000, 842.4775
276.9120, 1040.573
278.1230, 1052.435
279.3340, 1225.318
280.5450, 1149.177
281.7560, 1258.257
282.9670, 1443.745
284.1780, 1636.229
285.3880, 1738.894
286.5980, 2079.177
287.8090, 2184.229
289.0190, 2558.181
290.2290, 2873.886
291.4380, 3258.686
292.6480, 3629.437
293.8570, 4320.577
295.0670, 4877.766
296.2760, 5774.240
297.4850, 6677.478
298.6930, 7833.322
299.9020, 8969.276
301.1110, 10014.35
302.3190, 11408.44
303.5270, 12677.60
304.7350, 14602.86
305.9430, 16675.15
307.1510, 18581.51
308.3580, 20782.93
309.5660, 21863.42
310.7730, 21279.96
311.9800, 19767.58
313.1870, 16903.25
314.3940, 13987.99
315.6010, 11223.78
316.8070, 9242.640
318.0130, 7635.552
319.2200, 6679.521
320.4260, 6001.545
321.6310, 5522.620
322.8370, 5172.746
324.0430, 4823.921
325.2480, 4805.143
326.4540, 4674.408
327.6590, 4770.719
328.8640, 4884.071
330.0680, 4918.465
331.2730, 5352.899
332.4780, 5634.373
333.6820, 6034.887
334.8860, 7004.439
336.0900, 8080.029
337.2940, 9491.658
338.4980, 11247.32
339.7010, 13267.02
340.9050, 15630.76
342.1080, 17860.54
343.3110, 20028.34
344.5140, 23086.19
345.7170, 26998.07
346.9200, 31721.99
348.1220, 37421.94
349.3240, 41751.93
350.5270, 43506.94
351.7290, 41179.00
352.9310, 34798.07
354.1320, 27589.19
355.3340, 20524.34
356.5350, 15349.51
357.7370, 11750.73
358.9380, 9073.968
360.1390, 7546.242
361.3400, 6253.545
362.5400, 5299.877
363.7410, 4413.241
364.9410, 4267.689
366.1410, 4012.221
367.3410, 3803.829
368.5410, 3941.512
369.7410, 4120.262
370.9400, 4392.082
372.1400, 4793.969
373.3390, 5322.726
374.5380, 5592.103
375.7370, 6284.691
376.9360, 7153.224
378.1350, 8578.567
379.3330, 9705.121
380.5310, 10907.18
381.7300, 10994.86
382.9280, 10365.48
384.1260, 9067.929
385.3230, 7665.426
386.5210, 6467.969
387.7180, 5349.559
388.9160, 4389.455
390.1130, 3558.844
391.3100, 2858.600
392.5060, 2300.366
393.7030, 1845.178
394.9000, 1580.030
396.0960, 1240.924
397.2920, 1177.858
398.4880, 840.8330
399.6840, 698.8467
400.8800, 488.8984
402.0750, 421.9902
403.2710, 436.1182
404.4660, 279.2842
405.6610, 286.4863
406.8560, 250.7256
408.0510, 104.0000
409.2450, 47.30957
410.4400, 48.64746
411.6340, 37.98438
412.8280, 59.62305
414.0220, 129.2773
415.2160, 107.9814
416.4100, 203.7266
417.6030, 238.5566
418.7970, 126.4883
419.9900, 241.4717
421.1830, 105.5605
422.3760, 176.6934
423.5690, 191.9023
424.7610, 138.1973
425.9540, 161.5537
427.1460, 140.7109
428.3380, 86.47363
429.5300, 114.0059
430.7220, 107.5889
431.9140, 85.22266
433.1050, 41.89648
434.2970, 133.5918
435.4880, 2.350586
436.6790, 44.11328
437.8700, 171.8994
439.0610, 101.7676
440.2510, 78.31348
441.4420, 31.58301
442.6320, 147.5078
443.8220, 104.6182
445.0120, 140.7539
446.2020, 156.9160
447.3910, 108.1045
448.5810, 238.3174
449.7700, 187.5557
450.9600, 323.8213
452.1490, 261.1123
453.3370, 404.4277
454.5260, 349.7695
455.7150, 619.1357
456.9030, 574.5273
458.0910, 818.9434
459.2800, 1024.385
460.4670, 1178.850
461.6550, 1531.340
462.8430, 1698.854
464.0300, 2201.393
465.2180, 2612.953
466.4050, 3192.539
467.5920, 3936.146
468.7790, 4643.779
469.9650, 5269.436
471.1520, 5982.115
472.3380, 6979.816
473.5250, 7773.543
474.7110, 8823.292
475.8970, 9551.062
477.0820, 9748.856
478.2680, 9512.674
479.4540, 8341.515
480.6390, 6665.377
481.8240, 5134.262
483.0090, 3640.169
484.1940, 2826.100
485.3780, 2182.051
486.5630, 1597.025
487.7470, 1369.022
488.9320, 924.0420
490.1160, 952.0830
491.3000, 695.1475
492.4830, 725.2324
493.6670, 691.3389
494.8500, 574.4678
496.0340, 593.6191
497.2170, 576.7920
498.4000, 478.9863
499.5820, 547.2021
500.7650, 613.4395
501.9480, 682.6992
503.1300, 736.9795
504.3120, 855.2822
505.4940, 626.6055
506.6760, 863.9502
507.8580, 842.3164
509.0390, 285.7031
510.2210, 275.1104
511.4020, 204.5381
512.5830, 273.9844
513.7640, 153.4521
514.9450, 81.93848
516.1250, 104.4541
517.3060, 53.98828
518.4860, 102.5479
519.6660, 67.12891
520.8460, 60.70020
522.0260, 83.95215
523.2060, 59.91992
524.3850, 114.5322
525.5650, 167.1680
526.7440, 193.8213
527.9230, 202.5039
529.1020, 211.2021
530.2810, 361.9199
531.4590, 342.6582
532.6380, 265.4443
533.8160, 402.2490
534.9940, 394.1035
536.1720, 474.9834
537.3500, 543.8975
538.5270, 628.8281
539.7050, 771.7900
540.8820, 777.7764
542.0590, 689.7998
543.2360, 623.8545
544.4130, 754.9355
545.5900, 724.0449
546.7660, 708.1738
547.9430, 847.3281
549.1190, 948.5029
550.2950, 1067.694
551.4710, 1149.588
552.6470, 1224.956
553.8220, 1301.761
554.9980, 1350.623
556.1730, 1395.792
557.3480, 1476.071
558.5230, 1468.311
559.6980, 1463.216
560.8730, 1331.383
562.0470, 1297.251
563.2220, 1073.470
564.3960, 1097.780
565.5700, 898.2285
566.7440, 910.5859
567.9170, 785.7393
569.0910, 652.8740
570.2640, 577.0312
571.4380, 512.6904
572.6110, 436.7080
573.7840, 389.9287
574.9570, 353.4395
576.1290, 397.0693
577.3020, 280.7764
578.4740, 272.2061
579.6460, 191.6875
580.8180, 54.98633
581.9900, 233.6221
583.1620, 6.747070
584.3330, 185.8633
585.5040, 267.9531
586.6760, 140.1250
587.8470, 151.3252
589.0180, 90.51562
590.1880, 274.7783
591.3590, 264.0840
592.5290, 352.3838
593.7000, 400.7246
594.8700, 438.4639
596.0400, 369.4834
597.2090, 581.9014
598.3790, 629.3438
599.5490, 795.8105
600.7180, 1015.303
601.8870, 1084.649
603.0560, 1413.361
604.2250, 1587.537
605.3940, 1767.519
606.5620, 2054.136
607.7300, 2331.777
608.8990, 2568.443
610.0670, 2893.203
611.2350, 3246.848
612.4020, 3526.588
613.5700, 3915.355
614.7370, 4256.147
615.9050, 4362.962
617.0720, 4424.800
618.2390, 4568.660
619.4060, 4362.547
620.5720, 4160.456
621.7390, 4156.388
622.9050, 3451.344
624.0710, 3062.320
625.2370, 3229.320
626.4030, 3141.344
627.5690, 3242.390
628.7340, 3425.461
629.9000, 3746.552
631.0650, 4088.666
632.2300, 4428.801
633.3950, 4868.957
634.5600, 5323.139
635.7240, 5614.340
636.8890, 5976.563
638.0530, 6178.809
639.2170, 6154.075
640.3810, 5994.367
641.5450, 5364.680
642.7080, 4604.012
643.8720, 3944.367
645.0350, 3246.743
646.1980, 2817.138
647.3610, 2363.553
648.5240, 1867.987
649.6870, 1613.441
650.8490, 1420.915
652.0120, 1249.409
653.1740, 1076.927
654.3360, 1014.529
655.4980, 910.0527
656.6600, 871.2158
657.8210, 795.5508
658.9830, 727.7988
660.1440, 677.7988
661.3050, 641.2148
662.4660, 610.1143
663.6270, 580.1758
664.7870, 534.0762
665.9480, 536.9141
667.1080, 617.9014
668.2680, 601.6562
669.4280, 524.4277
670.5880, 616.1660
671.7480, 556.8613
672.9070, 601.0566
674.0670, 620.3496
675.2260, 677.0771
676.3850, 705.8955
677.5440, 664.7783
678.7030, 605.1396
679.8610, 682.3291
681.0200, 591.1836
682.1780, 684.5596
683.3360, 644.4580
684.4940, 722.3916
685.6520, 734.1514
686.8090, 847.2705
687.9670, 838.2197
689.1240, 888.6455
690.2810, 855.8164
691.4380, 925.2676
692.5950, 1021.014
693.7520, 978.6807
694.9080, 999.5010
696.0650, 1213.517
697.2210, 1240.558
698.3770, 1276.287
699.5330, 1173.827
700.6880, 1322.911
701.8440, 1421.795
702.9990, 1502.697
704.1550, 1571.382
705.3100, 1666.746
706.4650, 1748.164
707.6190, 1671.142
708.7740, 1656.092
709.9290, 1716.883
711.0830, 1743.911
712.2370, 1760.232
713.3910, 1592.238
714.5450, 1672.242
715.6980, 1578.456
716.8520, 1524.713
718.0050, 1538.377
719.1580, 1447.511
720.3110, 1317.630
721.4640, 1125.045
722.6170, 1262.176
723.7700, 982.4512
724.9220, 1043.414
726.0740, 906.5625
727.2260, 954.9414
728.3780, 856.5137
729.5300, 811.9307
730.6810, 764.3506
731.8330, 647.6387
732.9840, 738.0527
734.1350, 721.3418
735.2860, 662.8105
736.4370, 621.1006
737.5880, 631.3906
738.7380, 722.6816
739.8880, 506.9712
741.0390, 600.2607
742.1890, 682.5488
743.3380, 597.3042
744.4880, 757.5908
745.6380, 629.2935
746.7870, 635.5762
747.9360, 717.8574
749.0850, 718.4395
750.2340, 698.0386
751.3830, 692.3174
752.5310, 709.6934
753.6800, 651.9741
754.8280, 700.2402
755.9760, 637.5020
757.1240, 766.1748
758.2720, 642.5439
759.4190, 716.9717
760.5670, 426.2437
761.7140, 559.4863
762.8610, 552.7241
764.0080, 433.3389
765.1550, 525.5674
766.3020, 436.3594
767.4480, 343.5771
768.5950, 468.7886
769.7410, 340.9951
770.8870, 315.1953
772.0330, 287.8872
773.1780, 317.1919
774.3240, 314.5771
775.4690, 282.7515
776.6140, 284.2490
777.7590, 370.1152
778.9040, 213.5044
780.0490, 194.6577
781.1940, 90.16553
782.3380, 190.2949
783.4820, 97.41602
784.6260, 127.5293
785.7700, 216.6338
786.9140, 170.7295
788.0580, 126.8154
789.2010, 157.8931
790.3450, 72.21143
791.4880, 58.08252
792.6310, 57.73682
793.7730, 8.531250
794.9160, 74.38477
796.0590, 16.43994
797.2010, 11.48242
798.3430, 64.39502
799.4850, 163.3027
800.6270, 14.20410
801.7690, 16.16846
802.9100, 63.69824
804.0520, 26.22510
805.1930, 104.5962
806.3340, 120.4062
807.4750, 1.769043
808.6160, 97.99365
809.7560, 39.70947
810.8970, 105.6030
812.0370, 15.99316
813.1770, 48.41455
814.3170, 126.1162
815.4570, 39.36670
816.5960, 3.894043
817.7360, 61.44775
818.8750, 37.05908
820.0140, 12.70557
821.1530, 28.38477
822.2920, 14.89502
823.4310, 13.84619
824.5690, 9.377930
825.7070, 50.57959
826.8460, 44.23779
827.9840, 0.1059570
829.1220, 51.82275
830.2590, 36.22363
831.3970, 82.75098
832.5340, 20.79883
833.6710, 35.88770
834.8080, 109.0269
835.9450, 9.743652
837.0820, 37.48779
838.2190, 62.20850
839.3550, 65.90869
840.4910, 115.5884
841.6270, 46.75098
842.7630, 94.14990
843.8990, 90.36621
845.0350, 84.13867
846.1700, 48.72461
847.3060, 67.37305
848.4410, 71.90576
849.5760, 197.1616
850.7100, 0.4804690
851.8450, 111.7163
852.9800, 106.8911
854.1140, 8.043457
855.2480, 35.16113
856.3820, 39.24854
857.5160, 104.3066
858.6500, 41.34131
859.7830, 145.3472
860.9170, 55.33105
862.0500, 43.28662
863.1830, 30.21240
864.3160, 21.11035
865.4480, 116.9746
866.5810, 116.8149
867.7130, 158.6328
868.8460, 119.4282
869.9780, 231.2007
871.1100, 107.9507
872.2410, 217.6772
873.3730, 170.3809
874.5050, 153.0630
875.6360, 220.7217
876.7670, 202.3584
877.8980, 248.9780
879.0290, 83.57520
880.1590, 220.1455
881.2900, 88.69238
882.4200, 207.2134
883.5500, 165.7114
884.6800, 103.1870
885.8100, 101.6367
886.9400, 46.06836
888.0690, 129.4683
889.1990, 151.8438
890.3280, 211.1963
891.4570, 158.5278
892.5860, 94.83643
893.7140, 131.1226
894.8430, 124.3848
895.9710, 149.6226
897.1000, 184.8369
898.2280, 173.0288
899.3560, 102.1973
900.4830, 195.3394
901.6110, 84.45898
902.7380, 217.5659
903.8660, 180.6499
904.9930, 185.7104
906.1200, 161.7485
907.2460, 91.76318
908.3730, 137.7510
909.5000, 127.7148
910.6260, 162.6528
911.7520, 114.5684
912.8780, 75.45801
914.0040, 125.3184
915.1290, 154.1543
916.2550, 109.9668
917.3800, 179.7544
918.5050, 206.5195
919.6300, 213.2612
920.7550, 165.9800
921.8800, 232.6763
923.0040, 166.3569
924.1290, 215.0186
925.2530, 148.6577
926.3770, 176.2681
927.5010, 140.7900
928.6250, 129.5869
929.7480, 133.9624
930.8720, 191.8540
931.9950, 161.9023
933.1180, 164.8555
934.2410, 256.2305
935.3640, 192.6851
936.4860, 65.57764
937.6090, 215.3848
938.7310, 118.6484
939.8530, 162.7612
940.9750, 238.1025
942.0970, 140.4219
943.2180, 210.7715
944.3400, 235.1602
945.4610, 241.0493
946.5820, 271.8413
947.7030, 153.1948
948.8240, 200.4604
949.9450, 304.6562
951.0650, 191.3687
952.1860, 180.2480
953.3060, 189.4565
954.4260, 194.2046
955.5460, 178.3579
956.6650, 152.4712
957.7850, 196.9243
958.9040, 206.6699
960.0230, 271.7500
961.1420, 280.3477
962.2610, 296.1948
963.3800, 79.75879
964.4990, 285.0234
965.6170, 124.3804
966.7350, 208.6030
967.8530, 157.6655
968.9710, 207.7329
970.0890, 214.1636
971.2070, 169.8447
972.3240, 179.0161
973.4410, 160.4512
974.5580, 212.8960
975.6750, 208.0811
976.7920, 144.6899
977.9090, 214.7563
979.0250, 227.3081
980.1410, 210.9346
981.2580, 91.74854
982.3740, 70.35742
983.4890, 47.11572
984.6050, 30.51074
985.7200, 79.10645
986.8360, 74.64453
987.9510, 206.1484
989.0660, 279.2607
990.1810, 158.9517
991.2950, 173.6880
992.4100, 89.12402
993.5240, 123.8496
994.6390, 218.4307
995.7530, 228.3169
996.8660, 159.0088
997.9800, 297.1543
999.0940, 209.4043
1000.207, 111.8022
1001.320, 270.1865
1002.433, 157.6938
1003.546, 236.0654
1004.659, 168.6313
1005.772, 261.9307
1006.884, 193.3970
1007.996, 236.8540
1009.108, 156.3013
1010.220, 172.2031
1011.332, 187.3203
1012.444, 173.7388
1013.555, 211.6797
1014.666, 199.0796
1015.777, 184.0522
1016.888, 152.4341
1017.999, 191.8066
1019.110, 195.8677
1020.220, 209.4521
1021.331, 239.7944
1022.441, 224.0283
1023.551, 206.3467
1024.661, 265.9028
1025.770, 226.2168
1026.880, 241.5913
1027.989, 198.2803
1029.098, 189.3936
1030.207, 313.6504
1031.316, 194.9248
1032.425, 234.1914
1033.533, 128.0693
1034.642, 105.3218
1035.750, 217.6147
1036.858, 172.8530
1037.966, 115.0835
1039.073, 212.3081
1040.181, 198.5249
1041.288, 243.2383
1042.396, 172.3252
1043.503, 343.3193
1044.610, 286.5103
1045.716, 267.3750
1046.823, 195.8389
1047.929, 241.7759
1049.036, 197.9351
1050.142, 135.0146
1051.248, 198.1709
1052.353, 252.3242
1053.459, 209.4717
1054.564, 132.6143
1055.670, 102.4219
1056.775, 112.0576
1057.880, 30.49854
1058.985, 162.5581
1060.089, 212.6763
1061.194, 241.3833
1062.298, 295.2217
1063.402, 101.2842
1064.506, 309.4282
1065.610, 197.6670
1066.713, 142.8130
1067.817, 196.0088
1068.920, 149.1470
1070.023, 164.5479
1071.126, 228.6904
1072.229, 194.3232
1073.332, 133.5244
1074.435, 246.6685
1075.537, 181.7852
1076.639, 218.2915
1077.741, 212.6436
1078.843, 192.7725
1079.945, 125.2437
1081.046, 174.1719
1082.148, 143.4023
1083.249, 132.6211
1084.350, 44.85303
1085.451, 171.0889
1086.551, 40.65625
1087.652, 218.5938
1088.752, 168.8506
1089.853, 185.1182
1090.953, 188.3882
1092.053, 265.6660
1093.152, 192.9458
1094.252, 206.2285
1095.351, 224.5269
1096.451, 68.65137
1097.550, 35.97461
1098.649, 97.29932
1099.748, 169.6519
1100.846, 93.01660
1101.945, 195.3970
1103.043, 99.81250
1104.141, 108.2329
1105.239, 206.6548
1106.337, 229.0781
1107.434, 187.5024
1108.532, 109.9258
1109.629, 132.3696
1110.726, 85.84619
1111.823, 141.3262
1112.920, 150.8335
1114.017, 53.36230
1115.113, 48.91699
1116.210, 86.47266
1117.306, 127.9053
1118.402, 145.4707
1119.498, 140.0356
1120.593, 145.6021
1121.689, 75.17529
1122.784, 35.75293
1123.879, 103.3345
1124.974, 235.9170
1126.069, 168.5039
1127.164, 138.0913
1128.259, 205.6821
1129.353, 16.72314
1130.447, 120.8706
1131.541, 45.47119
1132.635, 114.0723
1133.729, 10.67480
1134.822, 46.27832
1135.916, 2.117188
1137.009, 86.48779
1138.102, 132.0933
1139.195, 200.7007
1140.288, 128.0732
1141.380, 157.7295
1142.473, 24.47070
1143.565, 101.1299
1144.657, 116.7329
1145.749, 55.33887
1146.841, 132.9463
1147.932, 156.5566
1149.024, 116.1694
1150.115, 110.7832
1151.206, 30.60010
1152.297, 26.00586
1153.388, 130.6177
1154.479, 119.2319
1155.569, 5.151855
1156.659, 19.46338
1157.750, 20.91943
1158.839, 132.6929
1159.929, 192.3071
1161.019, 27.92480
1162.108, 154.5449
1163.198, 38.16699
1164.287, 180.7915
1165.376, 99.41943
1166.465, 62.95020
1167.553, 141.6543
1168.642, 42.26025
1169.730, 58.86914
1170.818, 91.48047
1171.906, 22.09473
1172.994, 27.71338
1174.082, 8.335938
1175.170, 102.9609
1176.257, 32.59033
1177.344, 62.22266
1178.431, 95.86133
1179.518, 38.50391
1180.605, 4.850098
1181.691, 60.79736
1182.778, 42.88623
1183.864, 101.5391
1184.950, 115.1953
1186.036, 31.14502
1187.122, 14.49756
1188.207, 1.145996
1189.292, 65.79199
1190.378, 25.44189
1191.463, 13.90430
1192.548, 119.7461
1193.632, 30.40088
1194.717, 99.05957
1195.801, 21.27881
1196.886, 94.37646
1197.970, 52.96484
1199.054, 26.67041
1200.137, 109.3086
1201.221, 52.41943
1202.305, 12.93262
1203.388, 2.713379
1204.471, 52.36182
1205.554, 14.88623
1206.637, 4.458496
1207.719, 21.80322
1208.802, 21.15576
1209.884, 2.484375
1210.966, 30.87354
1212.048, 5.756348
1213.130, 38.38965
1214.212, 154.0254
1215.293, 67.66406
1216.374, 99.30615
1217.456, 10.88574
1218.536, 43.53369
1219.617, 161.1851
1220.698, 205.8486
1221.778, 175.5156
1222.859, 155.1855
1223.939, 276.3237
1225.019, 215.9995
1226.099, 278.6782
1227.178, 284.3604
1228.258, 206.0459
1229.337, 177.7354
1230.417, 140.1602
1231.496, 264.1201
1232.574, 88.81689
1233.653, 151.5161
1234.732, 204.2178
1235.810, 48.92334
1236.888, 174.6323
1237.966, 68.34424
1239.044, 75.05762
1240.122, 139.7739
1241.199, 36.50684
1242.277, 131.1978
1243.354, 202.9038
1244.431, 100.6123
1245.508, 109.3232
1246.585, 71.03613
1247.661, 43.75195
1248.738, 187.4702
1249.814, 107.1904
1250.890, 226.9131
1251.966, 163.6382
1253.042, 126.3652
1254.117, 70.09473
1255.193, 55.82617
1256.268, 48.82178
1257.343, 65.83252
1258.418, 62.03516
