##NAMES=Baddeleyite
##RRUFFID=R060078
##IDEAL CHEMISTRY=Zr^4+^O_2_
##LOCALITY=Wetloo mine, Mogok, Burma
##OWNER=RRUFF
##SOURCE=Marcus Origlieri
##DESCRIPTION=Dark brown fragment
##STATUS=The identification of this mineral has been confirmed by X-ray diffraction and chemical analysis
##URL=rruff.info/R060078
##MEASURED CHEMISTRY=(Zr_0.99_Hf_0.01_)_Î£=1_O_2_
##PIN_ID=L01430
##ORIENTATION=Laser parallel to c* (0 0 1). Fiducial mark perpendicular to laser is parallel to a [1 0 0]
51.43100, 0.0000000E+00
52.67100, 55.98883
53.91000, 122.6326
55.14900, 125.5121
56.38700, 177.4237
57.62600, 294.1757
58.86400, 329.4357
60.10300, 186.4899
61.34100, 60.98492
62.57900, 33.37726
63.81700, 44.96625
65.05400, 73.16284
66.29200, 46.32251
67.52900, 47.24390
68.76700, 719.2668
70.00400, 584.5507
71.24100, 1522.745
72.47700, 822.7561
73.71400, 771.3293
74.95100, 1080.272
76.18700, 1375.412
77.42300, 1034.598
78.65900, 981.7001
79.89500, 1370.614
81.13100, 1882.256
82.36700, 2726.556
83.60200, 3350.448
84.83700, 3098.866
86.07200, 2820.747
87.30800, 3050.029
88.54200, 3583.650
89.77700, 4321.517
91.01200, 5532.530
92.24600, 6115.586
93.48000, 6452.609
94.71400, 6973.546
95.94800, 7419.342
97.18200, 8302.958
98.41600, 10111.36
99.64900, 12829.52
100.8830, 17126.40
102.1160, 25728.99
103.3490, 40433.27
104.5820, 58831.22
105.8150, 62748.88
107.0470, 53622.24
108.2800, 36631.36
109.5120, 31040.21
110.7440, 16157.81
111.9760, 10621.14
113.2080, 8294.185
114.4400, 7559.913
115.6710, 7426.298
116.9030, 6637.316
118.1340, 5936.939
119.3650, 5291.147
120.5960, 4980.916
121.8270, 5035.227
123.0580, 5059.062
124.2880, 5813.400
125.5190, 5310.129
126.7490, 4960.950
127.9790, 4221.850
129.2090, 3799.808
130.4390, 3718.827
131.6680, 3584.839
132.8980, 3208.898
134.1270, 3122.107
135.3560, 3150.493
136.5850, 3285.072
137.8140, 3493.856
139.0430, 3361.834
140.2710, 3605.075
141.5000, 3167.524
142.7280, 2881.209
143.9560, 2793.134
145.1840, 2596.302
146.4120, 2600.615
147.6390, 2550.167
148.8670, 2752.284
150.0940, 2640.442
151.3210, 2848.849
152.5490, 3077.506
153.7750, 2760.481
155.0020, 2661.843
156.2290, 2611.672
157.4550, 2456.042
158.6810, 2489.046
159.9080, 2624.749
161.1340, 2810.172
162.3590, 3193.247
163.5850, 3630.997
164.8110, 3963.014
166.0360, 4533.341
167.2610, 4790.868
168.4860, 5259.830
169.7110, 5688.190
170.9360, 6354.847
172.1610, 7045.685
173.3850, 8254.724
174.6100, 10771.97
175.8340, 14855.37
177.0580, 22884.89
178.2820, 35055.52
179.5050, 44928.29
180.7290, 40303.15
181.9520, 27488.15
183.1760, 16982.26
184.3990, 11297.49
185.6220, 8598.827
186.8450, 7685.281
188.0670, 8963.844
189.2900, 15264.51
190.5120, 11761.29
191.7340, 15493.18
192.9560, 16416.17
194.1780, 13094.27
195.4000, 9505.462
196.6220, 7109.757
197.8430, 6010.152
199.0640, 5505.887
200.2860, 6127.495
201.5070, 6718.944
202.7270, 6199.138
203.9480, 5117.299
205.1690, 3593.996
206.3890, 2864.802
207.6090, 2487.983
208.8290, 2306.251
210.0490, 2143.991
211.2690, 2262.483
212.4890, 2127.444
213.7080, 2252.000
214.9280, 2231.932
216.1470, 2226.234
217.3660, 2232.889
218.5850, 2387.881
219.8030, 2715.200
221.0220, 3271.832
222.2400, 3860.765
223.4590, 4499.988
224.6770, 4094.495
225.8950, 3172.274
227.1120, 2424.316
228.3300, 2079.615
229.5480, 1715.160
230.7650, 1595.947
231.9820, 1469.967
233.1990, 1378.212
234.4160, 1425.678
235.6330, 1263.355
236.8490, 1348.241
238.0660, 1230.329
239.2820, 1264.177
240.4980, 1215.121
241.7140, 1356.756
242.9300, 1181.606
244.1460, 1259.637
245.3610, 1403.844
246.5770, 1363.225
247.7920, 1364.774
249.0070, 1442.491
250.2220, 1445.373
251.4370, 1357.414
252.6510, 1356.612
253.8660, 1493.781
255.0800, 1430.394
256.2940, 1550.155
257.5080, 1936.970
258.7220, 2598.906
259.9360, 2299.157
261.1490, 2581.521
262.3630, 1896.720
263.5760, 1698.365
264.7890, 1452.728
266.0020, 1366.957
267.2150, 1342.454
268.4270, 1429.340
269.6400, 1257.083
270.8520, 1293.506
272.0640, 1453.712
273.2760, 1395.228
274.4880, 1458.905
275.7000, 1539.083
276.9120, 1673.701
278.1230, 1521.714
279.3340, 1618.635
280.5450, 1676.737
281.7560, 1795.745
282.9670, 1944.801
284.1780, 2109.747
285.3880, 2123.767
286.5980, 2398.020
287.8090, 2463.475
289.0190, 2658.792
290.2290, 2767.997
291.4380, 2906.391
292.6480, 3097.482
293.8570, 3245.625
295.0670, 3430.027
296.2760, 3560.883
297.4850, 3824.985
298.6930, 4037.161
299.9020, 4458.410
301.1110, 4644.729
302.3190, 5328.119
303.5270, 5912.575
304.7350, 6865.096
305.9430, 7832.679
307.1510, 8575.317
308.3580, 9073.011
309.5660, 8726.757
310.7730, 7970.553
311.9800, 7026.393
313.1870, 6070.277
314.3940, 5727.206
315.6010, 4818.173
316.8070, 4358.178
318.0130, 4134.222
319.2200, 3963.304
320.4260, 4042.420
321.6310, 4114.572
322.8370, 4369.757
324.0430, 4690.978
325.2480, 5233.232
326.4540, 5886.521
327.6590, 6749.840
328.8640, 8064.193
330.0680, 9749.577
331.2730, 12481.99
332.4780, 15346.44
333.6820, 17532.92
334.8860, 17279.42
336.0900, 14351.96
337.2940, 11025.53
338.4980, 8116.121
339.7010, 6180.743
340.9050, 5002.395
342.1080, 4432.073
343.3110, 4189.778
344.5140, 4231.560
345.7170, 4535.417
346.9200, 4888.349
348.1220, 5276.359
349.3240, 5187.447
350.5270, 4317.614
351.7290, 3263.861
352.9310, 2727.185
354.1320, 1988.590
355.3340, 1607.089
356.5350, 1097.673
357.7370, 846.3389
358.9380, 840.0776
360.1390, 676.8809
361.3400, 631.7471
362.5400, 589.6748
363.7410, 599.6621
364.9410, 647.7080
366.1410, 456.8105
367.3410, 581.9688
368.5410, 618.1812
369.7410, 767.4463
370.9400, 981.7637
372.1400, 1041.131
373.3390, 1347.548
374.5380, 1837.013
375.7370, 2379.525
376.9360, 3476.084
378.1350, 4457.687
379.3330, 5198.336
380.5310, 4989.026
381.7300, 4512.759
382.9280, 3659.535
384.1260, 2997.350
385.3230, 2351.205
386.5210, 1989.100
387.7180, 1510.032
388.9160, 1157.001
390.1130, 808.0083
391.3100, 514.0508
392.5060, 440.1279
393.7030, 259.2402
394.9000, 182.3862
396.0960, 77.56543
397.2920, 40.22217
398.4880, 24.01172
399.6840, 61.79736
400.8800, 132.5967
402.0750, 148.4438
403.2710, 112.3472
404.4660, 184.2920
405.6610, 302.3120
406.8560, 235.4648
408.0510, 313.7192
409.2450, 341.5630
410.4400, 325.2246
411.6340, 379.3677
412.8280, 339.2456
414.0220, 296.2822
415.2160, 323.4570
416.4100, 359.7842
417.6030, 325.4072
418.7970, 296.9365
419.9900, 318.7329
421.1830, 288.6821
422.3760, 335.7705
423.5690, 234.0210
424.7610, 298.3857
425.9540, 137.8955
427.1460, 170.4741
428.3380, 188.1362
429.5300, 116.8906
430.7220, 118.7056
431.9140, 39.41846
433.1050, 0.1040040
434.2970, 42.68115
435.4880, 5.819824
436.6790, 49.04639
437.8700, 3.057129
439.0610, 3.845703
440.2510, 77.24121
441.4420, 163.3486
442.6320, 152.4224
443.8220, 342.6357
445.0120, 191.8154
446.2020, 131.0186
447.3910, 192.2461
448.5810, 242.4966
449.7700, 241.7705
450.9600, 397.0684
452.1490, 347.3896
453.3370, 541.7344
454.5260, 435.1025
455.7150, 663.4941
456.9030, 694.9092
458.0910, 957.3486
459.2800, 1058.811
460.4670, 1204.297
461.6550, 1547.808
462.8430, 1764.341
464.0300, 2277.899
465.2180, 2837.481
466.4050, 3386.087
467.5920, 4222.717
468.7790, 5341.372
469.9650, 6808.049
471.1520, 8524.752
472.3380, 11167.48
473.5250, 13867.23
474.7110, 16553.01
475.8970, 17747.81
477.0820, 17045.64
478.2680, 14720.49
479.4540, 11869.36
480.6390, 9331.265
481.8240, 6986.191
483.0090, 5488.142
484.1940, 4366.119
485.3780, 3931.120
486.5630, 3040.147
487.7470, 2609.201
488.9320, 2334.280
490.1160, 2284.383
491.3000, 2154.273
492.4830, 2082.665
493.6670, 2263.843
494.8500, 2352.045
496.0340, 2546.272
497.2170, 2937.524
498.4000, 3413.798
499.5820, 4163.096
500.7650, 5069.420
501.9480, 5426.766
503.1300, 5175.136
504.3120, 4564.527
505.4940, 3630.942
506.6760, 2915.381
507.8580, 2182.844
509.0390, 1769.329
510.2210, 1247.836
511.4020, 1127.367
512.5830, 983.9209
513.7640, 861.4971
514.9450, 824.0972
516.1250, 717.7192
517.3060, 742.3643
518.4860, 592.0322
519.6660, 624.7231
520.8460, 662.4370
522.0260, 766.1743
523.2060, 665.9346
524.3850, 725.7192
525.5650, 757.5303
526.7440, 942.3643
527.9230, 995.2207
529.1020, 1166.101
530.2810, 1278.007
531.4590, 1549.940
532.6380, 2009.902
533.8160, 2363.901
534.9940, 3043.923
536.1720, 3705.980
537.3500, 4416.062
538.5270, 4983.191
539.7050, 5016.558
540.8820, 4510.686
542.0590, 3659.847
543.2360, 2907.135
544.4130, 2451.485
545.5900, 2108.753
546.7660, 1814.067
547.9430, 1740.762
549.1190, 1696.174
550.2950, 1717.522
551.4710, 1836.188
552.6470, 1928.267
553.8220, 2244.129
554.9980, 2314.293
556.1730, 2848.950
557.3480, 2955.979
558.5230, 3117.861
559.6980, 3048.746
560.8730, 2669.328
562.0470, 2273.637
563.2220, 2042.724
564.3960, 1713.075
565.5700, 1503.399
566.7440, 1279.979
567.9170, 980.6616
569.0910, 911.6162
570.2640, 905.6650
571.4380, 668.6523
572.6110, 699.6079
573.7840, 610.8398
574.9570, 564.3242
576.1290, 463.7617
577.3020, 423.6372
578.4740, 415.6152
579.6460, 360.4897
580.8180, 358.0610
581.9900, 452.5264
583.1620, 348.0508
584.3330, 460.6348
585.5040, 368.2783
586.6760, 396.9785
587.8470, 444.7412
589.0180, 504.5586
590.1880, 642.4292
591.3590, 607.3535
592.5290, 700.3340
593.7000, 810.3696
594.8700, 987.4600
596.0400, 1164.605
597.2090, 1370.580
598.3790, 1594.048
599.5490, 1855.358
600.7180, 2188.720
601.8870, 2484.146
603.0560, 3031.624
604.2250, 3518.162
605.3940, 4010.752
606.5620, 4723.400
607.7300, 5623.101
608.8990, 6526.857
610.0670, 7567.528
611.2350, 8942.531
612.4020, 9882.447
613.5700, 11209.42
614.7370, 12534.45
615.9050, 13102.52
617.0720, 13506.65
618.2390, 12983.84
619.4060, 12582.08
620.5720, 11771.37
621.7390, 11349.71
622.9050, 11043.10
624.0710, 10994.55
625.2370, 11559.04
626.4030, 12569.59
627.5690, 13822.19
628.7340, 15503.84
629.9000, 17898.54
631.0650, 20734.29
632.2300, 24502.10
633.3950, 28598.95
634.5600, 33218.87
635.7240, 37155.81
636.8890, 40079.82
638.0530, 41203.87
639.2170, 39789.98
640.3810, 37000.14
641.5450, 32196.34
642.7080, 27297.60
643.8720, 22997.90
645.0350, 19315.26
646.1980, 15882.65
647.3610, 13200.11
648.5240, 11226.61
649.6870, 9566.159
650.8490, 8264.757
652.0120, 7000.404
653.1740, 6180.099
654.3360, 5349.844
655.4980, 4735.636
656.6600, 4265.677
657.8210, 3767.120
658.9830, 3402.528
660.1440, 3105.368
661.3050, 2791.400
662.4660, 2582.480
663.6270, 2320.880
664.7870, 2203.540
665.9480, 1953.762
667.1080, 1904.031
668.2680, 1765.347
669.4280, 1679.160
670.5880, 1616.221
671.7480, 1541.531
672.9070, 1593.780
674.0670, 1475.327
675.2260, 1383.351
676.3850, 1355.089
677.5440, 1241.119
678.7030, 1239.195
679.8610, 1207.125
681.0200, 1298.414
682.1780, 1277.137
683.3360, 1323.530
684.4940, 1267.169
685.6520, 1316.510
686.8090, 1306.464
687.9670, 1307.520
689.1240, 1306.302
690.2810, 1312.066
691.4380, 1352.004
692.5950, 1570.689
693.7520, 1478.458
694.9080, 1477.953
696.0650, 1718.319
697.2210, 1622.283
698.3770, 1833.470
699.5330, 1791.718
700.6880, 2009.834
701.8440, 2054.619
702.9990, 2301.431
704.1550, 2249.771
705.3100, 2408.952
706.4650, 2468.983
707.6190, 2430.708
708.7740, 2362.076
709.9290, 2459.216
711.0830, 2441.612
712.2370, 2321.438
713.3910, 2232.648
714.5450, 2074.054
715.6980, 1894.275
716.8520, 1812.279
718.0050, 1661.848
719.1580, 1527.725
720.3110, 1365.775
721.4640, 1272.540
722.6170, 1167.031
723.7700, 1086.541
724.9220, 1053.353
726.0740, 844.5913
727.2260, 842.9883
728.3780, 714.3413
729.5300, 741.6929
730.6810, 734.5918
731.8330, 679.3530
732.9840, 654.0156
734.1350, 596.5723
735.2860, 657.9336
736.4370, 736.4595
737.5880, 731.8804
738.7380, 659.9658
739.8880, 747.1084
741.0390, 733.4502
742.1890, 807.2275
743.3380, 771.6665
744.4880, 840.4482
745.6380, 940.9409
746.7870, 854.1860
747.9360, 979.5825
749.0850, 998.4668
750.2340, 976.0054
751.3830, 1084.877
752.5310, 1071.196
753.6800, 1113.875
754.8280, 1081.381
755.9760, 1148.852
757.1240, 1085.547
758.2720, 1191.253
759.4190, 1041.780
760.5670, 1018.279
761.7140, 909.7866
762.8610, 843.3003
764.0080, 866.1387
765.1550, 845.6650
766.3020, 758.7744
767.4480, 632.3101
768.5950, 686.8516
769.7410, 517.6128
770.8870, 507.0747
772.0330, 505.7139
773.1780, 433.2690
774.3240, 409.8267
775.4690, 393.3872
776.6140, 383.9497
777.7590, 376.5127
778.9040, 381.0771
780.0490, 324.6426
781.1940, 294.2080
782.3380, 295.7734
783.4820, 248.3384
784.6260, 235.9019
785.7700, 229.4648
786.9140, 92.02539
788.0580, 153.5845
789.2010, 202.1406
790.3450, 268.6943
791.4880, 131.2441
792.6310, 164.7910
793.7730, 20.33301
794.9160, 84.87109
796.0590, 119.4043
797.2010, 3.067871
798.3430, 127.4536
799.4850, 47.22998
800.6270, 13.52197
801.7690, 21.02393
802.9100, 86.46045
804.0520, 61.93799
805.1930, 56.40723
806.3340, 15.13135
807.4750, 18.68555
808.6160, 21.25781
809.7560, 51.85059
810.8970, 35.65381
812.0370, 42.98682
813.1770, 5.338867
814.3170, 89.34961
815.4570, 120.0981
816.5960, 98.92383
817.7360, 34.81787
818.8750, 36.74854
820.0140, 67.71777
821.1530, 161.7432
822.2920, 169.8750
823.4310, 123.1201
824.5690, 18.45410
825.7070, 24.82373
826.8460, 48.23535
827.9840, 145.7012
829.1220, 74.27490
830.2590, 39.91895
831.3970, 95.61914
832.5340, 26.40430
833.6710, 64.24023
834.8080, 64.14844
835.9450, 189.1304
837.0820, 56.25293
838.2190, 95.44727
839.3550, 76.73682
840.4910, 18.11084
841.6270, 44.54150
842.7630, 8.956055
843.8990, 47.59131
845.0350, 71.21289
846.1700, 80.92334
847.3060, 82.72852
848.4410, 57.36816
849.5760, 29.34180
850.7100, 22.78809
851.8450, 69.43311
852.9800, 35.62256
854.1140, 42.75439
855.2480, 22.96729
856.3820, 9.749023
857.5160, 59.41016
858.6500, 35.03369
859.7830, 36.61133
860.9170, 66.28320
862.0500, 22.63770
863.1830, 103.0796
864.3160, 112.4873
865.4480, 116.8599
866.5810, 77.19922
867.7130, 88.49902
868.8460, 99.92432
869.9780, 111.9858
871.1100, 145.1748
872.2410, 121.3296
873.3730, 142.4482
874.5050, 86.53271
875.6360, 21.57666
876.7670, 177.5610
877.8980, 60.51074
879.0290, 164.4136
880.1590, 64.28223
881.2900, 161.1035
882.4200, 94.88965
883.5500, 201.6333
884.6800, 126.3433
885.8100, 168.0137
886.9400, 71.64844
888.0690, 208.2349
889.1990, 174.7871
890.3280, 191.3037
891.4570, 98.78418
892.5860, 165.2207
893.7140, 166.6201
894.8430, 199.9810
895.9710, 306.3066
897.1000, 277.6318
898.2280, 284.8516
899.3560, 164.0708
900.4830, 425.2510
901.6110, 142.3950
902.7380, 221.4985
903.8660, 363.5659
904.9930, 184.5967
906.1200, 277.5898
907.2460, 326.5469
908.3730, 308.4678
909.5000, 313.3521
910.6260, 267.1997
911.7520, 366.0107
912.8780, 306.7861
914.0040, 298.5249
915.1290, 358.2271
916.2550, 319.8931
917.3800, 429.5229
918.5050, 394.1167
919.6300, 391.6729
920.7550, 298.1924
921.8800, 263.6782
923.0040, 327.1274
924.1290, 303.5391
925.2530, 337.9141
926.3770, 258.2520
927.5010, 431.5552
928.6250, 323.8213
929.7480, 382.0747
930.8720, 398.2920
931.9950, 326.4756
933.1180, 362.5513
934.2410, 287.6704
935.3640, 399.7568
936.4860, 385.5332
937.6090, 284.0601
938.7310, 273.0347
939.8530, 371.9731
940.9750, 342.8745
942.0970, 439.2876
943.2180, 296.4629
944.3400, 391.3994
945.4610, 227.0273
946.5820, 363.9453
947.7030, 440.3301
948.8240, 464.0615
949.9450, 263.0151
951.0650, 343.3921
952.1860, 311.3447
953.3060, 278.2993
954.4260, 403.1641
955.5460, 234.6567
956.6650, 349.0332
957.7850, 347.4233
958.9040, 401.3843
960.0230, 323.0479
961.1420, 302.8535
962.2610, 256.1289
963.3800, 302.1504
964.4990, 278.5210
965.6170, 229.9165
966.7350, 289.6860
967.8530, 246.6729
968.9710, 293.1602
970.0890, 275.4961
971.2070, 308.9331
972.3240, 272.5601
973.4410, 175.6128
974.5580, 247.7290
975.6750, 177.4150
976.7920, 283.3364
977.9090, 327.4980
979.0250, 273.0522
980.1410, 221.0229
981.2580, 263.2842
982.3740, 304.3359
983.4890, 203.6606
984.6050, 268.2476
985.7200, 277.4912
986.8360, 331.8462
987.9510, 302.4365
989.0660, 332.5146
990.1810, 280.7485
991.2950, 304.9351
992.4100, 308.8584
993.5240, 277.0576
994.6390, 301.2393
995.7530, 312.1196
996.8660, 252.5742
997.9800, 317.8706
999.0940, 284.2119
1000.207, 352.5562
1001.320, 276.3525
1002.433, 369.2861
1003.546, 349.3184
1004.659, 286.4570
1005.772, 299.7881
1006.884, 345.9546
1007.996, 375.2241
1009.108, 336.8281
1010.220, 350.3735
1011.332, 339.5190
1012.444, 277.6230
1013.555, 313.8643
1014.666, 314.7612
1015.777, 293.9434
1016.888, 313.3696
1017.999, 241.6426
1019.110, 320.4224
1020.220, 275.5454
1021.331, 269.3315
1022.441, 294.5459
1023.551, 206.6353
1024.661, 214.7739
1025.770, 328.9424
1026.880, 218.8818
1027.989, 188.8042
1029.098, 298.9019
1030.207, 237.0200
1031.316, 241.1245
1032.425, 362.2158
1033.533, 279.1270
1034.642, 332.0449
1035.750, 196.5293
1036.858, 354.5791
1037.966, 275.6167
1039.073, 290.4272
1040.181, 221.4424
1041.288, 254.4463
1042.396, 244.4395
1043.503, 277.4219
1044.610, 293.3931
1045.716, 272.3530
1046.823, 168.3276
1047.929, 354.2979
1049.036, 306.3066
1050.142, 535.3452
1051.248, 255.2544
1052.353, 277.1533
1053.459, 185.0435
1054.564, 239.4707
1055.670, 309.3413
1056.775, 306.2036
1057.880, 352.0698
1058.985, 234.9141
1060.089, 246.0596
1061.194, 321.8931
1062.298, 241.5527
1063.402, 306.2817
1064.506, 364.0269
1065.610, 350.9365
1066.713, 290.7295
1067.817, 287.1919
1068.920, 196.9692
1070.023, 323.7422
1071.126, 209.5107
1072.229, 246.2725
1073.332, 172.0264
1074.435, 214.7749
1075.537, 209.4849
1076.639, 244.2632
1077.741, 241.0073
1078.843, 243.9365
1079.945, 217.4082
1081.046, 231.1855
1082.148, 201.2471
1083.249, 172.0156
1084.350, 198.0205
1085.451, 254.6318
1086.551, 253.4590
1087.652, 221.2993
1088.752, 279.1558
1089.853, 239.0547
1090.953, 330.9976
1092.053, 186.9741
1093.152, 257.9575
1094.252, 191.9487
1095.351, 195.9556
1096.451, 194.0034
1097.550, 181.0747
1098.649, 105.1597
1099.748, 146.2749
1100.846, 129.4023
1101.945, 98.55225
1103.043, 141.7256
1104.141, 136.9551
1105.239, 206.2070
1106.337, 230.5605
1107.434, 158.9951
1108.532, 167.4922
1109.629, 135.8745
1110.726, 230.1099
1111.823, 134.6138
1112.920, 229.0190
1114.017, 203.6348
1115.113, 326.9971
1116.210, 180.6226
1117.306, 232.2573
1118.402, 194.7993
1119.498, 98.27832
1120.593, 252.0859
1121.689, 250.6167
1122.784, 264.1597
1123.879, 236.7124
1124.974, 240.2671
1126.069, 239.8271
1127.164, 201.5342
1128.259, 250.9609
1129.353, 147.5371
1130.447, 130.1133
1131.541, 137.6904
1132.635, 164.2666
1133.729, 155.8452
1134.822, 80.42480
1135.916, 99.00684
1137.009, 119.5889
1138.102, 143.1709
1139.195, 152.7534
1140.288, 139.3359
1141.380, 109.9219
1142.473, 138.5200
1143.565, 99.11768
1144.657, 172.7222
1145.749, 134.3267
1146.841, 83.93701
1147.932, 212.5479
1149.024, 179.1626
1150.115, 53.77734
1151.206, 60.39404
1152.297, 44.07324
1153.388, 103.8623
1154.479, 108.4873
1155.569, 99.53809
1156.659, 118.4849
1157.750, 87.39209
1158.839, 94.09717
1159.929, 117.8062
1161.019, 66.44092
1162.108, 47.07617
1163.198, 52.11914
1164.287, 48.62842
1165.376, 66.26660
1166.465, 29.49414
1167.553, 67.13672
1168.642, 127.7793
1169.730, 108.6309
1170.818, 36.32764
1171.906, 149.9741
1172.994, 69.82422
1174.082, 54.49658
1175.170, 45.14648
1176.257, 49.79688
1177.344, 24.47461
1178.431, 23.18018
1179.518, 11.75488
1180.605, 2.408203
1181.691, 56.06152
1182.778, 42.71680
1183.864, 37.37354
1184.950, 12.96924
1186.036, 66.68457
1187.122, 102.3389
1188.207, 28.99561
1189.292, 158.7197
1190.378, 5.497559
1191.463, 92.18896
1192.548, 99.15283
1193.632, 31.45703
1194.717, 17.93164
1195.801, 39.32764
1196.886, 42.25977
1197.970, 14.15137
1199.054, 109.4321
1200.137, 69.01758
1201.221, 109.6050
1202.305, 96.19336
1203.388, 42.78369
1204.471, 67.38428
1205.554, 46.24072
1206.637, 38.56396
1207.719, 85.58691
1208.802, 28.18506
1209.884, 132.8047
1210.966, 31.40625
1212.048, 87.92969
1213.130, 82.62939
1214.212, 69.28955
1215.293, 56.87549
1216.374, 38.43896
1217.456, 129.1562
1218.536, 102.7222
1219.617, 140.2891
1220.698, 50.85693
1221.778, 93.44336
1222.859, 99.13818
1223.939, 153.7070
1225.019, 202.2769
1226.099, 160.8550
1227.178, 91.42480
1228.258, 100.0195
1229.337, 70.59375
1230.417, 95.16699
1231.496, 124.7402
1232.574, 73.40381
1233.653, 70.97656
1234.732, 57.54932
1235.810, 26.12012
1236.888, 13.69043
1237.966, 6.258301
1239.044, 34.83252
1240.122, 124.1528
1241.199, 13.15625
