##NAMES=Baddeleyite
##RRUFFID=R060016
##IDEAL CHEMISTRY=Zr^4+^O_2_
##LOCALITY=Wet Loo, Myanmar
##OWNER=RRUFF
##SOURCE=American Museum of Natural History
##DESCRIPTION=Brown crystal fragment
##STATUS=The identification of this mineral has been confirmed by X-ray diffraction and chemical analysis
##URL=rruff.info/R060016
##MEASURED CHEMISTRY=(Zr_0.99_Ti_0.01_)_Î£=1_O_2_
##PIN_ID=M00268
##ORIENTATION=Laser parallel to b* (0 1 0). Fiducial mark perpendicular to laser is parallel to -c [0 0 -1]
129.5460, 0.0000000E+00
130.7790, 59.18457
132.0110, 109.9023
133.2430, 26.09912
134.4750, 2.800293
135.7070, 19.70850
136.9380, 94.39209
138.1700, 72.47705
139.4010, 94.17334
140.6330, 52.92334
141.8640, 51.26758
143.0950, 27.80078
144.3250, 105.8350
145.5560, 37.04346
146.7860, 128.1558
148.0160, 36.29736
149.2470, 140.3491
150.4760, 200.1948
151.7060, 267.7036
152.9360, 337.7368
154.1650, 484.7173
155.3950, 761.8501
156.6240, 859.6885
157.8530, 1079.570
159.0820, 1388.399
160.3100, 1917.088
161.5390, 2272.561
162.7670, 2846.743
163.9950, 3984.605
165.2230, 5472.261
166.4510, 7689.845
167.6790, 9855.372
168.9060, 12053.76
170.1340, 14069.93
171.3610, 17686.78
172.5880, 23494.22
173.8150, 29448.19
175.0420, 34076.62
176.2690, 36504.47
177.4950, 37084.69
178.7210, 35178.23
179.9470, 31259.08
181.1730, 24961.19
182.3990, 18435.52
183.6250, 13194.08
184.8500, 10623.82
186.0760, 10089.73
187.3010, 10371.79
188.5260, 10475.98
189.7510, 10240.29
190.9750, 9728.706
192.2000, 8798.212
193.4240, 7180.796
194.6490, 5568.448
195.8730, 4037.159
197.0970, 2879.175
198.3200, 2182.181
199.5440, 1947.746
200.7670, 1768.008
201.9910, 1683.738
203.2140, 1609.521
204.4370, 1452.713
205.6590, 1327.129
206.8820, 1385.500
208.1050, 1412.692
209.3270, 1384.651
210.5490, 1446.382
211.7710, 1646.891
212.9930, 1570.184
214.2150, 1893.274
215.4360, 1911.178
216.6570, 2188.905
217.8790, 2475.466
219.1000, 2705.871
220.3210, 2745.126
221.5410, 2580.241
222.7620, 2541.222
223.9820, 2232.072
225.2030, 1895.799
226.4230, 1571.405
227.6430, 1296.896
228.8620, 1128.275
230.0820, 1058.544
231.3010, 848.7065
232.5210, 805.7666
233.7400, 865.7261
234.9590, 825.5859
236.1780, 957.3496
237.3960, 1013.019
238.6150, 1027.596
239.8330, 1005.081
241.0510, 1012.474
242.2690, 1140.775
243.4870, 1157.985
244.7050, 1323.104
245.9230, 1289.132
247.1400, 1353.070
248.3570, 1461.919
249.5740, 1420.678
250.7910, 1480.348
252.0080, 1467.930
253.2240, 1520.425
254.4410, 1546.833
255.6570, 1631.155
256.8730, 1661.391
258.0890, 1751.542
259.3050, 1644.609
260.5210, 1630.594
261.7360, 1569.495
262.9510, 1382.595
264.1670, 1360.732
265.3820, 1421.173
266.5960, 1387.736
267.8110, 1486.391
269.0260, 1411.489
270.2400, 1462.219
271.4540, 1653.583
272.6680, 1774.855
273.8820, 1778.063
275.0960, 1998.326
276.3090, 2059.328
277.5230, 2222.820
278.7360, 2400.152
279.9490, 2505.862
281.1620, 2686.891
282.3750, 2998.768
283.5880, 3165.475
284.8000, 3367.665
286.0120, 3711.320
287.2240, 3831.685
288.4360, 4135.636
289.6480, 4411.301
290.8600, 4740.470
292.0710, 4997.380
293.2830, 5422.395
294.4940, 5894.926
295.7050, 6291.703
296.9160, 6991.978
298.1260, 7601.323
299.3370, 8200.730
300.5470, 9087.191
301.7580, 9993.704
302.9680, 10633.26
304.1770, 11195.86
305.3870, 11467.48
306.5970, 11585.14
307.8060, 11237.83
309.0150, 10614.53
310.2250, 9426.261
311.4340, 8645.999
312.6420, 7731.751
313.8510, 7108.509
315.0590, 6604.270
316.2680, 6427.028
317.4760, 6346.782
318.6840, 6553.528
319.8920, 6802.263
321.0990, 7371.986
322.3070, 8234.696
323.5140, 9236.388
324.7210, 10048.06
325.9280, 11324.71
327.1350, 12500.35
328.3420, 13969.96
329.5490, 15096.55
330.7550, 16046.11
331.9610, 16102.65
333.1670, 15511.16
334.3730, 13906.65
335.5790, 12419.11
336.7840, 10597.54
337.9900, 8933.949
339.1950, 7939.325
340.4000, 7161.672
341.6050, 7013.990
342.8100, 6931.277
344.0150, 7219.527
345.2190, 7106.737
346.4230, 6869.896
347.6280, 6375.999
348.8320, 5752.039
350.0350, 5007.018
351.2390, 4009.931
352.4430, 3058.781
353.6460, 2368.567
354.8490, 1848.292
356.0520, 1510.955
357.2550, 1229.557
358.4580, 1095.100
359.6600, 1038.584
360.8630, 917.0117
362.0650, 887.3818
363.2670, 911.6963
364.4690, 1011.955
365.6710, 1173.160
366.8720, 1390.310
368.0740, 1736.408
369.2750, 2200.454
370.4760, 2514.446
371.6770, 3054.389
372.8780, 3617.280
374.0780, 4537.121
375.2790, 5074.914
376.4790, 5520.654
377.6790, 5476.349
378.8790, 5453.996
380.0790, 4737.593
381.2790, 4098.145
382.4780, 3312.650
383.6780, 2487.109
384.8770, 1949.523
386.0760, 1480.892
387.2750, 1064.216
388.4730, 893.4961
389.6720, 672.7329
390.8700, 526.9268
392.0690, 337.0786
393.2670, 325.1885
394.4650, 46.25732
395.6620, 22.26807
396.8600, 86.78467
398.0570, 11.92822
399.2550, 155.1421
400.4520, 158.4644
401.6490, 200.8931
402.8450, 231.4404
404.0420, 219.1118
405.2390, 317.9043
406.4350, 353.8428
407.6310, 325.9536
408.8270, 283.2915
410.0230, 296.1597
411.2190, 280.4341
412.4140, 286.9287
413.6090, 292.4810
414.8050, 306.3799
416.0000, 324.6133
417.1940, 258.1807
418.3890, 269.0708
419.5840, 262.2529
420.7780, 291.6323
421.9720, 247.2202
423.1660, 225.9917
424.3600, 112.9331
425.5540, 62.98145
426.7480, 32.11426
427.9410, 25.76123
429.1340, 1.454590
430.3270, 97.17578
431.5200, 33.88232
432.7130, 82.56152
433.9060, 25.77393
435.0980, 138.8481
436.2900, 190.4551
437.4830, 101.0464
438.6750, 174.6216
439.8660, 196.1816
441.0580, 252.7266
442.2500, 254.2563
443.4410, 274.7705
444.6320, 303.2695
445.8230, 444.7529
447.0140, 435.2207
448.2050, 580.6743
449.3950, 649.1133
450.5860, 763.5386
451.7760, 844.9497
452.9660, 1073.346
454.1560, 1157.729
455.3450, 1269.099
456.5350, 1574.456
457.7240, 1850.800
458.9140, 2191.132
460.1030, 2689.452
461.2920, 3098.759
462.4810, 3873.057
463.6690, 4710.342
464.8580, 5976.618
466.0460, 7258.884
467.2340, 8676.140
468.4220, 10215.39
469.6100, 11930.62
470.7970, 13649.86
471.9850, 15204.08
473.1720, 16006.29
474.3590, 16340.50
475.5460, 15296.71
476.7330, 13725.90
477.9200, 11787.10
479.1060, 9943.284
480.2930, 8097.466
481.4790, 6416.644
482.6650, 5323.820
483.8510, 4455.993
485.0370, 3816.163
486.2220, 3398.332
487.4080, 3174.499
488.5930, 2888.667
489.7780, 3081.833
490.9630, 3036.000
492.1480, 3294.167
493.3320, 3541.338
494.5170, 3825.510
495.7010, 4122.685
496.8850, 4548.863
498.0690, 4935.047
499.2530, 5086.236
500.4360, 5017.399
501.6200, 4765.628
502.8030, 4388.836
503.9860, 3848.052
505.1690, 3132.273
506.3520, 2732.505
507.5350, 2146.745
508.7170, 1797.996
509.9000, 1494.256
511.0820, 1277.529
512.2640, 1152.812
513.4460, 1070.109
514.6270, 1052.417
515.8090, 923.7407
516.9900, 937.0771
518.1710, 935.4292
519.3530, 913.7959
520.5330, 1047.179
521.7140, 1008.578
522.8950, 1093.994
524.0750, 1380.428
525.2550, 1477.880
526.4350, 1704.356
527.6150, 1855.852
528.7950, 2311.369
529.9750, 2582.906
531.1540, 2877.467
532.3340, 3437.060
533.5130, 3917.680
534.6920, 4270.323
535.8700, 4518.839
537.0490, 4763.727
538.2280, 4589.281
539.4060, 4377.110
540.5840, 3923.716
541.7620, 3538.431
542.9400, 3214.047
544.1180, 2809.135
545.2950, 2624.419
546.4720, 2640.600
547.6500, 2728.708
548.8270, 2751.684
550.0040, 2807.533
551.1800, 3309.201
552.3570, 3510.205
553.5330, 3634.355
554.7090, 3884.243
555.8850, 3871.954
557.0610, 3835.999
558.2370, 3593.095
559.4130, 3379.581
560.5880, 3121.613
561.7630, 2692.303
562.9380, 2298.424
564.1130, 2075.579
565.2880, 1817.349
566.4630, 1663.478
567.6370, 1488.005
568.8120, 1360.756
569.9860, 1299.347
571.1600, 1132.751
572.3330, 1117.714
573.5070, 992.3345
574.6810, 1070.451
575.8540, 1020.182
577.0270, 928.4375
578.2000, 812.7881
579.3730, 912.2119
580.5460, 936.7256
581.7180, 963.3403
582.8910, 1088.037
584.0630, 1062.805
585.2350, 1097.659
586.4070, 1261.587
587.5780, 1355.606
588.7500, 1461.712
589.9210, 1548.891
591.0930, 1750.159
592.2640, 1919.506
593.4350, 2173.929
594.6050, 2530.427
595.7760, 2732.000
596.9460, 3247.649
598.1170, 3697.382
599.2870, 4292.191
600.4570, 4818.088
601.6260, 5570.060
602.7960, 6301.121
603.9650, 7340.266
605.1350, 8428.488
606.3040, 9513.793
607.4730, 10672.59
608.6420, 11997.63
609.8100, 13044.18
610.9790, 14310.81
612.1470, 15515.52
613.3150, 16237.32
614.4830, 16837.19
615.6510, 17215.15
616.8190, 17476.18
617.9860, 17523.29
619.1540, 17921.48
620.3210, 18019.75
621.4880, 18945.09
622.6550, 20283.51
623.8220, 22099.01
624.9880, 24877.59
626.1550, 27834.26
627.3210, 31638.00
628.4870, 36013.82
629.6530, 41201.73
630.8190, 46131.70
631.9840, 51231.76
633.1500, 55562.91
634.3150, 58816.11
635.4800, 59683.42
636.6450, 59685.78
637.8100, 58178.23
638.9740, 54075.76
640.1390, 48732.37
641.3030, 43064.05
642.4670, 37083.82
643.6310, 31503.66
644.7950, 26511.59
645.9590, 22381.59
647.1220, 19069.67
648.2850, 16117.83
649.4490, 13949.07
650.6120, 11922.38
651.7740, 10413.78
652.9370, 9139.257
654.1000, 8195.812
655.2620, 7191.443
656.4240, 6636.155
657.5860, 5987.945
658.7480, 5347.813
659.9100, 4865.761
661.0710, 4315.788
662.2330, 4076.893
663.3940, 3845.075
664.5550, 3584.338
665.7160, 3312.725
666.8770, 3232.144
668.0370, 3119.871
669.1980, 2923.446
670.3580, 2753.288
671.5180, 2607.083
672.6780, 2521.865
673.8380, 2453.751
674.9970, 2389.240
676.1570, 2353.087
677.3160, 2310.772
678.4750, 2264.562
679.6340, 2282.846
680.7930, 2229.697
681.9520, 2192.288
683.1100, 2289.792
684.2680, 2258.923
685.4270, 2314.066
686.5850, 2339.306
687.7420, 2351.946
688.9000, 2459.255
690.0580, 2548.744
691.2150, 2586.475
692.3720, 2699.702
693.5290, 2796.877
694.6860, 2898.604
695.8430, 3035.613
696.9990, 3096.252
698.1560, 3326.749
699.3120, 3357.658
700.4680, 3492.159
701.6240, 3622.934
702.7800, 3686.400
703.9350, 3755.197
705.0900, 3800.483
706.2460, 3771.695
707.4010, 3767.115
708.5560, 3685.269
709.7110, 3613.005
710.8650, 3548.104
712.0200, 3501.043
713.1740, 3166.501
714.3280, 2834.097
715.4820, 2772.685
716.6360, 2577.898
717.7890, 2335.040
718.9430, 2177.318
720.0960, 1984.470
721.2490, 1983.860
722.4020, 1665.805
723.5550, 1604.933
724.7080, 1530.127
725.8600, 1337.159
727.0130, 1318.687
728.1650, 1272.831
729.3170, 1156.612
730.4690, 1262.986
731.6200, 1124.744
732.7720, 1024.491
733.9230, 1042.992
735.0740, 1035.021
736.2250, 986.1538
737.3760, 1058.369
738.5270, 1019.318
739.6780, 1040.945
740.8280, 1013.978
741.9780, 1115.132
743.1280, 1139.689
744.2780, 1136.330
745.4280, 1151.304
746.5770, 1253.413
747.7270, 1217.606
748.8760, 1292.862
750.0250, 1347.208
751.1740, 1325.146
752.3230, 1385.104
753.4720, 1338.195
754.6200, 1359.238
755.7680, 1290.585
756.9160, 1258.085
758.0640, 1237.838
759.2120, 1150.108
760.3600, 1133.323
761.5070, 1064.562
762.6550, 1018.695
763.8020, 892.4487
764.9490, 970.9448
766.0960, 726.2446
767.2420, 741.5684
768.3890, 754.9165
769.5350, 604.2900
770.6810, 587.6875
771.8270, 645.1064
772.9730, 575.5479
774.1190, 556.6260
775.2640, 422.4922
776.4100, 488.9932
777.5550, 357.5132
778.7000, 390.0518
779.8450, 359.6079
780.9900, 252.1816
782.1340, 315.7725
783.2790, 233.3789
784.4230, 273.0000
785.5670, 207.6362
786.7110, 262.3413
787.8550, 223.0063
788.9980, 179.6851
790.1420, 224.3789
791.2850, 179.0869
792.4280, 117.8076
793.5710, 103.5405
794.7140, 112.2852
795.8560, 187.0459
796.9990, 48.96875
798.1410, 89.74219
799.2830, 89.52295
800.4250, 40.31494
801.5670, 62.24609
802.7090, 52.95215
803.8500, 30.00000
804.9920, 14.20166
806.1330, 71.59619
807.2740, 10.56348
808.4150, 75.56494
809.5550, 42.57471
810.6960, 25.23926
811.8360, 102.4341
812.9760, 105.4531
814.1160, 76.74902
815.2560, 129.9219
816.3960, 37.29883
817.5350, 124.2446
818.6750, 148.6284
819.8140, 222.0884
820.9530, 131.6108
822.0920, 139.2896
823.2310, 136.9146
824.3690, 104.0649
825.5080, 74.82764
826.6460, 106.5332
827.7840, 87.87109
828.9220, 106.7988
830.0600, 10.77930
831.1970, 53.91211
832.3350, 150.0874
833.4720, 58.36377
834.6090, 114.6965
835.7460, 100.0190
836.8830, 56.33960
838.0190, 214.7930
839.1560, 61.23364
840.2920, 170.2361
841.4280, 82.95093
842.5640, 58.89233
843.7000, 137.8066
844.8360, 113.8193
845.9710, 23.99121
847.1070, 58.10693
848.2420, 20.42358
849.3770, 60.25659
850.5120, 53.98096
851.6460, 71.83032
852.7810, 43.49756
853.9150, 49.98633
855.0490, 22.45020
856.1830, 53.22900
857.3170, 18.54102
858.4510, 80.61353
859.5840, 7.798340
860.7180, 78.95801
861.8510, 0.9138180
862.9840, 10.12964
864.1170, 102.9429
865.2500, 11.69897
866.3820, 65.38477
867.5150, 89.02173
868.6470, 94.61548
869.7790, 111.1665
870.9110, 93.88428
872.0430, 65.34961
873.1740, 96.75928
874.3060, 53.12207
875.4370, 135.5044
876.5680, 36.76343
877.6990, 83.95093
878.8300, 107.0874
879.9600, 108.5566
881.0910, 143.7834
882.2210, 100.9604
883.3510, 102.2092
884.4810, 104.0867
885.6110, 105.0508
886.7410, 65.92065
887.8700, 195.6147
888.9990, 177.6201
890.1290, 193.2253
891.2580, 169.7859
892.3860, 193.2988
893.5150, 227.9082
894.6440, 192.3301
895.7720, 206.8286
896.9000, 211.1572
898.0280, 155.4395
899.1560, 134.6677
900.2840, 201.1218
901.4110, 255.3665
902.5390, 252.4370
903.6660, 270.8337
904.7930, 276.0449
905.9200, 270.5544
907.0470, 271.5820
908.1730, 274.6113
909.3000, 286.4192
910.4260, 306.3406
911.5520, 291.0449
912.6780, 362.6797
913.8030, 310.4182
914.9290, 286.9553
916.0540, 306.7959
917.1800, 358.3242
918.3050, 381.7812
919.4300, 370.1702
920.5550, 321.5376
921.6790, 282.7690
922.8040, 335.6355
923.9280, 327.9485
925.0520, 319.0835
926.1760, 362.4749
927.3000, 343.3003
928.4230, 326.5869
929.5470, 394.1250
930.6700, 318.4033
931.7930, 286.3638
932.9160, 431.6145
934.0390, 335.4346
935.1620, 360.1943
936.2840, 300.7620
937.4070, 415.2529
938.5290, 298.7842
939.6510, 371.1658
940.7730, 368.4346
941.8940, 332.7078
943.0160, 300.8521
944.1370, 299.0334
945.2580, 334.6406
946.3800, 267.0664
947.5000, 296.1638
948.6210, 366.4993
949.7420, 307.9695
950.8620, 355.5679
951.9820, 270.6465
953.1020, 328.3711
954.2220, 324.6226
955.3420, 303.4778
956.4620, 322.7231
957.5810, 286.3164
958.7000, 216.8650
959.8190, 278.4104
960.9380, 254.2317
962.0570, 206.9138
963.1760, 266.3743
964.2940, 264.3970
965.4120, 310.0598
966.5300, 310.2158
967.6480, 290.0217
968.7660, 286.6162
969.8840, 254.1790
971.0010, 228.5044
972.1190, 242.1326
973.2360, 200.9692
974.3530, 151.0342
975.4690, 198.4917
976.5860, 228.6035
977.7030, 200.2703
978.8190, 186.7134
979.9350, 191.4341
981.0510, 163.5234
982.1670, 184.1658
983.2830, 167.0256
984.3980, 154.4099
985.5130, 196.7969
986.6290, 119.2034
987.7440, 168.9084
988.8590, 147.5891
989.9730, 216.2395
991.0880, 102.6794
992.2020, 200.4575
993.3160, 158.3950
994.4300, 146.1267
995.5440, 144.8049
996.6580, 144.1648
997.7720, 180.0076
998.8850, 185.7539
999.9980, 182.8674
1001.111, 218.3940
1002.224, 191.5427
1003.337, 239.7048
1004.450, 131.1182
1005.562, 218.0051
1006.674, 195.7915
1007.786, 234.4995
1008.898, 156.4746
1010.010, 221.7732
1011.122, 179.6682
1012.233, 170.4424
1013.344, 98.81421
1014.455, 123.1108
1015.566, 124.0723
1016.677, 104.7358
1017.788, 191.6414
1018.898, 131.3203
1020.009, 138.9070
1021.119, 215.8982
1022.229, 92.86768
1023.339, 192.6987
1024.448, 209.5754
1025.558, 181.1436
1026.667, 124.9128
1027.776, 198.7078
1028.885, 128.3398
1029.994, 163.0525
1031.103, 166.7021
1032.211, 155.4541
1033.320, 93.57715
1034.428, 122.9502
1035.536, 160.5117
1036.644, 81.04150
1037.751, 67.53687
1038.859, 88.99585
1039.966, 114.4211
1041.074, 101.6077
1042.181, 142.1755
1043.288, 102.5054
1044.394, 141.8037
1045.501, 165.0718
1046.607, 108.3096
1047.713, 143.5166
1048.820, 73.69458
1049.925, 119.8398
1051.031, 123.9556
1052.137, 127.0415
1053.242, 119.0989
1054.348, 158.1274
1055.453, 42.07202
1056.558, 92.03857
1057.662, 23.97632
1058.767, 62.87720
1059.871, 29.74805
1060.976, 60.58472
1062.080, 36.39185
1063.184, 49.16675
1064.288, 80.90625
1065.391, 40.46509
1066.495, 86.15210
1067.598, 11.81250
1068.701, 118.4377
1069.804, 134.9045
1070.907, 87.48047
1072.010, 156.8796
1073.112, 77.41211
1074.214, 137.9214
1075.317, 88.36621
1076.419, 94.63306
1077.521, 31.87402
1078.622, 39.26147
1079.724, 19.11206
1080.825, 0.2651370
1081.926, 74.64819
1083.027, 68.87085
1084.128, 36.75244
1085.229, 29.14600
1086.329, 58.43311
1087.430, 27.73682
1088.530, 94.02197
1089.630, 2.593262
1090.730, 70.67261
1091.830, 22.40283
1092.929, 49.68945
1094.029, 69.86841
1095.128, 110.6218
1096.227, 52.08984
1097.326, 14.17285
1098.425, 18.45337
1099.523, 45.90405
1100.622, 85.28467
1101.720, 49.66675
1102.818, 31.96997
1103.916, 99.20166
1105.014, 15.49268
1106.111, 35.69385
1107.209, 4.621338
1108.306, 11.32031
1109.403, 16.13184
1110.500, 24.48975
1111.597, 29.85767
1112.694, 46.30151
1113.790, 71.62891
1114.887, 60.08765
1115.983, 52.47070
1117.079, 20.80176
1118.174, 24.29565
1119.270, 43.21753
1120.366, 68.60962
1121.461, 42.87402
1122.556, 111.4138
1123.651, 46.33008
1124.746, 56.88696
1125.841, 132.2847
1126.935, 169.0959
1128.030, 77.44189
1129.124, 81.80688
1130.218, 103.3391
1131.312, 68.88159
1132.405, 78.43091
1133.499, 81.28052
1134.592, 71.51318
1135.686, 92.04346
1136.779, 100.3584
1137.871, 106.8740
1138.964, 131.3892
1140.057, 116.8984
1141.149, 188.3291
1142.241, 220.8333
1143.334, 140.3445
1144.425, 185.8508
1145.517, 239.0349
1146.609, 162.3433
1147.700, 175.6501
1148.791, 197.5698
1149.883, 116.0642
1150.974, 124.4150
1152.064, 165.8037
1153.155, 192.3040
1154.245, 137.4421
1155.336, 126.9297
1156.426, 69.41113
1157.516, 68.88770
1158.606, 138.2161
1159.695, 139.6809
1160.785, 35.04883
1161.874, 114.5034
1162.963, 157.9531
1164.052, 60.42334
1165.141, 152.5867
1166.230, 147.9062
1167.318, 79.34863
1168.406, 141.4124
1169.495, 113.3218
1170.583, 101.4568
1171.670, 92.73413
1172.758, 86.51270
1173.846, 84.74487
1174.933, 78.57495
1176.020, 86.96558
1177.107, 62.37305
1178.194, 61.90356
1179.281, 69.02417
1180.367, 67.06812
1181.454, 103.3711
1182.540, 91.69287
1183.626, 97.02930
1184.712, 65.33447
1185.798, 73.72241
1186.883, 135.4221
1187.969, 96.62231
1189.054, 152.9470
1190.139, 147.9626
1191.224, 48.49023
1192.309, 115.5039
1193.393, 90.21265
1194.478, 127.1277
1195.562, 60.30762
1196.646, 37.14307
1197.730, 84.35547
1198.814, 172.5747
1199.897, 96.93262
1200.981, 119.3135
1202.064, 102.5542
1203.147, 40.93677
1204.230, 63.14844
1205.313, 51.53418
1206.396, 96.41382
1207.478, 98.71948
1208.560, 122.6360
1209.642, 132.6536
1210.724, 38.42212
1211.806, 112.7825
1212.888, 70.04565
1213.969, 138.2927
1215.051, 53.29834
1216.132, 51.80664
1217.213, 122.0354
1218.294, 133.0691
1219.374, 137.4617
1220.455, 149.8420
1221.535, 157.1790
1222.616, 169.3386
1223.696, 162.5791
1224.775, 168.9116
1225.855, 147.3457
1226.935, 131.8452
1228.014, 109.8748
1229.093, 128.5593
1230.172, 102.8320
1231.251, 69.27612
1232.330, 49.17993
1233.408, 91.41528
1234.487, 76.86816
1235.565, 103.1201
1236.643, 107.3933
1237.721, 41.21582
1238.799, 54.65430
1239.876, 75.84277
1240.954, 121.0999
1242.031, 102.3855
1243.108, 45.74609
1244.185, 132.2190
1245.262, 108.6492
1246.338, 14.05371
1247.415, 20.34961
1248.491, 78.66577
1249.567, 65.07031
1250.643, 87.58252
1251.719, 61.00073
1252.795, 98.51953
1253.870, 37.96802
1254.945, 66.46606
1256.021, 45.00439
1257.096, 33.51489
1258.170, 36.03687
1259.245, 67.56177
1260.320, 19.08887
1261.394, 45.61816
1262.468, 78.14941
1263.542, 9.682373
1264.616, 46.21802
1265.690, 48.75537
1266.763, 48.29590
1267.836, 73.83887
1268.910, 212.3840
1269.983, 148.0146
1271.055, 140.2793
1272.128, 55.03491
1273.201, 76.58984
1274.273, 56.85205
1275.345, 41.69165
1276.417, 40.23926
1277.489, 29.20996
1278.561, 24.33862
1279.632, 18.88965
1280.704, 9.444092
1281.775, 40.00098
1282.846, 22.76123
1283.917, 56.12549
1284.988, 24.69336
1286.058, 33.26343
1287.129, 59.83594
1288.199, 106.4116
1289.269, 3.010254
1290.339, 17.53955
1291.409, 35.12329
1292.478, 2.289795
1293.548, 52.29956
1294.617, 34.89258
1295.686, 68.48901
1296.755, 39.08813
1297.824, 66.69141
1298.893, 26.29980
1299.961, 63.91235
1301.029, 66.52783
1302.097, 67.14697
1303.165, 61.76904
1304.233, 56.41260
1305.301, 44.02295
1306.368, 61.65405
1307.436, 91.28857
1308.503, 146.9268
