##NAMES=Baddeleyite
##RRUFFID=R060016
##IDEAL CHEMISTRY=Zr^4+^O_2_
##LOCALITY=Wet Loo, Myanmar
##OWNER=RRUFF
##SOURCE=American Museum of Natural History
##DESCRIPTION=Brown crystal fragment
##STATUS=The identification of this mineral has been confirmed by X-ray diffraction and chemical analysis
##URL=rruff.info/R060016
##MEASURED CHEMISTRY=(Zr_0.99_Ti_0.01_)_Î£=1_O_2_
##PIN_ID=M01376
##ORIENTATION=Laser parallel to c* (0 0 1). Fiducial mark perpendicular to laser is parallel to -a [-1 0 0]
162.7670, 0.0000000E+00
163.9950, 32.22852
165.2230, 9.551758
166.4510, 75.44434
167.6790, 219.1172
168.9060, 300.0957
170.1340, 398.8389
171.3610, 543.3877
172.5880, 782.0166
173.8150, 919.1963
175.0420, 1306.706
176.2690, 1619.637
177.4950, 1803.290
178.7210, 2242.132
179.9470, 2739.296
181.1730, 3002.008
182.3990, 2849.963
183.6250, 2723.695
184.8500, 2974.025
186.0760, 3382.791
187.3010, 4296.850
188.5260, 4429.068
189.7510, 4790.339
190.9750, 4662.559
192.2000, 4559.640
193.4240, 3687.557
194.6490, 2727.471
195.8730, 1897.483
197.0970, 1222.342
198.3200, 840.0117
199.5440, 781.3232
200.7670, 655.8701
201.9910, 671.0176
203.2140, 529.6895
204.4370, 561.8281
205.6590, 633.3828
206.8820, 387.3115
208.1050, 374.6191
209.3270, 418.2402
210.5490, 454.1123
211.7710, 483.7041
212.9930, 427.2471
214.2150, 528.5117
215.4360, 594.9482
216.6570, 634.6299
217.8790, 719.7012
219.1000, 785.3057
220.3210, 935.2637
221.5410, 816.7422
222.7620, 783.7598
223.9820, 649.2070
225.2030, 396.6367
226.4230, 294.8848
227.6430, 336.2363
228.8620, 37.85254
230.0820, 32.32715
231.3010, 151.4844
232.5210, 2.583008
233.7400, 81.95996
234.9590, 55.60059
236.1780, 63.51953
237.3960, 129.2598
238.6150, 161.8027
239.8330, 130.1504
241.0510, 225.3359
242.2690, 203.3799
243.4870, 239.3037
244.7050, 317.1182
245.9230, 356.4277
247.1400, 376.4717
248.3570, 520.0264
249.5740, 554.5088
250.7910, 663.9268
252.0080, 687.5322
253.2240, 749.5820
254.4410, 715.8252
255.6570, 726.0137
256.8730, 742.1514
258.0890, 829.2402
259.3050, 826.2812
260.5210, 779.2773
261.7360, 768.2285
262.9510, 742.1357
264.1670, 652.0020
265.3820, 658.4160
266.5960, 628.1006
267.8110, 624.3535
269.0260, 639.0566
270.2400, 629.6973
271.4540, 694.2705
272.6680, 641.7764
273.8820, 733.2363
275.0960, 919.6514
276.3090, 970.0264
277.5230, 1001.357
278.7360, 1177.646
279.9490, 1273.354
281.1620, 1389.513
282.3750, 1635.661
283.5880, 1755.063
284.8000, 2002.982
286.0120, 2117.177
287.2240, 2309.117
288.4360, 2513.404
289.6480, 2759.432
290.8600, 2656.158
292.0710, 2852.943
293.2830, 2905.947
294.4940, 3031.252
295.7050, 3226.788
296.9160, 3229.344
298.1260, 3288.477
299.3370, 3295.582
300.5470, 3432.651
301.7580, 3580.682
302.9680, 3571.674
304.1770, 3665.630
305.3870, 3653.547
306.5970, 3511.427
307.8060, 3441.270
309.0150, 3477.058
310.2250, 3339.675
311.4340, 3183.824
312.6420, 3143.789
313.8510, 3102.188
315.0590, 3088.029
316.2680, 3162.162
317.4760, 3205.570
318.6840, 3326.935
319.8920, 3390.063
321.0990, 3558.093
322.3070, 3692.281
323.5140, 3820.609
324.7210, 3980.685
325.9280, 4280.629
327.1350, 4280.287
328.3420, 4660.029
329.5490, 4828.844
330.7550, 4702.728
331.9610, 4625.668
333.1670, 4459.664
334.3730, 4136.707
335.5790, 3612.794
336.7840, 3031.919
337.9900, 2835.078
339.1950, 2582.268
340.4000, 2363.482
341.6050, 2227.717
342.8100, 2144.910
344.0150, 2249.090
345.2190, 2224.248
346.4230, 2345.416
347.6280, 2295.587
348.8320, 2103.763
350.0350, 1825.938
351.2390, 1571.112
352.4430, 1117.283
353.6460, 901.4482
354.8490, 612.6074
356.0520, 489.7588
357.2550, 485.9004
358.4580, 435.0312
359.6600, 439.3613
360.8630, 379.2588
362.0650, 479.3525
363.2670, 528.4316
364.4690, 517.4951
365.6710, 614.5430
366.8720, 737.5732
368.0740, 984.5850
369.2750, 1273.571
370.4760, 1476.523
371.6770, 1702.433
372.8780, 2132.295
374.0780, 2381.107
375.2790, 2656.873
376.4790, 2920.529
377.6790, 3033.101
378.8790, 3137.960
380.0790, 3157.410
381.2790, 3100.068
382.4780, 2951.166
383.6780, 2786.025
384.8770, 2410.444
386.0760, 2030.824
387.2750, 1563.167
388.4730, 1291.472
389.6720, 973.7412
390.8700, 703.9717
392.0690, 559.1680
393.2670, 350.3281
394.4650, 245.4531
395.6620, 112.5439
396.8600, 104.5957
398.0570, 32.60938
399.2550, 53.42871
400.4520, 130.5420
401.6490, 171.7510
402.8450, 73.06348
404.0420, 238.4551
405.2390, 112.9707
406.4350, 224.5771
407.6310, 328.3018
408.8270, 246.1738
410.0230, 261.1699
411.2190, 170.2959
412.4140, 298.5254
413.6090, 332.8945
414.8050, 213.4111
416.0000, 60.04492
417.1940, 199.7529
418.3890, 96.57324
419.5840, 1.477539
420.7780, 11.44141
421.9720, 38.82227
423.1660, 6.542969
424.3600, 42.31738
425.5540, 134.1045
426.7480, 137.7354
427.9410, 187.7852
429.1340, 108.4551
430.3270, 235.4482
431.5200, 210.2002
432.7130, 218.7266
433.9060, 301.0068
435.0980, 445.1338
436.2900, 272.1533
437.4830, 419.1045
438.6750, 225.9912
439.8660, 439.8584
441.0580, 457.7051
442.2500, 497.5420
443.4410, 591.4775
444.6320, 660.1816
445.8230, 696.9873
447.0140, 620.7822
448.2050, 690.5674
449.3950, 681.3418
450.5860, 864.1074
451.7760, 835.8652
452.9660, 1062.624
454.1560, 1115.380
455.3450, 1276.134
456.5350, 1423.879
457.7240, 1656.133
458.9140, 1791.335
460.1030, 2223.045
461.2920, 2628.739
462.4810, 2970.418
463.6690, 3777.082
464.8580, 4391.727
466.0460, 5346.352
467.2340, 6264.961
468.4220, 7159.551
469.6100, 7680.121
470.7970, 8482.670
471.9850, 9171.200
473.1720, 9478.709
474.3590, 9409.196
475.5460, 8735.664
476.7330, 8086.109
477.9200, 7048.533
479.1060, 5989.936
480.2930, 4573.318
481.4790, 3689.678
482.6650, 3112.016
483.8510, 2668.332
485.0370, 2149.627
486.2220, 1870.899
487.4080, 1843.151
488.5930, 1500.381
489.7780, 1464.590
490.9630, 1482.777
492.1480, 1395.943
493.3320, 1321.090
494.5170, 1259.215
495.7010, 1213.319
496.8850, 1352.403
498.0690, 1428.465
499.2530, 1256.508
500.4360, 1261.529
501.6200, 1180.531
502.8030, 1109.512
503.9860, 1082.474
505.1690, 860.4150
506.3520, 901.3359
507.5350, 823.2393
508.7170, 572.1211
509.9000, 754.0137
511.0820, 659.8906
512.2640, 602.7529
513.4460, 669.5977
514.6270, 621.4229
515.8090, 579.2393
516.9900, 601.0518
518.1710, 670.8477
519.3530, 598.6426
520.5330, 706.4189
521.7140, 829.2012
522.8950, 835.9707
524.0750, 896.7422
525.2550, 985.5098
526.4350, 1120.279
527.6150, 1200.729
528.7950, 1273.854
529.9750, 1433.658
531.1540, 1534.484
532.3340, 1696.340
533.5130, 1805.189
534.6920, 2014.029
535.8700, 1995.854
537.0490, 2168.666
538.2280, 2048.094
539.4060, 2207.264
540.5840, 2268.624
541.7620, 2159.697
542.9400, 2300.862
544.1180, 2467.377
545.2950, 2516.030
546.4720, 2947.255
547.6500, 3157.301
548.8270, 3677.303
550.0040, 4099.750
551.1800, 4443.232
552.3570, 4864.582
553.5330, 5209.142
554.7090, 5395.311
555.8850, 5701.307
557.0610, 5554.780
558.2370, 5457.861
559.4130, 5056.186
560.5880, 4569.002
561.7630, 3808.778
562.9380, 3388.943
564.1130, 2738.979
565.2880, 2466.450
566.4630, 2017.672
567.6370, 1831.928
568.8120, 1566.257
569.9860, 1366.176
571.1600, 1258.820
572.3330, 1152.764
573.5070, 1026.717
574.6810, 954.6816
575.8540, 659.6572
577.0270, 781.6582
578.2000, 665.6719
579.3730, 538.7002
580.5460, 676.7422
581.7180, 534.7969
582.8910, 719.8662
584.0630, 552.9521
585.2350, 590.0537
586.4070, 691.1699
587.5780, 573.2988
588.7500, 628.4424
589.9210, 610.6006
591.0930, 676.7734
592.2640, 742.0107
593.4350, 841.1641
594.6050, 960.3818
595.7760, 1124.613
596.9460, 1354.859
598.1170, 1423.120
599.2870, 1773.396
600.4570, 1981.687
601.6260, 2196.992
602.7960, 2361.312
603.9650, 2749.648
605.1350, 2720.999
606.3040, 3098.367
607.4730, 3245.757
608.6420, 3606.168
609.8100, 3518.597
610.9790, 3732.047
612.1470, 3584.515
613.3150, 3362.000
614.4830, 3333.504
615.6510, 3079.023
616.8190, 2758.560
617.9860, 2487.117
619.1540, 2262.695
620.3210, 1982.289
621.4880, 1815.904
622.6550, 1528.536
623.8220, 1457.186
624.9880, 1388.854
626.1550, 1494.538
627.3210, 1383.241
628.4870, 1432.968
629.6530, 1763.711
630.8190, 1641.474
631.9840, 1717.252
633.1500, 1931.049
634.3150, 1890.865
635.4800, 2051.697
636.6450, 1911.549
637.8100, 1772.417
638.9740, 1598.304
640.1390, 1459.940
641.3030, 1343.196
642.4670, 1140.137
643.6310, 962.0947
644.7950, 761.0723
645.9590, 653.0088
647.1220, 685.0820
648.2850, 452.1133
649.4490, 455.0625
650.6120, 358.2578
651.7740, 316.5742
652.9370, 306.6787
654.1000, 300.8008
655.2620, 353.6748
656.4240, 307.6680
657.5860, 229.4805
658.7480, 255.6758
659.9100, 323.8887
661.0710, 243.4746
662.2330, 267.7246
663.3940, 255.2295
664.5550, 230.8438
665.7160, 350.3867
666.8770, 268.9727
668.0370, 175.5186
669.1980, 120.5010
670.3580, 477.1846
671.5180, 343.5664
672.6780, 420.8594
673.8380, 313.8467
674.9970, 381.2998
676.1570, 467.7812
677.3160, 433.6279
678.4750, 553.2764
679.6340, 454.9648
680.7930, 585.6172
681.9520, 618.3418
683.1100, 617.1660
684.2680, 644.8125
685.4270, 717.0244
686.5850, 761.6191
687.7420, 843.7246
688.9000, 899.5068
690.0580, 977.7373
691.2150, 1025.476
692.3720, 1106.544
693.5290, 1192.033
694.6860, 1302.305
695.8430, 1409.150
696.9990, 1591.160
698.1560, 1745.124
699.3120, 1700.507
700.4680, 1724.603
701.6240, 1970.677
702.7800, 1855.961
703.9350, 1927.182
705.0900, 1957.542
706.2460, 2036.592
707.4010, 1986.342
708.5560, 1984.064
709.7110, 2045.548
710.8650, 1821.509
712.0200, 1748.047
713.1740, 1665.417
714.3280, 1227.849
715.4820, 1381.938
716.6360, 1019.339
717.7890, 1036.053
718.9430, 1000.474
720.0960, 853.9043
721.2490, 785.3447
722.4020, 582.5020
723.5550, 555.8789
724.7080, 504.7363
725.8600, 478.1787
727.0130, 475.6748
728.1650, 467.1797
729.3170, 440.6914
730.4690, 333.2812
731.6200, 335.0107
732.7720, 200.5488
733.9230, 308.0947
735.0740, 294.6484
736.2250, 233.2080
737.3760, 200.7754
738.5270, 100.3496
739.6780, 303.9297
740.8280, 260.5166
741.9780, 355.2588
743.1280, 151.9375
744.2780, 410.1016
745.4280, 280.6855
746.5770, 285.8271
747.7270, 354.6484
748.8760, 258.9873
750.0250, 218.7900
751.1740, 292.1094
752.3230, 220.0830
753.4720, 257.7812
754.6200, 335.6396
755.7680, 278.7158
756.9160, 367.7979
758.0640, 222.6865
759.2120, 167.1904
760.3600, 341.9580
761.5070, 263.7646
762.6550, 143.8467
763.8020, 332.7061
764.9490, 114.4795
766.0960, 173.9326
767.2420, 226.6143
768.3890, 196.3369
769.5350, 286.0234
770.6810, 153.8672
771.8270, 230.8369
772.9730, 170.5342
774.1190, 18.26660
775.2640, 187.9648
776.4100, 143.8320
777.5550, 175.5283
778.7000, 3.776367
779.8450, 145.9180
780.9900, 108.6123
782.1340, 213.3057
783.2790, 182.0674
784.4230, 50.75684
785.5670, 42.44434
786.7110, 131.8701
787.8550, 11.24609
788.9980, 36.62305
790.1420, 9.979492
791.2850, 174.5791
792.4280, 43.80566
793.5710, 60.21191
794.7140, 20.64648
795.8560, 31.90820
796.9990, 39.45898
798.1410, 63.99414
799.2830, 40.57520
800.4250, 59.91797
801.5670, 44.32324
802.7090, 73.68750
803.8500, 88.92383
804.9920, 118.8535
806.1330, 92.65137
807.2740, 134.4248
808.4150, 160.2773
809.5550, 30.22070
810.6960, 8.174805
811.8360, 34.85645
812.9760, 33.87988
814.1160, 2.102539
815.2560, 14.09668
816.3960, 4.889648
817.5350, 21.86426
818.6750, 19.83105
819.8140, 16.28906
820.9530, 5.262695
822.0920, 28.33203
823.2310, 22.56445
824.3690, 30.31641
825.5080, 1.536133
826.6460, 65.60547
827.7840, 103.4268
828.9220, 111.2363
830.0600, 124.2021
831.1970, 8.803711
832.3350, 60.99609
833.4720, 47.80176
834.6090, 76.47363
835.7460, 80.81641
836.8830, 111.7676
838.0190, 56.66309
839.1560, 64.04688
840.2920, 8.448242
841.4280, 72.98730
842.5640, 130.5742
843.7000, 25.23438
844.8360, 28.53906
845.9710, 61.83398
847.1070, 2.110352
848.2420, 59.74219
849.3770, 202.1562
850.5120, 93.38184
851.6460, 12.41113
852.7810, 152.7559
853.9150, 46.90527
855.0490, 193.0938
856.1830, 208.2031
857.3170, 127.2920
858.4510, 30.36230
859.5840, 154.4062
860.7180, 60.87695
861.8510, 199.8799
862.9840, 159.9736
864.1170, 150.9463
865.2500, 220.9004
866.3820, 111.8350
867.5150, 82.25293
868.6470, 241.1426
869.7790, 149.0127
870.9110, 182.8623
872.0430, 183.6895
873.1740, 258.4951
874.3060, 248.2812
875.4370, 217.1152
876.5680, 206.1768
877.6990, 106.5088
878.8300, 124.2080
879.9600, 57.88379
881.0910, 41.53223
882.2210, 27.15137
883.3510, 100.7324
884.4810, 24.31348
885.6110, 109.8330
886.7410, 57.33105
887.8700, 82.79785
888.9990, 141.5752
890.1290, 105.6875
891.2580, 35.39648
892.3860, 77.77344
893.5150, 104.1240
894.6440, 56.44922
895.7720, 136.7451
896.9000, 129.3906
898.0280, 83.75781
899.1560, 119.9775
900.2840, 142.2744
901.4110, 32.44434
902.5390, 254.5771
903.6660, 159.1504
904.7930, 301.2334
905.9200, 132.2930
907.0470, 107.1924
908.1730, 319.1992
909.3000, 165.1836
910.4260, 223.1426
911.5520, 135.0771
912.6780, 278.9863
913.8030, 281.8711
914.9290, 216.6689
916.0540, 228.5049
917.1800, 282.3164
918.3050, 163.1045
919.4300, 369.8652
920.5550, 189.6035
921.6790, 353.3154
922.8040, 294.1045
923.9280, 175.5605
925.0520, 206.0586
926.1760, 219.8291
927.3000, 185.1895
928.4230, 211.3916
929.5470, 183.3652
930.6700, 205.2461
931.7930, 232.7363
932.9160, 237.3789
934.0390, 163.4834
935.1620, 198.9111
936.2840, 146.0742
937.4070, 128.1777
938.5290, 269.2910
939.6510, 317.5156
940.7730, 292.6035
941.8940, 222.2676
943.0160, 214.2158
944.1370, 271.4580
945.2580, 189.8887
946.3800, 222.5127
947.5000, 251.6631
948.6210, 252.9082
949.7420, 229.6514
950.8620, 241.5918
951.9820, 239.6680
953.1020, 213.3125
954.2220, 249.3379
955.3420, 179.1973
956.4620, 171.2969
957.5810, 186.8711
958.7000, 84.66602
959.8190, 241.9590
960.9380, 21.25781
962.0570, 148.1270
963.1760, 235.9824
964.2940, 60.81738
965.4120, 181.6279
966.5300, 126.7939
967.6480, 121.6514
968.7660, 317.2656
969.8840, 218.0244
971.0010, 189.3750
972.1190, 264.1240
973.2360, 74.85156
974.3530, 119.3906
975.4690, 150.9414
976.5860, 139.2422
977.7030, 29.11230
978.8190, 206.3730
979.9350, 218.5068
981.0510, 137.9375
982.1670, 45.78516
983.2830, 80.12695
984.3980, 183.5459
985.5130, 131.9346
986.6290, 123.6748
987.7440, 201.2090
988.8590, 104.3086
989.9730, 263.6914
991.0880, 194.0547
992.2020, 156.5029
993.3160, 119.1230
994.4300, 5.431641
995.5440, 151.4443
996.6580, 14.34180
997.7720, 167.5713
998.8850, 297.8955
999.9980, 187.0889
1001.111, 35.19531
1002.224, 179.1504
1003.337, 275.2881
1004.450, 171.4072
1005.562, 308.5088
1006.674, 265.5918
1007.786, 267.6572
1008.898, 230.7051
1010.010, 249.3066
1011.122, 219.0742
1012.233, 254.6270
1013.344, 200.5420
1014.455, 116.9600
1015.566, 155.9453
1016.677, 151.3623
1017.788, 107.0947
1018.898, 248.2988
1020.009, 126.0703
1021.119, 239.2676
1022.229, 39.80176
1023.339, 227.1445
1024.448, 244.7676
1025.558, 248.4844
1026.667, 111.8574
1027.776, 163.4121
1028.885, 162.3379
1029.994, 29.98926
1031.103, 245.5850
1032.211, 206.8926
1033.320, 82.41016
1034.428, 190.0000
1035.536, 177.8965
1036.644, 28.55078
1037.751, 300.1494
1038.859, 113.7705
1039.966, 4.780273
1041.074, 118.5195
1042.181, 189.0801
1043.288, 174.5898
1044.394, 171.1221
1045.501, 129.4707
1046.607, 142.9756
1047.713, 155.4658
1048.820, 205.9434
1049.925, 176.4072
1051.031, 141.8574
1052.137, 227.2227
1053.242, 133.6465
1054.348, 193.0566
1055.453, 189.4541
1056.558, 190.8682
1057.662, 90.26562
1058.767, 54.66309
1059.871, 44.95508
1060.976, 198.3789
1062.080, 29.71094
1063.184, 116.0420
1064.288, 256.3633
1065.391, 45.67383
1066.495, 87.12402
1067.598, 184.3672
1068.701, 124.6553
1069.804, 73.82422
1070.907, 181.2061
1072.010, 47.50488
1073.112, 111.8145
1074.214, 123.1436
1075.317, 142.4883
1076.419, 284.8564
1077.521, 30.74219
1078.622, 109.6309
1079.724, 185.9971
1080.825, 50.35254
1081.926, 106.6973
1083.027, 104.0332
1084.128, 97.36621
1085.229, 125.6914
1086.329, 125.9971
1087.430, 140.1211
1088.530, 144.6084
1089.630, 156.9004
1090.730, 151.1943
1091.830, 135.2461
1092.929, 54.59863
1094.029, 194.6445
1095.128, 130.9170
1096.227, 164.1807
1097.326, 83.05762
1098.425, 189.3037
1099.523, 31.50586
1100.622, 269.6787
1101.720, 52.90723
1102.818, 132.1553
1103.916, 51.42188
1105.014, 117.6807
1106.111, 76.75293
1107.209, 0.9951170
1108.306, 78.73730
1109.403, 51.48926
1110.500, 36.74609
1111.597, 34.51855
1112.694, 46.67871
1113.790, 66.13184
1114.887, 163.6484
1115.983, 129.6191
1117.079, 122.7539
1118.174, 4.118164
1119.270, 33.42383
1120.366, 148.2920
1121.461, 145.3438
1122.556, 91.44727
1123.651, 34.54395
1124.746, 127.6348
1125.841, 140.7227
1126.935, 297.3564
1128.030, 29.56836
1129.124, 130.3799
1130.218, 26.42090
1131.312, 109.4561
1132.405, 215.4854
1133.499, 248.0039
1134.592, 199.5967
1135.686, 145.6113
1136.779, 143.9609
1137.871, 122.4258
1138.964, 112.6260
1140.057, 115.6211
1141.149, 141.6123
1142.241, 128.1104
1143.334, 119.0908
1144.425, 189.0693
1145.517, 102.0420
1146.609, 143.0146
1147.700, 189.9863
1148.791, 192.4229
1149.883, 225.8223
1150.974, 34.34863
1152.064, 244.3203
1153.155, 43.29297
1154.245, 1.928711
1155.336, 50.89062
1156.426, 43.15137
1157.516, 45.78125
1158.606, 88.71289
1159.695, 88.64258
1160.785, 135.5713
1161.874, 153.1045
1162.963, 214.0303
1164.052, 113.9551
1165.141, 232.7754
1166.230, 92.69629
1167.318, 176.6230
1168.406, 202.0811
1169.495, 315.0029
1170.583, 198.9248
1171.670, 190.9785
1172.758, 118.8975
1173.846, 152.8145
1174.933, 271.7305
1176.020, 44.64551
1177.107, 45.55859
1178.194, 123.4707
1179.281, 231.3828
1180.367, 53.29395
1181.454, 174.2021
1182.540, 139.1113
1183.626, 46.02051
1184.712, 130.9277
1185.798, 163.8340
1186.883, 71.74121
1187.969, 79.64648
1189.054, 153.5439
1190.139, 93.29395
1191.224, 108.0576
1192.309, 97.61426
1193.393, 65.79199
1194.478, 30.50781
1195.562, 53.41406
1196.646, 35.85547
1197.730, 22.02344
1198.814, 44.91211
1199.897, 6.799805
1200.981, 2.365234
1202.064, 92.52246
1203.147, 44.25000
1204.230, 219.1387
1205.313, 154.0283
1206.396, 96.91797
1207.478, 233.8076
1208.560, 173.5918
1209.642, 185.4814
1210.724, 286.3740
1211.806, 185.1377
1212.888, 223.0303
1213.969, 71.92383
1215.051, 91.81738
1216.132, 133.7129
1217.213, 140.6084
1218.294, 91.50586
1219.374, 191.4043
1220.455, 27.30371
1221.535, 126.2041
1222.616, 0.1064450
1223.696, 142.9287
1224.775, 91.83887
1225.855, 168.7500
1226.935, 189.6631
1228.014, 198.5791
1229.093, 229.8848
1230.172, 256.3242
1231.251, 222.5371
1232.330, 330.3965
1233.408, 280.7021
1234.487, 328.1836
1235.565, 219.1143
1236.643, 146.0469
1237.721, 252.0459
1238.799, 180.1768
1239.876, 68.06445
1240.954, 65.85840
1242.031, 4.807617
1243.108, 71.69141
1244.185, 23.68457
1245.262, 96.64062
1246.338, 116.6016
1247.415, 39.56543
1248.491, 76.48438
1249.567, 24.66113
1250.643, 1.276367
1251.719, 13.21680
1252.795, 4.160156
1253.870, 136.0059
1254.945, 123.9580
1256.021, 74.91309
1257.096, 263.8877
1258.170, 151.2266
1259.245, 262.2158
1260.320, 174.0986
1261.394, 78.10352
1262.468, 44.11328
1263.542, 21.85938
1264.616, 67.16797
1265.690, 53.20020
1266.763, 104.2373
1267.836, 86.28125
1268.910, 113.3281
1269.983, 253.3809
1271.055, 83.56152
1272.128, 185.4707
1273.201, 94.50977
1274.273, 126.5527
1275.345, 162.6016
1276.417, 58.65625
1277.489, 45.28418
1278.561, 118.7686
1279.632, 126.8271
1280.704, 52.84961
1281.775, 92.91992
1282.846, 60.99707
1283.917, 54.53125
1284.988, 193.6221
1286.058, 161.3936
1287.129, 299.4971
1288.199, 82.60547
1289.269, 6.721680
1290.339, 7.155273
1291.409, 114.9756
1292.478, 145.1133
1293.548, 118.2568
1294.617, 248.4062
1295.686, 159.5635
1296.755, 195.7695
1297.824, 181.9023
1298.893, 166.0830
1299.961, 171.2695
1301.029, 112.4727
1302.097, 154.6816
1303.165, 157.8975
1304.233, 161.1201
1305.301, 243.3496
1306.368, 110.5859
1307.436, 205.8301
1308.503, 295.0791
1309.570, 229.3389
1310.637, 138.6104
1311.703, 198.8887
1312.770, 264.1699
1313.836, 176.4551
1314.902, 158.7480
1315.968, 101.0459
1317.034, 169.3486
1318.100, 131.6582
1319.165, 90.97363
1320.231, 171.3145
1321.296, 103.6621
1322.361, 219.0166
1323.426, 119.3779
1324.491, 85.74512
1325.555, 200.9658
1326.620, 90.34668
1327.684, 233.7344
1328.748, 172.1289
1329.812, 92.25195
1330.875, 78.66016
1331.939, 177.0781
1333.002, 198.5020
1334.066, 111.9336
1335.129, 129.3701
1336.192, 100.8135
1337.254, 227.2783
