##NAMES=Barrerite
##RRUFFID=R050135
##IDEAL CHEMISTRY=Na_2_(Al_2_Si_7_)O_18_&#183;6H_2_O
##LOCALITY=Kuiu Island, Alaska, USA
##OWNER=RRUFF
##SOURCE=Ben Norton
##DESCRIPTION=Colorless laminar crystals
##STATUS=The identification of this mineral has been confirmed by X-ray diffraction and chemical analysis
##URL=rruff.info/R050135
##MEASURED CHEMISTRY=(Na_4.49_K_1.30_Ca_1.23_[box]_0.98_)_Σ=8_(Si_27.75_Al_8.25_)O_72_·19H_2_O
##PIN_ID=M00182
##ORIENTATION=Laser parallel to c* (0 0 1). Fiducial mark perpendicular to laser is parallel to -a [-1 0 0]
133.003, 0.000
134.390, 480.875
135.777, 19.170
137.164, 413.600
138.550, 384.695
139.937, 885.531
141.323, 1220.807
142.709, 1587.053
144.094, 2461.738
145.480, 2453.213
146.865, 3900.445
148.250, 4112.051
149.635, 5257.363
151.019, 6025.994
152.403, 6958.086
153.788, 7661.535
155.171, 8206.199
156.555, 9103.688
157.939, 9053.617
159.322, 9445.438
160.705, 9277.604
162.088, 8838.219
163.470, 8631.418
164.853, 7484.850
166.235, 7360.105
167.617, 6394.283
168.998, 5857.475
170.380, 5298.012
171.761, 4504.078
173.142, 4199.045
174.523, 3359.275
175.904, 3368.873
177.284, 2847.891
178.664, 2543.930
180.044, 2349.480
181.424, 1919.783
182.803, 2033.674
184.183, 1465.889
185.562, 1642.262
186.940, 1274.668
188.319, 1344.635
189.698, 1279.193
191.076, 1083.291
192.454, 899.811
193.831, 892.395
195.209, 897.369
196.586, 672.121
197.963, 583.688
199.340, 697.021
200.717, 586.752
202.093, 659.789
203.470, 430.080
204.846, 527.709
206.221, 452.398
207.597, 396.742
208.972, 345.082
210.347, 275.428
211.722, 799.303
213.097, 401.201
214.472, 529.984
215.846, 225.971
217.220, 386.811
218.594, 184.416
219.967, 18.572
221.341, 351.469
222.714, 3.760
224.087, 86.375
225.460, 60.607
226.832, 42.766
228.204, 86.455
229.577, 49.584
230.948, 114.611
232.320, 160.998
233.692, 53.549
235.063, 171.779
236.434, 62.984
237.805, 82.195
239.175, 147.346
240.545, 12.500
241.916, 117.689
243.286, 77.064
244.655, 68.262
246.025, 63.691
247.394, 160.754
248.763, 5.047
250.132, 69.172
251.501, 6.908
252.869, 266.789
254.237, 20.244
255.605, 143.479
256.973, 226.484
258.340, 40.756
259.708, 361.711
261.075, 43.873
262.442, 25.684
263.808, 107.193
265.175, 88.373
266.541, 199.180
267.907, 170.352
269.273, 60.207
270.639, 100.305
272.004, 280.633
273.369, 161.176
274.734, 201.842
276.099, 57.318
277.463, 616.330
278.828, 615.141
280.192, 613.789
281.556, 572.283
282.919, 120.574
284.283, 201.441
285.646, 146.150
287.009, 166.600
288.372, 49.443
289.734, 97.641
291.097, 24.543
292.459, 241.195
293.821, 37.625
295.183, 333.930
296.544, 160.125
297.905, 279.061
299.266, 487.623
300.627, 415.676
301.988, 664.650
303.348, 683.584
304.709, 802.373
306.069, 1040.949
307.428, 959.256
308.788, 1327.254
310.147, 1104.906
311.507, 1402.186
312.865, 1619.068
314.224, 1575.537
315.583, 1751.574
316.941, 1707.164
318.299, 2172.293
319.657, 2016.961
321.015, 1941.148
322.372, 2064.848
323.729, 1738.047
325.086, 2010.742
326.443, 1692.938
327.800, 1914.625
329.156, 1705.803
330.512, 1566.459
331.868, 1846.602
333.224, 1416.188
334.579, 1655.232
335.935, 1623.711
337.290, 1561.713
338.645, 1449.211
339.999, 1486.211
341.354, 1572.670
342.708, 1238.553
344.062, 1633.820
345.416, 1418.539
346.769, 1522.650
348.123, 1626.166
349.476, 1299.193
350.829, 1641.658
352.182, 1373.662
353.534, 1595.180
354.887, 1556.420
356.239, 1506.740
357.591, 1906.725
358.942, 1466.477
360.294, 1784.941
361.645, 1932.727
362.996, 1780.738
364.347, 2077.814
365.698, 2094.695
367.048, 2409.547
368.398, 2294.605
369.748, 2639.047
371.098, 2982.969
372.448, 3185.979
373.797, 3647.883
375.146, 3483.004
376.495, 4395.770
377.844, 4389.539
379.192, 4741.176
380.540, 5253.695
381.889, 5264.926
383.236, 5941.883
384.584, 5804.682
385.932, 6231.418
387.279, 6420.281
388.626, 6683.580
389.973, 7016.279
391.319, 7381.152
392.666, 7595.266
394.012, 8165.764
395.358, 8423.910
396.704, 9163.094
398.049, 9349.926
399.394, 10739.596
400.740, 10891.846
402.084, 11845.914
403.429, 13183.762
404.774, 13577.561
406.118, 15534.438
407.462, 15719.742
408.806, 17345.199
410.150, 17846.135
411.493, 18734.240
412.836, 19832.439
414.179, 19580.693
415.522, 19983.289
416.865, 19181.428
418.207, 18813.766
419.549, 18205.795
420.891, 16640.549
422.233, 16343.648
423.575, 14782.021
424.916, 14212.562
426.257, 12942.793
427.598, 12013.086
428.939, 11614.559
430.279, 10291.582
431.619, 10016.119
432.959, 8726.828
434.299, 7950.684
435.639, 7758.629
436.978, 6622.975
438.318, 6581.875
439.657, 5784.535
440.996, 5517.855
442.334, 5170.980
443.673, 4593.414
445.011, 4582.887
446.349, 3967.643
447.687, 3937.436
449.024, 3784.518
450.361, 3369.025
451.699, 3668.322
453.036, 3226.615
454.372, 3427.270
455.709, 3165.859
457.045, 3027.248
458.381, 3467.273
459.717, 3228.174
461.053, 3479.961
462.388, 3491.328
463.724, 3453.609
465.059, 3635.840
466.394, 3198.438
467.728, 3551.900
469.063, 3214.895
470.397, 3358.418
471.731, 3211.764
473.065, 2825.062
474.398, 3068.252
475.732, 2841.332
477.065, 3064.307
478.398, 2977.174
479.731, 3099.939
481.063, 3402.605
482.396, 3555.170
483.728, 3867.637
485.060, 3870.012
486.391, 4762.289
487.723, 5244.477
489.054, 5416.576
490.385, 7138.586
491.716, 7800.512
493.047, 9282.355
494.377, 11144.117
495.708, 12675.801
497.038, 16007.406
498.368, 17058.941
499.697, 19910.400
501.027, 20431.789
502.356, 20443.115
503.685, 20154.369
505.014, 17335.844
506.342, 15396.975
507.671, 12798.988
508.999, 10540.004
510.327, 8951.740
511.655, 6883.088
512.982, 5893.951
514.310, 4822.145
515.637, 4243.299
516.964, 3584.449
518.291, 2775.555
519.617, 2836.703
520.944, 2147.885
522.270, 2089.084
523.596, 1690.295
524.921, 1321.723
526.247, 1532.951
527.572, 1006.191
528.897, 1171.074
530.222, 842.406
531.547, 917.354
532.871, 768.654
534.196, 549.699
535.520, 564.713
536.844, 487.107
538.167, 267.580
539.491, 518.398
540.814, 229.707
542.137, 240.031
543.460, 287.635
544.783, 138.451
546.105, 399.656
547.427, 32.809
548.749, 563.188
550.071, 164.541
551.393, 48.064
552.714, 159.275
554.035, 29.646
555.356, 160.850
556.677, 1.268
557.998, 102.490
559.318, 52.945
560.638, 136.574
561.958, 35.779
563.278, 95.320
564.597, 145.664
565.917, 55.271
567.236, 49.502
568.555, 170.924
569.874, 21.889
571.192, 167.232
572.511, 26.869
573.829, 3.553
575.147, 204.611
576.464, 34.990
577.782, 26.191
579.099, 166.549
580.416, 27.492
581.733, 298.352
583.050, 41.281
584.366, 109.070
585.683, 29.406
586.999, 59.730
588.315, 120.082
589.630, 0.480
590.946, 310.891
592.261, 78.666
593.576, 81.816
594.891, 512.340
596.206, 252.924
597.520, 353.502
598.834, 174.062
600.148, 214.602
601.462, 735.115
602.776, 375.609
604.089, 626.096
605.402, 516.641
606.715, 737.176
608.028, 977.760
609.341, 958.359
610.653, 1028.951
611.965, 1099.568
613.277, 1140.172
614.589, 1540.775
615.901, 1421.359
617.212, 1651.949
618.523, 1522.523
619.834, 2033.078
621.145, 1543.617
622.456, 1764.137
623.766, 1854.635
625.076, 1645.182
626.386, 1755.703
627.696, 1756.205
629.006, 1746.678
630.315, 1917.123
631.624, 1747.545
632.933, 1707.943
634.242, 1548.314
635.551, 1398.660
636.859, 1578.980
638.167, 1229.309
639.475, 1459.609
640.783, 1229.891
642.090, 920.146
643.398, 1270.377
644.705, 1010.588
646.012, 950.789
647.318, 900.969
648.625, 861.125
649.931, 825.045
651.237, 601.369
652.543, 771.459
653.849, 561.529
655.155, 521.576
656.460, 531.604
657.765, 381.609
659.070, 651.600
660.375, 411.566
661.679, 211.545
662.984, 371.502
664.288, 51.434
665.592, 311.381
666.895, 91.307
668.199, 171.211
669.502, 371.088
670.805, 109.055
672.108, 180.723
673.411, 170.480
674.713, 170.213
676.016, 149.920
677.318, 132.025
678.620, 119.768
679.921, 108.904
681.223, 48.518
682.524, 88.125
683.825, 22.295
685.126, 52.758
686.427, 46.719
687.727, 53.832
689.028, 45.555
690.328, 106.021
691.628, 54.641
692.927, 5.367
694.227, 145.926
695.526, 142.504
696.825, 22.922
698.124, 355.268
699.423, 96.447
700.721, 143.129
702.020, 50.885
703.318, 14.316
704.616, 273.248
705.913, 32.246
707.211, 19.973
708.508, 67.279
709.805, 94.975
711.102, 241.254
712.399, 408.932
713.695, 75.895
714.992, 313.830
716.288, 281.020
717.584, 172.311
718.879, 308.289
720.175, 126.729
721.470, 283.617
722.765, 63.217
724.060, 491.898
725.355, 109.441
726.649, 144.799
727.944, 373.492
729.238, 237.277
730.532, 90.277
731.825, 358.803
733.119, 56.609
734.412, 613.318
735.705, 110.977
736.998, 132.518
738.291, 390.477
739.584, 327.092
740.876, 384.064
742.168, 261.111
743.460, 508.998
744.752, 535.973
746.043, 592.910
747.334, 640.930
748.626, 454.236
749.916, 581.172
751.207, 599.404
752.498, 766.832
753.788, 1025.088
755.078, 652.611
756.368, 849.822
757.658, 947.512
758.947, 735.176
760.237, 1093.318
761.526, 960.932
762.815, 1098.582
764.104, 1316.143
765.392, 993.732
766.680, 1527.160
767.969, 1274.641
769.257, 1352.615
770.544, 1810.041
771.832, 1350.424
773.119, 1637.959
774.406, 1675.303
775.693, 1722.623
776.980, 2069.914
778.267, 1747.178
779.553, 2391.398
780.839, 2198.607
782.125, 2296.160
783.411, 2723.314
784.697, 2580.441
785.982, 3157.965
787.267, 2855.035
788.552, 3502.078
789.837, 3599.094
791.122, 3326.082
792.406, 4009.523
793.690, 3776.461
794.974, 3883.715
796.258, 4330.594
797.542, 4277.447
798.825, 4214.271
800.108, 4234.156
801.391, 4270.926
802.674, 4677.670
803.957, 4724.387
805.239, 4741.076
806.522, 4757.738
807.804, 4714.371
809.085, 4980.980
810.367, 4537.564
811.649, 4484.117
812.930, 4031.307
814.211, 3957.807
815.492, 3320.961
816.772, 3167.129
818.053, 2873.551
819.333, 2677.783
820.613, 1744.152
821.893, 1840.020
823.173, 1455.900
824.452, 1082.186
825.732, 1451.930
827.011, 797.781
828.290, 953.564
829.568, 779.324
830.847, 734.977
832.125, 760.529
833.403, 576.072
834.681, 581.482
835.959, 741.285
837.236, 326.566
838.514, 609.791
839.791, 291.328
841.068, 586.367
842.345, 497.754
843.621, 52.744
844.898, 557.955
846.174, 299.150
847.450, 172.930
848.726, 388.586
850.001, 33.867
851.277, 21.383
852.552, 344.301
853.827, 32.695
855.102, 307.834
856.376, 57.424
857.651, 125.326
858.925, 160.854
860.199, 235.393
861.473, 286.875
862.746, 393.248
864.020, 277.164
865.293, 362.539
866.566, 252.787
867.839, 62.641
869.112, 198.047
870.384, 253.443
871.656, 298.525
872.928, 13.930
874.200, 215.934
875.472, 104.453
876.744, 295.547
878.015, 140.889
879.286, 114.338
880.557, 350.475
881.828, 104.258
883.098, 79.098
884.369, 15.363
885.639, 9.531
886.909, 164.744
888.178, 69.814
889.448, 55.699
890.717, 118.811
891.987, 3.799
893.256, 238.773
894.524, 53.740
895.793, 161.305
897.061, 163.541
898.330, 28.381
899.598, 83.209
900.865, 178.023
902.133, 102.844
903.401, 47.656
904.668, 192.451
905.935, 27.236
907.202, 32.006
908.468, 156.762
909.735, 301.506
911.001, 156.238
912.267, 20.965
913.533, 415.674
914.799, 120.375
916.064, 235.059
917.330, 119.736
918.595, 85.602
919.860, 219.002
921.124, 13.590
922.389, 178.164
923.653, 37.271
924.918, 87.256
926.182, 261.770
927.445, 196.275
928.709, 130.770
929.972, 345.258
931.236, 270.266
932.499, 304.059
933.761, 28.371
935.024, 312.676
936.286, 126.971
937.549, 11.260
938.811, 145.537
940.073, 249.807
941.334, 224.070
942.596, 158.340
943.857, 107.395
945.118, 176.805
946.379, 21.000
947.640, 175.186
948.900, 239.365
950.161, 303.537
951.421, 52.295
952.681, 411.840
953.940, 105.969
955.200, 400.096
956.459, 164.215
957.719, 168.326
958.978, 192.436
960.236, 196.539
961.495, 150.639
962.753, 424.732
964.012, 11.180
965.270, 252.895
966.527, 123.027
967.785, 220.988
969.043, 495.000
970.300, 160.984
971.557, 362.951
972.814, 6.887
974.071, 100.816
975.327, 404.746
976.583, 21.326
977.840, 182.621
979.095, 196.568
980.351, 140.520
981.607, 244.467
982.862, 268.420
984.117, 52.373
985.372, 566.326
986.627, 99.680
987.882, 394.275
989.136, 378.234
990.390, 172.211
991.644, 416.203
992.898, 360.203
994.152, 524.225
995.405, 427.143
996.659, 201.180
997.912, 765.238
999.165, 309.098
1000.417, 323.211
1001.670, 716.012
1002.922, 496.072
1004.174, 790.234
1005.426, 433.236
1006.678, 427.477
1007.930, 785.756
1009.181, 549.711
1010.432, 743.865
1011.683, 648.180
1012.934, 522.527
1014.185, 866.928
1015.435, 511.336
1016.685, 915.809
1017.935, 850.338
1019.185, 734.342
1020.435, 1128.951
1021.684, 573.568
1022.934, 958.191
1024.183, 1251.346
1025.432, 926.084
1026.680, 1132.666
1027.929, 1087.445
1029.177, 932.104
1030.425, 998.320
1031.673, 1073.113
1032.921, 1060.020
1034.169, 1398.482
1035.416, 952.271
1036.663, 1294.838
1037.911, 1009.697
1039.157, 894.176
1040.404, 1254.199
1041.650, 1218.924
1042.897, 1152.395
1044.143, 1147.395
1045.389, 1031.973
1046.634, 1405.838
1047.880, 1300.855
1049.125, 1405.340
1050.371, 1310.137
1051.615, 1285.219
1052.860, 1480.117
1054.105, 1404.557
1055.349, 1199.930
1056.593, 1404.559
1057.837, 1229.221
1059.081, 1114.348
1060.325, 1549.479
1061.568, 1205.635
1062.812, 1340.270
1064.055, 1285.412
1065.298, 1150.494
1066.540, 1575.652
1067.783, 880.764
1069.025, 1280.014
1070.267, 1295.184
1071.509, 1089.844
1072.751, 1515.021
1073.993, 1077.246
1075.234, 1172.293
1076.475, 1277.504
1077.716, 1002.723
1078.957, 1307.943
1080.198, 1223.168
1081.438, 941.475
1082.679, 1426.768
1083.919, 1061.715
1085.159, 1467.695
1086.398, 1553.092
1087.638, 1348.117
1088.877, 1873.574
1090.116, 1539.035
1091.355, 1517.596
1092.594, 1693.072
1093.833, 1782.324
1095.071, 1928.049
1096.309, 2013.180
1097.547, 1838.660
1098.785, 2274.148
1100.023, 1899.635
1101.260, 2022.953
1102.498, 2398.451
1103.735, 1893.947
1104.972, 2409.449
1106.208, 2364.953
1107.445, 2440.457
1108.681, 2825.961
1109.918, 2261.467
1111.154, 2726.980
1112.389, 2732.492
1113.625, 2627.348
1114.860, 2824.381
1116.096, 2693.238
1117.331, 2668.779
1118.566, 3005.840
1119.800, 2672.602
1121.035, 2998.145
1122.269, 2803.389
1123.503, 2778.930
1124.737, 3325.211
1125.971, 3089.900
1127.205, 2775.453
1128.438, 3611.676
1129.671, 2757.229
1130.904, 3343.859
1132.137, 2809.410
1133.370, 2575.215
1134.602, 3370.008
1135.834, 2670.885
1137.066, 2587.062
1138.298, 3354.029
1139.530, 2519.555
1140.762, 3196.258
1141.993, 2882.328
1143.224, 2357.844
1144.455, 3295.488
1145.686, 2271.330
1146.917, 2817.121
1148.147, 2863.574
1149.377, 1869.061
1150.607, 2602.869
1151.837, 2439.486
1153.067, 2324.973
1154.296, 2601.031
1155.526, 1746.832
1156.755, 2363.486
1157.984, 2169.350
1159.213, 1904.898
1160.441, 2094.365
1161.670, 2261.316
1162.898, 1547.414
1164.126, 2257.426
1165.354, 1406.150
1166.581, 1811.523
1167.809, 1834.596
1169.036, 1261.379
1170.263, 1647.898
1171.490, 1600.297
1172.717, 1225.873
1173.943, 1952.770
1175.170, 1190.090
1176.396, 1345.354
1177.622, 1352.650
1178.848, 958.467
1180.073, 1384.227
1181.299, 1084.270
1182.524, 1070.141
1183.749, 1226.209
1184.974, 726.398
1186.199, 921.590
1187.423, 960.615
1188.648, 947.191
1189.872, 1262.789
1191.096, 1012.094
1192.320, 517.184
1193.543, 1054.400
1194.767, 620.438
1195.990, 635.496
1197.213, 663.297
1198.436, 789.574
1199.659, 914.547
1200.881, 565.086
1202.104, 240.000
1203.326, 1044.883
1204.548, 321.895
1205.770, 476.723
1206.991, 792.027
1208.213, 7.855
1209.434, 462.656
1210.655, 498.988
1211.876, 293.645
1213.096, 781.027
1214.317, 396.961
1215.537, 402.461
1216.757, 577.016
1217.977, 462.711
1219.197, 747.207
1220.417, 348.398
1221.636, 442.844
1222.855, 627.254
1224.074, 423.527
1225.293, 617.875
1226.512, 363.250
1227.731, 392.844
1228.949, 877.164
1230.167, 487.059
1231.385, 188.395
1232.603, 932.621
1233.820, 580.137
1235.038, 495.535
1236.255, 759.691
1237.472, 23.441
1238.689, 960.688
1239.906, 294.770
1241.122, 299.742
1242.338, 923.812
1243.555, 457.875
1244.771, 443.141
1245.986, 947.172
1247.202, 152.539
1248.417, 566.656
1249.633, 480.633
1250.848, 445.688
1252.063, 549.625
1253.277, 503.539
1254.492, 477.590
1255.706, 541.469
1256.920, 457.309
1258.134, 1071.090
1259.348, 564.848
1260.562, 44.254
1261.775, 987.953
1262.988, 631.648
1264.201, 45.711
1265.414, 1019.344
1266.627, 452.949
1267.839, 516.461
1269.052, 469.953
1270.264, 244.855
1271.476, 849.430
1272.688, 512.602
1273.899, 267.266
1275.111, 850.188
1276.322, 172.977
1277.533, 837.320
1278.744, 360.016
1279.955, 97.336
1281.165, 1005.203
1282.376, 287.723
1283.586, 100.176
1284.796, 672.551
1286.006, 164.734
1287.215, 319.133
1288.425, 461.219
1289.634, 23.164
1290.843, 375.414
1292.052, 387.234
1293.261, 229.000
1294.469, 571.344
1295.678, 76.996
1296.886, 195.090
1298.094, 706.590
1299.302, 111.957
1300.509, 389.477
1301.717, 190.742
1302.924, 108.055
1304.131, 452.930
1305.338, 6.180
1306.545, 125.500
1307.752, 314.953
1308.958, 174.676
1310.164, 154.418
1311.370, 755.715
1312.576, 224.215
1313.782, 135.707
1314.987, 195.562
1316.193, 214.656
1317.398, 414.984
1318.603, 94.539
1319.807, 44.023
1321.012, 673.371
1322.216, 42.645
1323.421, 351.832
1324.625, 360.949
1325.829, 20.035
1327.032, 338.867
1328.236, 287.703
1329.439, 23.559
1330.642, 515.094
1331.845, 6.320
1333.048, 152.176
1334.251, 380.570
1335.453, 331.105
1336.656, 577.043
1337.858, 35.117
1339.060, 263.109
1340.261, 611.020
1341.463, 151.133
1342.664, 186.586
1343.866, 624.250
1345.067, 38.148
1346.267, 509.375
1347.468, 617.336
1348.669, 34.746
1349.869, 582.102
1351.069, 369.410
1352.269, 236.668
1353.469, 472.859
1354.668, 100.031
1355.868, 627.160
1357.067, 4.262
1358.266, 171.320
1359.465, 268.363
1360.664, 576.562
1361.862, 213.578
1363.061, 710.586
1364.259, 62.414
1365.457, 524.574
1366.655, 701.590
1367.852, 68.645
1369.050, 785.742
1370.247, 242.836
1371.444, 199.992
1372.641, 567.219
1373.838, 45.082
1375.035, 227.582
1376.231, 509.516
1377.427, 165.605
1378.623, 215.648
1379.819, 527.395
1381.015, 5.934
1382.211, 507.023
1383.406, 588.574
1384.601, 310.070
1385.796, 730.543
1386.991, 681.918
1388.185, 233.234
1389.380, 1094.504
1390.574, 205.703
1391.768, 505.188
1392.962, 666.211
1394.156, 275.480
1395.350, 1026.383
1396.543, 576.383
1397.736, 507.152
1398.929, 1237.070
1400.122, 106.441
1401.315, 585.645
1402.507, 1145.289
1403.700, 36.086
1404.892, 682.094
1406.084, 639.680
1407.276, 459.051
1408.467, 917.945
1409.659, 835.926
1410.850, 2262.145
1412.041, 1099.887
1413.232, 175.703
1414.423, 214.430
1415.614, 1302.992
1416.804, 113.719
1417.994, 915.949
1419.184, 868.730
1420.374, 74.047
1421.564, 1009.082
1422.753, 573.176
1423.943, 963.172
1425.132, 678.680
1426.321, 528.824
1427.510, 478.305
1428.698, 767.680
1429.887, 18.828
1431.075, 526.438
1432.263, 810.633
1433.451, 307.918
1434.639, 884.141
1435.827, 716.730
1437.014, 250.148
1438.201, 1003.238
1439.388, 274.402
1440.575, 506.219
1441.762, 889.855
1442.949, 363.242
1444.135, 968.672
1445.321, 680.469
1446.507, 494.410
1447.693, 1188.184
1448.879, 1928.840
1450.064, 1623.309
1451.250, 1180.672
1452.435, 313.199
1453.620, 643.613
1454.805, 962.887
1455.989, 571.414
1457.174, 1842.266
1458.358, 900.527
1459.542, 550.492
1460.726, 1245.703
1461.910, 925.355
1463.093, 350.652
1464.277, 1578.254
1465.460, 606.496
1466.643, 784.688
1467.826, 1195.465
1469.009, 509.625
1470.191, 1088.742
1471.373, 1053.211
1472.556, 531.984
1473.738, 1210.555
1474.919, 869.492
1476.101, 691.355
1477.283, 1199.379
1478.464, 368.430
1479.645, 655.039
1480.826, 1171.727
1482.007, 489.652
1483.187, 817.820
1484.368, 1026.828
1485.548, 247.355
1486.728, 858.445
1487.908, 819.566
1489.088, 110.816
1490.268, 1412.211
1491.447, 523.922
1492.626, 696.504
1493.805, 1469.484
1494.984, 303.340
1496.163, 487.883
1497.341, 1443.117
1498.520, 349.227
1499.698, 876.387
1500.876, 904.719
1502.054, 4.391
1503.232, 1185.445
1504.409, 647.910
1505.586, 387.301
1506.763, 1223.039
1507.940, 480.988
1509.117, 601.523
1510.294, 1235.098
1511.470, 703.492
1512.647, 862.094
1513.823, 1175.891
1514.999, 465.262
1516.174, 1063.961
1517.350, 1277.523
1518.526, 6.102
1519.701, 0.000
##END=



