##NAMES=Barrerite
##RRUFFID=R050135
##IDEAL CHEMISTRY=Na_2_(Al_2_Si_7_)O_18_&#183;6H_2_O
##LOCALITY=Kuiu Island, Alaska, USA
##OWNER=RRUFF
##SOURCE=Ben Norton
##DESCRIPTION=Colorless laminar crystals
##STATUS=The identification of this mineral has been confirmed by X-ray diffraction and chemical analysis
##URL=rruff.info/R050135
##MEASURED CHEMISTRY=(Na_4.49_K_1.30_Ca_1.23_[box]_0.98_)_Σ=8_(Si_27.75_Al_8.25_)O_72_·19H_2_O
##PIN_ID=M00182
##ORIENTATION=Laser parallel to c* (0 0 1). Fiducial mark perpendicular to laser is parallel to -a [-1 0 0]
145.480, 0.000
146.865, 154.726
148.250, 66.036
149.635, 163.666
151.019, 360.695
152.403, 333.800
153.788, 390.687
155.171, 471.200
156.555, 514.162
157.939, 563.690
159.322, 615.798
160.705, 620.570
162.088, 656.012
163.470, 648.440
164.853, 580.517
166.235, 541.514
167.617, 410.684
168.998, 462.253
170.380, 421.281
171.761, 288.791
173.142, 351.625
174.523, 279.803
175.904, 282.660
177.284, 240.631
178.664, 241.945
180.044, 259.148
181.424, 151.709
182.803, 192.886
184.183, 243.455
185.562, 314.132
186.940, 226.579
188.319, 239.086
189.698, 354.768
191.076, 265.347
192.454, 258.336
193.831, 229.511
195.209, 243.630
196.586, 125.578
197.963, 24.400
199.340, 158.964
200.717, 201.554
202.093, 42.438
203.470, 126.536
204.846, 39.121
206.221, 63.066
207.597, 60.938
208.972, 104.095
210.347, 18.087
211.722, 91.534
213.097, 32.724
214.472, 79.965
215.846, 44.737
217.220, 115.236
218.594, 94.499
219.967, 33.332
221.341, 16.084
222.714, 38.679
224.087, 97.122
225.460, 53.302
226.832, 26.814
228.204, 33.505
229.577, 12.838
230.948, 56.171
232.320, 47.499
233.692, 71.119
235.063, 63.009
236.434, 26.084
237.805, 0.632
239.175, 39.188
240.545, 81.389
241.916, 29.067
243.286, 43.828
244.655, 88.646
246.025, 86.492
247.394, 32.344
248.763, 44.181
250.132, 120.984
251.501, 47.261
252.869, 91.427
254.237, 9.024
255.605, 49.528
256.973, 170.926
258.340, 26.212
259.708, 194.384
261.075, 105.427
262.442, 17.288
263.808, 104.018
265.175, 135.629
266.541, 114.080
267.907, 32.594
269.273, 36.564
270.639, 38.595
272.004, 75.536
273.369, 62.170
274.734, 45.252
276.099, 128.766
277.463, 23.354
278.828, 93.014
280.192, 9.260
281.556, 6.533
282.919, 204.643
284.283, 11.772
285.646, 99.841
287.009, 69.154
288.372, 7.806
289.734, 101.673
291.097, 45.453
292.459, 215.124
293.821, 1.382
295.183, 102.973
296.544, 75.254
297.905, 118.474
299.266, 149.581
300.627, 182.628
301.988, 306.618
303.348, 263.550
304.709, 291.434
306.069, 459.277
307.428, 312.086
308.788, 544.867
310.147, 511.019
311.507, 641.220
312.865, 678.293
314.224, 725.157
315.583, 861.768
316.941, 798.091
318.299, 924.111
319.657, 849.811
321.015, 875.177
322.372, 960.201
323.729, 924.876
325.086, 1089.203
326.443, 893.183
327.800, 996.783
329.156, 950.006
330.512, 862.855
331.868, 985.339
333.224, 757.446
334.579, 909.188
335.935, 850.525
337.290, 831.521
338.645, 842.160
339.999, 692.453
341.354, 792.425
342.708, 722.018
344.062, 881.115
345.416, 689.386
346.769, 847.454
348.123, 835.275
349.476, 782.921
350.829, 899.788
352.182, 796.367
353.534, 743.056
354.887, 918.973
356.239, 914.503
357.591, 1019.725
358.942, 874.838
360.294, 1029.156
361.645, 1002.331
362.996, 1096.515
364.347, 1210.759
365.698, 1203.590
367.048, 1297.139
368.398, 1319.729
369.748, 1462.548
371.098, 1515.125
372.448, 1667.842
373.797, 1809.205
375.146, 1861.196
376.495, 2068.358
377.844, 2209.834
379.192, 2300.890
380.540, 2472.693
381.889, 2614.137
383.236, 2752.974
384.584, 2944.184
385.932, 3065.066
387.279, 3257.163
388.626, 3446.182
389.973, 3793.816
391.319, 3794.740
392.666, 4124.684
394.012, 4285.545
395.358, 4502.074
396.704, 5003.455
398.049, 5109.021
399.394, 5750.174
400.740, 5870.281
402.084, 6318.512
403.429, 6910.590
404.774, 7313.096
406.118, 8044.375
407.462, 8387.128
408.806, 9009.211
410.150, 9200.139
411.493, 9711.780
412.836, 9925.958
414.179, 9943.114
415.522, 9912.447
416.865, 9732.958
418.207, 9227.346
419.549, 8859.867
420.891, 8271.701
422.233, 7788.849
423.575, 7015.504
424.916, 6757.523
426.257, 6249.072
427.598, 5812.742
428.939, 5474.758
430.279, 4953.176
431.619, 4754.914
432.959, 4345.938
434.299, 3943.054
435.639, 3924.111
436.978, 3461.309
438.318, 3363.827
439.657, 3092.644
440.996, 2977.107
442.334, 2837.739
443.673, 2737.222
445.011, 2559.378
446.349, 2499.537
447.687, 2450.571
449.024, 2506.200
450.361, 2396.306
451.699, 2497.345
453.036, 2577.910
454.372, 2939.522
455.709, 2689.448
457.045, 3030.493
458.381, 3331.307
459.717, 3292.483
461.053, 3623.791
462.388, 3665.229
463.724, 3627.184
465.059, 3788.951
466.394, 3583.762
467.728, 3453.410
469.063, 3235.368
470.397, 3028.169
471.731, 2870.879
473.065, 2443.541
474.398, 2496.133
475.732, 2198.656
477.065, 2251.113
478.398, 2023.502
479.731, 1945.824
481.063, 1978.083
482.396, 1970.277
483.728, 2062.412
485.060, 2014.484
486.391, 2236.497
487.723, 2208.453
489.054, 2280.352
490.385, 2862.195
491.716, 2933.984
493.047, 3385.724
494.377, 3997.412
495.708, 4359.051
497.038, 5260.643
498.368, 5482.188
499.697, 6193.688
501.027, 6245.146
502.356, 6286.562
503.685, 6067.937
505.014, 5099.428
506.342, 4600.730
507.671, 3912.610
508.999, 3243.845
510.327, 2795.366
511.655, 2126.900
512.982, 1868.155
514.310, 1549.643
515.637, 1401.028
516.964, 1162.623
518.291, 884.113
519.617, 925.746
520.944, 708.652
522.270, 802.150
523.596, 673.566
524.921, 595.464
526.247, 646.850
527.572, 439.307
528.897, 502.334
530.222, 373.721
531.547, 397.410
532.871, 350.474
534.196, 341.965
535.520, 263.995
536.844, 266.071
538.167, 212.487
539.491, 220.852
540.814, 125.420
542.137, 106.644
543.460, 70.665
544.783, 152.143
546.105, 73.656
547.427, 55.329
548.749, 175.735
550.071, 127.186
551.393, 20.227
552.714, 311.175
554.035, 172.271
555.356, 171.327
556.677, 184.089
557.998, 55.702
559.318, 46.907
560.638, 12.290
561.958, 29.043
563.278, 29.801
564.597, 101.190
565.917, 17.823
567.236, 24.085
568.555, 134.954
569.874, 5.858
571.192, 42.848
572.511, 88.084
573.829, 129.171
575.147, 111.763
576.464, 57.581
577.782, 53.651
579.099, 15.757
580.416, 45.033
581.733, 325.940
583.050, 23.512
584.366, 137.208
585.683, 32.283
586.999, 38.781
588.315, 39.243
589.630, 10.300
590.946, 100.164
592.261, 29.388
593.576, 151.102
594.891, 161.530
596.206, 31.983
597.520, 112.549
598.834, 112.993
600.148, 93.543
601.462, 224.004
602.776, 94.443
604.089, 314.869
605.402, 275.286
606.715, 355.688
608.028, 456.102
609.341, 366.503
610.653, 556.894
611.965, 387.277
613.277, 517.644
614.589, 558.018
615.901, 468.376
617.212, 528.725
618.523, 579.058
619.834, 819.375
621.145, 559.677
622.456, 709.987
623.766, 680.281
625.076, 560.556
626.386, 620.808
627.696, 731.044
629.006, 681.257
630.315, 751.446
631.624, 581.635
632.933, 611.802
634.242, 541.946
635.551, 572.069
636.859, 552.169
638.167, 422.248
639.475, 632.304
640.783, 452.337
642.090, 392.350
643.398, 622.339
644.705, 502.308
646.012, 372.255
647.318, 282.181
648.625, 322.086
649.931, 421.970
651.237, 261.832
652.543, 351.674
653.849, 291.494
655.155, 271.295
656.460, 231.080
657.765, 250.844
659.070, 220.586
660.375, 350.309
661.679, 160.013
662.984, 279.695
664.288, 49.357
665.592, 218.995
666.895, 118.614
668.199, 108.209
669.502, 167.781
670.805, 104.893
672.108, 122.861
673.411, 66.692
674.713, 86.174
676.016, 45.733
677.318, 14.759
678.620, 25.365
679.921, 84.541
681.223, 3.907
682.524, 83.205
683.825, 7.201
685.126, 17.751
686.427, 71.634
687.727, 29.190
689.028, 17.727
690.328, 42.005
691.628, 1.068
692.927, 0.532
694.227, 19.968
695.526, 18.889
696.825, 42.142
698.124, 99.420
699.423, 32.093
700.721, 36.847
702.020, 25.397
703.318, 147.190
704.616, 136.562
705.913, 45.366
707.211, 5.480
708.508, 51.808
709.805, 160.662
711.102, 128.957
712.399, 167.367
713.695, 15.869
714.992, 93.867
716.288, 191.655
717.584, 59.086
718.879, 96.999
720.175, 138.852
721.470, 136.646
722.765, 12.649
724.060, 170.305
725.355, 158.543
726.649, 71.507
727.944, 147.003
729.238, 0.413
730.532, 130.206
731.825, 278.263
733.119, 42.801
734.412, 410.515
735.705, 137.415
736.998, 105.979
738.291, 255.014
739.584, 141.545
740.876, 229.292
742.168, 45.331
743.460, 253.927
744.752, 211.167
746.043, 194.011
747.334, 271.623
748.626, 177.333
749.916, 234.841
751.207, 182.369
752.498, 159.338
753.788, 306.621
755.078, 163.887
756.368, 181.313
757.658, 339.437
758.947, 247.703
760.237, 365.757
761.526, 293.354
762.815, 420.928
764.104, 308.479
765.392, 286.801
766.680, 495.328
767.969, 332.807
769.257, 344.059
770.544, 441.487
771.832, 309.857
773.119, 397.239
774.406, 424.761
775.693, 382.232
776.980, 536.339
778.267, 483.671
779.553, 681.164
780.839, 548.399
782.125, 546.500
783.411, 563.687
784.697, 570.859
785.982, 656.879
787.267, 660.225
788.552, 817.687
789.837, 754.752
791.122, 771.793
792.406, 878.811
793.690, 725.802
794.974, 792.771
796.258, 809.718
797.542, 856.639
798.825, 823.534
800.108, 780.407
801.391, 977.256
802.674, 884.081
803.957, 930.884
805.239, 997.662
806.522, 844.417
807.804, 941.148
809.085, 927.855
810.367, 845.442
811.649, 952.103
812.930, 778.741
814.211, 745.357
815.492, 662.283
816.772, 608.696
818.053, 510.423
819.333, 491.280
820.613, 409.440
821.893, 344.014
823.173, 300.105
824.452, 246.427
825.732, 239.303
827.011, 88.554
828.290, 194.386
829.568, 140.278
830.847, 145.981
832.125, 210.372
833.403, 34.133
834.681, 149.932
835.959, 175.209
837.236, 80.964
838.514, 105.607
839.791, 109.645
841.068, 245.288
842.345, 11.405
843.621, 22.481
844.898, 217.910
846.174, 42.768
847.450, 27.566
848.726, 121.194
850.001, 96.447
851.277, 31.335
852.552, 74.183
853.827, 6.874
855.102, 82.091
856.376, 42.758
857.651, 47.155
858.925, 28.363
860.199, 3.480
861.473, 55.649
862.746, 67.642
864.020, 118.092
865.293, 83.497
866.566, 69.047
867.839, 53.881
869.112, 89.096
870.384, 44.691
871.656, 29.741
872.928, 75.064
874.200, 150.238
875.472, 134.479
876.744, 59.807
878.015, 25.102
879.286, 79.667
880.557, 265.123
881.828, 69.763
883.098, 3.506
884.369, 8.521
885.639, 83.789
886.909, 18.439
888.178, 33.696
889.448, 11.273
890.717, 6.398
891.987, 18.804
893.256, 63.803
894.524, 18.985
895.793, 16.426
897.061, 68.728
898.330, 96.128
899.598, 28.957
900.865, 134.029
902.133, 479.052
903.401, 164.110
904.668, 529.138
905.935, 494.063
907.202, 669.095
908.468, 24.025
909.735, 0.979
911.001, 15.983
912.267, 1.007
913.533, 163.954
914.799, 168.904
916.064, 133.845
917.330, 11.226
918.595, 16.313
919.860, 148.579
921.124, 66.538
922.389, 128.300
923.653, 16.870
924.918, 97.940
926.182, 32.743
927.445, 37.534
928.709, 117.685
929.972, 57.030
931.236, 11.735
932.499, 116.431
933.761, 18.883
935.024, 95.786
936.286, 60.448
937.549, 94.897
938.811, 79.705
940.073, 5.700
941.334, 98.884
942.596, 123.461
943.857, 90.603
945.118, 122.597
946.379, 77.155
947.640, 51.707
948.900, 86.252
950.161, 120.793
951.421, 75.326
952.681, 169.854
953.940, 154.378
955.200, 141.225
956.459, 177.176
957.719, 127.913
958.978, 112.416
960.236, 166.913
961.495, 28.594
962.753, 195.885
964.012, 90.360
965.270, 234.831
966.527, 10.701
967.785, 163.758
969.043, 228.215
970.300, 2.673
971.557, 217.130
972.814, 11.583
974.071, 126.035
975.327, 190.485
976.583, 174.934
977.840, 219.381
979.095, 123.500
980.351, 127.947
981.607, 212.291
982.862, 216.665
984.117, 51.120
985.372, 455.033
986.627, 59.481
987.882, 343.972
989.136, 278.143
990.390, 242.435
991.644, 246.761
992.898, 230.445
994.152, 333.468
995.405, 307.362
996.659, 321.932
997.912, 486.074
999.165, 330.155
1000.417, 344.659
1001.670, 479.066
1002.922, 390.441
1004.174, 544.797
1005.426, 486.372
1006.678, 482.143
1007.930, 423.825
1009.181, 434.437
1010.432, 448.687
1011.683, 442.367
1012.934, 226.800
1014.185, 611.293
1015.435, 376.003
1016.685, 530.609
1017.935, 425.207
1019.185, 379.751
1020.435, 554.475
1021.684, 399.020
1022.934, 643.511
1024.183, 522.900
1025.432, 547.804
1026.680, 573.520
1027.929, 398.216
1029.177, 542.772
1030.425, 462.055
1031.673, 537.003
1032.921, 456.974
1034.169, 601.334
1035.416, 265.896
1036.663, 490.788
1037.911, 375.419
1039.157, 450.122
1040.404, 553.839
1041.650, 657.853
1042.897, 612.529
1044.143, 517.429
1045.389, 442.149
1046.634, 585.755
1047.880, 540.708
1049.125, 609.559
1050.371, 704.394
1051.615, 499.513
1052.860, 784.635
1054.105, 499.763
1055.349, 454.895
1056.593, 640.031
1057.837, 675.195
1059.081, 380.096
1060.325, 664.817
1061.568, 528.855
1062.812, 593.609
1064.055, 448.801
1065.298, 413.998
1066.540, 619.199
1067.783, 323.609
1069.025, 567.795
1070.267, 363.010
1071.509, 514.450
1072.751, 519.692
1073.993, 454.005
1075.234, 519.284
1076.475, 614.404
1077.716, 389.558
1078.957, 488.057
1080.198, 603.313
1081.438, 348.398
1082.679, 593.721
1083.919, 448.160
1085.159, 603.537
1086.398, 668.908
1087.638, 639.223
1088.877, 854.655
1090.116, 599.722
1091.355, 625.214
1092.594, 710.678
1093.833, 856.146
1095.071, 901.616
1096.309, 757.091
1097.547, 692.568
1098.785, 1078.050
1100.023, 763.537
1101.260, 849.034
1102.498, 1094.535
1103.735, 810.040
1104.972, 1055.551
1106.208, 1021.065
1107.445, 1066.618
1108.681, 1192.145
1109.918, 1057.676
1111.154, 1102.309
1112.389, 1157.848
1113.625, 1223.389
1114.860, 1189.424
1116.096, 1164.648
1117.331, 1170.244
1118.566, 1457.041
1119.800, 1342.480
1121.035, 1428.250
1122.269, 1233.973
1123.503, 1339.553
1124.737, 1565.330
1125.971, 1290.918
1127.205, 1246.840
1128.438, 1632.668
1129.671, 1248.266
1130.904, 1544.717
1132.137, 1420.320
1133.370, 1386.100
1134.602, 1686.945
1135.834, 1412.555
1137.066, 1448.162
1138.298, 1785.244
1139.530, 1800.855
1140.762, 1767.357
1141.993, 1473.000
1143.224, 1309.262
1144.455, 1701.855
1145.686, 1358.133
1146.917, 1744.023
1148.147, 1650.027
1149.377, 1195.766
1150.607, 1602.625
1151.837, 1448.811
1153.067, 1424.477
1154.296, 1536.656
1155.526, 1282.320
1156.755, 1548.730
1157.984, 1565.689
1159.213, 1321.408
1160.441, 1547.068
1161.670, 1433.652
1162.898, 1229.371
1164.126, 1603.250
1165.354, 1250.098
1166.581, 1465.764
1167.809, 1447.258
1169.036, 1233.521
1170.263, 1489.434
1171.490, 1291.705
1172.717, 1167.361
1173.943, 1563.328
1175.170, 1312.693
1176.396, 1568.365
1177.622, 1455.822
1178.848, 1261.504
1180.073, 1277.482
1181.299, 1115.557
1182.524, 1162.414
1183.749, 1348.570
1184.974, 1115.016
1186.199, 1270.664
1187.423, 1117.709
1188.648, 1094.713
1189.872, 1080.338
1191.096, 1072.445
1192.320, 977.648
1193.543, 1064.318
1194.767, 800.846
1195.990, 716.418
1197.213, 689.904
1198.436, 796.102
1199.659, 741.658
1200.881, 597.701
1202.104, 413.596
1203.326, 669.109
1204.548, 440.150
1205.770, 475.635
1206.991, 452.451
1208.213, 367.232
1209.434, 333.955
1210.655, 440.635
1211.876, 176.049
1213.096, 491.881
1214.317, 437.646
1215.537, 253.648
1216.757, 359.012
1217.977, 449.227
1219.197, 524.570
1220.417, 503.678
1221.636, 530.129
1222.855, 407.598
1224.074, 434.160
1225.293, 409.422
1226.512, 246.178
1227.731, 333.207
1228.949, 438.709
1230.167, 254.357
1231.385, 180.266
1232.603, 455.455
1233.820, 310.611
1235.038, 236.158
1236.255, 341.959
1237.472, 160.900
1238.689, 476.074
1239.906, 191.242
1241.122, 306.402
1242.338, 461.557
1243.555, 176.703
1244.771, 241.846
1245.986, 356.979
1247.202, 203.549
1248.417, 308.664
1249.633, 313.766
1250.848, 209.170
1252.063, 324.254
1253.277, 179.576
1254.492, 255.416
1255.706, 340.469
1256.920, 295.779
1258.134, 490.787
1259.348, 255.777
1260.562, 82.670
1261.775, 407.631
1262.988, 192.543
1264.201, 2.561
1265.414, 542.312
1266.627, 157.174
1267.839, 152.689
1269.052, 317.475
1270.264, 162.596
1271.476, 357.527
1272.688, 132.098
1273.899, 157.592
1275.111, 342.090
1276.322, 36.533
1277.533, 320.932
1278.744, 175.301
1279.955, 60.350
1281.165, 433.938
1282.376, 228.199
1283.586, 2.432
1284.796, 246.631
1286.006, 40.771
1287.215, 271.875
1288.425, 85.906
1289.634, 80.086
1290.843, 84.033
1292.052, 177.918
1293.261, 151.771
1294.469, 216.141
1295.678, 29.936
1296.886, 113.699
1298.094, 367.436
1299.302, 68.893
1300.509, 244.672
1301.717, 78.203
1302.924, 31.693
1304.131, 235.139
1305.338, 121.535
1306.545, 61.635
1307.752, 234.764
1308.958, 92.170
1310.164, 139.174
1311.370, 343.746
1312.576, 53.369
1313.782, 99.443
1314.987, 182.215
1316.193, 65.053
1317.398, 247.605
1318.603, 170.223
1319.807, 17.221
1321.012, 265.283
1322.216, 17.742
1323.421, 300.146
1324.625, 172.502
1325.829, 4.814
1327.032, 47.064
1328.236, 129.268
1329.439, 81.430
1330.642, 353.545
1331.845, 35.623
1333.048, 37.557
1334.251, 329.443
1335.453, 58.721
1336.656, 263.037
1337.858, 94.750
1339.060, 66.414
1340.261, 258.027
1341.463, 80.402
1342.664, 101.092
1343.866, 252.545
1345.067, 123.955
1346.267, 155.322
1347.468, 286.650
1348.669, 42.064
1349.869, 319.158
1351.069, 40.344
1352.269, 81.482
1353.469, 182.582
1354.668, 73.641
1355.868, 394.662
1357.067, 136.803
1358.266, 147.764
1359.465, 98.695
1360.664, 349.600
1361.862, 29.518
1363.061, 331.322
1364.259, 57.852
1365.457, 142.932
1366.655, 223.705
1367.852, 44.643
1369.050, 345.330
1370.247, 36.018
1371.444, 26.703
1372.641, 167.389
1373.838, 128.066
1375.035, 121.215
1376.231, 349.541
1377.427, 109.527
1378.623, 144.307
1379.819, 98.057
1381.015, 8.203
1382.211, 355.510
1383.406, 439.197
1384.601, 272.848
1385.796, 336.461
1386.991, 290.041
1388.185, 333.547
1389.380, 467.057
1390.574, 50.535
1391.768, 343.426
1392.962, 265.398
1394.156, 168.518
1395.350, 611.566
1396.543, 184.609
1397.736, 97.184
1398.929, 609.371
1400.122, 182.311
1401.315, 429.139
1402.507, 530.383
1403.700, 42.273
1404.892, 354.391
1406.084, 377.756
1407.276, 239.725
1408.467, 450.742
1409.659, 432.691
1410.850, 96.771
1412.041, 576.604
1413.232, 125.664
1414.423, 166.645
1415.614, 622.385
1416.804, 46.201
1417.994, 386.730
1419.184, 359.068
1420.374, 204.916
1421.564, 473.795
1422.753, 214.760
1423.943, 240.846
1425.132, 300.219
1426.321, 279.320
1427.510, 208.398
1428.698, 589.406
1429.887, 72.170
1431.075, 386.090
1432.263, 305.820
1433.451, 115.107
1434.639, 466.512
1435.827, 314.744
1437.014, 43.461
1438.201, 572.406
1439.388, 181.330
1440.575, 690.508
1441.762, 511.889
1442.949, 338.941
1444.135, 546.322
1445.321, 303.279
1446.507, 219.033
1447.693, 506.662
1448.879, 115.795
1450.064, 252.508
1451.250, 553.174
1452.435, 291.324
1453.620, 339.271
1454.805, 437.002
1455.989, 211.291
1457.174, 517.844
1458.358, 374.270
1459.542, 309.197
1460.726, 515.086
1461.910, 546.738
1463.093, 172.857
1464.277, 768.820
1465.460, 332.762
1466.643, 447.424
1467.826, 422.695
1469.009, 276.092
1470.191, 602.207
1471.373, 428.195
1472.556, 194.076
1473.738, 719.777
1474.919, 293.213
1476.101, 368.461
1477.283, 593.006
1478.464, 46.125
1479.645, 480.836
1480.826, 485.393
1482.007, 240.201
1483.187, 314.877
1484.368, 460.391
1485.548, 246.238
1486.728, 262.053
1487.908, 457.777
1489.088, 143.480
1490.268, 569.184
1491.447, 255.049
1492.626, 90.938
1493.805, 536.934
1494.984, 83.064
1496.163, 149.195
1497.341, 495.967
1498.520, 36.445
1499.698, 271.580
1500.876, 500.016
1502.054, 58.906
1503.232, 418.225
1504.409, 248.068
1505.586, 268.566
1506.763, 359.867
1507.940, 182.170
1509.117, 10.537
1510.294, 362.062
1511.470, 175.564
1512.647, 180.055
1513.823, 425.430
1514.999, 178.207
1516.174, 290.438
1517.350, 420.357
1518.526, 0.000
##END=



