##NAMES=Baryte
##RRUFFID=R050375
##IDEAL CHEMISTRY=BaS^6+^O_4_
##LOCALITY=unknown
##OWNER=RRUFF
##SOURCE=Eugene Schlepp
##DESCRIPTION=Pale green tabular crystals
##STATUS=The identification of this mineral has been confirmed by X-ray diffraction and chemical analysis
##URL=rruff.info/R050375
##MEASURED CHEMISTRY=Ba_1.00_SO_4_
##PIN_ID=L01098
##ORIENTATION=Laser parallel to -a* (-1 0 0). Fiducial mark perpendicular to laser is parallel to -b [0 -1 0]
51.43100, 0.0000000E+00
52.67100, 27.81381
53.91000, 9.417053
55.14900, 32.11438
56.38700, 16.60123
57.62600, 2.709106
58.86400, 6.243195
60.10300, 3.227112
61.34100, 2.140442
62.57900, 28.69116
63.81700, 61.28223
65.05400, 104.7932
66.29200, 197.1237
67.52900, 241.1900
68.76700, 300.9213
70.00400, 510.2577
71.24100, 791.1460
72.47700, 1040.538
73.71400, 1218.388
74.95100, 1343.660
76.18700, 1162.318
77.42300, 879.3355
78.65900, 562.6877
79.89500, 504.3530
81.13100, 456.3132
82.36700, 471.5511
83.60200, 482.0511
84.83700, 531.7996
86.07200, 532.7834
87.30800, 609.9915
88.54200, 632.4125
89.77700, 666.0309
91.01200, 708.8282
92.24600, 758.7910
93.48000, 778.9082
94.71400, 824.1715
95.94800, 835.5732
97.18200, 875.1080
98.41600, 845.7712
99.64900, 880.5583
100.8830, 793.4656
102.1160, 759.4896
103.3490, 720.6287
104.5820, 693.8824
105.8150, 653.2494
107.0470, 649.7266
108.2800, 681.3105
109.5120, 659.9983
110.7440, 656.7858
111.9760, 606.6705
113.2080, 630.6490
114.4400, 670.7190
115.6710, 682.8778
116.9030, 729.1232
118.1340, 812.4526
119.3650, 827.8638
120.5960, 885.3624
121.8270, 934.9383
123.0580, 914.5901
124.2880, 990.3159
125.5190, 1069.099
126.7490, 1111.881
127.9790, 1214.662
129.2090, 1248.448
130.4390, 1225.244
131.6680, 1012.059
132.8980, 879.9018
134.1270, 857.7739
135.3560, 752.6838
136.5850, 728.6255
137.8140, 707.6038
139.0430, 745.6171
140.2710, 767.6746
141.5000, 768.7722
142.7280, 812.9302
143.9560, 877.1285
145.1840, 1020.374
146.4120, 1033.672
147.6390, 1145.021
148.8670, 1108.413
150.0940, 1089.852
151.3210, 1033.341
152.5490, 992.8699
153.7750, 864.4751
155.0020, 752.1631
156.2290, 684.9348
157.4550, 659.7767
158.6810, 596.6598
159.9080, 506.5959
161.1340, 528.5735
162.3590, 472.5938
163.5850, 493.6522
164.8110, 467.7439
166.0360, 491.8682
167.2610, 482.0251
168.4860, 441.2145
169.7110, 453.4363
170.9360, 447.6902
172.1610, 474.9764
173.3850, 423.2946
174.6100, 391.6444
175.8340, 431.0256
177.0580, 397.4382
178.2820, 433.8818
179.5050, 423.3562
180.7290, 445.8610
181.9520, 419.3960
183.1760, 406.9609
184.3990, 437.5554
185.6220, 442.1792
186.8450, 455.8320
188.0670, 481.8558
189.2900, 438.5626
190.5120, 473.2980
191.7340, 476.0613
192.9560, 432.8522
194.1780, 430.6703
195.4000, 381.5154
196.6220, 353.3875
197.8430, 340.3877
199.0640, 324.5110
200.2860, 358.5164
201.5070, 298.4020
202.7270, 352.4359
203.9480, 302.5469
205.1690, 276.7196
206.3890, 199.7606
207.6090, 257.1271
208.8290, 211.6653
210.0490, 152.2577
211.2690, 249.9266
212.4890, 247.6781
213.7080, 206.8425
214.9280, 194.7183
216.1470, 199.6554
217.3660, 162.0980
218.5850, 220.1495
219.8030, 242.2545
221.0220, 185.4307
222.2400, 206.7501
223.4590, 202.0034
224.6770, 169.3041
225.8950, 219.6500
227.1120, 154.5175
228.3300, 182.9519
229.5480, 185.5742
230.7650, 194.0889
231.9820, 199.0371
233.1990, 226.8140
234.4160, 163.4417
235.6330, 136.1766
236.8490, 183.8748
238.0660, 201.5160
239.2820, 201.2820
240.4980, 189.1226
241.7140, 185.3405
242.9300, 127.3768
244.1460, 160.2648
245.3610, 143.1818
246.5770, 139.1290
247.7920, 162.1675
249.0070, 159.4719
250.2220, 159.9745
251.4370, 164.0599
252.6510, 145.6763
253.8660, 157.7148
255.0800, 134.8495
256.2940, 121.5253
257.5080, 142.9299
258.7220, 132.6854
259.9360, 140.6888
261.1490, 138.6400
262.3630, 112.9363
263.5760, 101.2306
264.7890, 134.5461
266.0020, 122.4475
267.2150, 82.80457
268.4270, 117.1816
269.6400, 99.89673
270.8520, 104.3871
272.0640, 55.82227
273.2760, 94.65027
274.4880, 98.12451
275.7000, 88.64111
276.9120, 115.1544
278.1230, 89.68677
279.3340, 107.2383
280.5450, 45.80835
281.7560, 55.39746
282.9670, 91.00977
284.1780, 111.6462
285.3880, 141.3010
286.5980, 110.9788
287.8090, 128.9636
289.0190, 75.39014
290.2290, 109.1222
291.4380, 90.87170
292.6480, 48.63843
293.8570, 60.42200
295.0670, 89.22253
296.2760, 51.03967
297.4850, 76.87329
298.6930, 56.72290
299.9020, 75.58862
301.1110, 72.46997
302.3190, 68.36646
303.5270, 38.27783
304.7350, 55.20398
305.9430, 40.14490
307.1510, 52.09998
308.3580, 88.06946
309.5660, 55.05286
310.7730, 62.05029
311.9800, 44.06152
313.1870, 47.08630
314.3940, 72.12476
315.6010, 72.17664
316.8070, 27.24170
318.0130, 35.31982
319.2200, 13.41101
320.4260, 57.51514
321.6310, 56.63208
322.8370, 18.23840
324.0430, 54.90198
325.2480, 25.05493
326.4540, 65.22009
327.6590, 13.39734
328.8640, 54.58667
330.0680, 37.78784
331.2730, 95.00085
332.4780, 10.22559
333.6820, 33.46008
334.8860, 29.70618
336.0900, 30.96350
337.2940, 59.23206
338.4980, 70.51172
339.7010, 62.21436
340.9050, 6.896118
342.1080, 38.41565
343.3110, 45.73767
344.5140, 28.07874
345.7170, 117.4398
346.9200, 2.178833
348.1220, 35.22168
349.3240, 15.35840
350.5270, 36.07861
351.7290, 44.83386
352.9310, 1.500854
354.1320, 62.99084
355.3340, 49.49939
356.5350, 2.4780000E-02
357.7370, 14.12256
358.9380, 9.580322
360.1390, 29.14966
361.3400, 16.26550
362.5400, 13.32983
363.7410, 52.94031
364.9410, 0.4348140
366.1410, 4.796021
367.3410, 4.855469
368.5410, 1.830322
369.7410, 21.72803
370.9400, 15.07874
372.1400, 21.00269
373.3390, 5.019287
374.5380, 25.70569
375.7370, 35.55347
376.9360, 5.811890
378.1350, 27.57361
379.3330, 1.647827
380.5310, 16.54297
381.7300, 23.14990
382.9280, 28.71606
384.1260, 25.48230
385.3230, 2.677490
386.5210, 10.86218
387.7180, 28.97742
388.9160, 71.82227
390.1130, 3.058960
391.3100, 24.07458
392.5060, 6.206421
393.7030, 25.69324
394.9000, 1.585938
396.0960, 19.60925
397.2920, 40.47412
398.4880, 41.56909
399.6840, 31.61914
400.8800, 45.35364
402.0750, 41.55701
403.2710, 25.95593
404.4660, 34.08325
405.6610, 19.93970
406.8560, 9.927368
408.0510, 34.83582
409.2450, 30.25732
410.4400, 21.62708
411.6340, 10.51611
412.8280, 24.58643
414.0220, 3.307617
415.2160, 37.20959
416.4100, 3.880127
417.6030, 13.25671
418.7970, 6.187866
419.9900, 19.23169
421.1830, 47.17175
422.3760, 57.90564
423.5690, 77.81641
424.7610, 104.0531
425.9540, 116.0526
427.1460, 141.0719
428.3380, 164.7643
429.5300, 150.3931
430.7220, 195.5852
431.9140, 209.5984
433.1050, 208.6188
434.2970, 273.6478
435.4880, 379.6913
436.6790, 443.7416
437.8700, 641.7987
439.0610, 793.8625
440.2510, 1087.933
441.4420, 1350.010
442.6320, 1853.095
443.8220, 2367.187
445.0120, 3006.283
446.2020, 3640.395
447.3910, 4175.512
448.5810, 4746.637
449.7700, 5506.767
450.9600, 6104.902
452.1490, 6681.044
453.3370, 6720.194
454.5260, 6554.350
455.7150, 5701.510
456.9030, 4705.679
458.0910, 3900.854
459.2800, 3503.034
460.4670, 3195.219
461.6550, 2900.411
462.8430, 2617.608
464.0300, 2178.809
465.2180, 1662.017
466.4050, 1174.911
467.5920, 825.1299
468.7790, 633.3540
469.9650, 464.5850
471.1520, 339.8207
472.3380, 259.0610
473.5250, 250.3063
474.7110, 221.5560
475.8970, 186.8105
477.0820, 154.0695
478.2680, 136.9697
479.4540, 79.60095
480.6390, 118.8735
481.8240, 103.1525
483.0090, 124.4365
484.1940, 87.62292
485.3780, 93.63928
486.5630, 89.57458
487.7470, 76.51172
488.9320, 82.81580
490.1160, 60.09167
491.3000, 55.40308
492.4830, 44.37524
493.6670, 11.69421
494.8500, 6.986572
496.0340, 56.29932
497.2170, 58.61536
498.4000, 44.93481
499.5820, 12.24658
500.7650, 18.21509
501.9480, 32.53931
503.1300, 51.86633
504.3120, 46.74915
505.4940, 59.40735
506.6760, 56.41602
507.8580, 58.73340
509.0390, 36.95923
510.2210, 13.30103
511.4020, 16.64221
512.5830, 8.419312
513.7640, 11.39038
514.9450, 15.18225
516.1250, 33.37195
517.3060, 41.40417
518.4860, 37.08240
519.6660, 4.715332
520.8460, 28.05298
522.0260, 10.34741
523.2060, 7.742188
524.3850, 23.17615
525.5650, 46.51086
526.7440, 33.15686
527.9230, 37.58557
529.1020, 30.27698
530.2810, 43.61694
531.4590, 12.02600
532.6380, 36.41748
533.8160, 67.89270
534.9940, 29.13489
536.1720, 70.94568
537.3500, 22.26318
538.5270, 31.66479
539.7050, 75.12695
540.8820, 23.47961
542.0590, 40.36145
543.2360, 113.4935
544.4130, 22.80212
545.5900, 63.88013
546.7660, 6.544189
547.9430, 56.97900
549.1190, 17.34644
550.2950, 18.71460
551.4710, 19.60522
552.6470, 56.98242
553.8220, 38.36084
554.9980, 41.42163
556.1730, 54.79321
557.3480, 49.17480
558.5230, 6.187744
559.6980, 18.83643
560.8730, 11.20459
562.0470, 34.61670
563.2220, 26.01270
564.3960, 44.41968
565.5700, 18.81274
566.7440, 9.794189
567.9170, 14.14746
569.0910, 25.97852
570.2640, 10.63525
571.4380, 8.783691
572.6110, 37.31543
573.7840, 34.69727
574.9570, 48.46558
576.1290, 51.58130
577.3020, 48.97607
578.4740, 27.39893
579.6460, 40.79346
580.8180, 33.54663
581.9900, 84.59839
583.1620, 47.26172
584.3330, 82.65820
585.5040, 116.0503
586.6760, 103.2700
587.8470, 74.66064
589.0180, 148.0508
590.1880, 140.4917
591.3590, 143.8958
592.5290, 192.3787
593.7000, 141.0293
594.8700, 146.4199
596.0400, 172.9565
597.2090, 195.8552
598.3790, 212.2422
599.5490, 289.6313
600.7180, 329.0530
601.8870, 445.4397
603.0560, 615.8735
604.2250, 770.3723
605.3940, 924.7542
606.5620, 1302.248
607.7300, 1735.946
608.8990, 2185.328
610.0670, 2814.107
611.2350, 3369.486
612.4020, 4015.862
613.5700, 4761.241
614.7370, 5474.616
615.9050, 6037.989
617.0720, 6263.363
618.2390, 6121.733
619.4060, 5492.194
620.5720, 4765.560
621.7390, 3812.393
622.9050, 3136.971
624.0710, 2556.332
625.2370, 2056.689
626.4030, 1767.043
627.5690, 1617.396
628.7340, 1333.745
629.9000, 1187.093
631.0650, 1110.439
632.2300, 1018.783
633.3950, 799.2197
634.5600, 619.2620
635.7240, 552.6108
636.8890, 390.9465
638.0530, 374.3970
639.2170, 337.7275
640.3810, 321.7439
641.5450, 304.0466
642.7080, 268.3711
643.8720, 257.6924
645.0350, 268.0129
646.1980, 220.3311
647.3610, 255.6462
648.5240, 226.9587
649.6870, 174.2688
650.8490, 138.2668
652.0120, 99.35254
653.1740, 78.15308
654.3360, 71.07373
655.4980, 74.10742
656.6600, 0.5964360
657.8210, 15.68994
658.9830, 83.97778
660.1440, 102.6301
661.3050, 28.89868
662.4660, 25.86426
663.6270, 31.62061
664.7870, 62.82251
665.9480, 8.099854
667.1080, 14.37280
668.2680, 36.35815
669.4280, 39.88013
670.5880, 25.14258
671.7480, 26.59009
672.9070, 17.62012
674.0670, 9.146484
675.2260, 5.127441
676.3850, 64.57910
677.5440, 28.66870
678.7030, 29.87109
679.8610, 61.08252
681.0200, 29.24707
682.1780, 47.46704
683.3360, 42.51538
684.4940, 51.91406
685.6520, 43.79102
686.8090, 26.27905
687.9670, 41.54761
689.1240, 59.75000
690.2810, 28.78857
691.4380, 59.01782
692.5950, 69.30176
693.7520, 63.52783
694.9080, 30.75610
696.0650, 54.16284
697.2210, 57.37256
698.3770, 17.55615
699.5330, 53.76123
700.6880, 38.07275
701.8440, 46.27710
702.9990, 38.47729
704.1550, 48.67334
705.3100, 50.85107
706.4650, 52.17334
707.6190, 78.84033
708.7740, 44.02002
709.9290, 35.10229
711.0830, 6.917480
712.2370, 58.84277
713.3910, 11.80249
714.5450, 15.05273
715.6980, 61.32861
716.8520, 40.55835
718.0050, 57.69434
719.1580, 42.80664
720.3110, 63.91406
721.4640, 19.04614
722.6170, 46.20117
723.7700, 68.29297
724.9220, 15.61938
726.0740, 97.44751
727.2260, 63.59448
728.3780, 37.65283
729.5300, 45.99927
730.6810, 34.04810
731.8330, 20.09131
732.9840, 74.12793
734.1350, 28.15991
735.2860, 8.186035
736.4370, 83.21606
737.5880, 60.04883
738.7380, 41.05664
739.8880, 79.06567
741.0390, 39.06396
742.1890, 31.05762
743.3380, 73.04541
744.4880, 31.02905
745.6380, 16.00708
746.7870, 62.89941
747.9360, 12.86548
749.0850, 78.82324
750.2340, 113.7764
751.3830, 82.29541
752.5310, 92.28149
753.6800, 66.22095
754.8280, 64.15552
755.9760, 57.08569
757.1240, 33.45752
758.2720, 77.93188
759.4190, 9.847412
760.5670, 21.75464
761.7140, 48.65503
762.8610, 89.55078
764.0080, 91.44238
765.1550, 100.3293
766.3020, 58.21167
767.4480, 94.08984
768.5950, 130.3628
769.7410, 74.24072
770.8870, 32.11377
772.0330, 49.98267
773.1780, 21.58984
774.3240, 80.71362
775.4690, 28.57471
776.6140, 56.43042
777.7590, 76.28174
778.9040, 27.13013
780.0490, 57.97461
781.1940, 53.42261
782.3380, 86.65039
783.4820, 63.48267
784.6260, 97.31055
785.7700, 93.13501
786.9140, 87.29736
788.0580, 96.77124
789.2010, 78.58472
790.3450, 54.39478
791.4880, 55.20361
792.6310, 61.00977
793.7730, 57.81348
794.9160, 56.91870
796.0590, 69.50146
797.2010, 63.29297
798.3430, 115.0833
799.4850, 25.84204
800.6270, 84.56812
801.7690, 84.34277
802.9100, 42.12158
804.0520, 60.54370
805.1930, 43.09375
806.3340, 96.07080
807.4750, 33.83447
808.6160, 0.5268550
809.7560, 18.77075
810.8970, 58.77441
812.0370, 6.311279
813.1770, 83.57739
814.3170, 73.29736
815.4570, 78.96680
816.5960, 92.64209
817.7360, 38.35327
818.8750, 113.0159
820.0140, 71.72046
821.1530, 51.42163
822.2920, 17.88013
823.4310, 0.2001950
824.5690, 26.38110
825.7070, 40.05054
826.8460, 21.28296
827.9840, 75.28540
829.1220, 20.92944
830.2590, 91.56982
831.3970, 52.20703
832.5340, 7.775146
833.6710, 8.595947
834.8080, 11.87402
835.9450, 34.36743
837.0820, 4.968750
838.2190, 37.54541
839.3550, 39.13916
840.4910, 30.71143
841.6270, 61.29932
842.7630, 2.115967
843.8990, 32.53394
845.0350, 47.02979
846.1700, 45.59082
847.3060, 70.11108
848.4410, 20.48438
849.5760, 7.940186
850.7100, 37.21143
851.8450, 31.98730
852.9800, 5.522705
854.1140, 17.00146
855.2480, 52.50562
856.3820, 24.99048
857.5160, 13.48975
858.6500, 8.717041
859.7830, 31.20801
860.9170, 31.70044
862.0500, 24.36304
863.1830, 2.851563
864.3160, 73.33740
865.4480, 19.22998
866.5810, 62.23047
867.7130, 67.60962
868.8460, 51.81812
869.9780, 27.28369
871.1100, 34.60059
872.2410, 9.552734
873.3730, 12.98633
874.5050, 36.46558
875.6360, 9.882324
876.7670, 36.33130
877.8980, 57.73022
879.0290, 22.06128
880.1590, 33.50684
881.2900, 93.83691
882.4200, 16.03784
883.5500, 34.39600
884.6800, 67.43213
885.8100, 22.86377
886.9400, 10.70508
888.0690, 0.2802730
889.1990, 56.14307
890.3280, 57.56543
891.4570, 64.98730
892.5860, 59.40869
893.7140, 65.99805
894.8430, 103.1550
895.9710, 87.10474
897.1000, 74.30640
898.2280, 113.7236
899.3560, 94.14233
900.4830, 95.56079
901.6110, 70.97900
902.7380, 68.39722
903.8660, 10.18457
904.9930, 84.19141
906.1200, 11.60522
907.2460, 42.11084
908.3730, 70.52466
909.5000, 5.737305
910.6260, 81.25391
911.7520, 89.55054
912.8780, 38.96484
914.0040, 19.37915
915.1290, 43.80103
916.2550, 103.2161
917.3800, 87.64062
918.5050, 88.23999
919.6300, 82.66382
920.7550, 101.1982
921.8800, 97.03809
923.0040, 72.05078
924.1290, 100.4885
925.2530, 88.92773
926.3770, 84.36743
927.5010, 102.8076
928.6250, 104.2485
929.7480, 98.65942
930.8720, 53.13965
931.9950, 81.59448
933.1180, 104.0498
934.2410, 92.50977
935.3640, 129.8696
936.4860, 125.1282
937.6090, 81.79590
938.7310, 106.2581
939.8530, 118.7256
940.9750, 57.19531
942.0970, 50.67822
943.2180, 137.1440
944.3400, 92.04199
945.4610, 91.73633
946.5820, 90.22998
947.7030, 37.41992
948.8240, 55.93335
949.9450, 89.44849
951.0650, 136.9656
952.1860, 114.4849
953.3060, 130.0061
954.4260, 123.5295
955.5460, 157.0547
956.6650, 149.5820
957.7850, 126.4683
958.9040, 198.4731
960.0230, 182.9771
961.1420, 292.5134
962.2610, 260.2227
963.3800, 209.7644
964.4990, 346.2544
965.6170, 389.8013
966.7350, 453.3503
967.8530, 496.7202
968.9710, 538.2866
970.0890, 573.6570
971.2070, 580.2192
972.3240, 720.5691
973.4410, 867.1372
974.5580, 1040.708
975.6750, 1316.283
976.7920, 1735.860
977.9090, 2312.924
979.0250, 3609.090
980.1410, 6124.677
981.2580, 11135.27
982.3740, 19659.86
983.4890, 28489.87
984.6050, 32512.66
985.7200, 38639.28
986.8360, 48114.64
987.9510, 56999.15
989.0660, 57921.77
990.1810, 46146.39
991.2950, 28675.04
992.4100, 15240.66
993.5240, 8123.249
994.6390, 4773.901
995.7530, 3108.558
996.8660, 2214.226
997.9800, 1657.816
999.0940, 1262.493
1000.207, 1073.882
1001.320, 853.5688
1002.433, 777.2598
1003.546, 638.9568
1004.659, 528.6582
1005.772, 486.3645
1006.884, 397.0652
1007.996, 432.9631
1009.108, 347.6855
1010.220, 377.4075
1011.332, 376.1399
1012.444, 293.8774
1013.555, 311.2122
1014.666, 212.3677
1015.777, 259.1206
1016.888, 202.9578
1017.999, 150.7222
1019.110, 251.4929
1020.220, 184.2693
1021.331, 177.4797
1022.441, 170.2241
1023.551, 169.0154
1024.661, 97.81201
1025.770, 118.6138
1026.880, 87.42041
1027.989, 89.23291
1029.098, 160.0542
1030.207, 80.88818
1031.316, 105.7283
1032.425, 52.57690
1033.533, 76.43115
1034.642, 39.29028
1035.750, 90.15503
1036.858, 55.02539
1037.966, 53.49854
1039.073, 60.36548
1040.181, 10.76538
1041.288, 73.10791
1042.396, 44.98706
1043.503, 7.127686
1044.610, 58.76636
1045.716, 8.666504
1046.823, 39.57227
1047.929, 8.516357
1049.036, 62.39966
1050.142, 1.091797
1051.248, 9.980957
1052.353, 87.95068
1053.459, 7.112549
1054.564, 48.83105
1055.670, 59.27979
1056.775, 82.35864
1057.880, 126.3733
1058.985, 31.34351
1060.089, 57.31885
1061.194, 69.30005
1062.298, 134.2866
1063.402, 36.01831
1064.506, 112.7666
1065.610, 98.77002
1066.713, 136.5312
1067.817, 124.5457
1068.920, 121.5657
1070.023, 140.5923
1071.126, 199.6240
1072.229, 181.6616
1073.332, 184.7046
1074.435, 339.7551
1075.537, 473.5054
1076.639, 641.5669
1077.741, 679.6396
1078.843, 1002.725
1079.945, 1174.818
1081.046, 1349.082
1082.148, 1422.187
1083.249, 1540.298
1084.350, 1575.415
1085.451, 1326.538
1086.551, 1218.666
1087.652, 905.7993
1088.752, 719.9382
1089.853, 510.0825
1090.953, 386.2390
1092.053, 341.4038
1093.152, 255.5745
1094.252, 269.7546
1095.351, 365.9482
1096.451, 334.1538
1097.550, 478.3652
1098.649, 534.5820
1099.748, 705.8042
1100.846, 804.0327
1101.945, 897.2710
1103.043, 1086.520
1104.141, 1064.774
1105.239, 1060.035
1106.337, 901.3005
1107.434, 754.5718
1108.532, 519.8486
1109.629, 399.1306
1110.726, 309.4204
1111.823, 268.7261
1112.920, 171.0371
1114.017, 177.3530
1115.113, 154.6770
1116.210, 139.0127
1117.306, 83.35767
1118.402, 103.7080
1119.498, 41.07324
1120.593, 69.44434
1121.689, 116.8206
1122.784, 104.2156
1123.879, 111.3252
1124.974, 76.99438
1126.069, 77.39160
1127.164, 95.79419
1128.259, 68.20190
1129.353, 80.61450
1130.447, 74.03320
1131.541, 119.4568
1132.635, 115.8914
1133.729, 162.3369
1134.822, 200.5056
1135.916, 255.2449
1137.009, 279.7073
1138.102, 345.1746
1139.195, 360.6489
1140.288, 363.1182
1141.380, 322.6204
1142.473, 358.1128
1143.565, 317.6108
1144.657, 346.1133
1145.749, 287.6206
1146.841, 232.1331
1147.932, 229.6499
1149.024, 165.1758
1150.115, 156.7068
1151.206, 153.2422
1152.297, 143.7822
1153.388, 57.32983
1154.479, 59.88232
1155.569, 49.43921
1156.659, 64.00098
1157.750, 71.01831
1158.839, 56.13892
1159.929, 115.4648
1161.019, 116.2244
1162.108, 169.8096
1163.198, 155.0791
1164.287, 233.6731
1165.376, 194.2708
1166.465, 122.8730
1167.553, 162.4792
1168.642, 136.0896
1169.730, 99.74438
1170.818, 59.36523
1171.906, 72.80518
1172.994, 24.43481
1174.082, 28.06836
1175.170, 60.51611
1176.257, 35.15796
1177.344, 10.80420
1178.431, 37.45483
1179.518, 12.97705
1180.605, 37.36426
1181.691, 87.28174
1182.778, 30.79736
1183.864, 80.45215
1184.950, 1.001221
1186.036, 12.33643
1187.122, 42.26538
1188.207, 0.6184080
1189.292, 62.03101
1190.378, 51.68481
1191.463, 15.34180
1192.548, 24.00269
1193.632, 16.33228
1194.717, 16.47192
1195.801, 18.98706
1196.886, 16.35107
1197.970, 33.31030
1199.054, 56.97217
1200.137, 23.78906
1201.221, 24.45752
1202.305, 189.1299
1203.388, 82.39648
1204.471, 89.92090
1205.554, 14.39722
1206.637, 75.28198
1207.719, 37.52710
1208.802, 10.21240
1209.884, 93.13940
1210.966, 40.16919
1212.048, 27.50659
1213.130, 69.47412
1214.212, 63.15601
1215.293, 2.989746
1216.374, 21.67700
1217.456, 48.36768
1218.536, 91.06104
1219.617, 41.75757
1220.698, 131.4565
1221.778, 33.16333
1222.859, 71.91333
1223.939, 131.6318
1225.019, 44.34741
1226.099, 25.63281
1227.178, 37.35352
1228.258, 29.07642
1229.337, 7.801758
1230.417, 51.52954
1231.496, 97.25952
1232.574, 9.992188
1233.653, 84.72729
1234.732, 80.46460
1235.810, 62.20410
1236.888, 73.94556
1237.966, 50.68921
1239.044, 49.43506
1240.122, 35.18994
1241.199, 16.94702
