##NAMES=Baryte
##RRUFFID=R040036
##IDEAL CHEMISTRY=BaS^6+^O_4_
##LOCALITY=Cumbria County, England
##OWNER=RRUFF
##SOURCE=University of Arizona Mineral Museum
##DESCRIPTION=Golden brown tabular crystal
##STATUS=The identification of this mineral has been confirmed by X-ray diffraction and chemical analysis
##URL=rruff.info/R040036
##MEASURED CHEMISTRY=Ba_1.00_S_1.00_O_4_; trace amounts of Pb
##PIN_ID=M00028
##ORIENTATION=Laser parallel to -a* (-1 0 0). Fiducial mark perpendicular to laser is parallel to -b [0 -1 0]
26.288, 0.000
27.694, 14.846
29.099, 30.822
30.504, 31.294
31.909, 17.074
33.313, 59.970
34.717, 22.089
36.121, 48.345
37.525, 44.528
38.929, 51.577
40.332, 51.769
41.735, 61.413
43.138, 55.419
44.541, 65.170
45.943, 60.169
47.345, 61.996
48.747, 64.117
50.149, 64.577
51.551, 63.755
52.952, 68.963
54.353, 67.420
55.754, 68.353
57.155, 70.010
58.555, 82.448
59.955, 89.348
61.355, 81.349
62.755, 92.563
64.154, 78.618
65.553, 75.665
66.952, 54.720
68.351, 36.786
69.750, 40.861
71.148, 20.947
72.546, 33.043
73.944, 26.147
75.342, 31.260
76.739, 21.378
78.136, 9.503
79.533, 0.370
80.930, 0.240
82.327, 1.111
83.723, 1.982
85.119, 17.853
86.515, 13.723
87.910, 19.593
89.306, 25.462
90.701, 13.330
92.096, 10.197
93.490, 11.063
94.885, 21.926
96.279, 6.211
97.673, 8.351
99.067, 29.492
100.461, 41.635
101.854, 50.785
103.247, 69.958
104.640, 79.152
106.032, 92.364
107.425, 120.591
108.817, 139.831
110.209, 164.083
111.601, 189.343
112.992, 229.611
114.384, 305.884
115.775, 373.161
117.166, 294.439
118.556, 259.717
119.947, 288.992
121.337, 287.266
122.727, 287.537
124.116, 271.804
125.506, 314.067
126.895, 355.325
128.284, 351.576
129.673, 384.815
131.062, 345.039
132.450, 326.243
133.838, 297.427
135.226, 264.595
136.614, 271.749
138.001, 239.900
139.388, 260.054
140.775, 265.209
142.162, 288.367
143.549, 279.528
144.935, 313.691
146.321, 314.856
147.707, 356.023
149.093, 388.196
150.478, 375.371
151.863, 426.549
153.248, 446.729
154.633, 414.911
156.018, 384.096
157.402, 336.283
158.786, 306.473
160.170, 277.665
161.554, 256.859
162.937, 245.055
164.320, 219.253
165.703, 235.454
167.086, 193.657
168.469, 214.863
169.851, 189.071
171.233, 216.281
172.615, 223.493
173.996, 201.708
175.378, 198.926
176.759, 195.742
178.140, 197.549
179.521, 169.341
180.901, 190.114
182.281, 165.867
183.662, 176.598
185.041, 192.308
186.421, 188.996
187.800, 189.661
189.180, 194.304
190.558, 174.925
191.937, 208.521
193.316, 193.090
194.694, 191.635
196.072, 165.157
197.450, 184.659
198.827, 160.139
200.205, 149.600
201.582, 175.043
202.959, 157.458
204.336, 161.845
205.712, 128.196
207.088, 141.508
208.465, 135.783
209.840, 154.032
211.216, 144.259
212.591, 141.482
213.967, 140.707
215.341, 120.933
216.716, 157.162
218.091, 143.324
219.465, 121.508
220.839, 150.586
222.213, 119.741
223.586, 134.867
224.960, 122.021
226.333, 130.122
227.706, 107.109
229.079, 136.960
230.451, 135.797
231.823, 103.620
233.195, 148.428
234.567, 106.873
235.939, 133.419
237.310, 106.833
238.682, 130.171
240.052, 133.742
241.423, 99.392
242.794, 114.028
244.164, 110.416
245.534, 119.425
246.904, 113.469
248.274, 95.671
249.643, 137.932
251.012, 110.199
252.381, 121.468
253.750, 109.738
255.118, 112.009
256.487, 123.282
257.855, 100.556
259.223, 145.831
260.590, 98.107
261.958, 133.385
263.325, 96.663
264.692, 103.943
266.059, 130.224
267.425, 98.506
268.791, 126.034
270.158, 101.318
271.523, 122.604
272.889, 102.891
274.255, 74.180
275.620, 109.469
276.985, 89.760
278.350, 97.086
279.714, 71.380
281.078, 87.719
282.443, 90.016
283.806, 57.315
285.170, 81.615
286.534, 75.918
287.897, 67.223
289.260, 67.529
290.623, 62.838
291.985, 69.148
293.348, 39.460
294.710, 71.774
296.072, 48.091
297.433, 59.409
298.795, 70.729
300.156, 36.051
301.517, 63.374
302.878, 44.700
304.239, 76.028
305.599, 61.357
306.959, 77.689
308.319, 69.022
309.679, 57.357
311.038, 76.694
312.398, 54.033
313.757, 70.374
315.116, 73.716
316.474, 43.061
317.833, 67.408
319.191, 42.756
320.549, 57.106
321.907, 40.458
323.264, 60.812
324.622, 44.165
325.979, 40.518
327.336, 55.869
328.692, 39.220
330.049, 69.570
331.405, 60.920
332.761, 34.270
334.117, 61.619
335.473, 38.968
336.828, 64.317
338.183, 40.666
339.538, 64.016
340.893, 43.365
342.247, 36.716
343.602, 57.066
344.956, 26.418
346.310, 58.770
347.663, 35.123
349.017, 43.477
350.370, 54.832
351.723, 44.189
353.076, 60.546
354.428, 18.906
355.780, 32.267
357.133, 30.630
358.484, 8.995
359.836, 9.362
361.188, 2.732
362.539, 35.103
363.890, 8.476
365.241, 9.852
366.591, 36.230
367.942, 9.610
369.292, 40.993
370.642, 9.399
371.992, 14.787
373.341, 32.178
374.691, 3.428
376.040, 24.969
377.388, 5.370
378.737, 32.776
380.086, 13.185
381.434, 28.600
382.782, 23.020
384.130, 6.553
385.477, 33.879
386.825, 18.316
388.172, 24.758
389.519, 30.205
390.865, 19.658
392.212, 56.115
393.558, 19.575
394.904, 48.038
396.250, 30.503
397.596, 30.969
398.941, 51.438
400.286, 25.908
401.631, 30.380
402.976, 15.855
404.321, 30.332
405.665, 33.811
407.009, 13.292
408.353, 19.774
409.697, 3.260
411.040, 17.748
412.384, 3.238
413.727, 16.265
415.070, 26.228
416.412, 8.726
417.755, 22.226
419.097, 0.730
420.439, 9.237
421.781, 18.747
423.122, 4.741
424.464, 14.773
425.805, 5.710
427.146, 29.812
428.486, 32.335
429.827, 31.863
431.167, 47.395
432.507, 46.929
433.847, 62.468
435.187, 61.009
436.526, 85.553
437.865, 120.100
439.204, 127.648
440.543, 206.198
441.882, 220.749
443.220, 295.303
444.558, 419.859
445.896, 513.418
447.234, 804.980
448.572, 1048.543
449.909, 1500.108
451.246, 1962.674
452.583, 2482.242
453.919, 2901.812
455.256, 2589.384
456.592, 2160.958
457.928, 1624.534
459.264, 1235.112
460.600, 989.694
461.935, 832.276
463.270, 739.863
464.605, 571.452
465.940, 419.042
467.274, 332.635
468.609, 215.230
469.943, 195.827
471.277, 127.425
472.610, 103.024
473.944, 90.624
475.277, 59.226
476.610, 52.333
477.943, 45.433
479.275, 34.038
480.608, 41.647
481.940, 34.257
483.272, 63.869
484.604, 38.482
485.935, 47.096
487.267, 15.712
488.598, 21.330
489.929, 32.948
491.260, 5.567
492.590, 33.187
493.920, 13.810
495.250, 20.434
496.580, 53.058
497.910, 19.684
499.239, 44.311
500.569, 14.938
501.898, 2.567
503.226, 11.196
504.555, 10.826
505.883, 23.458
507.212, 23.556
508.540, 22.724
509.867, 28.359
511.195, 22.994
512.522, 26.630
513.849, 2.731
515.176, 18.908
516.503, 41.548
517.829, 26.189
519.156, 49.807
520.482, 27.449
521.808, 39.091
523.133, 36.734
524.459, 28.377
525.784, 55.021
527.109, 27.665
528.434, 44.257
529.758, 27.918
531.083, 34.563
532.407, 38.209
533.731, 36.854
535.055, 44.535
536.378, 24.427
537.701, 36.073
539.025, 28.719
540.348, 25.365
541.670, 33.011
542.993, 6.661
544.315, 22.307
545.637, 13.146
546.959, 19.792
548.281, 42.438
549.602, 13.126
550.923, 36.772
552.244, 13.788
553.565, 36.434
554.886, 51.095
556.206, 0.219
557.526, 37.618
558.846, 29.930
560.166, 30.574
561.486, 62.562
562.805, 11.701
564.124, 45.344
565.443, 43.277
566.762, 37.980
568.080, 36.799
569.399, 35.582
570.717, 50.716
572.035, 38.017
573.352, 37.214
574.670, 45.859
575.987, 24.268
577.304, 68.904
578.621, 28.875
579.938, 54.697
581.254, 59.330
582.570, 51.975
583.886, 78.609
585.202, 43.414
586.518, 86.186
587.833, 85.949
589.148, 95.957
590.463, 124.582
591.778, 109.255
593.093, 125.877
594.407, 122.498
595.721, 131.296
597.035, 167.915
598.349, 136.926
599.662, 176.542
600.976, 192.156
602.289, 190.348
603.602, 244.960
604.914, 207.040
606.227, 266.832
607.539, 324.448
608.851, 404.524
610.163, 537.137
611.475, 719.892
612.786, 1059.492
614.097, 1552.091
615.408, 2233.688
616.719, 2991.283
618.030, 3273.876
619.340, 3077.468
620.651, 2451.057
621.961, 1900.252
623.270, 1524.838
624.580, 1210.429
625.889, 1164.108
627.199, 1060.689
628.507, 1072.396
629.816, 1089.973
631.125, 1009.547
632.433, 889.121
633.741, 658.691
635.049, 486.495
636.357, 384.061
637.664, 266.625
638.972, 255.198
640.279, 187.758
641.586, 178.315
642.893, 175.871
644.199, 163.424
645.505, 225.982
646.811, 181.531
648.117, 217.249
649.423, 190.793
650.728, 190.336
652.034, 185.878
653.339, 151.416
654.644, 143.347
655.948, 143.859
657.253, 107.390
658.557, 137.919
659.861, 88.445
661.165, 63.969
662.468, 60.491
663.772, 50.010
665.075, 57.527
666.378, 36.042
667.681, 38.554
668.983, 58.064
670.286, 7.572
671.588, 55.077
672.890, 20.580
674.192, 30.080
675.493, 4.578
676.795, 5.927
678.096, 41.563
679.397, 12.050
680.697, 27.536
681.998, 32.018
683.298, 10.499
684.598, 20.976
685.898, 3.549
687.198, 13.922
688.498, 24.391
689.797, 3.856
691.096, 21.319
692.395, 11.221
693.694, 28.234
694.992, 7.685
696.290, 15.866
697.589, 32.574
698.886, 23.986
700.184, 22.446
701.482, 10.125
702.779, 16.701
704.076, 21.715
705.373, 7.872
706.669, 0.536
707.966, 3.059
709.262, 24.658
710.558, 12.733
711.854, 23.877
713.150, 19.497
714.445, 8.876
715.740, 28.754
717.035, 11.606
718.330, 10.036
719.625, 3.684
720.919, 12.663
722.214, 7.008
723.508, 9.259
724.801, 3.309
726.095, 1.974
727.388, 1.642
728.682, 12.314
729.975, 24.008
731.267, 2.328
732.560, 10.644
733.852, 21.958
735.145, 3.730
736.437, 45.577
737.728, 13.117
739.020, 16.182
740.311, 18.478
741.603, 21.227
742.894, 28.059
744.184, 16.657
745.475, 4.379
746.765, 5.894
748.055, 16.835
749.345, 5.429
750.635, 3.309
751.925, 7.949
753.214, 26.204
754.503, 10.458
755.792, 28.709
757.081, 8.958
758.370, 13.205
759.658, 36.450
760.946, 23.307
762.234, 26.928
763.522, 4.160
764.809, 1.609
766.097, 35.619
767.384, 3.156
768.671, 6.066
769.958, 16.286
771.244, 4.504
772.530, 28.720
773.817, 8.066
775.102, 46.144
776.388, 18.352
777.674, 1.559
778.959, 31.763
780.244, 4.965
781.529, 36.165
782.814, 13.364
784.098, 1.561
785.383, 39.756
786.667, 6.051
787.951, 44.139
789.235, 28.327
790.518, 1.513
791.801, 46.698
793.084, 16.119
794.367, 25.059
795.650, 61.235
796.933, 10.410
798.215, 51.583
799.497, 15.755
800.779, 16.925
802.061, 31.094
803.342, 5.261
804.624, 46.427
805.905, 1.592
807.186, 25.756
808.466, 21.918
809.747, 7.062
811.027, 27.222
812.307, 21.380
813.587, 24.538
814.867, 45.659
816.146, 35.986
817.426, 31.723
818.705, 29.875
819.984, 34.027
821.263, 24.178
822.541, 3.325
823.819, 45.474
825.098, 36.430
826.375, 12.577
827.653, 37.723
828.931, 29.827
830.208, 35.971
831.485, 55.745
832.762, 15.888
834.039, 55.014
835.315, 63.678
836.592, 22.819
837.868, 39.292
839.144, 36.432
840.420, 81.228
841.695, 42.870
842.970, 43.008
844.246, 94.856
845.521, 46.899
846.795, 99.858
848.070, 66.315
849.344, 55.453
850.618, 107.929
851.892, 73.507
853.166, 103.637
854.440, 116.001
855.713, 93.139
856.986, 134.940
858.259, 98.890
859.532, 173.028
860.804, 153.155
862.077, 166.293
863.349, 181.258
864.621, 144.256
865.893, 128.262
867.164, 121.022
868.436, 69.165
869.707, 118.259
870.978, 50.403
872.248, 74.547
873.519, 85.514
874.789, 53.660
876.060, 108.412
877.330, 60.558
878.599, 71.706
879.869, 64.275
881.138, 46.424
882.408, 95.104
883.677, 51.071
884.945, 58.214
886.214, 84.896
887.482, 49.040
888.751, 67.042
890.019, 74.197
891.287, 65.354
892.554, 107.513
893.822, 54.673
895.089, 81.834
896.356, 105.996
897.623, 80.159
898.889, 113.718
900.156, 72.884
901.422, 103.044
902.688, 139.116
903.954, 54.286
905.220, 108.329
906.485, 65.502
907.750, 108.679
909.015, 116.856
910.280, 58.036
911.545, 104.983
912.809, 88.167
914.074, 67.352
915.338, 89.528
916.602, 75.717
917.865, 81.908
919.129, 88.100
920.392, 64.294
921.655, 78.486
922.918, 48.686
924.181, 33.717
925.443, 84.921
926.706, 50.127
927.968, 92.335
929.230, 58.548
930.491, 57.369
931.753, 95.587
933.014, 70.808
934.276, 91.030
935.536, 99.256
936.797, 88.483
938.058, 116.714
939.318, 51.948
940.578, 71.183
941.838, 113.423
943.098, 36.665
944.358, 105.912
945.617, 64.160
946.876, 68.411
948.135, 99.666
949.394, 72.923
950.653, 105.182
951.911, 101.444
953.169, 84.709
954.427, 145.977
955.685, 62.247
956.943, 80.520
958.200, 134.795
959.458, 119.072
960.715, 169.352
961.971, 157.636
963.228, 164.922
964.485, 230.211
965.741, 250.502
966.997, 303.796
968.253, 302.095
969.508, 305.397
970.764, 356.702
972.019, 340.011
973.274, 425.323
974.529, 504.641
975.784, 534.961
977.039, 654.286
978.293, 776.615
979.547, 1026.948
980.801, 1491.284
982.055, 2112.624
983.308, 3415.967
984.562, 6093.316
985.815, 12672.668
987.068, 27622.025
988.321, 42341.391
989.573, 41930.754
990.826, 26760.125
992.078, 14099.502
993.330, 7565.887
994.582, 4162.270
995.833, 2571.126
997.085, 1690.515
998.336, 1232.906
999.587, 1010.301
1000.838, 823.700
1002.088, 726.102
1003.339, 745.509
1004.589, 580.918
1005.839, 506.331
1007.089, 422.746
1008.339, 333.164
1009.588, 319.586
1010.838, 266.011
1012.087, 238.440
1013.336, 272.872
1014.584, 187.307
1015.833, 257.748
1017.081, 212.191
1018.330, 203.640
1019.577, 250.092
1020.825, 184.547
1022.073, 223.007
1023.320, 248.471
1024.567, 228.937
1025.814, 280.449
1027.061, 205.922
1028.308, 257.462
1029.554, 274.940
1030.800, 206.421
1032.046, 235.905
1033.292, 157.392
1034.538, 138.884
1035.783, 153.415
1037.029, 93.913
1038.274, 110.414
1039.519, 108.918
1040.763, 77.426
1042.008, 88.354
1043.252, 71.868
1044.496, 53.384
1045.740, 90.004
1046.984, 43.527
1048.228, 76.053
1049.471, 75.581
1050.714, 49.113
1051.957, 91.681
1053.200, 58.218
1054.442, 102.758
1055.685, 198.760
1056.927, 220.305
1058.169, 246.852
1059.411, 132.404
1060.652, 91.957
1061.894, 80.224
1063.135, 37.783
1064.376, 41.480
1065.617, 42.225
1066.858, 37.794
1068.098, 72.427
1069.339, 54.067
1070.579, 39.643
1071.819, 84.554
1073.058, 66.136
1074.298, 114.719
1075.537, 135.848
1076.776, 132.437
1078.015, 192.377
1079.254, 203.972
1080.493, 281.570
1081.731, 422.468
1082.969, 456.070
1084.207, 523.675
1085.445, 488.328
1086.683, 410.938
1087.920, 351.550
1089.157, 246.164
1090.394, 172.781
1091.631, 175.424
1092.868, 98.046
1094.105, 124.670
1095.341, 85.332
1096.577, 95.960
1097.813, 126.590
1099.049, 68.222
1100.284, 148.857
1101.519, 152.730
1102.755, 179.372
1103.990, 278.016
1105.224, 248.661
1106.459, 248.310
1107.693, 192.961
1108.928, 125.613
1110.162, 134.268
1111.395, 89.926
1112.629, 26.585
1113.863, 74.246
1115.096, 38.909
1116.329, 23.574
1117.562, 62.241
1118.795, 2.909
1120.027, 54.579
1121.259, 40.251
1122.492, 23.925
1123.723, 82.601
1124.955, 35.278
1126.187, 0.043
1127.418, 32.637
1128.649, 27.681
1129.880, 20.998
1131.111, 11.678
1132.342, 16.360
1133.572, 44.044
1134.802, 9.730
1136.033, 78.416
1137.262, 89.105
1138.492, 57.795
1139.722, 161.487
1140.951, 149.181
1142.180, 213.876
1143.409, 247.573
1144.638, 261.271
1145.866, 249.971
1147.095, 242.527
1148.323, 165.377
1149.551, 179.083
1150.779, 126.790
1152.006, 68.498
1153.234, 88.208
1154.461, 38.919
1155.688, 61.631
1156.915, 64.346
1158.141, 3.938
1159.368, 39.779
1160.594, 5.501
1161.820, 30.220
1163.046, 41.942
1164.272, 1.665
1165.498, 31.389
1166.723, 25.114
1167.948, 3.159
1169.173, 46.567
1170.398, 3.295
1171.623, 13.024
1172.847, 35.753
1174.071, 22.516
1175.295, 53.211
1176.519, 19.939
1177.743, 7.332
1178.966, 54.397
1180.190, 7.126
1181.413, 19.856
1182.636, 28.587
1183.858, 2.681
1185.081, 37.051
1186.303, 6.784
1187.526, 23.483
1188.748, 46.247
1189.969, 0.977
1191.191, 1.708
1192.412, 9.440
1193.634, 33.828
1194.855, 25.897
1196.076, 8.376
1197.296, 10.651
1198.517, 48.073
1199.737, 4.202
1200.957, 4.478
1202.177, 44.246
1203.397, 17.029
1204.617, 36.692
1205.836, 9.414
1207.055, 25.864
1208.274, 28.886
1209.493, 17.386
1210.712, 7.685
1211.930, 34.404
1213.148, 14.881
1214.367, 50.831
1215.584, 64.543
1216.802, 2.745
1218.020, 92.101
1219.237, 22.812
1220.454, 35.525
1221.671, 57.237
1222.888, 1.051
1224.105, 36.769
1225.321, 24.481
1226.537, 1.807
1227.753, 50.912
1228.969, 7.624
1230.185, 25.336
1231.400, 76.115
1232.616, 11.173
1233.831, 60.136
1235.046, 28.849
1236.261, 35.559
1237.475, 96.428
1238.689, 81.137
1239.904, 73.847
1241.118, 92.742
1242.332, 47.451
1243.545, 91.161
1244.759, 58.870
1245.972, 40.581
1247.185, 108.290
1248.398, 77.999
1249.611, 54.709
1250.823, 93.432
1252.036, 48.142
1253.248, 76.852
1254.460, 71.562
1255.671, 50.272
1256.883, 46.982
1258.095, 56.687
1259.306, 36.397
1260.517, 88.637
1261.728, 30.347
1262.938, 54.057
1264.149, 89.805
1265.359, 32.516
1266.569, 100.225
1267.779, 72.935
1268.989, 66.645
1270.199, 88.571
1271.408, 84.280
1272.617, 60.989
1273.826, 112.698
1275.035, 74.407
1276.244, 108.117
1277.452, 93.183
1278.661, 40.892
1279.869, 108.600
1281.077, 77.435
1282.285, 52.142
1283.492, 99.850
1284.700, 48.557
1285.907, 66.264
1287.114, 53.254
1288.321, 26.961
1289.527, 89.625
1290.734, 37.918
1291.940, 29.559
1293.146, 111.264
1294.352, 33.967
1295.558, 67.669
1296.763, 105.371
1297.969, 35.072
1299.174, 107.737
1300.379, 64.438
1301.584, 44.137
1302.788, 119.836
1303.993, 31.535
1305.197, 59.816
1306.401, 92.509
1307.605, 17.200
1308.809, 98.789
1310.013, 98.478
1311.216, 65.166
1312.419, 117.854
1313.622, 105.543
1314.825, 101.196
1316.028, 107.883
1317.230, 88.570
1318.432, 109.797
1319.634, 139.484
1320.836, 70.169
1322.038, 96.855
1323.240, 72.540
1324.441, 81.513
1325.642, 103.195
1326.843, 67.741
1328.044, 58.239
1329.245, 81.913
1330.445, 20.526
1331.645, 63.133
1332.845, 76.802
1334.045, 44.129
1335.245, 40.788
1336.445, 11.446
1337.644, 0.561
1338.843, 1.923
1340.042, 13.476
1341.241, 2.176
1342.440, 23.828
1343.638, 11.181
1344.836, 45.831
1346.034, 19.480
1347.232, 3.918
1348.430, 30.728
1349.628, 11.374
1350.825, 34.019
1352.022, 34.663
1353.219, 2.719
1354.416, 33.923
1355.613, 18.564
1356.809, 2.169
1358.005, 30.811
1359.202, 15.453
1360.398, 0.905
1361.593, 44.737
1362.789, 23.856
1363.984, 2.785
1365.179, 28.428
1366.374, 4.927
1367.569, 29.719
1368.764, 30.368
1369.958, 5.978
1371.153, 35.679
1372.347, 38.341
1373.541, 20.164
1374.735, 59.845
1375.928, 6.384
1377.122, 53.080
1378.315, 40.776
1379.508, 2.470
1380.701, 78.164
1381.893, 58.858
1383.086, 44.553
1384.278, 77.250
1385.470, 50.946
1386.662, 19.641
1387.854, 70.334
1389.046, 18.025
1390.237, 47.716
1391.428, 58.404
1392.619, 1.089
1393.810, 74.771
1395.001, 38.453
1396.191, 21.131
1397.382, 45.808
1398.572, 6.522
1399.762, 10.147
1400.952, 47.814
1402.141, 10.481
1403.331, 47.147
1404.520, 6.812
1405.709, 12.520
1406.898, 53.149
1408.087, 60.818
1409.275, 2.514
1410.464, 24.153
1411.652, 17.823
1412.840, 29.495
1414.028, 41.166
1415.215, 9.153
1416.403, 40.531
1417.590, 46.216
1418.777, 22.096
1419.964, 32.596
1421.151, 14.243
1422.338, 13.371
1423.524, 65.063
1424.710, 14.769
1425.896, 28.257
1427.082, 66.964
1428.268, 21.671
1429.453, 43.196
1430.639, 79.892
1431.824, 65.603
1433.009, 102.195
1434.194, 78.803
1435.378, 84.203
1436.563, 135.899
1437.747, 127.235
1438.931, 168.925
1440.115, 198.614
1441.299, 127.304
1442.482, 238.965
1443.666, 255.653
1444.849, 176.340
1446.032, 282.026
1447.215, 253.711
1448.397, 240.307
1449.580, 326.988
1450.762, 262.670
1451.944, 310.817
1453.126, 339.486
1454.308, 272.153
1455.490, 288.869
1456.671, 316.166
1457.852, 246.798
1459.033, 334.427
1460.214, 303.216
1461.395, 269.036
1462.575, 300.577
1463.756, 218.127
1464.936, 247.671
1466.116, 266.208
1467.296, 161.740
1468.475, 194.261
1469.655, 164.816
1470.834, 115.374
1472.013, 168.927
1473.192, 111.469
1474.371, 97.999
1475.550, 159.515
1476.728, 82.019
1477.906, 110.519
1479.084, 152.015
1480.262, 80.553
1481.440, 126.090
1482.617, 125.718
1483.795, 69.409
1484.972, 127.117
1486.149, 130.848
1487.326, 69.604
1488.502, 135.390
1489.679, 59.217
1490.855, 57.101
1492.031, 97.059
1493.207, 51.102
1494.383, 50.231
1495.559, 18.465
1496.734, 11.837
1497.909, 36.385
1499.084, 58.159
1500.259, 1.759
1501.434, 50.745
1502.608, 0.000
##END=



