##NAMES=Baryte
##RRUFFID=R040036
##IDEAL CHEMISTRY=BaS^6+^O_4_
##LOCALITY=Cumbria County, England
##OWNER=RRUFF
##SOURCE=University of Arizona Mineral Museum
##DESCRIPTION=Golden brown tabular crystal
##STATUS=The identification of this mineral has been confirmed by X-ray diffraction and chemical analysis
##URL=rruff.info/R040036
##MEASURED CHEMISTRY=Ba_1.00_S_1.00_O_4_; trace amounts of Pb
##PIN_ID=M00028
##ORIENTATION=Laser parallel to -a* (-1 0 0). Fiducial mark perpendicular to laser is parallel to -b [0 -1 0]
26.288, 0.000
27.694, 9.713
29.099, 12.321
30.504, 21.412
31.909, 23.508
33.313, 20.415
34.717, 21.591
36.121, 35.809
37.525, 47.763
38.929, 35.750
40.332, 23.974
41.735, 53.957
43.138, 59.169
44.541, 66.676
45.943, 54.802
47.345, 60.900
48.747, 66.994
50.149, 56.941
51.551, 92.568
52.952, 83.787
54.353, 109.455
55.754, 111.509
57.155, 121.900
58.555, 156.895
59.955, 126.015
61.355, 134.905
62.755, 143.835
64.154, 114.030
65.553, 106.889
66.952, 83.760
68.351, 78.645
69.750, 57.544
71.148, 65.458
72.546, 35.386
73.944, 36.326
75.342, 29.276
76.739, 26.234
78.136, 15.199
79.533, 2.165
80.930, 11.869
82.327, 13.907
83.723, 17.948
85.119, 23.991
86.515, 17.038
87.910, 23.086
89.306, 20.024
90.701, 28.186
92.096, 16.238
93.490, 15.290
94.885, 14.343
96.279, 8.605
97.673, 26.552
99.067, 52.500
100.461, 71.448
101.854, 81.408
103.247, 120.412
104.640, 113.454
106.032, 145.528
107.425, 181.630
108.817, 227.756
110.209, 259.900
111.601, 273.059
112.992, 319.230
114.384, 446.408
115.775, 411.116
117.166, 473.775
118.556, 408.956
119.947, 464.131
121.337, 483.301
122.727, 497.465
124.116, 541.619
125.506, 661.761
126.895, 750.888
128.284, 819.998
129.673, 811.492
131.062, 798.125
132.450, 716.141
133.838, 611.126
135.226, 519.081
136.614, 466.015
138.001, 437.943
139.388, 452.871
140.775, 448.802
142.162, 476.735
143.549, 537.671
144.935, 563.610
146.321, 660.553
147.707, 701.501
149.093, 767.451
150.478, 742.403
151.863, 746.357
153.248, 678.314
154.633, 597.273
156.018, 548.234
157.402, 475.198
158.786, 446.164
160.170, 371.132
161.554, 387.102
162.937, 346.075
164.320, 324.050
165.703, 343.028
167.086, 311.008
168.469, 342.991
169.851, 280.976
171.233, 354.964
172.615, 324.954
173.996, 321.947
175.378, 291.942
176.759, 269.178
178.140, 268.375
179.521, 250.529
180.901, 260.638
182.281, 242.700
183.662, 259.713
185.041, 254.679
186.421, 256.598
187.800, 297.472
189.180, 280.300
190.558, 322.038
191.937, 297.768
193.316, 253.447
194.694, 266.078
196.072, 232.666
197.450, 266.213
198.827, 215.718
200.205, 241.169
201.582, 214.584
202.959, 200.947
204.336, 213.243
205.712, 184.469
207.088, 205.632
208.465, 196.736
209.840, 190.793
211.216, 205.819
212.591, 183.867
213.967, 210.884
215.341, 170.903
216.716, 195.850
218.091, 188.776
219.465, 184.610
220.839, 188.484
222.213, 158.181
223.586, 189.889
224.960, 173.537
226.333, 212.166
227.706, 193.672
229.079, 173.976
230.451, 179.969
231.823, 167.258
233.195, 188.789
234.567, 162.522
235.939, 171.540
237.310, 171.309
238.682, 161.236
240.052, 182.901
241.423, 133.852
242.794, 172.832
244.164, 134.842
245.534, 143.346
246.904, 165.063
248.274, 138.959
249.643, 153.947
251.012, 123.985
252.381, 166.043
253.750, 158.102
255.118, 141.162
256.487, 153.223
257.855, 123.285
259.223, 137.552
260.590, 144.412
261.958, 155.507
263.325, 150.572
264.692, 159.955
266.059, 170.022
267.425, 116.090
268.791, 134.159
270.158, 133.228
271.523, 143.299
272.889, 143.370
274.255, 119.443
275.620, 147.517
276.985, 114.592
278.350, 135.668
279.714, 115.746
281.078, 118.826
282.443, 111.907
283.806, 94.991
285.170, 118.076
286.534, 91.164
287.897, 95.254
289.260, 94.347
290.623, 117.442
291.985, 93.538
293.348, 74.637
294.710, 95.739
296.072, 71.842
297.433, 85.948
298.795, 87.056
300.156, 76.167
301.517, 95.279
302.878, 85.394
304.239, 84.511
305.599, 60.630
306.959, 83.752
308.319, 66.875
309.679, 61.001
311.038, 106.130
312.398, 81.260
313.757, 73.393
315.116, 97.528
316.474, 69.665
317.833, 93.804
319.191, 45.946
320.549, 90.090
321.907, 49.236
323.264, 60.384
324.622, 83.529
325.979, 25.671
327.336, 78.809
328.692, 45.945
330.049, 72.078
331.405, 54.208
332.761, 51.337
334.117, 88.463
335.473, 25.587
336.828, 75.711
338.183, 50.832
339.538, 51.953
340.893, 70.074
342.247, 50.193
343.602, 83.312
344.956, 31.431
346.310, 50.550
347.663, 68.670
349.017, 47.790
350.370, 73.910
351.723, 63.032
353.076, 68.155
354.428, 39.280
355.780, 33.406
357.133, 31.536
358.484, 2.667
359.836, 49.800
361.188, 14.936
362.539, 29.074
363.890, 21.215
365.241, 9.358
366.591, 27.505
367.942, 6.655
369.292, 35.808
370.642, 18.966
371.992, 6.128
373.341, 25.294
374.691, 10.464
376.040, 42.641
377.388, 6.824
378.737, 54.016
380.086, 49.215
381.434, 7.578
382.782, 43.636
384.130, 5.142
385.477, 31.087
386.825, 22.325
388.172, 55.571
389.519, 70.824
390.865, 32.084
392.212, 78.349
393.558, 31.619
394.904, 63.893
396.250, 43.170
397.596, 42.450
398.941, 66.732
400.286, 34.017
401.631, 47.304
402.976, 15.596
404.321, 25.891
405.665, 54.188
407.009, 1.511
408.353, 43.791
409.697, 18.899
411.040, 26.409
412.384, 20.720
413.727, 7.037
415.070, 29.356
416.412, 6.678
417.755, 33.003
419.097, 11.331
420.439, 21.662
421.781, 40.995
423.122, 24.333
424.464, 35.674
425.805, 17.016
427.146, 40.364
428.486, 52.714
429.827, 52.069
431.167, 81.430
432.507, 62.794
433.847, 112.164
435.187, 123.536
436.526, 149.912
437.865, 242.291
439.204, 230.674
440.543, 351.062
441.882, 418.452
443.220, 560.846
444.558, 744.243
445.896, 961.641
447.234, 1386.044
448.572, 1868.448
449.909, 2642.855
451.246, 3403.263
452.583, 4383.673
453.919, 4909.086
455.256, 4587.500
456.592, 3775.919
457.928, 2924.339
459.264, 2273.761
460.600, 1936.188
461.935, 1705.616
463.270, 1582.047
464.605, 1217.479
465.940, 887.914
467.274, 624.352
468.609, 423.793
469.943, 361.235
471.277, 237.680
472.610, 198.126
473.944, 176.575
475.277, 120.026
476.610, 130.482
477.943, 96.939
479.275, 93.398
480.608, 77.861
481.940, 40.325
483.272, 96.790
484.604, 37.257
485.935, 65.726
487.267, 52.196
488.598, 10.668
489.929, 56.141
491.260, 7.616
492.590, 28.092
493.920, 33.569
495.250, 22.048
496.580, 31.528
497.910, 3.010
499.239, 36.492
500.569, 0.976
501.898, 29.462
503.226, 48.918
504.555, 1.406
505.883, 45.895
507.212, 25.385
508.540, 61.876
509.867, 43.369
511.195, 37.863
512.522, 61.354
513.849, 16.851
515.176, 46.348
516.503, 55.843
517.829, 47.342
519.156, 38.842
520.482, 30.342
521.808, 69.844
523.133, 55.346
524.459, 63.849
525.784, 50.237
527.109, 45.286
528.434, 52.167
529.758, 29.672
531.083, 58.180
532.407, 50.711
533.731, 23.219
535.055, 78.728
536.378, 37.631
537.701, 64.140
539.025, 54.820
540.348, 62.329
541.670, 57.838
542.993, 32.476
544.315, 41.985
545.637, 47.122
546.959, 44.652
548.281, 72.161
549.602, 22.977
550.923, 61.455
552.244, 50.956
553.565, 28.147
554.886, 74.654
556.206, 30.998
557.526, 48.503
558.846, 38.324
560.166, 55.846
561.486, 59.350
562.805, 31.247
564.124, 62.750
565.443, 25.797
566.762, 45.299
568.080, 79.819
569.399, 38.966
570.717, 61.516
572.035, 59.699
573.352, 59.970
574.670, 79.608
575.987, 37.892
577.304, 96.385
578.621, 53.403
579.938, 76.926
581.254, 107.957
582.570, 59.123
583.886, 99.609
585.202, 78.579
586.518, 122.121
587.833, 117.603
589.148, 129.606
590.463, 162.084
591.778, 117.561
593.093, 194.084
594.407, 171.557
595.721, 165.166
597.035, 193.636
598.349, 207.607
599.662, 232.139
600.976, 250.603
602.289, 281.632
603.602, 330.092
604.914, 315.764
606.227, 472.261
607.539, 552.715
608.851, 679.770
610.163, 927.220
611.475, 1245.895
612.786, 1791.342
614.097, 2554.784
615.408, 3489.657
616.719, 4542.095
618.030, 4978.146
619.340, 4877.706
620.651, 4107.137
621.961, 3289.945
623.270, 2706.371
624.580, 2158.794
625.889, 1887.214
627.199, 1598.632
628.507, 1404.144
629.816, 1391.557
631.125, 1184.967
632.433, 1040.382
633.741, 809.786
635.049, 633.188
636.357, 521.587
637.664, 350.983
638.972, 359.381
640.279, 293.771
641.586, 278.159
642.893, 301.542
644.199, 254.925
645.505, 350.349
646.811, 261.726
648.117, 307.099
649.423, 275.469
650.728, 249.836
652.034, 265.338
653.339, 210.700
654.644, 200.058
655.948, 206.413
657.253, 124.765
658.557, 167.114
659.861, 107.460
661.165, 80.803
662.468, 96.143
663.772, 50.480
665.075, 79.884
666.378, 28.214
667.681, 49.542
668.983, 59.867
670.286, 22.188
671.588, 53.906
672.890, 12.221
674.192, 31.533
675.493, 25.842
676.795, 10.853
678.096, 40.445
679.397, 1.260
680.697, 20.029
681.998, 30.315
683.298, 0.598
684.598, 22.876
685.898, 20.849
687.198, 12.417
688.498, 30.678
689.797, 7.063
691.096, 41.189
692.395, 36.562
693.694, 26.674
694.992, 22.908
696.290, 29.861
697.589, 22.358
698.886, 7.425
700.184, 12.784
701.482, 22.990
702.779, 10.807
704.076, 24.388
705.373, 17.420
706.669, 17.764
707.966, 11.944
709.262, 21.880
710.558, 5.287
711.854, 23.551
713.150, 27.398
714.445, 0.256
715.740, 28.118
717.035, 30.008
718.330, 16.869
719.625, 8.245
720.919, 17.644
722.214, 23.542
723.508, 29.551
724.801, 15.360
726.095, 3.721
727.388, 15.798
728.682, 17.128
729.975, 25.937
731.267, 29.999
732.560, 4.058
733.852, 27.113
735.145, 0.835
736.437, 27.212
737.728, 16.744
739.020, 2.292
740.311, 25.324
741.603, 19.647
742.894, 42.373
744.184, 4.610
745.475, 3.402
746.765, 20.410
748.055, 21.585
749.345, 26.411
750.635, 5.596
751.925, 10.391
753.214, 41.376
754.503, 14.643
755.792, 28.332
757.081, 22.697
758.370, 1.734
759.658, 14.224
760.946, 12.821
762.234, 26.128
763.522, 17.074
764.809, 12.017
766.097, 49.957
767.384, 1.106
768.671, 38.828
769.958, 10.759
771.244, 5.687
772.530, 46.612
773.817, 8.535
775.102, 21.455
776.388, 11.372
777.674, 5.287
778.959, 20.199
780.244, 7.109
781.529, 43.016
782.814, 4.921
784.098, 0.177
785.383, 45.722
786.667, 6.619
787.951, 12.514
789.235, 42.406
790.518, 4.705
791.801, 71.181
793.084, 11.065
794.367, 33.947
795.650, 50.826
796.933, 12.703
798.215, 74.578
799.497, 39.451
800.779, 29.322
802.061, 45.191
803.342, 2.942
804.624, 54.922
805.905, 15.785
807.186, 24.645
808.466, 42.504
809.747, 17.640
811.027, 61.211
812.307, 7.037
813.587, 1.885
814.867, 46.730
816.146, 6.180
817.426, 59.022
818.705, 9.691
819.984, 18.531
821.263, 79.369
822.541, 7.077
823.819, 32.912
825.098, 57.117
826.375, 32.928
827.653, 69.760
828.931, 29.282
830.208, 79.111
831.485, 47.945
832.762, 22.772
834.039, 66.598
835.315, 26.586
836.592, 49.410
837.868, 56.918
839.144, 26.723
840.420, 86.545
841.695, 55.974
842.970, 93.794
844.246, 124.069
845.521, 76.888
846.795, 130.688
848.070, 109.859
849.344, 90.625
850.618, 123.758
851.892, 69.801
853.166, 144.477
854.440, 140.505
855.713, 130.322
856.986, 197.614
858.259, 162.399
859.532, 229.675
860.804, 238.815
862.077, 183.633
863.349, 250.966
864.621, 186.727
865.893, 163.546
867.164, 184.844
868.436, 103.664
869.707, 133.484
870.978, 70.258
872.248, 76.080
873.519, 113.766
874.789, 63.590
876.060, 106.910
877.330, 85.669
878.599, 47.495
879.869, 136.756
881.138, 60.583
882.408, 119.199
883.677, 95.987
884.945, 88.818
886.214, 93.047
887.482, 78.880
888.751, 115.487
890.019, 85.321
891.287, 51.159
892.554, 152.565
893.822, 76.407
895.089, 127.635
896.356, 154.354
897.623, 115.202
898.889, 162.671
900.156, 122.521
901.422, 120.374
902.688, 145.228
903.954, 86.084
905.220, 135.846
906.485, 90.706
907.750, 79.568
909.015, 133.424
910.280, 61.290
911.545, 103.159
912.809, 103.029
914.074, 85.901
915.338, 122.772
916.602, 47.648
917.865, 94.527
919.129, 93.408
920.392, 13.290
921.655, 92.132
922.918, 66.022
924.181, 59.913
925.443, 104.807
926.706, 55.704
927.968, 101.468
929.230, 73.372
930.491, 61.280
931.753, 119.193
933.014, 88.109
934.276, 97.031
935.536, 101.955
936.797, 81.882
938.058, 96.815
939.318, 59.751
940.578, 67.619
941.838, 115.562
943.098, 80.507
944.358, 122.455
945.617, 86.407
946.876, 88.962
948.135, 109.921
949.394, 68.884
950.653, 110.849
951.911, 102.818
953.169, 65.792
954.427, 142.768
955.685, 95.749
956.943, 124.733
958.200, 137.720
959.458, 114.712
960.715, 177.706
961.971, 182.707
963.228, 217.711
964.485, 281.719
965.741, 311.731
966.997, 397.746
968.253, 366.772
969.508, 357.801
970.764, 465.833
972.019, 426.872
973.274, 552.915
974.529, 596.963
975.784, 651.015
977.039, 822.070
978.293, 944.130
979.547, 1276.194
980.801, 1794.265
982.055, 2608.338
983.308, 4244.415
984.562, 7471.500
985.815, 15490.587
987.068, 33829.684
988.321, 51378.785
989.573, 50677.895
990.826, 32607.006
992.078, 18026.125
993.330, 10035.247
994.582, 5636.375
995.833, 3459.523
997.085, 2226.665
998.336, 1580.809
999.587, 1284.960
1000.838, 1090.115
1002.088, 999.274
1003.339, 1012.439
1004.589, 785.608
1005.839, 678.781
1007.089, 523.957
1008.339, 389.138
1009.588, 390.323
1010.838, 317.512
1012.087, 289.707
1013.336, 335.906
1014.584, 258.110
1015.833, 282.320
1017.081, 271.533
1018.330, 227.752
1019.577, 282.975
1020.825, 207.202
1022.073, 280.435
1023.320, 319.673
1024.567, 241.915
1025.814, 277.196
1027.061, 264.446
1028.308, 280.060
1029.554, 272.338
1030.800, 213.605
1032.046, 228.947
1033.292, 211.222
1034.538, 161.503
1035.783, 146.788
1037.029, 100.077
1038.274, 109.456
1039.519, 108.753
1040.763, 49.054
1042.008, 104.358
1043.252, 53.667
1044.496, 6.979
1045.740, 74.334
1046.984, 19.654
1048.228, 64.978
1049.471, 86.306
1050.714, 30.637
1051.957, 109.972
1053.200, 77.311
1054.442, 138.654
1055.685, 230.309
1056.927, 253.659
1058.169, 297.014
1059.411, 161.372
1060.652, 99.734
1061.894, 133.673
1063.135, 53.043
1064.376, 81.641
1065.617, 70.672
1066.858, 35.053
1068.098, 136.997
1069.339, 96.422
1070.579, 111.813
1071.819, 154.988
1073.058, 156.387
1074.298, 201.789
1075.537, 283.381
1076.776, 286.791
1078.015, 407.252
1079.254, 478.671
1080.493, 687.094
1081.731, 945.032
1082.969, 1094.464
1084.207, 1101.695
1085.445, 1157.337
1086.683, 930.779
1087.920, 800.223
1089.157, 547.671
1090.394, 435.123
1091.631, 361.712
1092.868, 212.172
1094.105, 248.636
1095.341, 176.102
1096.577, 201.573
1097.813, 269.048
1099.049, 270.525
1100.284, 378.008
1101.519, 516.857
1102.755, 589.348
1103.990, 816.842
1105.224, 772.339
1106.459, 725.842
1107.693, 638.347
1108.928, 416.855
1110.162, 360.368
1111.395, 281.884
1112.629, 177.402
1113.863, 222.924
1115.096, 114.449
1116.329, 62.976
1117.562, 107.507
1118.795, 29.039
1120.027, 84.574
1121.259, 39.112
1122.492, 72.653
1123.723, 130.195
1124.955, 38.740
1126.187, 24.288
1127.418, 53.838
1128.649, 1.610
1129.880, 13.945
1131.111, 15.501
1132.342, 7.061
1133.572, 24.622
1134.802, 14.185
1136.033, 61.751
1137.262, 118.321
1138.492, 52.894
1139.722, 152.471
1140.951, 134.051
1142.180, 161.633
1143.409, 204.217
1144.638, 199.803
1145.866, 204.392
1147.095, 217.983
1148.323, 178.014
1149.551, 150.172
1150.779, 113.769
1152.006, 75.369
1153.234, 73.970
1154.461, 9.573
1155.688, 32.178
1156.915, 30.785
1158.141, 3.606
1159.368, 53.004
1160.594, 23.384
1161.820, 1.775
1163.046, 63.837
1164.272, 6.551
1165.498, 61.063
1166.723, 63.679
1167.948, 19.296
1169.173, 75.915
1170.398, 7.465
1171.623, 6.155
1172.847, 51.777
1174.071, 1.401
1175.295, 44.025
1176.519, 37.651
1177.743, 3.722
1178.966, 49.905
1180.190, 19.534
1181.413, 12.164
1182.636, 48.795
1183.858, 14.427
1185.081, 34.060
1186.303, 9.694
1187.526, 18.671
1188.748, 63.961
1189.969, 3.595
1191.191, 12.230
1192.412, 23.865
1193.634, 29.499
1194.855, 15.133
1196.076, 14.235
1197.296, 32.604
1198.517, 18.020
1199.737, 28.355
1200.957, 2.734
1202.177, 31.886
1203.397, 37.493
1204.617, 9.287
1205.836, 47.902
1207.055, 11.484
1208.274, 42.130
1209.493, 3.257
1210.712, 21.939
1211.930, 61.552
1213.148, 24.833
1214.367, 77.939
1215.584, 50.548
1216.802, 55.158
1218.020, 59.768
1219.237, 37.378
1220.454, 55.026
1221.671, 69.635
1222.888, 7.754
1224.105, 68.451
1225.321, 28.060
1226.537, 11.668
1227.753, 57.612
1228.969, 10.220
1230.185, 28.829
1231.400, 67.999
1232.616, 16.393
1233.831, 110.736
1235.046, 71.341
1236.261, 70.945
1237.475, 110.161
1238.689, 79.764
1239.904, 56.367
1241.118, 143.342
1242.332, 64.945
1243.545, 125.548
1244.759, 93.376
1245.972, 51.978
1247.185, 140.612
1248.398, 102.213
1249.611, 87.814
1250.823, 115.416
1252.036, 71.017
1253.248, 81.619
1254.460, 95.220
1255.671, 76.822
1256.883, 115.424
1258.095, 68.025
1259.306, 40.627
1260.517, 136.214
1261.728, 58.816
1262.938, 85.417
1264.149, 85.031
1265.359, 51.632
1266.569, 135.233
1267.779, 87.319
1268.989, 93.919
1270.199, 164.169
1271.408, 107.768
1272.617, 141.367
1273.826, 162.068
1275.035, 118.666
1276.244, 171.264
1277.452, 135.052
1278.661, 66.648
1279.869, 97.245
1281.077, 82.924
1282.285, 61.520
1283.492, 102.115
1284.700, 37.709
1285.907, 86.303
1287.114, 109.989
1288.321, 44.582
1289.527, 96.140
1290.734, 100.732
1291.940, 50.965
1293.146, 134.537
1294.352, 62.171
1295.558, 93.685
1296.763, 153.379
1297.969, 79.962
1299.174, 103.543
1300.379, 122.125
1301.584, 75.614
1302.788, 130.187
1303.993, 84.759
1305.197, 83.325
1306.401, 116.887
1307.605, 51.442
1308.809, 155.958
1310.013, 128.508
1311.216, 70.055
1312.419, 166.601
1313.622, 144.146
1314.825, 130.690
1316.028, 130.233
1317.230, 96.775
1318.432, 156.007
1319.634, 135.547
1320.836, 125.086
1322.038, 155.623
1323.240, 127.154
1324.441, 122.102
1325.642, 143.620
1326.843, 98.913
1328.044, 90.772
1329.245, 118.282
1330.445, 36.230
1331.645, 61.700
1332.845, 93.203
1334.045, 2.077
1335.245, 64.421
1336.445, 25.916
1337.644, 21.221
1338.843, 81.710
1340.042, 19.852
1341.241, 28.629
1342.440, 45.108
1343.638, 1.925
1344.836, 78.549
1346.034, 12.022
1347.232, 14.492
1348.430, 72.960
1349.628, 5.426
1350.825, 31.889
1352.022, 82.351
1353.219, 20.324
1354.416, 64.132
1355.613, 32.586
1356.809, 8.962
1358.005, 56.488
1359.202, 31.937
1360.398, 18.615
1361.593, 38.830
1362.789, 17.090
1363.984, 13.352
1365.179, 67.793
1366.374, 20.759
1367.569, 33.680
1368.764, 54.121
1369.958, 10.188
1371.153, 65.255
1372.347, 25.700
1373.541, 3.759
1374.735, 69.610
1375.928, 7.810
1377.122, 38.370
1378.315, 70.930
1379.508, 21.488
1380.701, 79.044
1381.893, 61.599
1383.086, 54.153
1384.278, 63.705
1385.470, 21.256
1386.662, 38.802
1387.854, 88.341
1389.046, 19.875
1390.237, 59.405
1391.428, 79.932
1392.619, 14.456
1393.810, 70.977
1395.001, 46.496
1396.191, 13.988
1397.382, 69.525
1398.572, 20.962
1399.762, 22.552
1400.952, 32.063
1402.141, 3.571
1403.331, 34.077
1404.520, 46.582
1405.709, 0.915
1406.898, 68.586
1408.087, 48.086
1409.275, 5.583
1410.464, 85.080
1411.652, 30.576
1412.840, 37.073
1414.028, 47.568
1415.215, 5.070
1416.403, 55.579
1417.590, 51.097
1418.777, 21.619
1419.964, 57.899
1421.151, 28.431
1422.338, 10.052
1423.524, 82.574
1424.710, 3.842
1425.896, 30.370
1427.082, 119.836
1428.268, 51.366
1429.453, 103.873
1430.639, 82.806
1431.824, 55.317
1433.009, 142.813
1434.194, 109.349
1435.378, 79.691
1436.563, 188.159
1437.747, 167.904
1438.931, 190.910
1440.115, 243.287
1441.299, 194.726
1442.482, 286.160
1443.666, 339.588
1444.849, 264.010
1446.032, 337.426
1447.215, 308.836
1448.397, 308.208
1449.580, 400.604
1450.762, 349.821
1451.944, 353.572
1453.126, 421.624
1454.308, 361.917
1455.490, 391.694
1456.671, 422.725
1457.852, 324.963
1459.033, 406.185
1460.214, 350.118
1461.395, 342.297
1462.575, 365.462
1463.756, 276.476
1464.936, 272.261
1466.116, 307.376
1467.296, 188.508
1468.475, 264.641
1469.655, 226.820
1470.834, 163.011
1472.013, 208.214
1473.192, 180.398
1474.371, 88.560
1475.550, 195.699
1476.728, 81.813
1477.906, 130.995
1479.084, 176.215
1480.262, 138.461
1481.440, 178.712
1482.617, 157.983
1483.795, 82.268
1484.972, 166.600
1486.149, 170.957
1487.326, 97.338
1488.502, 138.744
1489.679, 75.187
1490.855, 26.684
1492.031, 83.232
1493.207, 17.838
1494.383, 51.515
1495.559, 55.272
1496.734, 3.870
1497.909, 59.108
1499.084, 26.047
1500.259, 0.378
1501.434, 18.896
1502.608, 0.000
##END=



