##NAMES=Baryte
##RRUFFID=R050342
##IDEAL CHEMISTRY=BaS^6+^O_4_
##LOCALITY=Palos Verdes, Los Angeles County, California, USA
##OWNER=RRUFF
##SOURCE=California Institute of Technology
##DESCRIPTION=Light brown fragment
##STATUS=The identification of this mineral has been confirmed by X-ray diffraction and chemical analysis
##URL=rruff.info/R050342
##MEASURED CHEMISTRY=Ba_1.00_S_1.00_O_4_
##PIN_ID=L00807
##ORIENTATION=Laser parallel to b* (0 1 0). Fiducial mark perpendicular to laser is parallel to c [0 0 1]
93.48000, 0.0000000E+00
94.71400, 34.71924
95.94800, 22.93896
97.18200, 232.2900
98.41600, 284.3828
99.64900, 235.5132
100.8830, 278.0991
102.1160, 272.1274
103.3490, 138.9048
104.5820, 61.93555
105.8150, 125.8486
107.0470, 25.35840
108.2800, 169.2412
109.5120, 131.3198
110.7440, 51.44971
111.9760, 27.51318
113.2080, 29.41016
114.4400, 121.0576
115.6710, 58.37891
116.9030, 109.3115
118.1340, 62.79932
119.3650, 64.79688
120.5960, 108.2612
121.8270, 147.1582
123.0580, 120.4551
124.2880, 195.1245
125.5190, 174.1416
126.7490, 220.4834
127.9790, 132.1328
129.2090, 146.0742
130.4390, 129.2920
131.6680, 127.5742
132.8980, 143.5132
134.1270, 171.4102
135.3560, 177.5459
136.5850, 210.8716
137.8140, 236.3789
139.0430, 199.0571
140.2710, 210.8984
141.5000, 234.8970
142.7280, 176.0469
143.9560, 293.3403
145.1840, 130.7715
146.4120, 253.3354
147.6390, 193.0371
148.8670, 314.8604
150.0940, 314.8013
151.3210, 406.8564
152.5490, 337.0273
153.7750, 409.3193
155.0020, 306.7129
156.2290, 361.2056
157.4550, 285.7939
158.6810, 222.4756
159.9080, 295.2480
161.1340, 349.1304
162.3590, 216.1768
163.5850, 223.3018
164.8110, 225.5054
166.0360, 280.7842
167.2610, 228.1738
168.4860, 272.5991
169.7110, 235.0205
170.9360, 216.4644
172.1610, 181.9653
173.3850, 246.4878
174.6100, 199.0303
175.8340, 301.5977
177.0580, 205.1973
178.2820, 192.8286
179.5050, 274.5078
180.7290, 203.2451
181.9520, 289.0190
183.1760, 256.8345
184.3990, 170.6924
185.6220, 362.5894
186.8450, 298.5503
188.0670, 232.5933
189.2900, 341.6758
190.5120, 382.7969
191.7340, 432.9575
192.9560, 426.9131
194.1780, 409.1753
195.4000, 348.6758
196.6220, 315.9932
197.8430, 243.3506
199.0640, 183.7466
200.2860, 228.5864
201.5070, 161.1592
202.7270, 162.9756
203.9480, 118.1089
205.1690, 161.6934
206.3890, 163.3149
207.6090, 204.9731
208.8290, 228.6689
210.0490, 230.6777
211.2690, 158.4424
212.4890, 182.8848
213.7080, 143.7139
214.9280, 259.5786
216.1470, 227.4766
217.3660, 221.4092
218.5850, 256.3755
219.8030, 100.3755
221.0220, 189.4082
222.2400, 67.47412
223.4590, 152.5757
224.6770, 177.7168
225.8950, 161.8936
227.1120, 87.82275
228.3300, 91.69775
229.5480, 106.9038
230.7650, 141.1562
231.9820, 162.4390
233.1990, 180.7578
234.4160, 237.1133
235.6330, 150.5020
236.8490, 238.9185
238.0660, 199.3618
239.2820, 159.7021
240.4980, 191.9438
241.7140, 160.3906
242.9300, 92.09131
244.1460, 151.3047
245.3610, 129.7114
246.5770, 124.8315
247.7920, 174.9268
249.0070, 165.1357
250.2220, 153.3574
251.4370, 189.4282
252.6510, 163.5972
253.8660, 166.8633
255.0800, 125.2134
256.2940, 121.6440
257.5080, 167.1484
258.7220, 175.8774
259.9360, 205.5244
261.1490, 136.2456
262.3630, 190.0293
263.5760, 80.86963
264.7890, 66.66650
266.0020, 170.1333
267.2150, 105.1270
268.4270, 118.1675
269.6400, 140.2529
270.8520, 20.38184
272.0640, 18.08887
273.2760, 160.3125
274.4880, 28.57568
275.7000, 89.87646
276.9120, 100.2168
278.1230, 109.5928
279.3340, 179.5508
280.5450, 71.41064
281.7560, 243.8867
282.9670, 119.3940
284.1780, 100.9321
285.3880, 116.5010
286.5980, 62.09961
287.8090, 32.74707
289.0190, 35.42236
290.2290, 96.12500
291.4380, 135.8545
292.6480, 55.61035
293.8570, 66.39111
295.0670, 15.20068
296.2760, 171.0347
297.4850, 128.8931
298.6930, 87.77441
299.9020, 116.6792
301.1110, 92.60596
302.3190, 199.5557
303.5270, 88.52637
304.7350, 18.45361
305.9430, 55.58594
307.1510, 35.64551
308.3580, 206.7271
309.5660, 147.8276
310.7730, 40.94775
311.9800, 213.0859
313.1870, 8.243164
314.3940, 61.41748
315.6010, 49.61084
316.8070, 110.8218
318.0130, 122.0503
319.2200, 142.9946
320.4260, 102.5620
321.6310, 148.8442
322.8370, 73.14453
324.0430, 12.53809
325.2480, 114.7944
326.4540, 128.1445
327.6590, 65.51172
328.8640, 23.10449
330.0680, 68.29395
331.2730, 137.7080
332.4780, 139.1377
333.6820, 172.5117
334.8860, 171.1660
336.0900, 133.5225
337.2940, 139.0156
338.4980, 52.52246
339.7010, 15.04492
340.9050, 53.58203
342.1080, 52.13379
343.3110, 105.7002
344.5140, 13.28125
345.7170, 44.87305
346.9200, 45.47949
348.1220, 156.1006
349.3240, 120.7529
350.5270, 157.3828
351.7290, 119.8105
352.9310, 56.48438
354.1320, 88.98340
355.3340, 69.68262
356.5350, 146.3945
357.7370, 28.36230
358.9380, 20.90430
360.1390, 35.83887
361.3400, 18.40625
362.5400, 90.64160
363.7410, 41.11816
364.9410, 31.89160
366.1410, 34.67480
367.3410, 136.4697
368.5410, 85.27734
369.7410, 103.7207
370.9400, 66.87793
372.1400, 75.71387
373.3390, 60.75195
374.5380, 55.58984
375.7370, 79.43945
376.9360, 96.29883
378.1350, 55.16797
379.3330, 14.04785
380.5310, 54.93848
381.7300, 142.8398
382.9280, 86.24902
384.1260, 111.6387
385.3230, 76.44922
386.5210, 24.58008
387.7180, 72.37500
388.9160, 23.31250
390.1130, 10.72949
391.3100, 30.68164
392.5060, 40.70312
393.7030, 15.72461
394.9000, 11.26465
396.0960, 23.27051
397.2920, 109.9980
398.4880, 26.03711
399.6840, 29.79395
400.8800, 63.86328
402.0750, 2.985352
403.2710, 107.0811
404.4660, 52.70898
405.6610, 34.90137
406.8560, 70.03613
408.0510, 35.81543
409.2450, 4.667969
410.4400, 32.48633
411.6340, 22.65430
412.8280, 140.8320
414.0220, 76.02344
415.2160, 3.774414
416.4100, 68.20801
417.6030, 81.42676
418.7970, 204.7461
419.9900, 77.61328
421.1830, 109.8652
422.3760, 63.87305
423.5690, 20.63086
424.7610, 190.6094
425.9540, 80.85840
427.1460, 167.1172
428.3380, 182.5908
429.5300, 111.9736
430.7220, 133.0078
431.9140, 164.9404
433.1050, 221.6094
434.2970, 282.9238
435.4880, 417.2461
436.6790, 528.5771
437.8700, 673.6406
439.0610, 667.9902
440.2510, 828.4170
441.4420, 1154.783
442.6320, 1436.155
443.8220, 1858.535
445.0120, 2349.924
446.2020, 3098.318
447.3910, 3932.229
448.5810, 4818.342
449.7700, 6009.758
450.9600, 7240.567
452.1490, 8284.997
453.3370, 9165.433
454.5260, 9055.879
455.7150, 7924.330
456.9030, 6173.785
458.0910, 4591.246
459.2800, 3106.718
460.4670, 2067.193
461.6550, 1624.676
462.8430, 1232.165
464.0300, 900.6602
465.2180, 627.1611
466.4050, 514.6670
467.5920, 411.9697
468.7790, 407.4980
469.9650, 333.0332
471.1520, 314.5732
472.3380, 320.5957
473.5250, 216.1475
474.7110, 202.7031
475.8970, 166.2637
477.0820, 160.8301
478.2680, 231.4014
479.4540, 157.9785
480.6390, 239.5596
481.8240, 312.1436
483.0090, 50.73438
484.1940, 173.3291
485.3780, 220.9287
486.5630, 214.5322
487.7470, 240.7500
488.9320, 236.9287
490.1160, 156.3721
491.3000, 200.9951
492.4830, 75.62402
493.6670, 11.25488
494.8500, 56.88379
496.0340, 10.51465
497.2170, 91.14258
498.4000, 161.7744
499.5820, 29.42871
500.7650, 62.08496
501.9480, 138.0850
503.1300, 47.74707
504.3120, 113.8203
505.4940, 86.80469
506.6760, 89.47754
507.8580, 93.72754
509.0390, 82.83398
510.2210, 76.51758
511.4020, 17.20312
512.5830, 21.88770
513.7640, 194.5713
514.9450, 2.259766
516.1250, 131.9395
517.3060, 50.62402
518.4860, 76.32227
519.6660, 125.0371
520.8460, 136.7656
522.0260, 95.52539
523.2060, 172.2881
524.3850, 95.05371
525.5650, 107.9570
526.7440, 199.7334
527.9230, 81.09180
529.1020, 61.80078
530.2810, 176.5879
531.4590, 62.37695
532.6380, 34.80664
533.8160, 87.22266
534.9940, 62.17383
536.1720, 107.1973
537.3500, 162.9961
538.5270, 11.20312
539.7050, 51.86523
540.8820, 8.653320
542.0590, 115.4365
543.2360, 16.77832
544.4130, 113.8428
545.5900, 25.38770
546.7660, 1.360352
547.9430, 86.09961
549.1190, 128.8418
550.2950, 51.36621
551.4710, 136.5889
552.6470, 91.39844
553.8220, 57.14551
554.9980, 75.89258
556.1730, 180.6406
557.3480, 30.14551
558.5230, 105.5781
559.6980, 33.30371
560.8730, 11.22656
562.0470, 69.94727
563.2220, 145.6680
564.3960, 218.1572
565.5700, 55.46094
566.7440, 81.18262
567.9170, 139.9033
569.0910, 23.63281
570.2640, 29.36230
571.4380, 64.91016
572.6110, 106.7793
573.7840, 44.46973
574.9570, 75.35938
576.1290, 139.0498
577.3020, 117.7393
578.4740, 6.427734
579.6460, 171.5371
580.8180, 33.21777
581.9900, 158.8965
583.1620, 51.57422
584.3330, 54.25098
585.5040, 83.92578
586.6760, 47.60059
587.8470, 93.72656
589.0180, 134.8906
590.1880, 71.50684
591.3590, 18.12207
592.5290, 120.7314
593.7000, 47.33887
594.8700, 43.05273
596.0400, 57.03613
597.2090, 47.65430
598.3790, 123.2695
599.5490, 126.0684
600.7180, 188.6826
601.8870, 141.7822
603.0560, 151.4053
604.2250, 109.0273
605.3940, 160.6475
606.5620, 174.8145
607.7300, 119.7559
608.8990, 258.3701
610.0670, 327.9805
611.2350, 377.8301
612.4020, 630.4355
613.5700, 577.0400
614.7370, 972.6436
615.9050, 1209.244
617.0720, 1461.158
618.2390, 1391.752
619.4060, 1068.344
620.5720, 919.9316
621.7390, 677.5146
622.9050, 500.4473
624.0710, 456.0244
625.2370, 386.5977
626.4030, 339.1680
627.5690, 336.2969
628.7340, 375.6797
629.9000, 354.8066
631.0650, 408.3613
632.2300, 436.0889
633.3950, 344.6367
634.5600, 383.4141
635.7240, 247.0127
636.8890, 272.7422
638.0530, 283.2773
639.2170, 243.6396
640.3810, 239.2012
641.5450, 252.4453
642.7080, 193.9697
643.8720, 198.4902
645.0350, 218.0107
646.1980, 484.1152
647.3610, 408.6494
648.5240, 402.1787
649.6870, 386.0742
650.8490, 344.5957
652.0120, 199.5693
653.1740, 191.6689
654.3360, 51.17480
655.4980, 267.9355
656.6600, 231.0645
657.8210, 181.1719
658.9830, 190.9004
660.1440, 211.8955
661.3050, 198.3066
662.4660, 142.1230
663.6270, 139.5859
664.7870, 187.4141
665.9480, 106.8955
667.1080, 248.6328
668.2680, 103.1172
669.4280, 285.4268
670.5880, 154.9053
671.7480, 43.59668
672.9070, 225.9883
674.0670, 312.4580
675.2260, 144.9297
676.3850, 67.39844
677.5440, 94.07129
678.7030, 36.82129
679.8610, 184.3486
681.0200, 68.08496
682.1780, 144.5176
683.3360, 144.9033
684.4940, 285.4326
685.6520, 62.32910
686.8090, 180.6660
687.9670, 135.6279
689.1240, 14.08789
690.2810, 231.4893
691.4380, 47.88477
692.5950, 223.6914
693.7520, 86.07227
694.9080, 136.5557
696.0650, 198.9229
697.2210, 199.5693
698.3770, 150.9248
699.5330, 35.82129
700.6880, 101.5361
701.8440, 210.8672
702.9990, 28.19727
704.1550, 166.5273
705.3100, 127.8555
706.4650, 236.1758
707.6190, 180.8154
708.7740, 103.9189
709.9290, 114.1133
711.0830, 81.64258
712.2370, 115.0459
713.3910, 33.52637
714.5450, 167.7930
715.6980, 113.0527
716.8520, 158.3027
718.0050, 21.98340
719.1580, 142.2158
720.3110, 61.36914
721.4640, 59.58496
722.6170, 58.81836
723.7700, 122.0186
724.9220, 217.2100
726.0740, 70.41797
727.2260, 96.08496
728.3780, 204.3076
729.5300, 57.46875
730.6810, 247.2373
731.8330, 129.3828
732.9840, 36.52148
734.1350, 20.80273
735.2860, 76.39258
736.4370, 98.50195
737.5880, 34.68555
738.7380, 74.93945
739.8880, 20.77930
741.0390, 78.51562
742.1890, 167.8105
743.3380, 116.9072
744.4880, 84.95312
745.6380, 28.00781
746.7870, 102.9961
747.9360, 218.9922
749.0850, 34.99316
750.2340, 114.9834
751.3830, 58.02637
752.5310, 101.1621
753.6800, 75.11621
754.8280, 31.15918
755.9760, 84.09375
757.1240, 137.0195
758.2720, 86.93652
759.4190, 124.8438
760.5670, 29.74414
761.7140, 95.63086
762.8610, 144.5088
764.0080, 133.3799
765.1550, 60.23926
766.3020, 29.13672
767.4480, 18.47656
768.5950, 69.81934
769.7410, 43.65234
770.8870, 149.4756
772.0330, 259.3760
773.1780, 56.65137
774.3240, 159.0088
775.4690, 115.8037
776.6140, 59.40137
777.7590, 94.34375
778.9040, 196.4297
780.0490, 186.1719
781.1940, 180.4082
782.3380, 81.13281
783.4820, 18.84668
784.6260, 157.3271
785.7700, 235.0186
786.9140, 31.83691
788.0580, 75.50586
789.2010, 224.1650
790.3450, 135.8184
791.4880, 121.4639
792.6310, 27.12598
793.7730, 17.01465
794.9160, 23.93359
796.0590, 33.92773
797.2010, 22.38574
798.3430, 92.86719
799.4850, 34.58203
800.6270, 110.1455
801.7690, 4.426758
802.9100, 233.0430
804.0520, 43.58398
805.1930, 157.9736
806.3340, 9.494141
807.4750, 94.35156
808.6160, 47.84766
809.7560, 158.0049
810.8970, 136.0039
812.0370, 186.3301
813.1770, 204.8652
814.3170, 49.34375
815.4570, 112.6387
816.5960, 67.64941
817.7360, 145.9297
818.8750, 93.20410
820.0140, 157.4678
821.1530, 61.97656
822.2920, 119.2285
823.4310, 225.4824
824.5690, 23.48145
825.7070, 77.71582
826.8460, 219.2539
827.9840, 183.4668
829.1220, 31.60449
830.2590, 140.7939
831.3970, 64.97266
832.5340, 220.1406
833.6710, 77.29980
834.8080, 109.4590
835.9450, 16.60840
837.0820, 110.5479
838.2190, 228.6738
839.3550, 90.79199
840.4910, 136.5840
841.6270, 237.6816
842.7630, 199.7695
843.8990, 20.15234
845.0350, 91.89453
846.1700, 241.9336
847.3060, 0.9628910
848.4410, 63.99414
849.5760, 51.01465
850.7100, 147.8252
851.8450, 92.82422
852.9800, 157.8125
854.1140, 55.79102
855.2480, 143.3359
856.3820, 206.2979
857.5160, 276.2510
858.6500, 87.20020
859.7830, 138.1396
860.9170, 103.0703
862.0500, 87.99023
863.1830, 198.9023
864.3160, 80.83105
865.4480, 144.7500
866.5810, 126.6602
867.7130, 140.5625
868.8460, 191.4531
869.9780, 56.22949
871.1100, 40.27637
872.2410, 225.5566
873.3730, 74.37891
874.5050, 55.00781
875.6360, 29.19043
876.7670, 9.102539
877.8980, 44.85645
879.0290, 83.59863
880.1590, 96.33105
881.2900, 172.0547
882.4200, 161.8945
883.5500, 141.5996
884.6800, 87.30273
885.8100, 87.44434
886.9400, 72.43750
888.0690, 48.11328
889.1990, 105.3613
890.3280, 67.01660
891.4570, 94.13770
892.5860, 164.1348
893.7140, 157.7627
894.8430, 144.3809
895.9710, 243.9922
897.1000, 201.2422
898.2280, 250.8350
899.3560, 94.41797
900.4830, 104.9941
901.6110, 78.54785
902.7380, 118.7383
903.8660, 111.0352
904.9930, 158.1953
906.1200, 96.55176
907.2460, 71.07520
908.3730, 16.58691
909.5000, 10.03027
910.6260, 172.5889
911.7520, 152.3711
912.8780, 151.0098
914.0040, 27.85938
915.1290, 188.3096
916.2550, 12.75195
917.3800, 96.17969
918.5050, 175.5996
919.6300, 15.56250
920.7550, 122.9629
921.8800, 57.34277
923.0040, 134.3477
924.1290, 210.7090
925.2530, 108.2041
926.3770, 112.5508
927.5010, 81.91016
928.6250, 195.8086
929.7480, 152.5176
930.8720, 56.23633
931.9950, 214.3232
933.1180, 165.5156
934.2410, 98.89453
935.3640, 44.85352
936.4860, 113.2412
937.6090, 42.83691
938.7310, 40.41504
939.8530, 99.40332
940.9750, 39.64746
942.0970, 0.9443360
943.2180, 38.28027
944.3400, 201.2783
945.4610, 4.283203
946.5820, 265.9131
947.7030, 22.10547
948.8240, 31.28809
949.9450, 135.2529
951.0650, 154.4209
952.1860, 203.5029
953.3060, 104.6602
954.4260, 231.8096
955.5460, 16.95312
956.6650, 108.9814
957.7850, 144.1240
958.9040, 38.74023
960.0230, 242.8154
961.1420, 102.8604
962.2610, 129.9561
963.3800, 228.0469
964.4990, 257.7129
965.6170, 290.1211
966.7350, 409.7529
967.8530, 328.8193
968.9710, 319.8193
970.0890, 322.8779
971.2070, 477.2910
972.3240, 319.3379
973.4410, 540.4141
974.5580, 542.4795
975.6750, 615.5449
976.7920, 919.6094
977.9090, 1111.665
979.0250, 1460.393
980.1410, 2280.436
981.2580, 3349.477
982.3740, 5462.525
983.4890, 8486.433
984.6050, 12035.25
985.7200, 18381.28
986.8360, 27213.29
987.9510, 37558.30
989.0660, 43243.15
990.1810, 36679.14
991.2950, 23509.14
992.4100, 12609.73
993.5240, 6464.689
994.6390, 3692.673
995.7530, 2469.648
996.8660, 1669.598
997.9800, 1245.563
999.0940, 1028.472
1000.207, 741.4277
1001.320, 599.3789
1002.433, 617.3252
1003.546, 456.2676
1004.659, 437.0479
1005.772, 252.5107
1006.884, 368.4453
1007.996, 284.2949
1009.108, 360.0596
1010.220, 364.2256
1011.332, 233.4814
1012.444, 197.1670
1013.555, 256.0371
1014.666, 258.9453
1015.777, 133.8486
1016.888, 140.7617
1017.999, 131.0166
1019.110, 110.9072
1020.220, 175.7969
1021.331, 112.6201
1022.441, 9.663086
1023.551, 142.2227
1024.661, 13.00391
1025.770, 103.8809
1026.880, 254.7559
1027.989, 237.6250
1029.098, 175.4922
1030.207, 185.3555
1031.316, 135.2168
1032.425, 126.8154
1033.533, 139.9297
1034.642, 70.78223
1035.750, 46.58496
1036.858, 64.56836
1037.966, 106.2441
1039.073, 81.05273
1040.181, 213.8594
1041.288, 232.5762
1042.396, 193.9092
1043.503, 28.14844
1044.610, 39.05762
1045.716, 167.7129
1046.823, 56.49805
1047.929, 156.9238
1049.036, 136.6768
1050.142, 59.92480
1051.248, 120.6738
1052.353, 70.42090
1053.459, 8.535156
1054.564, 102.4082
1055.670, 40.02246
1056.775, 69.85645
1057.880, 6.606445
1058.985, 179.3525
1060.089, 176.7227
1061.194, 180.5791
1062.298, 46.32520
1063.402, 153.1221
1064.506, 82.34277
1065.610, 23.88965
1066.713, 43.87305
1067.817, 54.71875
1068.920, 21.38477
1070.023, 93.30273
1071.126, 18.96582
1072.229, 152.6777
1073.332, 230.4609
1074.435, 153.1025
1075.537, 282.3926
1076.639, 212.5918
1077.741, 23.14062
1078.843, 143.9668
1079.945, 135.7363
1081.046, 146.2842
1082.148, 217.8770
1083.249, 238.6904
1084.350, 200.4541
1085.451, 148.2188
1086.551, 146.9111
1087.652, 153.7422
1088.752, 118.2598
1089.853, 181.0908
1090.953, 204.8506
1092.053, 312.8584
1093.152, 146.6191
1094.252, 328.3799
1095.351, 176.1387
1096.451, 237.8984
1097.550, 578.6572
1098.649, 493.4170
1099.748, 677.1758
1100.846, 914.9326
1101.945, 1031.393
1103.043, 1340.149
1104.141, 1591.907
1105.239, 1679.010
1106.337, 1563.809
1107.434, 1170.562
1108.532, 780.6436
1109.629, 763.3955
1110.726, 616.1484
1111.823, 434.9092
1112.920, 299.6689
1114.017, 301.4287
1115.113, 194.1914
1116.210, 272.9551
1117.306, 252.7168
1118.402, 159.4775
1119.498, 203.2383
1120.593, 334.9990
1121.689, 131.7578
1122.784, 329.5156
1123.879, 25.72656
1124.974, 253.0146
1126.069, 162.7568
1127.164, 173.4971
1128.259, 232.2373
1129.353, 167.9756
1130.447, 119.7139
1131.541, 236.4785
1132.635, 355.2158
1133.729, 252.9521
1134.822, 411.6875
1135.916, 477.4219
1137.009, 556.1562
1138.102, 752.7812
1139.195, 665.5312
1140.288, 697.2812
1141.380, 630.0293
1142.473, 456.8809
1143.565, 501.6426
1144.657, 326.4043
1145.749, 183.1680
1146.841, 405.9297
1147.932, 247.6914
1149.024, 21.54688
1150.115, 87.20117
1151.206, 177.9473
1152.297, 168.6973
1153.388, 226.4473
1154.479, 174.6133
1155.569, 191.3594
1156.659, 220.9570
1157.750, 186.2539
1158.839, 201.4922
1159.929, 209.2617
1161.019, 300.0273
1162.108, 428.4473
1163.198, 439.5625
1164.287, 558.3457
1165.376, 578.5039
1166.465, 589.8809
1167.553, 578.6484
1168.642, 630.4824
1169.730, 539.2539
1170.818, 495.0332
1171.906, 350.7930
1172.994, 311.5605
1174.082, 240.3320
1175.170, 138.0352
1176.257, 93.50781
1177.344, 211.2812
1178.431, 119.6680
1179.518, 146.4414
1180.605, 302.2168
1181.691, 191.1992
1182.778, 104.9766
1183.864, 2.425781
1184.950, 6.931641
1186.036, 98.85742
1187.122, 15.63672
1188.207, 86.41797
1189.292, 39.05859
1190.378, 76.23242
1191.463, 2.515625
1192.548, 94.26367
1193.632, 24.01172
1194.717, 9.166016
1195.801, 75.57812
1196.886, 119.9336
1197.970, 23.33789
1199.054, 155.1133
1200.137, 5.986328
1201.221, 135.7598
1202.305, 92.78906
1203.388, 233.5840
1204.471, 103.5918
1205.554, 103.3887
1206.637, 42.19531
1207.719, 26.04297
1208.802, 63.58594
1209.884, 54.39453
1210.966, 66.20508
1212.048, 134.0176
1213.130, 24.83008
1214.212, 139.6406
1215.293, 268.4512
1216.374, 134.4648
1217.456, 256.2871
1218.536, 121.1875
1219.617, 51.85156
1220.698, 176.9434
1221.778, 59.74023
1222.859, 114.7109
1223.939, 175.6172
1225.019, 62.42188
1226.099, 147.2266
1227.178, 219.0312
1228.258, 125.0938
1229.337, 182.8984
1230.417, 171.7031
1231.496, 11.49414
1232.574, 151.3066
1233.653, 173.1035
1234.732, 135.0449
1235.810, 30.68164
1236.888, 172.4082
1237.966, 2.865234
1239.044, 317.8555
1240.122, 141.6621
1241.199, 63.38281
1242.277, 231.1172
1243.354, 144.9883
1244.431, 316.7168
1245.508, 117.4453
1246.585, 68.16992
1247.661, 143.8965
1248.738, 141.6211
1249.814, 137.1641
1250.890, 122.0684
1251.966, 153.7910
1253.042, 177.5098
1254.117, 229.6328
1255.193, 165.3535
1256.268, 192.9004
1257.343, 69.78711
1258.418, 144.5020
1259.493, 125.2637
1260.567, 36.97656
1261.642, 122.6875
1262.716, 188.4023
1263.790, 332.1113
1264.864, 80.88672
1265.938, 136.6621
1267.011, 14.50586
1268.085, 201.1914
1269.158, 264.8848
1270.231, 258.5801
1271.304, 24.26953
1272.377, 214.9570
1273.450, 176.6465
1274.522, 83.37695
1275.594, 143.0625
