##NAMES=Baryte
##RRUFFID=R040036
##IDEAL CHEMISTRY=BaS^6+^O_4_
##LOCALITY=Cumbria County, England
##OWNER=RRUFF
##SOURCE=University of Arizona Mineral Museum
##DESCRIPTION=Golden brown tabular crystal
##STATUS=The identification of this mineral has been confirmed by X-ray diffraction and chemical analysis
##URL=rruff.info/R040036
##MEASURED CHEMISTRY=Ba_1.00_S_1.00_O_4_; trace amounts of Pb
##PIN_ID=M00019
##ORIENTATION=Laser parallel to b* (0 1 0). Fiducial mark perpendicular to laser is parallel to c [0 0 1]
26.288, 0.000
27.694, 1.296
29.099, 19.114
30.504, 23.240
31.909, 29.498
33.313, 34.856
34.717, 31.486
36.121, 36.949
37.525, 31.184
38.929, 57.464
40.332, 34.041
41.735, 37.107
43.138, 46.987
44.541, 76.671
45.943, 83.608
47.345, 60.814
48.747, 66.471
50.149, 100.521
51.551, 89.512
52.952, 75.404
54.353, 102.906
55.754, 107.989
57.155, 121.757
58.555, 119.215
59.955, 104.068
61.355, 91.429
62.755, 77.598
64.154, 80.324
65.553, 68.095
66.952, 72.144
68.351, 58.152
69.750, 57.440
71.148, 29.735
72.546, 37.038
73.944, 15.351
75.342, 4.673
76.739, 4.002
78.136, 7.664
79.533, 5.667
80.930, 2.001
82.327, 8.671
83.723, 22.342
85.119, 21.021
86.515, 22.706
87.910, 30.397
89.306, 22.100
90.701, 2.810
92.096, 19.527
93.490, 16.749
94.885, 22.018
96.279, 32.433
97.673, 70.758
99.067, 66.218
100.461, 61.657
101.854, 39.912
103.247, 43.187
104.640, 48.500
106.032, 65.843
107.425, 61.211
108.817, 70.599
110.209, 55.002
111.601, 86.416
112.992, 93.838
114.384, 113.265
115.775, 112.691
117.166, 129.113
118.556, 132.552
119.947, 110.102
121.337, 111.647
122.727, 95.086
124.116, 88.552
125.506, 95.049
126.895, 95.484
128.284, 90.948
129.673, 91.306
131.062, 98.635
132.450, 89.881
133.838, 114.230
135.226, 79.652
136.614, 92.933
138.001, 78.292
139.388, 89.616
140.775, 95.833
142.162, 96.042
143.549, 101.132
144.935, 125.388
146.321, 129.665
147.707, 159.796
149.093, 179.951
150.478, 222.962
151.863, 210.108
153.248, 200.216
154.633, 170.349
156.018, 159.541
157.402, 122.685
158.786, 113.778
160.170, 114.930
161.554, 106.078
162.937, 94.094
164.320, 65.230
165.703, 59.342
167.086, 81.388
168.469, 61.465
169.851, 61.458
171.233, 52.623
172.615, 66.599
173.996, 46.665
175.378, 64.659
176.759, 86.164
178.140, 80.612
179.521, 98.134
180.901, 104.437
182.281, 122.700
183.662, 152.890
185.041, 203.049
186.421, 233.097
187.800, 243.156
189.180, 243.153
190.558, 217.049
191.937, 183.923
193.316, 153.732
194.694, 131.448
196.072, 107.112
197.450, 90.820
198.827, 77.511
200.205, 84.083
201.582, 75.621
202.959, 89.065
204.336, 79.375
205.712, 91.628
207.088, 70.843
208.465, 61.960
209.840, 71.138
211.216, 52.169
212.591, 57.203
213.967, 49.206
215.341, 57.158
216.716, 59.102
218.091, 57.991
219.465, 51.891
220.839, 57.575
222.213, 57.309
223.586, 42.822
224.960, 67.222
226.333, 41.575
227.706, 62.708
229.079, 31.075
230.451, 53.289
231.823, 45.349
233.195, 41.133
234.567, 51.941
235.939, 47.679
237.310, 47.238
238.682, 40.008
240.052, 29.211
241.423, 28.026
242.794, 21.558
244.164, 24.139
245.534, 42.816
246.904, 25.693
248.274, 25.565
249.643, 24.394
251.012, 29.121
252.381, 28.862
253.750, 38.626
255.118, 37.469
256.487, 28.289
257.855, 40.150
259.223, 42.936
260.590, 26.855
261.958, 25.770
263.325, 24.681
264.692, 21.588
266.059, 35.491
267.425, 33.390
268.791, 36.285
270.158, 26.177
271.523, 45.064
272.889, 42.947
274.255, 29.827
275.620, 29.703
276.985, 22.575
278.350, 42.444
279.714, 24.309
281.078, 33.172
282.443, 28.031
283.806, 15.887
285.170, 21.739
286.534, 28.587
287.897, 23.433
289.260, 34.276
290.623, 22.116
291.985, 21.953
293.348, 22.788
294.710, 19.620
296.072, 28.449
297.433, 38.276
298.795, 22.101
300.156, 17.924
301.517, 25.744
302.878, 16.562
304.239, 19.378
305.599, 34.190
306.959, 28.001
308.319, 16.810
309.679, 39.616
311.038, 25.420
312.398, 11.199
313.757, 10.950
315.116, 52.747
316.474, 25.507
317.833, 32.267
319.191, 5.985
320.549, 33.768
321.907, 18.458
323.264, 10.232
324.622, 10.009
325.979, 4.222
327.336, 19.536
328.692, 16.287
330.049, 20.030
331.405, 14.766
332.761, 26.495
334.117, 12.217
335.473, 13.932
336.828, 22.641
338.183, 13.344
339.538, 17.041
340.893, 24.733
342.247, 24.419
343.602, 4.102
344.956, 1.222
346.310, 10.450
347.663, 4.117
349.017, 10.779
350.370, 26.438
351.723, 23.093
353.076, 15.746
354.428, 36.396
355.780, 4.028
357.133, 29.673
358.484, 9.258
359.836, 16.867
361.188, 13.437
362.539, 18.045
363.890, 14.663
365.241, 11.275
366.591, 16.860
367.942, 20.473
369.292, 21.086
370.642, 10.635
371.992, 18.271
373.341, 10.823
374.691, 29.463
376.040, 25.976
377.388, 21.597
378.737, 12.188
380.086, 13.768
381.434, 20.408
382.782, 30.037
384.130, 16.674
385.477, 38.288
386.825, 27.856
388.172, 41.428
389.519, 32.972
390.865, 37.532
392.212, 29.181
393.558, 14.751
394.904, 33.321
396.250, 29.886
397.596, 28.475
398.941, 24.064
400.286, 33.699
401.631, 26.348
402.976, 33.938
404.321, 31.585
405.665, 41.246
407.009, 28.833
408.353, 35.415
409.697, 26.993
411.040, 32.557
412.384, 33.186
413.727, 43.806
415.070, 43.448
416.412, 42.035
417.755, 56.702
419.097, 63.369
420.439, 67.975
421.781, 63.582
423.122, 90.156
424.464, 117.819
425.805, 119.403
427.146, 134.029
428.486, 177.633
429.827, 212.181
431.167, 247.764
432.507, 321.373
433.847, 388.960
435.187, 474.598
436.526, 604.180
437.865, 786.763
439.204, 967.351
440.543, 1278.959
441.882, 1670.578
443.220, 2154.240
444.558, 3086.832
445.896, 4159.407
447.234, 5981.019
448.572, 8009.590
449.909, 10143.174
451.246, 11602.828
452.583, 11022.456
453.919, 9086.033
455.256, 6615.696
456.592, 4575.315
457.928, 3132.869
459.264, 2192.424
460.600, 1574.085
461.935, 1136.709
463.270, 840.366
464.605, 661.902
465.940, 519.563
467.274, 420.160
468.609, 359.719
469.943, 304.277
471.277, 227.715
472.610, 204.320
473.944, 172.912
475.277, 153.522
476.610, 132.109
477.943, 121.752
479.275, 112.330
480.608, 117.917
481.940, 83.546
483.272, 85.134
484.604, 76.742
485.935, 70.386
487.267, 80.029
488.598, 60.583
489.929, 68.102
491.260, 66.687
492.590, 55.244
493.920, 58.833
495.250, 38.496
496.580, 58.146
497.910, 60.763
499.239, 50.429
500.569, 62.994
501.898, 49.660
503.226, 51.253
504.555, 64.883
505.883, 47.499
507.212, 40.137
508.540, 48.762
509.867, 50.372
511.195, 38.012
512.522, 64.670
513.849, 50.333
515.176, 55.950
516.503, 47.603
517.829, 54.224
519.156, 55.897
520.482, 39.571
521.808, 50.246
523.133, 43.880
524.459, 46.523
525.784, 46.197
527.109, 40.873
528.434, 45.531
529.758, 35.207
531.083, 44.883
532.407, 49.560
533.731, 47.540
535.055, 28.230
536.378, 23.907
537.701, 39.565
539.025, 34.242
540.348, 25.920
541.670, 20.620
542.993, 29.312
544.315, 3.990
545.637, 20.695
546.959, 17.728
548.281, 35.405
549.602, 24.083
550.923, 20.799
552.244, 32.478
553.565, 14.158
554.886, 13.836
556.206, 18.514
557.526, 6.193
558.846, 22.871
560.166, 23.569
561.486, 22.273
562.805, 26.949
564.124, 33.660
565.443, 26.336
566.762, 20.011
568.080, 12.790
569.399, 12.493
570.717, 18.410
572.035, 15.107
573.352, 6.999
574.670, 14.672
575.987, 21.447
577.304, 17.118
578.621, 20.791
579.938, 11.646
581.254, 37.335
582.570, 1.213
583.886, 26.382
585.202, 36.191
586.518, 21.103
587.833, 11.865
589.148, 21.731
590.463, 44.430
591.778, 32.093
593.093, 12.925
594.407, 33.675
595.721, 37.762
597.035, 35.454
598.349, 32.113
599.662, 39.784
600.976, 29.593
602.289, 54.250
603.602, 69.906
604.914, 88.560
606.227, 120.534
607.539, 141.186
608.851, 220.838
610.163, 390.488
611.475, 588.138
612.786, 950.893
614.097, 1372.542
615.408, 1536.370
616.719, 1474.071
618.030, 1178.807
619.340, 811.490
620.651, 621.182
621.961, 487.824
623.270, 399.703
624.580, 337.479
625.889, 351.314
627.199, 382.955
628.507, 387.591
629.816, 412.812
631.125, 337.445
632.433, 310.100
633.741, 248.731
635.049, 235.361
636.357, 224.066
637.664, 205.761
638.972, 225.654
640.279, 263.278
641.586, 295.916
642.893, 403.593
644.199, 462.239
645.505, 527.857
646.811, 527.549
648.117, 412.164
649.423, 354.836
650.728, 256.522
652.034, 207.639
653.339, 139.247
654.644, 130.181
655.948, 90.786
657.253, 51.389
658.557, 41.246
659.861, 50.846
661.165, 40.443
662.468, 33.248
663.772, 30.066
665.075, 14.657
666.378, 33.247
667.681, 36.835
668.983, 20.434
670.286, 43.087
671.588, 14.668
672.890, 34.418
674.192, 10.005
675.493, 9.567
676.795, 14.197
678.096, 20.764
679.397, 33.338
680.697, 13.901
681.998, 7.678
683.298, 9.237
684.598, 12.794
685.898, 6.478
687.198, 11.970
688.498, 27.576
689.797, 17.299
691.096, 3.841
692.395, 15.638
693.694, 12.175
694.992, 14.768
696.290, 17.300
697.589, 14.990
698.886, 17.509
700.184, 8.037
701.482, 6.570
702.779, 17.090
704.076, 4.607
705.373, 14.122
706.669, 12.634
707.966, 0.856
709.262, 5.651
710.558, 6.845
711.854, 6.654
713.150, 5.849
714.445, 11.637
715.740, 0.860
717.035, 13.626
718.330, 11.110
719.625, 4.409
720.919, 7.068
722.214, 5.457
723.508, 18.021
724.801, 2.558
726.095, 7.099
727.388, 0.645
728.682, 5.194
729.975, 3.253
731.267, 10.696
732.560, 3.862
733.852, 0.425
735.145, 14.991
736.437, 3.437
737.728, 11.861
739.020, 7.284
740.311, 3.296
741.603, 21.147
742.894, 14.561
744.184, 22.972
745.475, 10.619
746.765, 18.784
748.055, 18.185
749.345, 9.584
750.635, 9.980
751.925, 1.626
753.214, 21.765
754.503, 4.847
755.792, 0.537
757.081, 1.082
758.370, 1.295
759.658, 0.670
760.946, 15.043
762.234, 7.588
763.522, 3.223
764.809, 5.861
766.097, 6.496
767.384, 14.851
768.671, 22.796
769.958, 22.548
771.244, 1.891
772.530, 22.231
773.817, 10.569
775.102, 1.096
776.388, 0.764
777.674, 9.434
778.959, 24.891
780.244, 2.213
781.529, 0.467
782.814, 0.850
784.098, 6.165
785.383, 1.522
786.667, 8.787
787.951, 0.905
789.235, 1.601
790.518, 20.299
791.801, 9.996
793.084, 12.711
794.367, 23.576
795.650, 36.862
796.933, 9.855
798.215, 13.424
799.497, 16.701
800.779, 8.024
802.061, 8.753
803.342, 5.514
804.624, 11.779
805.905, 33.041
807.186, 0.302
808.466, 2.439
809.747, 14.817
811.027, 6.928
812.307, 12.323
813.587, 4.269
814.867, 2.497
816.146, 2.748
817.426, 0.009
818.705, 1.232
819.984, 9.528
821.263, 19.686
822.541, 10.905
823.819, 6.862
825.098, 13.340
826.375, 7.212
827.653, 8.561
828.931, 22.661
830.208, 12.157
831.485, 7.061
832.762, 3.725
834.039, 9.489
835.315, 8.299
836.592, 1.910
837.868, 0.118
839.144, 0.695
840.420, 7.483
841.695, 8.686
842.970, 1.853
844.246, 9.055
845.521, 37.255
846.795, 3.349
848.070, 14.518
849.344, 20.471
850.618, 34.642
851.892, 9.617
853.166, 1.190
854.440, 30.899
855.713, 16.090
856.986, 29.278
858.259, 46.282
859.532, 40.451
860.804, 36.429
862.077, 32.115
863.349, 29.160
864.621, 25.099
865.893, 13.189
867.164, 23.172
868.436, 8.320
869.707, 5.503
870.978, 12.517
872.248, 2.610
873.519, 16.365
874.789, 5.514
876.060, 16.695
877.330, 10.862
878.599, 3.110
879.869, 26.069
881.138, 29.248
882.408, 24.426
883.677, 18.285
884.945, 14.463
886.214, 9.641
887.482, 36.819
888.751, 63.997
890.019, 41.067
891.287, 46.245
892.554, 49.243
893.822, 57.366
895.089, 55.452
896.356, 75.591
897.623, 83.720
898.889, 45.898
900.156, 61.838
901.422, 80.881
902.688, 60.863
903.954, 55.038
905.220, 43.218
906.485, 33.811
907.750, 56.991
909.015, 35.149
910.280, 56.330
911.545, 44.512
912.809, 54.618
914.074, 32.733
915.338, 60.649
916.602, 35.833
917.865, 26.001
919.129, 26.131
920.392, 29.291
921.655, 8.478
922.918, 36.590
924.181, 42.779
925.443, 60.909
926.706, 50.026
927.968, 24.710
929.230, 30.903
930.491, 48.769
931.753, 50.964
933.014, 33.161
934.276, 50.102
935.536, 64.301
936.797, 60.502
938.058, 78.494
939.318, 64.472
940.578, 51.676
941.838, 38.882
943.098, 74.089
944.358, 62.283
945.617, 74.424
946.876, 60.635
948.135, 77.678
949.394, 70.892
950.653, 99.110
951.911, 92.269
953.169, 80.490
954.427, 111.705
955.685, 123.929
956.943, 107.939
958.200, 133.167
959.458, 144.397
960.715, 166.481
961.971, 264.714
963.228, 310.951
964.485, 354.011
965.741, 352.252
966.997, 363.237
968.253, 436.483
969.508, 465.671
970.764, 559.921
972.019, 634.012
973.274, 708.266
974.529, 843.519
975.784, 1027.767
977.039, 1267.028
978.293, 1772.291
979.547, 2543.556
980.801, 4007.824
982.055, 7026.094
983.308, 14101.365
984.562, 33180.645
985.815, 55039.926
987.068, 57769.203
988.321, 37958.488
989.573, 20047.762
990.826, 10737.053
992.078, 6139.345
993.330, 3563.641
994.582, 2389.940
995.833, 1683.242
997.085, 1252.547
998.336, 1029.858
999.587, 858.172
1000.838, 723.490
1002.088, 629.812
1003.339, 531.137
1004.589, 469.464
1005.839, 400.795
1007.089, 386.129
1008.339, 366.467
1009.588, 293.809
1010.838, 292.154
1012.087, 280.502
1013.336, 253.853
1014.584, 255.180
1015.833, 191.538
1017.081, 217.898
1018.330, 202.261
1019.577, 172.629
1020.825, 181.000
1022.073, 177.373
1023.320, 166.750
1024.567, 153.130
1025.814, 143.513
1027.061, 129.899
1028.308, 132.289
1029.554, 105.682
1030.800, 83.079
1032.046, 79.480
1033.292, 72.883
1034.538, 88.290
1035.783, 76.701
1037.029, 70.116
1038.274, 66.535
1039.519, 56.957
1040.763, 58.382
1042.008, 52.814
1043.252, 81.248
1044.496, 40.686
1045.740, 37.127
1046.984, 39.571
1048.228, 43.018
1049.471, 74.470
1050.714, 61.925
1051.957, 38.384
1053.200, 70.847
1054.442, 63.314
1055.685, 33.784
1056.927, 34.258
1058.169, 48.735
1059.411, 50.225
1060.652, 31.709
1061.894, 25.197
1063.135, 23.691
1064.376, 16.187
1065.617, 30.841
1066.858, 16.382
1068.098, 41.892
1069.339, 28.406
1070.579, 26.925
1071.819, 29.447
1073.058, 61.974
1074.298, 32.505
1075.537, 43.040
1076.776, 65.579
1078.015, 50.122
1079.254, 81.680
1080.493, 77.230
1081.731, 89.786
1082.969, 78.347
1084.207, 70.911
1085.445, 74.478
1086.683, 85.049
1087.920, 85.624
1089.157, 87.202
1090.394, 106.786
1091.631, 137.376
1092.868, 195.970
1094.105, 221.568
1095.341, 345.172
1096.577, 462.778
1097.813, 666.388
1099.049, 993.002
1100.284, 1331.620
1101.519, 1799.243
1102.755, 1933.871
1103.990, 1737.502
1105.224, 1455.137
1106.459, 1031.776
1107.693, 759.418
1108.928, 492.063
1110.162, 385.712
1111.395, 325.364
1112.629, 242.019
1113.863, 170.677
1115.096, 147.340
1116.329, 129.006
1117.562, 100.676
1118.795, 92.350
1120.027, 100.026
1121.259, 80.705
1122.492, 82.389
1123.723, 56.075
1124.955, 73.765
1126.187, 93.458
1127.418, 78.154
1128.649, 112.853
1129.880, 144.556
1131.111, 223.262
1132.342, 314.090
1133.572, 513.802
1134.802, 736.518
1136.033, 949.236
1137.262, 1010.957
1138.492, 851.681
1139.722, 618.408
1140.951, 449.138
1142.180, 361.871
1143.409, 275.607
1144.638, 235.346
1145.866, 168.087
1147.095, 141.832
1148.323, 139.587
1149.551, 93.338
1150.779, 98.092
1152.006, 102.848
1153.234, 89.608
1154.461, 92.371
1155.688, 114.157
1156.915, 116.925
1158.141, 180.697
1159.368, 228.471
1160.594, 319.248
1161.820, 441.028
1163.046, 574.810
1164.272, 689.595
1165.498, 727.383
1166.723, 641.174
1167.948, 531.000
1169.173, 397.795
1170.398, 320.594
1171.623, 249.394
1172.847, 186.197
1174.071, 149.003
1175.295, 137.811
1176.519, 99.621
1177.743, 89.433
1178.966, 35.248
1180.190, 36.065
1181.413, 68.884
1182.636, 11.705
1183.858, 31.529
1185.081, 36.354
1186.303, 33.398
1187.526, 24.228
1188.748, 19.060
1189.969, 2.894
1191.191, 1.270
1192.412, 3.567
1193.634, 6.407
1194.855, 5.249
1196.076, 13.092
1197.296, 14.755
1198.517, 4.909
1199.737, 27.959
1200.957, 21.814
1202.177, 11.808
1203.397, 5.763
1204.617, 0.617
1205.836, 17.473
1207.055, 26.495
1208.274, 9.354
1209.493, 18.530
1210.712, 1.609
1211.930, 8.254
1213.148, 16.731
1214.367, 19.597
1215.584, 29.464
1216.802, 43.332
1218.020, 7.202
1219.237, 31.202
1220.454, 41.140
1221.671, 12.503
1222.888, 45.710
1224.105, 19.715
1225.321, 28.751
1226.537, 22.910
1227.753, 12.789
1228.969, 8.683
1230.185, 33.564
1231.400, 15.565
1232.616, 42.621
1233.831, 19.705
1235.046, 63.657
1236.261, 35.593
1237.475, 62.480
1238.689, 56.377
1239.904, 30.276
1241.118, 23.165
1242.332, 45.093
1243.545, 30.991
1244.759, 31.886
1245.972, 47.947
1247.185, 11.060
1248.398, 24.024
1249.611, 28.920
1250.823, 14.815
1252.036, 19.717
1253.248, 26.795
1254.460, 13.712
1255.671, 25.613
1256.883, 12.513
1258.095, 26.414
1259.306, 54.346
1260.517, 28.457
1261.728, 52.361
1262.938, 9.696
1264.149, 24.209
1265.359, 38.115
1266.569, 13.023
1267.779, 25.931
1268.989, 39.840
1270.199, 21.775
1271.408, 35.724
1272.617, 36.636
1273.826, 8.548
1275.035, 33.493
1276.244, 7.432
1277.452, 45.346
1278.661, 0.659
1279.869, 42.257
1281.077, 6.173
1282.285, 27.090
1283.492, 5.237
1284.700, 35.154
1285.907, 1.917
1287.114, 15.001
1288.321, 14.950
1289.527, 2.911
1290.734, 28.828
1291.940, 37.743
1293.146, 11.694
1294.352, 12.607
1295.558, 14.660
1296.763, 2.569
1297.969, 2.521
1299.174, 8.387
1300.379, 14.291
1301.584, 4.192
1302.788, 1.089
1303.993, 20.985
1305.197, 8.881
1306.401, 0.773
1307.605, 34.664
1308.809, 6.555
1310.013, 6.446
1311.216, 22.335
1312.419, 23.223
1313.622, 12.108
1314.825, 5.992
1316.028, 10.126
1317.230, 30.754
1318.432, 26.634
1319.634, 7.510
1320.836, 31.386
1322.038, 13.251
1323.240, 10.124
1324.441, 26.997
1325.642, 22.868
1326.843, 13.262
1328.044, 4.454
1329.245, 0.716
1330.445, 0.146
1331.645, 5.995
1332.845, 4.139
1334.045, 4.714
1335.245, 1.564
1336.445, 6.588
1337.644, 14.256
1338.843, 12.902
1340.042, 4.937
1341.241, 3.763
1342.440, 25.402
1343.638, 34.429
1344.836, 18.258
1346.034, 4.085
1347.232, 20.911
1348.430, 4.266
1349.628, 1.445
1350.825, 19.626
1352.022, 12.812
1353.219, 3.996
1354.416, 5.188
1355.613, 10.382
1356.809, 9.420
1358.005, 2.221
1359.202, 17.020
1360.398, 3.183
1361.593, 5.388
1362.789, 6.510
1363.984, 0.720
1365.179, 0.068
1366.374, 13.864
1367.569, 4.648
1368.764, 4.470
1369.958, 15.252
1371.153, 1.024
1372.347, 5.882
1373.541, 6.641
1374.735, 4.486
1375.928, 6.650
1377.122, 0.214
1378.315, 7.708
1379.508, 24.630
1380.701, 7.549
1381.893, 4.531
1383.086, 5.387
1384.278, 9.304
1385.470, 20.092
1386.662, 15.006
1387.854, 3.919
1389.046, 5.169
1390.237, 29.742
1391.428, 3.653
1392.619, 39.553
1393.810, 13.461
1395.001, 20.366
1396.191, 17.246
1397.382, 24.147
1398.572, 7.047
1399.762, 4.946
1400.952, 22.842
1402.141, 32.696
1403.331, 6.589
1404.520, 8.481
1405.709, 16.372
1406.898, 2.262
1408.087, 23.152
1409.275, 26.041
1410.464, 17.929
1411.652, 4.480
1412.840, 16.403
1414.028, 13.286
1415.215, 29.168
1416.403, 8.606
1417.590, 6.454
1418.777, 36.110
1419.964, 21.830
1421.151, 8.450
1422.338, 51.830
1423.524, 0.309
1424.710, 29.578
1425.896, 41.425
1427.082, 42.061
1428.268, 38.980
1429.453, 27.027
1430.639, 42.088
1431.824, 41.868
1433.009, 54.458
1434.194, 38.582
1435.378, 78.151
1436.563, 44.914
1437.747, 75.671
1438.931, 85.359
1440.115, 99.791
1441.299, 80.971
1442.482, 102.717
1443.666, 81.070
1444.849, 105.755
1446.032, 95.477
1447.215, 119.661
1448.397, 82.268
1449.580, 84.949
1450.762, 120.618
1451.944, 105.213
1453.126, 95.763
1454.308, 91.310
1455.490, 105.858
1456.671, 91.244
1457.852, 93.819
1459.033, 106.740
1460.214, 94.240
1461.395, 96.532
1462.575, 71.036
1463.756, 52.423
1464.936, 81.469
1466.116, 59.945
1467.296, 31.443
1468.475, 64.959
1469.655, 54.474
1470.834, 53.990
1472.013, 40.489
1473.192, 84.993
1474.371, 30.496
1475.550, 52.989
1476.728, 46.488
1477.906, 47.972
1479.084, 50.443
1480.262, 14.906
1481.440, 52.367
1482.617, 57.853
1483.795, 34.349
1484.972, 26.864
1486.149, 39.397
1487.326, 67.932
1488.502, 20.469
1489.679, 1.010
1490.855, 40.557
1492.031, 29.114
1493.207, 14.632
1494.383, 17.219
1495.559, 8.820
1496.734, 26.438
1497.909, 27.398
1499.084, 1.449
1500.259, 31.314
1501.434, 0.247
1502.608, 0.289
1503.783, 0.000
##END=



