##NAMES=Baryte
##RRUFFID=R040036
##IDEAL CHEMISTRY=BaS^6+^O_4_
##LOCALITY=Cumbria County, England
##OWNER=RRUFF
##SOURCE=University of Arizona Mineral Museum
##DESCRIPTION=Golden brown tabular crystal
##STATUS=The identification of this mineral has been confirmed by X-ray diffraction and chemical analysis
##URL=rruff.info/R040036
##MEASURED CHEMISTRY=Ba_1.00_S_1.00_O_4_; trace amounts of Pb
##PIN_ID=M00028
##ORIENTATION=Laser parallel to -a* (-1 0 0). Fiducial mark perpendicular to laser is parallel to -b [0 -1 0]
26.288, 0.000
27.694, 0.368
29.099, 18.023
30.504, 22.881
31.909, 8.438
33.313, 8.044
34.717, 11.282
36.121, 21.885
37.525, 22.461
38.929, 26.072
40.332, 35.099
41.735, 43.088
43.138, 17.771
44.541, 35.275
45.943, 30.969
47.345, 15.152
48.747, 16.584
50.149, 14.595
51.551, 26.173
52.952, 22.439
54.353, 23.836
55.754, 37.172
57.155, 49.911
58.555, 45.568
59.955, 46.444
61.355, 59.702
62.755, 53.822
64.154, 45.759
65.553, 36.698
66.952, 28.642
68.351, 45.592
69.750, 24.549
71.148, 23.511
72.546, 39.479
73.944, 22.451
75.342, 19.427
76.739, 31.407
78.136, 21.390
79.533, 16.372
80.930, 2.355
82.327, 1.666
83.723, 0.688
85.119, 12.712
86.515, 15.740
87.910, 16.623
89.306, 14.804
90.701, 14.837
92.096, 12.871
93.490, 5.906
94.885, 1.059
96.279, 23.021
97.673, 46.981
99.067, 45.939
100.461, 52.895
101.854, 52.858
103.247, 50.846
104.640, 50.855
106.032, 58.882
107.425, 75.923
108.817, 83.976
110.209, 86.036
111.601, 89.101
112.992, 144.169
114.384, 232.237
115.775, 296.304
117.166, 235.368
118.556, 341.429
119.947, 486.486
121.337, 448.536
122.727, 313.582
124.116, 212.635
125.506, 235.701
126.895, 235.784
128.284, 282.807
129.673, 311.817
131.062, 273.810
132.450, 234.798
133.838, 185.789
135.226, 164.779
136.614, 153.703
138.001, 142.621
139.388, 152.558
140.775, 139.579
142.162, 161.492
143.549, 163.405
144.935, 196.317
146.321, 219.239
147.707, 249.164
149.093, 253.653
150.478, 262.655
151.863, 251.929
153.248, 248.879
154.633, 237.923
156.018, 203.869
157.402, 174.827
158.786, 155.824
160.170, 131.719
161.554, 138.670
162.937, 106.629
164.320, 134.565
165.703, 99.453
167.086, 98.346
168.469, 99.306
169.851, 98.250
171.233, 81.146
172.615, 78.033
173.996, 98.958
175.378, 81.881
176.759, 86.665
178.140, 105.311
179.521, 82.980
180.901, 90.579
182.281, 76.150
183.662, 89.648
185.041, 91.170
186.421, 120.601
187.800, 184.992
189.180, 182.419
190.558, 200.740
191.937, 168.059
193.316, 140.271
194.694, 133.505
196.072, 97.776
197.450, 99.872
198.827, 96.988
200.205, 90.014
201.582, 88.246
202.959, 70.198
204.336, 74.179
205.712, 81.218
207.088, 66.201
208.465, 52.158
209.840, 63.028
211.216, 52.976
212.591, 52.866
213.967, 64.723
215.341, 46.609
216.716, 67.383
218.091, 41.562
219.465, 36.411
220.839, 49.151
222.213, 33.056
223.586, 53.810
224.960, 29.791
226.333, 67.626
227.706, 45.383
229.079, 59.151
230.451, 52.649
231.823, 54.080
233.195, 60.527
234.567, 36.742
235.939, 44.866
237.310, 30.941
238.682, 26.931
240.052, 51.452
241.423, 22.651
242.794, 35.981
244.164, 40.471
245.534, 30.222
246.904, 40.086
248.274, 46.945
249.643, 38.827
251.012, 26.762
252.381, 37.643
253.750, 12.522
255.118, 41.433
256.487, 36.310
257.855, 39.185
259.223, 38.059
260.590, 30.932
261.958, 34.849
263.325, 26.719
264.692, 42.621
266.059, 41.489
267.425, 25.355
268.791, 37.221
270.158, 29.085
271.523, 32.978
272.889, 19.840
274.255, 51.700
275.620, 33.559
276.985, 18.417
278.350, 52.274
279.714, 3.130
281.078, 25.984
282.443, 23.837
283.806, 19.690
285.170, 34.542
286.534, 14.393
287.897, 26.243
289.260, 6.092
290.623, 28.940
291.985, 29.788
293.348, 15.635
294.710, 22.482
296.072, 11.328
297.433, 26.172
298.795, 15.017
300.156, 29.860
301.517, 36.703
302.878, 26.545
304.239, 26.386
305.599, 22.384
306.959, 14.065
308.319, 16.904
309.679, 12.742
311.038, 20.579
312.398, 19.806
313.757, 23.251
315.116, 21.086
316.474, 22.921
317.833, 18.755
319.191, 15.588
320.549, 28.421
321.907, 12.253
323.264, 23.085
324.622, 11.912
325.979, 10.734
327.336, 15.553
328.692, 9.368
330.049, 15.179
331.405, 2.986
332.761, 24.790
334.117, 27.591
335.473, 4.389
336.828, 23.185
338.183, 13.977
339.538, 21.767
340.893, 19.556
342.247, 4.342
343.602, 34.126
344.956, 8.908
346.310, 23.689
347.663, 0.531
349.017, 17.246
350.370, 27.023
351.723, 7.799
353.076, 27.573
354.428, 7.347
355.780, 22.120
357.133, 8.892
358.484, 22.664
359.836, 16.435
361.188, 1.206
362.539, 23.976
363.890, 11.254
365.241, 1.487
366.591, 19.273
367.942, 0.039
369.292, 11.785
370.642, 9.450
371.992, 6.280
373.341, 9.043
374.691, 1.193
376.040, 15.570
377.388, 12.334
378.737, 14.101
380.086, 3.869
381.434, 8.639
382.782, 18.413
384.130, 9.822
385.477, 24.927
386.825, 7.708
388.172, 23.449
389.519, 27.235
390.865, 25.023
392.212, 27.808
393.558, 26.596
394.904, 23.384
396.250, 2.173
397.596, 20.945
398.941, 21.732
400.286, 6.439
401.631, 23.225
402.976, 14.011
404.321, 15.796
405.665, 27.582
407.009, 3.367
408.353, 31.151
409.697, 5.927
411.040, 32.711
412.384, 16.494
413.727, 26.265
415.070, 28.049
416.412, 5.832
417.755, 29.614
419.097, 25.363
420.439, 45.146
421.781, 39.929
423.122, 35.675
424.464, 65.460
425.805, 57.125
427.146, 96.919
428.486, 91.693
429.827, 105.449
431.167, 142.233
432.507, 172.967
433.847, 206.753
435.187, 202.450
436.526, 278.238
437.865, 368.025
439.204, 421.771
440.543, 569.550
441.882, 709.277
443.220, 949.067
444.558, 1210.814
445.896, 1588.604
447.234, 2230.393
448.572, 3043.182
449.909, 4354.972
451.246, 5886.758
452.583, 7797.505
453.919, 9001.267
455.256, 8224.012
456.592, 6808.793
457.928, 4854.572
459.264, 3476.364
460.600, 2473.150
461.935, 1841.941
463.270, 1434.718
464.605, 1055.482
465.940, 781.274
467.274, 608.024
468.609, 456.816
469.943, 360.567
471.277, 263.313
472.610, 257.082
473.944, 203.825
475.277, 167.596
476.610, 173.311
477.943, 143.107
479.275, 120.902
480.608, 122.627
481.940, 83.423
483.272, 94.194
484.604, 74.990
485.935, 86.786
487.267, 62.513
488.598, 71.309
489.929, 66.058
491.260, 64.853
492.590, 72.548
493.920, 37.338
495.250, 46.134
496.580, 48.882
497.910, 41.678
499.239, 50.425
500.569, 27.221
501.898, 49.977
503.226, 28.775
504.555, 28.568
505.883, 63.291
507.212, 29.089
508.540, 55.563
509.867, 46.260
511.195, 36.058
512.522, 57.776
513.849, 31.554
515.176, 49.076
516.503, 38.829
517.829, 63.595
519.156, 63.304
520.482, 58.101
521.808, 77.884
523.133, 39.675
524.459, 57.419
525.784, 44.184
527.109, 56.980
528.434, 69.566
529.758, 31.361
531.083, 42.124
532.407, 32.918
533.731, 45.713
535.055, 55.580
536.378, 31.406
537.701, 43.201
539.025, 36.203
540.348, 32.943
541.670, 36.736
542.993, 27.539
544.315, 30.600
545.637, 17.105
546.959, 29.912
548.281, 29.724
549.602, 25.515
550.923, 43.261
552.244, 38.051
553.565, 21.808
554.886, 32.602
556.206, 16.557
557.526, 52.345
558.846, 14.132
560.166, 41.887
561.486, 35.943
562.805, 12.798
564.124, 41.582
565.443, 17.754
566.762, 26.536
568.080, 35.378
569.399, 6.341
570.717, 50.122
572.035, 25.935
573.352, 32.716
574.670, 17.827
575.987, 27.806
577.304, 24.419
578.621, 22.742
579.938, 28.522
581.254, 41.604
582.570, 52.414
583.886, 52.196
585.202, 26.373
586.518, 44.144
587.833, 35.955
589.148, 55.725
590.463, 37.492
591.778, 42.619
593.093, 57.384
594.407, 36.148
595.721, 67.207
597.035, 86.969
598.349, 55.185
599.662, 95.945
600.976, 59.703
602.289, 107.469
603.602, 120.226
604.914, 120.322
606.227, 151.076
607.539, 168.005
608.851, 253.849
610.163, 327.599
611.475, 433.741
612.786, 694.488
614.097, 977.462
615.408, 1432.608
616.719, 1946.352
618.030, 2177.191
619.340, 2194.948
620.651, 1796.712
621.961, 1417.764
623.270, 1089.502
624.580, 843.272
625.889, 700.018
627.199, 561.751
628.507, 534.482
629.816, 487.212
631.125, 438.940
632.433, 414.667
633.741, 342.392
635.049, 297.285
636.357, 247.007
637.664, 186.918
638.972, 181.658
640.279, 152.376
641.586, 152.293
642.893, 138.008
644.199, 131.014
645.505, 146.726
646.811, 122.439
648.117, 144.475
649.423, 157.181
650.728, 125.888
652.034, 131.593
653.339, 75.297
654.644, 107.338
655.948, 67.038
657.253, 55.738
658.557, 74.437
659.861, 32.133
661.165, 47.829
662.468, 36.522
663.772, 12.214
665.075, 37.904
666.378, 25.592
667.681, 25.279
668.983, 0.964
670.286, 30.647
671.588, 16.329
672.890, 13.009
674.192, 22.903
675.493, 0.579
676.795, 5.253
678.096, 16.155
679.397, 5.175
680.697, 12.586
681.998, 22.250
683.298, 9.912
684.598, 19.682
685.898, 9.340
687.198, 9.005
688.498, 7.659
689.797, 21.310
691.096, 15.109
692.395, 14.757
693.694, 27.403
694.992, 11.047
696.290, 3.310
697.589, 21.328
698.886, 21.965
700.184, 24.599
701.482, 7.768
702.779, 0.860
704.076, 16.485
705.373, 12.891
706.669, 15.726
707.966, 1.342
709.262, 4.045
710.558, 13.554
711.854, 4.162
713.150, 10.767
714.445, 10.630
715.740, 5.032
717.035, 25.562
718.330, 12.846
719.625, 9.740
720.919, 9.675
722.214, 2.904
723.508, 8.481
724.801, 13.943
726.095, 18.626
727.388, 2.193
728.682, 9.758
729.975, 17.321
731.267, 12.117
732.560, 19.438
733.852, 17.992
735.145, 9.456
736.437, 22.092
737.728, 16.363
739.020, 24.176
740.311, 9.713
741.603, 7.249
742.894, 11.782
744.184, 11.686
745.475, 13.841
746.765, 4.635
748.055, 1.114
749.345, 23.405
750.635, 14.079
751.925, 13.432
753.214, 7.059
754.503, 14.554
755.792, 26.946
757.081, 1.557
758.370, 3.938
759.658, 2.431
760.946, 11.077
762.234, 7.409
763.522, 0.894
764.809, 4.376
766.097, 11.857
767.384, 7.661
768.671, 20.813
769.958, 6.289
771.244, 12.763
772.530, 11.236
773.817, 5.293
775.102, 8.175
776.388, 6.359
777.674, 1.103
778.959, 17.564
780.244, 6.977
781.529, 21.479
782.814, 11.067
784.098, 20.383
785.383, 3.832
786.667, 12.721
787.951, 20.721
789.235, 4.162
790.518, 11.601
791.801, 15.040
793.084, 13.524
794.367, 5.908
795.650, 25.339
796.933, 8.769
798.215, 20.197
799.497, 13.624
800.779, 31.049
802.061, 41.474
803.342, 5.896
804.624, 30.318
805.905, 1.739
807.186, 33.159
808.466, 11.513
809.747, 16.930
811.027, 19.347
812.307, 9.238
813.587, 10.173
814.867, 18.511
816.146, 10.111
817.426, 13.295
818.705, 4.509
819.984, 16.895
821.263, 10.297
822.541, 5.312
823.819, 18.087
825.098, 0.528
826.375, 17.854
827.653, 22.230
828.931, 7.375
830.208, 17.019
831.485, 8.411
832.762, 25.803
834.039, 28.189
835.315, 11.412
836.592, 24.802
837.868, 8.190
839.144, 1.578
840.420, 25.696
841.695, 8.012
842.970, 37.399
844.246, 28.396
845.521, 22.782
846.795, 48.106
848.070, 2.309
849.344, 45.693
850.618, 44.044
851.892, 18.425
853.166, 39.475
854.440, 27.656
855.713, 43.038
856.986, 64.037
858.259, 34.414
859.532, 93.488
860.804, 65.832
862.077, 96.204
863.349, 104.180
864.621, 61.561
865.893, 77.901
867.164, 49.281
868.436, 40.662
869.707, 62.683
870.978, 18.065
872.248, 34.446
873.519, 33.532
874.789, 12.914
876.060, 51.841
877.330, 19.223
878.599, 42.606
879.869, 60.980
881.138, 9.363
882.408, 51.404
883.677, 30.789
884.945, 30.997
886.214, 50.289
887.482, 16.676
888.751, 55.670
890.019, 55.057
891.287, 35.218
892.554, 69.205
893.822, 40.595
895.089, 65.889
896.356, 72.263
897.623, 50.632
898.889, 89.710
900.156, 61.103
901.422, 64.462
902.688, 69.846
903.954, 52.242
905.220, 80.638
906.485, 47.036
907.750, 69.435
909.015, 66.835
910.280, 41.236
911.545, 77.471
912.809, 39.874
914.074, 46.089
915.338, 47.476
916.602, 41.884
917.865, 67.092
919.129, 39.502
920.392, 41.622
921.655, 60.036
922.918, 27.448
924.181, 29.539
925.443, 49.959
926.706, 14.379
927.968, 58.802
929.230, 55.227
930.491, 51.316
931.753, 61.745
933.014, 33.177
934.276, 61.610
935.536, 37.046
936.797, 55.482
938.058, 78.921
939.318, 41.361
940.578, 73.802
941.838, 33.245
943.098, 42.689
944.358, 57.135
945.617, 59.584
946.876, 64.033
948.135, 74.485
949.394, 74.722
950.653, 89.177
951.911, 77.634
953.169, 81.861
954.427, 108.322
955.685, 75.689
956.943, 107.154
958.200, 95.621
959.458, 96.980
960.715, 139.451
961.971, 134.915
963.228, 181.390
964.485, 221.868
965.741, 264.198
966.997, 346.680
968.253, 312.164
969.508, 319.650
970.764, 381.138
972.019, 431.629
973.274, 480.122
974.529, 534.617
975.784, 562.114
977.039, 702.615
978.293, 849.118
979.547, 1114.623
980.801, 1564.132
982.055, 2204.644
983.308, 3539.157
984.562, 5994.674
985.815, 12720.193
987.068, 28809.717
988.321, 44769.242
989.573, 45678.766
990.826, 29028.297
992.078, 15617.831
993.330, 8388.367
994.582, 4749.907
995.833, 2834.451
997.085, 1882.996
998.336, 1332.544
999.587, 1033.097
1000.838, 875.651
1002.088, 764.208
1003.339, 670.768
1004.589, 529.330
1005.839, 492.896
1007.089, 398.464
1008.339, 346.035
1009.588, 344.609
1010.838, 294.186
1012.087, 267.768
1013.336, 278.351
1014.584, 221.938
1015.833, 223.526
1017.081, 187.117
1018.330, 190.799
1019.577, 206.396
1020.825, 172.997
1022.073, 183.709
1023.320, 182.343
1024.567, 163.954
1025.814, 209.567
1027.061, 130.183
1028.308, 142.881
1029.554, 160.504
1030.800, 118.131
1032.046, 113.760
1033.292, 79.391
1034.538, 118.026
1035.783, 96.664
1037.029, 73.305
1038.274, 105.948
1039.519, 77.593
1040.763, 66.241
1042.008, 93.015
1043.252, 57.668
1044.496, 57.323
1045.740, 90.995
1046.984, 49.656
1048.228, 75.600
1049.471, 66.267
1050.714, 61.936
1051.957, 107.655
1053.200, 80.330
1054.442, 123.263
1055.685, 182.945
1056.927, 217.629
1058.169, 218.653
1059.411, 92.352
1060.652, 95.044
1061.894, 83.893
1063.135, 52.590
1064.376, 92.742
1065.617, 64.553
1066.858, 56.259
1068.098, 76.200
1069.339, 63.910
1070.579, 89.623
1071.819, 96.339
1073.058, 77.056
1074.298, 139.779
1075.537, 124.513
1076.776, 169.239
1078.015, 236.967
1079.254, 243.698
1080.493, 342.432
1081.731, 437.168
1082.969, 539.906
1084.207, 598.648
1085.445, 543.393
1086.683, 502.140
1087.920, 413.891
1089.157, 272.645
1090.394, 290.401
1091.631, 212.160
1092.868, 180.923
1094.105, 226.784
1095.341, 198.552
1096.577, 282.323
1097.813, 342.238
1099.049, 393.014
1100.284, 605.795
1101.519, 831.578
1102.755, 1077.366
1103.990, 1454.156
1105.224, 1528.948
1106.459, 1382.743
1107.693, 1104.539
1108.928, 812.338
1110.162, 633.138
1111.395, 447.940
1112.629, 339.745
1113.863, 278.552
1115.096, 185.361
1116.329, 180.173
1117.562, 136.986
1118.795, 104.802
1120.027, 98.619
1121.259, 83.438
1122.492, 87.259
1123.723, 73.913
1124.955, 60.905
1126.187, 53.731
1127.418, 47.559
1128.649, 33.389
1129.880, 52.220
1131.111, 13.053
1132.342, 46.887
1133.572, 44.724
1134.802, 16.562
1136.033, 81.401
1137.262, 60.242
1138.492, 68.085
1139.722, 87.930
1140.951, 48.777
1142.180, 68.625
1143.409, 59.475
1144.638, 19.327
1145.866, 54.179
1147.095, 38.034
1148.323, 29.890
1149.551, 45.748
1150.779, 7.392
1152.006, 16.468
1153.234, 15.330
1154.461, 8.807
1155.688, 2.944
1156.915, 2.923
1158.141, 6.790
1159.368, 40.659
1160.594, 6.470
1161.820, 31.401
1163.046, 36.273
1164.272, 17.147
1165.498, 59.022
1166.723, 18.899
1167.948, 32.776
1169.173, 43.655
1170.398, 3.535
1171.623, 38.416
1172.847, 22.298
1174.071, 8.819
1175.295, 36.064
1176.519, 18.948
1177.743, 1.168
1178.966, 17.718
1180.190, 16.396
1181.413, 28.489
1182.636, 4.375
1183.858, 3.739
1185.081, 23.147
1186.303, 14.965
1187.526, 11.921
1188.748, 9.807
1189.969, 18.306
1191.191, 0.421
1192.412, 17.464
1193.634, 9.650
1194.855, 26.235
1196.076, 22.879
1197.296, 6.997
1198.517, 13.884
1199.737, 13.234
1200.957, 21.646
1202.177, 34.527
1203.397, 0.408
1204.617, 15.290
1205.836, 0.172
1207.055, 0.523
1208.274, 20.360
1209.493, 1.243
1210.712, 17.448
1211.930, 21.332
1213.148, 11.216
1214.367, 23.101
1215.584, 20.986
1216.802, 23.447
1218.020, 51.055
1219.237, 31.941
1220.454, 43.094
1221.671, 52.981
1222.888, 2.867
1224.105, 40.269
1225.321, 4.845
1226.537, 16.041
1227.753, 28.926
1228.969, 7.188
1230.185, 29.125
1231.400, 32.373
1232.616, 29.257
1233.831, 43.771
1235.046, 50.655
1236.261, 45.622
1237.475, 67.506
1238.689, 40.390
1239.904, 68.273
1241.118, 76.215
1242.332, 25.098
1243.545, 79.120
1244.759, 59.003
1245.972, 43.886
1247.185, 72.970
1248.398, 14.853
1249.611, 38.737
1250.823, 72.620
1252.036, 46.504
1253.248, 50.388
1254.460, 62.273
1255.671, 28.157
1256.883, 49.042
1258.095, 40.927
1259.306, 21.812
1260.517, 57.697
1261.728, 23.582
1262.938, 32.467
1264.149, 45.352
1265.359, 19.237
1266.569, 63.122
1267.779, 45.008
1268.989, 52.893
1270.199, 81.940
1271.408, 46.825
1272.617, 56.710
1273.826, 81.596
1275.035, 17.481
1276.244, 79.365
1277.452, 58.250
1278.661, 59.134
1279.869, 61.193
1281.077, 38.077
1282.285, 52.874
1283.492, 63.797
1284.700, 27.681
1285.907, 64.456
1287.114, 36.721
1288.321, 25.604
1289.527, 61.487
1290.734, 17.370
1291.940, 56.177
1293.146, 49.170
1294.352, 32.047
1295.558, 74.925
1296.763, 24.802
1297.969, 40.676
1299.174, 69.548
1300.379, 54.420
1301.584, 39.287
1302.788, 48.154
1303.993, 38.017
1305.197, 47.753
1306.401, 38.606
1307.605, 13.459
1308.809, 59.297
1310.013, 36.147
1311.216, 18.715
1312.419, 46.561
1313.622, 54.407
1314.825, 37.205
1316.028, 65.049
1317.230, 24.636
1318.432, 34.479
1319.634, 32.321
1320.836, 24.824
1322.038, 57.656
1323.240, 34.495
1324.441, 54.178
1325.642, 47.014
1326.843, 19.396
1328.044, 45.122
1329.245, 28.952
1330.445, 15.548
1331.645, 36.375
1332.845, 10.195
1334.045, 7.013
1335.245, 14.828
1336.445, 15.362
1337.644, 30.438
1338.843, 32.247
1340.042, 10.946
1341.241, 16.858
1342.440, 14.661
1343.638, 10.462
1344.836, 39.262
1346.034, 9.939
1347.232, 4.858
1348.430, 45.653
1349.628, 8.554
1350.825, 34.237
1352.022, 14.026
1353.219, 19.187
1354.416, 14.597
1355.613, 5.285
1356.809, 9.067
1358.005, 21.848
1359.202, 15.514
1360.398, 12.737
1361.593, 32.039
1362.789, 24.186
1363.984, 17.586
1365.179, 0.642
1366.374, 7.129
1367.569, 19.902
1368.764, 18.675
1369.958, 0.483
1371.153, 27.260
1372.347, 2.962
1373.541, 18.812
1374.735, 21.586
1375.928, 5.637
1377.122, 50.226
1378.315, 10.087
1379.508, 13.948
1380.701, 40.808
1381.893, 17.668
1383.086, 23.526
1384.278, 28.383
1385.470, 14.240
1386.662, 41.095
1387.854, 44.949
1389.046, 14.800
1390.237, 55.651
1391.428, 24.500
1392.619, 11.347
1393.810, 41.193
1395.001, 7.037
1396.191, 20.880
1397.382, 29.719
1398.572, 3.443
1399.762, 27.393
1400.952, 25.227
1402.141, 6.060
1403.331, 29.892
1404.520, 24.722
1405.709, 21.554
1406.898, 17.384
1408.087, 3.785
1409.275, 22.048
1410.464, 28.880
1411.652, 2.716
1412.840, 41.553
1414.028, 29.393
1415.215, 13.766
1416.403, 63.082
1417.590, 20.933
1418.777, 31.786
1419.964, 26.640
1421.151, 1.158
1422.338, 26.185
1423.524, 30.025
1424.710, 12.865
1425.896, 45.216
1427.082, 24.605
1428.268, 21.433
1429.453, 59.376
1430.639, 27.194
1431.824, 46.253
1433.009, 65.405
1434.194, 46.045
1435.378, 85.670
1436.563, 109.446
1437.747, 56.109
1438.931, 101.609
1440.115, 94.973
1441.299, 96.729
1442.482, 129.479
1443.666, 106.224
1444.849, 90.964
1446.032, 130.699
1447.215, 112.428
1448.397, 160.151
1449.580, 147.869
1450.762, 133.579
1451.944, 170.883
1453.126, 165.569
1454.308, 145.249
1455.490, 185.921
1456.671, 134.112
1457.852, 122.645
1459.033, 198.272
1460.214, 122.682
1461.395, 127.248
1462.575, 145.452
1463.756, 108.007
1464.936, 113.552
1466.116, 116.100
1467.296, 69.658
1468.475, 112.235
1469.655, 86.853
1470.834, 82.463
1472.013, 83.082
1473.192, 53.697
1474.371, 41.300
1475.550, 96.890
1476.728, 39.468
1477.906, 65.042
1479.084, 65.613
1480.262, 44.186
1481.440, 88.770
1482.617, 49.421
1483.795, 31.104
1484.972, 70.804
1486.149, 35.521
1487.326, 39.253
1488.502, 53.001
1489.679, 16.770
1490.855, 24.573
1492.031, 56.420
1493.207, 8.321
1494.383, 45.272
1495.559, 20.284
1496.734, 1.625
1497.909, 40.570
1499.084, 29.896
1500.259, 11.930
1501.434, 37.693
1502.608, 0.000
##END=



