##NAMES=Baryte
##RRUFFID=R040036
##IDEAL CHEMISTRY=BaS^6+^O_4_
##LOCALITY=Cumbria County, England
##OWNER=RRUFF
##SOURCE=University of Arizona Mineral Museum
##DESCRIPTION=Golden brown tabular crystal
##STATUS=The identification of this mineral has been confirmed by X-ray diffraction and chemical analysis
##URL=rruff.info/R040036
##MEASURED CHEMISTRY=Ba_1.00_S_1.00_O_4_; trace amounts of Pb
##PIN_ID=M00028
##ORIENTATION=Laser parallel to -a* (-1 0 0). Fiducial mark perpendicular to laser is parallel to -b [0 -1 0]
26.288, 0.000
27.694, 24.619
29.099, 37.096
30.504, 34.988
31.909, 24.975
33.313, 23.401
34.717, 39.575
36.121, 26.880
37.525, 38.866
38.929, 20.967
40.332, 14.001
41.735, 17.816
43.138, 51.049
44.541, 39.364
45.943, 57.520
47.345, 61.387
48.747, 60.339
50.149, 50.199
51.551, 65.114
52.952, 58.154
54.353, 34.212
55.754, 47.810
57.155, 41.034
58.555, 47.356
59.955, 45.929
61.355, 63.018
62.755, 43.546
64.154, 31.367
65.553, 31.043
66.952, 34.658
68.351, 14.043
69.750, 29.437
71.148, 13.841
72.546, 18.254
73.944, 9.675
75.342, 9.102
76.739, 20.534
78.136, 14.969
79.533, 16.406
80.930, 19.842
82.327, 3.277
83.723, 5.709
85.119, 8.862
86.515, 8.436
87.910, 8.012
89.306, 4.591
90.701, 10.171
92.096, 13.753
93.490, 19.336
94.885, 31.920
96.279, 13.506
97.673, 10.907
99.067, 11.682
100.461, 2.729
101.854, 2.852
103.247, 15.598
104.640, 25.075
106.032, 57.576
107.425, 39.096
108.817, 70.633
110.209, 76.183
111.601, 79.743
112.992, 134.311
114.384, 137.883
115.775, 152.458
117.166, 153.033
118.556, 171.606
119.947, 209.175
121.337, 164.736
122.727, 196.288
124.116, 154.830
125.506, 202.361
126.895, 184.881
128.284, 197.392
129.673, 194.895
131.062, 165.388
132.450, 187.861
133.838, 153.319
135.226, 177.760
136.614, 166.174
138.001, 164.576
139.388, 185.967
140.775, 176.351
142.162, 211.736
143.549, 181.121
144.935, 221.507
146.321, 204.893
147.707, 241.280
149.093, 279.669
150.478, 279.064
151.863, 365.459
153.248, 352.855
154.633, 364.250
156.018, 361.646
157.402, 286.072
158.786, 257.468
160.170, 194.864
161.554, 219.261
162.937, 165.658
164.320, 179.055
165.703, 168.453
167.086, 140.851
168.469, 175.250
169.851, 118.649
171.233, 158.048
172.615, 110.448
173.996, 154.862
175.378, 122.262
176.759, 105.590
178.140, 150.891
179.521, 95.160
180.901, 161.395
182.281, 133.594
183.662, 139.757
185.041, 134.910
186.421, 136.001
187.800, 178.056
189.180, 159.075
190.558, 217.038
191.937, 149.019
193.316, 174.931
194.694, 158.810
196.072, 125.645
197.450, 146.440
198.827, 99.218
200.205, 147.944
201.582, 103.639
202.959, 113.307
204.336, 135.922
205.712, 96.531
207.088, 130.076
208.465, 119.658
209.840, 127.120
211.216, 87.581
212.591, 126.941
213.967, 97.224
215.341, 80.530
216.716, 120.825
218.091, 84.007
219.465, 105.281
220.839, 91.430
222.213, 103.624
223.586, 118.729
224.960, 66.835
226.333, 127.055
227.706, 84.241
229.079, 106.428
230.451, 91.650
231.823, 83.082
233.195, 118.152
234.567, 72.918
235.939, 146.698
237.310, 67.490
238.682, 93.576
240.052, 95.324
241.423, 76.158
242.794, 104.700
244.164, 75.952
245.534, 104.636
246.904, 69.803
248.274, 70.535
249.643, 92.596
251.012, 35.540
252.381, 90.760
253.750, 52.050
255.118, 89.477
256.487, 82.834
257.855, 83.308
259.223, 102.728
260.590, 59.148
261.958, 101.568
263.325, 71.988
264.692, 88.408
266.059, 70.827
267.425, 65.357
268.791, 106.775
270.158, 55.193
271.523, 93.106
272.889, 58.523
274.255, 60.940
275.620, 56.357
276.985, 55.774
278.350, 70.191
279.714, 60.415
281.078, 87.024
282.443, 56.441
283.806, 58.859
285.170, 66.276
286.534, 17.694
287.897, 65.113
289.260, 34.531
290.623, 77.951
291.985, 53.371
293.348, 32.791
294.710, 101.212
296.072, 30.634
297.433, 92.056
298.795, 49.478
300.156, 38.901
301.517, 61.325
302.878, 37.749
304.239, 95.173
305.599, 39.598
306.959, 66.024
308.319, 52.450
309.679, 41.876
311.038, 70.303
312.398, 37.731
313.757, 53.159
315.116, 34.587
316.474, 51.016
317.833, 59.446
319.191, 15.876
320.549, 72.307
321.907, 25.738
323.264, 42.169
324.622, 23.597
325.979, 25.022
327.336, 32.442
328.692, 17.860
330.049, 61.274
331.405, 11.685
332.761, 69.094
334.117, 39.499
335.473, 19.903
336.828, 46.304
338.183, 6.702
339.538, 42.099
340.893, 15.494
342.247, 32.887
343.602, 56.279
344.956, 11.669
346.310, 64.058
347.663, 21.447
349.017, 46.834
350.370, 44.221
351.723, 32.607
353.076, 32.994
354.428, 2.380
355.780, 46.766
357.133, 40.161
358.484, 20.547
359.836, 44.934
361.188, 7.323
362.539, 43.712
363.890, 5.202
365.241, 33.594
366.591, 34.987
367.942, 12.382
369.292, 56.779
370.642, 11.178
371.992, 39.579
373.341, 8.981
374.691, 12.385
376.040, 33.790
377.388, 16.803
378.737, 37.603
380.086, 21.010
381.434, 32.422
382.782, 33.837
384.130, 8.745
385.477, 27.675
386.825, 6.902
388.172, 42.524
389.519, 33.954
390.865, 46.391
392.212, 43.832
393.558, 14.275
394.904, 45.721
396.250, 21.172
397.596, 40.626
398.941, 57.083
400.286, 8.541
401.631, 50.999
402.976, 0.540
404.321, 57.920
405.665, 26.381
407.009, 11.951
408.353, 42.413
409.697, 13.887
411.040, 20.351
412.384, 5.184
413.727, 18.284
415.070, 33.749
416.412, 21.784
417.755, 58.680
419.097, 18.145
420.439, 40.611
421.781, 33.078
423.122, 28.546
424.464, 58.016
425.805, 32.486
427.146, 68.957
428.486, 46.428
429.827, 70.903
431.167, 78.378
432.507, 46.828
433.847, 101.304
435.187, 95.781
436.526, 117.263
437.865, 164.743
439.204, 148.223
440.543, 269.705
441.882, 255.188
443.220, 419.672
444.558, 502.156
445.896, 652.642
447.234, 1004.128
448.572, 1275.614
449.909, 1895.102
451.246, 2413.591
452.583, 3151.081
453.919, 3478.572
455.256, 3006.064
456.592, 2523.559
457.928, 1858.053
459.264, 1371.548
460.600, 1053.045
461.935, 830.541
463.270, 767.040
464.605, 551.526
465.940, 449.026
467.274, 319.526
468.609, 217.028
469.943, 224.531
471.277, 105.035
472.610, 146.539
473.944, 102.045
475.277, 75.551
476.610, 118.033
477.943, 44.541
479.275, 73.050
480.608, 37.559
481.940, 76.069
483.272, 55.534
484.604, 38.045
485.935, 58.553
487.267, 39.066
488.598, 69.579
489.929, 59.074
491.260, 13.588
492.590, 67.102
493.920, 20.619
495.250, 55.135
496.580, 38.653
497.910, 33.171
499.239, 55.633
500.569, 3.153
501.898, 50.673
503.226, 26.193
504.555, 18.715
505.883, 30.208
507.212, 5.269
508.540, 81.216
509.867, 24.739
511.195, 48.263
512.522, 56.785
513.849, 15.311
515.176, 67.831
516.503, 28.358
517.829, 43.870
519.156, 49.397
520.482, 22.925
521.808, 69.049
523.133, 22.577
524.459, 68.105
525.784, 30.634
527.109, 21.162
528.434, 64.493
529.758, 30.022
531.083, 51.386
532.407, 14.970
533.731, 37.500
535.055, 60.033
536.378, 9.564
537.701, 68.098
539.025, 23.063
540.348, 30.599
541.670, 43.495
542.993, 6.030
544.315, 69.560
545.637, 23.241
546.959, 47.723
548.281, 36.288
549.602, 5.178
550.923, 72.356
552.244, 2.986
553.565, 50.519
554.886, 39.051
556.206, 4.472
557.526, 65.005
558.846, 15.050
560.166, 47.087
561.486, 21.857
562.805, 8.388
564.124, 72.920
565.443, 20.823
566.762, 54.354
568.080, 29.883
569.399, 29.449
570.717, 52.978
572.035, 12.019
573.352, 82.547
574.670, 28.075
575.987, 18.602
577.304, 62.128
578.621, 6.077
579.938, 74.602
581.254, 31.126
582.570, 22.814
583.886, 63.338
585.202, 38.146
586.518, 106.668
587.833, 82.198
589.148, 89.718
590.463, 100.238
591.778, 89.024
593.093, 142.542
594.407, 92.146
595.721, 135.951
597.035, 149.468
598.349, 117.393
599.662, 204.908
600.976, 135.422
602.289, 178.019
603.602, 183.531
604.914, 210.436
606.227, 269.946
607.539, 251.456
608.851, 387.125
610.163, 500.632
611.475, 696.446
612.786, 1105.951
614.097, 1559.456
615.408, 2455.151
616.719, 3151.653
618.030, 3347.447
619.340, 3118.947
620.651, 2321.445
621.961, 1827.954
623.270, 1398.450
624.580, 1135.945
625.889, 1060.440
627.199, 938.932
628.507, 1056.542
629.816, 1093.033
631.125, 1028.526
632.433, 922.014
633.741, 654.500
635.049, 492.301
636.357, 341.785
637.664, 241.268
638.972, 230.750
640.279, 131.230
641.586, 164.873
642.893, 123.342
644.199, 130.922
645.505, 156.397
646.811, 88.870
648.117, 132.612
649.423, 109.983
650.728, 114.453
652.034, 130.924
653.339, 57.391
654.644, 126.255
655.948, 78.719
657.253, 72.181
658.557, 96.642
659.861, 32.101
661.165, 71.559
662.468, 22.015
663.772, 51.472
665.075, 71.927
666.378, 13.381
667.681, 51.833
668.983, 7.284
670.286, 30.734
671.588, 63.182
672.890, 0.630
674.192, 61.402
675.493, 9.846
676.795, 24.288
678.096, 41.501
679.397, 15.060
680.697, 66.582
681.998, 11.987
683.298, 30.439
684.598, 41.867
685.898, 2.710
687.198, 63.710
688.498, 4.128
689.797, 58.544
691.096, 50.927
692.395, 0.660
693.694, 44.741
694.992, 14.150
696.290, 17.556
697.589, 47.169
698.886, 18.427
700.184, 53.970
701.482, 6.619
702.779, 11.775
704.076, 45.167
705.373, 12.443
706.669, 38.941
707.966, 23.324
709.262, 2.705
710.558, 44.084
711.854, 18.538
713.150, 42.832
714.445, 14.201
715.740, 10.568
717.035, 41.934
718.330, 14.702
719.625, 49.653
720.919, 25.009
722.214, 3.636
723.508, 46.715
724.801, 8.936
726.095, 45.409
727.388, 7.753
728.682, 34.094
729.975, 47.434
731.267, 8.228
732.560, 37.106
733.852, 0.400
735.145, 9.070
736.437, 43.255
737.728, 14.422
739.020, 27.896
740.311, 9.212
741.603, 0.473
742.894, 49.839
744.184, 13.851
745.475, 18.454
746.765, 18.757
748.055, 3.941
749.345, 52.357
750.635, 10.346
751.925, 20.946
753.214, 17.237
754.503, 5.474
755.792, 55.812
757.081, 9.904
758.370, 34.375
759.658, 7.653
760.946, 4.930
762.234, 55.205
763.522, 12.478
764.809, 10.750
766.097, 68.021
767.384, 2.710
768.671, 51.556
769.958, 5.821
771.244, 18.084
772.530, 31.346
773.817, 11.393
775.102, 55.863
776.388, 7.118
777.674, 32.371
778.959, 47.624
780.244, 5.126
781.529, 84.122
782.814, 2.631
784.098, 6.613
785.383, 43.856
786.667, 9.903
787.951, 69.335
789.235, 30.572
790.518, 3.808
791.801, 71.042
793.084, 15.724
794.367, 39.504
795.650, 14.731
796.933, 20.958
798.215, 48.183
799.497, 12.407
800.779, 44.630
802.061, 30.852
803.342, 7.073
804.624, 62.293
805.905, 5.512
807.186, 65.730
808.466, 10.934
809.747, 14.150
811.027, 32.365
812.307, 13.476
813.587, 46.734
814.867, 20.942
816.146, 32.850
817.426, 58.350
818.705, 8.881
819.984, 31.315
821.263, 19.150
822.541, 0.345
823.819, 46.539
825.098, 4.586
826.375, 41.779
827.653, 55.940
828.931, 3.868
830.208, 46.322
831.485, 0.414
832.762, 14.604
834.039, 26.792
835.315, 10.019
836.592, 63.166
837.868, 5.839
839.144, 0.977
840.420, 63.970
841.695, 8.153
842.970, 50.337
844.246, 69.147
845.521, 9.330
846.795, 85.513
848.070, 18.660
849.344, 39.843
850.618, 48.512
851.892, 10.695
853.166, 97.878
854.440, 24.061
855.713, 73.244
856.986, 91.006
858.259, 17.189
859.532, 137.373
860.804, 50.393
862.077, 102.577
863.349, 113.475
864.621, 41.659
865.893, 79.835
867.164, 67.020
868.436, 22.205
869.707, 72.123
870.978, 10.691
872.248, 45.407
873.519, 21.305
874.789, 3.489
876.060, 75.264
877.330, 15.450
878.599, 59.635
879.869, 63.738
881.138, 14.924
882.408, 90.718
883.677, 20.906
884.945, 62.094
886.214, 72.122
887.482, 21.311
888.751, 117.193
890.019, 37.384
891.287, 66.575
892.554, 109.574
893.822, 25.767
895.089, 122.667
896.356, 56.861
897.623, 67.056
898.889, 119.241
900.156, 51.438
901.422, 109.635
902.688, 66.834
903.954, 44.034
905.220, 126.118
906.485, 32.320
907.750, 76.521
909.015, 87.727
910.280, 41.933
911.545, 102.826
912.809, 49.034
914.074, 88.245
915.338, 111.457
916.602, 16.670
917.865, 98.721
919.129, 59.937
920.392, 50.052
921.655, 97.271
922.918, 63.492
924.181, 104.448
925.443, 81.675
926.706, 47.903
927.968, 128.129
929.230, 66.360
930.491, 99.197
931.753, 115.433
933.014, 41.670
934.276, 110.913
935.536, 70.157
936.797, 80.402
938.058, 121.649
939.318, 74.898
940.578, 140.148
941.838, 99.399
943.098, 102.652
944.358, 145.906
945.617, 90.162
946.876, 107.420
948.135, 95.679
949.394, 69.614
950.653, 159.877
951.911, 83.141
953.169, 117.634
954.427, 130.902
955.685, 78.965
956.943, 168.238
958.200, 131.515
959.458, 149.790
960.715, 223.070
961.971, 135.353
963.228, 250.638
964.485, 270.928
965.741, 330.143
966.997, 401.437
968.253, 341.731
969.508, 393.029
970.764, 432.328
972.019, 442.419
973.274, 605.722
974.529, 597.030
975.784, 690.327
977.039, 828.640
978.293, 968.955
979.547, 1378.272
980.801, 1843.593
982.055, 2642.044
983.308, 4371.369
984.562, 7454.697
985.815, 16664.084
987.068, 35863.414
988.321, 51272.848
989.573, 49522.188
990.826, 29291.525
992.078, 15221.037
993.330, 8550.383
994.582, 4670.731
995.833, 3035.084
997.085, 1968.437
998.336, 1415.794
999.587, 1162.154
1000.838, 935.516
1002.088, 859.994
1003.339, 737.361
1004.589, 571.729
1005.839, 573.101
1007.089, 451.313
1008.339, 375.690
1009.588, 418.070
1010.838, 314.452
1012.087, 352.838
1013.336, 327.227
1014.584, 248.617
1015.833, 294.010
1017.081, 251.406
1018.330, 255.805
1019.577, 320.206
1020.825, 224.610
1022.073, 300.017
1023.320, 283.425
1024.567, 265.838
1025.814, 283.252
1027.061, 223.669
1028.308, 310.090
1029.554, 300.512
1030.800, 225.939
1032.046, 267.404
1033.292, 182.835
1034.538, 199.268
1035.783, 190.704
1037.029, 117.142
1038.274, 175.821
1039.519, 119.263
1040.763, 104.708
1042.008, 148.356
1043.252, 73.805
1044.496, 106.281
1045.740, 99.734
1046.984, 46.190
1048.228, 131.835
1049.471, 95.296
1050.714, 101.759
1051.957, 110.349
1053.200, 79.817
1054.442, 136.527
1055.685, 218.999
1056.927, 204.474
1058.169, 245.711
1059.411, 87.191
1060.652, 99.672
1061.894, 108.155
1063.135, 22.641
1064.376, 125.688
1065.617, 73.179
1066.858, 49.672
1068.098, 104.923
1069.339, 61.420
1070.579, 99.919
1071.819, 97.422
1073.058, 71.924
1074.298, 161.428
1075.537, 95.935
1076.776, 127.443
1078.015, 181.959
1079.254, 128.472
1080.493, 239.987
1081.731, 261.503
1082.969, 287.021
1084.207, 409.543
1085.445, 312.066
1086.683, 327.591
1087.920, 275.120
1089.157, 132.654
1090.394, 203.191
1091.631, 98.729
1092.868, 75.271
1094.105, 141.814
1095.341, 58.360
1096.577, 82.906
1097.813, 100.129
1099.049, 46.680
1100.284, 190.233
1101.519, 180.788
1102.755, 194.344
1103.990, 311.901
1105.224, 187.459
1106.459, 250.020
1107.693, 207.582
1108.928, 103.146
1110.162, 133.711
1111.395, 53.278
1112.629, 45.846
1113.863, 86.415
1115.096, 10.015
1116.329, 66.558
1117.562, 53.131
1118.795, 5.294
1120.027, 56.281
1121.259, 8.142
1122.492, 51.435
1123.723, 58.012
1124.955, 11.409
1126.187, 58.169
1127.418, 35.747
1128.649, 0.327
1129.880, 87.908
1131.111, 10.864
1132.342, 53.447
1133.572, 102.031
1134.802, 8.384
1136.033, 103.204
1137.262, 77.793
1138.492, 123.382
1139.722, 210.977
1140.951, 173.574
1142.180, 324.171
1143.409, 359.770
1144.638, 312.369
1145.866, 386.969
1147.095, 305.569
1148.323, 223.170
1149.551, 274.773
1150.779, 126.376
1152.006, 156.980
1153.234, 87.586
1154.461, 30.191
1155.688, 108.798
1156.915, 33.406
1158.141, 63.014
1159.368, 104.623
1160.594, 23.400
1161.820, 59.010
1163.046, 70.621
1164.272, 2.691
1165.498, 108.921
1166.723, 44.532
1167.948, 47.158
1169.173, 66.771
1170.398, 11.616
1171.623, 59.995
1172.847, 33.606
1174.071, 9.745
1175.295, 96.865
1176.519, 1.526
1177.743, 30.084
1178.966, 31.694
1180.190, 8.696
1181.413, 40.912
1182.636, 51.520
1183.858, 5.872
1185.081, 66.735
1186.303, 10.658
1187.526, 5.947
1188.748, 93.552
1189.969, 32.844
1191.191, 60.754
1192.412, 27.351
1193.634, 0.948
1194.855, 50.545
1196.076, 23.858
1197.296, 22.733
1198.517, 71.323
1199.737, 32.086
1200.957, 54.692
1202.177, 38.274
1203.397, 0.857
1204.617, 91.439
1205.836, 18.020
1207.055, 32.726
1208.274, 101.307
1209.493, 0.887
1210.712, 67.820
1211.930, 69.399
1213.148, 30.977
1214.367, 94.555
1215.584, 23.132
1216.802, 68.709
1218.020, 92.285
1219.237, 22.861
1220.454, 82.904
1221.671, 78.478
1222.888, 30.052
1224.105, 95.160
1225.321, 33.732
1226.537, 56.324
1227.753, 107.894
1228.969, 26.537
1230.185, 85.320
1231.400, 62.881
1232.616, 11.441
1233.831, 68.017
1235.046, 36.575
1236.261, 52.132
1237.475, 107.688
1238.689, 38.244
1239.904, 77.878
1241.118, 96.463
1242.332, 14.016
1243.545, 120.567
1244.759, 57.118
1245.972, 68.667
1247.185, 85.572
1248.398, 35.120
1249.611, 110.667
1250.823, 116.219
1252.036, 18.765
1253.248, 91.213
1254.460, 52.759
1255.671, 43.302
1256.883, 102.676
1258.095, 30.218
1259.306, 59.759
1260.517, 90.337
1261.728, 12.123
1262.938, 81.415
1264.149, 33.951
1265.359, 47.487
1266.569, 73.682
1267.779, 35.217
1268.989, 79.750
1270.199, 121.194
1271.408, 26.725
1272.617, 130.260
1273.826, 110.788
1275.035, 58.316
1276.244, 121.843
1277.452, 70.368
1278.661, 49.893
1279.869, 113.585
1281.077, 24.108
1282.285, 103.629
1283.492, 95.238
1284.700, 17.758
1285.907, 116.277
1287.114, 37.979
1288.321, 31.496
1289.527, 95.022
1290.734, 1.465
1291.940, 64.048
1293.146, 81.665
1294.352, 3.172
1295.558, 144.640
1296.763, 59.145
1297.969, 10.648
1299.174, 86.147
1300.379, 59.647
1301.584, 54.899
1302.788, 109.390
1303.993, 6.878
1305.197, 117.162
1306.401, 59.647
1307.605, 45.106
1308.809, 127.588
1310.013, 49.068
1311.216, 73.362
1312.419, 113.835
1313.622, 28.308
1314.825, 73.653
1316.028, 91.122
1317.230, 19.350
1318.432, 87.817
1319.634, 75.283
1320.836, 51.985
1322.038, 102.440
1323.240, 30.892
1324.441, 77.333
1325.642, 108.771
1326.843, 28.648
1328.044, 98.083
1329.245, 76.514
1330.445, 2.815
1331.645, 142.610
1332.845, 26.030
1334.045, 49.446
1335.245, 110.859
1336.445, 0.271
1337.644, 45.679
1338.843, 73.085
1340.042, 9.518
1341.241, 76.882
1342.440, 37.278
1343.638, 25.673
1344.836, 87.064
1346.034, 31.453
1347.232, 71.839
1348.430, 69.223
1349.628, 14.397
1350.825, 95.979
1352.022, 67.352
1353.219, 17.277
1354.416, 83.089
1355.613, 9.453
1356.809, 34.815
1358.005, 94.175
1359.202, 7.142
1360.398, 51.213
1361.593, 53.565
1362.789, 9.916
1363.984, 89.266
1365.179, 29.614
1366.374, 17.961
1367.569, 118.307
1368.764, 2.652
1369.958, 7.111
1371.153, 77.456
1372.347, 16.825
1373.541, 66.147
1374.735, 69.448
1375.928, 15.271
1377.122, 98.207
1378.315, 48.683
1379.508, 4.158
1380.701, 111.632
1381.893, 47.107
1383.086, 33.579
1384.278, 78.649
1385.470, 20.114
1386.662, 87.570
1387.854, 46.020
1389.046, 6.463
1390.237, 109.903
1391.428, 22.341
1392.619, 28.776
1393.810, 86.208
1395.001, 27.364
1396.191, 27.060
1397.382, 54.481
1398.572, 33.303
1399.762, 87.015
1400.952, 13.424
1402.141, 15.814
1403.331, 95.219
1404.520, 15.575
1405.709, 16.979
1406.898, 51.381
1408.087, 1.218
1409.275, 57.183
1410.464, 91.582
1411.652, 2.983
1412.840, 75.387
1414.028, 49.795
1415.215, 1.800
1416.403, 88.613
1417.590, 12.741
1418.777, 34.159
1419.964, 83.576
1421.151, 1.801
1422.338, 56.660
1423.524, 66.066
1424.710, 35.472
1425.896, 67.878
1427.082, 60.503
1428.268, 13.897
1429.453, 124.369
1430.639, 25.713
1431.824, 52.573
1433.009, 119.956
1434.194, 24.308
1435.378, 91.691
1436.563, 116.923
1437.747, 60.242
1438.931, 117.621
1440.115, 114.027
1441.299, 62.387
1442.482, 177.613
1443.666, 105.959
1444.849, 117.309
1446.032, 205.653
1447.215, 88.897
1448.397, 170.229
1449.580, 191.729
1450.762, 114.009
1451.944, 242.036
1453.126, 179.243
1454.308, 112.455
1455.490, 214.657
1456.671, 133.391
1457.852, 129.315
1459.033, 220.463
1460.214, 102.053
1461.395, 129.128
1462.575, 165.886
1463.756, 78.968
1464.936, 162.028
1466.116, 121.081
1467.296, 34.152
1468.475, 172.220
1469.655, 70.265
1470.834, 64.292
1472.013, 128.311
1473.192, 17.323
1474.371, 47.309
1475.550, 118.266
1476.728, 32.230
1477.906, 114.258
1479.084, 82.321
1480.262, 41.380
1481.440, 124.453
1482.617, 39.550
1483.795, 10.668
1484.972, 144.792
1486.149, 30.920
1487.326, 25.058
1488.502, 109.213
1489.679, 5.393
1490.855, 63.607
1492.031, 74.851
1493.207, 8.128
1494.383, 66.441
1495.559, 37.798
1496.734, 2.786
1497.909, 71.698
1499.084, 2.267
1500.259, 10.014
1501.434, 60.827
1502.608, 0.000
##END=



