##NAMES=Baryte
##RRUFFID=R040036
##IDEAL CHEMISTRY=BaS^6+^O_4_
##LOCALITY=Cumbria County, England
##OWNER=RRUFF
##SOURCE=University of Arizona Mineral Museum
##DESCRIPTION=Golden brown tabular crystal
##STATUS=The identification of this mineral has been confirmed by X-ray diffraction and chemical analysis
##URL=rruff.info/R040036
##MEASURED CHEMISTRY=Ba_1.00_S_1.00_O_4_; trace amounts of Pb
##PIN_ID=M00019
##ORIENTATION=Laser parallel to b* (0 1 0). Fiducial mark perpendicular to laser is parallel to c [0 0 1]
26.288, 0.000
27.694, 36.438
29.099, 0.376
30.504, 51.375
31.909, 41.556
33.313, 32.762
34.717, 49.214
36.121, 46.257
37.525, 28.138
38.929, 18.252
40.332, 63.165
41.735, 57.720
43.138, 91.312
44.541, 83.855
45.943, 91.168
47.345, 50.613
48.747, 71.178
50.149, 86.872
51.551, 110.250
52.952, 66.115
54.353, 86.190
55.754, 104.391
57.155, 135.566
58.555, 157.825
59.955, 130.409
61.355, 175.027
62.755, 146.492
64.154, 134.453
65.553, 163.314
66.952, 125.040
68.351, 123.498
69.750, 112.602
71.148, 114.095
72.546, 105.625
73.944, 107.133
75.342, 89.673
76.739, 72.221
78.136, 54.497
79.533, 38.324
80.930, 28.875
82.327, 28.416
83.723, 14.943
85.119, 40.543
86.515, 49.047
87.910, 36.566
89.306, 33.098
90.701, 30.639
92.096, 35.188
93.490, 22.743
94.885, 42.298
96.279, 13.858
97.673, 6.422
99.067, 29.001
100.461, 45.414
101.854, 41.850
103.247, 56.387
104.640, 47.008
106.032, 78.695
107.425, 87.434
108.817, 98.209
110.209, 131.013
111.601, 133.841
112.992, 234.679
114.384, 311.521
115.775, 293.359
117.166, 281.189
118.556, 301.008
119.947, 266.810
121.337, 245.598
122.727, 226.425
124.116, 216.227
125.506, 223.942
126.895, 217.615
128.284, 219.254
129.673, 239.855
131.062, 235.491
132.450, 235.036
133.838, 230.681
135.226, 248.091
136.614, 210.521
138.001, 251.816
139.388, 236.140
140.775, 222.319
142.162, 251.698
143.549, 256.880
144.935, 283.058
146.321, 321.206
147.707, 371.391
149.093, 447.596
150.478, 541.823
151.863, 620.104
153.248, 623.323
154.633, 669.673
156.018, 579.934
157.402, 504.272
158.786, 419.664
160.170, 379.978
161.554, 333.526
162.937, 306.000
164.320, 279.384
165.703, 251.631
167.086, 241.007
168.469, 213.306
169.851, 193.424
171.233, 244.506
172.615, 230.695
173.996, 210.907
175.378, 213.061
176.759, 200.742
178.140, 240.046
179.521, 243.946
180.901, 273.978
182.281, 315.715
183.662, 383.222
185.041, 487.713
186.421, 565.934
187.800, 717.850
189.180, 762.640
190.558, 761.549
191.937, 645.152
193.316, 548.843
194.694, 451.427
196.072, 341.798
197.450, 293.903
198.827, 251.969
200.205, 228.925
201.582, 219.921
202.959, 195.598
204.336, 172.197
205.712, 205.779
207.088, 186.419
208.465, 165.012
209.840, 179.259
211.216, 163.638
212.591, 156.693
213.967, 152.707
215.341, 134.831
216.716, 156.799
218.091, 124.651
219.465, 121.506
220.839, 143.287
222.213, 138.102
223.586, 135.946
224.960, 146.685
226.333, 145.331
227.706, 138.827
229.079, 152.128
230.451, 133.309
231.823, 130.496
233.195, 125.479
234.567, 112.197
235.939, 114.678
237.310, 116.490
238.682, 100.331
240.052, 97.378
241.423, 112.192
242.794, 104.271
244.164, 98.898
245.534, 97.248
246.904, 98.716
248.274, 106.803
249.643, 100.061
251.012, 93.287
252.381, 122.649
253.750, 119.985
255.118, 91.519
256.487, 80.092
257.855, 101.768
259.223, 97.536
260.590, 95.382
261.958, 111.369
263.325, 98.384
264.692, 108.374
266.059, 94.326
267.425, 94.253
268.791, 84.174
270.158, 115.090
271.523, 85.999
272.889, 87.930
274.255, 105.908
275.620, 64.800
276.985, 83.687
278.350, 65.600
279.714, 68.476
281.078, 90.382
282.443, 71.247
283.806, 81.108
285.170, 65.965
286.534, 67.817
287.897, 61.666
289.260, 57.510
290.623, 71.351
291.985, 58.188
293.348, 18.021
294.710, 61.851
296.072, 56.676
297.433, 32.498
298.795, 59.316
300.156, 68.129
301.517, 44.939
302.878, 54.744
304.239, 54.546
305.599, 40.343
306.959, 52.135
308.319, 53.923
309.679, 68.705
311.038, 70.469
312.398, 70.257
313.757, 73.027
315.116, 62.794
316.474, 54.556
317.833, 57.314
319.191, 51.070
320.549, 57.822
321.907, 59.128
323.264, 63.315
324.622, 57.040
325.979, 56.748
327.336, 33.439
328.692, 56.113
330.049, 51.771
331.405, 35.415
332.761, 55.045
334.117, 64.661
335.473, 39.266
336.828, 35.860
338.183, 64.442
339.538, 46.014
340.893, 29.575
342.247, 53.125
343.602, 41.667
344.956, 45.201
346.310, 61.727
347.663, 54.245
349.017, 53.817
350.370, 75.357
351.723, 49.858
353.076, 23.377
354.428, 18.867
355.780, 33.361
357.133, 19.862
358.484, 45.336
359.836, 33.830
361.188, 32.429
362.539, 23.888
363.890, 44.350
365.241, 31.814
366.591, 48.213
367.942, 31.669
369.292, 26.123
370.642, 30.677
371.992, 23.127
373.341, 19.575
374.691, 29.022
376.040, 27.469
377.388, 24.918
378.737, 28.367
380.086, 38.814
381.434, 47.217
382.782, 38.650
384.130, 50.129
385.477, 18.528
386.825, 45.927
388.172, 52.412
389.519, 61.874
390.865, 38.329
392.212, 55.788
393.558, 58.264
394.904, 78.784
396.250, 70.277
397.596, 75.027
398.941, 35.358
400.286, 67.887
401.631, 47.434
402.976, 34.862
404.321, 67.384
405.665, 31.887
407.009, 38.399
408.353, 30.923
409.697, 34.436
411.040, 40.955
412.384, 45.449
413.727, 47.712
415.070, 53.400
416.412, 46.916
417.755, 37.378
419.097, 25.851
420.439, 52.359
421.781, 50.726
423.122, 35.181
424.464, 51.553
425.805, 33.939
427.146, 63.430
428.486, 65.834
429.827, 82.288
431.167, 91.675
432.507, 123.074
433.847, 141.476
435.187, 143.832
436.526, 191.255
437.865, 239.620
439.204, 289.799
440.543, 381.185
441.882, 460.548
443.220, 601.800
444.558, 797.181
445.896, 1082.604
447.234, 1525.920
448.572, 2023.281
449.909, 2826.643
451.246, 3558.939
452.583, 4431.292
453.919, 4670.653
455.256, 4123.083
456.592, 3325.523
457.928, 2457.962
459.264, 1883.415
460.600, 1476.823
461.935, 1262.193
463.270, 1096.577
464.605, 892.934
465.940, 643.323
467.274, 500.719
468.609, 391.135
469.943, 274.523
471.277, 201.911
472.610, 184.190
473.944, 133.577
475.277, 112.944
476.610, 114.236
477.943, 77.622
479.275, 88.055
480.608, 64.372
481.940, 47.674
483.272, 45.111
484.604, 46.463
485.935, 56.739
487.267, 54.127
488.598, 43.462
489.929, 56.815
491.260, 42.247
492.590, 16.645
493.920, 22.045
495.250, 35.498
496.580, 23.987
497.910, 36.150
499.239, 26.396
500.569, 23.713
501.898, 31.968
503.226, 23.343
504.555, 0.667
505.883, 28.987
507.212, 41.270
508.540, 16.650
509.867, 32.974
511.195, 27.375
512.522, 32.701
513.849, 5.002
515.176, 53.327
516.503, 60.618
517.829, 38.894
519.156, 43.216
520.482, 33.532
521.808, 57.836
523.133, 32.158
524.459, 42.530
525.784, 36.941
527.109, 21.314
528.434, 32.740
529.758, 38.021
531.083, 31.455
532.407, 41.905
533.731, 40.387
535.055, 52.767
536.378, 53.285
537.701, 31.640
539.025, 46.072
540.348, 34.587
541.670, 6.016
542.993, 46.651
544.315, 8.076
545.637, 22.567
546.959, 29.930
548.281, 63.440
549.602, 21.279
550.923, 41.742
552.244, 39.384
553.565, 37.746
554.886, 43.203
556.206, 48.367
557.526, 47.946
558.846, 50.417
560.166, 36.817
561.486, 33.333
562.805, 54.672
564.124, 43.187
565.443, 53.662
566.762, 51.996
568.080, 50.592
569.399, 50.453
570.717, 39.161
572.035, 48.308
573.352, 41.126
574.670, 37.338
575.987, 20.267
577.304, 75.736
578.621, 44.453
579.938, 61.330
581.254, 44.792
582.570, 50.667
583.886, 79.035
585.202, 80.790
586.518, 85.777
587.833, 68.175
589.148, 83.560
590.463, 80.946
591.778, 82.296
593.093, 77.644
594.407, 84.014
595.721, 101.478
597.035, 94.819
598.349, 104.222
599.662, 107.557
600.976, 111.928
602.289, 116.599
603.602, 128.925
604.914, 142.524
606.227, 181.868
607.539, 204.396
608.851, 240.770
610.163, 291.142
611.475, 403.496
612.786, 582.832
614.097, 862.151
615.408, 1280.467
616.719, 1667.789
618.030, 1765.176
619.340, 1607.633
620.651, 1292.439
621.961, 1149.757
623.270, 1064.041
624.580, 1184.322
625.889, 1342.600
627.199, 1645.900
628.507, 2024.172
629.816, 2450.461
631.125, 2521.727
632.433, 2292.995
633.741, 1844.320
635.049, 1351.001
636.357, 1026.219
637.664, 790.194
638.972, 665.476
640.279, 554.764
641.586, 587.429
642.893, 562.643
644.199, 638.043
645.505, 730.311
646.811, 807.862
648.117, 855.615
649.423, 833.836
650.728, 694.169
652.034, 567.385
653.339, 463.595
654.644, 367.491
655.948, 276.416
657.253, 231.616
658.557, 154.841
659.861, 135.191
661.165, 128.382
662.468, 97.568
663.772, 73.751
665.075, 72.931
666.378, 65.107
667.681, 71.279
668.983, 35.426
670.286, 38.590
671.588, 20.075
672.890, 22.331
674.192, 15.937
675.493, 40.129
676.795, 24.272
678.096, 33.411
679.397, 25.546
680.697, 6.728
681.998, 38.853
683.298, 5.113
684.598, 33.020
685.898, 9.053
687.198, 30.149
688.498, 4.250
689.797, 14.654
691.096, 5.418
692.395, 6.499
693.694, 22.576
694.992, 8.648
696.290, 26.286
697.589, 1.230
698.886, 7.819
700.184, 23.863
701.482, 0.098
702.779, 16.937
704.076, 0.967
705.373, 3.991
706.669, 0.010
707.966, 12.024
709.262, 15.967
710.558, 7.966
711.854, 26.974
713.150, 12.993
714.445, 30.020
715.740, 18.060
717.035, 1.864
718.330, 9.191
719.625, 16.253
720.919, 1.676
722.214, 16.400
723.508, 17.514
724.801, 11.576
726.095, 21.674
727.388, 9.218
728.682, 11.105
729.975, 9.988
731.267, 28.867
732.560, 20.741
733.852, 1.389
735.145, 21.475
736.437, 43.335
737.728, 2.191
739.020, 27.042
740.311, 6.889
741.603, 10.268
742.894, 24.567
744.184, 7.602
745.475, 9.223
746.765, 4.957
748.055, 1.857
749.345, 1.666
750.635, 3.471
751.925, 6.271
753.214, 9.067
754.503, 8.859
755.792, 6.647
757.081, 0.570
758.370, 3.791
759.658, 19.018
760.946, 3.747
762.234, 26.507
763.522, 13.263
764.809, 14.016
766.097, 3.765
767.384, 25.510
768.671, 4.251
769.958, 12.988
771.244, 6.722
772.530, 0.548
773.817, 18.823
775.102, 13.895
776.388, 29.391
777.674, 0.688
778.959, 0.012
780.244, 17.293
781.529, 9.395
782.814, 5.921
784.098, 1.242
785.383, 18.567
786.667, 21.899
787.951, 11.760
789.235, 6.584
790.518, 2.067
791.801, 19.715
793.084, 2.360
794.367, 21.999
795.650, 5.635
796.933, 0.734
798.215, 7.106
799.497, 17.516
800.779, 9.136
802.061, 25.753
803.342, 8.367
804.624, 10.978
805.905, 17.586
807.186, 9.192
808.466, 8.794
809.747, 15.606
811.027, 6.036
812.307, 21.460
813.587, 2.921
814.867, 11.658
816.146, 5.231
817.426, 19.938
818.705, 3.624
819.984, 24.860
821.263, 11.426
822.541, 1.279
823.819, 26.282
825.098, 37.770
826.375, 34.327
827.653, 32.790
828.931, 13.853
830.208, 52.318
831.485, 8.568
832.762, 32.110
834.039, 43.587
835.315, 12.372
836.592, 35.737
837.868, 36.207
839.144, 39.744
840.420, 61.133
841.695, 32.642
842.970, 28.053
844.246, 33.500
845.521, 68.888
846.795, 79.372
848.070, 72.388
849.344, 75.588
850.618, 57.347
851.892, 51.430
853.166, 86.117
854.440, 56.083
855.713, 79.507
856.986, 122.680
858.259, 128.689
859.532, 158.110
860.804, 157.117
862.077, 158.627
863.349, 130.748
864.621, 135.635
865.893, 105.109
867.164, 76.592
868.436, 85.070
869.707, 57.583
870.978, 39.096
872.248, 50.463
873.519, 46.976
874.789, 46.488
876.060, 56.935
877.330, 55.448
878.599, 50.922
879.869, 54.093
881.138, 49.762
882.408, 45.882
883.677, 50.334
884.945, 37.638
886.214, 49.094
887.482, 49.550
888.751, 69.021
890.019, 46.508
891.287, 53.009
892.554, 85.512
893.822, 84.006
895.089, 111.434
896.356, 104.789
897.623, 103.794
898.889, 119.284
900.156, 110.807
901.422, 118.331
902.688, 112.856
903.954, 77.356
905.220, 83.884
906.485, 95.392
907.750, 52.922
909.015, 80.448
910.280, 63.916
911.545, 48.965
912.809, 91.500
914.074, 66.312
915.338, 94.791
916.602, 80.287
917.865, 67.393
919.129, 63.938
920.392, 76.318
921.655, 40.806
922.918, 70.902
924.181, 96.925
925.443, 67.479
926.706, 59.870
927.968, 68.426
929.230, 83.987
930.491, 86.551
931.753, 64.605
933.014, 80.287
934.276, 94.831
935.536, 113.248
936.797, 84.867
938.058, 82.447
939.318, 84.029
940.578, 89.615
941.838, 126.203
943.098, 62.794
944.358, 106.389
945.617, 74.986
946.876, 83.261
948.135, 93.765
949.394, 100.917
950.653, 123.483
951.911, 132.375
953.169, 113.713
954.427, 154.333
955.685, 154.905
956.943, 153.532
958.200, 122.163
959.458, 166.780
960.715, 194.420
961.971, 227.063
963.228, 263.710
964.485, 370.361
965.741, 420.019
966.997, 469.680
968.253, 474.347
969.508, 507.018
970.764, 574.694
972.019, 648.377
973.274, 776.065
974.529, 883.757
975.784, 962.454
977.039, 1199.155
978.293, 1497.861
979.547, 1933.572
980.801, 2743.288
982.055, 4080.008
983.308, 6860.733
984.562, 12595.466
985.815, 28604.201
987.068, 58832.953
988.321, 64361.703
989.573, 64360.461
990.826, 37819.230
992.078, 20558.006
993.330, 11566.786
994.582, 6536.574
995.833, 4065.367
997.085, 2678.167
998.336, 2041.972
999.587, 1565.783
1000.838, 1342.602
1002.088, 1191.426
1003.339, 1063.256
1004.589, 855.090
1005.839, 737.929
1007.089, 612.774
1008.339, 560.624
1009.588, 502.479
1010.838, 405.339
1012.087, 410.205
1013.336, 373.075
1014.584, 307.952
1015.833, 287.834
1017.081, 303.723
1018.330, 257.617
1019.577, 304.517
1020.825, 244.424
1022.073, 228.336
1023.320, 261.254
1024.567, 267.177
1025.814, 235.105
1027.061, 204.040
1028.308, 209.979
1029.554, 196.924
1030.800, 162.875
1032.046, 126.833
1033.292, 130.798
1034.538, 104.769
1035.783, 107.745
1037.029, 82.727
1038.274, 103.715
1039.519, 99.708
1040.763, 95.707
1042.008, 87.711
1043.252, 69.721
1044.496, 55.737
1045.740, 61.758
1046.984, 40.788
1048.228, 43.207
1049.471, 41.449
1050.714, 46.917
1051.957, 50.974
1053.200, 67.038
1054.442, 92.107
1055.685, 31.184
1056.927, 43.266
1058.169, 61.356
1059.411, 11.455
1060.652, 18.559
1061.894, 15.670
1063.135, 29.786
1064.376, 21.909
1065.617, 46.162
1066.858, 15.702
1068.098, 27.478
1069.339, 25.624
1070.579, 7.222
1071.819, 15.936
1073.058, 5.101
1074.298, 42.305
1075.537, 73.482
1076.776, 24.667
1078.015, 21.866
1079.254, 53.066
1080.493, 69.273
1081.731, 79.487
1082.969, 58.712
1084.207, 89.945
1085.445, 83.185
1086.683, 57.431
1087.920, 81.683
1089.157, 61.941
1090.394, 48.207
1091.631, 39.478
1092.868, 76.759
1094.105, 112.049
1095.341, 106.346
1096.577, 112.651
1097.813, 160.961
1099.049, 202.279
1100.284, 248.607
1101.519, 329.943
1102.755, 393.286
1103.990, 444.639
1105.224, 399.997
1106.459, 329.361
1107.693, 258.732
1108.928, 146.108
1110.162, 139.489
1111.395, 146.876
1112.629, 127.269
1113.863, 155.667
1115.096, 100.071
1116.329, 135.482
1117.562, 141.899
1118.795, 133.322
1120.027, 173.750
1121.259, 242.184
1122.492, 214.623
1123.723, 302.067
1124.955, 296.516
1126.187, 362.970
1127.418, 476.432
1128.649, 500.898
1129.880, 662.370
1131.111, 793.848
1132.342, 1044.331
1133.572, 1377.820
1134.802, 1732.314
1136.033, 2401.812
1137.262, 3233.316
1138.492, 3959.825
1139.722, 4741.338
1140.951, 5349.856
1142.180, 5948.380
1143.409, 6452.909
1144.638, 6288.446
1145.866, 5799.987
1147.095, 4915.533
1148.323, 3923.084
1149.551, 3107.641
1150.779, 2444.202
1152.006, 1899.767
1153.234, 1503.338
1154.461, 1166.913
1155.688, 1032.493
1156.915, 858.077
1158.141, 745.666
1159.368, 725.260
1160.594, 687.859
1161.820, 693.461
1163.046, 820.069
1164.272, 947.681
1165.498, 1080.298
1166.723, 1193.918
1167.948, 1120.544
1169.173, 1042.173
1170.398, 839.807
1171.623, 689.445
1172.847, 540.087
1174.071, 407.733
1175.295, 333.384
1176.519, 259.038
1177.743, 241.696
1178.966, 207.358
1180.190, 164.023
1181.413, 147.692
1182.636, 110.365
1183.858, 93.042
1185.081, 85.722
1186.303, 97.406
1187.526, 61.093
1188.748, 84.784
1189.969, 8.478
1191.191, 34.175
1192.412, 45.876
1193.634, 19.580
1194.855, 25.287
1196.076, 23.998
1197.296, 15.289
1198.517, 36.426
1199.737, 5.968
1200.957, 23.753
1202.177, 41.476
1203.397, 41.162
1204.617, 50.180
1205.836, 5.377
1207.055, 34.752
1208.274, 29.637
1209.493, 0.535
1210.712, 42.166
1211.930, 41.911
1213.148, 12.658
1214.367, 72.488
1215.584, 59.240
1216.802, 44.142
1218.020, 66.898
1219.237, 25.871
1220.454, 28.631
1221.671, 53.699
1222.888, 15.463
1224.105, 22.021
1225.321, 26.497
1226.537, 30.568
1227.753, 26.767
1228.969, 39.541
1230.185, 24.695
1231.400, 35.692
1232.616, 42.669
1233.831, 42.791
1235.046, 60.484
1236.261, 56.266
1237.475, 86.049
1238.689, 80.081
1239.904, 94.867
1241.118, 126.654
1242.332, 72.442
1243.545, 63.314
1244.759, 46.104
1245.972, 77.896
1247.185, 67.132
1248.398, 65.097
1249.611, 56.894
1250.823, 42.769
1252.036, 35.570
1253.248, 71.374
1254.460, 38.179
1255.671, 56.986
1256.883, 58.795
1258.095, 44.930
1259.306, 54.881
1260.517, 64.585
1261.728, 57.749
1262.938, 38.568
1264.149, 46.406
1265.359, 32.228
1266.569, 57.051
1267.779, 78.930
1268.989, 89.757
1270.199, 73.585
1271.408, 93.415
1272.617, 63.246
1273.826, 84.177
1275.035, 89.608
1276.244, 65.443
1277.452, 103.280
1278.661, 56.172
1279.869, 46.030
1281.077, 58.870
1282.285, 48.712
1283.492, 38.555
1284.700, 23.399
1285.907, 20.086
1287.114, 41.091
1288.321, 23.975
1289.527, 22.824
1290.734, 51.679
1291.940, 48.529
1293.146, 68.393
1294.352, 38.233
1295.558, 49.083
1296.763, 56.917
1297.969, 13.780
1299.174, 46.613
1300.379, 29.443
1301.584, 42.289
1302.788, 33.101
1303.993, 24.911
1305.197, 38.708
1306.401, 35.495
1307.605, 35.281
1308.809, 58.064
1310.013, 70.847
1311.216, 79.628
1312.419, 66.405
1313.622, 37.180
1314.825, 72.952
1316.028, 68.724
1317.230, 29.495
1318.432, 68.261
1319.634, 88.022
1320.836, 61.782
1322.038, 49.540
1323.240, 61.295
1324.441, 47.048
1325.642, 45.799
1326.843, 51.540
1328.044, 64.152
1329.245, 53.887
1330.445, 58.613
1331.645, 50.089
1332.845, 50.037
1334.045, 23.759
1335.245, 9.477
1336.445, 15.842
1337.644, 5.134
1338.843, 2.430
1340.042, 39.739
1341.241, 25.953
1342.440, 23.641
1343.638, 44.673
1344.836, 6.004
1346.034, 4.322
1347.232, 16.348
1348.430, 6.984
1349.628, 7.678
1350.825, 10.662
1352.022, 22.992
1353.219, 31.356
1354.416, 27.711
1355.613, 10.073
1356.809, 15.438
1358.005, 20.191
1359.202, 13.182
1360.398, 35.559
1361.593, 18.943
1362.789, 11.332
1363.984, 35.724
1365.179, 5.900
1366.374, 10.500
1367.569, 6.900
1368.764, 16.701
1369.958, 11.298
1371.153, 6.893
1372.347, 0.489
1373.541, 20.084
1374.735, 15.815
1375.928, 14.715
1377.122, 2.866
1378.315, 23.983
1379.508, 1.831
1380.701, 19.680
1381.893, 8.526
1383.086, 16.370
1384.278, 18.210
1385.470, 31.049
1386.662, 8.113
1387.854, 6.724
1389.046, 33.561
1390.237, 8.608
1391.428, 29.219
1392.619, 9.043
1393.810, 24.866
1395.001, 24.688
1396.191, 6.508
1397.382, 14.325
1398.572, 23.141
1399.762, 18.955
1400.952, 19.766
1402.141, 4.576
1403.331, 17.616
1404.520, 19.191
1405.709, 22.996
1406.898, 8.801
1408.087, 13.605
1409.275, 28.409
1410.464, 24.212
1411.652, 28.805
1412.840, 24.818
1414.028, 22.621
1415.215, 27.424
1416.403, 13.228
1417.590, 30.034
1418.777, 19.842
1419.964, 28.651
1421.151, 17.622
1422.338, 23.780
1423.524, 18.558
1424.710, 67.590
1425.896, 13.102
1427.082, 45.497
1428.268, 40.729
1429.453, 11.891
1430.639, 32.320
1431.824, 42.328
1433.009, 87.435
1434.194, 65.758
1435.378, 106.345
1436.563, 102.460
1437.747, 128.035
1438.931, 174.444
1440.115, 194.119
1441.299, 195.308
1442.482, 226.669
1443.666, 211.168
1444.849, 232.653
1446.032, 242.341
1447.215, 271.989
1448.397, 265.346
1449.580, 271.722
1450.762, 311.945
1451.944, 274.273
1453.126, 319.326
1454.308, 309.050
1455.490, 279.107
1456.671, 318.224
1457.852, 266.353
1459.033, 274.443
1460.214, 284.385
1461.395, 261.370
1462.575, 231.284
1463.756, 241.230
1464.936, 191.112
1466.116, 215.062
1467.296, 168.980
1468.475, 165.035
1469.655, 154.176
1470.834, 141.300
1472.013, 139.412
1473.192, 165.525
1474.371, 131.608
1475.550, 117.708
1476.728, 91.800
1477.906, 118.871
1479.084, 102.970
1480.262, 128.105
1481.440, 90.241
1482.617, 104.392
1483.795, 87.569
1484.972, 101.778
1486.149, 93.859
1487.326, 89.281
1488.502, 86.561
1489.679, 73.870
1490.855, 78.217
1492.031, 3.611
1493.207, 21.059
1494.383, 29.571
1495.559, 8.154
1496.734, 39.831
1497.909, 28.104
1499.084, 26.907
1500.259, 28.619
1501.434, 1.258
1502.608, 0.000
##END=



