##NAMES=Baryte
##RRUFFID=R040036
##IDEAL CHEMISTRY=BaS^6+^O_4_
##LOCALITY=Cumbria County, England
##OWNER=RRUFF
##SOURCE=University of Arizona Mineral Museum
##DESCRIPTION=Golden brown tabular crystal
##STATUS=The identification of this mineral has been confirmed by X-ray diffraction and chemical analysis
##URL=rruff.info/R040036
##MEASURED CHEMISTRY=Ba_1.00_S_1.00_O_4_; trace amounts of Pb
##PIN_ID=M00021
##ORIENTATION=Laser parallel to c* (0 0 1). Fiducial mark perpendicular to laser is parallel to -a [-1 0 0]
26.288, 0.000
27.694, 12.116
29.099, 34.665
30.504, 4.642
31.909, 18.735
33.313, 12.264
34.717, 15.095
36.121, 25.441
37.525, 18.321
38.929, 52.922
40.332, 76.331
41.735, 70.378
43.138, 71.950
44.541, 35.570
45.943, 63.042
47.345, 53.186
48.747, 27.833
50.149, 33.802
51.551, 29.500
52.952, 13.589
54.353, 17.891
55.754, 31.819
57.155, 54.830
58.555, 51.465
59.955, 58.592
61.355, 49.455
62.755, 73.088
64.154, 73.327
65.553, 69.648
66.952, 69.208
68.351, 70.882
69.750, 58.669
71.148, 68.496
72.546, 70.332
73.944, 54.187
75.342, 34.057
76.739, 39.935
78.136, 24.820
79.533, 31.709
80.930, 34.599
82.327, 30.485
83.723, 24.361
85.119, 24.227
86.515, 3.922
87.910, 9.914
89.306, 12.264
90.701, 29.456
92.096, 15.660
93.490, 15.877
94.885, 27.103
96.279, 24.341
97.673, 32.590
99.067, 29.411
100.461, 11.121
101.854, 15.388
103.247, 10.276
104.640, 10.589
106.032, 2.503
107.425, 13.457
108.817, 27.440
110.209, 58.446
111.601, 60.464
112.992, 107.489
114.384, 115.509
115.775, 139.517
117.166, 116.511
118.556, 130.490
119.947, 114.760
121.337, 115.965
122.727, 134.042
124.116, 151.310
125.506, 187.291
126.895, 191.251
128.284, 208.326
129.673, 191.344
131.062, 186.253
132.450, 186.346
133.838, 163.242
135.226, 153.097
136.614, 163.975
138.001, 116.716
139.388, 136.405
140.775, 159.073
142.162, 147.828
143.549, 175.410
144.935, 208.962
146.321, 214.491
147.707, 264.053
149.093, 316.628
150.478, 358.186
151.863, 380.645
153.248, 400.188
154.633, 365.747
156.018, 304.269
157.402, 273.803
158.786, 212.259
160.170, 202.868
161.554, 190.445
162.937, 123.926
164.320, 132.419
165.703, 113.964
167.086, 128.485
168.469, 118.914
169.851, 121.425
171.233, 121.945
172.615, 95.152
173.996, 115.530
175.378, 105.884
176.759, 97.849
178.140, 61.682
179.521, 103.409
180.901, 112.933
182.281, 109.359
183.662, 141.686
185.041, 160.869
186.421, 229.982
187.800, 229.934
189.180, 259.806
190.558, 274.521
191.937, 258.211
193.316, 244.780
194.694, 184.191
196.072, 163.533
197.450, 140.805
198.827, 127.784
200.205, 117.769
201.582, 141.538
202.959, 109.152
204.336, 106.683
205.712, 130.255
207.088, 108.866
208.465, 124.391
209.840, 99.785
211.216, 73.090
212.591, 70.321
213.967, 74.464
215.341, 71.533
216.716, 74.636
218.091, 82.674
219.465, 67.722
220.839, 56.808
222.213, 77.810
223.586, 80.772
224.960, 81.517
226.333, 73.290
227.706, 59.932
229.079, 70.632
230.451, 61.346
231.823, 70.026
233.195, 83.639
234.567, 56.331
235.939, 47.479
237.310, 54.890
238.682, 57.875
240.052, 62.419
241.423, 56.282
242.794, 57.139
244.164, 43.734
245.534, 52.392
246.904, 47.886
248.274, 55.399
249.643, 48.362
251.012, 51.225
252.381, 51.203
253.750, 41.604
255.118, 31.866
256.487, 38.304
257.855, 50.895
259.223, 41.752
260.590, 50.565
261.958, 42.591
263.325, 51.647
264.692, 41.695
266.059, 41.736
267.425, 42.195
268.791, 38.857
270.158, 38.812
271.523, 40.821
272.889, 35.822
274.255, 41.816
275.620, 48.803
276.985, 33.782
278.350, 37.754
279.714, 32.719
281.078, 31.676
282.443, 32.626
283.806, 34.569
285.170, 35.506
286.534, 25.436
287.897, 33.361
289.260, 38.279
290.623, 25.192
291.985, 13.098
293.348, 21.999
294.710, 17.895
296.072, 13.785
297.433, 40.669
298.795, 21.548
300.156, 26.422
301.517, 23.290
302.878, 10.153
304.239, 18.010
305.599, 15.862
306.959, 33.709
308.319, 14.550
309.679, 1.385
311.038, 28.215
312.398, 35.039
313.757, 32.858
315.116, 16.673
316.474, 19.482
317.833, 19.286
319.191, 24.085
320.549, 26.876
321.907, 17.666
323.264, 23.452
324.622, 22.220
325.979, 14.817
327.336, 22.554
328.692, 24.276
330.049, 12.984
331.405, 18.679
332.761, 15.360
334.117, 14.029
335.473, 22.685
336.828, 30.330
338.183, 14.964
339.538, 20.588
340.893, 12.201
342.247, 29.805
343.602, 13.400
344.956, 30.986
346.310, 17.564
347.663, 40.136
349.017, 21.701
350.370, 31.261
351.723, 33.815
353.076, 29.365
354.428, 17.909
355.780, 30.448
357.133, 15.982
358.484, 31.420
359.836, 33.844
361.188, 34.285
362.539, 17.713
363.890, 29.153
365.241, 12.631
366.591, 13.038
367.942, 31.393
369.292, 22.846
370.642, 29.312
371.992, 37.782
373.341, 31.216
374.691, 31.589
376.040, 36.014
377.388, 31.397
378.737, 39.822
380.086, 14.313
381.434, 30.678
382.782, 35.007
384.130, 22.375
385.477, 36.763
386.825, 40.184
388.172, 39.584
389.519, 40.279
390.865, 34.357
392.212, 33.768
393.558, 28.169
394.904, 31.617
396.250, 31.134
397.596, 29.328
398.941, 32.933
400.286, 30.343
401.631, 26.712
402.976, 33.115
404.321, 16.578
405.665, 31.999
407.009, 48.461
408.353, 33.885
409.697, 45.353
411.040, 44.774
412.384, 31.195
413.727, 48.620
415.070, 58.029
416.412, 60.438
417.755, 61.856
419.097, 65.643
420.439, 68.674
421.781, 74.130
423.122, 82.516
424.464, 99.919
425.805, 100.301
427.146, 109.677
428.486, 108.059
429.827, 133.486
431.167, 131.881
432.507, 176.229
433.847, 187.614
435.187, 204.022
436.526, 263.372
437.865, 285.665
439.204, 345.000
440.543, 383.316
441.882, 510.612
443.220, 565.036
444.558, 735.372
445.896, 942.731
447.234, 1288.571
448.572, 1635.362
449.909, 2230.683
451.246, 2806.994
452.583, 3508.390
453.919, 3834.697
455.256, 4023.933
456.592, 4605.306
457.928, 5657.713
459.264, 8112.110
460.600, 10827.434
461.935, 13156.771
463.270, 12746.107
464.605, 10205.467
465.940, 7239.842
467.274, 5010.176
468.609, 3309.537
469.943, 2246.894
471.277, 1522.218
472.610, 1147.579
473.944, 860.949
475.277, 713.267
476.610, 542.613
477.943, 455.943
479.275, 372.268
480.608, 322.635
481.940, 308.038
483.272, 262.371
484.604, 234.732
485.935, 217.054
487.267, 212.460
488.598, 189.790
489.929, 185.205
491.260, 151.559
492.590, 152.020
493.920, 130.396
495.250, 124.818
496.580, 129.255
497.910, 93.673
499.239, 101.039
500.569, 82.466
501.898, 97.828
503.226, 95.265
504.555, 80.717
505.883, 76.174
507.212, 80.556
508.540, 77.992
509.867, 43.354
511.195, 71.719
512.522, 78.171
513.849, 46.585
515.176, 62.031
516.503, 64.501
517.829, 63.959
519.156, 69.870
520.482, 48.890
521.808, 71.367
523.133, 53.840
524.459, 52.226
525.784, 30.691
527.109, 62.161
528.434, 57.590
529.758, 49.062
531.083, 42.543
532.407, 48.069
533.731, 61.560
535.055, 48.078
536.378, 40.607
537.701, 54.075
539.025, 34.549
540.348, 33.040
541.670, 31.812
542.993, 44.304
544.315, 28.774
545.637, 32.240
546.959, 37.711
548.281, 30.139
549.602, 29.610
550.923, 34.080
552.244, 29.833
553.565, 33.068
554.886, 25.986
556.206, 32.758
557.526, 27.382
558.846, 18.880
560.166, 47.351
561.486, 45.091
562.805, 39.561
564.124, 29.103
565.443, 13.629
566.762, 42.098
568.080, 36.779
569.399, 46.285
570.717, 27.860
572.035, 3.376
573.352, 26.876
574.670, 36.397
575.987, 17.861
577.304, 16.427
578.621, 38.335
579.938, 20.839
581.254, 20.302
582.570, 40.774
583.886, 57.236
585.202, 34.207
586.518, 39.824
587.833, 68.330
589.148, 64.052
590.463, 54.510
591.778, 56.968
593.093, 62.472
594.407, 50.990
595.721, 73.544
597.035, 81.000
598.349, 106.123
599.662, 96.683
600.976, 100.260
602.289, 115.111
603.602, 129.619
604.914, 153.071
606.227, 193.546
607.539, 207.539
608.851, 288.038
610.163, 390.859
611.475, 576.396
612.786, 889.906
614.097, 1342.429
615.408, 1996.912
616.719, 2390.383
618.030, 2427.829
619.340, 2138.269
620.651, 1681.729
621.961, 1355.191
623.270, 1065.628
624.580, 928.190
625.889, 909.626
627.199, 966.075
628.507, 1093.530
629.816, 1171.960
631.125, 1152.756
632.433, 971.184
633.741, 758.611
635.049, 577.231
636.357, 442.671
637.664, 328.376
638.972, 284.820
640.279, 257.270
641.586, 255.056
642.893, 261.661
644.199, 343.532
645.505, 413.190
646.811, 443.750
648.117, 462.284
649.423, 412.688
650.728, 311.107
652.034, 237.508
653.339, 177.922
654.644, 111.319
655.948, 94.714
657.253, 78.106
658.557, 70.497
659.861, 38.891
661.165, 34.277
662.468, 11.684
663.772, 14.065
665.075, 16.444
666.378, 23.821
667.681, 27.195
668.983, 22.582
670.286, 32.126
671.588, 12.493
672.890, 3.007
674.192, 10.369
675.493, 4.728
676.795, 2.084
678.096, 19.437
679.397, 13.788
680.697, 10.136
681.998, 10.518
683.298, 9.822
684.598, 31.242
685.898, 15.577
687.198, 26.154
688.498, 13.495
689.797, 15.997
691.096, 25.322
692.395, 9.357
693.694, 5.960
694.992, 4.727
696.290, 9.910
697.589, 3.396
698.886, 8.904
700.184, 24.367
701.482, 8.339
702.779, 18.949
704.076, 0.383
705.373, 2.665
706.669, 28.943
707.966, 5.781
709.262, 6.489
710.558, 1.244
711.854, 4.020
713.150, 7.243
714.445, 2.500
715.740, 20.814
717.035, 0.935
718.330, 15.688
719.625, 5.552
720.919, 14.788
722.214, 12.022
723.508, 22.253
724.801, 18.520
726.095, 3.299
727.388, 3.916
728.682, 7.872
729.975, 23.335
731.267, 22.539
732.560, 3.740
733.852, 0.938
735.145, 0.868
736.437, 13.340
737.728, 25.193
739.020, 1.015
740.311, 1.841
741.603, 13.660
742.894, 1.503
744.184, 18.663
745.475, 7.819
746.765, 20.027
748.055, 2.119
749.345, 12.739
750.635, 0.603
751.925, 0.543
753.214, 0.165
754.503, 3.781
755.792, 5.902
757.081, 11.021
758.370, 16.136
759.658, 7.248
760.946, 6.357
762.234, 15.463
763.522, 2.434
764.809, 10.665
766.097, 7.761
767.384, 5.854
768.671, 24.944
769.958, 12.969
771.244, 16.112
772.530, 10.190
773.817, 5.735
775.102, 6.336
776.388, 9.597
777.674, 4.465
778.959, 2.524
780.244, 13.421
781.529, 5.786
782.814, 17.327
784.098, 8.289
785.383, 4.257
786.667, 3.229
787.951, 14.795
789.235, 4.817
790.518, 13.835
791.801, 4.851
793.084, 29.864
794.367, 15.875
795.650, 12.882
796.933, 11.888
798.215, 5.890
799.497, 18.890
800.779, 1.887
802.061, 18.869
803.342, 6.858
804.624, 12.848
805.905, 32.835
807.186, 2.819
808.466, 6.199
809.747, 5.779
811.027, 5.255
812.307, 17.662
813.587, 15.611
814.867, 26.532
816.146, 12.438
817.426, 14.400
818.705, 9.356
819.984, 8.293
821.263, 4.946
822.541, 3.123
823.819, 6.827
825.098, 10.225
826.375, 0.718
827.653, 7.347
828.931, 6.590
830.208, 2.525
831.485, 12.174
832.762, 21.065
834.039, 22.183
835.315, 9.563
836.592, 9.202
837.868, 7.910
839.144, 18.002
840.420, 2.643
841.695, 7.449
842.970, 26.384
844.246, 13.231
845.521, 10.132
846.795, 21.820
848.070, 19.679
849.344, 17.469
850.618, 2.314
851.892, 22.174
853.166, 3.990
854.440, 28.899
855.713, 35.687
856.986, 36.129
858.259, 34.974
859.532, 35.446
860.804, 2.730
862.077, 30.612
863.349, 23.982
864.621, 20.705
865.893, 40.536
867.164, 15.151
868.436, 21.026
869.707, 16.901
870.978, 8.728
872.248, 25.539
873.519, 1.688
874.789, 15.818
876.060, 22.382
877.330, 16.143
878.599, 1.115
879.869, 34.352
881.138, 5.160
882.408, 2.022
883.677, 29.860
884.945, 8.177
886.214, 29.988
887.482, 15.475
888.751, 20.244
890.019, 17.038
891.287, 16.051
892.554, 14.637
893.822, 27.465
895.089, 52.318
896.356, 77.175
897.623, 64.011
898.889, 54.843
900.156, 56.699
901.422, 71.429
902.688, 68.282
903.954, 56.123
905.220, 60.955
906.485, 52.870
907.750, 64.298
909.015, 48.154
910.280, 44.008
911.545, 50.668
912.809, 74.506
914.074, 72.078
915.338, 43.909
916.602, 41.732
917.865, 75.218
919.129, 34.884
920.392, 56.283
921.655, 76.893
922.918, 60.599
924.181, 69.331
925.443, 72.191
926.706, 71.034
927.968, 58.895
929.230, 63.741
930.491, 48.603
931.753, 56.466
933.014, 44.329
934.276, 62.194
935.536, 62.053
936.797, 76.919
938.058, 81.763
939.318, 74.632
940.578, 74.501
941.838, 79.373
943.098, 74.870
944.358, 78.105
945.617, 78.806
946.876, 92.683
948.135, 108.411
949.394, 99.290
950.653, 123.171
951.911, 89.052
953.169, 128.936
954.427, 120.820
955.685, 107.706
956.943, 134.593
958.200, 124.483
959.458, 146.292
960.715, 198.185
961.971, 197.834
963.228, 255.718
964.485, 301.441
965.741, 375.340
966.997, 374.241
968.253, 384.144
969.508, 396.050
970.764, 453.450
972.019, 523.150
973.274, 584.064
974.529, 681.812
975.784, 759.729
977.039, 933.650
978.293, 1165.423
979.547, 1615.348
980.801, 2208.275
982.055, 3332.204
983.308, 5595.137
984.562, 10854.070
985.815, 26943.008
987.068, 51051.953
988.321, 57940.891
989.573, 43099.773
990.826, 24298.717
992.078, 14077.667
993.330, 8097.620
994.582, 4652.575
995.833, 2986.533
997.085, 1940.493
998.336, 1401.455
999.587, 1145.422
1000.838, 990.393
1002.088, 799.365
1003.339, 700.341
1004.589, 593.320
1005.839, 534.301
1007.089, 461.285
1008.339, 411.271
1009.588, 374.243
1010.838, 313.955
1012.087, 292.363
1013.336, 294.953
1014.584, 252.946
1015.833, 253.954
1017.081, 253.965
1018.330, 257.979
1019.577, 253.419
1020.825, 232.016
1022.073, 241.041
1023.320, 221.069
1024.567, 204.101
1025.814, 236.136
1027.061, 211.174
1028.308, 219.215
1029.554, 208.259
1030.800, 171.305
1032.046, 139.354
1033.292, 129.406
1034.538, 89.461
1035.783, 101.519
1037.029, 120.580
1038.274, 63.644
1039.519, 72.711
1040.763, 51.782
1042.008, 69.855
1043.252, 49.934
1044.496, 61.015
1045.740, 48.100
1046.984, 44.189
1048.228, 53.281
1049.471, 74.376
1050.714, 57.475
1051.957, 46.578
1053.200, 38.684
1054.442, 76.820
1055.685, 51.937
1056.927, 52.103
1058.169, 81.228
1059.411, 33.357
1060.652, 65.488
1061.894, 41.624
1063.135, 41.763
1064.376, 41.905
1065.617, 15.052
1066.858, 62.204
1068.098, 37.414
1069.339, 38.573
1070.579, 32.736
1071.819, 54.973
1073.058, 64.142
1074.298, 78.315
1075.537, 74.727
1076.776, 95.906
1078.015, 93.183
1079.254, 125.368
1080.493, 199.558
1081.731, 232.752
1082.969, 268.950
1084.207, 248.152
1085.445, 228.356
1086.683, 210.574
1087.920, 137.785
1089.157, 83.999
1090.394, 75.215
1091.631, 94.435
1092.868, 69.658
1094.105, 72.885
1095.341, 61.114
1096.577, 49.348
1097.813, 90.586
1099.049, 96.827
1100.284, 164.074
1101.519, 216.323
1102.755, 238.575
1103.990, 267.833
1105.224, 208.097
1106.459, 192.366
1107.693, 127.637
1108.928, 75.914
1110.162, 80.193
1111.395, 49.475
1112.629, 35.761
1113.863, 75.049
1115.096, 53.342
1116.329, 71.636
1117.562, 26.934
1118.795, 38.234
1120.027, 96.536
1121.259, 89.841
1122.492, 119.149
1123.723, 147.459
1124.955, 98.773
1126.187, 145.088
1127.418, 149.406
1128.649, 148.727
1129.880, 176.051
1131.111, 262.379
1132.342, 284.710
1133.572, 438.044
1134.802, 562.380
1136.033, 791.719
1137.262, 1068.061
1138.492, 1268.406
1139.722, 1428.752
1140.951, 1586.102
1142.180, 1826.453
1143.409, 1894.809
1144.638, 1864.168
1145.866, 1655.530
1147.095, 1417.894
1148.323, 1141.260
1149.551, 916.629
1150.779, 695.000
1152.006, 565.372
1153.234, 441.747
1154.461, 348.125
1155.688, 324.504
1156.915, 250.885
1158.141, 232.282
1159.368, 211.669
1160.594, 186.058
1161.820, 213.448
1163.046, 277.841
1164.272, 326.237
1165.498, 336.284
1166.723, 367.035
1167.948, 326.436
1169.173, 305.839
1170.398, 236.244
1171.623, 182.807
1172.847, 154.215
1174.071, 99.625
1175.295, 80.218
1176.519, 70.631
1177.743, 43.121
1178.966, 65.537
1180.190, 47.954
1181.413, 24.398
1182.636, 14.818
1183.858, 43.240
1185.081, 38.672
1186.303, 3.501
1187.526, 19.924
1188.748, 5.650
1189.969, 23.777
1191.191, 27.205
1192.412, 2.634
1193.634, 5.152
1194.855, 27.852
1196.076, 5.284
1197.296, 10.161
1198.517, 0.594
1199.737, 6.655
1200.957, 15.185
1202.177, 33.681
1203.397, 7.883
1204.617, 6.663
1205.836, 35.122
1207.055, 17.389
1208.274, 31.261
1209.493, 9.283
1210.712, 30.152
1211.930, 54.976
1213.148, 26.445
1214.367, 10.144
1215.584, 17.581
1216.802, 7.018
1218.020, 1.545
1219.237, 46.092
1220.454, 17.550
1221.671, 33.044
1222.888, 33.482
1224.105, 15.127
1225.321, 39.565
1226.537, 21.046
1227.753, 7.493
1228.969, 12.194
1230.185, 13.940
1231.400, 15.627
1232.616, 37.072
1233.831, 40.508
1235.046, 48.634
1236.261, 36.135
1237.475, 56.859
1238.689, 41.294
1239.904, 59.080
1241.118, 84.586
1242.332, 8.053
1243.545, 40.501
1244.759, 30.935
1245.972, 35.657
1247.185, 56.088
1248.398, 39.543
1249.611, 33.975
1250.823, 45.408
1252.036, 42.841
1253.248, 55.275
1254.460, 24.766
1255.671, 6.201
1256.883, 26.635
1258.095, 47.079
1259.306, 49.514
1260.517, 46.238
1261.728, 50.391
1262.938, 47.481
1264.149, 47.021
1265.359, 46.458
1266.569, 55.894
1267.779, 63.359
1268.989, 65.645
1270.199, 59.499
1271.408, 71.935
1272.617, 44.371
1273.826, 42.216
1275.035, 58.651
1276.244, 33.086
1277.452, 51.552
1278.661, 46.835
1279.869, 15.417
1281.077, 33.861
1282.285, 41.290
1283.492, 6.719
1284.700, 36.147
1285.907, 17.600
1287.114, 18.025
1288.321, 1.736
1289.527, 20.160
1290.734, 16.677
1291.940, 18.091
1293.146, 46.501
1294.352, 17.209
1295.558, 23.633
1296.763, 21.036
1297.969, 47.438
1299.174, 42.837
1300.379, 37.236
1301.584, 4.369
1302.788, 15.024
1303.993, 19.415
1305.197, 5.201
1306.401, 15.175
1307.605, 0.453
1308.809, 13.915
1310.013, 55.280
1311.216, 3.643
1312.419, 26.002
1313.622, 24.359
1314.825, 7.715
1316.028, 13.931
1317.230, 39.396
1318.432, 15.744
1319.634, 21.039
1320.836, 29.376
1322.038, 30.710
1323.240, 0.038
1324.441, 7.636
1325.642, 36.680
1326.843, 15.006
1328.044, 12.303
1329.245, 9.393
1330.445, 13.146
1331.645, 2.150
1332.845, 18.438
1334.045, 0.350
1335.245, 7.929
1336.445, 3.201
1337.644, 4.769
1338.843, 8.494
1340.042, 18.659
1341.241, 12.086
1342.440, 6.164
1343.638, 6.590
1344.836, 13.652
1346.034, 21.889
1347.232, 18.123
1348.430, 3.658
1349.628, 9.566
1350.825, 3.787
1352.022, 25.004
1353.219, 3.783
1354.416, 17.426
1355.613, 5.630
1356.809, 12.831
1358.005, 5.972
1359.202, 36.221
1360.398, 18.590
1361.593, 13.593
1362.789, 37.773
1363.984, 24.050
1365.179, 4.147
1366.374, 6.685
1367.569, 19.479
1368.764, 9.312
1369.958, 3.845
1371.153, 8.998
1372.347, 13.148
1373.541, 21.433
1374.735, 6.410
1375.928, 41.539
1377.122, 11.932
1378.315, 32.323
1379.508, 22.713
1380.701, 34.101
1381.893, 35.149
1383.086, 6.871
1384.278, 30.248
1385.470, 30.622
1386.662, 16.992
1387.854, 24.359
1389.046, 5.276
1390.237, 8.918
1391.428, 15.438
1392.619, 5.792
1393.810, 20.143
1395.001, 38.492
1396.191, 4.162
1397.382, 16.163
1398.572, 45.500
1399.762, 22.832
1400.952, 36.161
1402.141, 9.513
1403.331, 32.612
1404.520, 22.931
1405.709, 15.011
1406.898, 26.224
1408.087, 23.500
1409.275, 19.806
1410.464, 36.546
1411.652, 31.842
1412.840, 28.136
1414.028, 17.303
1415.215, 31.206
1416.403, 4.160
1417.590, 20.045
1418.777, 5.211
1419.964, 39.266
1421.151, 23.107
1422.338, 4.675
1423.524, 17.904
1424.710, 41.717
1425.896, 38.949
1427.082, 56.811
1428.268, 28.940
1429.453, 59.805
1430.639, 73.929
1431.824, 47.676
1433.009, 73.857
1434.194, 52.780
1435.378, 50.288
1436.563, 84.775
1437.747, 98.713
1438.931, 95.819
1440.115, 77.371
1441.299, 111.440
1442.482, 104.543
1443.666, 144.512
1444.849, 113.588
1446.032, 115.632
1447.215, 144.181
1448.397, 159.950
1449.580, 121.930
1450.762, 151.180
1451.944, 176.108
1453.126, 144.983
1454.308, 153.850
1455.490, 154.618
1456.671, 158.413
1457.852, 159.229
1459.033, 113.948
1460.214, 137.878
1461.395, 115.315
1462.575, 130.063
1463.756, 86.780
1464.936, 108.475
1466.116, 91.149
1467.296, 91.801
1468.475, 81.450
1469.655, 105.135
1470.834, 80.825
1472.013, 36.498
1473.192, 87.148
1474.371, 38.766
1475.550, 69.378
1476.728, 77.999
1477.906, 41.622
1479.084, 40.267
1480.262, 49.896
1481.440, 35.507
1482.617, 65.159
1483.795, 49.841
1484.972, 49.552
1486.149, 40.270
1487.326, 65.992
1488.502, 36.721
1489.679, 52.466
1490.855, 38.233
1492.031, 8.026
1493.207, 16.853
1494.383, 16.714
1495.559, 4.612
1496.734, 37.561
1497.909, 45.951
1499.084, 28.867
1500.259, 1.288
1501.434, 9.434
1502.608, 0.000
##END=



