##NAMES=Baryte
##RRUFFID=R040036
##IDEAL CHEMISTRY=BaS^6+^O_4_
##LOCALITY=Cumbria County, England
##OWNER=RRUFF
##SOURCE=University of Arizona Mineral Museum
##DESCRIPTION=Golden brown tabular crystal
##STATUS=The identification of this mineral has been confirmed by X-ray diffraction and chemical analysis
##URL=rruff.info/R040036
##MEASURED CHEMISTRY=Ba_1.00_S_1.00_O_4_; trace amounts of Pb
##PIN_ID=M00019
##ORIENTATION=Laser parallel to b* (0 1 0). Fiducial mark perpendicular to laser is parallel to c [0 0 1]
26.288, 0.000
27.694, 10.007
29.099, 0.759
30.504, 33.738
31.909, 55.712
33.313, 43.516
34.717, 12.327
36.121, 35.331
37.525, 26.371
38.929, 30.388
40.332, 48.798
41.735, 46.028
43.138, 32.298
44.541, 48.658
45.943, 37.400
47.345, 38.128
48.747, 48.957
50.149, 39.689
51.551, 52.206
52.952, 51.676
54.353, 47.074
55.754, 54.725
57.155, 56.673
58.555, 55.205
59.955, 64.511
61.355, 53.592
62.755, 64.573
64.154, 61.419
65.553, 56.965
66.952, 46.657
68.351, 57.443
69.750, 68.217
71.148, 50.000
72.546, 42.789
73.944, 21.583
75.342, 35.390
76.739, 1.213
78.136, 5.039
79.533, 14.866
80.930, 5.694
82.327, 0.520
83.723, 6.657
85.119, 12.860
86.515, 12.945
87.910, 20.236
89.306, 18.446
90.701, 12.669
92.096, 28.902
93.490, 12.138
94.885, 4.383
96.279, 16.365
97.673, 25.102
99.067, 32.832
100.461, 19.550
101.854, 34.279
103.247, 31.065
104.640, 23.896
106.032, 42.762
107.425, 34.655
108.817, 44.568
110.209, 79.494
111.601, 116.428
112.992, 132.937
114.384, 160.999
115.775, 187.218
117.166, 176.133
118.556, 217.034
119.947, 172.916
121.337, 174.837
122.727, 152.934
124.116, 136.968
125.506, 117.193
126.895, 133.157
128.284, 141.036
129.673, 159.919
131.062, 181.725
132.450, 160.630
133.838, 167.520
135.226, 149.329
136.614, 154.120
138.001, 135.980
139.388, 133.761
140.775, 110.471
142.162, 124.252
143.549, 114.869
144.935, 113.465
146.321, 162.079
147.707, 174.586
149.093, 208.266
150.478, 249.923
151.863, 311.569
153.248, 327.096
154.633, 328.534
156.018, 337.089
157.402, 322.704
158.786, 313.471
160.170, 271.129
161.554, 204.655
162.937, 162.219
164.320, 146.805
165.703, 114.359
167.086, 108.812
168.469, 91.368
169.851, 106.950
171.233, 99.405
172.615, 96.813
173.996, 108.306
175.378, 115.822
176.759, 128.498
178.140, 135.748
179.521, 162.794
180.901, 198.914
182.281, 268.875
183.662, 345.813
185.041, 464.426
186.421, 620.136
187.800, 710.782
189.180, 818.242
190.558, 830.697
191.937, 775.045
193.316, 626.224
194.694, 492.427
196.072, 365.489
197.450, 284.397
198.827, 219.352
200.205, 164.166
201.582, 163.033
202.959, 133.787
204.336, 112.441
205.712, 108.105
207.088, 98.604
208.465, 95.997
209.840, 86.385
211.216, 74.668
212.591, 72.982
213.967, 64.432
215.341, 72.754
216.716, 55.970
218.091, 51.141
219.465, 65.376
220.839, 45.571
222.213, 48.692
223.586, 29.657
224.960, 61.754
226.333, 47.372
227.706, 71.106
229.079, 46.945
230.451, 41.775
231.823, 65.427
233.195, 45.918
234.567, 72.245
235.939, 49.679
237.310, 35.775
238.682, 37.961
240.052, 39.231
241.423, 38.122
242.794, 40.401
244.164, 44.861
245.534, 28.670
246.904, 18.559
248.274, 38.517
249.643, 26.351
251.012, 38.319
252.381, 29.254
253.750, 42.121
255.118, 29.125
256.487, 26.110
257.855, 41.114
259.223, 37.275
260.590, 46.525
261.958, 32.733
263.325, 34.955
264.692, 38.151
266.059, 42.342
267.425, 46.527
268.791, 31.707
270.158, 23.880
271.523, 26.047
272.889, 30.208
274.255, 24.361
275.620, 30.508
276.985, 36.649
278.350, 36.784
279.714, 39.914
281.078, 47.038
282.443, 33.157
283.806, 29.271
285.170, 12.379
286.534, 35.481
287.897, 0.578
289.260, 20.669
290.623, 19.755
291.985, 12.836
293.348, 26.912
294.710, 27.983
296.072, 28.050
297.433, 16.113
298.795, 19.170
300.156, 17.223
301.517, 21.271
302.878, 18.315
304.239, 28.354
305.599, 28.389
306.959, 21.419
308.319, 11.444
309.679, 15.464
311.038, 8.480
312.398, 20.491
313.757, 26.497
315.116, 23.499
316.474, 30.497
317.833, 26.491
319.191, 6.481
320.549, 15.466
321.907, 9.448
323.264, 13.424
324.622, 22.387
325.979, 11.337
327.336, 9.275
328.692, 21.202
330.049, 6.117
331.405, 31.021
332.761, 11.917
334.117, 1.198
335.473, 18.677
336.828, 17.543
338.183, 18.401
339.538, 20.250
340.893, 12.093
342.247, 13.927
343.602, 31.819
344.956, 19.027
346.310, 25.333
347.663, 10.203
349.017, 18.007
350.370, 18.806
351.723, 4.600
353.076, 21.388
354.428, 24.173
355.780, 15.954
357.133, 18.732
358.484, 18.506
359.836, 5.723
361.188, 1.010
362.539, 10.772
363.890, 29.462
365.241, 25.305
366.591, 14.860
367.942, 22.498
369.292, 14.151
370.642, 12.715
371.992, 25.428
373.341, 15.077
374.691, 22.823
376.040, 1.527
377.388, 13.101
378.737, 11.841
380.086, 15.495
381.434, 3.760
382.782, 33.921
384.130, 16.544
385.477, 27.185
386.825, 51.837
388.172, 26.493
389.519, 35.165
390.865, 44.862
392.212, 28.486
393.558, 42.063
394.904, 28.733
396.250, 49.348
397.596, 32.019
398.941, 40.663
400.286, 32.353
401.631, 18.982
402.976, 35.598
404.321, 35.304
405.665, 15.971
407.009, 51.680
408.353, 19.323
409.697, 44.976
411.040, 51.643
412.384, 42.328
413.727, 32.032
415.070, 45.667
416.412, 59.265
417.755, 33.872
419.097, 67.498
420.439, 74.097
421.781, 70.724
423.122, 90.379
424.464, 101.034
425.805, 133.702
427.146, 145.404
428.486, 156.042
429.827, 221.661
431.167, 234.201
432.507, 298.848
433.847, 332.306
435.187, 447.884
436.526, 536.457
437.865, 672.999
439.204, 892.606
440.543, 1128.218
441.882, 1480.830
443.220, 1967.385
444.558, 2645.955
445.896, 3768.515
447.234, 5185.095
448.572, 7064.662
449.909, 9270.276
451.246, 10864.891
452.583, 11674.472
453.919, 10244.006
455.256, 7989.560
456.592, 5758.080
457.928, 4036.657
459.264, 2882.261
460.600, 2063.851
461.935, 1486.473
463.270, 1143.078
464.605, 863.588
465.940, 660.142
467.274, 518.668
468.609, 399.214
469.943, 325.801
471.277, 291.339
472.610, 240.866
473.944, 203.449
475.277, 187.963
476.610, 152.593
477.943, 129.136
479.275, 106.604
480.608, 95.182
481.940, 108.756
483.272, 93.335
484.604, 83.923
485.935, 57.474
487.267, 78.033
488.598, 65.677
489.929, 69.263
491.260, 79.879
492.590, 55.426
493.920, 59.010
495.250, 56.600
496.580, 63.124
497.910, 42.728
499.239, 52.346
500.569, 40.927
501.898, 45.521
503.226, 44.116
504.555, 48.542
505.883, 52.057
507.212, 58.621
508.540, 31.273
509.867, 42.907
511.195, 38.493
512.522, 45.117
513.849, 37.704
515.176, 52.286
516.503, 49.927
517.829, 76.521
519.156, 40.152
520.482, 59.660
521.808, 43.248
523.133, 49.830
524.459, 62.429
525.784, 53.918
527.109, 51.574
528.434, 51.183
529.758, 29.840
531.083, 42.497
532.407, 47.154
533.731, 34.810
535.055, 20.467
536.378, 42.123
537.701, 28.778
539.025, 46.433
540.348, 30.089
541.670, 8.744
542.993, 33.401
544.315, 26.086
545.637, 13.716
546.959, 7.410
548.281, 31.068
549.602, 32.687
550.923, 25.385
552.244, 31.021
553.565, 20.675
554.886, 28.329
556.206, 38.984
557.526, 33.640
558.846, 18.508
560.166, 24.163
561.486, 12.814
562.805, 34.600
564.124, 16.320
565.443, 38.970
566.762, 22.675
568.080, 31.338
569.399, 30.071
570.717, 26.881
572.035, 26.548
573.352, 27.244
574.670, 37.900
575.987, 34.625
577.304, 35.280
578.621, 17.049
579.938, 22.993
581.254, 38.704
582.570, 20.379
583.886, 31.016
585.202, 38.653
586.518, 27.304
587.833, 23.951
589.148, 36.800
590.463, 21.778
591.778, 36.560
593.093, 40.285
594.407, 25.953
595.721, 40.595
597.035, 44.244
598.349, 37.876
599.662, 35.536
600.976, 51.183
602.289, 72.823
603.602, 75.632
604.914, 79.279
606.227, 113.926
607.539, 141.823
608.851, 196.687
610.163, 272.426
611.475, 447.155
612.786, 715.062
614.097, 1123.680
615.408, 1506.291
616.719, 1617.170
618.030, 1454.779
619.340, 1139.709
620.651, 914.003
621.961, 723.608
623.270, 598.559
624.580, 572.197
625.889, 599.898
627.199, 654.496
628.507, 728.095
629.816, 793.050
631.125, 771.665
632.433, 707.439
633.741, 601.228
635.049, 570.963
636.357, 589.712
637.664, 636.476
638.972, 693.201
640.279, 863.905
641.586, 1064.598
642.893, 1373.284
644.199, 1828.984
645.505, 2182.839
646.811, 2352.410
648.117, 2224.529
649.423, 1820.153
650.728, 1297.718
652.034, 924.395
653.339, 635.321
654.644, 437.052
655.948, 321.608
657.253, 238.161
658.557, 196.713
659.861, 159.391
661.165, 99.937
662.468, 85.487
663.772, 69.029
665.075, 49.569
666.378, 53.280
667.681, 41.816
668.983, 56.699
670.286, 43.230
671.588, 31.757
672.890, 21.386
674.192, 24.077
675.493, 16.645
676.795, 31.161
678.096, 19.675
679.397, 41.186
680.697, 17.981
681.998, 20.486
683.298, 28.390
684.598, 10.047
685.898, 23.544
687.198, 8.281
688.498, 15.750
689.797, 34.403
691.096, 6.888
692.395, 18.575
693.694, 28.140
694.992, 25.790
696.290, 21.574
697.589, 16.052
698.886, 4.482
700.184, 15.979
701.482, 22.436
702.779, 0.951
704.076, 2.499
705.373, 25.945
706.669, 4.387
707.966, 12.826
709.262, 1.262
710.558, 2.306
711.854, 11.121
713.150, 4.544
714.445, 12.964
715.740, 1.381
717.035, 12.793
718.330, 0.797
719.625, 8.393
720.919, 2.006
722.214, 7.401
723.508, 20.792
724.801, 17.909
726.095, 11.565
727.388, 11.946
728.682, 4.676
729.975, 10.303
731.267, 1.937
732.560, 0.424
733.852, 5.782
735.145, 11.135
736.437, 9.068
737.728, 12.676
739.020, 6.176
740.311, 8.516
741.603, 9.913
742.894, 3.754
744.184, 7.574
745.475, 6.899
746.765, 7.780
748.055, 6.464
749.345, 1.155
750.635, 0.849
751.925, 8.549
753.214, 10.746
754.503, 13.038
755.792, 7.674
757.081, 16.609
758.370, 10.112
759.658, 25.839
760.946, 12.425
762.234, 11.315
763.522, 2.939
764.809, 0.811
766.097, 10.435
767.384, 9.678
768.671, 12.082
769.958, 5.151
771.244, 4.619
772.530, 5.394
773.817, 3.175
775.102, 3.959
776.388, 4.749
777.674, 3.208
778.959, 2.432
780.244, 2.145
781.529, 1.953
782.814, 2.764
784.098, 9.580
785.383, 11.599
786.667, 21.226
787.951, 0.059
789.235, 9.105
790.518, 2.734
791.801, 13.578
793.084, 5.427
794.367, 9.718
795.650, 9.861
796.933, 11.001
798.215, 3.862
799.497, 17.271
800.779, 3.401
802.061, 5.528
803.342, 6.652
804.624, 6.226
805.905, 9.891
807.186, 13.994
808.466, 11.114
809.747, 10.220
811.027, 3.677
812.307, 6.577
813.587, 1.482
814.867, 6.610
816.146, 3.699
817.426, 11.786
818.705, 12.130
819.984, 1.949
821.263, 17.974
822.541, 6.904
823.819, 21.133
825.098, 10.803
826.375, 7.218
827.653, 7.727
828.931, 10.325
830.208, 9.668
831.485, 4.622
832.762, 8.579
834.039, 14.540
835.315, 0.506
836.592, 6.522
837.868, 12.337
839.144, 18.362
840.420, 8.613
841.695, 1.274
842.970, 2.225
844.246, 3.242
845.521, 21.203
846.795, 24.201
848.070, 27.127
849.344, 17.973
850.618, 21.959
851.892, 0.913
853.166, 9.906
854.440, 20.827
855.713, 38.816
856.986, 22.688
858.259, 41.382
859.532, 34.308
860.804, 49.268
862.077, 38.262
863.349, 22.255
864.621, 51.231
865.893, 34.209
867.164, 2.983
868.436, 8.625
869.707, 17.462
870.978, 12.352
872.248, 14.727
873.519, 6.268
874.789, 7.228
876.060, 11.204
877.330, 3.150
878.599, 5.894
879.869, 5.067
881.138, 16.857
882.408, 29.807
883.677, 29.772
884.945, 17.450
886.214, 26.177
887.482, 20.028
888.751, 14.887
890.019, 6.566
891.287, 63.531
892.554, 45.503
893.822, 60.205
895.089, 77.176
896.356, 36.822
897.623, 62.104
898.889, 83.074
900.156, 72.695
901.422, 70.628
902.688, 58.496
903.954, 65.466
905.220, 67.433
906.485, 63.711
907.750, 77.991
909.015, 59.778
910.280, 59.548
911.545, 50.372
912.809, 22.180
914.074, 41.971
915.338, 54.800
916.602, 32.649
917.865, 34.507
919.129, 54.371
920.392, 54.219
921.655, 40.911
922.918, 32.887
924.181, 40.312
925.443, 31.233
926.706, 52.211
927.968, 37.076
929.230, 47.690
930.491, 52.498
931.753, 25.480
933.014, 67.463
934.276, 84.448
935.536, 58.304
936.797, 57.291
938.058, 63.273
939.318, 70.262
940.578, 59.253
941.838, 76.071
943.098, 74.065
944.358, 65.710
945.617, 65.707
946.876, 58.705
948.135, 71.601
949.394, 62.434
950.653, 95.389
951.911, 102.394
953.169, 94.401
954.427, 91.410
955.685, 121.135
956.943, 135.148
958.200, 137.745
959.458, 168.604
960.715, 172.624
961.971, 225.402
963.228, 286.426
964.485, 317.211
965.741, 404.314
966.997, 412.139
968.253, 438.086
969.508, 484.152
970.764, 543.672
972.019, 613.704
973.274, 701.748
974.529, 808.795
975.784, 950.846
977.039, 1194.740
978.293, 1582.796
979.547, 2163.856
980.801, 3226.918
982.055, 5241.984
983.308, 9420.053
984.562, 20909.127
985.815, 46328.199
987.068, 64737.281
988.321, 57566.363
989.573, 34465.445
990.826, 18084.533
992.078, 10273.628
993.330, 5871.724
994.582, 3518.824
995.833, 2356.928
997.085, 1701.036
998.336, 1319.147
999.587, 1055.261
1000.838, 895.379
1002.088, 797.500
1003.339, 690.626
1004.589, 585.756
1005.839, 517.015
1007.089, 401.029
1008.339, 390.172
1009.588, 333.318
1010.838, 282.467
1012.087, 289.620
1013.336, 266.777
1014.584, 252.878
1015.833, 208.042
1017.081, 216.211
1018.330, 237.384
1019.577, 198.561
1020.825, 171.743
1022.073, 189.930
1023.320, 205.121
1024.567, 195.316
1025.814, 167.517
1027.061, 136.722
1028.308, 139.931
1029.554, 100.145
1030.800, 109.362
1032.046, 99.586
1033.292, 64.817
1034.538, 80.052
1035.783, 49.293
1037.029, 63.538
1038.274, 67.787
1039.519, 59.041
1040.763, 46.298
1042.008, 53.562
1043.252, 36.830
1044.496, 55.102
1045.740, 48.536
1046.984, 35.663
1048.228, 44.951
1049.471, 37.244
1050.714, 28.542
1051.957, 11.844
1053.200, 43.152
1054.442, 59.464
1055.685, 40.781
1056.927, 62.104
1058.169, 36.431
1059.411, 28.765
1060.652, 35.104
1061.894, 31.446
1063.135, 17.794
1064.376, 32.148
1065.617, 38.507
1066.858, 6.870
1068.098, 8.241
1069.339, 13.616
1070.579, 41.996
1071.819, 30.381
1073.058, 23.771
1074.298, 53.167
1075.537, 38.567
1076.776, 53.973
1078.015, 43.383
1079.254, 50.802
1080.493, 91.226
1081.731, 75.656
1082.969, 110.094
1084.207, 98.539
1085.445, 47.989
1086.683, 84.444
1087.920, 92.904
1089.157, 97.372
1090.394, 118.847
1091.631, 120.327
1092.868, 141.815
1094.105, 205.309
1095.341, 265.806
1096.577, 372.311
1097.813, 554.820
1099.049, 775.338
1100.284, 1105.862
1101.519, 1450.393
1102.755, 1735.932
1103.990, 1796.475
1105.224, 1548.026
1106.459, 1202.581
1107.693, 881.140
1108.928, 629.704
1110.162, 487.273
1111.395, 372.848
1112.629, 316.430
1113.863, 216.016
1115.096, 184.606
1116.329, 165.201
1117.562, 158.800
1118.795, 133.403
1120.027, 152.011
1121.259, 144.623
1122.492, 181.239
1123.723, 185.422
1124.955, 163.484
1126.187, 222.113
1127.418, 241.746
1128.649, 282.383
1129.880, 403.025
1131.111, 526.671
1132.342, 787.320
1133.572, 1135.975
1134.802, 1711.632
1136.033, 2416.295
1137.262, 2865.961
1138.492, 2888.631
1139.722, 2481.306
1140.951, 2156.984
1142.180, 1963.666
1143.409, 1744.353
1144.638, 1516.043
1145.866, 1267.737
1147.095, 1019.436
1148.323, 852.138
1149.551, 699.845
1150.779, 599.557
1152.006, 504.272
1153.234, 460.993
1154.461, 406.717
1155.688, 403.446
1156.915, 416.179
1158.141, 468.915
1159.368, 562.656
1160.594, 725.400
1161.820, 953.148
1163.046, 1275.899
1164.272, 1635.724
1165.498, 1849.482
1166.723, 1731.245
1167.948, 1546.011
1169.173, 1247.789
1170.398, 972.562
1171.623, 750.338
1172.847, 575.117
1174.071, 465.900
1175.295, 375.686
1176.519, 294.475
1177.743, 267.267
1178.966, 200.062
1180.190, 165.860
1181.413, 151.662
1182.636, 111.466
1183.858, 114.274
1185.081, 108.084
1186.303, 84.897
1187.526, 76.713
1188.748, 71.532
1189.969, 54.353
1191.191, 71.178
1192.412, 41.005
1193.634, 47.834
1194.855, 42.667
1196.076, 12.502
1197.296, 41.340
1198.517, 45.180
1199.737, 45.566
1200.957, 51.518
1202.177, 68.366
1203.397, 29.335
1204.617, 52.187
1205.836, 46.406
1207.055, 32.263
1208.274, 42.122
1209.493, 43.862
1210.712, 46.526
1211.930, 50.441
1213.148, 48.823
1214.367, 52.170
1215.584, 49.246
1216.802, 43.971
1218.020, 58.355
1219.237, 41.387
1220.454, 43.963
1221.671, 50.012
1222.888, 15.046
1224.105, 59.298
1225.321, 33.182
1226.537, 41.067
1227.753, 36.135
1228.969, 32.212
1230.185, 48.669
1231.400, 20.111
1232.616, 51.190
1233.831, 34.719
1235.046, 62.613
1236.261, 66.554
1237.475, 67.574
1238.689, 86.471
1239.904, 73.461
1241.118, 69.482
1242.332, 45.382
1243.545, 44.979
1244.759, 43.880
1245.972, 47.782
1247.185, 51.732
1248.398, 22.668
1249.611, 44.575
1250.823, 26.483
1252.036, 59.393
1253.248, 44.322
1254.460, 42.235
1255.671, 30.150
1256.883, 16.067
1258.095, 43.032
1259.306, 14.952
1260.517, 47.929
1261.728, 39.851
1262.938, 41.775
1264.149, 46.701
1265.359, 40.627
1266.569, 60.556
1267.779, 60.485
1268.989, 33.416
1270.199, 42.348
1271.408, 49.280
1272.617, 45.214
1273.826, 55.149
1275.035, 26.085
1276.244, 65.047
1277.452, 27.985
1278.661, 32.925
1279.869, 5.993
1281.077, 12.935
1282.285, 21.877
1283.492, 28.287
1284.700, 31.231
1285.907, 41.177
1287.114, 14.123
1288.321, 22.069
1289.527, 29.082
1290.734, 19.024
1291.940, 40.965
1293.146, 27.907
1294.352, 5.156
1295.558, 28.776
1296.763, 11.704
1297.969, 31.629
1299.174, 0.452
1300.379, 21.464
1301.584, 10.377
1302.788, 19.288
1303.993, 8.193
1305.197, 13.091
1306.401, 21.984
1307.605, 17.874
1308.809, 21.763
1310.013, 20.651
1311.216, 26.531
1312.419, 27.345
1313.622, 17.288
1314.825, 30.166
1316.028, 31.042
1317.230, 29.917
1318.432, 45.790
1319.634, 33.662
1320.836, 44.532
1322.038, 19.401
1323.240, 11.268
1324.441, 52.134
1325.642, 16.998
1326.843, 3.860
1328.044, 12.720
1329.245, 23.424
1330.445, 4.579
1331.645, 6.262
1332.845, 4.899
1334.045, 13.935
1335.245, 15.233
1336.445, 1.593
1337.644, 16.416
1338.843, 1.763
1340.042, 25.946
1341.241, 3.866
1342.440, 23.324
1343.638, 19.520
1344.836, 7.720
1346.034, 6.923
1347.232, 6.130
1348.430, 5.341
1349.628, 28.554
1350.825, 5.774
1352.022, 4.998
1353.219, 14.225
1354.416, 3.544
1355.613, 4.310
1356.809, 5.925
1358.005, 6.164
1359.202, 22.406
1360.398, 21.653
1361.593, 5.904
1362.789, 25.158
1363.984, 7.584
1365.179, 0.323
1366.374, 2.938
1367.569, 13.798
1368.764, 1.466
1369.958, 2.730
1371.153, 21.004
1372.347, 27.261
1373.541, 13.489
1374.735, 8.226
1375.928, 0.949
1377.122, 1.887
1378.315, 16.824
1379.508, 11.761
1380.701, 12.698
1381.893, 3.634
1383.086, 22.569
1384.278, 10.503
1385.470, 14.436
1386.662, 2.369
1387.854, 15.300
1389.046, 2.231
1390.237, 19.161
1391.428, 15.090
1392.619, 9.016
1393.810, 12.941
1395.001, 9.859
1396.191, 8.775
1397.382, 10.954
1398.572, 18.602
1399.762, 18.428
1400.952, 11.336
1402.141, 25.232
1403.331, 22.138
1404.520, 7.042
1405.709, 18.946
1406.898, 21.849
1408.087, 0.751
1409.275, 38.653
1410.464, 22.554
1411.652, 13.545
1412.840, 20.356
1414.028, 26.257
1415.215, 29.158
1416.403, 39.058
1417.590, 4.994
1418.777, 26.703
1419.964, 51.033
1421.151, 14.910
1422.338, 25.722
1423.524, 15.687
1424.710, 32.432
1425.896, 21.673
1427.082, 25.076
1428.268, 39.333
1429.453, 50.492
1430.639, 54.960
1431.824, 63.706
1433.009, 62.816
1434.194, 71.379
1435.378, 84.772
1436.563, 85.300
1437.747, 68.760
1438.931, 65.077
1440.115, 127.646
1441.299, 115.230
1442.482, 140.866
1443.666, 121.450
1444.849, 148.056
1446.032, 154.542
1447.215, 161.987
1448.397, 171.534
1449.580, 175.589
1450.762, 166.590
1451.944, 182.086
1453.126, 154.562
1454.308, 148.952
1455.490, 156.380
1456.671, 164.432
1457.852, 144.493
1459.033, 144.792
1460.214, 138.055
1461.395, 126.103
1462.575, 119.335
1463.756, 99.574
1464.936, 75.834
1466.116, 103.122
1467.296, 82.413
1468.475, 103.745
1469.655, 97.120
1470.834, 69.488
1472.013, 80.889
1473.192, 58.275
1474.371, 63.642
1475.550, 68.996
1476.728, 73.334
1477.906, 63.654
1479.084, 36.959
1480.262, 51.261
1481.440, 43.638
1482.617, 63.033
1483.795, 58.453
1484.972, 58.892
1486.149, 42.349
1487.326, 37.819
1488.502, 41.299
1489.679, 30.795
1490.855, 11.319
1492.031, 20.885
1493.207, 20.495
1494.383, 31.148
1495.559, 21.854
1496.734, 3.628
1497.909, 20.493
1499.084, 7.471
1500.259, 0.394
1501.434, 9.959
1502.608, 0.000
##END=



