##NAMES=Barysilite
##RRUFFID=R050002
##IDEAL CHEMISTRY=Pb^2+^_8_Mn^2+^(Si_2_O_7_)_3_
##LOCALITY=Franklin, Sussex County, New Jersey, USA
##OWNER=RRUFF
##SOURCE=University of Arizona Mineral Museum
##DESCRIPTION=A lamellar aggregate of platy crystals
##STATUS=The identification of this mineral has been confirmed by X-ray diffraction and chemical analysis
##URL=rruff.info/R050002
##MEASURED CHEMISTRY=Pb_8.00_Mn_1.00_(Si_2.00_O_7_)_3_
##PIN_ID=M00298
##ORIENTATION=Laser parallel to a* (1 0 0). Fiducial mark perpendicular to laser is parallel to c [0 0 1]
59.164, 0.000
60.563, 68.213
61.962, 163.277
63.360, 156.777
64.758, 300.707
66.157, 214.229
67.554, 115.076
68.952, 9.094
70.349, 46.905
71.747, 23.057
73.144, 55.225
74.540, 42.985
75.937, 271.063
77.333, 761.566
78.729, 1538.091
80.125, 2711.273
81.521, 3936.786
82.916, 5347.330
84.311, 6229.647
85.706, 6539.517
87.101, 6205.740
88.496, 5537.139
89.890, 5000.598
91.284, 4768.052
92.678, 5148.363
94.071, 6040.390
95.465, 7963.005
96.858, 11222.100
98.251, 15383.578
99.644, 20381.352
101.036, 24369.338
102.428, 28438.441
103.820, 31764.561
105.212, 34201.613
106.604, 34784.594
107.995, 33040.492
109.387, 29288.236
110.777, 25216.822
112.168, 22550.182
113.559, 20330.279
114.949, 19123.066
116.339, 18235.510
117.729, 17567.627
119.119, 17006.605
120.508, 16000.743
121.897, 14760.852
123.286, 13937.498
124.675, 12590.576
126.063, 11575.070
127.452, 10648.976
128.840, 9658.275
130.228, 8913.962
131.615, 8245.022
133.003, 7849.450
134.390, 7238.232
135.777, 6811.360
137.164, 6263.830
138.550, 5996.627
139.937, 5535.746
141.323, 5254.180
142.709, 4907.845
144.094, 4596.500
145.480, 4306.135
146.865, 4090.745
148.250, 3804.341
149.635, 3662.221
151.019, 3479.569
152.403, 3306.475
153.788, 3152.956
155.171, 3087.909
156.555, 3034.274
157.939, 3044.940
159.322, 3015.728
160.705, 3223.627
162.088, 3387.646
163.470, 3745.790
164.853, 4017.063
166.235, 4498.471
167.617, 5068.013
168.998, 5887.696
170.380, 6751.521
171.761, 8182.485
173.142, 9855.599
174.523, 12503.854
175.904, 15581.868
177.284, 19590.041
178.664, 24227.254
180.044, 29377.953
181.424, 35186.754
182.803, 40914.695
184.183, 45476.430
185.562, 49255.562
186.940, 52213.539
188.319, 52393.660
189.698, 51350.922
191.076, 47659.332
192.454, 43388.887
193.831, 38481.586
195.209, 33304.406
196.586, 28881.385
197.963, 24391.492
199.340, 21311.744
200.717, 18176.119
202.093, 16017.634
203.470, 14087.273
204.846, 12497.037
206.221, 11064.920
207.597, 10214.928
208.972, 9313.052
210.347, 8267.295
211.722, 7681.653
213.097, 7041.126
214.472, 6491.712
215.846, 5903.409
217.220, 5433.218
218.594, 4967.133
219.967, 4678.155
221.341, 4293.280
222.714, 4114.510
224.087, 3845.841
225.460, 3689.737
226.832, 3551.426
228.204, 3472.881
229.577, 3498.234
230.948, 3394.036
232.320, 3481.955
233.692, 3611.178
235.063, 3659.606
236.434, 3722.768
237.805, 3935.230
239.175, 4052.726
240.545, 4104.912
241.916, 4337.786
243.286, 4334.649
244.655, 4377.723
246.025, 4379.744
247.394, 4312.576
248.763, 4333.322
250.132, 4428.164
251.501, 4552.177
252.869, 4620.937
254.237, 4827.375
255.605, 4962.365
256.973, 5040.745
258.340, 5206.327
259.708, 5216.103
261.075, 5135.062
262.442, 4740.198
263.808, 4416.505
265.175, 3916.975
266.541, 3406.603
267.907, 2881.383
269.273, 2339.311
270.639, 1956.381
272.004, 1547.591
273.369, 1254.934
274.734, 971.409
276.099, 805.017
277.463, 675.751
278.828, 569.605
280.192, 414.576
281.556, 343.662
282.919, 282.861
284.283, 230.167
285.646, 137.575
287.009, 32.088
288.372, 52.694
289.734, 21.605
291.097, 48.805
292.459, 49.923
293.821, 56.958
295.183, 155.907
296.544, 131.792
297.905, 139.605
299.266, 154.359
300.627, 147.054
301.988, 164.691
303.348, 125.277
304.709, 147.803
306.069, 66.276
307.428, 39.687
308.788, 47.031
310.147, 39.692
311.507, 153.485
312.865, 200.356
314.224, 362.300
315.583, 546.332
316.941, 752.433
318.299, 1073.601
319.657, 1263.841
321.015, 1627.153
322.372, 1959.532
323.729, 2229.976
325.086, 2297.486
326.443, 2541.053
327.800, 2479.679
329.156, 2499.373
330.512, 2385.125
331.868, 2273.942
333.224, 2251.814
334.579, 2108.737
335.935, 1943.716
337.290, 1860.756
338.645, 1727.844
339.999, 1509.971
341.354, 1270.131
342.708, 1059.289
344.062, 879.439
345.416, 674.583
346.769, 520.734
348.123, 422.910
349.476, 303.129
350.829, 241.394
352.182, 258.703
353.534, 234.064
354.887, 222.471
356.239, 290.921
357.591, 362.409
358.942, 380.935
360.294, 438.502
361.645, 510.112
362.996, 547.767
364.347, 644.458
365.698, 683.189
367.048, 773.954
368.398, 901.756
369.748, 976.588
371.098, 1203.450
372.448, 1270.338
373.797, 1371.253
375.146, 1485.192
376.495, 1551.156
377.844, 1558.142
379.192, 1451.150
380.540, 1374.180
381.889, 1171.229
383.236, 1048.300
384.584, 928.389
385.932, 786.497
387.279, 681.623
388.626, 592.805
389.973, 482.044
391.319, 315.340
392.666, 255.693
394.012, 150.106
395.358, 57.577
396.704, 31.104
398.049, 44.312
399.394, 138.703
400.740, 196.125
402.084, 174.606
403.429, 252.145
404.774, 243.781
406.118, 221.514
407.462, 266.335
408.806, 239.268
410.150, 176.302
411.493, 153.409
412.836, 150.580
414.179, 121.815
415.522, 92.105
416.865, 21.565
418.207, 115.240
419.549, 233.939
420.891, 326.662
422.233, 482.410
423.575, 707.179
424.916, 826.969
426.257, 1103.778
427.598, 1423.606
428.939, 1792.451
430.279, 2225.314
431.619, 2534.193
432.959, 2953.180
434.299, 3381.088
435.639, 3808.396
436.978, 3975.813
438.318, 4180.651
439.657, 4055.751
440.996, 3998.125
442.334, 3783.799
443.673, 3442.763
445.011, 2995.342
446.349, 2827.031
447.687, 2396.449
449.024, 2083.050
450.361, 1887.417
451.699, 1644.301
453.036, 1476.263
454.372, 1310.532
455.709, 1125.240
457.045, 982.166
458.381, 962.536
459.717, 887.276
461.053, 840.589
462.388, 810.743
463.724, 803.984
465.059, 821.429
466.394, 823.722
467.728, 835.303
469.063, 927.957
470.397, 1024.255
471.731, 1105.326
473.065, 1276.945
474.398, 1459.704
475.732, 1659.342
477.065, 1953.284
478.398, 2162.359
479.731, 2539.015
481.063, 2881.436
482.396, 3150.681
483.728, 3499.565
485.060, 3782.218
486.391, 4054.696
487.723, 4451.951
489.054, 4785.928
490.385, 5428.488
491.716, 6228.398
493.047, 6974.332
494.377, 8123.090
495.708, 9509.849
497.038, 11009.652
498.368, 12990.724
499.697, 14872.224
501.027, 17429.834
502.356, 20001.684
503.685, 22111.135
505.014, 24611.652
506.342, 26112.658
507.671, 27491.354
508.999, 26917.410
510.327, 26523.832
511.655, 24518.016
512.982, 22469.885
514.310, 20207.891
515.637, 17143.842
516.964, 14924.490
518.291, 12789.877
519.617, 11013.291
520.944, 9212.408
522.270, 7751.793
523.596, 6899.588
524.921, 5904.324
526.247, 5069.787
527.572, 4509.257
528.897, 3955.240
530.222, 3646.966
531.547, 3252.840
532.871, 3130.234
534.196, 2885.700
535.520, 2689.922
536.844, 2585.074
538.167, 2379.197
539.491, 2293.292
540.814, 2055.361
542.137, 1905.400
543.460, 1763.411
544.783, 1614.392
546.105, 1520.345
547.427, 1467.268
548.749, 1558.162
550.071, 1633.025
551.393, 1728.858
552.714, 1855.660
554.035, 1879.430
555.356, 1941.116
556.677, 1743.113
557.998, 1483.651
559.318, 1322.252
560.638, 1126.598
561.958, 944.986
563.278, 798.031
564.597, 683.409
565.917, 558.882
567.236, 454.691
568.555, 418.137
569.874, 375.827
571.192, 302.055
572.511, 294.270
573.829, 265.701
575.147, 220.929
576.464, 202.569
577.782, 220.920
579.099, 142.370
580.416, 168.206
581.733, 147.539
583.050, 117.864
584.366, 127.015
585.683, 104.340
586.999, 106.534
588.315, 72.867
589.630, 82.982
590.946, 62.304
592.261, 75.368
593.576, 46.366
594.891, 13.319
596.206, 27.351
597.520, 61.241
598.834, 46.084
600.148, 34.006
601.462, 25.818
602.776, 38.454
604.089, 35.210
605.402, 2.259
606.715, 39.381
608.028, 16.812
609.341, 14.638
610.653, 33.976
611.965, 23.293
613.277, 7.427
614.589, 21.864
615.901, 7.936
617.212, 48.200
618.523, 10.353
619.834, 19.442
621.145, 24.505
622.456, 6.548
623.766, 11.558
625.076, 25.540
626.386, 14.487
627.696, 18.391
629.006, 25.256
630.315, 6.923
631.624, 6.840
632.933, 55.448
634.242, 3.180
635.551, 0.755
636.859, 24.724
638.167, 37.271
639.475, 18.891
640.783, 13.575
642.090, 26.063
643.398, 9.124
644.705, 4.738
646.012, 32.656
647.318, 10.645
648.625, 32.693
649.931, 1.811
651.237, 29.017
652.543, 16.197
653.849, 33.472
655.155, 13.183
656.460, 1.792
657.765, 0.649
659.070, 5.142
660.375, 0.312
661.679, 17.285
662.984, 41.941
664.288, 19.331
665.592, 12.440
666.895, 3.267
668.199, 0.145
669.502, 28.071
670.805, 15.060
672.108, 0.895
673.411, 9.803
674.713, 20.668
676.016, 9.507
677.318, 21.734
678.620, 27.019
679.921, 2.362
681.223, 18.751
682.524, 4.805
683.825, 16.681
685.126, 26.782
686.427, 44.206
687.727, 29.594
689.028, 72.944
690.328, 60.262
691.628, 92.545
692.927, 111.797
694.227, 142.017
695.526, 161.206
696.825, 263.364
698.124, 367.492
699.423, 444.589
700.721, 621.655
702.020, 856.691
703.318, 1169.697
704.616, 1549.673
705.913, 1922.619
707.211, 2305.535
708.508, 2569.423
709.805, 2442.279
711.102, 2079.108
712.399, 1577.908
713.695, 1059.684
714.992, 765.453
716.288, 501.234
717.584, 332.042
718.879, 227.872
720.175, 141.743
721.470, 108.654
722.765, 106.599
724.060, 46.591
725.355, 65.621
726.649, 9.675
727.944, 16.746
729.238, 46.835
730.532, 12.936
731.825, 40.042
733.119, 54.129
734.412, 33.189
735.705, 5.779
736.998, 39.221
738.291, 36.192
739.584, 66.137
740.876, 28.054
742.168, 40.945
743.460, 18.808
744.752, 44.643
746.043, 11.452
747.334, 41.139
748.626, 48.895
749.916, 50.237
751.207, 24.458
752.498, 41.243
753.788, 43.752
755.078, 20.972
756.368, 30.877
757.658, 61.474
758.947, 22.442
760.237, 65.281
761.526, 23.376
762.815, 66.270
764.104, 21.379
765.392, 0.635
766.680, 49.290
767.969, 47.584
769.257, 29.240
770.544, 43.438
771.832, 66.032
773.119, 35.894
774.406, 56.560
775.693, 73.591
776.980, 64.775
778.267, 60.199
779.553, 41.858
780.839, 54.010
782.125, 42.763
783.411, 57.646
784.697, 53.729
785.982, 44.240
787.267, 57.590
788.552, 58.038
789.837, 61.160
791.122, 62.124
792.406, 57.485
793.690, 27.057
794.974, 55.782
796.258, 21.158
797.542, 21.108
798.825, 36.525
800.108, 14.140
801.391, 48.009
802.674, 46.268
803.957, 49.153
805.239, 30.988
806.522, 83.973
807.804, 58.932
809.085, 124.821
810.367, 144.415
811.649, 127.552
812.930, 177.554
814.211, 218.295
815.492, 299.398
816.772, 334.419
818.053, 430.916
819.333, 561.702
820.613, 609.101
821.893, 774.103
823.173, 801.332
824.452, 877.838
825.732, 835.195
827.011, 768.573
828.290, 724.227
829.568, 648.118
830.847, 522.959
832.125, 421.069
833.403, 354.889
834.681, 318.272
835.959, 282.692
837.236, 249.362
838.514, 260.996
839.791, 225.090
841.068, 187.420
842.345, 222.575
843.621, 199.189
844.898, 210.703
846.174, 188.435
847.450, 213.214
848.726, 181.998
850.001, 204.785
851.277, 191.571
852.552, 220.361
853.827, 212.156
855.102, 236.952
856.376, 235.748
857.651, 250.544
858.925, 276.341
860.199, 323.141
861.473, 331.942
862.746, 396.746
864.020, 378.552
865.293, 380.362
866.566, 489.177
867.839, 530.994
869.112, 541.814
870.384, 674.637
871.656, 688.467
872.928, 751.300
874.200, 922.135
875.472, 959.973
876.744, 1120.812
878.015, 1333.472
879.286, 1501.238
880.557, 1863.611
881.828, 2271.052
883.098, 2888.752
884.369, 3612.178
885.639, 4612.838
886.909, 5878.580
888.178, 7150.198
889.448, 8249.401
890.717, 9100.080
891.987, 8965.746
893.256, 8481.558
894.524, 7798.168
895.793, 6904.888
897.061, 6264.446
898.330, 5798.198
899.598, 5458.718
900.865, 5532.470
902.133, 5651.270
903.401, 5858.083
904.668, 6116.788
905.935, 6353.603
907.202, 6332.434
908.468, 6325.161
909.735, 5976.977
911.001, 5406.942
912.267, 4758.756
913.533, 4212.768
914.799, 3911.633
916.064, 3676.676
917.330, 3683.566
918.595, 3712.355
919.860, 3826.416
921.124, 3911.493
922.389, 3954.534
923.653, 3711.655
924.918, 3438.821
926.182, 3192.958
927.445, 2990.150
928.709, 2748.354
929.972, 2521.570
931.236, 2334.801
932.499, 2162.045
933.761, 2065.304
935.024, 1845.579
936.286, 1705.867
937.549, 1606.169
938.811, 1443.492
940.073, 1334.830
941.334, 1220.200
942.596, 1169.586
943.857, 1102.990
945.118, 1025.417
946.379, 975.873
947.640, 921.350
948.900, 924.590
950.161, 843.112
951.421, 782.650
952.681, 787.205
953.940, 763.787
955.200, 753.389
956.459, 701.018
957.719, 709.664
958.978, 768.324
960.236, 748.006
961.495, 686.715
962.753, 675.437
964.012, 707.178
965.270, 659.937
966.527, 650.713
967.785, 610.506
969.043, 625.320
970.300, 603.166
971.557, 499.021
972.814, 530.906
974.071, 505.486
975.327, 492.394
976.583, 480.369
977.840, 493.320
979.095, 498.287
980.351, 453.998
981.607, 431.991
982.862, 407.539
984.117, 374.468
985.372, 389.520
986.627, 337.803
987.882, 336.945
989.136, 369.042
990.390, 277.156
991.644, 276.019
992.898, 270.153
994.152, 298.874
995.405, 231.148
996.659, 224.036
997.912, 256.092
999.165, 225.382
1000.417, 241.408
1001.670, 177.629
1002.922, 177.581
1004.174, 155.084
1005.426, 184.293
1006.678, 186.546
1007.930, 173.804
1009.181, 159.036
1010.432, 116.745
1011.683, 150.989
1012.934, 128.536
1014.185, 140.006
1015.435, 134.942
1016.685, 134.787
1017.935, 111.068
1019.185, 95.591
1020.435, 140.229
1021.684, 84.476
1022.934, 70.150
1024.183, 71.578
1025.432, 79.138
1026.680, 52.457
1027.929, 54.871
1029.177, 65.839
1030.425, 58.176
1031.673, 71.520
1032.921, 86.010
1034.169, 37.446
1035.416, 14.003
1036.663, 84.090
1037.911, 85.555
1039.157, 68.955
1040.404, 91.370
1041.650, 58.061
1042.897, 102.466
1044.143, 81.922
1045.389, 116.946
1046.634, 86.124
1047.880, 153.406
1049.125, 147.362
1050.371, 136.798
1051.615, 204.515
1052.860, 191.052
1054.105, 204.164
1055.349, 181.705
1056.593, 226.243
1057.837, 179.426
1059.081, 228.470
1060.325, 234.993
1061.568, 261.692
1062.812, 256.881
1064.055, 201.647
1065.298, 249.219
1066.540, 269.748
1067.783, 257.063
1069.025, 213.710
1070.267, 284.560
1071.509, 291.340
1072.751, 258.289
1073.993, 262.366
1075.234, 249.963
1076.475, 267.511
1077.716, 262.053
1078.957, 226.655
1080.198, 258.270
1081.438, 265.808
1082.679, 229.960
1083.919, 251.304
1085.159, 224.916
1086.398, 227.936
1087.638, 194.881
1088.877, 186.540
1090.116, 197.049
1091.355, 160.614
1092.594, 141.321
1093.833, 180.031
1095.071, 145.670
1096.309, 128.189
1097.547, 151.693
1098.785, 122.321
1100.023, 165.941
1101.260, 119.497
1102.498, 153.149
1103.735, 105.669
1104.972, 112.645
1106.208, 70.297
1107.445, 63.088
1108.681, 33.723
1109.918, 57.610
1111.154, 35.102
1112.389, 40.475
1113.625, 44.951
1114.860, 15.487
1116.096, 35.273
1117.331, 14.817
1118.566, 0.400
1119.800, 28.170
1121.035, 0.106
1122.269, 22.582
1123.503, 18.010
1124.737, 29.238
1125.971, 22.291
1127.205, 7.993
1128.438, 21.448
1129.671, 9.207
1130.904, 16.397
1132.137, 23.716
1133.370, 14.653
1134.602, 28.984
1135.834, 25.577
1137.066, 8.762
1138.298, 6.171
1139.530, 35.495
1140.762, 22.802
1141.993, 31.907
1143.224, 2.569
1144.455, 16.279
1145.686, 19.004
1146.917, 22.601
1148.147, 17.379
1149.377, 1.823
1150.607, 14.982
1151.837, 23.710
1153.067, 22.452
1154.296, 5.069
1155.526, 6.360
1156.755, 27.688
1157.984, 7.166
1159.213, 24.954
1160.441, 2.856
1161.670, 0.755
1162.898, 9.594
1164.126, 7.498
1165.354, 20.595
1166.581, 0.163
1167.809, 2.104
1169.036, 12.063
1170.263, 1.957
1171.490, 4.161
1172.717, 1.188
1173.943, 47.414
1175.170, 7.516
1176.396, 36.519
1177.622, 55.414
1178.848, 31.339
1180.073, 11.508
1181.299, 14.389
1182.524, 5.385
1183.749, 3.688
1184.974, 14.436
1186.199, 32.287
1187.423, 31.140
1188.648, 4.972
1189.872, 37.834
1191.096, 27.677
1192.320, 15.503
1193.543, 1.599
1194.767, 2.840
1195.990, 2.902
1197.213, 49.779
1198.436, 24.484
1199.659, 22.203
1200.881, 1.880
1202.104, 24.541
1203.326, 27.191
1204.548, 1.830
1205.770, 27.548
1206.991, 2.958
1208.213, 13.613
1209.434, 3.171
1210.655, 12.734
1211.876, 29.262
1213.096, 40.779
1214.317, 2.285
1215.537, 18.779
1216.757, 5.744
1217.977, 20.289
1219.197, 11.135
1220.417, 8.545
1221.636, 31.939
1222.855, 0.321
1224.074, 46.684
1225.293, 33.036
1226.512, 30.376
1227.731, 49.705
1228.949, 9.022
1230.167, 5.324
1231.385, 33.607
1232.603, 12.879
1233.820, 15.136
1235.038, 26.379
1236.255, 62.610
1237.472, 46.857
1238.689, 24.066
1239.906, 24.262
1241.122, 30.445
1242.338, 58.617
1243.555, 80.777
1244.771, 32.927
1245.986, 35.062
1247.202, 50.184
1248.417, 30.292
1249.633, 58.385
1250.848, 17.466
1252.063, 30.532
1253.277, 23.584
1254.492, 32.622
1255.706, 20.645
1256.920, 63.653
1258.134, 8.648
1259.348, 66.625
1260.562, 51.591
1261.775, 24.545
1262.988, 48.485
1264.201, 38.414
1265.414, 25.325
1266.627, 27.227
1267.839, 50.107
1269.052, 34.296
1270.264, 25.157
1271.476, 40.962
1272.688, 25.797
1273.899, 34.618
1275.111, 26.697
1276.322, 66.492
1277.533, 24.738
1278.744, 66.608
1279.955, 67.364
1281.165, 50.890
1282.376, 62.566
1283.586, 44.311
1284.796, 60.994
1286.006, 67.443
1287.215, 67.590
1288.425, 45.721
1289.634, 55.256
1290.843, 55.173
1292.052, 25.919
1293.261, 58.426
1294.469, 73.193
1295.678, 62.761
1296.886, 36.593
1298.094, 70.870
1299.302, 10.437
1300.509, 25.956
1301.717, 21.465
1302.924, 53.997
1304.131, 58.048
1305.338, 38.560
1306.545, 76.765
1307.752, 40.042
1308.958, 51.850
1310.164, 48.745
1311.370, 20.200
1312.576, 52.409
1313.782, 53.498
1314.987, 32.975
1316.193, 27.020
1317.398, 46.307
1318.603, 15.459
1319.807, 24.847
1321.012, 71.137
1322.216, 80.869
1323.421, 60.229
1324.625, 13.580
1325.829, 66.782
1327.032, 24.036
1328.236, 38.167
1329.439, 10.764
1330.642, 62.981
1331.845, 46.260
1333.048, 64.522
1334.251, 38.508
1335.453, 40.776
1336.656, 43.990
1337.858, 18.633
1339.060, 51.121
1340.261, 66.502
1341.463, 14.207
1342.664, 40.430
1343.866, 52.372
1345.067, 59.489
1346.267, 50.029
1347.468, 57.137
1348.669, 84.248
1349.869, 61.710
1351.069, 45.309
1352.269, 40.429
1353.469, 46.370
1354.668, 31.818
1355.868, 63.687
1357.067, 68.749
1358.266, 95.852
1359.465, 34.166
1360.664, 74.289
1361.862, 83.067
1363.061, 43.914
1364.259, 43.591
1365.457, 51.137
1366.655, 33.164
1367.852, 57.238
1369.050, 39.318
1370.247, 56.339
1371.444, 57.346
1372.641, 64.424
1373.838, 68.904
1375.035, 72.176
1376.231, 86.255
1377.427, 56.855
1378.623, 38.778
1379.819, 65.744
1381.015, 20.851
1382.211, 97.816
1383.406, 60.553
1384.601, 60.422
1385.796, 103.593
1386.991, 80.513
1388.185, 125.444
1389.380, 101.045
1390.574, 102.664
1391.768, 106.161
1392.962, 101.250
1394.156, 113.211
1395.350, 114.790
1396.543, 151.301
1397.736, 138.882
1398.929, 149.303
1400.122, 133.791
1401.315, 191.245
1402.507, 181.799
1403.700, 216.691
1404.892, 188.504
1406.084, 182.265
1407.276, 151.144
1408.467, 210.908
1409.659, 167.544
1410.850, 177.416
1412.041, 161.172
1413.232, 184.460
1414.423, 186.887
1415.614, 151.702
1416.804, 157.422
1417.994, 117.119
1419.184, 130.638
1420.374, 126.404
1421.564, 117.921
1422.753, 97.324
1423.943, 115.912
1425.132, 75.693
1426.321, 61.129
1427.510, 58.662
1428.698, 51.033
1429.887, 62.755
1431.075, 100.369
1432.263, 72.869
1433.451, 44.604
1434.639, 41.073
1435.827, 65.823
1437.014, 86.570
1438.201, 69.311
1439.388, 114.088
1440.575, 37.834
1441.762, 102.615
1442.949, 59.381
1444.135, 91.163
1445.321, 70.982
1446.507, 87.804
1447.693, 92.634
1448.879, 52.456
1450.064, 53.274
1451.250, 76.102
1452.435, 30.929
1453.620, 81.698
1454.805, 51.513
1455.989, 89.323
1457.174, 99.125
1458.358, 81.932
1459.542, 58.752
1460.726, 96.578
1461.910, 58.415
1463.093, 125.265
1464.277, 98.129
1465.460, 83.996
1466.643, 132.865
1467.826, 77.737
1469.009, 73.612
1470.191, 111.506
1471.373, 43.408
1472.556, 76.320
1473.738, 78.244
1474.919, 111.188
1476.101, 85.145
1477.283, 88.126
1478.464, 78.125
1479.645, 71.145
1480.826, 105.185
1482.007, 44.240
1483.187, 59.310
1484.368, 30.396
1485.548, 39.498
1486.728, 43.615
1487.908, 42.749
1489.088, 31.902
1490.268, 68.076
1491.447, 39.274
1492.626, 48.498
1493.805, 26.749
1494.984, 37.028
1496.163, 18.332
1497.341, 43.072
1498.520, 39.062
1499.698, 67.481
1500.876, 28.941
1502.054, 5.555
1503.232, 36.995
1504.409, 23.594
1505.586, 37.247
1506.763, 47.960
