##NAMES=Baryte
##RRUFFID=R040036
##IDEAL CHEMISTRY=BaS^6+^O_4_
##LOCALITY=Cumbria County, England
##OWNER=RRUFF
##SOURCE=University of Arizona Mineral Museum
##DESCRIPTION=Golden brown tabular crystal
##STATUS=The identification of this mineral has been confirmed by X-ray diffraction and chemical analysis
##URL=rruff.info/R040036
##MEASURED CHEMISTRY=Ba_1.00_S_1.00_O_4_; trace amounts of Pb
##PIN_ID=M00019
##ORIENTATION=Laser parallel to b* (0 1 0). Fiducial mark perpendicular to laser is parallel to c [0 0 1]
26.288, 0.000
27.694, 8.971
29.099, 19.500
30.504, 7.287
31.909, 6.230
33.313, 16.208
34.717, 32.375
36.121, 32.602
37.525, 35.614
38.929, 39.601
40.332, 43.302
41.735, 51.465
43.138, 53.337
44.541, 57.909
45.943, 58.814
47.345, 63.194
48.747, 69.089
50.149, 72.202
51.551, 76.016
52.952, 78.131
54.353, 79.907
55.754, 87.537
57.155, 88.060
58.555, 89.240
59.955, 101.483
61.355, 85.580
62.755, 68.772
64.154, 88.819
65.553, 68.163
66.952, 72.934
68.351, 58.052
69.750, 48.109
71.148, 38.176
72.546, 27.250
73.944, 24.331
75.342, 24.418
76.739, 15.508
78.136, 9.602
79.533, 1.694
80.930, 6.215
82.327, 8.276
83.723, 11.044
85.119, 10.618
86.515, 15.894
87.910, 13.825
89.306, 19.756
90.701, 15.691
92.096, 21.629
93.490, 13.305
94.885, 3.494
96.279, 9.554
97.673, 30.613
99.067, 55.667
100.461, 44.720
101.854, 43.779
103.247, 26.871
104.640, 41.993
106.032, 42.139
107.425, 52.307
108.817, 63.492
110.209, 87.689
111.601, 108.895
112.992, 102.108
114.384, 109.326
115.775, 143.544
117.166, 145.761
118.556, 163.974
119.947, 153.180
121.337, 167.395
122.727, 116.588
124.116, 118.771
125.506, 110.942
126.895, 92.099
128.284, 112.238
129.673, 111.411
131.062, 123.498
132.450, 141.556
133.838, 134.599
135.226, 126.705
136.614, 120.718
138.001, 138.754
139.388, 121.770
140.775, 124.762
142.162, 120.719
143.549, 156.678
144.935, 168.651
146.321, 198.664
147.707, 229.686
149.093, 330.707
150.478, 332.834
151.863, 400.874
153.248, 413.844
154.633, 342.783
156.018, 352.819
157.402, 285.865
158.786, 234.921
160.170, 238.023
161.554, 190.030
162.937, 151.145
164.320, 155.182
165.703, 124.200
167.086, 121.203
168.469, 109.240
169.851, 118.195
171.233, 95.167
172.615, 137.170
173.996, 128.204
175.378, 116.193
176.759, 141.223
178.140, 159.194
179.521, 170.115
180.901, 226.060
182.281, 275.958
183.662, 322.831
185.041, 443.620
186.421, 548.425
187.800, 622.141
189.180, 659.823
190.558, 597.490
191.937, 501.032
193.316, 398.587
194.694, 318.050
196.072, 239.471
197.450, 187.925
198.827, 152.275
200.205, 105.703
201.582, 127.988
202.959, 99.273
204.336, 107.452
205.712, 103.583
207.088, 96.820
208.465, 92.803
209.840, 74.930
211.216, 73.941
212.591, 61.923
213.967, 50.922
215.341, 87.900
216.716, 61.908
218.091, 66.790
219.465, 70.678
220.839, 62.469
222.213, 66.215
223.586, 63.632
224.960, 54.639
226.333, 61.208
227.706, 54.746
229.079, 54.107
230.451, 63.356
231.823, 39.523
233.195, 71.599
234.567, 58.686
235.939, 48.654
237.310, 46.691
238.682, 58.574
240.052, 41.550
241.423, 44.390
242.794, 25.425
244.164, 36.837
245.534, 44.343
246.904, 62.060
248.274, 30.894
249.643, 37.677
251.012, 35.456
252.381, 47.144
253.750, 34.913
255.118, 40.682
256.487, 47.497
257.855, 42.364
259.223, 38.247
260.590, 39.189
261.958, 35.068
263.325, 34.477
264.692, 30.835
266.059, 31.707
267.425, 30.576
268.791, 27.443
270.158, 33.319
271.523, 12.181
272.889, 28.041
274.255, 39.899
275.620, 17.754
276.985, 29.607
278.350, 37.458
279.714, 34.307
281.078, 35.155
282.443, 31.001
283.806, 18.846
285.170, 25.689
286.534, 20.530
287.897, 18.369
289.260, 24.207
290.623, 23.044
291.985, 8.879
293.348, 34.712
294.710, 15.545
296.072, 10.375
297.433, 15.204
298.795, 27.030
300.156, 11.855
301.517, 15.678
302.878, 25.500
304.239, 19.320
305.599, 23.139
306.959, 10.955
308.319, 22.770
309.679, 21.583
311.038, 27.394
312.398, 22.204
313.757, 22.012
315.116, 19.718
316.474, 16.240
317.833, 13.427
319.191, 14.228
320.549, 14.029
321.907, 21.827
323.264, 14.624
324.622, 19.415
325.979, 21.200
327.336, 7.979
328.692, 6.752
330.049, 6.519
331.405, 16.280
332.761, 4.036
334.117, 14.786
335.473, 13.532
336.828, 8.272
338.183, 28.008
339.538, 13.740
340.893, 24.468
342.247, 28.193
343.602, 10.914
344.956, 27.631
346.310, 0.354
347.663, 22.064
349.017, 12.783
350.370, 25.528
351.723, 23.231
353.076, 3.063
354.428, 21.634
355.780, 4.331
357.133, 13.025
358.484, 8.717
359.836, 12.408
361.188, 6.088
362.539, 3.806
363.890, 15.492
365.241, 4.177
366.591, 14.886
367.942, 6.570
369.292, 6.253
370.642, 9.936
371.992, 23.618
373.341, 10.302
374.691, 30.986
376.040, 6.671
377.388, 14.359
378.737, 27.008
380.086, 28.701
381.434, 19.397
382.782, 15.096
384.130, 18.799
385.477, 27.505
386.825, 27.209
388.172, 27.531
389.519, 32.563
390.865, 25.266
392.212, 24.986
393.558, 29.705
394.904, 20.379
396.250, 34.084
397.596, 25.781
398.941, 26.499
400.286, 24.195
401.631, 17.914
402.976, 23.632
404.321, 24.349
405.665, 4.063
407.009, 18.779
408.353, 13.478
409.697, 21.175
411.040, 28.856
412.384, 28.541
413.727, 19.221
415.070, 13.888
416.412, 22.583
417.755, 24.180
419.097, 33.852
420.439, 28.563
421.781, 36.190
423.122, 37.872
424.464, 35.583
425.805, 49.291
427.146, 63.002
428.486, 51.695
429.827, 79.332
431.167, 93.002
432.507, 133.648
433.847, 123.284
435.187, 168.949
436.526, 206.610
437.865, 245.207
439.204, 327.917
440.543, 408.547
441.882, 583.153
443.220, 741.782
444.558, 998.466
445.896, 1388.081
447.234, 1912.714
448.572, 2552.396
449.909, 3189.048
451.246, 3672.719
452.583, 3723.334
453.919, 3159.004
455.256, 2457.670
456.592, 1820.362
457.928, 1377.033
459.264, 1067.704
460.600, 860.365
461.935, 727.011
463.270, 563.643
464.605, 443.281
465.940, 350.918
467.274, 254.592
468.609, 192.234
469.943, 139.897
471.277, 124.571
472.610, 101.183
473.944, 79.790
475.277, 72.397
476.610, 44.052
477.943, 43.650
479.275, 54.299
480.608, 35.943
481.940, 30.562
483.272, 27.265
484.604, 36.911
485.935, 25.608
487.267, 15.310
488.598, 22.945
489.929, 9.647
491.260, 21.234
492.590, 8.925
493.920, 2.574
495.250, 15.277
496.580, 9.979
497.910, 18.523
499.239, 16.218
500.569, 20.834
501.898, 13.490
503.226, 16.128
504.555, 28.783
505.883, 4.410
507.212, 18.027
508.540, 22.698
509.867, 5.318
511.195, 38.988
512.522, 35.619
513.849, 24.250
515.176, 44.898
516.503, 28.599
517.829, 26.251
519.156, 35.952
520.482, 28.588
521.808, 23.261
523.133, 21.963
524.459, 37.663
525.784, 27.363
527.109, 29.043
528.434, 15.742
529.758, 9.444
531.083, 13.145
532.407, 10.449
533.731, 8.558
535.055, 17.257
536.378, 20.957
537.701, 22.676
539.025, 13.374
540.348, 17.128
541.670, 16.824
542.993, 13.521
544.315, 14.216
545.637, 15.911
546.959, 23.605
548.281, 11.450
549.602, 34.082
550.923, 31.777
552.244, 30.452
553.565, 22.144
554.886, 41.843
556.206, 33.572
557.526, 38.007
558.846, 21.203
560.166, 37.994
561.486, 27.888
562.805, 20.616
564.124, 22.412
565.443, 26.207
566.762, 20.234
568.080, 24.086
569.399, 19.838
570.717, 17.563
572.035, 20.604
573.352, 29.969
574.670, 22.670
575.987, 24.376
577.304, 21.187
578.621, 20.219
579.938, 11.261
581.254, 27.014
582.570, 37.691
583.886, 23.395
585.202, 46.111
586.518, 40.785
587.833, 43.458
589.148, 40.440
590.463, 40.388
591.778, 41.057
593.093, 29.726
594.407, 42.393
595.721, 45.177
597.035, 38.843
598.349, 59.514
599.662, 67.588
600.976, 66.395
602.289, 66.105
603.602, 84.793
604.914, 97.452
606.227, 104.375
607.539, 142.044
608.851, 158.699
610.163, 256.449
611.475, 383.102
612.786, 561.900
614.097, 888.550
615.408, 1089.198
616.719, 1147.196
618.030, 1037.997
619.340, 828.665
620.651, 759.340
621.961, 668.982
623.270, 694.629
624.580, 801.291
625.889, 983.928
627.199, 1261.582
628.507, 1488.216
629.816, 1503.920
631.125, 1436.636
632.433, 1107.451
633.741, 865.169
635.049, 692.983
636.357, 575.780
637.664, 556.746
638.972, 557.383
640.279, 613.016
641.586, 710.656
642.893, 895.272
644.199, 1094.001
645.505, 1262.618
646.811, 1313.258
648.117, 1192.848
649.423, 956.455
650.728, 716.110
652.034, 477.689
653.339, 352.291
654.644, 244.891
655.948, 183.489
657.253, 138.086
658.557, 113.868
659.861, 100.547
661.165, 84.192
662.468, 61.805
663.772, 75.594
665.075, 48.178
666.378, 69.970
667.681, 36.549
668.983, 27.461
670.286, 41.223
671.588, 19.793
672.890, 27.365
674.192, 10.933
675.493, 36.492
676.795, 24.055
678.096, 8.617
679.397, 15.175
680.697, 1.732
681.998, 30.286
683.298, 17.953
684.598, 22.502
685.898, 29.048
687.198, 13.604
688.498, 2.854
689.797, 21.767
691.096, 12.302
692.395, 14.836
693.694, 14.591
694.992, 11.175
696.290, 4.852
697.589, 1.559
698.886, 1.784
700.184, 0.378
701.482, 4.866
702.779, 4.715
704.076, 0.504
705.373, 0.451
706.669, 10.505
707.966, 3.013
709.262, 1.475
710.558, 3.960
711.854, 7.955
713.150, 8.986
714.445, 8.397
715.740, 6.871
717.035, 1.658
718.330, 11.191
719.625, 11.730
720.919, 0.726
722.214, 12.178
723.508, 5.627
724.801, 3.074
726.095, 26.518
727.388, 13.959
728.682, 9.602
729.975, 8.169
731.267, 13.259
732.560, 15.685
733.852, 16.118
735.145, 1.462
736.437, 11.991
737.728, 9.526
739.020, 14.063
740.311, 2.657
741.603, 1.744
742.894, 4.142
744.184, 10.593
745.475, 8.014
746.765, 7.374
748.055, 14.760
749.345, 0.782
750.635, 13.597
751.925, 3.026
753.214, 17.347
754.503, 10.718
755.792, 11.914
757.081, 3.551
758.370, 3.807
759.658, 2.163
760.946, 9.516
762.234, 6.866
763.522, 3.214
764.809, 8.559
766.097, 4.036
767.384, 10.243
768.671, 0.419
769.958, 1.084
771.244, 5.753
772.530, 1.425
773.817, 6.101
775.102, 6.781
776.388, 12.466
777.674, 1.844
778.959, 3.152
780.244, 1.457
781.529, 8.760
782.814, 2.940
784.098, 4.357
785.383, 0.652
786.667, 2.944
787.951, 5.648
789.235, 0.479
790.518, 10.806
791.801, 7.089
793.084, 11.370
794.367, 5.648
795.650, 3.549
796.933, 6.801
798.215, 2.531
799.497, 1.264
800.779, 0.001
802.061, 7.737
803.342, 8.521
804.624, 8.223
805.905, 10.030
807.186, 13.720
808.466, 7.475
809.747, 4.766
811.027, 1.005
812.307, 5.553
813.587, 5.310
814.867, 4.700
816.146, 3.932
817.426, 3.140
818.705, 8.368
819.984, 0.538
821.263, 5.238
822.541, 0.984
823.819, 10.204
825.098, 0.578
826.375, 18.638
827.653, 4.299
828.931, 1.913
830.208, 4.120
831.485, 10.671
832.762, 3.466
834.039, 7.682
835.315, 4.109
836.592, 3.039
837.868, 5.976
839.144, 8.116
840.420, 4.898
841.695, 13.746
842.970, 21.332
844.246, 13.411
845.521, 30.254
846.795, 14.271
848.070, 23.386
849.344, 5.525
850.618, 17.681
851.892, 15.842
853.166, 12.999
854.440, 13.148
855.713, 42.192
856.986, 22.013
858.259, 42.822
859.532, 24.917
860.804, 16.088
862.077, 18.228
863.349, 8.369
864.621, 15.524
865.893, 5.691
867.164, 13.547
868.436, 19.437
869.707, 6.602
870.978, 1.233
872.248, 8.931
873.519, 4.023
874.789, 9.861
876.060, 21.294
877.330, 28.044
878.599, 9.059
879.869, 5.169
881.138, 5.700
882.408, 15.458
883.677, 12.350
884.945, 9.496
886.214, 7.347
887.482, 16.714
888.751, 22.870
890.019, 14.880
891.287, 48.036
892.554, 32.193
893.822, 33.999
895.089, 29.000
896.356, 46.134
897.623, 58.259
898.889, 44.416
900.156, 56.566
901.422, 35.700
902.688, 40.857
903.954, 46.997
905.220, 43.155
906.485, 46.242
907.750, 41.315
909.015, 44.281
910.280, 47.350
911.545, 50.312
912.809, 36.260
914.074, 19.077
915.338, 33.218
916.602, 34.366
917.865, 39.507
919.129, 42.671
920.392, 59.720
921.655, 55.970
922.918, 38.017
924.181, 57.174
925.443, 50.342
926.706, 53.461
927.968, 23.631
929.230, 52.801
930.491, 54.973
931.753, 45.146
933.014, 59.319
934.276, 67.306
935.536, 53.396
936.797, 49.518
938.058, 59.672
939.318, 68.649
940.578, 80.830
941.838, 76.323
943.098, 77.572
944.358, 65.837
945.617, 67.837
946.876, 64.025
948.135, 62.213
949.394, 80.404
950.653, 90.597
951.911, 91.943
953.169, 114.988
954.427, 103.186
955.685, 94.386
956.943, 110.587
958.200, 104.675
959.458, 103.880
960.715, 143.087
961.971, 185.285
963.228, 258.496
964.485, 303.626
965.741, 323.842
966.997, 296.060
968.253, 329.055
969.508, 405.221
970.764, 439.294
972.019, 511.455
973.274, 580.641
974.529, 640.770
975.784, 769.004
977.039, 976.170
978.293, 1329.134
979.547, 1836.377
980.801, 2708.624
982.055, 4593.874
983.308, 8285.128
984.562, 19059.385
985.815, 40458.637
987.068, 52677.902
988.321, 43517.168
989.573, 24776.434
990.826, 13275.703
992.078, 7585.975
993.330, 4345.251
994.582, 2699.533
995.833, 1796.817
997.085, 1293.104
998.336, 1045.393
999.587, 781.685
1000.838, 713.981
1002.088, 648.278
1003.339, 514.581
1004.589, 453.887
1005.839, 406.196
1007.089, 343.498
1008.339, 328.812
1009.588, 273.094
1010.838, 280.295
1012.087, 256.619
1013.336, 220.948
1014.584, 205.280
1015.833, 202.616
1017.081, 180.900
1018.330, 198.242
1019.577, 178.588
1020.825, 192.937
1022.073, 181.214
1023.320, 137.570
1024.567, 166.929
1025.814, 143.291
1027.061, 121.657
1028.308, 120.026
1029.554, 96.400
1030.800, 84.778
1032.046, 90.159
1033.292, 92.544
1034.538, 74.931
1035.783, 91.322
1037.029, 67.717
1038.274, 67.115
1039.519, 52.517
1040.763, 50.922
1042.008, 60.332
1043.252, 68.746
1044.496, 59.165
1045.740, 45.587
1046.984, 68.014
1048.228, 44.445
1049.471, 40.881
1050.714, 37.321
1051.957, 37.764
1053.200, 60.211
1054.442, 71.661
1055.685, 41.115
1056.927, 52.573
1058.169, 40.035
1059.411, 25.500
1060.652, 32.969
1061.894, 38.442
1063.135, 34.918
1064.376, 32.398
1065.617, 29.881
1066.858, 35.369
1068.098, 11.862
1069.339, 44.359
1070.579, 33.861
1071.819, 1.368
1073.058, 41.878
1074.298, 20.395
1075.537, 31.916
1076.776, 49.443
1078.015, 25.974
1079.254, 44.509
1080.493, 28.050
1081.731, 56.597
1082.969, 67.146
1084.207, 50.699
1085.445, 45.257
1086.683, 42.818
1087.920, 27.384
1089.157, 44.955
1090.394, 26.529
1091.631, 53.107
1092.868, 57.690
1094.105, 95.277
1095.341, 103.869
1096.577, 124.464
1097.813, 155.062
1099.049, 204.666
1100.284, 299.273
1101.519, 369.884
1102.755, 409.499
1103.990, 392.118
1105.224, 329.742
1106.459, 246.371
1107.693, 149.004
1108.928, 155.641
1110.162, 131.282
1111.395, 121.927
1112.629, 105.576
1113.863, 83.228
1115.096, 116.883
1116.329, 118.542
1117.562, 115.204
1118.795, 142.869
1120.027, 157.537
1121.259, 179.209
1122.492, 217.884
1123.723, 251.126
1124.955, 278.246
1126.187, 349.936
1127.418, 408.626
1128.649, 485.321
1129.880, 616.018
1131.111, 746.719
1132.342, 1059.423
1133.572, 1364.130
1134.802, 1963.840
1136.033, 2668.553
1137.262, 3216.269
1138.492, 3535.989
1139.722, 3821.712
1140.951, 4042.438
1142.180, 4300.167
1143.409, 4113.900
1144.638, 3841.636
1145.866, 3192.375
1147.095, 2508.116
1148.323, 2030.862
1149.551, 1610.610
1150.779, 1241.362
1152.006, 1025.117
1153.234, 781.874
1154.461, 709.635
1155.688, 643.399
1156.915, 554.165
1158.141, 596.935
1159.368, 599.725
1160.594, 690.500
1161.820, 795.279
1163.046, 977.060
1164.272, 1149.844
1165.498, 1257.630
1166.723, 1191.420
1167.948, 1013.211
1169.173, 801.116
1170.398, 656.912
1171.623, 562.712
1172.847, 401.686
1174.071, 331.490
1175.295, 294.620
1176.519, 247.428
1177.743, 190.239
1178.966, 171.052
1180.190, 151.867
1181.413, 136.684
1182.636, 93.508
1183.858, 113.367
1185.081, 108.190
1186.303, 72.016
1187.526, 89.844
1188.748, 35.804
1189.969, 82.636
1191.191, 54.470
1192.412, 46.305
1193.634, 48.274
1194.855, 40.113
1196.076, 34.005
1197.296, 46.847
1198.517, 30.964
1199.737, 13.019
1200.957, 32.867
1202.177, 29.938
1203.397, 40.064
1204.617, 47.916
1205.836, 42.128
1207.055, 30.324
1208.274, 43.226
1209.493, 55.276
1210.712, 38.136
1211.930, 20.156
1213.148, 53.393
1214.367, 42.256
1215.584, 61.121
1216.802, 46.150
1218.020, 43.165
1219.237, 43.281
1220.454, 36.381
1221.671, 33.305
1222.888, 38.352
1224.105, 24.224
1225.321, 33.912
1226.537, 35.203
1227.753, 40.305
1228.969, 46.255
1230.185, 38.353
1231.400, 43.229
1232.616, 44.234
1233.831, 57.008
1235.046, 47.024
1236.261, 59.053
1237.475, 57.108
1238.689, 43.101
1239.904, 45.103
1241.118, 59.986
1242.332, 51.867
1243.545, 31.748
1244.759, 46.630
1245.972, 39.511
1247.185, 47.393
1248.398, 51.298
1249.611, 49.182
1250.823, 35.068
1252.036, 27.985
1253.248, 32.885
1254.460, 11.862
1255.671, 35.015
1256.883, 0.094
1258.095, 17.017
1259.306, 23.135
1260.517, 34.029
1261.728, 24.924
1262.938, 18.819
1264.149, 11.715
1265.359, 40.628
1266.569, 44.534
1267.779, 30.557
1268.989, 36.456
1270.199, 13.360
1271.408, 42.260
1272.617, 9.174
1273.826, 7.138
1275.035, 34.040
1276.244, 32.964
1277.452, 29.864
1278.661, 25.848
1279.869, 20.754
1281.077, 25.766
1282.285, 28.671
1283.492, 26.632
1284.700, 17.473
1285.907, 25.403
1287.114, 11.304
1288.321, 8.335
1289.527, 1.693
1290.734, 26.201
1291.940, 31.093
1293.146, 43.986
1294.352, 25.874
1295.558, 16.863
1296.763, 12.746
1297.969, 4.627
1299.174, 6.497
1300.379, 9.376
1301.584, 9.248
1302.788, 8.883
1303.993, 31.982
1305.197, 15.154
1306.401, 14.707
1307.605, 10.564
1308.809, 13.419
1310.013, 24.273
1311.216, 41.126
1312.419, 0.022
1313.622, 2.170
1314.825, 6.680
1316.028, 3.528
1317.230, 36.372
1318.432, 5.789
1319.634, 26.047
1320.836, 25.882
1322.038, 8.716
1323.240, 5.454
1324.441, 28.374
1325.642, 1.800
1326.843, 28.023
1328.044, 11.157
1329.245, 8.342
1330.445, 1.469
1331.645, 8.721
1332.845, 10.918
1334.045, 4.881
1335.245, 14.322
1336.445, 13.532
1337.644, 0.745
1338.843, 6.961
1340.042, 8.819
1341.241, 5.403
1342.440, 14.628
1343.638, 20.143
1344.836, 11.911
1346.034, 5.324
1347.232, 4.562
1348.430, 8.804
1349.628, 8.049
1350.825, 0.298
1352.022, 5.551
1353.219, 6.194
1354.416, 7.065
1355.613, 8.327
1356.809, 14.407
1358.005, 0.861
1359.202, 7.132
1360.398, 9.593
1361.593, 8.316
1362.789, 2.036
1363.984, 3.245
1365.179, 3.711
1366.374, 4.730
1367.569, 1.998
1368.764, 2.292
1369.958, 6.413
1371.153, 10.115
1372.347, 11.800
1373.541, 14.483
1374.735, 11.202
1375.928, 11.801
1377.122, 3.694
1378.315, 13.588
1379.508, 23.480
1380.701, 3.370
1381.893, 6.252
1383.086, 0.134
1384.278, 7.323
1385.470, 14.895
1386.662, 5.227
1387.854, 5.351
1389.046, 19.524
1390.237, 24.397
1391.428, 34.268
1392.619, 21.137
1393.810, 8.003
1395.001, 9.867
1396.191, 0.270
1397.382, 25.569
1398.572, 11.425
1399.762, 23.280
1400.952, 10.133
1402.141, 3.845
1403.331, 22.693
1404.520, 8.317
1405.709, 13.738
1406.898, 2.574
1408.087, 12.409
1409.275, 1.187
1410.464, 13.018
1411.652, 21.668
1412.840, 26.495
1414.028, 8.134
1415.215, 34.884
1416.403, 0.306
1417.590, 3.811
1418.777, 30.875
1419.964, 27.128
1421.151, 12.320
1422.338, 26.800
1423.524, 0.724
1424.710, 21.485
1425.896, 34.734
1427.082, 32.685
1428.268, 30.032
1429.453, 39.392
1430.639, 37.682
1431.824, 49.870
1433.009, 36.575
1434.194, 48.979
1435.378, 35.066
1436.563, 63.301
1437.747, 55.970
1438.931, 87.641
1440.115, 67.312
1441.299, 86.930
1442.482, 82.516
1443.666, 85.944
1444.849, 96.995
1446.032, 88.609
1447.215, 78.176
1448.397, 106.728
1449.580, 100.210
1450.762, 98.429
1451.944, 83.916
1453.126, 88.205
1454.308, 102.607
1455.490, 105.838
1456.671, 106.948
1457.852, 100.336
1459.033, 106.632
1460.214, 73.604
1461.395, 96.731
1462.575, 82.068
1463.756, 58.084
1464.936, 76.427
1466.116, 79.785
1467.296, 55.143
1468.475, 70.502
1469.655, 25.859
1470.834, 61.219
1472.013, 38.555
1473.192, 37.866
1474.371, 55.172
1475.550, 25.508
1476.728, 43.824
1477.906, 55.137
1479.084, 25.443
1480.262, 42.756
1481.440, 24.071
1482.617, 18.411
1483.795, 30.767
1484.972, 20.135
1486.149, 8.502
1487.326, 43.870
1488.502, 27.241
1489.679, 25.622
1490.855, 13.011
1492.031, 17.416
1493.207, 1.162
1494.383, 3.275
1495.559, 18.729
1496.734, 11.205
1497.909, 13.711
1499.084, 10.857
1500.259, 5.081
1501.434, 0.312
1502.608, 0.000
##END=



