##NAMES=Baryte
##RRUFFID=R040036
##IDEAL CHEMISTRY=BaS^6+^O_4_
##LOCALITY=Cumbria County, England
##OWNER=RRUFF
##SOURCE=University of Arizona Mineral Museum
##DESCRIPTION=Golden brown tabular crystal
##STATUS=The identification of this mineral has been confirmed by X-ray diffraction and chemical analysis
##URL=rruff.info/R040036
##MEASURED CHEMISTRY=Ba_1.00_S_1.00_O_4_; trace amounts of Pb
##PIN_ID=M00021
##ORIENTATION=Laser parallel to c* (0 0 1). Fiducial mark perpendicular to laser is parallel to -a [-1 0 0]
26.288, 0.000
27.694, 8.010
29.099, 46.224
30.504, 83.222
31.909, 37.763
33.313, 83.836
34.717, 62.808
36.121, 56.000
37.525, 49.287
38.929, 46.212
40.332, 52.097
41.735, 55.693
43.138, 41.273
44.541, 67.240
45.943, 82.041
47.345, 84.132
48.747, 62.132
50.149, 57.256
51.551, 43.038
52.952, 45.385
54.353, 95.727
55.754, 62.282
57.155, 110.540
58.555, 110.469
59.955, 153.863
61.355, 136.832
62.755, 121.594
64.154, 121.427
65.553, 120.823
66.952, 139.345
68.351, 150.332
69.750, 146.366
71.148, 161.523
72.546, 141.191
73.944, 149.515
75.342, 125.691
76.739, 72.294
78.136, 84.843
79.533, 55.966
80.930, 27.844
82.327, 20.694
83.723, 17.370
85.119, 9.966
86.515, 2.119
87.910, 7.749
89.306, 10.336
90.701, 23.590
92.096, 23.916
93.490, 17.272
94.885, 15.798
96.279, 51.790
97.673, 45.511
99.067, 50.649
100.461, 45.967
101.854, 38.413
103.247, 14.795
104.640, 14.296
106.032, 7.079
107.425, 31.560
108.817, 29.953
110.209, 49.938
111.601, 51.635
112.992, 72.274
114.384, 65.742
115.775, 74.158
117.166, 107.269
118.556, 102.469
119.947, 94.921
121.337, 123.194
122.727, 131.296
124.116, 153.174
125.506, 194.079
126.895, 204.912
128.284, 251.633
129.673, 226.188
131.062, 218.615
132.450, 142.928
133.838, 144.193
135.226, 121.146
136.614, 97.333
138.001, 75.237
139.388, 100.031
140.775, 150.885
142.162, 151.428
143.549, 176.031
144.935, 206.433
146.321, 238.860
147.707, 320.339
149.093, 347.721
150.478, 383.924
151.863, 383.001
153.248, 396.986
154.633, 362.025
156.018, 291.070
157.402, 274.169
158.786, 213.026
160.170, 172.820
161.554, 148.692
162.937, 109.487
164.320, 89.112
165.703, 100.836
167.086, 79.473
168.469, 65.944
169.851, 49.471
171.233, 38.952
172.615, 61.339
173.996, 28.655
175.378, 39.078
176.759, 55.595
178.140, 28.981
179.521, 48.112
180.901, 53.036
182.281, 39.723
183.662, 35.169
185.041, 76.561
186.421, 91.689
187.800, 105.541
189.180, 99.278
190.558, 109.801
191.937, 122.126
193.316, 103.264
194.694, 106.184
196.072, 97.137
197.450, 87.818
198.827, 85.186
200.205, 83.694
201.582, 104.358
202.959, 94.143
204.336, 93.116
205.712, 111.654
207.088, 107.245
208.465, 91.773
209.840, 107.259
211.216, 84.391
212.591, 70.336
213.967, 80.201
215.341, 85.881
216.716, 82.554
218.091, 94.082
219.465, 98.538
220.839, 96.379
222.213, 90.493
223.586, 87.945
224.960, 95.212
226.333, 80.136
227.706, 90.112
229.079, 86.818
230.451, 87.191
231.823, 97.473
233.195, 91.686
234.567, 94.333
235.939, 92.711
237.310, 91.422
238.682, 86.977
240.052, 83.108
241.423, 92.382
242.794, 103.706
244.164, 61.105
245.534, 75.606
246.904, 91.183
248.274, 63.747
249.643, 71.282
251.012, 76.023
252.381, 56.281
253.750, 59.450
255.118, 64.112
256.487, 86.087
257.855, 60.006
259.223, 66.061
260.590, 78.150
261.958, 69.440
263.325, 68.655
264.692, 62.933
266.059, 61.820
267.425, 49.657
268.791, 59.920
270.158, 57.336
271.523, 74.436
272.889, 64.142
274.255, 73.706
275.620, 78.310
276.985, 79.829
278.350, 80.201
279.714, 69.902
281.078, 71.174
282.443, 70.388
283.806, 59.479
285.170, 57.440
286.534, 51.282
287.897, 70.224
289.260, 73.386
290.623, 83.536
291.985, 62.787
293.348, 59.067
294.710, 63.330
296.072, 51.575
297.433, 76.802
298.795, 72.014
300.156, 81.209
301.517, 52.389
302.878, 72.553
304.239, 51.702
305.599, 81.834
306.959, 90.952
308.319, 68.035
309.679, 64.995
311.038, 73.761
312.398, 69.422
313.757, 79.127
315.116, 74.722
316.474, 63.245
317.833, 75.652
319.191, 76.954
320.549, 66.426
321.907, 52.618
323.264, 60.899
324.622, 48.287
325.979, 60.397
327.336, 61.648
328.692, 69.910
330.049, 77.013
331.405, 44.042
332.761, 60.316
334.117, 75.630
335.473, 47.979
336.828, 54.270
338.183, 56.581
339.538, 40.923
340.893, 70.151
342.247, 33.368
343.602, 53.518
344.956, 62.601
346.310, 78.651
347.663, 37.674
349.017, 65.773
350.370, 41.807
351.723, 63.816
353.076, 60.895
354.428, 31.981
355.780, 44.013
357.133, 61.082
358.484, 41.977
359.836, 19.786
361.188, 30.629
362.539, 32.496
363.890, 60.326
365.241, 60.211
366.591, 43.117
367.942, 48.981
369.292, 36.807
370.642, 45.611
371.992, 45.439
373.341, 54.190
374.691, 48.754
376.040, 48.539
377.388, 39.513
378.737, 38.324
380.086, 39.105
381.434, 27.897
382.782, 28.681
384.130, 45.460
385.477, 66.221
386.825, 29.969
388.172, 48.767
389.519, 35.623
390.865, 43.283
392.212, 53.024
393.558, 23.847
394.904, 47.553
396.250, 35.304
397.596, 36.086
398.941, 51.780
400.286, 40.493
401.631, 45.229
402.976, 48.064
404.321, 54.777
405.665, 45.515
407.009, 38.334
408.353, 36.094
409.697, 33.414
411.040, 44.578
412.384, 31.276
413.727, 40.911
415.070, 34.602
416.412, 48.286
417.755, 37.035
419.097, 54.771
420.439, 40.494
421.781, 57.233
423.122, 46.986
424.464, 36.723
425.805, 42.407
427.146, 52.094
428.486, 63.773
429.827, 61.399
431.167, 91.014
432.507, 75.600
433.847, 111.271
435.187, 118.956
436.526, 144.684
437.865, 181.311
439.204, 193.918
440.543, 237.540
441.882, 279.104
443.220, 370.781
444.558, 467.432
445.896, 660.123
447.234, 863.677
448.572, 1242.320
449.909, 1791.862
451.246, 2291.542
452.583, 2976.259
453.919, 2972.866
455.256, 2629.456
456.592, 2226.086
457.928, 1829.695
459.264, 1796.348
460.600, 1827.980
461.935, 1971.557
463.270, 1798.192
464.605, 1446.833
465.940, 1056.424
467.274, 759.953
468.609, 550.520
469.943, 397.029
471.277, 277.596
472.610, 228.168
473.944, 180.780
475.277, 147.425
476.610, 120.528
477.943, 120.489
479.275, 85.131
480.608, 85.643
481.940, 72.186
483.272, 56.738
484.604, 72.218
485.935, 50.834
487.267, 78.278
488.598, 48.817
489.929, 34.400
491.260, 61.058
492.590, 40.526
493.920, 52.126
495.250, 51.615
496.580, 57.208
497.910, 22.789
499.239, 15.236
500.569, 18.741
501.898, 30.326
503.226, 42.825
504.555, 41.223
505.883, 28.673
507.212, 47.133
508.540, 27.725
509.867, 25.319
511.195, 33.834
512.522, 59.378
513.849, 58.868
515.176, 56.401
516.503, 43.935
517.829, 36.512
519.156, 41.066
520.482, 35.058
521.808, 50.137
523.133, 34.650
524.459, 42.229
525.784, 40.698
527.109, 33.172
528.434, 48.726
529.758, 64.380
531.083, 50.219
532.407, 36.842
533.731, 44.433
535.055, 31.325
536.378, 38.926
537.701, 35.423
539.025, 33.043
540.348, 50.568
541.670, 52.198
542.993, 37.803
544.315, 45.410
545.637, 34.999
546.959, 30.592
548.281, 32.217
549.602, 17.824
550.923, 20.404
552.244, 14.947
553.565, 28.481
554.886, 27.278
556.206, 25.817
557.526, 20.692
558.846, 18.226
560.166, 20.297
561.486, 11.475
562.805, 23.165
564.124, 23.741
565.443, 19.449
566.762, 32.113
568.080, 26.807
569.399, 34.552
570.717, 45.423
572.035, 46.119
573.352, 37.151
574.670, 44.485
575.987, 40.998
577.304, 45.899
578.621, 41.551
579.938, 39.180
581.254, 40.142
582.570, 58.770
583.886, 62.396
585.202, 56.186
586.518, 90.811
587.833, 82.811
589.148, 121.517
590.463, 116.139
591.778, 99.807
593.093, 117.477
594.407, 125.096
595.721, 137.716
597.035, 156.346
598.349, 142.101
599.662, 160.143
600.976, 182.879
602.289, 205.644
603.602, 223.257
604.914, 276.918
606.227, 284.557
607.539, 376.165
608.851, 521.849
610.163, 691.492
611.475, 1016.370
612.786, 1518.997
614.097, 2390.625
615.408, 3426.240
616.719, 4023.842
618.030, 4037.505
619.340, 3332.104
620.651, 2574.960
621.961, 2034.577
623.270, 1546.204
624.580, 1341.800
625.889, 1224.394
627.199, 1240.987
628.507, 1333.580
629.816, 1347.171
631.125, 1294.762
632.433, 1019.372
633.741, 710.960
635.049, 494.547
636.357, 355.146
637.664, 253.756
638.972, 235.340
640.279, 178.054
641.586, 142.683
642.893, 128.202
644.199, 129.114
645.505, 139.693
646.811, 124.276
648.117, 122.843
649.423, 107.469
650.728, 110.032
652.034, 72.584
653.339, 86.157
654.644, 61.887
655.948, 59.458
657.253, 57.132
658.557, 46.718
659.861, 45.530
661.165, 52.866
662.468, 31.430
663.772, 23.262
665.075, 2.823
666.378, 22.569
667.681, 25.127
668.983, 17.684
670.286, 28.405
671.588, 15.041
672.890, 5.510
674.192, 0.077
675.493, 14.378
676.795, 22.162
678.096, 8.818
679.397, 6.355
680.697, 21.224
681.998, 2.243
683.298, 19.349
684.598, 3.898
685.898, 12.426
687.198, 27.231
688.498, 23.755
689.797, 10.368
691.096, 9.050
692.395, 15.554
693.694, 36.441
694.992, 8.044
696.290, 12.592
697.589, 11.899
698.886, 34.594
700.184, 3.076
701.482, 11.565
702.779, 4.013
704.076, 16.508
705.373, 0.002
706.669, 2.481
707.966, 3.998
709.262, 5.300
710.558, 8.956
711.854, 0.511
713.150, 15.767
714.445, 7.298
715.740, 5.834
717.035, 19.374
718.330, 9.080
719.625, 18.531
720.919, 13.020
722.214, 25.423
723.508, 21.865
724.801, 5.696
726.095, 34.739
727.388, 14.828
728.682, 1.390
729.975, 15.034
731.267, 2.456
732.560, 1.875
733.852, 13.292
735.145, 11.707
736.437, 9.119
737.728, 4.470
739.020, 17.064
740.311, 3.663
741.603, 5.266
742.894, 11.127
744.184, 0.518
745.475, 4.906
746.765, 12.293
748.055, 1.324
749.345, 3.057
750.635, 10.564
751.925, 5.810
753.214, 5.181
754.503, 7.550
755.792, 23.917
757.081, 0.718
758.370, 14.644
759.658, 9.997
760.946, 5.359
762.234, 2.712
763.522, 16.062
764.809, 13.411
766.097, 13.757
767.384, 9.102
768.671, 29.444
769.958, 9.784
771.244, 4.123
772.530, 25.459
773.817, 16.793
775.102, 5.125
776.388, 2.455
777.674, 21.782
778.959, 6.892
780.244, 4.570
781.529, 13.749
782.814, 13.933
784.098, 8.379
785.383, 5.690
786.667, 12.998
787.951, 0.696
789.235, 6.608
790.518, 7.910
791.801, 8.211
793.084, 6.491
794.367, 12.804
795.650, 3.903
796.933, 1.387
798.215, 1.675
799.497, 24.961
800.779, 17.245
802.061, 11.472
803.342, 13.806
804.624, 7.980
805.905, 5.293
807.186, 7.563
808.466, 7.168
809.747, 20.098
811.027, 3.009
812.307, 0.224
813.587, 7.409
814.867, 3.329
816.146, 5.414
817.426, 3.809
818.705, 14.980
819.984, 14.268
821.263, 2.586
822.541, 0.343
823.819, 15.847
825.098, 12.925
826.375, 7.311
827.653, 4.454
828.931, 9.243
830.208, 17.958
831.485, 18.814
832.762, 37.408
834.039, 6.581
835.315, 19.626
836.592, 16.541
837.868, 11.758
839.144, 18.918
840.420, 2.116
841.695, 13.280
842.970, 30.491
844.246, 32.631
845.521, 2.215
846.795, 6.862
848.070, 4.088
849.344, 18.880
850.618, 12.979
851.892, 23.823
853.166, 24.821
854.440, 23.852
855.713, 37.568
856.986, 17.743
858.259, 33.939
859.532, 58.800
860.804, 23.996
862.077, 44.190
863.349, 20.220
864.621, 22.413
865.893, 0.771
867.164, 3.337
868.436, 4.899
869.707, 38.672
870.978, 17.812
872.248, 22.002
873.519, 29.188
874.789, 10.363
876.060, 28.413
877.330, 6.173
878.599, 25.238
879.869, 25.272
881.138, 10.457
882.408, 29.593
883.677, 16.750
884.945, 4.936
886.214, 17.045
887.482, 20.194
888.751, 33.107
890.019, 36.694
891.287, 37.431
892.554, 42.604
893.822, 60.789
895.089, 58.911
896.356, 43.097
897.623, 62.025
898.889, 64.191
900.156, 76.345
901.422, 78.531
902.688, 89.717
903.954, 85.903
905.220, 77.089
906.485, 38.276
907.750, 62.463
909.015, 49.630
910.280, 47.817
911.545, 55.005
912.809, 45.180
914.074, 72.343
915.338, 43.532
916.602, 62.545
917.865, 70.609
919.129, 96.800
920.392, 64.652
921.655, 92.844
922.918, 54.031
924.181, 71.224
925.443, 94.368
926.706, 86.562
927.968, 99.757
929.230, 77.953
930.491, 89.990
931.753, 72.189
933.014, 102.283
934.276, 105.464
935.536, 93.649
936.797, 124.852
938.058, 87.055
939.318, 98.990
940.578, 109.195
941.838, 116.215
943.098, 112.423
944.358, 110.632
945.617, 81.677
946.876, 114.888
948.135, 104.099
949.394, 127.295
950.653, 105.512
951.911, 139.731
953.169, 145.835
954.427, 155.057
955.685, 131.947
956.943, 173.172
958.200, 148.338
959.458, 196.547
960.715, 226.777
961.971, 244.728
963.228, 326.961
964.485, 403.104
965.741, 463.150
966.997, 465.387
968.253, 464.216
969.508, 536.457
970.764, 603.575
972.019, 698.820
973.274, 740.069
974.529, 857.318
975.784, 960.570
977.039, 1167.824
978.293, 1473.080
979.547, 2033.337
980.801, 2745.597
982.055, 4233.829
983.308, 7153.093
984.562, 13765.295
985.815, 34434.570
987.068, 62783.590
988.321, 64702.863
989.573, 52462.145
990.826, 27991.426
992.078, 15310.727
993.330, 8594.016
994.582, 4922.420
995.833, 3226.714
997.085, 2205.010
998.336, 1674.307
999.587, 1349.607
1000.838, 1081.910
1002.088, 961.206
1003.339, 804.514
1004.589, 691.825
1005.839, 620.138
1007.089, 546.453
1008.339, 536.771
1009.588, 485.090
1010.838, 454.412
1012.087, 410.737
1013.336, 383.066
1014.584, 373.397
1015.833, 363.732
1017.081, 320.069
1018.330, 338.411
1019.577, 318.754
1020.825, 319.100
1022.073, 329.449
1023.320, 302.800
1024.567, 328.155
1025.814, 360.511
1027.061, 394.871
1028.308, 390.250
1029.554, 405.597
1030.800, 364.963
1032.046, 305.332
1033.292, 260.705
1034.538, 226.080
1035.783, 169.457
1037.029, 129.837
1038.274, 177.219
1039.519, 119.603
1040.763, 135.004
1042.008, 101.394
1043.252, 99.786
1044.496, 87.181
1045.740, 102.579
1046.984, 81.979
1048.228, 97.381
1049.471, 79.786
1050.714, 91.193
1051.957, 90.635
1053.200, 92.048
1054.442, 107.484
1055.685, 108.904
1056.927, 101.328
1058.169, 105.753
1059.411, 77.181
1060.652, 71.636
1061.894, 67.079
1063.135, 69.565
1064.376, 72.053
1065.617, 83.607
1066.858, 83.083
1068.098, 73.609
1069.339, 74.367
1070.579, 66.598
1071.819, 83.051
1073.058, 103.507
1074.298, 120.989
1075.537, 106.454
1076.776, 154.925
1078.015, 190.400
1079.254, 218.878
1080.493, 310.361
1081.731, 367.846
1082.969, 461.335
1084.207, 422.826
1085.445, 351.322
1086.683, 296.821
1087.920, 200.324
1089.157, 158.829
1090.394, 121.339
1091.631, 82.852
1092.868, 52.368
1094.105, 55.886
1095.341, 75.407
1096.577, 62.932
1097.813, 73.459
1099.049, 85.988
1100.284, 95.522
1101.519, 125.058
1102.755, 176.600
1103.990, 202.144
1105.224, 159.690
1106.459, 143.239
1107.693, 99.790
1108.928, 66.343
1110.162, 77.898
1111.395, 36.456
1112.629, 45.015
1113.863, 23.578
1115.096, 0.142
1116.329, 11.708
1117.562, 11.277
1118.795, 18.848
1120.027, 26.421
1121.259, 10.997
1122.492, 21.575
1123.723, 18.155
1124.955, 2.263
1126.187, 9.196
1127.418, 11.093
1128.649, 9.494
1129.880, 12.083
1131.111, 2.673
1132.342, 30.266
1133.572, 65.861
1134.802, 105.457
1136.033, 167.056
1137.262, 203.657
1138.492, 258.259
1139.722, 277.864
1140.951, 285.471
1142.180, 356.081
1143.409, 391.693
1144.638, 386.306
1145.866, 370.922
1147.095, 318.540
1148.323, 249.159
1149.551, 202.781
1150.779, 159.829
1152.006, 117.454
1153.234, 92.564
1154.461, 82.709
1155.688, 61.339
1156.915, 44.970
1158.141, 53.603
1159.368, 55.237
1160.594, 47.873
1161.820, 46.510
1163.046, 60.149
1164.272, 70.789
1165.498, 78.431
1166.723, 81.074
1167.948, 73.718
1169.173, 53.363
1170.398, 37.010
1171.623, 64.658
1172.847, 1.693
1174.071, 25.199
1175.295, 30.850
1176.519, 6.502
1177.743, 17.156
1178.966, 3.810
1180.190, 5.465
1181.413, 27.160
1182.636, 4.818
1183.858, 3.524
1185.081, 34.135
1186.303, 2.194
1187.526, 1.466
1188.748, 0.128
1189.969, 8.790
1191.191, 6.168
1192.412, 2.883
1193.634, 1.219
1194.855, 4.887
1196.076, 5.889
1197.296, 8.224
1198.517, 3.559
1199.737, 6.894
1200.957, 3.811
1202.177, 7.523
1203.397, 4.256
1204.617, 14.949
1205.836, 2.247
1207.055, 11.010
1208.274, 20.234
1209.493, 7.097
1210.712, 7.159
1211.930, 21.023
1213.148, 25.728
1214.367, 17.640
1215.584, 28.342
1216.802, 45.446
1218.020, 30.349
1219.237, 41.184
1220.454, 29.995
1221.671, 43.688
1222.888, 27.501
1224.105, 18.349
1225.321, 14.046
1226.537, 24.776
1227.753, 25.445
1228.969, 35.113
1230.185, 29.781
1231.400, 49.682
1232.616, 36.350
1233.831, 17.300
1235.046, 26.990
1236.261, 26.657
1237.475, 21.330
1238.689, 14.019
1239.904, 52.696
1241.118, 41.394
1242.332, 41.091
1243.545, 60.782
1244.759, 34.505
1245.972, 23.173
1247.185, 33.857
1248.398, 20.560
1249.611, 30.229
1250.823, 20.893
1252.036, 23.557
1253.248, 22.222
1254.460, 36.887
1255.671, 39.552
1256.883, 11.256
1258.095, 6.921
1259.306, 22.470
1260.517, 27.170
1261.728, 36.836
1262.938, 30.597
1264.149, 9.263
1265.359, 49.939
1266.569, 27.641
1267.779, 8.305
1268.989, 46.968
1270.199, 35.851
1271.408, 10.514
1272.617, 26.512
1273.826, 49.175
1275.035, 27.839
1276.244, 44.625
1277.452, 23.298
1278.661, 18.958
1279.869, 12.754
1281.077, 16.541
1282.285, 41.121
1283.492, 23.778
1284.700, 11.434
1285.907, 45.090
1287.114, 30.746
1288.321, 34.402
1289.527, 23.087
1290.734, 34.741
1291.940, 38.393
1293.146, 34.365
1294.352, 9.674
1295.558, 30.310
1296.763, 13.942
1297.969, 7.569
1299.174, 17.193
1300.379, 22.814
1301.584, 31.433
1302.788, 10.050
1303.993, 7.347
1305.197, 23.266
1306.401, 9.874
1307.605, 15.482
1308.809, 12.088
1310.013, 13.692
1311.216, 2.294
1312.419, 8.895
1313.622, 12.494
1314.825, 22.061
1316.028, 6.657
1317.230, 35.232
1318.432, 50.826
1319.634, 31.414
1320.836, 20.003
1322.038, 37.590
1323.240, 17.148
1324.441, 16.718
1325.642, 12.242
1326.843, 23.747
1328.044, 42.218
1329.245, 23.748
1330.445, 3.230
1331.645, 19.789
1332.845, 0.744
1334.045, 4.809
1335.245, 1.640
1336.445, 21.114
1337.644, 19.572
1338.843, 4.034
1340.042, 12.500
1341.241, 3.970
1342.440, 4.557
1343.638, 5.918
1344.836, 4.603
1346.034, 13.878
1347.232, 5.320
1348.430, 2.379
1349.628, 1.303
1350.825, 7.201
1352.022, 1.298
1353.219, 2.799
1354.416, 6.742
1355.613, 3.189
1356.809, 20.680
1358.005, 19.168
1359.202, 17.655
1360.398, 4.861
1361.593, 22.621
1362.789, 6.901
1363.984, 8.576
1365.179, 19.048
1366.374, 12.519
1367.569, 8.989
1368.764, 11.456
1369.958, 7.127
1371.153, 7.547
1372.347, 9.101
1373.541, 4.564
1374.735, 13.963
1375.928, 9.240
1377.122, 6.865
1378.315, 13.799
1379.508, 18.112
1380.701, 28.734
1381.893, 23.354
1383.086, 42.974
1384.278, 22.591
1385.470, 6.207
1386.662, 25.821
1387.854, 32.432
1389.046, 9.039
1390.237, 28.642
1391.428, 3.242
1392.619, 24.840
1393.810, 13.940
1395.001, 8.527
1396.191, 30.112
1397.382, 19.695
1398.572, 2.725
1399.762, 42.854
1400.952, 7.569
1402.141, 20.006
1403.331, 17.579
1404.520, 1.839
1405.709, 15.406
1406.898, 24.971
1408.087, 1.483
1409.275, 9.045
1410.464, 17.591
1411.652, 23.151
1412.840, 26.411
1414.028, 32.267
1415.215, 23.824
1416.403, 27.382
1417.590, 12.881
1418.777, 30.269
1419.964, 34.574
1421.151, 28.352
1422.338, 21.953
1423.524, 31.094
1424.710, 18.145
1425.896, 18.552
1427.082, 28.519
1428.268, 29.706
1429.453, 32.814
1430.639, 40.165
1431.824, 39.620
1433.009, 52.653
1434.194, 52.431
1435.378, 55.210
1436.563, 63.326
1437.747, 55.629
1438.931, 70.886
1440.115, 68.248
1441.299, 66.569
1442.482, 94.970
1443.666, 72.361
1444.849, 76.625
1446.032, 68.993
1447.215, 96.272
1448.397, 86.396
1449.580, 90.611
1450.762, 82.935
1451.944, 114.704
1453.126, 99.142
1454.308, 106.068
1455.490, 122.268
1456.671, 84.992
1457.852, 79.164
1459.033, 102.328
1460.214, 86.470
1461.395, 75.499
1462.575, 79.628
1463.756, 66.842
1464.936, 64.895
1466.116, 60.178
1467.296, 54.381
1468.475, 61.575
1469.655, 51.779
1470.834, 43.970
1472.013, 39.153
1473.192, 58.322
1474.371, 6.474
1475.550, 31.611
1476.728, 23.744
1477.906, 54.874
1479.084, 23.051
1480.262, 57.246
1481.440, 77.455
1482.617, 66.674
1483.795, 50.905
1484.972, 52.141
1486.149, 56.381
1487.326, 36.626
1488.502, 54.880
1489.679, 37.738
1490.855, 14.992
1492.031, 60.261
1493.207, 44.540
1494.383, 45.828
1495.559, 26.124
1496.734, 44.463
1497.909, 3.183
1499.084, 10.260
1500.259, 31.776
1501.434, 4.496
1502.608, 0.000
##END=



