##NAMES=Baryte
##RRUFFID=R040036
##IDEAL CHEMISTRY=BaS^6+^O_4_
##LOCALITY=Cumbria County, England
##OWNER=RRUFF
##SOURCE=University of Arizona Mineral Museum
##DESCRIPTION=Golden brown tabular crystal
##STATUS=The identification of this mineral has been confirmed by X-ray diffraction and chemical analysis
##URL=rruff.info/R040036
##MEASURED CHEMISTRY=Ba_1.00_S_1.00_O_4_; trace amounts of Pb
##PIN_ID=M00019
##ORIENTATION=Laser parallel to b* (0 1 0). Fiducial mark perpendicular to laser is parallel to c [0 0 1]
26.288, 0.000
27.694, 0.549
29.099, 12.513
30.504, 7.710
31.909, 23.725
33.313, 11.658
34.717, 41.676
36.121, 36.224
37.525, 37.018
38.929, 28.480
40.332, 27.726
41.735, 29.577
43.138, 26.425
44.541, 28.883
45.943, 19.751
47.345, 16.728
48.747, 32.463
50.149, 31.021
51.551, 6.864
52.952, 29.573
54.353, 32.541
55.754, 34.392
57.155, 65.548
58.555, 68.975
59.955, 48.538
61.355, 59.871
62.755, 57.192
64.154, 71.886
65.553, 62.841
66.952, 70.416
68.351, 65.142
69.750, 81.583
71.148, 76.032
72.546, 58.487
73.944, 39.948
75.342, 28.414
76.739, 16.882
78.136, 21.352
79.533, 0.821
80.930, 12.286
82.327, 4.749
83.723, 8.790
85.119, 27.329
86.515, 31.873
87.910, 17.424
89.306, 12.980
90.701, 2.539
92.096, 8.096
93.490, 15.657
94.885, 3.222
96.279, 7.208
97.673, 28.634
99.067, 27.056
100.461, 32.474
101.854, 10.901
103.247, 36.366
104.640, 23.860
106.032, 30.380
107.425, 40.923
108.817, 50.487
110.209, 71.061
111.601, 159.640
112.992, 149.016
114.384, 204.801
115.775, 169.379
117.166, 157.953
118.556, 148.520
119.947, 125.096
121.337, 115.646
122.727, 132.187
124.116, 116.748
125.506, 124.269
126.895, 147.777
128.284, 170.280
129.673, 169.823
131.062, 182.430
132.450, 171.701
133.838, 176.088
135.226, 164.488
136.614, 135.908
138.001, 128.367
139.388, 119.377
140.775, 125.250
142.162, 119.730
143.549, 147.198
144.935, 169.565
146.321, 185.841
147.707, 236.157
149.093, 274.482
150.478, 349.865
151.863, 366.169
153.248, 375.507
154.633, 425.043
156.018, 415.502
157.402, 366.002
158.786, 338.304
160.170, 296.667
161.554, 240.066
162.937, 199.380
164.320, 174.688
165.703, 164.985
167.086, 145.327
168.469, 120.658
169.851, 126.993
171.233, 114.308
172.615, 122.661
173.996, 128.989
175.378, 133.414
176.759, 151.967
178.140, 157.439
179.521, 198.816
180.901, 249.164
182.281, 305.390
183.662, 388.636
185.041, 541.818
186.421, 714.036
187.800, 879.233
189.180, 928.429
190.558, 910.485
191.937, 803.373
193.316, 681.129
194.694, 482.865
196.072, 406.527
197.450, 297.162
198.827, 236.835
200.205, 189.430
201.582, 161.810
202.959, 142.400
204.336, 114.897
205.712, 114.320
207.088, 100.774
208.465, 79.155
209.840, 86.386
211.216, 70.674
212.591, 52.939
213.967, 72.254
215.341, 82.541
216.716, 55.828
218.091, 72.004
219.465, 50.280
220.839, 70.581
222.213, 61.715
223.586, 54.795
224.960, 58.856
226.333, 67.785
227.706, 51.741
229.079, 51.422
230.451, 41.290
231.823, 58.035
233.195, 52.503
234.567, 50.536
235.939, 45.483
237.310, 46.742
238.682, 45.964
240.052, 48.655
241.423, 45.076
242.794, 39.317
244.164, 31.852
245.534, 43.583
246.904, 27.541
248.274, 38.483
249.643, 28.516
251.012, 36.297
252.381, 32.288
253.750, 31.195
255.118, 34.153
256.487, 19.157
257.855, 33.203
259.223, 19.325
260.590, 43.443
261.958, 25.558
263.325, 57.668
264.692, 39.775
266.059, 35.878
267.425, 36.978
268.791, 35.074
270.158, 34.166
271.523, 28.254
272.889, 28.951
274.255, 40.420
275.620, 29.498
276.985, 28.572
278.350, 32.642
279.714, 16.709
281.078, 6.772
282.443, 27.832
283.806, 6.889
285.170, 16.942
286.534, 6.992
287.897, 32.038
289.260, 27.080
290.623, 20.119
291.985, 25.154
293.348, 21.841
294.710, 14.216
296.072, 23.243
297.433, 27.267
298.795, 27.287
300.156, 22.305
301.517, 15.320
302.878, 34.331
304.239, 18.339
305.599, 20.342
306.959, 24.343
308.319, 14.341
309.679, 19.336
311.038, 16.327
312.398, 30.316
313.757, 7.302
315.116, 23.284
316.474, 4.264
317.833, 14.240
319.191, 16.213
320.549, 11.184
321.907, 0.150
323.264, 8.113
324.622, 10.067
325.979, 20.013
327.336, 13.951
328.692, 27.880
330.049, 9.803
331.405, 12.719
332.761, 1.373
334.117, 3.049
335.473, 5.579
336.828, 1.695
338.183, 16.183
339.538, 28.055
340.893, 21.922
342.247, 17.785
343.602, 9.643
344.956, 10.496
346.310, 17.345
347.663, 13.189
349.017, 0.970
350.370, 6.866
351.723, 4.699
353.076, 8.527
354.428, 15.352
355.780, 14.174
357.133, 5.993
358.484, 5.809
359.836, 6.611
361.188, 1.421
362.539, 7.228
363.890, 25.032
365.241, 12.834
366.591, 6.614
367.942, 30.410
369.292, 18.205
370.642, 5.997
371.992, 10.788
373.341, 13.577
374.691, 12.361
376.040, 11.145
377.388, 13.882
378.737, 9.955
380.086, 10.466
381.434, 6.248
382.782, 11.026
384.130, 13.816
385.477, 19.607
386.825, 22.406
388.172, 34.200
389.519, 21.973
390.865, 34.715
392.212, 26.513
393.558, 23.237
394.904, 10.011
396.250, 33.739
397.596, 38.504
398.941, 33.250
400.286, 32.992
401.631, 31.747
402.976, 26.432
404.321, 38.188
405.665, 33.873
407.009, 21.663
408.353, 29.375
409.697, 24.167
411.040, 33.944
412.384, 30.702
413.727, 32.465
415.070, 38.714
416.412, 32.968
417.755, 44.689
419.097, 51.414
420.439, 46.188
421.781, 46.913
423.122, 50.635
424.464, 58.376
425.805, 67.042
427.146, 73.657
428.486, 84.374
429.827, 104.991
431.167, 128.810
432.507, 172.276
433.847, 204.011
435.187, 255.728
436.526, 325.407
437.865, 403.110
439.204, 526.797
440.543, 656.448
441.882, 911.140
443.220, 1193.851
444.558, 1612.563
445.896, 2250.253
447.234, 3112.909
448.572, 4196.653
449.909, 5243.322
451.246, 5953.000
452.583, 6123.696
453.919, 5198.346
455.256, 4085.019
456.592, 3023.679
457.928, 2194.404
459.264, 1697.021
460.600, 1311.712
461.935, 1022.315
463.270, 786.965
464.605, 624.623
465.940, 428.260
467.274, 334.826
468.609, 264.451
469.943, 186.086
471.277, 163.768
472.610, 126.421
473.944, 108.142
475.277, 108.778
476.610, 80.428
477.943, 59.984
479.275, 65.505
480.608, 75.967
481.940, 78.519
483.272, 68.546
484.604, 63.910
485.935, 45.605
487.267, 32.282
488.598, 30.920
489.929, 22.563
491.260, 38.238
492.590, 25.895
493.920, 39.468
495.250, 24.096
496.580, 33.714
497.910, 36.350
499.239, 29.020
500.569, 40.685
501.898, 45.313
503.226, 30.941
504.555, 39.574
505.883, 25.182
507.212, 43.819
508.540, 16.539
509.867, 40.202
511.195, 21.838
512.522, 25.563
513.849, 47.253
515.176, 34.886
516.503, 34.542
517.829, 43.211
519.156, 42.874
520.482, 38.531
521.808, 30.201
523.133, 40.855
524.459, 39.511
525.784, 37.147
527.109, 36.806
528.434, 34.478
529.758, 21.176
531.083, 35.888
532.407, 35.604
533.731, 27.315
535.055, 43.031
536.378, 29.746
537.701, 25.461
539.025, 34.119
540.348, 50.834
541.670, 16.548
542.993, 20.262
544.315, 45.975
545.637, 17.688
546.959, 11.401
548.281, 26.132
549.602, 31.846
550.923, 18.557
552.244, 11.272
553.565, 22.989
554.886, 33.697
556.206, 33.430
557.526, 35.456
558.846, 19.199
560.166, 28.907
561.486, 21.630
562.805, 18.334
564.124, 18.054
565.443, 31.021
566.762, 21.757
568.080, 20.560
569.399, 44.293
570.717, 25.076
572.035, 14.816
573.352, 14.513
574.670, 25.344
575.987, 51.039
577.304, 11.775
578.621, 28.467
579.938, 13.295
581.254, 22.043
582.570, 27.732
583.886, 26.468
585.202, 55.195
586.518, 23.241
587.833, 51.043
589.148, 39.726
590.463, 45.419
591.778, 42.100
593.093, 22.779
594.407, 47.475
595.721, 41.152
597.035, 42.149
598.349, 66.889
599.662, 41.723
600.976, 69.404
602.289, 81.135
603.602, 68.837
604.914, 97.788
606.227, 100.455
607.539, 161.500
608.851, 203.220
610.163, 267.591
611.475, 384.557
612.786, 598.269
614.097, 932.026
615.408, 1173.191
616.719, 1264.894
618.030, 1139.548
619.340, 975.541
620.651, 811.218
621.961, 720.870
623.270, 729.520
624.580, 784.188
625.889, 914.177
627.199, 1094.899
628.507, 1284.543
629.816, 1381.189
631.125, 1327.927
632.433, 1094.593
633.741, 940.566
635.049, 770.201
636.357, 709.837
637.664, 738.474
638.972, 809.244
640.279, 933.097
641.586, 1205.984
642.893, 1522.701
644.199, 1950.524
645.505, 2270.291
646.811, 2491.911
648.117, 2284.775
649.423, 1829.423
650.728, 1341.052
652.034, 927.956
653.339, 622.577
654.644, 448.184
655.948, 322.791
657.253, 236.395
658.557, 178.998
659.861, 158.597
661.165, 120.194
662.468, 114.789
663.772, 70.655
665.075, 69.245
666.378, 49.837
667.681, 56.605
668.983, 64.189
670.286, 40.783
671.588, 38.387
672.890, 20.280
674.192, 32.071
675.493, 25.784
676.795, 30.510
678.096, 27.076
679.397, 21.877
680.697, 17.600
681.998, 25.161
683.298, 39.866
684.598, 37.468
685.898, 20.084
687.198, 25.831
688.498, 12.385
689.797, 15.929
691.096, 30.492
692.395, 15.029
693.694, 14.679
694.992, 34.226
696.290, 10.935
697.589, 5.461
698.886, 8.017
700.184, 15.693
701.482, 12.206
702.779, 22.717
704.076, 12.225
705.373, 6.270
706.669, 8.230
707.966, 0.726
709.262, 8.219
710.558, 1.733
711.854, 6.219
713.150, 23.701
714.445, 0.819
715.740, 17.656
717.035, 6.128
718.330, 20.592
719.625, 0.941
720.919, 3.521
722.214, 22.980
723.508, 4.435
724.801, 5.888
726.095, 10.663
727.388, 0.220
728.682, 28.219
729.975, 11.655
731.267, 14.088
732.560, 15.518
733.852, 9.945
735.145, 14.369
736.437, 9.210
737.728, 2.206
739.020, 2.382
740.311, 11.025
741.603, 2.430
742.894, 5.831
744.184, 7.772
745.475, 12.621
746.765, 11.990
748.055, 2.393
749.345, 26.227
750.635, 8.857
751.925, 2.507
753.214, 0.132
754.503, 17.775
755.792, 2.574
757.081, 18.920
758.370, 10.736
759.658, 5.601
760.946, 22.935
762.234, 17.267
763.522, 6.595
764.809, 11.079
766.097, 0.241
767.384, 18.557
768.671, 8.870
769.958, 0.819
771.244, 3.488
772.530, 11.208
773.817, 11.089
775.102, 8.385
776.388, 7.677
777.674, 3.033
778.959, 6.747
780.244, 8.406
781.529, 1.191
782.814, 5.919
784.098, 3.651
785.383, 8.612
786.667, 8.127
787.951, 1.129
789.235, 3.381
790.518, 10.369
791.801, 3.876
793.084, 6.118
794.367, 5.358
795.650, 10.595
796.933, 4.829
798.215, 14.061
799.497, 8.291
800.779, 23.518
802.061, 10.257
803.342, 10.963
804.624, 3.180
805.905, 6.605
807.186, 17.605
808.466, 0.814
809.747, 0.020
811.027, 12.777
812.307, 8.579
813.587, 5.386
814.867, 6.196
816.146, 5.990
817.426, 9.826
818.705, 6.647
819.984, 0.529
821.263, 6.298
822.541, 2.128
823.819, 2.961
825.098, 8.797
826.375, 0.637
827.653, 0.502
828.931, 1.290
830.208, 0.809
831.485, 6.045
832.762, 0.904
834.039, 8.758
835.315, 10.359
836.592, 14.450
837.868, 9.717
839.144, 6.416
840.420, 3.531
841.695, 8.663
842.970, 3.775
844.246, 25.638
845.521, 25.730
846.795, 6.751
848.070, 2.160
849.344, 25.877
850.618, 13.954
851.892, 27.073
853.166, 11.055
854.440, 30.171
855.713, 42.244
856.986, 28.357
858.259, 38.333
859.532, 27.386
860.804, 38.495
862.077, 29.556
863.349, 32.623
864.621, 43.369
865.893, 20.357
867.164, 4.461
868.436, 32.553
869.707, 2.655
870.978, 15.757
872.248, 13.839
873.519, 12.939
874.789, 18.716
876.060, 7.749
877.330, 5.685
878.599, 4.771
879.869, 2.800
881.138, 3.488
882.408, 5.681
883.677, 5.775
884.945, 7.489
886.214, 10.526
887.482, 8.911
888.751, 13.834
890.019, 18.070
891.287, 25.734
892.554, 28.318
893.822, 41.362
895.089, 45.453
896.356, 50.117
897.623, 40.270
898.889, 56.360
900.156, 55.451
901.422, 54.524
902.688, 20.273
903.954, 35.288
905.220, 26.379
906.485, 38.466
907.750, 40.461
909.015, 45.525
910.280, 43.282
911.545, 46.374
912.809, 28.465
914.074, 58.554
915.338, 23.509
916.602, 37.379
917.865, 20.213
919.129, 28.217
920.392, 38.113
921.655, 21.064
922.918, 35.162
924.181, 46.014
925.443, 49.081
926.706, 62.166
927.968, 44.974
929.230, 44.066
930.491, 53.168
931.753, 43.270
933.014, 50.375
934.276, 59.479
935.536, 63.585
936.797, 59.693
938.058, 45.802
939.318, 66.640
940.578, 64.752
941.838, 90.862
943.098, 47.794
944.358, 47.910
945.617, 54.015
946.876, 79.109
948.135, 62.912
949.394, 85.817
950.653, 66.800
951.911, 85.768
953.169, 80.894
954.427, 94.785
955.685, 100.755
956.943, 99.884
958.200, 99.869
959.458, 145.956
960.715, 146.029
961.971, 189.969
963.228, 277.096
964.485, 309.239
965.741, 342.361
966.997, 323.509
968.253, 371.537
969.508, 406.674
970.764, 449.649
972.019, 543.806
973.274, 591.965
974.529, 683.936
975.784, 840.101
977.039, 1002.270
978.293, 1337.441
979.547, 1924.614
980.801, 2781.792
982.055, 4637.971
983.308, 8377.153
984.562, 18727.314
985.815, 41076.504
987.068, 56285.691
988.321, 49064.891
989.573, 29384.088
990.826, 15593.288
992.078, 8764.493
993.330, 4905.698
994.582, 3039.908
995.833, 1999.121
997.085, 1453.337
998.336, 1130.555
999.587, 928.778
1000.838, 805.004
1002.088, 679.235
1003.339, 568.468
1004.589, 482.704
1005.839, 433.944
1007.089, 367.186
1008.339, 378.432
1009.588, 301.681
1010.838, 291.934
1012.087, 259.191
1013.336, 238.452
1014.584, 211.716
1015.833, 213.984
1017.081, 189.255
1018.330, 199.531
1019.577, 166.810
1020.825, 152.094
1022.073, 182.382
1023.320, 182.676
1024.567, 150.976
1025.814, 126.279
1027.061, 116.586
1028.308, 122.898
1029.554, 111.215
1030.800, 108.535
1032.046, 62.860
1033.292, 83.189
1034.538, 68.521
1035.783, 80.857
1037.029, 75.196
1038.274, 60.541
1039.519, 60.890
1040.763, 59.243
1042.008, 49.600
1043.252, 45.962
1044.496, 75.327
1045.740, 25.697
1046.984, 50.071
1048.228, 52.449
1049.471, 36.831
1050.714, 27.217
1051.957, 56.608
1053.200, 35.003
1054.442, 55.404
1055.685, 14.808
1056.927, 36.218
1058.169, 22.631
1059.411, 11.049
1060.652, 30.471
1061.894, 36.897
1063.135, 32.328
1064.376, 10.763
1065.617, 16.204
1066.858, 7.648
1068.098, 3.319
1069.339, 4.552
1070.579, 8.010
1071.819, 13.473
1073.058, 33.940
1074.298, 38.413
1075.537, 38.890
1076.776, 55.372
1078.015, 31.858
1079.254, 37.348
1080.493, 59.841
1081.731, 43.339
1082.969, 69.843
1084.207, 73.355
1085.445, 47.872
1086.683, 69.395
1087.920, 54.921
1089.157, 58.454
1090.394, 78.993
1091.631, 70.538
1092.868, 98.089
1094.105, 117.644
1095.341, 147.203
1096.577, 196.769
1097.813, 251.341
1099.049, 380.917
1100.284, 506.499
1101.519, 711.085
1102.755, 804.676
1103.990, 805.271
1105.224, 680.870
1106.459, 545.474
1107.693, 395.082
1108.928, 305.695
1110.162, 227.312
1111.395, 186.934
1112.629, 168.561
1113.863, 165.191
1115.096, 135.825
1116.329, 150.463
1117.562, 126.104
1118.795, 145.750
1120.027, 176.399
1121.259, 163.053
1122.492, 235.711
1123.723, 206.372
1124.955, 289.038
1126.187, 328.707
1127.418, 412.380
1128.649, 496.056
1129.880, 602.738
1131.111, 801.423
1132.342, 1138.112
1133.572, 1610.804
1134.802, 2313.501
1136.033, 3228.201
1137.262, 3798.904
1138.492, 4047.612
1139.722, 3960.324
1140.951, 3910.040
1142.180, 4014.759
1143.409, 3764.482
1144.638, 3465.209
1145.866, 2861.940
1147.095, 2351.674
1148.323, 1880.412
1149.551, 1516.883
1150.779, 1198.899
1152.006, 991.648
1153.234, 814.400
1154.461, 720.156
1155.688, 675.915
1156.915, 621.678
1158.141, 679.445
1159.368, 718.215
1160.594, 880.989
1161.820, 1106.766
1163.046, 1388.547
1164.272, 1677.331
1165.498, 1891.118
1166.723, 1748.910
1167.948, 1566.705
1169.173, 1248.503
1170.398, 986.304
1171.623, 759.220
1172.847, 601.062
1174.071, 490.981
1175.295, 400.794
1176.519, 331.611
1177.743, 267.192
1178.966, 226.253
1180.190, 185.078
1181.413, 157.906
1182.636, 142.745
1183.858, 125.579
1185.081, 133.416
1186.303, 112.255
1187.526, 106.098
1188.748, 100.943
1189.969, 82.790
1191.191, 65.640
1192.412, 65.493
1193.634, 69.353
1194.855, 51.212
1196.076, 51.072
1197.296, 56.231
1198.517, 59.097
1199.737, 58.316
1200.957, 59.942
1202.177, 45.162
1203.397, 58.261
1204.617, 49.227
1205.836, 46.156
1207.055, 51.112
1208.274, 45.996
1209.493, 37.889
1210.712, 49.778
1211.930, 39.668
1213.148, 74.561
1214.367, 48.510
1215.584, 67.977
1216.802, 55.195
1218.020, 30.095
1219.237, 44.997
1220.454, 29.258
1221.671, 54.432
1222.888, 43.707
1224.105, 56.824
1225.321, 23.740
1226.537, 42.685
1227.753, 38.009
1228.969, 46.223
1230.185, 66.304
1231.400, 50.438
1232.616, 64.491
1233.831, 58.412
1235.046, 41.357
1236.261, 53.280
1237.475, 66.206
1238.689, 77.285
1239.904, 61.213
1241.118, 73.145
1242.332, 62.451
1243.545, 48.383
1244.759, 46.316
1245.972, 48.250
1247.185, 41.612
1248.398, 43.125
1249.611, 39.065
1250.823, 52.085
1252.036, 54.053
1253.248, 51.606
1254.460, 34.002
1255.671, 43.958
1256.883, 30.909
1258.095, 21.861
1259.306, 26.815
1260.517, 31.942
1261.728, 19.946
1262.938, 15.905
1264.149, 23.868
1265.359, 18.830
1266.569, 24.793
1267.779, 14.760
1268.989, 40.731
1270.199, 37.895
1271.408, 38.864
1272.617, 56.839
1273.826, 34.847
1275.035, 23.818
1276.244, 26.823
1277.452, 9.797
1278.661, 41.832
1279.869, 8.808
1281.077, 31.795
1282.285, 13.773
1283.492, 22.753
1284.700, 9.733
1285.907, 17.715
1287.114, 30.695
1288.321, 12.821
1289.527, 8.824
1290.734, 16.811
1291.940, 35.788
1293.146, 29.767
1294.352, 12.746
1295.558, 11.721
1296.763, 52.990
1297.969, 14.961
1299.174, 26.927
1300.379, 7.892
1301.584, 8.146
1302.788, 3.189
1303.993, 7.843
1305.197, 12.719
1306.401, 4.673
1307.605, 6.626
1308.809, 15.575
1310.013, 14.524
1311.216, 28.474
1312.419, 0.577
1313.622, 4.371
1314.825, 22.318
1316.028, 18.265
1317.230, 31.212
1318.432, 35.155
1319.634, 38.099
1320.836, 29.041
1322.038, 21.983
1323.240, 0.078
1324.441, 11.859
1325.642, 1.795
1326.843, 14.271
1328.044, 9.660
1329.245, 16.410
1330.445, 8.517
1331.645, 5.560
1332.845, 10.640
1334.045, 4.722
1335.245, 2.806
1336.445, 3.897
1337.644, 1.010
1338.843, 0.085
1340.042, 5.820
1341.241, 5.722
1342.440, 5.623
1343.638, 2.477
1344.836, 24.580
1346.034, 13.687
1347.232, 9.203
1348.430, 2.091
1349.628, 15.022
1350.825, 11.139
1352.022, 15.259
1353.219, 8.383
1354.416, 0.491
1355.613, 0.637
1356.809, 16.766
1358.005, 11.898
1359.202, 6.033
1360.398, 8.170
1361.593, 4.575
1362.789, 6.550
1363.984, 0.426
1365.179, 8.284
1366.374, 19.145
1367.569, 4.997
1368.764, 4.862
1369.958, 2.719
1371.153, 14.254
1372.347, 11.607
1373.541, 10.294
1374.735, 14.297
1375.928, 12.299
1377.122, 16.302
1378.315, 13.305
1379.508, 0.693
1380.701, 2.283
1381.893, 2.311
1383.086, 2.312
1384.278, 5.312
1385.470, 17.313
1386.662, 21.312
1387.854, 14.310
1389.046, 3.692
1390.237, 2.305
1391.428, 24.301
1392.619, 8.296
1393.810, 13.291
1395.001, 19.285
1396.191, 9.277
1397.382, 9.268
1398.572, 3.742
1399.762, 13.246
1400.952, 10.232
1402.141, 5.075
1403.331, 22.872
1404.520, 5.853
1405.709, 27.834
1406.898, 3.815
1408.087, 18.785
1409.275, 10.766
1410.464, 26.746
1411.652, 16.727
1412.840, 16.701
1414.028, 17.682
1415.215, 30.225
1416.403, 0.327
1417.590, 8.144
1418.777, 11.894
1419.964, 43.737
1421.151, 25.684
1422.338, 42.643
1423.524, 39.577
1424.710, 7.010
1425.896, 57.323
1427.082, 19.159
1428.268, 46.697
1429.453, 16.817
1430.639, 48.875
1431.824, 34.111
1433.009, 87.938
1434.194, 45.803
1435.378, 107.371
1436.563, 72.483
1437.747, 90.324
1438.931, 73.161
1440.115, 104.991
1441.299, 120.593
1442.482, 118.277
1443.666, 137.057
1444.849, 157.841
1446.032, 115.108
1447.215, 111.852
1448.397, 136.590
1449.580, 140.296
1450.762, 149.508
1451.944, 160.084
1453.126, 154.670
1454.308, 167.159
1455.490, 146.761
1456.671, 134.371
1457.852, 139.959
1459.033, 131.516
1460.214, 130.565
1461.395, 140.120
1462.575, 124.666
1463.756, 137.218
1464.936, 122.776
1466.116, 97.359
1467.296, 104.961
1468.475, 102.548
1469.655, 84.149
1470.834, 83.110
1472.013, 51.300
1473.192, 71.856
1474.371, 60.414
1475.550, 73.956
1476.728, 69.509
1477.906, 67.061
1479.084, 59.610
1480.262, 59.099
1481.440, 55.741
1482.617, 61.352
1483.795, 67.003
1484.972, 79.661
1486.149, 58.329
1487.326, 50.012
1488.502, 73.717
1489.679, 25.453
1490.855, 10.228
1492.031, 63.050
1493.207, 13.920
1494.383, 17.851
1495.559, 34.865
1496.734, 18.482
1497.909, 1.537
1499.084, 16.563
1500.259, 0.000
##END=



