##NAMES=Baryte
##RRUFFID=R050335
##IDEAL CHEMISTRY=BaS^6+^O_4_
##LOCALITY=Bullion Mountains, San Bernardino County, California, USA
##OWNER=RRUFF
##SOURCE=California Institute of Technology
##DESCRIPTION=Colorless cleavage fragment
##STATUS=The identification of this mineral has been confirmed by X-ray diffraction and chemical analysis
##URL=rruff.info/R050335
##MEASURED CHEMISTRY=(Ba_0.95_Sr_0.05_)_Î£=1_S_1.00_O_4_
##PIN_ID=M00253
##ORIENTATION=Laser parallel to -b* (0 -1 0). Fiducial mark perpendicular to laser is parallel to -c [0 0 -1]
93.48000, 0.0000000E+00
94.71400, 74.63379
95.94800, 182.1836
97.18200, 10.82129
98.41600, 112.4009
99.64900, 50.35059
100.8830, 206.9922
102.1160, 170.5981
103.3490, 119.6396
104.5820, 222.7207
105.8150, 226.5327
107.0470, 218.8296
108.2800, 214.4170
109.5120, 288.1401
110.7440, 211.8726
111.9760, 136.5073
113.2080, 238.9546
114.4400, 256.1328
115.6710, 266.9688
116.9030, 263.4004
118.1340, 267.3735
119.3650, 366.8438
120.5960, 306.7710
121.8270, 311.1211
123.0580, 305.8730
124.2880, 434.0044
125.5190, 357.4917
126.7490, 568.3135
127.9790, 558.4487
129.2090, 594.8809
130.4390, 750.5913
131.6680, 998.5601
132.8980, 998.7617
134.1270, 1231.173
135.3560, 1356.777
136.5850, 1494.562
137.8140, 1781.519
139.0430, 2012.638
140.2710, 2300.914
141.5000, 2570.342
142.7280, 2705.911
143.9560, 2789.622
145.1840, 2760.462
146.4120, 2398.438
147.6390, 2024.543
148.8670, 1772.771
150.0940, 1396.128
151.3210, 1203.722
152.5490, 1050.438
153.7750, 1001.288
155.0020, 841.2573
156.2290, 766.3496
157.4550, 723.3438
158.6810, 667.8193
159.9080, 694.2148
161.1340, 652.6851
162.3590, 719.2520
163.5850, 543.9243
164.8110, 558.6724
166.0360, 400.5015
167.2610, 568.3955
168.4860, 450.2744
169.7110, 472.2661
170.9360, 463.0933
172.1610, 345.9272
173.3850, 426.7754
174.6100, 392.6436
175.8340, 409.5361
177.0580, 392.4570
178.2820, 403.4102
179.5050, 403.3965
180.7290, 431.4180
181.9520, 532.4756
183.1760, 519.6006
184.3990, 437.7939
185.6220, 605.0488
186.8450, 561.3418
188.0670, 718.6875
189.2900, 736.0742
190.5120, 835.5010
191.7340, 918.9668
192.9560, 898.4727
194.1780, 829.0195
195.4000, 826.6064
196.6220, 818.2334
197.8430, 710.1104
199.0640, 644.8145
200.2860, 477.5566
201.5070, 569.7676
202.7270, 468.5957
203.9480, 340.4512
205.1690, 324.3447
206.3890, 260.5215
207.6090, 261.7012
208.8290, 278.6387
210.0490, 148.0459
211.2690, 367.1396
212.4890, 276.1729
213.7080, 289.9375
214.9280, 201.1318
216.1470, 202.1523
217.3660, 183.3770
218.5850, 226.9707
219.8030, 155.1885
221.0220, 222.4521
222.2400, 198.7490
223.4590, 157.3037
224.6770, 179.2871
225.8950, 98.23633
227.1120, 147.6885
228.3300, 143.1719
229.5480, 106.6826
230.7650, 205.7764
231.9820, 177.3223
233.1990, 225.8955
234.4160, 159.4893
235.6330, 205.1104
236.8490, 75.75879
238.0660, 146.1416
239.2820, 165.8955
240.4980, 65.92578
241.7140, 141.6514
242.9300, 133.0186
244.1460, 189.8291
245.3610, 10.41309
246.5770, 183.5049
247.7920, 104.5615
249.0070, 221.7461
250.2220, 38.05469
251.4370, 100.4668
252.6510, 178.9775
253.8660, 98.58203
255.0800, 236.2695
256.2940, 304.0352
257.5080, 16.87500
258.7220, 102.7861
259.9360, 89.76172
261.1490, 67.80078
262.3630, 76.89746
263.5760, 80.48926
264.7890, 74.25781
266.0020, 97.51562
267.2150, 113.8232
268.4270, 93.17676
269.6400, 105.4346
270.8520, 178.0195
272.0640, 143.4629
273.2760, 188.0146
274.4880, 162.7959
275.7000, 233.8916
276.9120, 203.5303
278.1230, 230.2031
279.3340, 226.9121
280.5450, 228.0576
281.7560, 222.5244
282.9670, 212.3350
284.1780, 238.1855
285.3880, 176.0654
286.5980, 108.9814
287.8090, 132.9268
289.0190, 7.932617
290.2290, 112.9629
291.4380, 69.02441
292.6480, 160.1104
293.8570, 194.2217
295.0670, 17.36133
296.2760, 147.5244
297.4850, 61.71094
298.6930, 27.92090
299.9020, 20.15234
301.1110, 11.59570
302.3190, 24.67676
303.5270, 117.9697
304.7350, 37.28223
305.9430, 71.61621
307.1510, 18.98926
308.3580, 56.42188
309.5660, 99.85059
310.7730, 0.2968750
311.9800, 27.76270
313.1870, 103.2441
314.3940, 100.7432
315.6010, 152.2598
316.8070, 26.20703
318.0130, 20.65820
319.2200, 113.0938
320.4260, 165.4697
321.6310, 37.05078
322.8370, 128.6504
324.0430, 200.2646
325.2480, 17.10254
326.4540, 106.5469
327.6590, 33.78809
328.8640, 28.88867
330.0680, 30.58301
331.2730, 19.29297
332.4780, 66.98145
333.6820, 5.250000
334.8860, 2.496094
336.0900, 73.25781
337.2940, 115.0352
338.4980, 0.8271480
339.7010, 31.36719
340.9050, 78.45117
342.1080, 37.71875
343.3110, 0.1210940
344.5140, 130.9736
345.7170, 106.8408
346.9200, 0.2812500
348.1220, 52.92773
349.3240, 58.83301
350.5270, 27.05566
351.7290, 4.134766
352.9310, 29.22461
354.1320, 39.73145
355.3340, 7.659180
356.5350, 113.5381
357.7370, 90.48730
358.9380, 155.4365
360.1390, 58.39746
361.3400, 118.3701
362.5400, 11.34961
363.7410, 13.33496
364.9410, 0.6679690
366.1410, 55.66016
367.3410, 64.34863
368.5410, 59.36328
369.7410, 77.38281
370.9400, 23.58594
372.1400, 23.45117
373.3390, 86.49902
374.5380, 93.55762
375.7370, 179.6162
376.9360, 90.68359
378.1350, 132.7568
379.3330, 26.15918
380.5310, 11.07031
381.7300, 3.025391
382.9280, 145.1221
384.1260, 97.22949
385.3230, 168.3438
386.5210, 201.4980
387.7180, 219.6650
388.9160, 81.85840
390.1130, 54.98730
391.3100, 185.2178
392.5060, 143.4668
393.7030, 221.7900
394.9000, 223.0723
396.0960, 186.3701
397.2920, 328.5430
398.4880, 159.8721
399.6840, 132.2148
400.8800, 147.5723
402.0750, 33.38672
403.2710, 214.7715
404.4660, 101.1699
405.6610, 61.58008
406.8560, 122.0039
408.0510, 39.43945
409.2450, 84.88770
410.4400, 43.34766
411.6340, 74.81934
412.8280, 70.30371
414.0220, 155.7988
415.2160, 74.67871
416.4100, 162.8047
417.6030, 4.297852
418.7970, 24.00098
419.9900, 59.50000
421.1830, 22.01074
422.3760, 116.7744
423.5690, 6.694336
424.7610, 2.839844
425.9540, 93.97949
427.1460, 86.43262
428.3380, 164.9902
429.5300, 191.6143
430.7220, 232.2637
431.9140, 223.7881
433.1050, 278.3828
434.2970, 220.6182
435.4880, 346.2295
436.6790, 369.8477
437.8700, 473.9980
439.0610, 572.7939
440.2510, 787.5645
441.4420, 1081.082
442.6320, 1309.735
443.8220, 1608.396
445.0120, 1904.912
446.2020, 2465.586
447.3910, 2785.266
448.5810, 3736.059
449.7700, 4314.674
450.9600, 4987.055
452.1490, 5745.760
453.3370, 6122.469
454.5260, 6220.175
455.7150, 5619.896
456.9030, 4577.621
458.0910, 3605.354
459.2800, 2884.090
460.4670, 2333.272
461.6550, 1739.622
462.8430, 1526.297
464.0300, 1239.062
465.2180, 932.8340
466.4050, 696.6084
467.5920, 488.3887
468.7790, 429.8477
469.9650, 218.6562
471.1520, 374.5957
472.3380, 277.4150
473.5250, 122.2393
474.7110, 211.0664
475.8970, 169.6875
477.0820, 203.4375
478.2680, 148.2871
479.4540, 102.1396
480.6390, 122.9980
481.8240, 94.48145
483.0090, 109.8281
484.1940, 101.6992
485.3780, 90.42090
486.5630, 104.2793
487.7470, 35.16016
488.9320, 90.04492
490.1160, 42.09473
491.3000, 150.7676
492.4830, 57.36621
493.6670, 142.5586
494.8500, 105.2461
496.0340, 31.07520
497.2170, 112.9170
498.4000, 1.765625
499.5820, 103.6084
500.7650, 147.4639
501.9480, 180.3223
503.1300, 91.18359
504.3120, 132.0488
505.4940, 120.9170
506.6760, 205.7930
507.8580, 105.5645
509.0390, 236.1494
510.2210, 107.0498
511.4020, 221.9531
512.5830, 158.8574
513.7640, 281.8086
514.9450, 72.71875
516.1250, 171.6328
517.3060, 201.5488
518.4860, 155.4678
519.6660, 209.4092
520.8460, 173.3516
522.0260, 210.1543
523.2060, 112.5557
524.3850, 72.45117
525.5650, 248.4160
526.7440, 126.3838
527.9230, 136.3525
529.1020, 322.3232
530.2810, 44.29590
531.4590, 81.26953
532.6380, 116.2451
533.8160, 130.3428
534.9940, 16.67871
536.1720, 144.2822
537.3500, 189.2441
538.5270, 6.208008
539.7050, 127.1621
540.8820, 123.1182
542.0590, 77.07520
543.2360, 18.03223
544.4130, 136.9844
545.5900, 164.9375
546.7660, 170.8906
547.9430, 148.8506
549.1190, 60.81836
550.2950, 108.7871
551.4710, 76.76172
552.6470, 156.7383
553.8220, 158.8516
554.9980, 169.4961
556.1730, 42.79980
557.3480, 128.8154
558.5230, 165.7871
559.6980, 27.17480
560.8730, 87.69629
562.0470, 272.6660
563.2220, 24.63867
564.3960, 142.6074
565.5700, 76.89844
566.7440, 8.481445
567.9170, 13.52539
569.0910, 136.4141
570.2640, 4.037109
571.4380, 7.889648
572.6110, 96.03027
573.7840, 100.8252
574.9570, 11.67969
576.1290, 111.5254
577.3020, 194.3711
578.4740, 15.21484
579.6460, 30.05273
580.8180, 77.88574
581.9900, 154.7168
583.1620, 73.54590
584.3330, 58.37500
585.5040, 82.20020
586.6760, 247.0244
587.8470, 209.8477
589.0180, 34.66797
590.1880, 141.5156
591.3590, 167.2158
592.5290, 102.9453
593.7000, 142.6738
594.8700, 132.3994
596.0400, 68.31738
597.2090, 99.03906
598.3790, 176.7559
599.5490, 220.4707
600.7180, 228.1826
601.8870, 227.1201
603.0560, 294.9912
604.2250, 146.7939
605.3940, 269.5205
606.5620, 216.2441
607.7300, 295.9668
608.8990, 344.3301
610.0670, 417.0459
611.2350, 530.5205
612.4020, 624.9844
613.5700, 786.6943
614.7370, 930.4121
615.9050, 1095.300
617.0720, 1248.019
618.2390, 1401.734
619.4060, 1080.447
620.5720, 1142.309
621.7390, 1164.178
622.9050, 813.0713
624.0710, 820.7871
625.2370, 845.5098
626.4030, 854.2227
627.5690, 879.9307
628.7340, 861.8145
629.9000, 1192.513
631.0650, 1311.957
632.2300, 1315.647
633.3950, 1364.142
634.5600, 1351.999
635.7240, 1205.610
636.8890, 1269.259
638.0530, 1158.937
639.2170, 1085.672
640.3810, 1613.596
641.5450, 1505.263
642.7080, 1643.013
643.8720, 1730.671
645.0350, 1962.640
646.1980, 2095.229
647.3610, 2397.922
648.5240, 2694.025
649.6870, 2489.330
650.8490, 2280.974
652.0120, 1755.609
653.1740, 1372.240
654.3360, 974.2676
655.4980, 716.3125
656.6600, 698.5107
657.8210, 381.1230
658.9830, 329.7070
660.1440, 314.3193
661.3050, 92.43164
662.4660, 233.0381
663.6270, 105.2715
664.7870, 140.9092
665.9480, 274.5400
667.1080, 179.1846
668.2680, 72.80566
669.4280, 215.4209
670.5880, 167.0303
671.7480, 244.6318
672.9070, 46.22754
674.0670, 129.9404
675.2260, 285.4639
676.3850, 75.03711
677.5440, 76.60352
678.7030, 110.3027
679.8610, 227.8535
681.0200, 194.4004
682.1780, 225.9395
683.3360, 232.0273
684.4940, 185.9551
685.6520, 224.0957
686.8090, 137.1514
687.9670, 98.36230
689.1240, 152.0059
690.2810, 135.9600
691.4380, 59.45801
692.5950, 48.06348
693.7520, 269.5420
694.9080, 100.0537
696.0650, 259.5020
697.2210, 179.9746
698.3770, 24.43945
699.5330, 55.69531
700.6880, 221.5039
701.8440, 176.6641
702.9990, 191.8564
704.1550, 55.28223
705.3100, 131.7441
706.4650, 90.55957
707.6190, 307.0625
708.7740, 24.87598
709.9290, 132.8955
711.0830, 45.51074
712.2370, 249.9404
713.3910, 184.2979
714.5450, 146.0176
715.6980, 179.3623
716.8520, 124.6953
718.0050, 178.4990
719.1580, 156.6562
720.3110, 70.96680
721.4640, 145.3164
722.6170, 132.6113
723.7700, 129.8994
724.9220, 90.17871
726.0740, 151.4492
727.2260, 111.7129
728.3780, 160.8633
729.5300, 116.4463
730.6810, 150.6855
731.8330, 178.0137
732.9840, 120.2373
734.1350, 31.47461
735.2860, 83.68066
736.4370, 187.8926
737.5880, 332.0820
738.7380, 83.26465
739.8880, 22.56055
741.0390, 209.5850
742.1890, 43.51660
743.3380, 262.6445
744.4880, 205.9102
745.6380, 123.2881
746.7870, 58.60840
747.9360, 68.44727
749.0850, 15.76562
750.2340, 255.7998
751.3830, 262.8262
752.5310, 74.46777
753.6800, 18.52246
754.8280, 119.4600
755.9760, 105.4395
757.1240, 81.41016
758.2720, 43.91895
759.4190, 42.88379
760.5670, 40.69824
761.7140, 257.9893
762.8610, 69.92188
764.0080, 147.1084
765.1550, 180.0225
766.3020, 40.92773
767.4480, 185.8965
768.5950, 58.81055
769.7410, 149.9150
770.8870, 336.8975
772.0330, 186.0273
773.1780, 52.93652
774.3240, 177.2021
775.4690, 1.094727
776.6140, 78.97070
777.7590, 19.15723
778.9040, 108.6855
780.0490, 57.70898
781.1940, 93.53223
782.3380, 31.34668
783.4820, 2.239258
784.6260, 67.93359
785.7700, 22.58301
786.9140, 41.64355
788.0580, 199.0898
789.2010, 88.81152
790.3450, 192.5264
791.4880, 26.23047
792.6310, 166.9209
793.7730, 193.6035
794.9160, 113.2754
796.0590, 62.36230
797.2010, 125.2188
798.3430, 21.00488
799.4850, 109.5928
800.6270, 20.15723
801.7690, 187.3887
802.9100, 95.92676
804.0520, 90.45508
805.1930, 201.6885
806.3340, 214.1982
807.4750, 107.7676
808.6160, 145.4326
809.7560, 114.5918
810.8970, 66.26270
812.0370, 113.7197
813.1770, 102.1777
814.3170, 132.6270
815.4570, 138.0615
816.5960, 166.4941
817.7360, 163.9150
818.8750, 171.3994
820.0140, 148.6094
821.1530, 137.1895
822.2920, 100.5742
823.4310, 3.533203
824.5690, 6.181641
825.7070, 68.14258
826.8460, 2.544922
827.9840, 112.9375
829.1220, 72.21484
830.2590, 157.3438
831.3970, 90.60156
832.5340, 182.8496
833.6710, 125.0879
834.8080, 162.3164
835.9450, 242.8730
837.0820, 36.03711
838.2190, 14.23047
839.3550, 141.4102
840.4910, 140.5801
841.6270, 2.671875
842.7630, 136.8105
843.8990, 181.9492
845.0350, 30.08789
846.1700, 206.5996
847.3060, 172.7188
848.4410, 191.6680
849.5760, 180.8027
850.7100, 194.9258
851.8450, 214.2754
852.9800, 337.1543
854.1140, 218.2520
855.2480, 236.3438
856.3820, 150.4258
857.5160, 87.49805
858.6500, 105.5625
859.7830, 113.6152
860.9170, 126.0508
862.0500, 198.6953
863.1830, 154.7207
864.3160, 121.7363
865.4480, 41.74414
866.5810, 201.7812
867.7130, 74.80859
868.8460, 139.8281
869.9780, 92.83594
871.1100, 133.6387
872.2410, 94.62891
873.3730, 147.6113
874.5050, 141.5801
875.6360, 108.5430
876.7670, 212.1113
877.8980, 3.054688
879.0290, 124.9102
880.1590, 60.82812
881.2900, 36.73633
882.4200, 140.6348
883.5500, 139.8770
884.6800, 31.75781
885.8100, 108.1152
886.9400, 167.9766
888.0690, 29.17188
889.1990, 101.6465
890.3280, 256.2852
891.4570, 94.53516
892.5860, 124.3281
893.7140, 43.70117
894.8430, 87.90625
895.9710, 39.41406
897.1000, 137.9668
898.2280, 142.6875
899.3560, 30.38867
900.4830, 199.0898
901.6110, 251.7832
902.7380, 71.28711
903.8660, 260.4316
904.9930, 50.03125
906.1200, 76.69141
907.2460, 43.34180
908.3730, 108.9805
909.5000, 21.51172
910.6260, 258.5254
911.7520, 114.8477
912.8780, 97.44922
914.0040, 193.7910
915.1290, 45.37695
916.2550, 132.8633
917.3800, 172.4336
918.5050, 231.6777
919.6300, 151.2871
920.7550, 0.7050780
921.8800, 300.8516
923.0040, 136.7695
924.1290, 261.2910
925.2530, 104.8086
926.3770, 102.3145
927.5010, 358.4160
928.6250, 137.9082
929.7480, 245.3945
930.8720, 15.12891
931.9950, 5.570313
933.1180, 37.05273
934.2410, 104.9785
935.3640, 144.5996
936.4860, 92.19531
937.6090, 86.17969
938.7310, 258.5020
939.8530, 2.740234
940.9750, 93.56055
942.0970, 59.86328
943.2180, 34.19141
944.3400, 85.53516
945.4610, 124.8750
946.5820, 143.0801
947.7030, 94.40625
948.8240, 147.7285
949.9450, 102.0410
951.0650, 92.99023
952.1860, 134.6504
953.3060, 27.94531
954.4260, 47.23242
955.5460, 37.48828
956.6650, 170.7617
957.7850, 1.992188
958.9040, 159.7090
960.0230, 132.2480
961.1420, 191.3359
962.2610, 21.09961
963.3800, 278.3086
964.4990, 199.3965
965.6170, 246.5977
966.7350, 334.7520
967.8530, 305.9395
968.9710, 446.1270
970.0890, 510.3066
971.2070, 446.4824
972.3240, 528.3105
973.4410, 477.7754
974.5580, 733.9551
975.6750, 680.1602
976.7920, 900.3184
977.9090, 951.5156
979.0250, 1635.707
980.1410, 2082.479
981.2580, 3090.666
982.3740, 4699.846
983.4890, 7215.023
984.6050, 10228.20
985.7200, 13600.37
986.8360, 18443.53
987.9510, 25432.69
989.0660, 33262.85
990.1810, 37948.00
991.2950, 32864.15
992.4100, 21378.25
993.5240, 11443.39
994.6390, 5825.527
995.7530, 3416.662
996.8660, 1937.793
997.9800, 1567.918
999.0940, 1151.041
1000.207, 777.9004
1001.320, 840.0176
1002.433, 723.0312
1003.546, 476.1387
1004.659, 622.2227
1005.772, 522.3262
1006.884, 437.4121
1007.996, 182.5059
1009.108, 295.5977
1010.220, 292.6875
1011.332, 501.7812
1012.444, 332.0801
1013.555, 235.1719
1014.666, 164.1133
1015.777, 197.9316
1016.888, 236.0156
1017.999, 174.5645
1019.110, 137.9395
1020.220, 111.0371
1021.331, 198.1309
1022.441, 197.5977
1023.551, 175.6855
1024.661, 26.21875
1025.770, 88.85938
1026.880, 22.06250
1027.989, 242.4629
1029.098, 18.48242
1030.207, 258.3594
1031.316, 53.41016
1032.425, 81.46094
1033.533, 188.2461
1034.642, 267.2910
1035.750, 41.33594
1036.858, 108.6953
1037.966, 84.29297
1039.073, 107.0918
1040.181, 238.0020
1041.288, 95.77539
1042.396, 74.75781
1043.503, 6.625000
1044.610, 14.65039
1045.716, 51.32422
1046.823, 79.29492
1047.929, 152.2773
1049.036, 48.06836
1050.142, 125.0469
1051.248, 143.0273
1052.353, 141.0078
1053.459, 54.00977
1054.564, 17.08594
1055.670, 27.27148
1056.775, 155.2461
1057.880, 218.2168
1058.985, 106.1875
1060.089, 109.1602
1061.194, 94.13086
1062.298, 64.10547
1063.402, 186.0742
1064.506, 17.34766
1065.610, 0.6308590
1066.713, 224.1758
1067.817, 112.1660
1068.920, 12.48633
1070.023, 17.50586
1071.126, 70.49219
1072.229, 12.50977
1073.332, 93.77539
1074.435, 33.24219
1075.537, 92.50391
1076.639, 188.7734
1077.741, 212.8633
1078.843, 197.8633
1079.945, 373.8828
1081.046, 178.8809
1082.148, 128.8789
1083.249, 362.8789
1084.350, 486.8809
1085.451, 539.8809
1086.551, 595.7031
1087.652, 775.6113
1088.752, 256.8594
1089.853, 377.8750
1090.953, 168.3711
1092.053, 305.3945
1093.152, 160.4277
1094.252, 419.4590
1095.351, 77.30664
1096.451, 361.3477
1097.550, 527.3887
1098.649, 432.4316
1099.748, 331.5039
1100.846, 600.5801
1101.945, 599.6602
1103.043, 966.7383
1104.141, 779.4648
1105.239, 870.5469
1106.337, 558.7969
1107.434, 670.4062
1108.532, 467.4922
1109.629, 599.5840
1110.726, 238.7363
1111.823, 190.8301
1112.920, 301.9512
1114.017, 127.0723
1115.113, 106.1953
1116.210, 338.3164
1117.306, 200.4375
1118.402, 191.5625
1119.498, 243.6855
1120.593, 300.8086
1121.689, 291.9316
1122.784, 337.0586
1123.879, 540.1914
1124.974, 205.3242
1126.069, 493.4590
1127.164, 477.7578
1128.259, 373.8945
1129.353, 519.0312
1130.447, 647.1680
1131.541, 437.3066
1132.635, 715.4453
1133.729, 767.5859
1134.822, 1151.725
1135.916, 1346.865
1137.009, 1703.008
1138.102, 2084.148
1139.195, 2606.291
1140.288, 2739.438
1141.380, 2882.582
1142.473, 3006.744
1143.565, 2768.926
1144.657, 2829.109
1145.749, 2478.422
1146.841, 2286.613
1147.932, 2001.805
1149.024, 1775.996
1150.115, 1536.189
1151.206, 1142.441
1152.297, 1077.637
1153.388, 779.8398
1154.479, 739.0566
1155.569, 809.2715
1156.659, 654.0430
1157.750, 702.2598
1158.839, 772.2949
1159.929, 533.5293
1161.019, 494.8438
1162.108, 650.0801
1163.198, 1140.316
1164.287, 1134.584
1165.376, 1098.857
1166.465, 1280.135
1167.553, 1327.410
1168.642, 1464.221
1169.730, 1342.619
1170.818, 1214.920
1171.906, 1256.223
1172.994, 982.5352
1174.082, 1038.848
1175.170, 789.7715
1176.257, 883.3770
1177.344, 567.6953
1178.431, 390.0156
1179.518, 491.3340
1180.605, 410.6543
1181.691, 371.9766
1182.778, 266.3027
1183.864, 344.6270
1184.950, 177.0332
1186.036, 43.71094
1187.122, 88.56055
1188.207, 339.8770
1189.292, 363.1934
1190.378, 182.5078
1191.463, 87.82227
1192.548, 189.2031
1193.632, 289.5176
1194.717, 407.8320
1195.801, 53.08398
1196.886, 204.2246
1197.970, 151.5547
1199.054, 359.8848
1200.137, 191.5469
1201.221, 277.2598
1202.305, 143.6270
1203.388, 342.6602
1204.471, 45.96680
1205.554, 107.3535
1206.637, 109.0605
1207.719, 29.18164
1208.802, 192.4238
1209.884, 46.66602
1210.966, 288.9082
1212.048, 65.14844
1213.130, 166.6602
1214.212, 313.1074
1215.293, 285.3477
1216.374, 176.6699
1217.456, 145.9062
1218.536, 212.1445
1219.617, 197.3926
1220.698, 121.6367
1221.778, 252.8867
1222.859, 245.2090
1223.939, 77.45508
1225.019, 99.70312
1226.099, 242.9473
1227.178, 274.1895
1228.258, 419.5957
1229.337, 442.5449
1230.417, 155.5000
1231.496, 368.7402
1232.574, 250.9766
1233.653, 41.78516
1234.732, 157.4219
1235.810, 17.36914
1236.888, 103.1758
1237.966, 139.9590
1239.044, 288.0918
1240.122, 58.83398
1241.199, 478.9629
1242.277, 264.0352
1243.354, 117.1562
1244.431, 200.2754
1245.508, 179.3906
1246.585, 264.5000
1247.661, 218.6387
1248.738, 215.7637
1249.814, 192.8887
1250.890, 198.7461
1251.966, 184.6699
1253.042, 210.9473
1254.117, 123.0566
1255.193, 84.58984
1256.268, 46.82227
1257.343, 140.0879
1258.418, 100.4707
1259.493, 176.2715
1260.567, 118.3535
1261.642, 198.4336
1262.716, 213.5098
1263.790, 218.5801
1264.864, 293.6484
1265.938, 280.7656
1267.011, 280.8301
1268.085, 292.9824
1269.158, 163.2715
1270.231, 101.9258
1271.304, 114.3965
1272.377, 215.7656
1273.450, 165.8008
