##NAMES=Baryte
##RRUFFID=R050335
##IDEAL CHEMISTRY=BaS^6+^O_4_
##LOCALITY=Bullion Mountains, San Bernardino County, California, USA
##OWNER=RRUFF
##SOURCE=California Institute of Technology
##DESCRIPTION=Colorless cleavage fragment
##STATUS=The identification of this mineral has been confirmed by X-ray diffraction and chemical analysis
##URL=rruff.info/R050335
##MEASURED CHEMISTRY=(Ba_0.95_Sr_0.05_)_Î£=1_S_1.00_O_4_
##PIN_ID=M00253
##ORIENTATION=Laser parallel to -b* (0 -1 0). Fiducial mark perpendicular to laser is parallel to -c [0 0 -1]
93.48000, 0.0000000E+00
94.71400, 55.41504
95.94800, 24.51807
97.18200, 155.6538
98.41600, 66.62402
99.64900, 242.3345
100.8830, 206.9893
102.1160, 402.4404
103.3490, 266.9072
104.5820, 259.8325
105.8150, 316.8022
107.0470, 215.5005
108.2800, 234.6787
109.5120, 165.1382
110.7440, 202.7183
111.9760, 126.2925
113.2080, 103.7524
114.4400, 35.00049
115.6710, 38.95703
116.9030, 39.27930
118.1340, 113.7466
119.3650, 97.46191
120.5960, 148.6680
121.8270, 217.3218
123.0580, 125.3853
124.2880, 241.8228
125.5190, 256.6074
126.7490, 217.7373
127.9790, 252.1792
129.2090, 371.9233
130.4390, 476.9585
131.6680, 542.2549
132.8980, 542.7769
134.1270, 664.5049
135.3560, 623.4238
136.5850, 768.5186
137.8140, 952.8623
139.0430, 1157.425
140.2710, 1235.124
141.5000, 1512.953
142.7280, 1624.914
143.9560, 1700.992
145.1840, 1445.241
146.4120, 1440.676
147.6390, 1162.222
148.8670, 912.8584
150.0940, 773.5835
151.3210, 614.3950
152.5490, 527.2881
153.7750, 523.2617
155.0020, 486.3125
156.2290, 405.4390
157.4550, 388.5044
158.6810, 384.4795
159.9080, 313.9395
161.1340, 220.5830
162.3590, 196.4033
163.5850, 197.3784
164.8110, 196.4341
166.0360, 305.5264
167.2610, 258.0679
168.4860, 170.1118
169.7110, 319.1284
170.9360, 152.1328
172.1610, 132.1348
173.3850, 174.1426
174.6100, 110.1973
175.8340, 134.2305
177.0580, 230.2832
178.2820, 218.3604
179.5050, 187.4629
180.7290, 297.9580
181.9520, 205.0820
183.1760, 172.2207
184.3990, 278.3916
185.6220, 274.6055
186.8450, 234.8511
188.0670, 223.1294
189.2900, 260.4419
190.5120, 238.9976
191.7340, 223.3755
192.9560, 248.7852
194.1780, 320.2275
195.4000, 218.6167
196.6220, 214.5259
197.8430, 301.4663
199.0640, 278.3052
200.2860, 162.8379
201.5070, 127.4028
202.7270, 160.9990
203.9480, 167.6260
205.1690, 132.2837
206.3890, 141.9722
207.6090, 129.6895
208.8290, 173.4360
210.0490, 157.2119
211.2690, 63.01611
212.4890, 170.8486
213.7080, 125.7085
214.9280, 203.5942
216.1470, 131.5068
217.3660, 47.44531
218.5850, 107.4097
219.8030, 42.42432
221.0220, 82.71533
222.2400, 18.62793
223.4590, 83.46826
224.6770, 81.30469
225.8950, 149.8301
227.1120, 133.8057
228.3300, 163.8677
229.5480, 158.9321
230.7650, 15.63867
231.9820, 243.6733
233.1990, 60.28711
234.4160, 126.3257
235.6330, 191.3848
236.8490, 95.46387
238.0660, 76.56201
239.2820, 71.67920
240.4980, 15.03418
241.7140, 37.72900
242.9300, 75.81543
244.1460, 166.1504
245.3610, 113.6870
246.5770, 91.39404
247.7920, 132.2480
249.0070, 100.0361
250.2220, 100.6255
251.4370, 74.53174
252.6510, 79.82861
253.8660, 13.21045
255.0800, 1.426270
256.2940, 24.20654
257.5080, 20.80957
258.7220, 113.4761
259.9360, 186.2031
261.1490, 95.98633
262.3630, 6.019043
263.5760, 67.90674
264.7890, 82.84180
266.0020, 101.8228
267.2150, 12.15332
268.4270, 87.25049
269.6400, 2.148438
270.8520, 71.99951
272.0640, 77.19336
273.2760, 40.42139
274.4880, 46.68359
275.7000, 69.69482
276.9120, 200.0137
278.1230, 81.36035
279.3340, 222.7544
280.5450, 81.17578
281.7560, 176.6230
282.9670, 92.09424
284.1780, 65.74561
285.3880, 5.737793
286.5980, 125.8003
287.8090, 31.35938
289.0190, 139.9385
290.2290, 122.5435
291.4380, 85.16748
292.6480, 56.80957
293.8570, 114.4702
295.0670, 30.84033
296.2760, 10.13721
297.4850, 9.420410
298.6930, 75.31250
299.9020, 46.93945
301.1110, 120.8169
302.3190, 45.58789
303.5270, 26.62549
304.7350, 22.16797
305.9430, 45.97559
307.1510, 78.79834
308.3580, 77.84717
309.5660, 70.47900
310.7730, 61.33643
311.9800, 112.2046
313.1870, 112.5166
314.3940, 93.08301
315.6010, 80.89600
316.8070, 42.82031
318.0130, 38.75635
319.2200, 23.70410
320.4260, 11.66260
321.6310, 58.63281
322.8370, 95.61377
324.0430, 97.58740
325.2480, 81.60938
326.4540, 113.6221
327.6590, 68.62305
328.8640, 53.63574
330.0680, 61.19824
331.2730, 53.89941
332.4780, 59.73730
333.6820, 88.79102
334.8860, 88.85547
336.0900, 128.5049
337.2940, 17.01172
338.4980, 129.1045
339.7010, 123.2070
340.9050, 34.31055
342.1080, 121.4209
343.3110, 31.47070
344.5140, 9.633789
345.7170, 21.74707
346.9200, 2.870117
348.1220, 1.000977
349.3240, 7.135742
350.5270, 48.27930
351.7290, 11.43262
352.9310, 24.59375
354.1320, 6.238281
355.3340, 105.9365
356.5350, 91.88184
357.7370, 54.28711
358.9380, 64.20996
360.1390, 68.40430
361.3400, 112.0439
362.5400, 46.77148
363.7410, 112.4062
364.9410, 87.58398
366.1410, 128.2344
367.3410, 59.71387
368.5410, 59.87598
369.7410, 12.04102
370.9400, 71.81152
372.1400, 39.30859
373.3390, 57.43457
374.5380, 185.5547
375.7370, 37.64844
376.9360, 56.75098
378.1350, 127.8398
379.3330, 120.9346
380.5310, 70.03809
381.7300, 118.0420
382.9280, 99.68652
384.1260, 133.3896
385.3230, 97.31055
386.5210, 79.47266
387.7180, 38.65137
388.9160, 46.84375
390.1130, 86.05176
391.3100, 92.27344
392.5060, 146.5068
393.7030, 130.7559
394.9000, 169.0166
396.0960, 128.2881
397.2920, 59.57031
398.4880, 62.86328
399.6840, 158.1465
400.8800, 184.4590
402.0750, 97.78125
403.2710, 82.43262
404.4660, 72.77246
405.6610, 19.64648
406.8560, 92.01562
408.0510, 114.4678
409.2450, 74.15234
410.4400, 157.7637
411.6340, 17.19434
412.8280, 91.32324
414.0220, 61.97852
415.2160, 79.04102
416.4100, 44.44141
417.6030, 34.84766
418.7970, 7.258789
419.9900, 139.6709
421.1830, 63.08691
422.3760, 57.07520
423.5690, 160.0225
424.7610, 90.45703
425.9540, 211.9023
427.1460, 29.35254
428.3380, 268.8057
429.5300, 170.1240
430.7220, 214.5869
431.9140, 314.1602
433.1050, 293.7363
434.2970, 349.2129
435.4880, 384.6934
436.6790, 410.1787
437.8700, 622.6064
439.0610, 884.0762
440.2510, 815.2588
441.4420, 1194.459
442.6320, 1639.962
443.8220, 1962.733
445.0120, 2750.244
446.2020, 3320.758
447.3910, 3964.319
448.5810, 4968.840
449.7700, 5930.773
450.9600, 7484.301
452.1490, 8809.835
453.3370, 9844.368
454.5260, 9940.904
455.7150, 9150.444
456.9030, 7578.066
458.0910, 5320.612
459.2800, 3979.189
460.4670, 2849.741
461.6550, 2036.296
462.8430, 1547.854
464.0300, 1187.412
465.2180, 872.9736
466.4050, 595.5469
467.5920, 549.1211
468.7790, 336.6973
469.9650, 399.2783
471.1520, 436.8604
472.3380, 419.4463
473.5250, 288.0322
474.7110, 244.6211
475.8970, 139.2109
477.0820, 197.8037
478.2680, 191.3984
479.4540, 90.99609
480.6390, 267.5938
481.8240, 62.19629
483.0090, 121.7988
484.1940, 116.4043
485.3780, 157.0098
486.5630, 200.9170
487.7470, 220.4766
488.9320, 208.0918
490.1160, 123.4492
491.3000, 136.9932
492.4830, 119.1230
493.6670, 127.7451
494.8500, 131.3271
496.0340, 194.9736
497.2170, 84.92090
498.4000, 102.5713
499.5820, 77.27148
500.7650, 17.07520
501.9480, 20.96680
503.1300, 20.49219
504.3120, 93.23047
505.4940, 99.08594
506.6760, 82.72559
507.8580, 134.3672
509.0390, 180.8340
510.2210, 210.4805
511.4020, 115.1309
512.5830, 85.60254
513.7640, 96.07031
514.9450, 136.7422
516.1250, 132.4150
517.3060, 154.1904
518.4860, 145.5596
519.6660, 172.4502
520.8460, 140.1318
522.0260, 135.9043
523.2060, 184.5898
524.3850, 37.27734
525.5650, 135.9678
526.7440, 61.65820
527.9230, 163.3789
529.1020, 90.10059
530.2810, 147.8252
531.4590, 153.5557
532.6380, 190.2900
533.8160, 183.1035
534.9940, 125.3252
536.1720, 162.0703
537.3500, 158.8164
538.5270, 165.5654
539.7050, 220.3145
540.8820, 123.0635
542.0590, 122.8135
543.2360, 41.56543
544.4130, 18.31836
545.5900, 41.06836
546.7660, 10.82324
547.9430, 37.37695
549.1190, 30.47168
550.2950, 18.73242
551.4710, 22.66113
552.6470, 1.873047
553.8220, 20.11035
554.9980, 23.55176
556.1730, 29.73242
557.3480, 48.97363
558.5230, 59.67969
559.6980, 149.3828
560.8730, 157.3691
562.0470, 70.07617
563.2220, 62.21582
564.3960, 9.452148
565.5700, 45.35449
566.7440, 171.2441
567.9170, 56.90723
569.0910, 53.41309
570.2640, 53.07520
571.4380, 111.7373
572.6110, 29.39941
573.7840, 2.940430
574.9570, 161.7080
576.1290, 97.35742
577.3020, 52.00586
578.4740, 34.34570
579.6460, 71.27637
580.8180, 112.9014
581.9900, 127.5283
583.1620, 142.4355
584.3330, 122.7812
585.5040, 101.4141
586.6760, 72.04688
587.8470, 47.71387
589.0180, 106.3486
590.1880, 12.98242
591.3590, 76.61133
592.5290, 81.24023
593.7000, 184.8672
594.8700, 186.4932
596.0400, 57.11719
597.2090, 37.25977
598.3790, 63.33594
599.5490, 36.92871
600.7180, 127.5215
601.8870, 94.11328
603.0560, 119.7021
604.2250, 205.2900
605.3940, 235.8770
606.5620, 372.4033
607.7300, 398.9863
608.8990, 338.5684
610.0670, 489.4727
611.2350, 610.0508
612.4020, 707.6270
613.5700, 849.2080
614.7370, 1070.787
615.9050, 1297.365
617.0720, 1412.946
618.2390, 1378.525
619.4060, 1393.103
620.5720, 1240.678
621.7390, 1038.580
622.9050, 869.1514
624.0710, 578.7207
625.2370, 489.2920
626.4030, 572.8613
627.5690, 391.9688
628.7340, 514.9014
629.9000, 459.4727
631.0650, 433.9404
632.2300, 588.7080
633.3950, 440.2949
634.5600, 527.1230
635.7240, 591.4316
636.8890, 414.0547
638.0530, 534.6348
639.2170, 330.2119
640.3810, 554.8076
641.5450, 526.0742
642.7080, 549.2334
643.8720, 502.3408
645.0350, 557.1602
646.1980, 507.2715
647.3610, 470.2344
648.5240, 486.8740
649.6870, 479.5225
650.8490, 441.9336
652.0120, 341.2422
653.1740, 389.1445
654.3360, 253.1016
655.4980, 257.7402
656.6600, 322.6963
657.8210, 214.3291
658.9830, 262.9590
660.1440, 360.5850
661.3050, 35.20898
662.4660, 132.8691
663.6270, 162.4854
664.7870, 161.0977
665.9480, 48.70605
667.1080, 111.5293
668.2680, 106.1309
669.4280, 159.7275
670.5880, 182.7715
671.7480, 313.3760
672.9070, 120.9785
674.0670, 12.99609
675.2260, 150.2451
676.3850, 60.83203
677.5440, 64.57422
678.7030, 115.1514
679.8610, 170.7246
681.0200, 139.3945
682.1780, 201.9590
683.3360, 196.5186
684.4940, 183.7559
685.6520, 142.1934
686.8090, 83.21484
687.9670, 111.6523
689.1240, 65.10156
690.2810, 129.3213
691.4380, 19.61816
692.5950, 161.9746
693.7520, 84.53418
694.9080, 53.74707
696.0650, 83.59082
697.2210, 143.1035
698.3770, 149.7812
699.5330, 56.28223
700.6880, 185.1172
701.8440, 72.61230
702.9990, 181.5371
704.1550, 21.55957
705.3100, 6.961914
706.4650, 91.50293
707.6190, 68.96094
708.7740, 84.24805
709.9290, 143.8691
711.0830, 132.3730
712.2370, 174.7100
713.3910, 294.0439
714.5450, 105.4775
715.6980, 217.9062
716.8520, 129.3311
718.0050, 145.9512
719.1580, 121.3672
720.3110, 141.7783
721.4640, 99.25488
722.6170, 103.5371
723.7700, 87.05566
724.9220, 151.4492
726.0740, 36.83887
727.2260, 180.2227
728.3780, 173.6016
729.5300, 97.73340
730.6810, 98.10449
731.8330, 113.4697
732.9840, 129.8311
734.1350, 147.1875
735.2860, 129.0391
736.4370, 88.80762
737.5880, 86.21875
738.7380, 53.52832
739.8880, 40.86133
741.0390, 187.1904
742.1890, 148.5146
743.3380, 194.8340
744.4880, 21.85059
745.6380, 134.4434
746.7870, 105.7314
747.9360, 11.01562
749.0850, 172.2920
750.2340, 122.5645
751.3830, 202.3682
752.5310, 71.62988
753.6800, 159.8877
754.8280, 102.3701
755.9760, 61.61816
757.1240, 92.86230
758.2720, 66.10059
759.4190, 12.33496
760.5670, 179.5596
761.7140, 126.7803
762.8610, 97.16699
764.0080, 45.37793
765.1550, 3.583984
766.3020, 11.44043
767.4480, 102.9678
768.5950, 35.39160
769.7410, 106.5674
770.8870, 111.7402
772.0330, 40.09375
773.1780, 15.95996
774.3240, 37.15723
775.4690, 111.2695
776.6140, 115.3760
777.7590, 54.47656
778.9040, 131.5771
780.0490, 55.68359
781.1940, 4.214844
782.3380, 22.65527
783.4820, 6.777344
784.6260, 14.02832
785.7700, 39.09277
786.9140, 41.15039
788.0580, 9.077148
789.2010, 104.1426
790.3450, 19.22559
791.4880, 41.68262
792.6310, 199.3604
793.7730, 16.39746
794.9160, 157.5283
796.0590, 180.5508
797.2010, 194.5703
798.3430, 211.8564
799.4850, 39.61719
800.6270, 134.6309
801.7690, 197.6387
802.9100, 113.6416
804.0520, 88.36230
805.1930, 73.57617
806.3340, 52.50977
807.4750, 12.56055
808.6160, 53.53516
809.7560, 63.15527
810.8970, 12.06348
812.0370, 14.60059
813.1770, 77.27734
814.3170, 29.15039
815.4570, 150.0156
816.5960, 97.87500
817.7360, 34.72949
818.8750, 176.5771
820.0140, 267.4180
821.1530, 152.2549
822.2920, 2.913086
823.4310, 54.90625
824.5690, 35.28027
825.7070, 76.50391
826.8460, 80.28320
827.9840, 117.0576
829.1220, 0.6259770
830.2590, 29.13672
831.3970, 66.90137
832.5340, 49.67090
833.6710, 48.44531
834.8080, 25.21484
835.9450, 96.97754
837.0820, 12.73535
838.2190, 102.4854
839.3550, 89.22852
840.4910, 37.98730
841.6270, 84.50195
842.7630, 154.0234
843.8990, 79.76758
845.0350, 98.50586
846.1700, 208.2393
847.3060, 35.96777
848.4410, 120.6904
849.5760, 140.4072
850.7100, 60.12598
851.8450, 99.83789
852.9800, 180.5459
854.1140, 25.24805
855.2480, 79.95703
856.3820, 184.6602
857.5160, 33.35938
858.6500, 208.0527
859.7830, 172.7402
860.9170, 119.4248
862.0500, 239.1025
863.1830, 182.7412
864.3160, 150.4092
865.4480, 21.07324
866.5810, 131.7324
867.7130, 62.38770
868.8460, 116.0371
869.9780, 168.6826
871.1100, 168.3223
872.2410, 72.95898
873.3730, 31.60254
874.5050, 106.2412
875.6360, 183.8750
876.7670, 47.50391
877.8980, 62.12988
879.0290, 64.75000
880.1590, 81.36621
881.2900, 81.94531
882.4200, 99.89355
883.5500, 74.24512
884.6800, 98.51953
885.8100, 64.11328
886.9400, 18.29785
888.0690, 220.2734
889.1990, 105.8408
890.3280, 13.59668
891.4570, 125.9512
892.5860, 44.49512
893.7140, 92.03418
894.8430, 80.56836
895.9710, 120.7705
897.1000, 132.2959
898.2280, 13.17969
899.3560, 69.32617
900.4830, 78.83008
901.6110, 215.7969
902.7380, 168.9346
903.8660, 62.57422
904.9930, 183.8252
906.1200, 131.2715
907.2460, 316.7158
908.3730, 192.9131
909.5000, 159.7559
910.6260, 99.14453
911.7520, 188.5742
912.8780, 134.0010
914.0040, 165.6436
915.1290, 165.7725
916.2550, 164.1895
917.3800, 181.6338
918.5050, 91.82324
919.6300, 110.7266
920.7550, 62.77148
921.8800, 105.1348
923.0040, 11.48633
924.1290, 116.8955
925.2530, 105.8604
926.3770, 40.41309
927.5010, 156.4795
928.6250, 164.8574
929.7480, 17.91211
930.8720, 56.28223
931.9950, 159.0771
933.1180, 17.44922
934.2410, 136.5469
935.3640, 84.87109
936.4860, 96.23438
937.6090, 140.5928
938.7310, 296.9502
939.8530, 42.08496
940.9750, 140.8457
942.0970, 181.2119
943.2180, 46.87305
944.3400, 6.297852
945.4610, 136.0312
946.5820, 82.93848
947.7030, 115.6045
948.8240, 309.9287
949.9450, 68.08887
951.0650, 146.4072
952.1860, 218.7236
953.3060, 100.9346
954.4260, 144.2461
955.5460, 123.5547
956.6650, 171.8623
957.7850, 181.2803
958.9040, 135.5830
960.0230, 163.6758
961.1420, 151.0869
962.2610, 176.5752
963.3800, 167.8721
964.4990, 199.4600
965.6170, 240.6182
966.7350, 330.9209
967.8530, 468.2295
968.9710, 478.5361
970.0890, 393.6689
971.2070, 431.9736
972.3240, 640.9414
973.4410, 659.2441
974.5580, 510.5439
975.6750, 656.7881
976.7920, 939.0859
977.9090, 1055.387
979.0250, 1622.688
980.1410, 2184.988
981.2580, 3326.285
982.3740, 5278.526
983.4890, 7954.821
984.6050, 11457.11
985.7200, 15785.41
986.8360, 22416.70
987.9510, 31781.99
989.0660, 41981.14
990.1810, 45436.43
991.2950, 36878.72
992.4100, 22524.95
993.5240, 11855.25
994.6390, 6096.547
995.7530, 3496.842
996.8660, 2310.135
997.9800, 1734.427
999.0940, 1442.718
1000.207, 1148.845
1001.320, 898.1348
1002.433, 648.4229
1003.546, 670.7109
1004.659, 369.9990
1005.772, 447.2842
1006.884, 579.5703
1007.996, 269.8008
1009.108, 455.0967
1010.220, 314.3926
1011.332, 327.6885
1012.444, 330.9834
1013.555, 381.2783
1014.666, 264.5713
1015.777, 237.8730
1016.888, 292.1748
1017.999, 292.4766
1019.110, 121.7803
1020.220, 364.0820
1021.331, 129.8477
1022.441, 247.1494
1023.551, 121.4512
1024.661, 147.5244
1025.770, 221.8252
1026.880, 242.1270
1027.989, 228.4297
1029.098, 240.7314
1030.207, 144.0361
1031.316, 84.34082
1032.425, 148.4746
1033.533, 134.7793
1034.642, 221.0840
1035.750, 108.3916
1036.858, 175.7012
1037.966, 4.771484
1039.073, 162.0820
1040.181, 94.39453
1041.288, 88.70703
1042.396, 23.96484
1043.503, 143.3604
1044.610, 175.6875
1045.716, 78.01562
1046.823, 20.65527
1047.929, 94.66602
1049.036, 46.98730
1050.142, 91.31152
1051.248, 81.66113
1052.353, 109.9922
1053.459, 91.04590
1054.564, 140.6631
1055.670, 55.00098
1056.775, 93.53613
1057.880, 94.69141
1058.985, 10.44141
1060.089, 44.79199
1061.194, 142.0547
1062.298, 35.31836
1063.402, 9.482422
1064.506, 10.24902
1065.610, 131.9688
1066.713, 48.84570
1067.817, 194.4199
1068.920, 164.6875
1070.023, 130.9561
1071.126, 72.27637
1072.229, 86.54785
1073.332, 8.540039
1074.435, 37.35156
1075.537, 190.6484
1076.639, 40.24707
1077.741, 247.3350
1078.843, 120.6240
1079.945, 207.9141
1081.046, 235.2139
1082.148, 278.5166
1083.249, 274.8203
1084.350, 308.6152
1085.451, 377.4316
1086.551, 358.7412
1087.652, 402.0508
1088.752, 448.3623
1089.853, 386.6758
1090.953, 185.0098
1092.053, 128.5439
1093.152, 138.9033
1094.252, 174.2646
1095.351, 249.6270
1096.451, 472.9902
1097.550, 504.3594
1098.649, 760.6406
1099.748, 905.0166
1100.846, 864.3936
1101.945, 1210.770
1103.043, 1200.147
1104.141, 1323.527
1105.239, 1397.909
1106.337, 1452.293
1107.434, 1032.678
1108.532, 940.0645
1109.629, 858.4521
1110.726, 575.8428
1111.823, 447.2354
1112.920, 451.6299
1114.017, 291.0254
1115.113, 228.4219
1116.210, 390.8223
1117.306, 135.2227
1118.402, 264.6270
1119.498, 185.0312
1120.593, 112.4395
1121.689, 309.8477
1122.784, 132.9336
1123.879, 186.3477
1124.974, 23.76172
1126.069, 330.1758
1127.164, 278.5938
1128.259, 146.0117
1129.353, 75.42969
1130.447, 311.8516
1131.541, 352.2754
1132.635, 350.6992
1133.729, 484.1250
1134.822, 348.5527
1135.916, 592.9824
1137.009, 702.4121
1138.102, 662.8457
1139.195, 600.0586
1140.288, 837.5137
1141.380, 676.9688
1142.473, 651.4258
1143.565, 727.8945
1144.657, 346.3652
1145.749, 577.8477
1146.841, 208.3887
1147.932, 264.8730
1149.024, 481.3594
1150.115, 250.8750
1151.206, 112.3633
1152.297, 90.85352
1153.388, 280.3535
1154.479, 289.8535
1155.569, 178.3574
1156.659, 236.8652
1157.750, 211.3770
1158.839, 321.9062
1159.929, 109.4355
1161.019, 304.9688
1162.108, 345.5000
1163.198, 300.0352
1164.287, 508.5762
1165.376, 478.1191
1166.465, 596.6641
1167.553, 516.2363
1168.642, 639.8105
1169.730, 601.4004
1170.818, 411.9980
1171.906, 462.5957
1172.994, 358.1953
1174.082, 294.6641
1175.170, 265.5781
1176.257, 216.8730
1177.344, 162.4785
1178.431, 207.1562
1179.518, 181.7793
1180.605, 158.4004
1181.691, 14.02539
1182.778, 96.65039
1183.864, 71.27539
1184.950, 128.9062
1186.036, 46.53320
1187.122, 237.1621
1188.207, 27.65820
1189.292, 226.3848
1190.378, 37.56641
1191.463, 142.1914
1192.548, 69.81445
1193.632, 155.4414
1194.717, 93.07031
1195.801, 36.72852
1196.886, 96.03906
1197.970, 147.9238
1199.054, 198.5605
1200.137, 82.23633
1201.221, 3.853516
1202.305, 153.4727
1203.388, 29.90820
1204.471, 45.70312
1205.554, 181.8789
1206.637, 19.53516
1207.719, 59.96484
1208.802, 236.5605
1209.884, 117.1543
1210.966, 201.7520
1212.048, 213.3477
1213.130, 135.9473
1214.212, 190.5449
1215.293, 67.14844
1216.374, 86.75000
1217.456, 127.3516
1218.536, 65.95508
1219.617, 110.5586
1220.698, 72.66992
1221.778, 1.724609
1222.859, 148.9180
1223.939, 256.5215
1225.019, 139.1250
1226.099, 139.7324
1227.178, 72.33984
1228.258, 32.05273
1229.337, 33.46094
1230.417, 26.11914
1231.496, 69.69727
1232.574, 175.2773
1233.653, 127.8574
1234.732, 326.4395
1235.810, 227.0176
1236.888, 96.59766
1237.966, 116.1777
1239.044, 211.7598
1240.122, 245.4766
1241.199, 267.1680
1242.277, 320.5781
1243.354, 146.5391
1244.431, 348.1270
1245.508, 234.7168
1246.585, 164.3027
1247.661, 236.2090
1248.738, 211.7969
1249.814, 70.38281
1250.890, 182.9688
1251.966, 42.44531
1253.042, 177.1191
1254.117, 167.6797
1255.193, 179.2383
1256.268, 263.7969
1257.343, 229.4863
1258.418, 138.9160
1259.493, 217.4727
1260.567, 166.0293
1261.642, 156.5996
1262.716, 151.1660
1263.790, 145.7402
1264.864, 64.31055
1265.938, 201.8945
1267.011, 62.47852
1268.085, 41.04883
1269.158, 201.8828
1270.231, 97.44336
1271.304, 107.0020
1272.377, 157.0664
1273.450, 163.6270
