##NAMES=Baryte
##RRUFFID=R050335
##IDEAL CHEMISTRY=BaS^6+^O_4_
##LOCALITY=Bullion Mountains, San Bernardino County, California, USA
##OWNER=RRUFF
##SOURCE=California Institute of Technology
##DESCRIPTION=Colorless cleavage fragment
##STATUS=The identification of this mineral has been confirmed by X-ray diffraction and chemical analysis
##URL=rruff.info/R050335
##MEASURED CHEMISTRY=(Ba_0.95_Sr_0.05_)_Î£=1_S_1.00_O_4_
##PIN_ID=M00174
##ORIENTATION=Laser parallel to -c* (0 0 -1). Fiducial mark perpendicular to laser is parallel to a [1 0 0]
93.48000, 0.0000000E+00
94.71400, 65.29541
95.94800, 153.3276
97.18200, 183.5381
98.41600, 252.2283
99.64900, 223.4548
100.8830, 218.9512
102.1160, 181.7344
103.3490, 168.6875
104.5820, 175.4541
105.8150, 57.51587
107.0470, 98.09717
108.2800, 133.5542
109.5120, 111.2373
110.7440, 1.876465
111.9760, 3.806885
113.2080, 17.57251
114.4400, 87.81055
115.6710, 10.32812
116.9030, 46.96729
118.1340, 16.71753
119.3650, 5.570313
120.5960, 4.476318
121.8270, 49.57349
123.0580, 99.71484
124.2880, 30.93896
125.5190, 13.24097
126.7490, 11.61792
127.9790, 16.06299
129.2090, 43.57007
130.4390, 32.13477
131.6680, 51.75269
132.8980, 39.41943
134.1270, 9.130615
135.3560, 65.88208
136.5850, 82.66919
137.8140, 70.49072
139.0430, 69.34985
140.2710, 96.05273
141.5000, 121.9524
142.7280, 163.1162
143.9560, 194.1042
145.1840, 221.7131
146.4120, 267.2446
147.6390, 280.4270
148.8670, 307.6208
150.0940, 345.8647
151.3210, 396.1531
152.5490, 400.4492
153.7750, 441.7524
155.0020, 343.0632
156.2290, 376.4255
157.4550, 333.8359
158.6810, 251.2625
159.9080, 264.6956
161.1340, 218.1331
162.3590, 185.5762
163.5850, 223.0249
164.8110, 161.4775
166.0360, 141.9436
167.2610, 154.4214
168.4860, 135.9114
169.7110, 119.4026
170.9360, 166.8950
172.1610, 198.3867
173.3850, 147.8770
174.6100, 251.3660
175.8340, 223.8533
177.0580, 148.3252
178.2820, 340.7913
179.5050, 405.2651
180.7290, 352.7461
181.9520, 340.2498
183.1760, 355.7578
184.3990, 435.5757
185.6220, 401.0884
186.8450, 483.6062
188.0670, 506.1289
189.2900, 579.6572
190.5120, 507.1909
191.7340, 518.7300
192.9560, 451.2747
194.1780, 418.8264
195.4000, 383.3706
196.6220, 271.2559
197.8430, 189.8076
199.0640, 229.1648
200.2860, 160.6729
201.5070, 192.1882
202.7270, 209.7102
203.9480, 174.2390
205.1690, 158.7742
206.3890, 142.6733
207.6090, 87.18530
208.8290, 71.70435
210.0490, 101.2302
211.2690, 65.76294
212.4890, 108.3022
213.7080, 101.8484
214.9280, 74.40112
216.1470, 88.96045
217.3660, 93.52612
218.5850, 67.53687
219.8030, 137.0715
221.0220, 62.61304
222.2400, 57.58032
223.4590, 104.4092
224.6770, 134.9866
225.8950, 87.59106
227.1120, 12.17896
228.3300, 23.77246
229.5480, 92.37109
230.7650, 95.10767
231.9820, 120.7170
233.1990, 99.33325
234.4160, 180.9543
235.6330, 56.58008
236.8490, 125.2112
238.0660, 43.84375
239.2820, 51.49243
240.4980, 83.99927
241.7140, 12.28345
242.9300, 39.88403
244.1460, 94.49170
245.3610, 61.08960
246.5770, 139.6787
247.7920, 7.267334
249.0070, 52.83813
250.2220, 38.32617
251.4370, 96.83398
252.6510, 135.3608
253.8660, 118.8977
255.0800, 9.451416
256.2940, 56.02100
257.5080, 119.3271
258.7220, 91.58984
259.9360, 202.0605
261.1490, 97.68433
262.3630, 78.32007
263.5760, 122.9670
264.7890, 68.15698
266.0020, 94.82471
267.2150, 124.3809
268.4270, 76.41064
269.6400, 25.10718
270.8520, 68.81201
272.0640, 121.5249
273.2760, 4.754395
274.4880, 55.97266
275.7000, 66.70703
276.9120, 36.44873
278.1230, 18.19678
279.3340, 59.95264
280.5450, 80.71533
281.7560, 87.48389
282.9670, 87.25879
284.1780, 69.03955
285.3880, 120.8257
286.5980, 130.6177
287.8090, 111.2910
289.0190, 108.2173
290.2290, 64.02588
291.4380, 87.83838
292.6480, 54.65625
293.8570, 14.52148
295.0670, 31.30176
296.2760, 66.12939
297.4850, 29.96045
298.6930, 5.204102
299.9020, 47.63428
301.1110, 75.47607
302.3190, 62.67822
303.5270, 57.15576
304.7350, 32.99316
305.9430, 23.83398
307.1510, 51.67871
308.3580, 24.52637
309.5660, 45.88623
310.7730, 56.23145
311.9800, 75.08887
313.1870, 91.94971
314.3940, 115.8145
315.6010, 106.9014
316.8070, 47.44775
318.0130, 82.41455
319.2200, 44.28076
320.4260, 21.14990
321.6310, 110.0225
322.8370, 51.89844
324.0430, 16.77783
325.2480, 101.6602
326.4540, 42.54639
327.6590, 80.43652
328.8640, 108.3286
330.0680, 33.22363
331.2730, 128.1211
332.4780, 72.02246
333.6820, 13.92676
334.8860, 10.83447
336.0900, 59.74561
337.2940, 122.6597
338.4980, 18.57715
339.7010, 86.49316
340.9050, 9.412109
342.1080, 67.66650
343.3110, 22.24121
344.5140, 60.13135
345.7170, 89.02539
346.9200, 132.9229
348.1220, 7.176270
349.3240, 83.72607
350.5270, 4.368164
351.7290, 57.01953
352.9310, 18.91699
354.1320, 77.81738
355.3340, 1.721680
356.5350, 83.62891
357.7370, 68.53906
358.9380, 26.45312
360.1390, 73.37061
361.3400, 98.29150
362.5400, 71.21631
363.7410, 31.12500
364.9410, 0.9628910
366.1410, 38.95264
367.3410, 36.86865
368.5410, 18.10010
369.7410, 20.02197
370.9400, 5.946777
372.1400, 74.87500
373.3390, 95.80664
374.5380, 67.74170
375.7370, 3.679688
376.9360, 40.62109
378.1350, 49.56641
379.3330, 16.63281
380.5310, 96.31445
381.7300, 28.26514
382.9280, 8.214355
384.1260, 36.94531
385.3230, 10.09766
386.5210, 12.85596
387.7180, 79.84912
388.9160, 195.8096
390.1130, 107.7744
391.3100, 140.7432
392.5060, 89.71533
393.7030, 45.69092
394.9000, 124.6709
396.0960, 57.65576
397.2920, 42.64453
398.4880, 57.63623
399.6840, 114.6333
400.8800, 42.63379
402.0750, 86.63916
403.2710, 62.65039
404.4660, 38.66992
405.6610, 26.69385
406.8560, 45.72119
408.0510, 7.247559
409.2450, 134.7817
410.4400, 103.8154
411.6340, 22.02930
412.8280, 92.00049
414.0220, 59.03320
415.2160, 66.06982
416.4100, 91.10889
417.6030, 141.9619
418.7970, 65.00879
419.9900, 207.0591
421.1830, 113.1133
422.3760, 99.52246
423.5690, 155.5830
424.7610, 111.6543
425.9540, 48.72852
427.1460, 93.81201
428.3380, 164.9072
429.5300, 262.0073
430.7220, 222.1108
431.9140, 189.2178
433.1050, 267.3281
434.2970, 297.4414
435.4880, 250.5693
436.6790, 369.7007
437.8700, 502.1436
439.0610, 691.2812
440.2510, 835.4224
441.4420, 1010.567
442.6320, 1406.478
443.8220, 1868.629
445.0120, 2181.784
446.2020, 2563.468
447.3910, 2869.630
448.5810, 3281.795
449.7700, 3708.963
450.9600, 3915.135
452.1490, 4252.312
453.3370, 4327.491
454.5260, 4129.673
455.7150, 3704.858
456.9030, 3270.049
458.0910, 2848.242
459.2800, 2543.438
460.4670, 2330.040
461.6550, 1980.244
462.8430, 1809.451
464.0300, 1475.662
465.2180, 1265.877
466.4050, 910.0957
467.5920, 642.3169
468.7790, 535.5420
469.9650, 364.7715
471.1520, 378.0044
472.3380, 269.2402
473.5250, 266.4805
474.7110, 99.72363
475.8970, 162.9702
477.0820, 274.2217
478.2680, 207.4761
479.4540, 83.73438
480.6390, 172.9966
481.8240, 127.2627
483.0090, 93.53174
484.1940, 101.8052
485.3780, 94.27490
486.5630, 138.5562
487.7470, 103.8408
488.9320, 152.1304
490.1160, 85.42383
491.3000, 25.35010
492.4830, 36.65186
493.6670, 48.28076
494.8500, 108.0068
496.0340, 23.29883
497.2170, 78.59473
498.4000, 72.87500
499.5820, 62.17920
500.7650, 128.4868
501.9480, 80.79883
503.1300, 49.11475
504.3120, 99.43457
505.4940, 96.75928
506.6760, 81.09326
507.8580, 161.3066
509.0390, 80.64941
510.2210, 9.003418
511.4020, 120.3442
512.5830, 72.69580
513.7640, 31.05225
514.9450, 142.4146
516.1250, 128.7808
517.3060, 64.15137
518.4860, 89.53809
519.6660, 20.92920
520.8460, 37.67578
522.0260, 54.73535
523.2060, 93.12256
524.3850, 14.51318
525.5650, 71.09229
526.7440, 69.27441
527.9230, 64.94531
529.1020, 1.668945
530.2810, 137.7207
531.4590, 30.11328
532.6380, 8.511230
533.8160, 154.9136
534.9940, 36.31934
536.1720, 109.7412
537.3500, 157.1704
538.5270, 80.60449
539.7050, 67.04150
540.8820, 56.48291
542.0590, 23.92822
543.2360, 85.37793
544.4130, 158.8340
545.5900, 27.29736
546.7660, 63.76416
547.9430, 49.23535
549.1190, 22.70996
550.2950, 65.65625
551.4710, 21.13867
552.6470, 5.375000
553.8220, 158.7715
554.9980, 103.2646
556.1730, 170.7603
557.3480, 21.26074
558.5230, 25.76514
559.6980, 104.2783
560.8730, 113.7954
562.0470, 49.31592
563.2220, 12.15967
564.3960, 130.3657
565.5700, 75.48193
566.7440, 61.01416
567.9170, 9.739746
569.0910, 145.1309
570.2640, 45.07080
571.4380, 111.6172
572.6110, 86.16943
573.7840, 106.7471
574.9570, 117.4023
576.1290, 109.3555
577.3020, 135.9209
578.4740, 149.5000
579.6460, 186.0854
580.8180, 138.6748
581.9900, 76.26709
583.1620, 31.86328
584.3330, 122.4634
585.5040, 72.06738
586.6760, 105.6743
587.8470, 21.30029
589.0180, 88.92822
590.1880, 4.561523
591.3590, 114.1978
592.5290, 146.8369
593.7000, 124.4883
594.8700, 160.1431
596.0400, 150.8003
597.2090, 139.4614
598.3790, 104.1250
599.5490, 42.79199
600.7180, 91.47803
601.8870, 104.8154
603.0560, 171.8311
604.2250, 238.5200
605.3940, 274.2124
606.5620, 390.9072
607.7300, 464.6045
608.8990, 754.3047
610.0670, 853.0083
611.2350, 1072.714
612.4020, 1232.053
613.5700, 1177.135
614.7370, 1487.873
615.9050, 1629.613
617.0720, 1670.371
618.2390, 1538.133
619.4060, 1465.897
620.5720, 1422.664
621.7390, 1436.434
622.9050, 1526.205
624.0710, 1580.979
625.2370, 1728.763
626.4030, 1721.566
627.5690, 2034.372
628.7340, 1966.180
629.9000, 2081.989
631.0650, 1989.871
632.2300, 1871.688
633.3950, 1631.506
634.5600, 1276.835
635.7240, 980.6597
636.8890, 742.4868
638.0530, 641.3164
639.2170, 567.1475
640.3810, 521.9819
641.5450, 496.8179
642.7080, 522.6562
643.8720, 525.4971
645.0350, 478.3398
646.1980, 451.5815
647.3610, 483.4287
648.5240, 488.2788
649.6870, 282.1309
650.8490, 364.7256
652.0120, 229.5811
653.1740, 216.4390
654.3360, 354.7598
655.4980, 141.6211
656.6600, 166.4849
657.8210, 74.25586
658.9830, 125.1226
660.1440, 73.99170
661.3050, 169.0098
662.4660, 146.8867
663.6270, 12.76514
664.7870, 113.6455
665.9480, 110.7490
667.1080, 78.14160
668.2680, 69.95752
669.4280, 80.81250
670.5880, 61.70459
671.7480, 21.72168
672.9070, 50.61719
674.0670, 20.51367
675.2260, 33.08740
676.3850, 184.8330
677.5440, 89.73438
678.7030, 134.6372
679.8610, 23.54053
681.0200, 96.44531
682.1780, 83.35107
683.3360, 79.79785
684.4940, 102.4595
685.6520, 87.36865
686.8090, 102.2798
687.9670, 121.1909
689.1240, 68.10303
690.2810, 105.0186
691.4380, 64.93506
692.5950, 40.73486
693.7520, 148.6592
694.9080, 40.58447
696.0650, 54.51025
697.2210, 91.43701
698.3770, 71.27002
699.5330, 92.19824
700.6880, 15.12695
701.8440, 100.0566
702.9990, 94.63477
704.1550, 25.43408
705.3100, 28.48389
706.4650, 18.47363
707.6190, 29.69043
708.7740, 4.798340
709.9290, 17.08984
711.0830, 106.4702
712.2370, 5.359375
713.3910, 29.24951
714.5450, 39.86084
715.6980, 43.00781
716.8520, 24.20801
718.0050, 100.0771
719.1580, 89.12109
720.3110, 40.99023
721.4640, 74.95361
722.6170, 50.66650
723.7700, 67.71240
724.9220, 44.71191
726.0740, 99.58203
727.2260, 102.4521
728.3780, 135.6411
729.5300, 126.0449
730.6810, 97.38037
731.8330, 98.44336
732.9840, 93.31250
734.1350, 90.18115
735.2860, 184.1006
736.4370, 60.96875
737.5880, 139.8364
738.7380, 16.70361
739.8880, 43.57129
741.0390, 89.43750
742.1890, 54.03711
743.3380, 90.35352
744.4880, 90.03369
745.6380, 111.8979
746.7870, 148.7622
747.9360, 159.2046
749.0850, 166.9277
750.2340, 143.4297
751.3830, 136.2915
752.5310, 158.7036
753.6800, 82.56348
754.8280, 80.13184
755.9760, 91.99023
757.1240, 31.84717
758.2720, 30.70264
759.4190, 57.55713
760.5670, 39.41064
761.7140, 95.26270
762.8610, 71.81885
764.0080, 72.66895
765.1550, 44.51709
766.3020, 37.99121
767.4480, 47.38184
768.5950, 20.05322
769.7410, 86.89453
770.8870, 86.73486
772.0330, 136.5737
773.1780, 69.42188
774.3240, 61.26807
775.4690, 78.11328
776.6140, 54.95654
777.7590, 105.7988
778.9040, 99.01807
780.0490, 112.4780
781.1940, 75.31543
782.3380, 90.15088
783.4820, 12.00928
784.6260, 68.81885
785.7700, 52.64502
786.9140, 113.4717
788.0580, 22.29639
789.2010, 39.12061
790.3450, 35.94531
791.4880, 4.768555
792.6310, 74.59424
793.7730, 49.41797
794.9160, 35.75000
796.0590, 91.05420
797.2010, 53.85693
798.3430, 180.6577
799.4850, 79.46484
800.6270, 31.27148
801.7690, 59.07520
802.9100, 67.87939
804.0520, 13.30225
805.1930, 3.498047
806.3340, 51.29492
807.4750, 98.09033
808.6160, 17.88428
809.7560, 189.6748
810.8970, 33.46484
812.0370, 31.74805
813.1770, 1.984863
814.3170, 99.76855
815.4570, 142.5205
816.5960, 198.2705
817.7360, 122.0195
818.8750, 74.76660
820.0140, 3.512207
821.1530, 0.3945310
822.2920, 80.98096
823.4310, 30.70996
824.5690, 100.4370
825.7070, 178.1621
826.8460, 83.88623
827.9840, 68.60889
829.1220, 50.32959
830.2590, 73.04932
831.3970, 89.76758
832.5340, 52.48486
833.6710, 43.20020
834.8080, 3.086426
835.9450, 118.6177
837.0820, 223.3198
838.2190, 43.02051
839.3550, 33.72021
840.4910, 178.4199
841.6270, 67.52979
842.7630, 150.2271
843.8990, 147.7329
845.0350, 109.5757
846.1700, 48.87158
847.3060, 1.562988
848.4410, 73.24902
849.5760, 33.91162
850.7100, 58.59570
851.8450, 69.79102
852.9800, 30.52734
854.1140, 120.1333
855.2480, 7.792969
856.3820, 41.44971
857.5160, 11.10596
858.6500, 15.75928
859.7830, 96.41260
860.9170, 9.064453
862.0500, 98.71436
863.1830, 60.36377
864.3160, 3.012207
865.4480, 90.65625
866.5810, 55.29980
867.7130, 29.05713
868.8460, 66.56592
869.9780, 113.1880
871.1100, 11.80957
872.2410, 27.43018
873.3730, 77.05029
874.5050, 74.66943
875.6360, 105.2886
876.7670, 76.90674
877.8980, 95.52441
879.0290, 76.45459
880.1590, 68.78467
881.2900, 17.37549
882.4200, 71.99170
883.5500, 8.607422
884.6800, 52.22217
885.8100, 48.83643
886.9400, 104.4502
888.0690, 83.93604
889.1990, 49.62988
890.3280, 54.80371
891.4570, 95.72998
892.5860, 53.26318
893.7140, 94.79688
894.8430, 105.3306
895.9710, 118.8633
897.1000, 143.3970
898.2280, 23.06934
899.3560, 69.44873
900.4830, 33.96680
901.6110, 118.4849
902.7380, 63.00391
903.8660, 57.52246
904.9930, 42.97168
906.1200, 57.49121
907.2460, 46.01025
908.3730, 59.15430
909.5000, 143.0508
910.6260, 88.57080
911.7520, 132.0918
912.8780, 156.6133
914.0040, 140.1348
915.1290, 155.6567
916.2550, 18.17920
917.3800, 102.7021
918.5050, 6.327637
919.6300, 95.05859
920.7550, 169.5835
921.8800, 88.45557
923.0040, 109.9810
924.1290, 149.4536
925.2530, 108.4009
926.3770, 82.92822
927.5010, 34.97607
928.6250, 80.50488
929.7480, 93.97803
930.8720, 150.6030
931.9950, 123.1357
933.1180, 81.66797
934.2410, 123.2017
935.3640, 59.73633
936.4860, 178.2812
937.6090, 43.11035
938.7310, 207.6572
939.8530, 176.6978
940.9750, 136.3213
942.0970, 102.6006
943.2180, 106.4141
944.3400, 130.6060
945.4610, 119.1733
946.5820, 126.7412
947.7030, 124.6353
948.8240, 61.35986
949.9450, 181.9326
951.0650, 163.5068
952.1860, 124.0830
953.3060, 252.6606
954.4260, 89.24023
955.5460, 202.2827
956.6650, 167.1118
957.7850, 70.69727
958.9040, 239.2852
960.0230, 182.8750
961.1420, 189.4668
962.2610, 278.0605
963.3800, 329.6567
964.4990, 345.2559
965.6170, 454.8564
966.7350, 470.4595
967.8530, 428.0649
968.9710, 612.6763
970.0890, 584.3853
971.2070, 704.0015
972.3240, 777.6206
973.4410, 961.2417
974.5580, 1086.866
975.6750, 1443.493
976.7920, 1934.130
977.9090, 2628.770
979.0250, 4071.417
980.1410, 6527.076
981.2580, 10645.74
982.3740, 17900.91
983.4890, 27169.58
984.6050, 33434.25
985.7200, 38703.93
986.8360, 47003.62
987.9510, 52742.99
989.0660, 52994.68
990.1810, 46135.20
991.2950, 32843.91
992.4100, 19843.53
993.5240, 10663.22
994.6390, 6017.931
995.7530, 3656.518
996.8660, 2471.238
997.9800, 1872.965
999.0940, 1421.376
1000.207, 1207.111
1001.320, 1003.851
1002.433, 798.0537
1003.546, 822.1572
1004.659, 614.9131
1005.772, 520.6216
1006.884, 549.3853
1007.996, 434.1548
1009.108, 439.9282
1010.220, 337.7090
1011.332, 275.4937
1012.444, 451.2832
1013.555, 256.0767
1014.666, 310.8755
1015.777, 232.6777
1016.888, 224.4854
1017.999, 159.2183
1019.110, 258.0347
1020.220, 205.8560
1021.331, 229.6816
1022.441, 174.9614
1023.551, 102.7969
1024.661, 213.9282
1025.770, 165.7739
1026.880, 106.6250
1027.989, 108.4814
1029.098, 148.3438
1030.207, 79.21143
1031.316, 132.0840
1032.425, 111.2568
1033.533, 178.1401
1034.642, 87.03027
1035.750, 87.92529
1036.858, 112.8257
1037.966, 44.73242
1039.073, 9.645020
1040.181, 81.56348
1041.288, 99.48828
1042.396, 58.41846
1043.503, 45.35498
1044.610, 40.29688
1045.716, 77.24463
1046.823, 17.19873
1047.929, 106.1587
1049.036, 20.12500
1050.142, 40.09717
1051.248, 4.924805
1052.353, 40.94629
1053.459, 37.03516
1054.564, 12.97754
1055.670, 5.872559
1056.775, 35.00977
1057.880, 14.98730
1058.985, 13.01807
1060.089, 48.49365
1061.194, 44.03223
1062.298, 47.95947
1063.402, 34.03955
1064.506, 69.05615
1065.610, 22.08008
1066.713, 69.13037
1067.817, 17.16748
1068.920, 37.25342
1070.023, 10.69727
1071.126, 156.3555
1072.229, 103.7236
1073.332, 97.79639
1074.435, 22.12061
1075.537, 47.49805
1076.639, 44.58691
1077.741, 53.68311
1078.843, 81.78613
1079.945, 63.14453
1081.046, 137.0215
1082.148, 71.16064
1083.249, 65.30615
1084.350, 134.4629
1085.451, 68.62549
1086.551, 49.79492
1087.652, 76.97070
1088.752, 5.156250
1089.853, 41.35156
1090.953, 23.55322
1092.053, 73.76367
1093.152, 170.9790
1094.252, 113.2002
1095.351, 191.4282
1096.451, 138.6626
1097.550, 168.9233
1098.649, 219.2578
1099.748, 304.4644
1100.846, 337.3867
1101.945, 375.6738
1103.043, 468.9717
1104.141, 468.2764
1105.239, 520.5874
1106.337, 401.9048
1107.434, 347.2295
1108.532, 293.5605
1109.629, 277.8984
1110.726, 238.6147
1111.823, 166.5933
1112.920, 227.9502
1114.017, 202.3145
1115.113, 272.6870
1116.210, 207.0664
1117.306, 198.4526
1118.402, 305.8447
1119.498, 434.2441
1120.593, 359.6611
1121.689, 374.0864
1122.784, 435.5195
1123.879, 440.9590
1124.974, 383.4062
1126.069, 556.8594
1127.164, 537.3198
1128.259, 603.7876
1129.353, 769.6362
1130.447, 833.3188
1131.541, 1054.808
1132.635, 1228.303
1133.729, 1646.903
1134.822, 2051.428
1135.916, 2313.968
1137.009, 2883.513
1138.102, 3492.065
1139.195, 3982.805
1140.288, 4503.373
1141.380, 5068.564
1142.473, 5388.168
1143.565, 5318.778
1144.657, 5477.396
1145.749, 5116.018
1146.841, 4529.648
1147.932, 3894.286
1149.024, 3218.928
1150.115, 2618.577
1151.206, 2222.232
1152.297, 1845.897
1153.388, 1464.566
1154.479, 1198.266
1155.569, 982.9717
1156.659, 798.7002
1157.750, 689.2041
1158.839, 627.1748
1159.929, 590.9219
1161.019, 555.6738
1162.108, 527.8477
1163.198, 509.2031
1164.287, 480.9863
1165.376, 469.5303
1166.465, 422.4580
1167.553, 455.3730
1168.642, 361.1797
1169.730, 409.0039
1170.818, 365.8340
1171.906, 362.6689
1172.994, 212.5098
1174.082, 236.3564
1175.170, 208.2100
1176.257, 170.0693
1177.344, 231.9346
1178.431, 302.8047
1179.518, 199.6963
1180.605, 156.5918
1181.691, 183.4932
1182.778, 225.2988
1183.864, 135.6074
1184.950, 153.5264
1186.036, 144.5752
1187.122, 135.0332
1188.207, 137.9697
1189.292, 76.49023
1190.378, 65.43750
1191.463, 53.28418
1192.548, 18.36621
1193.632, 46.38574
1194.717, 63.35449
1195.801, 80.32812
1196.886, 0.6933590
1197.970, 1.291016
1199.054, 47.71680
1200.137, 108.2627
1201.221, 114.9639
1202.305, 11.04590
1203.388, 108.9463
1204.471, 2.944336
1205.554, 56.78027
1206.637, 27.20605
1207.719, 96.19727
1208.802, 47.19336
1209.884, 84.19434
1210.966, 84.20117
1212.048, 63.62402
1213.130, 94.40332
1214.212, 74.62500
1215.293, 137.6514
1216.374, 66.68359
1217.456, 108.7197
1218.536, 30.78223
1219.617, 25.82715
1220.698, 96.88184
1221.778, 0.9423830
1222.859, 94.00586
1223.939, 80.07422
1225.019, 93.14844
1226.099, 83.22559
1227.178, 84.86816
1228.258, 58.95410
1229.337, 117.0449
1230.417, 16.86035
1231.496, 52.23242
1232.574, 12.32910
1233.653, 124.4287
1234.732, 47.53418
1235.810, 62.64160
1236.888, 214.7520
1237.966, 62.86914
1239.044, 124.9883
1240.122, 81.11328
1241.199, 133.2422
1242.277, 99.37305
1243.354, 144.5098
1244.431, 109.6523
1245.508, 111.7979
1246.585, 105.9482
1247.661, 120.1006
1248.738, 61.25684
1249.814, 20.52051
1250.890, 175.3047
1251.966, 27.47070
1253.042, 108.6387
1254.117, 15.80957
1255.193, 48.98340
1256.268, 22.41016
1257.343, 94.38867
1258.418, 9.429688
1259.493, 5.249023
1260.567, 39.93262
1261.642, 54.11621
1262.716, 23.69727
1263.790, 97.11914
1264.864, 59.19629
1265.938, 164.3799
1267.011, 110.5664
1268.085, 3.617188
1269.158, 112.5703
1270.231, 10.67480
1271.304, 55.51270
1272.377, 45.70215
1273.450, 115.8945
