##NAMES=Baryte
##RRUFFID=R040036
##IDEAL CHEMISTRY=BaS^6+^O_4_
##LOCALITY=Cumbria County, England
##OWNER=RRUFF
##SOURCE=University of Arizona Mineral Museum
##DESCRIPTION=Golden brown tabular crystal
##STATUS=The identification of this mineral has been confirmed by X-ray diffraction and chemical analysis
##URL=rruff.info/R040036
##MEASURED CHEMISTRY=Ba_1.00_S_1.00_O_4_; trace amounts of Pb
##PIN_ID=M00019
##ORIENTATION=Laser parallel to b* (0 1 0). Fiducial mark perpendicular to laser is parallel to c [0 0 1]
26.288, 0.000
27.694, 1.626
29.099, 17.453
30.504, 19.385
31.909, 23.621
33.313, 25.572
34.717, 26.591
36.121, 21.251
37.525, 17.254
38.929, 23.668
40.332, 22.289
41.735, 37.253
43.138, 39.982
44.541, 46.767
45.943, 34.682
47.345, 33.187
48.747, 9.679
50.149, 17.659
51.551, 21.590
52.952, 30.070
54.353, 17.481
55.754, 11.140
57.155, 1.769
58.555, 21.457
59.955, 24.717
61.355, 26.897
62.755, 31.989
64.154, 33.241
65.553, 44.752
66.952, 48.617
68.351, 53.688
69.750, 56.453
71.148, 57.629
72.546, 59.809
73.944, 54.299
75.342, 50.635
76.739, 50.153
78.136, 46.484
79.533, 56.757
80.930, 54.122
82.327, 38.500
83.723, 24.765
85.119, 6.947
86.515, 13.830
87.910, 20.731
89.306, 18.641
90.701, 6.566
92.096, 24.507
93.490, 23.464
94.885, 17.433
96.279, 22.760
97.673, 47.102
99.067, 36.469
100.461, 30.862
101.854, 40.417
103.247, 29.677
104.640, 23.747
106.032, 7.740
107.425, 8.747
108.817, 26.764
110.209, 50.786
111.601, 73.814
112.992, 87.283
114.384, 87.223
115.775, 103.153
117.166, 78.452
118.556, 57.682
119.947, 62.025
121.337, 35.409
122.727, 49.983
124.116, 52.407
125.506, 32.772
126.895, 62.006
128.284, 45.180
129.673, 60.462
131.062, 48.585
132.450, 59.688
133.838, 54.890
135.226, 39.738
136.614, 51.999
138.001, 40.070
139.388, 50.011
140.775, 48.947
142.162, 47.813
143.549, 46.678
144.935, 59.400
146.321, 63.073
147.707, 71.759
149.093, 121.659
150.478, 138.601
151.863, 160.378
153.248, 158.118
154.633, 147.875
156.018, 125.542
157.402, 94.191
158.786, 81.908
160.170, 74.699
161.554, 56.417
162.937, 54.137
164.320, 46.830
165.703, 35.477
167.086, 37.095
168.469, 26.670
169.851, 29.272
171.233, 27.931
172.615, 25.593
173.996, 25.159
175.378, 24.749
176.759, 11.475
178.140, 21.166
179.521, 42.848
180.901, 38.442
182.281, 82.029
183.662, 100.546
185.041, 148.942
186.421, 176.352
187.800, 228.690
189.180, 238.007
190.558, 211.283
191.937, 183.422
193.316, 142.615
194.694, 119.930
196.072, 91.013
197.450, 70.018
198.827, 56.852
200.205, 50.677
201.582, 40.492
202.959, 28.339
204.336, 41.179
205.712, 21.859
207.088, 35.245
208.465, 37.881
209.840, 24.404
211.216, 23.883
212.591, 19.456
213.967, 23.955
215.341, 12.529
216.716, 2.133
218.091, 17.710
219.465, 8.308
220.839, 17.907
222.213, 13.483
223.586, 13.092
224.960, 15.650
226.333, 23.152
227.706, 23.659
229.079, 20.213
230.451, 13.707
231.823, 12.113
233.195, 29.508
234.567, 13.375
235.939, 23.116
237.310, 14.666
238.682, 22.218
240.052, 15.047
241.423, 21.456
242.794, 13.887
244.164, 0.454
245.534, 3.718
246.904, 11.105
248.274, 5.437
249.643, 10.736
251.012, 19.072
252.381, 8.352
253.750, 19.592
255.118, 9.660
256.487, 24.738
257.855, 14.986
259.223, 16.340
260.590, 29.720
261.958, 23.095
263.325, 30.464
264.692, 28.827
266.059, 30.183
267.425, 24.533
268.791, 9.875
270.158, 6.114
271.523, 6.412
272.889, 2.713
274.255, 11.917
275.620, 18.222
276.985, 19.472
278.350, 14.763
279.714, 11.017
281.078, 17.296
282.443, 20.570
283.806, 21.768
285.170, 29.018
286.534, 14.207
287.897, 4.438
289.260, 24.660
290.623, 11.872
291.985, 2.076
293.348, 16.306
294.710, 5.532
296.072, 5.754
297.433, 12.971
298.795, 9.182
300.156, 12.242
301.517, 12.974
302.878, 14.788
304.239, 13.981
305.599, 17.170
306.959, 19.355
308.319, 18.245
309.679, 11.712
311.038, 17.884
312.398, 7.036
313.757, 8.132
315.116, 12.233
316.474, 1.283
317.833, 14.341
319.191, 14.390
320.549, 11.426
321.907, 9.456
323.264, 21.482
324.622, 18.409
325.979, 9.399
327.336, 17.481
328.692, 7.534
330.049, 11.626
331.405, 27.711
332.761, 12.788
334.117, 13.857
335.473, 9.920
336.828, 7.975
338.183, 29.022
339.538, 3.064
340.893, 6.901
342.247, 8.126
343.602, 15.147
344.956, 14.162
346.310, 26.172
347.663, 33.178
349.017, 20.140
350.370, 2.042
351.723, 11.999
353.076, 22.862
354.428, 3.787
355.780, 13.720
357.133, 17.588
358.484, 4.452
359.836, 19.292
361.188, 12.151
362.539, 4.941
363.890, 13.614
365.241, 10.436
366.591, 10.179
367.942, 15.996
369.292, 1.783
370.642, 7.415
371.992, 17.362
373.341, 11.192
374.691, 10.022
376.040, 18.833
377.388, 20.611
378.737, 4.373
380.086, 13.222
381.434, 4.997
382.782, 10.821
384.130, 20.611
385.477, 23.441
386.825, 22.239
388.172, 39.074
389.519, 27.879
390.865, 25.573
392.212, 31.306
393.558, 33.101
394.904, 26.848
396.250, 34.638
397.596, 42.465
398.941, 40.238
400.286, 43.758
401.631, 43.399
402.976, 42.699
404.321, 35.505
405.665, 35.315
407.009, 20.186
408.353, 25.025
409.697, 47.897
411.040, 29.759
412.384, 31.626
413.727, 43.465
415.070, 37.235
416.412, 47.980
417.755, 58.729
419.097, 74.444
420.439, 80.221
421.781, 77.025
423.122, 100.835
424.464, 123.621
425.805, 118.389
427.146, 145.185
428.486, 175.001
429.827, 215.816
431.167, 251.665
432.507, 304.499
433.847, 381.228
435.187, 463.055
436.526, 581.824
437.865, 737.530
439.204, 905.318
440.543, 1147.055
441.882, 1549.794
443.220, 1955.567
444.558, 2654.322
445.896, 3715.090
447.234, 5143.860
448.572, 7123.638
449.909, 9663.413
451.246, 11863.204
452.583, 13303.004
453.919, 12292.796
455.256, 9702.559
456.592, 6859.350
457.928, 4747.091
459.264, 3345.837
460.600, 2284.602
461.935, 1639.306
463.270, 1228.079
464.605, 913.853
465.940, 730.613
467.274, 560.364
468.609, 466.170
469.943, 361.963
471.277, 320.713
472.610, 267.501
473.944, 244.244
475.277, 204.004
476.610, 165.834
477.943, 160.601
479.275, 141.372
480.608, 151.124
481.940, 127.868
483.272, 114.693
484.604, 90.415
485.935, 105.970
487.267, 99.715
488.598, 92.493
489.929, 70.266
491.260, 86.087
492.590, 86.908
493.920, 67.708
495.250, 71.424
496.580, 48.187
497.910, 78.001
499.239, 81.726
500.569, 63.498
501.898, 73.287
503.226, 51.016
504.555, 69.814
505.883, 68.581
507.212, 69.317
508.540, 74.264
509.867, 70.772
511.195, 71.622
512.522, 69.413
513.849, 63.138
515.176, 66.890
516.503, 63.688
517.829, 83.458
519.156, 72.222
520.482, 75.028
521.808, 64.842
523.133, 56.581
524.459, 46.362
525.784, 68.104
527.109, 47.893
528.434, 46.704
529.758, 60.516
531.083, 39.360
532.407, 56.171
533.731, 55.026
535.055, 30.836
536.378, 40.646
537.701, 38.455
539.025, 39.263
540.348, 29.077
541.670, 34.909
542.993, 27.723
544.315, 25.750
545.637, 32.363
546.959, 23.198
548.281, 24.042
549.602, 27.845
550.923, 33.742
552.244, 43.543
553.565, 38.351
554.886, 26.179
556.206, 42.976
557.526, 15.847
558.846, 27.641
560.166, 31.638
561.486, 14.736
562.805, 29.564
564.124, 24.357
565.443, 26.149
566.762, 24.940
568.080, 26.751
569.399, 36.666
570.717, 10.493
572.035, 17.359
573.352, 22.277
574.670, 0.436
575.987, 12.303
577.304, 30.201
578.621, 28.224
579.938, 35.783
581.254, 24.977
582.570, 33.887
583.886, 39.179
585.202, 30.201
586.518, 15.009
587.833, 33.864
589.148, 19.708
590.463, 21.514
591.778, 24.652
593.093, 21.799
594.407, 37.572
595.721, 41.335
597.035, 46.099
598.349, 40.075
599.662, 49.246
600.976, 60.125
602.289, 57.882
603.602, 80.656
604.914, 99.410
606.227, 113.352
607.539, 141.118
608.851, 196.879
610.163, 290.805
611.475, 450.587
612.786, 763.340
614.097, 1181.226
615.408, 1640.144
616.719, 1830.981
618.030, 1635.850
619.340, 1188.846
620.651, 892.580
621.961, 688.387
623.270, 525.298
624.580, 448.080
625.889, 409.337
627.199, 413.233
628.507, 411.958
629.816, 453.680
631.125, 443.516
632.433, 389.238
633.741, 339.072
635.049, 270.786
636.357, 243.498
637.664, 235.504
638.972, 244.212
640.279, 268.924
641.586, 302.629
642.893, 337.331
644.199, 445.159
645.505, 510.857
646.811, 561.056
648.117, 587.196
649.423, 491.929
650.728, 372.618
652.034, 302.444
653.339, 212.129
654.644, 155.812
655.948, 126.493
657.253, 101.183
658.557, 93.880
659.861, 67.555
661.165, 64.273
662.468, 33.960
663.772, 30.628
665.075, 41.293
666.378, 30.956
667.681, 10.616
668.983, 30.294
670.286, 29.093
671.588, 7.927
672.890, 17.598
674.192, 5.246
675.493, 20.890
676.795, 26.532
678.096, 18.171
679.397, 20.889
680.697, 13.524
681.998, 9.155
683.298, 12.784
684.598, 16.410
685.898, 8.033
687.198, 7.710
688.498, 5.328
689.797, 19.978
691.096, 0.589
692.395, 15.203
693.694, 11.808
694.992, 7.411
696.290, 19.011
697.589, 1.608
698.886, 27.224
700.184, 4.051
701.482, 8.357
702.779, 6.224
704.076, 14.818
705.373, 19.393
706.669, 13.968
707.966, 8.538
709.262, 0.895
710.558, 4.668
711.854, 1.222
713.150, 1.222
714.445, 11.670
715.740, 0.822
717.035, 0.636
718.330, 6.097
719.625, 11.436
720.919, 4.033
722.214, 1.507
723.508, 17.985
724.801, 6.470
726.095, 4.039
727.388, 0.546
728.682, 1.049
729.975, 3.548
731.267, 11.955
732.560, 12.465
733.852, 9.019
735.145, 28.500
736.437, 9.979
737.728, 5.545
739.020, 14.074
740.311, 1.609
741.603, 9.852
742.894, 5.310
744.184, 11.353
745.475, 4.716
746.765, 5.735
748.055, 6.181
749.345, 4.376
750.635, 2.063
751.925, 6.499
753.214, 3.068
754.503, 4.639
755.792, 1.214
757.081, 2.793
758.370, 8.376
759.658, 12.037
760.946, 0.553
762.234, 5.146
763.522, 0.256
764.809, 20.344
766.097, 4.953
767.384, 11.435
768.671, 12.821
769.958, 2.796
771.244, 4.583
772.530, 3.040
773.817, 8.334
775.102, 5.705
776.388, 10.926
777.674, 8.437
778.959, 2.799
780.244, 17.158
781.529, 8.515
782.814, 4.131
784.098, 16.220
785.383, 20.431
786.667, 18.090
787.951, 0.754
789.235, 3.578
790.518, 5.091
791.801, 10.236
793.084, 14.560
794.367, 9.883
795.650, 0.204
796.933, 0.478
798.215, 1.838
799.497, 1.848
800.779, 0.536
802.061, 3.773
803.342, 2.600
804.624, 2.410
805.905, 2.689
807.186, 1.029
808.466, 6.729
809.747, 8.433
811.027, 1.174
812.307, 12.117
813.587, 4.360
814.867, 7.647
816.146, 7.932
817.426, 4.784
818.705, 12.497
819.984, 0.771
821.263, 9.023
822.541, 9.291
823.819, 3.566
825.098, 4.190
826.375, 6.050
827.653, 2.723
828.931, 8.545
830.208, 0.286
831.485, 1.979
832.762, 8.232
834.039, 8.464
835.315, 15.724
836.592, 2.093
837.868, 8.835
839.144, 7.783
840.420, 5.167
841.695, 1.616
842.970, 15.634
844.246, 0.117
845.521, 12.131
846.795, 18.356
848.070, 17.475
849.344, 9.682
850.618, 4.845
851.892, 2.956
853.166, 12.824
854.440, 33.980
855.713, 26.104
856.986, 25.101
858.259, 59.338
859.532, 51.383
860.804, 28.488
862.077, 37.209
863.349, 45.199
864.621, 15.401
865.893, 14.554
867.164, 26.717
868.436, 17.916
869.707, 18.253
870.978, 16.635
872.248, 7.863
873.519, 12.098
874.789, 4.331
876.060, 7.350
877.330, 19.172
878.599, 16.285
879.869, 18.210
881.138, 7.265
882.408, 15.969
883.677, 0.013
884.945, 1.232
886.214, 15.454
887.482, 15.511
888.751, 19.709
890.019, 9.936
891.287, 19.029
892.554, 36.087
893.822, 52.227
895.089, 56.332
896.356, 75.309
897.623, 77.547
898.889, 76.710
900.156, 66.769
901.422, 85.956
902.688, 55.666
903.954, 43.737
905.220, 52.979
906.485, 48.222
907.750, 47.461
909.015, 39.592
910.280, 45.721
911.545, 47.968
912.809, 44.216
914.074, 37.170
915.338, 36.420
916.602, 28.666
917.865, 28.918
919.129, 35.172
920.392, 42.299
921.655, 34.556
922.918, 53.311
924.181, 27.124
925.443, 42.343
926.706, 48.605
927.968, 36.732
929.230, 30.997
930.491, 50.263
931.753, 28.532
933.014, 44.792
934.276, 59.042
935.536, 45.316
936.797, 68.544
938.058, 58.804
939.318, 58.083
940.578, 74.363
941.838, 51.646
943.098, 71.930
944.358, 76.197
945.617, 62.342
946.876, 61.452
948.135, 57.725
949.394, 69.020
950.653, 71.317
951.911, 88.617
953.169, 98.919
954.427, 104.142
955.685, 131.448
956.943, 118.757
958.200, 131.069
959.458, 166.383
960.715, 192.846
961.971, 222.961
963.228, 296.283
964.485, 354.572
965.741, 435.899
966.997, 405.224
968.253, 419.556
969.508, 497.892
970.764, 565.230
972.019, 665.571
973.274, 714.893
974.529, 809.107
975.784, 971.349
977.039, 1181.704
978.293, 1594.046
979.547, 2188.407
980.801, 3147.769
982.055, 5171.136
983.308, 9168.506
984.562, 19694.879
985.815, 44684.258
987.068, 64933.641
988.321, 61663.027
989.573, 37142.414
990.826, 19041.807
992.078, 10511.202
993.330, 5926.604
994.582, 3618.008
995.833, 2418.417
997.085, 1730.830
998.336, 1376.248
999.587, 1106.671
1000.838, 935.098
1002.088, 817.528
1003.339, 678.962
1004.589, 595.400
1005.839, 539.843
1007.089, 441.291
1008.339, 416.743
1009.588, 377.198
1010.838, 320.657
1012.087, 321.121
1013.336, 274.590
1014.584, 270.063
1015.833, 259.540
1017.081, 223.955
1018.330, 215.439
1019.577, 194.924
1020.825, 200.417
1022.073, 179.913
1023.320, 181.414
1024.567, 166.919
1025.814, 161.427
1027.061, 160.940
1028.308, 151.458
1029.554, 134.979
1030.800, 122.506
1032.046, 99.037
1033.292, 106.572
1034.538, 91.112
1035.783, 76.656
1037.029, 96.204
1038.274, 71.759
1039.519, 73.318
1040.763, 38.882
1042.008, 53.449
1043.252, 48.021
1044.496, 56.597
1045.740, 39.177
1046.984, 60.761
1048.228, 39.349
1049.471, 30.943
1050.714, 42.540
1051.957, 38.141
1053.200, 42.747
1054.442, 32.356
1055.685, 43.970
1056.927, 36.588
1058.169, 41.213
1059.411, 35.843
1060.652, 42.478
1061.894, 39.117
1063.135, 25.760
1064.376, 18.408
1065.617, 23.061
1066.858, 9.718
1068.098, 17.380
1069.339, 30.045
1070.579, 24.715
1071.819, 15.388
1073.058, 32.068
1074.298, 30.758
1075.537, 26.448
1076.776, 61.144
1078.015, 38.845
1079.254, 21.551
1080.493, 76.263
1081.731, 65.981
1082.969, 78.703
1084.207, 84.430
1085.445, 94.162
1086.683, 117.899
1087.920, 77.641
1089.157, 99.389
1090.394, 115.142
1091.631, 130.900
1092.868, 168.662
1094.105, 209.428
1095.341, 302.199
1096.577, 420.976
1097.813, 600.759
1099.049, 880.547
1100.284, 1250.339
1101.519, 1610.137
1102.755, 2104.940
1103.990, 2173.746
1105.224, 1845.557
1106.459, 1468.372
1107.693, 1062.192
1108.928, 789.017
1110.162, 570.848
1111.395, 400.684
1112.629, 313.524
1113.863, 241.370
1115.096, 176.219
1116.329, 154.072
1117.562, 111.928
1118.795, 98.789
1120.027, 81.653
1121.259, 75.521
1122.492, 74.394
1123.723, 53.271
1124.955, 62.151
1126.187, 80.037
1127.418, 77.927
1128.649, 106.822
1129.880, 123.721
1131.111, 179.625
1132.342, 278.531
1133.572, 392.442
1134.802, 632.356
1136.033, 910.273
1137.262, 1084.194
1138.492, 1063.119
1139.722, 910.048
1140.951, 671.980
1142.180, 510.915
1143.409, 394.854
1144.638, 306.797
1145.866, 228.743
1147.095, 182.692
1148.323, 160.646
1149.551, 143.602
1150.779, 124.563
1152.006, 95.526
1153.234, 113.494
1154.461, 111.465
1155.688, 142.439
1156.915, 120.417
1158.141, 168.399
1159.368, 197.383
1160.594, 269.372
1161.820, 366.363
1163.046, 538.357
1164.272, 680.355
1165.498, 807.355
1166.723, 763.359
1167.948, 717.366
1169.173, 610.376
1170.398, 458.388
1171.623, 341.404
1172.847, 268.422
1174.071, 198.443
1175.295, 169.467
1176.519, 136.494
1177.743, 120.523
1178.966, 81.555
1180.190, 60.590
1181.413, 45.627
1182.636, 37.667
1183.858, 31.709
1185.081, 42.753
1186.303, 7.801
1187.526, 28.850
1188.748, 29.902
1189.969, 10.956
1191.191, 22.013
1192.412, 29.072
1193.634, 4.133
1194.855, 21.196
1196.076, 14.262
1197.296, 19.659
1198.517, 22.729
1199.737, 6.801
1200.957, 28.874
1202.177, 20.950
1203.397, 21.027
1204.617, 11.351
1205.836, 0.230
1207.055, 16.029
1208.274, 32.501
1209.493, 8.907
1210.712, 30.129
1211.930, 29.309
1213.148, 40.724
1214.367, 28.909
1215.584, 25.004
1216.802, 31.498
1218.020, 45.595
1219.237, 40.050
1220.454, 22.321
1221.671, 35.759
1222.888, 5.968
1224.105, 17.134
1225.321, 27.238
1226.537, 27.433
1227.753, 29.121
1228.969, 33.463
1230.185, 20.878
1231.400, 32.987
1232.616, 25.826
1233.831, 37.742
1235.046, 29.853
1236.261, 50.965
1237.475, 76.285
1238.689, 44.399
1239.904, 15.889
1241.118, 32.126
1242.332, 46.390
1243.545, 32.773
1244.759, 32.020
1245.972, 45.137
1247.185, 51.304
1248.398, 40.423
1249.611, 54.543
1250.823, 29.665
1252.036, 25.801
1253.248, 42.155
1254.460, 21.281
1255.671, 34.408
1256.883, 41.928
1258.095, 16.057
1259.306, 31.579
1260.517, 40.870
1261.728, 33.003
1262.938, 31.137
1264.149, 30.272
1265.359, 48.409
1266.569, 51.546
1267.779, 44.692
1268.989, 47.831
1270.199, 37.049
1271.408, 59.191
1272.617, 44.333
1273.826, 50.476
1275.035, 40.620
1276.244, 53.819
1277.452, 36.969
1278.661, 26.135
1279.869, 35.283
1281.077, 36.490
1282.285, 38.651
1283.492, 32.846
1284.700, 20.015
1285.907, 2.184
1287.114, 31.414
1288.321, 21.586
1289.527, 29.757
1290.734, 22.917
1291.940, 15.063
1293.146, 24.218
1294.352, 31.362
1295.558, 15.533
1296.763, 7.669
1297.969, 5.802
1299.174, 18.930
1300.379, 17.055
1301.584, 8.179
1302.788, 1.298
1303.993, 11.411
1305.197, 20.523
1306.401, 17.631
1307.605, 15.737
1308.809, 17.840
1310.013, 23.939
1311.216, 27.872
1312.419, 26.127
1313.622, 36.220
1314.825, 42.311
1316.028, 34.400
1317.230, 5.484
1318.432, 26.562
1319.634, 14.637
1320.836, 31.711
1322.038, 39.783
1323.240, 22.853
1324.441, 38.921
1325.642, 15.987
1326.843, 13.950
1328.044, 11.109
1329.245, 25.164
1330.445, 9.217
1331.645, 8.266
1332.845, 2.311
1334.045, 9.647
1335.245, 13.610
1336.445, 6.584
1337.644, 15.556
1338.843, 12.532
1340.042, 4.514
1341.241, 2.499
1342.440, 12.487
1343.638, 2.480
1344.836, 13.524
1346.034, 15.475
1347.232, 14.521
1348.430, 13.486
1349.628, 5.497
1350.825, 12.512
1352.022, 2.531
1353.219, 0.554
1354.416, 3.420
1355.613, 1.609
1356.809, 22.642
1358.005, 7.679
1359.202, 10.721
1360.398, 12.234
1361.593, 6.815
1362.789, 10.866
1363.984, 8.078
1365.179, 13.021
1366.374, 6.039
1367.569, 5.898
1368.764, 13.167
1369.958, 2.235
1371.153, 3.305
1372.347, 8.335
1373.541, 2.363
1374.735, 6.548
1375.928, 1.399
1377.122, 22.541
1378.315, 7.683
1379.508, 22.823
1380.701, 4.961
1381.893, 5.905
1383.086, 11.224
1384.278, 11.350
1385.470, 12.524
1386.662, 12.601
1387.854, 12.276
1389.046, 2.154
1390.237, 19.967
1391.428, 20.085
1392.619, 19.202
1393.810, 20.316
1395.001, 22.429
1396.191, 9.538
1397.382, 20.646
1398.572, 2.751
1399.762, 19.854
1400.952, 20.955
1402.141, 17.054
1403.331, 28.152
1404.520, 5.248
1405.709, 12.343
1406.898, 9.437
1408.087, 13.530
1409.275, 5.622
1410.464, 11.713
1411.652, 7.211
1412.840, 10.893
1414.028, 10.983
1415.215, 5.072
1416.403, 10.369
1417.590, 10.912
1418.777, 13.841
1419.964, 17.036
1421.151, 12.234
1422.338, 13.579
1423.524, 7.968
1424.710, 23.855
1425.896, 17.236
1427.082, 43.380
1428.268, 37.640
1429.453, 34.533
1430.639, 42.358
1431.824, 30.374
1433.009, 69.941
1434.194, 82.318
1435.378, 64.876
1436.563, 69.099
1437.747, 75.497
1438.931, 89.626
1440.115, 83.422
1441.299, 93.307
1442.482, 79.153
1443.666, 102.527
1444.849, 76.517
1446.032, 100.458
1447.215, 81.875
1448.397, 115.626
1449.580, 105.359
1450.762, 114.056
1451.944, 111.559
1453.126, 108.228
1454.308, 127.731
1455.490, 137.288
1456.671, 104.713
1457.852, 93.108
1459.033, 120.523
1460.214, 101.718
1461.395, 102.084
1462.575, 74.504
1463.756, 63.843
1464.936, 83.294
1466.116, 58.761
1467.296, 62.227
1468.475, 64.719
1469.655, 70.211
1470.834, 57.714
1472.013, 40.229
1473.192, 39.715
1474.371, 33.936
1475.550, 15.736
1476.728, 39.252
1477.906, 39.753
1479.084, 52.244
1480.262, 37.734
1481.440, 37.232
1482.617, 46.754
1483.795, 34.292
1484.972, 35.844
1486.149, 30.406
1487.326, 25.977
1488.502, 28.557
1489.679, 24.096
1490.855, 23.753
1492.031, 23.379
1493.207, 10.031
1494.383, 13.709
1495.559, 6.417
1496.734, 11.162
1497.909, 14.957
1499.084, 0.187
1500.259, 0.251
1501.434, 12.793
1502.608, 0.000
##END=



