##NAMES=Baryte
##RRUFFID=R050335
##IDEAL CHEMISTRY=BaS^6+^O_4_
##LOCALITY=Bullion Mountains, San Bernardino County, California, USA
##OWNER=RRUFF
##SOURCE=California Institute of Technology
##DESCRIPTION=Colorless cleavage fragment
##STATUS=The identification of this mineral has been confirmed by X-ray diffraction and chemical analysis
##URL=rruff.info/R050335
##MEASURED CHEMISTRY=(Ba_0.95_Sr_0.05_)_Î£=1_S_1.00_O_4_
##PIN_ID=M00174
##ORIENTATION=Laser parallel to -c* (0 0 -1). Fiducial mark perpendicular to laser is parallel to a [1 0 0]
93.48000, 0.0000000E+00
94.71400, 1.208984
95.94800, 104.6462
97.18200, 56.35986
98.41600, 62.31836
99.64900, 161.6006
100.8830, 94.63281
102.1160, 66.03760
103.3490, 5.549805
104.5820, 52.06543
105.8150, 166.1545
107.0470, 168.9822
108.2800, 199.3704
109.5120, 263.2532
110.7440, 213.5730
111.9760, 235.9500
113.2080, 160.3208
114.4400, 210.6638
115.6710, 202.2683
116.9030, 195.1052
118.1340, 191.1636
119.3650, 108.4294
120.5960, 101.8916
121.8270, 181.5439
123.0580, 30.38501
124.2880, 215.3970
125.5190, 100.5642
126.7490, 106.8660
127.9790, 163.2878
129.2090, 122.8142
130.4390, 211.4287
131.6680, 217.1169
132.8980, 150.8809
134.1270, 141.7261
135.3560, 181.6133
136.5850, 136.5381
137.8140, 168.4961
139.0430, 245.4834
140.2710, 222.5830
141.5000, 240.8491
142.7280, 280.1206
143.9560, 326.4956
145.1840, 385.0811
146.4120, 393.6479
147.6390, 332.2104
148.8670, 353.0112
150.0940, 377.9517
151.3210, 457.9927
152.5490, 460.0864
153.7750, 428.1572
155.0020, 448.2119
156.2290, 384.3589
157.4550, 372.0303
158.6810, 350.5508
159.9080, 314.5815
161.1340, 286.6313
162.3590, 264.6948
163.5850, 271.7144
164.8110, 320.6821
166.0360, 271.5996
167.2610, 238.4712
168.4860, 261.2930
169.7110, 352.0776
170.9360, 239.8306
172.1610, 237.2812
173.3850, 258.3149
174.6100, 200.9810
175.8340, 170.6279
177.0580, 244.2593
178.2820, 186.8794
179.5050, 260.4863
180.7290, 286.0801
181.9520, 237.6626
183.1760, 227.2339
184.3990, 251.7944
185.6220, 349.4937
186.8450, 339.9937
188.0670, 365.1274
189.2900, 350.6328
190.5120, 333.0356
191.7340, 344.4326
192.9560, 414.8232
194.1780, 296.1865
195.4000, 370.2065
196.6220, 279.5522
197.8430, 275.7686
199.0640, 148.9810
200.2860, 304.7158
201.5070, 330.9141
202.7270, 239.1255
203.9480, 152.9756
205.1690, 161.4790
206.3890, 100.4517
207.6090, 95.61182
208.8290, 128.0991
210.0490, 145.5039
211.2690, 129.3516
212.4890, 136.1992
213.7080, 142.8960
214.9280, 144.9805
216.1470, 184.1011
217.3660, 137.9761
218.5850, 145.2212
219.8030, 76.94141
221.0220, 75.66016
222.2400, 53.37695
223.4590, 126.0898
224.6770, 68.81445
225.8950, 133.0000
227.1120, 127.6890
228.3300, 42.38770
229.5480, 152.0151
230.7650, 70.72412
231.9820, 85.33398
233.1990, 128.9399
234.4160, 108.5435
235.6330, 128.9473
236.8490, 78.73975
238.0660, 128.3325
239.2820, 107.9229
240.4980, 89.66064
241.7140, 74.99902
242.9300, 61.70605
244.1460, 161.4932
245.3610, 41.34570
246.5770, 26.25293
247.7920, 112.2051
249.0070, 0.8032230
250.2220, 101.2197
251.4370, 99.27246
252.6510, 3.351563
253.8660, 123.4521
255.0800, 90.57324
256.2940, 64.71143
257.5080, 92.86523
258.7220, 61.15527
259.9360, 184.2134
261.1490, 42.61914
262.3630, 48.82129
263.5760, 44.03125
264.7890, 151.2500
266.0020, 13.47412
267.2150, 113.7051
268.4270, 69.94043
269.6400, 116.1792
270.8520, 67.42188
272.0640, 60.66602
273.2760, 98.91260
274.4880, 110.1602
275.7000, 73.40820
276.9120, 25.34277
278.1230, 45.89697
279.3340, 74.13623
280.5450, 51.62549
281.7560, 51.59668
282.9670, 10.81787
284.1780, 23.03711
285.3880, 33.25488
286.5980, 69.47119
287.8090, 88.68408
289.0190, 57.89502
290.2290, 61.10254
291.4380, 78.30615
292.6480, 10.49414
293.8570, 61.30322
295.0670, 24.86328
296.2760, 44.97607
297.4850, 11.16455
298.6930, 93.29834
299.9020, 106.4263
301.1110, 47.54785
302.3190, 46.66309
303.5270, 44.77197
304.7350, 3.875488
305.9430, 33.97021
307.1510, 99.05957
308.3580, 62.14258
309.5660, 102.2202
310.7730, 75.70801
311.9800, 93.66406
313.1870, 7.347656
314.3940, 34.64697
315.6010, 129.3423
316.8070, 46.32666
318.0130, 96.30322
319.2200, 54.72705
320.4260, 5.777832
321.6310, 2.162598
322.8370, 47.09766
324.0430, 49.97168
325.2480, 44.94043
326.4540, 137.8486
327.6590, 41.75342
328.8640, 71.65479
330.0680, 39.55371
331.2730, 19.43457
332.4780, 30.68652
333.6820, 26.15332
334.8860, 19.99072
336.0900, 0.8256840
337.2940, 68.65625
338.4980, 62.51611
339.7010, 46.25586
340.9050, 41.99463
342.1080, 81.73926
343.3110, 18.47168
344.5140, 29.20312
345.7170, 34.93066
346.9200, 59.65674
348.1220, 59.35156
349.3240, 82.00781
350.5270, 92.64844
351.7290, 70.28955
352.9310, 9.902344
354.1320, 26.51221
355.3340, 44.10352
356.5350, 17.30518
357.7370, 64.28125
358.9380, 27.85498
360.1390, 86.56982
361.3400, 7.979492
362.5400, 125.5073
363.7410, 25.02100
364.9410, 67.53613
366.1410, 13.94678
367.3410, 67.56738
368.5410, 54.08301
369.7410, 46.60010
370.9400, 42.11182
372.1400, 51.62646
373.3390, 69.11621
374.5380, 69.60840
375.7370, 33.09863
376.9360, 54.59180
378.1350, 33.66602
379.3330, 43.58594
380.5310, 35.08691
381.7300, 33.59082
382.9280, 80.09814
384.1260, 63.60791
385.3230, 18.12109
386.5210, 55.63916
387.7180, 30.15967
388.9160, 116.6836
390.1130, 71.20947
391.3100, 146.7378
392.5060, 102.2676
393.7030, 59.40869
394.9000, 58.94189
396.0960, 61.47754
397.2920, 125.8267
398.4880, 55.36523
399.6840, 157.9053
400.8800, 73.44678
402.0750, 66.99023
403.2710, 55.53467
404.4660, 5.699707
405.6610, 95.84521
406.8560, 117.3911
408.0510, 187.9531
409.2450, 123.5020
410.4400, 39.05225
411.6340, 60.60400
412.8280, 62.15771
414.0220, 92.71240
415.2160, 13.26904
416.4100, 137.8267
417.6030, 99.38623
418.7970, 151.9683
419.9900, 62.55225
421.1830, 98.14844
422.3760, 165.7363
423.5690, 120.3262
424.7610, 235.2583
425.9540, 235.8521
427.1460, 210.3872
428.3380, 323.9858
429.5300, 308.5874
430.7220, 349.1919
431.9140, 371.7988
433.1050, 445.4077
434.2970, 509.0205
435.4880, 610.6362
436.6790, 755.0737
437.8700, 782.3682
439.0610, 1072.993
440.2510, 1242.311
441.4420, 1624.855
442.6320, 2001.491
443.8220, 2511.131
445.0120, 3003.774
446.2020, 3668.422
447.3910, 4170.073
448.5810, 5093.342
449.7700, 6055.002
450.9600, 7323.666
452.1490, 8812.334
453.3370, 10438.01
454.5260, 11606.43
455.7150, 12297.73
456.9030, 13194.11
458.0910, 13121.20
459.2800, 13852.90
460.4670, 14171.60
461.6550, 13610.31
462.8430, 12378.10
464.0300, 10580.90
465.2180, 8138.175
466.4050, 5936.931
467.5920, 4151.093
468.7790, 3021.864
469.9650, 2214.642
471.1520, 1671.425
472.3380, 1376.215
473.5250, 963.0107
474.7110, 869.8145
475.8970, 678.2749
477.0820, 639.0923
478.2680, 557.9160
479.4540, 471.2651
480.6390, 425.1030
481.8240, 425.6455
483.0090, 382.4990
484.1940, 362.3667
485.3780, 329.2363
486.5630, 330.1138
487.7470, 305.9990
488.9320, 294.8921
490.1160, 258.7935
491.3000, 262.7036
492.4830, 164.6221
493.6670, 269.5493
494.8500, 139.4849
496.0340, 227.4165
497.2170, 111.3701
498.4000, 173.3330
499.5820, 158.9614
500.7650, 117.9424
501.9480, 208.9326
503.1300, 239.3804
504.3120, 254.3838
505.4940, 172.4062
506.6760, 188.4380
507.8580, 90.47949
509.0390, 211.5098
510.2210, 192.5732
511.4020, 129.6553
512.5830, 112.7476
513.7640, 94.12305
514.9450, 203.9858
516.1250, 91.12402
517.3060, 133.2720
518.4860, 175.4556
519.6660, 77.64941
520.8460, 132.8535
522.0260, 129.4458
523.2060, 134.2920
524.3850, 146.5269
525.5650, 145.7856
526.7440, 110.0547
527.9230, 127.3345
529.1020, 81.62402
530.2810, 157.9233
531.4590, 158.2334
532.6380, 91.55322
533.8160, 169.8828
534.9940, 80.22510
536.1720, 204.5801
537.3500, 106.9473
538.5270, 136.3242
539.7050, 48.71338
540.8820, 146.1133
542.0590, 67.52344
543.2360, 72.94336
544.4130, 138.3735
545.5900, 22.18604
546.7660, 119.0547
547.9430, 114.5190
549.1190, 1.005859
550.2950, 48.47949
551.4710, 43.97412
552.6470, 115.4785
553.8220, 83.99414
554.9980, 59.51904
556.1730, 22.05420
557.3480, 58.61279
558.5230, 59.93555
559.6980, 133.5034
560.8730, 135.1050
562.0470, 129.7178
563.2220, 187.3613
564.3960, 164.0249
565.5700, 61.70557
566.7440, 227.4126
567.9170, 119.1304
569.0910, 162.8584
570.2640, 215.5957
571.4380, 150.3423
572.6110, 101.1157
573.7840, 120.9043
574.9570, 149.7100
576.1290, 170.5249
577.3020, 105.3555
578.4740, 111.2007
579.6460, 177.0791
580.8180, 90.96631
581.9900, 188.8770
583.1620, 154.7998
584.3330, 218.7310
585.5040, 231.6719
586.6760, 220.3721
587.8470, 237.3047
589.0180, 228.5605
590.1880, 201.5435
591.3590, 251.5361
592.5290, 198.5396
593.7000, 221.5518
594.8700, 206.5801
596.0400, 145.6333
597.2090, 302.7222
598.3790, 232.8232
599.5490, 315.9487
600.7180, 223.0879
601.8870, 319.2402
603.0560, 453.4092
604.2250, 411.6089
605.3940, 532.0054
606.5620, 741.2583
607.7300, 916.5088
608.8990, 1226.783
610.0670, 1558.071
611.2350, 1603.367
612.4020, 1944.671
613.5700, 2039.982
614.7370, 2417.317
615.9050, 2467.657
617.0720, 2610.032
618.2390, 2318.413
619.4060, 2149.801
620.5720, 1917.208
621.7390, 1754.619
622.9050, 1614.011
624.0710, 1494.534
625.2370, 1406.007
626.4030, 1342.488
627.5690, 1330.975
628.7340, 1338.470
629.9000, 1362.970
631.0650, 1292.490
632.2300, 1120.016
633.3950, 895.5493
634.5600, 913.1030
635.7240, 542.6621
636.8890, 629.2285
638.0530, 514.8008
639.2170, 521.3789
640.3810, 581.9692
641.5450, 449.6772
642.7080, 554.2793
643.8720, 584.5825
645.0350, 543.2197
646.1980, 567.8623
647.3610, 539.5103
648.5240, 489.4243
649.6870, 489.3301
650.8490, 387.8721
652.0120, 348.6714
653.1740, 317.0713
654.3360, 243.7642
655.4980, 229.2427
656.6600, 229.9438
657.8210, 185.6777
658.9830, 216.8252
660.1440, 257.1001
661.3050, 217.8906
662.4660, 263.6108
663.6270, 176.3335
664.7870, 180.3789
665.9480, 166.0684
667.1080, 91.79980
668.2680, 139.5342
669.4280, 22.35010
670.5880, 104.0894
671.7480, 101.8306
672.9070, 130.5742
674.0670, 109.5645
675.2260, 117.1309
676.3850, 224.7441
677.5440, 110.4956
678.7030, 171.5259
679.8610, 174.3384
681.0200, 50.09424
682.1780, 86.85156
683.3360, 133.6099
684.4940, 82.37012
685.6520, 148.2891
686.8090, 64.05176
687.9670, 182.8950
689.1240, 58.64551
690.2810, 131.4097
691.4380, 96.17529
692.5950, 81.94043
693.7520, 18.70654
694.9080, 91.47168
696.0650, 223.3086
697.2210, 8.074219
698.3770, 104.1606
699.5330, 72.67578
700.6880, 104.5649
701.8440, 107.1538
702.9990, 137.4009
704.1550, 101.4512
705.3100, 174.4741
706.4650, 125.3467
707.6190, 83.06104
708.7740, 132.7734
709.9290, 14.48389
711.0830, 132.0596
712.2370, 102.9761
713.3910, 99.43652
714.5450, 130.1748
715.6980, 77.02832
716.8520, 146.7222
718.0050, 107.4150
719.1580, 94.10205
720.3110, 133.7861
721.4640, 29.70020
722.6170, 86.37646
723.7700, 152.0488
724.9220, 26.20801
726.0740, 74.21094
727.2260, 102.8706
728.3780, 154.5259
729.5300, 144.1768
730.6810, 37.15771
731.8330, 143.7998
732.9840, 0.4360350
734.1350, 192.0703
735.2860, 108.6973
736.4370, 101.7583
737.5880, 63.24951
738.7380, 96.66943
739.8880, 104.3398
741.0390, 74.73877
742.1890, 148.5005
743.3380, 54.18164
744.4880, 51.27734
745.6380, 28.30273
746.7870, 92.81445
747.9360, 112.5625
749.0850, 74.20605
750.2340, 19.69580
751.3830, 25.54492
752.5310, 144.9146
753.6800, 17.38232
754.8280, 78.17578
755.9760, 111.6265
757.1240, 22.06982
758.2720, 146.6035
759.4190, 36.02979
760.5670, 15.18213
761.7140, 61.95801
762.8610, 110.3584
764.0080, 120.7485
765.1550, 124.9492
766.3020, 79.50244
767.4480, 108.8657
768.5950, 67.03613
769.7410, 85.37988
770.8870, 89.89404
772.0330, 159.3257
773.1780, 69.64014
774.3240, 123.9453
775.4690, 71.24023
776.6140, 107.5249
777.7590, 191.7993
778.9040, 22.06348
780.0490, 39.31641
781.1940, 4.558594
782.3380, 71.78320
783.4820, 42.85352
784.6260, 77.20117
785.7700, 17.39404
786.9140, 18.57275
788.0580, 11.93457
789.2010, 34.53564
790.3450, 26.33789
791.4880, 43.75293
792.6310, 6.832031
793.7730, 94.89355
794.9160, 77.05762
796.0590, 144.9287
797.2010, 180.9038
798.3430, 33.86816
799.4850, 206.8193
800.6270, 124.7588
801.7690, 32.31348
802.9100, 45.57520
804.0520, 105.4521
805.1930, 54.31641
806.3340, 35.16992
807.4750, 119.0107
808.6160, 139.8389
809.7560, 52.65625
810.8970, 26.46191
812.0370, 22.25195
813.1770, 23.02832
814.3170, 45.78809
815.4570, 25.53711
816.5960, 38.26953
817.7360, 75.99121
818.8750, 86.70020
820.0140, 197.3975
821.1530, 98.08203
822.2920, 0.2451170
823.4310, 62.40430
824.5690, 37.04199
825.7070, 117.6660
826.8460, 49.27930
827.9840, 66.87988
829.1220, 95.46777
830.2590, 118.0439
831.3970, 127.6084
832.5340, 26.83984
833.6710, 67.67285
834.8080, 66.17480
835.9450, 30.08105
837.0820, 27.37012
838.2190, 26.19336
839.3550, 20.79297
840.4910, 1.796875
841.6270, 20.91504
842.7630, 27.24219
843.8990, 43.55566
845.0350, 64.85840
846.1700, 41.14941
847.3060, 42.57227
848.4410, 0.3398440
849.5760, 9.127930
850.7100, 33.05566
851.8450, 0.2265630
852.9800, 81.37500
854.1140, 2.512695
855.2480, 116.6289
856.3820, 38.73340
857.5160, 20.82812
858.6500, 45.90625
859.7830, 51.97461
860.9170, 12.03125
862.0500, 16.07324
863.1830, 117.0977
864.3160, 103.1123
865.4480, 125.9951
866.5810, 15.10840
867.7130, 113.0850
868.8460, 79.05273
869.9780, 29.99902
871.1100, 29.94336
872.2410, 10.78516
873.3730, 1.794922
874.5050, 2.692383
875.6360, 1.662109
876.7670, 13.56836
877.8980, 3.736328
879.0290, 12.92578
880.1590, 8.681641
881.2900, 21.62402
882.4200, 45.17285
883.5500, 9.095703
884.6800, 10.61426
885.8100, 147.3115
886.9400, 46.99902
888.0690, 42.32227
889.1990, 133.3174
890.3280, 44.05273
891.4570, 85.53809
892.5860, 103.1211
893.7140, 25.30664
894.8430, 70.23828
895.9710, 4.228516
897.1000, 1.276367
898.2280, 77.78223
899.3560, 117.2783
900.4830, 101.7637
901.6110, 31.24219
902.7380, 99.71191
903.8660, 39.82812
904.9930, 154.5986
906.1200, 2.017578
907.2460, 45.57520
908.3730, 20.79590
909.5000, 42.16016
910.6260, 65.51562
911.7520, 97.66504
912.8780, 105.2012
914.0040, 122.5322
915.1290, 59.74414
916.2550, 36.06055
917.3800, 168.6973
918.5050, 15.99707
919.6300, 45.29004
920.7550, 161.5762
921.8800, 106.5938
923.0040, 44.37695
924.1290, 134.0020
925.2530, 55.21289
926.3770, 58.65234
927.5010, 230.8809
928.6250, 122.3271
929.7480, 143.5469
930.8720, 70.73438
931.9950, 21.94434
933.1180, 134.1475
934.2410, 74.27148
935.3640, 106.4648
936.4860, 202.6533
937.6090, 156.5566
938.7310, 185.7363
939.8530, 32.91113
940.9750, 51.08203
942.0970, 105.1680
943.2180, 138.3301
944.3400, 161.4883
945.4610, 162.5938
946.5820, 71.54785
947.7030, 108.3447
948.8240, 99.15723
949.9450, 16.29980
951.0650, 164.1611
952.1860, 256.2383
953.3060, 104.3721
954.4260, 69.50195
955.5460, 81.62793
956.6650, 169.7539
957.7850, 179.4990
958.9040, 195.6201
960.0230, 192.6582
961.1420, 415.7754
962.2610, 317.8906
963.3800, 351.0039
964.4990, 273.1172
965.6170, 418.2295
966.7350, 494.3428
967.8530, 458.3945
968.9710, 663.5234
970.0890, 602.6533
971.2070, 641.6895
972.3240, 845.6719
973.4410, 850.9541
974.5580, 1161.576
975.6750, 1424.394
976.7920, 1904.238
977.9090, 2707.232
979.0250, 4077.384
980.1410, 6482.539
981.2580, 10792.69
982.3740, 18093.98
983.4890, 26516.92
984.6050, 32078.32
985.7200, 35992.45
986.8360, 41903.46
987.9510, 46294.62
989.0660, 46526.79
990.1810, 40396.96
991.2950, 29285.14
992.4100, 17852.08
993.5240, 9697.262
994.6390, 5468.449
995.7530, 3253.146
996.8660, 2375.998
997.9800, 1560.192
999.0940, 1259.391
1000.207, 1110.594
1001.320, 991.4668
1002.433, 697.6777
1003.546, 742.8936
1004.659, 595.1123
1005.772, 716.3359
1006.884, 534.1260
1007.996, 524.4854
1009.108, 504.9150
1010.220, 447.0938
1011.332, 276.5449
1012.444, 332.6309
1013.555, 216.1602
1014.666, 220.0596
1015.777, 267.3301
1016.888, 263.6377
1017.999, 287.7090
1019.110, 369.8857
1020.220, 161.2139
1021.331, 163.5498
1022.441, 221.6318
1023.551, 81.98340
1024.661, 95.00781
1025.770, 161.3750
1026.880, 95.75000
1027.989, 263.0342
1029.098, 234.4268
1030.207, 195.0928
1031.316, 86.13379
1032.425, 96.55371
1033.533, 136.9795
1034.642, 52.41699
1035.750, 108.8633
1036.858, 134.3203
1037.966, 47.96777
1039.073, 163.4443
1040.181, 84.75000
1041.288, 234.1396
1042.396, 92.64648
1043.503, 157.1621
1044.610, 107.6895
1045.716, 174.2275
1046.823, 116.7754
1047.929, 54.33594
1049.036, 74.90820
1050.142, 31.97266
1051.248, 5.089844
1052.353, 31.69922
1053.459, 14.32031
1054.564, 61.95312
1055.670, 58.59863
1056.775, 92.59766
1057.880, 74.75195
1058.985, 42.44336
1060.089, 111.1602
1061.194, 162.7734
1062.298, 109.5244
1063.402, 107.2871
1064.506, 202.0898
1065.610, 155.1035
1066.713, 57.73047
1067.817, 151.5713
1068.920, 96.42383
1070.023, 81.28906
1071.126, 74.18262
1072.229, 115.0898
1073.332, 76.00977
1074.435, 51.94336
1075.537, 202.8906
1076.639, 175.8516
1077.741, 146.8252
1078.843, 120.8125
1079.945, 200.8154
1081.046, 204.3857
1082.148, 241.4199
1083.249, 250.4668
1084.350, 277.5293
1085.451, 275.6943
1086.551, 254.3652
1087.652, 238.8525
1088.752, 203.1562
1089.853, 128.2891
1090.953, 126.4443
1092.053, 142.6426
1093.152, 194.8564
1094.252, 300.0850
1095.351, 315.5225
1096.451, 207.8311
1097.550, 313.1182
1098.649, 277.8496
1099.748, 406.8613
1100.846, 321.8379
1101.945, 413.1982
1103.043, 432.5723
1104.141, 421.9727
1105.239, 432.2422
1106.337, 406.8779
1107.434, 379.3096
1108.532, 295.8047
1109.629, 262.3145
1110.726, 94.83887
1111.823, 112.3789
1112.920, 163.9463
1114.017, 179.5293
1115.113, 283.1514
1116.210, 154.7920
1117.306, 244.4570
1118.402, 225.6553
1119.498, 384.3555
1120.593, 410.0693
1121.689, 446.8047
1122.784, 462.5537
1123.879, 435.3193
1124.974, 426.1006
1126.069, 389.9102
1127.164, 301.7363
1128.259, 338.5791
1129.353, 511.4395
1130.447, 600.3154
1131.541, 534.2061
1132.635, 841.1113
1133.729, 881.0342
1134.822, 989.9717
1135.916, 1226.934
1137.009, 1577.909
1138.102, 1767.902
1139.195, 2069.911
1140.288, 2344.941
1141.380, 2478.990
1142.473, 2567.674
1143.565, 2599.163
1144.657, 2526.291
1145.749, 2321.461
1146.841, 2177.646
1147.932, 1980.157
1149.024, 1833.082
1150.115, 1503.328
1151.206, 1181.591
1152.297, 846.8682
1153.388, 724.1602
1154.479, 720.4824
1155.569, 462.8428
1156.659, 463.2334
1157.750, 374.6387
1158.839, 390.0586
1159.929, 396.4746
1161.019, 241.9883
1162.108, 439.4814
1163.198, 522.9912
1164.287, 524.5166
1165.376, 429.0557
1166.465, 403.6104
1167.553, 492.1846
1168.642, 422.7754
1169.730, 453.3936
1170.818, 289.0273
1171.906, 243.6768
1172.994, 306.3613
1174.082, 315.0615
1175.170, 378.7754
1176.257, 283.5049
1177.344, 226.2490
1178.431, 112.0068
1179.518, 134.9268
1180.605, 132.7129
1181.691, 39.51660
1182.778, 54.33203
1183.864, 166.1611
1184.950, 138.0049
1186.036, 167.8613
1187.122, 217.7324
1188.207, 59.37305
1189.292, 3.522461
1190.378, 57.76367
1191.463, 40.99512
1192.548, 17.92969
1193.632, 99.88281
1194.717, 91.84766
1195.801, 53.82520
1196.886, 87.84570
1197.970, 102.8223
1199.054, 85.84180
1200.137, 70.87305
1201.221, 71.93555
1202.305, 73.25293
1203.388, 49.32520
1204.471, 55.98242
1205.554, 65.79590
1206.637, 41.65137
1207.719, 99.78906
1208.802, 74.93945
1209.884, 88.09961
1210.966, 27.72852
1212.048, 142.4492
1213.130, 79.63965
1214.212, 99.83984
1215.293, 250.0527
1216.374, 60.27441
1217.456, 4.491211
1218.536, 12.24707
1219.617, 155.0068
1220.698, 191.6143
1221.778, 183.6133
1222.859, 191.8984
1223.939, 89.19336
1225.019, 11.50195
1226.099, 2.250000
1227.178, 102.0410
1228.258, 19.62402
1229.337, 77.28711
1230.417, 52.79297
1231.496, 209.3564
1232.574, 70.68457
1233.653, 181.0234
1234.732, 190.7734
1235.810, 58.12988
1236.888, 31.49512
1237.966, 248.0371
1239.044, 134.4199
1240.122, 207.8096
1241.199, 156.2090
1242.277, 200.5293
1243.354, 166.9863
1244.431, 137.9785
1245.508, 94.42188
1246.585, 14.87207
1247.661, 19.67188
1248.738, 145.7871
1249.814, 47.25098
1250.890, 65.77148
1251.966, 135.2490
1253.042, 100.7412
1254.117, 118.2314
1255.193, 211.0654
1256.268, 118.5674
1257.343, 164.1504
1258.418, 169.6621
1259.493, 193.1797
1260.567, 164.7217
1261.642, 175.2490
1262.716, 154.6025
1263.790, 150.4307
1264.864, 119.8711
1265.938, 133.4170
1267.011, 136.1406
1268.085, 136.6982
1269.158, 87.25977
1270.231, 189.8262
1271.304, 184.8662
1272.377, 19.43848
1273.450, 139.3418
