##NAMES=Baryte
##RRUFFID=R040036
##IDEAL CHEMISTRY=BaS^6+^O_4_
##LOCALITY=Cumbria County, England
##OWNER=RRUFF
##SOURCE=University of Arizona Mineral Museum
##DESCRIPTION=Golden brown tabular crystal
##STATUS=The identification of this mineral has been confirmed by X-ray diffraction and chemical analysis
##URL=rruff.info/R040036
##MEASURED CHEMISTRY=Ba_1.00_S_1.00_O_4_; trace amounts of Pb
##PIN_ID=M00021
##ORIENTATION=Laser parallel to c* (0 0 1). Fiducial mark perpendicular to laser is parallel to -a [-1 0 0]
97.673, 0.000
99.067, 29.761
100.461, 72.170
101.854, 47.731
103.247, 103.747
104.640, 70.567
106.032, 47.643
107.425, 10.548
108.817, 31.429
110.209, 27.062
111.601, 16.623
112.992, 54.818
114.384, 88.563
115.775, 88.294
117.166, 50.033
118.556, 36.632
119.947, 79.000
121.337, 61.102
122.727, 71.904
124.116, 16.628
125.506, 113.322
126.895, 48.001
128.284, 64.703
129.673, 119.405
131.062, 52.258
132.450, 66.783
133.838, 1.760
135.226, 37.540
136.614, 5.909
138.001, 2.183
139.388, 27.319
140.775, 10.569
142.162, 57.057
143.549, 15.443
144.935, 70.747
146.321, 80.985
147.707, 123.867
149.093, 157.032
150.478, 193.046
151.863, 258.164
153.248, 259.653
154.633, 261.871
156.018, 220.100
157.402, 159.041
158.786, 145.740
160.170, 99.888
161.554, 105.658
162.937, 39.480
164.320, 59.445
165.703, 6.027
167.086, 38.390
168.469, 68.030
169.851, 39.560
171.233, 46.782
172.615, 20.261
173.996, 44.941
175.378, 38.929
176.759, 25.417
178.140, 41.731
179.521, 39.563
180.901, 80.591
182.281, 57.276
183.662, 67.331
185.041, 100.399
186.421, 157.198
187.800, 228.888
189.180, 192.881
190.558, 286.810
191.937, 199.997
193.316, 184.189
194.694, 115.249
196.072, 47.231
197.450, 62.127
198.827, 26.211
200.205, 55.126
201.582, 49.478
202.959, 33.349
204.336, 17.089
205.712, 5.672
207.088, 82.298
208.465, 24.828
209.840, 27.599
211.216, 16.311
212.591, 28.149
213.967, 33.367
215.341, 3.501
216.716, 58.986
218.091, 20.619
219.465, 16.837
220.839, 1.116
222.213, 23.544
223.586, 25.779
224.960, 13.986
226.333, 87.292
227.706, 9.309
229.079, 36.040
230.451, 29.586
231.823, 19.082
233.195, 35.080
234.567, 11.736
235.939, 8.527
237.310, 25.124
238.682, 24.219
240.052, 22.307
241.423, 4.699
242.794, 11.347
244.164, 17.604
245.534, 45.319
246.904, 17.142
248.274, 39.929
249.643, 9.533
251.012, 6.976
252.381, 69.398
253.750, 16.627
255.118, 44.897
256.487, 32.829
257.855, 43.024
259.223, 77.964
260.590, 56.161
261.958, 105.184
263.325, 32.101
264.692, 84.051
266.059, 97.817
267.425, 44.457
268.791, 56.175
270.158, 23.852
271.523, 115.580
272.889, 55.960
274.255, 79.586
275.620, 69.114
276.985, 77.697
278.350, 77.264
279.714, 27.740
281.078, 88.236
282.443, 33.145
283.806, 32.448
285.170, 33.201
286.534, 3.012
287.897, 76.188
289.260, 20.178
290.623, 51.459
291.985, 43.472
293.348, 34.786
294.710, 80.092
296.072, 17.382
297.433, 21.653
298.795, 34.907
300.156, 39.138
301.517, 38.353
302.878, 6.450
304.239, 60.718
305.599, 18.868
306.959, 56.993
308.319, 40.099
309.679, 52.185
311.038, 68.068
312.398, 45.032
313.757, 66.324
315.116, 34.143
316.474, 57.074
317.833, 54.856
319.191, 7.649
320.549, 80.255
321.907, 10.020
323.264, 96.741
324.622, 39.363
325.979, 57.079
327.336, 73.779
328.692, 31.663
330.049, 82.433
331.405, 12.758
332.761, 57.111
334.117, 35.973
335.473, 46.828
336.828, 58.674
338.183, 28.514
339.538, 66.344
340.893, 57.165
342.247, 72.979
343.602, 75.629
344.956, 27.341
346.310, 60.871
347.663, 59.536
349.017, 83.165
350.370, 55.713
351.723, 44.132
353.076, 99.415
354.428, 25.162
355.780, 52.640
357.133, 39.134
358.484, 43.523
359.836, 50.032
361.188, 1.464
362.539, 108.754
363.890, 14.362
365.241, 42.026
366.591, 70.390
367.942, 33.553
369.292, 78.973
370.642, 13.505
371.992, 80.312
373.341, 6.976
374.691, 38.887
376.040, 94.352
377.388, 2.214
378.737, 104.460
380.086, 33.907
381.434, 48.750
382.782, 91.000
384.130, 32.529
385.477, 127.910
386.825, 28.295
388.172, 93.295
389.519, 57.562
390.865, 54.261
392.212, 102.732
393.558, 34.046
394.904, 65.465
396.250, 50.753
397.596, 72.656
398.941, 62.187
400.286, 29.528
401.631, 113.926
402.976, 8.266
404.321, 64.643
405.665, 49.160
407.009, 31.599
408.353, 117.104
409.697, 28.412
411.040, 87.905
412.384, 68.392
413.727, 55.793
415.070, 89.187
416.412, 32.451
417.755, 133.914
419.097, 55.292
420.439, 79.755
421.781, 105.185
423.122, 74.741
424.464, 116.178
425.805, 66.401
427.146, 143.910
428.486, 129.154
429.827, 166.393
431.167, 160.635
432.507, 123.664
433.847, 246.081
435.187, 220.260
436.526, 295.589
437.865, 330.878
439.204, 333.123
440.543, 461.527
441.882, 500.684
443.220, 634.857
444.558, 755.089
445.896, 919.337
447.234, 1225.578
448.572, 1507.391
449.909, 2154.729
451.246, 2622.869
452.583, 3348.183
453.919, 3824.416
455.256, 3867.701
456.592, 4458.062
457.928, 5345.312
459.264, 7601.665
460.600, 10499.868
461.935, 13168.175
463.270, 13736.476
464.605, 11004.530
465.940, 7505.878
467.274, 4783.958
468.609, 3042.305
469.943, 2116.533
471.277, 1450.841
472.610, 1154.184
473.944, 850.374
475.277, 686.714
476.610, 602.397
477.943, 423.703
479.275, 440.908
480.608, 373.162
481.940, 317.469
483.272, 300.635
484.604, 273.959
485.935, 303.254
487.267, 187.573
488.598, 232.890
489.929, 183.044
491.260, 185.353
492.590, 164.654
493.920, 119.964
495.250, 136.246
496.580, 160.477
497.910, 91.785
499.239, 155.927
500.569, 63.196
501.898, 123.402
503.226, 75.628
504.555, 102.891
505.883, 106.858
507.212, 85.159
508.540, 111.256
509.867, 108.487
511.195, 96.786
512.522, 104.979
513.849, 15.279
515.176, 118.378
516.503, 67.677
517.829, 103.750
519.156, 139.974
520.482, 35.270
521.808, 132.253
523.133, 40.548
524.459, 109.752
525.784, 91.027
527.109, 60.321
528.434, 108.527
529.758, 32.821
531.083, 96.005
532.407, 70.471
533.731, 60.760
535.055, 133.133
536.378, 34.421
537.701, 104.638
539.025, 20.327
540.348, 37.612
541.670, 43.673
542.993, 17.956
544.315, 117.152
545.637, 67.443
546.959, 61.538
548.281, 95.318
549.602, 35.641
550.923, 92.839
552.244, 38.830
553.565, 39.024
554.886, 84.386
556.206, 25.791
557.526, 91.049
558.846, 32.741
560.166, 100.934
561.486, 84.192
562.805, 35.749
564.124, 66.993
565.443, 13.601
566.762, 81.838
568.080, 78.117
569.399, 20.781
570.717, 87.009
572.035, 55.680
573.352, 88.903
574.670, 78.290
575.987, 59.275
577.304, 111.529
578.621, 42.360
579.938, 95.571
581.254, 82.959
582.570, 46.323
583.886, 92.525
585.202, 44.075
586.518, 128.281
587.833, 77.679
589.148, 126.040
590.463, 119.228
591.778, 50.416
593.093, 109.601
594.407, 63.854
595.721, 124.134
597.035, 120.310
598.349, 118.334
599.662, 174.503
600.976, 113.668
602.289, 134.338
603.602, 162.496
604.914, 120.457
606.227, 272.615
607.539, 198.791
608.851, 279.888
610.163, 397.031
611.475, 412.538
612.786, 691.697
614.097, 937.937
615.408, 1412.884
616.719, 1921.008
618.030, 1882.807
619.340, 1730.972
620.651, 1361.087
621.961, 1080.300
623.270, 917.407
624.580, 857.945
625.889, 965.045
627.199, 927.141
628.507, 1178.750
629.816, 1287.838
631.125, 1240.059
632.433, 1138.138
633.741, 804.213
635.049, 667.610
636.357, 511.676
637.664, 405.230
638.972, 377.467
640.279, 274.520
641.586, 379.716
642.893, 371.761
644.199, 335.841
645.505, 553.933
646.811, 458.965
648.117, 575.142
649.423, 513.201
650.728, 394.291
652.034, 384.337
653.339, 208.349
654.644, 247.963
655.948, 166.871
657.253, 166.870
658.557, 199.236
659.861, 70.226
661.165, 107.259
662.468, 77.235
663.772, 66.212
665.075, 85.304
666.378, 54.272
667.681, 67.235
668.983, 51.193
670.286, 65.146
671.588, 99.080
672.890, 7.024
674.192, 66.961
675.493, 26.893
676.795, 64.819
678.096, 58.120
679.397, 6.964
680.697, 94.964
681.998, 22.992
683.298, 50.897
684.598, 64.071
685.898, 33.050
687.198, 90.889
688.498, 11.251
689.797, 33.598
691.096, 99.483
692.395, 20.678
693.694, 41.384
694.992, 23.205
696.290, 13.021
697.589, 58.913
698.886, 8.284
700.184, 43.487
701.482, 42.370
702.779, 2.847
704.076, 44.918
705.373, 5.313
706.669, 71.334
707.966, 34.089
709.262, 8.161
710.558, 51.498
711.854, 8.768
713.150, 61.956
714.445, 7.676
715.740, 22.612
717.035, 35.087
718.330, 59.219
719.625, 66.454
720.919, 4.122
722.214, 8.783
723.508, 78.437
724.801, 4.915
726.095, 40.725
727.388, 1.359
728.682, 5.985
729.975, 76.605
731.267, 72.219
732.560, 56.829
733.852, 26.432
735.145, 20.030
736.437, 137.621
737.728, 26.793
739.020, 60.780
740.311, 41.347
741.603, 12.091
742.894, 73.460
744.184, 24.994
745.475, 39.540
746.765, 35.067
748.055, 31.410
749.345, 64.098
750.635, 6.400
751.925, 35.094
753.214, 16.582
754.503, 25.936
755.792, 56.533
757.081, 20.004
758.370, 29.448
759.658, 44.894
760.946, 17.335
762.234, 85.770
763.522, 9.801
764.809, 61.620
766.097, 107.035
767.384, 13.556
768.671, 40.844
769.958, 8.239
771.244, 51.627
772.530, 50.010
773.817, 5.612
775.102, 60.758
776.388, 12.877
777.674, 0.478
778.959, 53.826
780.244, 5.169
781.529, 66.506
782.814, 27.838
784.098, 24.164
785.383, 53.485
786.667, 3.802
787.951, 28.112
789.235, 20.417
790.518, 28.717
791.801, 104.011
793.084, 18.693
794.367, 33.592
795.650, 72.872
796.933, 8.853
798.215, 111.415
799.497, 23.678
800.779, 60.937
802.061, 70.190
803.342, 7.441
804.624, 151.687
805.905, 51.927
807.186, 70.164
808.466, 40.396
809.747, 36.624
811.027, 78.847
812.307, 53.892
813.587, 65.107
814.867, 66.237
816.146, 10.557
817.426, 95.641
818.705, 10.433
819.984, 0.622
821.263, 100.031
822.541, 10.790
823.819, 123.383
825.098, 12.541
826.375, 34.706
827.653, 94.362
828.931, 17.469
830.208, 90.621
831.485, 5.954
832.762, 54.176
834.039, 117.218
835.315, 0.792
836.592, 66.340
837.868, 43.031
839.144, 5.153
840.420, 80.266
841.695, 27.073
842.970, 96.187
844.246, 60.931
845.521, 62.039
846.795, 129.099
848.070, 87.769
849.344, 76.867
850.618, 145.518
851.892, 69.611
853.166, 151.535
854.440, 88.856
855.713, 132.902
856.986, 204.367
858.259, 66.446
859.532, 149.341
860.804, 171.256
862.077, 108.327
863.349, 170.045
864.621, 72.102
865.893, 135.961
867.164, 117.853
868.436, 71.912
869.707, 107.968
870.978, 32.022
872.248, 141.002
873.519, 79.950
874.789, 33.998
876.060, 161.191
877.330, 50.234
878.599, 52.276
879.869, 130.807
881.138, 56.844
882.408, 135.074
883.677, 58.102
884.945, 48.107
886.214, 109.186
887.482, 25.214
888.751, 120.873
890.019, 111.875
891.287, 83.789
892.554, 127.992
893.822, 63.014
895.089, 160.355
896.356, 108.327
897.623, 79.344
898.889, 143.259
900.156, 75.273
901.422, 87.853
902.688, 129.865
903.954, 73.877
905.220, 137.369
906.485, 66.379
907.750, 79.250
909.015, 143.257
910.280, 78.265
911.545, 183.945
912.809, 104.951
914.074, 90.464
915.338, 178.288
916.602, 72.292
917.865, 106.150
919.129, 149.153
920.392, 53.117
921.655, 137.066
922.918, 66.070
924.181, 148.927
925.443, 137.955
926.706, 33.890
927.968, 137.868
929.230, 31.995
930.491, 94.396
931.753, 156.398
933.014, 45.405
934.276, 144.039
935.536, 130.132
936.797, 96.092
938.058, 140.102
939.318, 61.493
940.578, 148.385
941.838, 169.400
943.098, 126.415
944.358, 185.438
945.617, 55.459
946.876, 119.481
948.135, 186.504
949.394, 125.527
950.653, 172.551
951.911, 144.574
953.169, 125.212
954.427, 193.237
955.685, 88.169
956.943, 192.054
958.200, 146.086
959.458, 170.898
960.715, 225.932
961.971, 188.898
963.228, 230.939
964.485, 317.986
965.741, 350.986
966.997, 473.035
968.253, 342.854
969.508, 349.909
970.764, 467.965
972.019, 462.884
973.274, 597.942
974.529, 623.004
975.784, 631.973
977.039, 909.036
978.293, 978.103
979.547, 1375.176
980.801, 1921.246
982.055, 2735.316
983.308, 4575.387
984.562, 8102.460
985.815, 18519.545
987.068, 40326.621
988.321, 54343.695
989.573, 45620.781
990.826, 23887.865
992.078, 11424.951
993.330, 5862.045
994.582, 3297.140
995.833, 2287.237
997.085, 1643.336
998.336, 1195.435
999.587, 1076.537
1000.838, 922.640
1002.088, 854.745
1003.339, 750.796
1004.589, 630.960
1005.839, 599.068
1007.089, 487.177
1008.339, 415.288
1009.588, 434.400
1010.838, 314.513
1012.087, 395.630
1013.336, 397.749
1014.584, 275.869
1015.833, 391.991
1017.081, 317.115
1018.330, 317.250
1019.577, 464.385
1020.825, 345.521
1022.073, 453.664
1023.320, 456.807
1024.567, 437.953
1025.814, 606.101
1027.061, 538.251
1028.308, 697.406
1029.554, 716.563
1030.800, 547.724
1032.046, 560.885
1033.292, 390.048
1034.538, 268.212
1035.783, 284.380
1037.029, 185.551
1038.274, 136.722
1039.519, 144.896
1040.763, 43.071
1042.008, 162.250
1043.252, 90.430
1044.496, 60.611
1045.740, 77.792
1046.984, 61.976
1048.228, 101.208
1049.471, 82.396
1050.714, 68.585
1051.957, 106.874
1053.200, 13.066
1054.442, 100.259
1055.685, 97.830
1056.927, 28.025
1058.169, 124.575
1059.411, 3.229
1060.652, 38.968
1061.894, 67.846
1063.135, 51.956
1064.376, 89.288
1065.617, 28.589
1066.858, 20.781
1068.098, 74.979
1069.339, 4.689
1070.579, 42.505
1071.819, 108.305
1073.058, 19.500
1074.298, 117.048
1075.537, 88.105
1076.776, 93.300
1078.015, 126.891
1079.254, 83.090
1080.493, 149.288
1081.731, 161.588
1082.969, 144.789
1084.207, 167.791
1085.445, 144.191
1086.683, 121.395
1087.920, 141.646
1089.157, 39.853
1090.394, 123.062
1091.631, 24.422
1092.868, 7.364
1094.105, 80.099
1095.341, 36.610
1096.577, 94.824
1097.813, 158.782
1099.049, 58.995
1100.284, 197.209
1101.519, 192.823
1102.755, 181.041
1103.990, 338.257
1105.224, 217.521
1106.459, 188.738
1107.693, 199.291
1108.928, 95.506
1110.162, 125.722
1111.395, 102.035
1112.629, 12.251
1113.863, 122.467
1115.096, 32.682
1116.329, 38.899
1117.562, 135.115
1118.795, 12.331
1120.027, 107.545
1121.259, 47.759
1122.492, 50.971
1123.723, 168.184
1124.955, 109.463
1126.187, 143.673
1127.418, 174.881
1128.649, 142.170
1129.880, 278.376
1131.111, 275.582
1132.342, 358.874
1133.572, 506.077
1134.802, 548.286
1136.033, 841.486
1137.262, 1186.684
1138.492, 1330.881
1139.722, 1666.077
1140.951, 1828.271
1142.180, 2148.464
1143.409, 2364.656
1144.638, 2277.846
1145.866, 2181.035
1147.095, 1753.227
1148.323, 1396.451
1149.551, 1156.641
1150.779, 899.038
1152.006, 688.256
1153.234, 568.440
1154.461, 359.694
1155.688, 371.875
1156.915, 280.053
1158.141, 207.504
1159.368, 258.678
1160.594, 232.078
1161.820, 258.249
1163.046, 340.417
1164.272, 268.584
1165.498, 406.748
1166.723, 327.909
1167.948, 308.681
1169.173, 301.838
1170.398, 235.013
1171.623, 195.178
1172.847, 200.327
1174.071, 76.804
1175.295, 200.949
1176.519, 84.091
1177.743, 80.230
1178.966, 102.366
1180.190, 14.499
1181.413, 56.630
1182.636, 110.757
1183.858, 3.881
1185.081, 121.002
1186.303, 53.119
1187.526, 9.675
1188.748, 62.432
1189.969, 8.463
1191.191, 41.634
1192.412, 52.671
1193.634, 22.238
1194.855, 55.844
1196.076, 13.801
1197.296, 2.906
1198.517, 37.976
1199.737, 25.043
1200.957, 1.106
1202.177, 39.079
1203.397, 18.866
1204.617, 38.179
1205.836, 8.160
1207.055, 29.916
1208.274, 118.310
1209.493, 52.670
1210.712, 49.071
1211.930, 70.070
1213.148, 6.072
1214.367, 78.585
1215.584, 55.572
1216.802, 56.555
1218.020, 41.073
1219.237, 19.118
1220.454, 35.185
1221.671, 60.756
1222.888, 2.719
1224.105, 33.661
1225.321, 1.542
1226.537, 3.529
1227.753, 57.411
1228.969, 22.654
1230.185, 73.271
1231.400, 74.377
1232.616, 7.707
1233.831, 71.910
1235.046, 86.814
1236.261, 21.713
1237.475, 164.608
1238.689, 4.502
1239.904, 86.381
1241.118, 181.507
1242.332, 11.382
1243.545, 156.647
1244.759, 80.506
1245.972, 52.429
1247.185, 151.982
1248.398, 105.836
1249.611, 64.687
1250.823, 142.596
1252.036, 48.440
1253.248, 120.318
1254.460, 38.156
1255.671, 18.989
1256.883, 154.819
1258.095, 54.646
1259.306, 16.469
1260.517, 102.330
1261.728, 72.146
1262.938, 14.958
1264.149, 110.767
1265.359, 32.565
1266.569, 135.359
1267.779, 139.149
1268.989, 113.934
1270.199, 113.741
1271.408, 57.568
1272.617, 82.341
1273.826, 84.221
1275.035, 41.982
1276.244, 85.736
1277.452, 45.619
1278.661, 28.365
1279.869, 40.227
1281.077, 40.018
1282.285, 28.762
1283.492, 85.486
1284.700, 20.205
1285.907, 49.920
1287.114, 53.631
1288.321, 0.338
1289.527, 107.039
1290.734, 2.737
1291.940, 113.428
1293.146, 105.178
1294.352, 41.853
1295.558, 66.524
1296.763, 59.233
1297.969, 14.112
1299.174, 96.534
1300.379, 31.172
1301.584, 32.797
1302.788, 127.417
1303.993, 1.967
1305.197, 50.641
1306.401, 114.239
1307.605, 53.832
1308.809, 141.421
1310.013, 126.003
1311.216, 37.531
1312.419, 123.093
1313.622, 163.651
1314.825, 53.105
1316.028, 141.652
1317.230, 15.194
1318.432, 197.353
1319.634, 99.885
1320.836, 68.057
1322.038, 151.579
1323.240, 71.096
1324.441, 130.927
1325.642, 78.432
1326.843, 26.881
1328.044, 104.257
1329.245, 60.735
1330.445, 68.102
1331.645, 36.531
1332.845, 54.991
1334.045, 58.842
1335.245, 39.289
1336.445, 2.377
1337.644, 2.259
1338.843, 64.379
1340.042, 21.594
1341.241, 34.821
1342.440, 28.231
1343.638, 12.467
1344.836, 101.930
1346.034, 41.322
1347.232, 13.292
1348.430, 14.086
1349.628, 9.412
1350.825, 16.221
1352.022, 78.138
1353.219, 32.658
1354.416, 59.687
1355.613, 13.780
1356.809, 53.821
1358.005, 71.155
1359.202, 31.741
1360.398, 1.069
1361.593, 75.392
1362.789, 21.687
1363.984, 67.629
1365.179, 70.943
1366.374, 27.208
1367.569, 61.522
1368.764, 26.499
1369.958, 2.186
1371.153, 102.131
1372.347, 8.610
1373.541, 58.718
1374.735, 11.042
1375.928, 21.633
1377.122, 71.925
1378.315, 71.476
1379.508, 9.021
1380.701, 148.489
1381.893, 16.020
1383.086, 75.460
1384.278, 103.883
1385.470, 39.386
1386.662, 66.892
1387.854, 25.391
1389.046, 14.883
1390.237, 96.368
1391.428, 37.841
1392.619, 57.263
1393.810, 73.272
1395.001, 52.618
1396.191, 29.040
1397.382, 32.122
1398.572, 15.727
1399.762, 10.650
1400.952, 26.037
1402.141, 2.649
1403.331, 54.972
1404.520, 56.906
1405.709, 41.747
1406.898, 111.593
1408.087, 1.927
1409.275, 16.256
1410.464, 8.580
1411.652, 40.774
1412.840, 39.157
1414.028, 27.408
1415.215, 51.727
1416.403, 39.999
1417.590, 43.310
1418.777, 69.619
1419.964, 113.933
1421.151, 5.618
1422.338, 71.786
1423.524, 78.091
1424.710, 6.561
1425.896, 62.976
1427.082, 139.983
1428.268, 47.237
1429.453, 108.805
1430.639, 81.926
1431.824, 152.167
1433.009, 163.073
1434.194, 138.011
1435.378, 160.228
1436.563, 235.445
1437.747, 190.180
1438.931, 253.604
1440.115, 233.263
1441.299, 246.405
1442.482, 394.384
1443.666, 338.412
1444.849, 299.505
1446.032, 460.581
1447.215, 433.545
1448.397, 355.583
1449.580, 417.635
1450.762, 439.676
1451.944, 494.515
1453.126, 464.244
1454.308, 432.258
1455.490, 516.255
1456.671, 429.793
1457.852, 418.528
1459.033, 496.381
1460.214, 339.209
1461.395, 448.010
1462.575, 342.589
1463.756, 312.375
1464.936, 319.018
1466.116, 270.817
1467.296, 269.660
1468.475, 343.484
1469.655, 199.332
1470.834, 227.161
1472.013, 144.032
1473.192, 236.914
1474.371, 118.783
1475.550, 259.637
1476.728, 127.474
1477.906, 225.297
1479.084, 118.120
1480.262, 180.093
1481.440, 194.095
1482.617, 146.115
1483.795, 143.177
1484.972, 104.282
1486.149, 114.424
1487.326, 54.608
1488.502, 81.234
1489.679, 50.134
1490.855, 89.509
1492.031, 94.984
1493.207, 33.561
1494.383, 18.260
1495.559, 51.109
1496.734, 40.149
1497.909, 58.432
1499.084, 1.968
1500.259, 35.069
1501.434, 48.189
1502.608, 0.000
##END=



