##NAMES=Baryte
##RRUFFID=R040036
##IDEAL CHEMISTRY=BaS^6+^O_4_
##LOCALITY=Cumbria County, England
##OWNER=RRUFF
##SOURCE=University of Arizona Mineral Museum
##DESCRIPTION=Golden brown tabular crystal
##STATUS=The identification of this mineral has been confirmed by X-ray diffraction and chemical analysis
##URL=rruff.info/R040036
##MEASURED CHEMISTRY=Ba_1.00_S_1.00_O_4_; trace amounts of Pb
##PIN_ID=M00019
##ORIENTATION=Laser parallel to b* (0 1 0). Fiducial mark perpendicular to laser is parallel to c [0 0 1]
26.288, 0.000
27.694, 24.574
29.099, 15.963
30.504, 29.565
31.909, 33.802
33.313, 25.411
34.717, 33.205
36.121, 18.703
37.525, 23.120
38.929, 43.424
40.332, 39.497
41.735, 48.672
43.138, 41.067
44.541, 65.454
45.943, 35.671
47.345, 52.856
48.747, 58.212
50.149, 54.898
51.551, 75.692
52.952, 57.263
54.353, 88.533
55.754, 108.739
57.155, 100.577
58.555, 80.871
59.955, 112.463
61.355, 100.465
62.755, 106.311
64.154, 87.460
65.553, 69.967
66.952, 71.110
68.351, 52.751
69.750, 70.049
71.148, 73.358
72.546, 33.676
73.944, 37.001
75.342, 10.334
76.739, 8.672
78.136, 5.012
79.533, 5.966
80.930, 11.314
82.327, 14.977
83.723, 12.641
85.119, 16.308
86.515, 12.981
87.910, 14.619
89.306, 21.343
90.701, 11.030
92.096, 18.719
93.490, 6.410
94.885, 0.895
96.279, 3.197
97.673, 22.493
99.067, 38.782
100.461, 45.065
101.854, 32.354
103.247, 21.684
104.640, 37.049
106.032, 24.444
107.425, 42.864
108.817, 63.304
110.209, 78.760
111.601, 103.228
112.992, 105.702
114.384, 127.181
115.775, 125.661
117.166, 171.138
118.556, 196.608
119.947, 170.070
121.337, 132.535
122.727, 108.978
124.116, 96.498
125.506, 84.323
126.895, 104.330
128.284, 91.697
129.673, 103.084
131.062, 132.450
132.450, 80.718
133.838, 94.988
135.226, 105.295
136.614, 94.737
138.001, 88.127
139.388, 113.414
140.775, 109.722
142.162, 135.979
143.549, 142.259
144.935, 171.537
146.321, 204.669
147.707, 260.963
149.093, 317.123
150.478, 392.308
151.863, 426.543
153.248, 437.910
154.633, 384.053
156.018, 325.367
157.402, 284.636
158.786, 234.967
160.170, 206.161
161.554, 158.401
162.937, 150.647
164.320, 147.871
165.703, 130.101
167.086, 116.252
168.469, 124.303
169.851, 121.492
171.233, 124.634
172.615, 114.792
173.996, 87.914
175.378, 109.039
176.759, 126.504
178.140, 127.924
179.521, 169.329
180.901, 197.674
182.281, 257.924
183.662, 306.198
185.041, 405.374
186.421, 491.526
187.800, 576.554
189.180, 566.638
190.558, 476.618
191.937, 412.554
193.316, 307.430
194.694, 253.272
196.072, 189.974
197.450, 161.686
198.827, 127.307
200.205, 125.983
201.582, 92.571
202.959, 97.006
204.336, 107.507
205.712, 97.905
207.088, 77.306
208.465, 82.518
209.840, 66.773
211.216, 74.957
212.591, 66.090
213.967, 71.295
215.341, 62.375
216.716, 79.661
218.091, 66.569
219.465, 50.562
220.839, 65.616
222.213, 71.440
223.586, 59.342
224.960, 60.971
226.333, 68.494
227.706, 80.012
229.079, 67.280
230.451, 51.476
231.823, 68.593
233.195, 48.690
234.567, 55.713
235.939, 60.820
237.310, 66.945
238.682, 62.088
240.052, 48.021
241.423, 48.964
242.794, 39.194
244.164, 31.592
245.534, 29.034
246.904, 31.718
248.274, 32.534
249.643, 49.389
251.012, 28.196
252.381, 21.871
253.750, 49.692
255.118, 38.392
256.487, 37.216
257.855, 35.134
259.223, 34.128
260.590, 28.123
261.958, 39.115
263.325, 45.102
264.692, 45.143
266.059, 38.135
267.425, 22.112
268.791, 36.085
270.158, 47.054
271.523, 31.048
272.889, 44.010
274.255, 38.968
275.620, 24.931
276.985, 31.883
278.350, 6.831
279.714, 45.775
281.078, 32.717
282.443, 21.656
283.806, 20.592
285.170, 22.524
286.534, 25.452
287.897, 11.377
289.260, 22.299
290.623, 35.218
291.985, 22.134
293.348, 16.047
294.710, 29.957
296.072, 12.864
297.433, 29.769
298.795, 21.671
300.156, 22.570
301.517, 16.466
302.878, 24.359
304.239, 32.250
305.599, 22.137
306.959, 45.021
308.319, 34.902
309.679, 14.781
311.038, 27.657
312.398, 29.531
313.757, 20.401
315.116, 31.269
316.474, 13.135
317.833, 29.999
319.191, 19.860
320.549, 23.719
321.907, 23.575
323.264, 24.429
324.622, 24.275
325.979, 17.112
327.336, 18.941
328.692, 27.761
330.049, 11.575
331.405, 21.380
332.761, 12.179
334.117, 28.970
335.473, 7.754
336.828, 18.532
338.183, 16.303
339.538, 17.068
340.893, 13.827
342.247, 21.581
343.602, 20.329
344.956, 37.073
346.310, 8.812
347.663, 15.546
349.017, 29.281
350.370, 6.007
351.723, 14.737
353.076, 1.467
354.428, 24.181
355.780, 10.924
357.133, 19.633
358.484, 27.339
359.836, 4.088
361.188, 10.789
362.539, 8.520
363.890, 28.174
365.241, 25.868
366.591, 15.501
367.942, 19.191
369.292, 8.880
370.642, 7.554
371.992, 25.238
373.341, 13.926
374.691, 17.635
376.040, 6.326
377.388, 4.982
378.737, 20.677
380.086, 18.333
381.434, 17.028
382.782, 4.731
384.130, 9.436
385.477, 22.145
386.825, 26.831
388.172, 31.913
389.519, 35.187
390.865, 38.813
392.212, 25.431
393.558, 26.064
394.904, 19.701
396.250, 15.416
397.596, 29.066
398.941, 17.680
400.286, 36.396
401.631, 33.065
402.976, 26.730
404.321, 19.385
405.665, 32.036
407.009, 23.658
408.353, 28.332
409.697, 8.033
411.040, 17.735
412.384, 24.404
413.727, 37.000
415.070, 26.661
416.412, 13.365
417.755, 38.003
419.097, 28.701
420.439, 17.376
421.781, 52.986
423.122, 41.628
424.464, 46.148
425.805, 57.844
427.146, 54.490
428.486, 63.085
429.827, 63.684
431.167, 82.293
432.507, 112.896
433.847, 127.444
435.187, 158.043
436.526, 188.703
437.865, 220.303
439.204, 281.876
440.543, 377.513
441.882, 517.071
443.220, 628.708
444.558, 852.308
445.896, 1237.913
447.234, 1729.490
448.572, 2323.103
449.909, 2946.753
451.246, 3480.357
452.583, 3580.034
453.919, 3137.698
455.256, 2476.268
456.592, 1836.899
457.928, 1386.539
459.264, 1111.137
460.600, 921.785
461.935, 782.350
463.270, 618.993
464.605, 498.589
465.940, 348.203
467.274, 284.818
468.609, 204.437
469.943, 138.056
471.277, 111.644
472.610, 96.240
473.944, 91.878
475.277, 84.440
476.610, 54.049
477.943, 63.617
479.275, 46.266
480.608, 45.818
481.940, 50.422
483.272, 46.017
484.604, 37.618
485.935, 28.205
487.267, 28.829
488.598, 34.448
489.929, 20.117
491.260, 21.685
492.590, 11.285
493.920, 19.949
495.250, 10.506
496.580, 9.699
497.910, 23.642
499.239, 5.285
500.569, 17.868
501.898, 17.493
503.226, 2.156
504.555, 33.711
505.883, 39.298
507.212, 20.675
508.540, 32.341
509.867, 30.002
511.195, 11.618
512.522, 22.251
513.849, 32.837
515.176, 23.418
516.503, 15.082
517.829, 6.694
519.156, 19.324
520.482, 41.902
521.808, 28.475
523.133, 27.123
524.459, 27.762
525.784, 16.397
527.109, 25.976
528.434, 25.577
529.758, 22.239
531.083, 21.909
532.407, 29.580
533.731, 21.251
535.055, 23.923
536.378, 31.595
537.701, 21.267
539.025, 10.927
540.348, 3.567
541.670, 5.238
542.993, 29.914
544.315, 20.585
545.637, 15.256
546.959, 30.926
548.281, 14.638
549.602, 17.307
550.923, 12.007
552.244, 14.680
553.565, 38.333
554.886, 16.252
556.206, 32.918
557.526, 19.729
558.846, 12.505
560.166, 23.140
561.486, 27.871
562.805, 19.572
564.124, 19.225
565.443, 18.886
566.762, 19.547
568.080, 27.207
569.399, 26.901
570.717, 22.559
572.035, 8.256
573.352, 12.913
574.670, 15.570
575.987, 10.226
577.304, 17.883
578.621, 29.798
579.938, 26.701
581.254, 29.414
582.570, 34.082
583.886, 29.734
585.202, 30.428
586.518, 17.081
587.833, 22.937
589.148, 35.592
590.463, 48.241
591.778, 43.890
593.093, 45.549
594.407, 28.195
595.721, 46.881
597.035, 36.656
598.349, 54.320
599.662, 52.994
600.976, 51.642
602.289, 68.282
603.602, 84.941
604.914, 90.579
606.227, 109.216
607.539, 160.993
608.851, 185.652
610.163, 273.477
611.475, 430.110
612.786, 642.029
614.097, 974.683
615.408, 1206.343
616.719, 1277.981
618.030, 1131.611
619.340, 902.568
620.651, 783.562
621.961, 764.582
623.270, 762.438
624.580, 894.307
625.889, 1116.281
627.199, 1436.945
628.507, 1707.569
629.816, 1797.349
631.125, 1619.964
632.433, 1251.793
633.741, 960.405
635.049, 702.009
636.357, 552.668
637.664, 501.266
638.972, 427.861
640.279, 459.470
641.586, 491.042
642.893, 565.092
644.199, 668.736
645.505, 751.395
646.811, 815.992
648.117, 769.746
649.423, 591.341
650.728, 448.216
652.034, 338.010
653.339, 256.633
654.644, 170.220
655.948, 140.916
657.253, 105.556
658.557, 98.138
659.861, 75.699
661.165, 53.278
662.468, 61.859
663.772, 34.846
665.075, 42.823
666.378, 38.628
667.681, 13.198
668.983, 28.890
670.286, 21.402
671.588, 30.620
672.890, 27.517
674.192, 31.242
675.493, 34.910
676.795, 18.663
678.096, 16.336
679.397, 15.886
680.697, 18.434
681.998, 29.001
683.298, 8.549
684.598, 25.316
685.898, 15.933
687.198, 21.470
688.498, 3.005
689.797, 25.546
691.096, 7.075
692.395, 12.601
693.694, 4.139
694.992, 7.340
696.290, 16.176
697.589, 2.310
698.886, 0.801
700.184, 16.706
701.482, 1.210
702.779, 4.726
704.076, 15.224
705.373, 14.758
706.669, 30.251
707.966, 16.741
709.262, 5.229
710.558, 13.763
711.854, 4.197
713.150, 18.691
714.445, 18.168
715.740, 20.643
717.035, 20.333
718.330, 7.198
719.625, 6.733
720.919, 1.727
722.214, 9.184
723.508, 18.638
724.801, 3.089
726.095, 11.538
727.388, 5.016
728.682, 10.425
729.975, 12.864
731.267, 13.301
732.560, 8.735
733.852, 14.188
735.145, 2.617
736.437, 1.957
737.728, 6.465
739.020, 3.884
740.311, 9.300
741.603, 15.714
742.894, 6.125
744.184, 14.534
745.475, 10.940
746.765, 2.656
748.055, 4.743
749.345, 4.860
750.635, 12.533
751.925, 9.077
753.214, 4.308
754.503, 2.690
755.792, 7.069
757.081, 8.446
758.370, 11.180
759.658, 12.812
760.946, 14.093
762.234, 7.093
763.522, 7.741
764.809, 12.394
766.097, 0.947
767.384, 6.285
768.671, 4.380
769.958, 21.952
771.244, 6.719
772.530, 7.606
773.817, 10.928
775.102, 0.248
776.388, 12.565
777.674, 9.880
778.959, 5.192
780.244, 9.502
781.529, 17.190
782.814, 0.111
784.098, 2.590
785.383, 10.705
786.667, 5.002
787.951, 6.287
789.235, 10.426
790.518, 7.144
791.801, 0.134
793.084, 13.409
794.367, 3.318
795.650, 1.048
796.933, 18.218
798.215, 5.483
799.497, 6.746
800.779, 2.006
802.061, 16.736
803.342, 16.483
804.624, 9.237
805.905, 6.005
807.186, 4.755
808.466, 13.519
809.747, 11.287
811.027, 14.061
812.307, 6.839
813.587, 4.621
814.867, 8.406
816.146, 5.195
817.426, 10.012
818.705, 1.218
819.984, 2.578
821.263, 1.376
822.541, 10.201
823.819, 4.005
825.098, 1.188
826.375, 0.379
827.653, 0.481
828.931, 2.706
830.208, 17.862
831.485, 0.959
832.762, 12.180
834.039, 1.098
835.315, 4.277
836.592, 5.308
837.868, 0.374
839.144, 19.549
840.420, 1.346
841.695, 6.787
842.970, 3.043
844.246, 6.126
845.521, 5.293
846.795, 4.459
848.070, 19.589
849.344, 22.753
850.618, 2.124
851.892, 30.037
853.166, 25.196
854.440, 12.645
855.713, 40.510
856.986, 23.405
858.259, 12.310
859.532, 29.403
860.804, 27.541
862.077, 18.691
863.349, 23.799
864.621, 15.947
865.893, 11.889
867.164, 17.030
868.436, 22.176
869.707, 10.321
870.978, 2.546
872.248, 20.598
873.519, 16.700
874.789, 2.712
876.060, 8.833
877.330, 2.942
878.599, 14.077
879.869, 8.217
881.138, 11.337
882.408, 20.476
883.677, 3.615
884.945, 19.612
886.214, 12.727
887.482, 19.674
888.751, 20.811
890.019, 31.662
891.287, 35.775
892.554, 24.882
893.822, 43.009
895.089, 39.143
896.356, 42.949
897.623, 67.717
898.889, 56.457
900.156, 30.361
901.422, 29.251
902.688, 41.034
903.954, 25.126
905.220, 38.257
906.485, 41.232
907.750, 40.370
909.015, 45.897
910.280, 44.433
911.545, 42.573
912.809, 35.663
914.074, 20.804
915.338, 34.946
916.602, 37.083
917.865, 25.226
919.129, 48.921
920.392, 53.021
921.655, 42.060
922.918, 38.206
924.181, 43.194
925.443, 51.341
926.706, 61.208
927.968, 59.154
929.230, 50.271
930.491, 80.422
931.753, 46.465
933.014, 36.563
934.276, 80.718
935.536, 59.874
936.797, 64.031
938.058, 67.185
939.318, 81.933
940.578, 74.691
941.838, 78.620
943.098, 56.783
944.358, 69.824
945.617, 89.664
946.876, 88.559
948.135, 57.394
949.394, 82.401
950.653, 82.463
951.911, 80.441
953.169, 98.497
954.427, 90.676
955.685, 120.857
956.943, 128.987
958.200, 122.144
959.458, 164.105
960.715, 156.215
961.971, 212.406
963.228, 290.598
964.485, 347.784
965.741, 341.982
966.997, 326.182
968.253, 363.369
969.508, 449.574
970.764, 521.783
972.019, 574.994
973.274, 681.208
974.529, 729.425
975.784, 917.645
977.039, 1082.851
978.293, 1513.076
979.547, 2066.266
980.801, 3102.496
982.055, 5202.729
983.308, 9661.964
984.562, 22051.203
985.815, 46420.441
987.068, 59839.664
988.321, 48218.910
989.573, 27118.160
990.826, 14417.197
992.078, 8308.451
993.330, 4743.711
994.582, 2889.974
995.833, 2004.240
997.085, 1397.510
998.336, 1139.782
999.587, 921.057
1000.838, 803.336
1002.088, 680.618
1003.339, 568.904
1004.589, 500.193
1005.839, 442.484
1007.089, 388.757
1008.339, 369.055
1009.588, 349.356
1010.838, 299.661
1012.087, 298.970
1013.336, 252.282
1014.584, 239.597
1015.833, 223.916
1017.081, 192.238
1018.330, 211.563
1019.577, 205.891
1020.825, 188.224
1022.073, 166.560
1023.320, 174.900
1024.567, 151.244
1025.814, 148.592
1027.061, 134.944
1028.308, 167.300
1029.554, 125.659
1030.800, 120.021
1032.046, 110.389
1033.292, 67.762
1034.538, 93.140
1035.783, 58.523
1037.029, 83.911
1038.274, 109.303
1039.519, 48.700
1040.763, 65.101
1042.008, 81.505
1043.252, 62.914
1044.496, 50.328
1045.740, 52.745
1046.984, 77.165
1048.228, 53.590
1049.471, 75.018
1050.714, 50.450
1051.957, 52.886
1053.200, 74.325
1054.442, 69.770
1055.685, 63.482
1056.927, 43.673
1058.169, 38.130
1059.411, 41.591
1060.652, 32.057
1061.894, 52.527
1063.135, 33.003
1064.376, 42.482
1065.617, 46.966
1066.858, 45.455
1068.098, 48.948
1069.339, 18.444
1070.579, 57.945
1071.819, 23.449
1073.058, 62.958
1074.298, 54.476
1075.537, 35.001
1076.776, 45.531
1078.015, 48.065
1079.254, 26.604
1080.493, 61.153
1081.731, 46.706
1082.969, 44.267
1084.207, 43.832
1085.445, 30.402
1086.683, 36.980
1087.920, 31.562
1089.157, 46.149
1090.394, 61.743
1091.631, 71.872
1092.868, 90.764
1094.105, 101.552
1095.341, 122.167
1096.577, 129.785
1097.813, 136.408
1099.049, 204.034
1100.284, 256.665
1101.519, 344.303
1102.755, 343.946
1103.990, 349.593
1105.224, 235.244
1106.459, 217.900
1107.693, 185.560
1108.928, 119.225
1110.162, 84.894
1111.395, 72.567
1112.629, 110.243
1113.863, 106.923
1115.096, 88.606
1116.329, 154.294
1117.562, 144.985
1118.795, 145.680
1120.027, 165.379
1121.259, 194.081
1122.492, 232.787
1123.723, 227.497
1124.955, 290.211
1126.187, 340.929
1127.418, 405.651
1128.649, 523.376
1129.880, 637.104
1131.111, 793.840
1132.342, 1077.576
1133.572, 1430.314
1134.802, 1904.057
1136.033, 2571.803
1137.262, 3223.552
1138.492, 3726.305
1139.722, 4143.062
1140.951, 4568.823
1142.180, 4945.587
1143.409, 4773.405
1144.638, 4385.176
1145.866, 3616.950
1147.095, 2904.728
1148.323, 2293.510
1149.551, 1805.295
1150.779, 1393.084
1152.006, 1130.876
1153.234, 906.673
1154.461, 752.473
1155.688, 671.277
1156.915, 590.084
1158.141, 555.894
1159.368, 541.707
1160.594, 601.524
1161.820, 701.344
1163.046, 858.167
1164.272, 957.996
1165.498, 1032.825
1166.723, 983.658
1167.948, 854.493
1169.173, 704.331
1170.398, 562.172
1171.623, 452.016
1172.847, 357.862
1174.071, 291.711
1175.295, 245.626
1176.519, 193.481
1177.743, 169.338
1178.966, 149.197
1180.190, 104.059
1181.413, 110.924
1182.636, 80.791
1183.858, 95.661
1185.081, 78.533
1186.303, 41.407
1187.526, 66.284
1188.748, 88.163
1189.969, 29.044
1191.191, 47.928
1192.412, 45.814
1193.634, 37.702
1194.855, 29.593
1196.076, 39.629
1197.296, 51.524
1198.517, 38.551
1199.737, 34.450
1200.957, 49.355
1202.177, 33.258
1203.397, 33.175
1204.617, 23.285
1205.836, 14.821
1207.055, 27.015
1208.274, 37.927
1209.493, 30.841
1210.712, 27.081
1211.930, 24.607
1213.148, 24.381
1214.367, 41.844
1215.584, 25.777
1216.802, 31.775
1218.020, 29.199
1219.237, 50.352
1220.454, 45.306
1221.671, 60.845
1222.888, 53.774
1224.105, 39.026
1225.321, 21.147
1226.537, 40.414
1227.753, 23.347
1228.969, 16.290
1230.185, 42.241
1231.400, 47.469
1232.616, 38.915
1233.831, 36.252
1235.046, 55.232
1236.261, 61.170
1237.475, 61.765
1238.689, 45.398
1239.904, 58.633
1241.118, 57.574
1242.332, 46.516
1243.545, 55.460
1244.759, 37.404
1245.972, 49.348
1247.185, 40.376
1248.398, 29.351
1249.611, 39.302
1250.823, 20.250
1252.036, 37.199
1253.248, 19.203
1254.460, 11.154
1255.671, 25.107
1256.883, 37.062
1258.095, 26.017
1259.306, 17.974
1260.517, 22.932
1261.728, 0.109
1262.938, 37.850
1264.149, 5.812
1265.359, 27.774
1266.569, 29.780
1267.779, 35.744
1268.989, 33.726
1270.199, 0.753
1271.408, 16.812
1272.617, 5.779
1273.826, 5.252
1275.035, 24.716
1276.244, 29.718
1277.452, 6.721
1278.661, 13.793
1279.869, 17.841
1281.077, 20.933
1282.285, 19.941
1283.492, 18.947
1284.700, 16.865
1285.907, 17.102
1287.114, 12.133
1288.321, 22.106
1289.527, 26.080
1290.734, 1.080
1291.940, 5.122
1293.146, 13.105
1294.352, 0.070
1295.558, 16.029
1296.763, 8.987
1297.969, 0.939
1299.174, 6.890
1300.379, 4.836
1301.584, 5.777
1302.788, 7.715
1303.993, 1.653
1305.197, 4.417
1306.401, 2.509
1307.605, 8.431
1308.809, 20.350
1310.013, 27.268
1311.216, 31.186
1312.419, 13.102
1313.622, 22.744
1314.825, 7.930
1316.028, 28.843
1317.230, 18.754
1318.432, 28.664
1319.634, 14.573
1320.836, 19.481
1322.038, 15.386
1323.240, 10.291
1324.441, 11.429
1325.642, 5.909
1326.843, 11.987
1328.044, 5.121
1329.245, 1.766
1330.445, 0.648
1331.645, 5.527
1332.845, 0.402
1334.045, 7.726
1335.245, 25.860
1336.445, 10.999
1337.644, 15.858
1338.843, 9.712
1340.042, 12.437
1341.241, 24.589
1342.440, 3.747
1343.638, 9.908
1344.836, 1.927
1346.034, 1.240
1347.232, 19.410
1348.430, 7.586
1349.628, 1.235
1350.825, 23.948
1352.022, 15.864
1353.219, 11.327
1354.416, 5.522
1355.613, 11.721
1356.809, 21.076
1358.005, 4.871
1359.202, 3.663
1360.398, 9.547
1361.593, 18.761
1362.789, 13.980
1363.984, 1.797
1365.179, 26.574
1366.374, 10.635
1367.569, 4.165
1368.764, 9.068
1369.958, 18.697
1371.153, 11.460
1372.347, 9.433
1373.541, 21.184
1374.735, 20.877
1375.928, 0.457
1377.122, 4.420
1378.315, 9.382
1379.508, 12.343
1380.701, 11.303
1381.893, 3.263
1383.086, 12.222
1384.278, 16.176
1385.470, 12.134
1386.662, 21.090
1387.854, 13.045
1389.046, 17.997
1390.237, 27.891
1391.428, 34.840
1392.619, 13.786
1393.810, 15.728
1395.001, 6.667
1396.191, 25.603
1397.382, 11.537
1398.572, 5.468
1399.762, 3.394
1400.952, 30.322
1402.141, 36.248
1403.331, 22.173
1404.520, 10.097
1405.709, 9.937
1406.898, 3.857
1408.087, 5.777
1409.275, 2.907
1410.464, 10.615
1411.652, 0.468
1412.840, 14.449
1414.028, 13.365
1415.215, 9.074
1416.403, 19.796
1417.590, 29.698
1418.777, 14.589
1419.964, 7.232
1421.151, 15.684
1422.338, 19.060
1423.524, 23.765
1424.710, 44.166
1425.896, 20.075
1427.082, 37.489
1428.268, 23.285
1429.453, 34.219
1430.639, 33.433
1431.824, 24.178
1433.009, 49.517
1434.194, 49.468
1435.378, 58.602
1436.563, 78.736
1437.747, 74.893
1438.931, 78.084
1440.115, 77.714
1441.299, 70.345
1442.482, 71.035
1443.666, 70.600
1444.849, 60.262
1446.032, 67.911
1447.215, 67.221
1448.397, 87.166
1449.580, 79.668
1450.762, 82.214
1451.944, 98.402
1453.126, 92.942
1454.308, 92.381
1455.490, 108.523
1456.671, 85.454
1457.852, 89.247
1459.033, 56.495
1460.214, 63.685
1461.395, 72.933
1462.575, 56.985
1463.756, 72.314
1464.936, 72.657
1466.116, 53.015
1467.296, 52.398
1468.475, 68.789
1469.655, 43.219
1470.834, 49.660
1472.013, 47.082
1473.192, 37.487
1474.371, 38.265
1475.550, 30.235
1476.728, 30.575
1477.906, 34.904
1479.084, 34.223
1480.262, 58.558
1481.440, 59.936
1482.617, 21.332
1483.795, 33.755
1484.972, 47.187
1486.149, 18.625
1487.326, 36.064
1488.502, 50.504
1489.679, 20.951
1490.855, 40.416
1492.031, 14.909
1493.207, 11.426
1494.383, 8.966
1495.559, 28.531
1496.734, 30.134
1497.909, 18.743
1499.084, 3.073
1500.259, 17.090
1501.434, 4.476
1502.608, 0.000
##END=



