##NAMES=Barysilite
##RRUFFID=R050002
##IDEAL CHEMISTRY=Pb^2+^_8_Mn^2+^(Si_2_O_7_)_3_
##LOCALITY=Franklin, Sussex County, New Jersey, USA
##OWNER=RRUFF
##SOURCE=University of Arizona Mineral Museum
##DESCRIPTION=A lamellar aggregate of platy crystals
##STATUS=The identification of this mineral has been confirmed by X-ray diffraction and chemical analysis
##URL=rruff.info/R050002
##MEASURED CHEMISTRY=Pb_8.00_Mn_1.00_(Si_2.00_O_7_)_3_
##PIN_ID=M00298
##ORIENTATION=Laser parallel to a* (1 0 0). Fiducial mark perpendicular to laser is parallel to c [0 0 1]
59.164, 0.000
60.563, 58.917
61.962, 184.240
63.360, 344.973
64.758, 351.602
66.157, 404.742
67.554, 171.477
68.952, 110.469
70.349, 77.459
71.747, 48.162
73.144, 131.079
74.540, 39.689
75.937, 179.433
77.333, 793.292
78.729, 1729.852
80.125, 3308.167
81.521, 4842.370
82.916, 6591.668
84.311, 7661.367
85.706, 8101.877
87.101, 8129.674
88.496, 7647.455
89.890, 7392.205
91.284, 7407.811
92.678, 8133.984
94.071, 9341.270
95.465, 12351.250
96.858, 16787.582
98.251, 22343.010
99.644, 28143.229
101.036, 32672.037
102.428, 37118.172
103.820, 40008.422
105.212, 41992.527
106.604, 41722.395
107.995, 38606.965
109.387, 33962.141
110.777, 28628.822
112.168, 25232.949
113.559, 22651.422
114.949, 21122.176
116.339, 20130.186
117.729, 19363.855
119.119, 18517.568
120.508, 17419.934
121.897, 15964.735
123.286, 15197.860
124.675, 13967.943
126.063, 12950.308
127.452, 12288.948
128.840, 11560.870
130.228, 11190.107
131.615, 10628.630
133.003, 10529.505
134.390, 10004.755
135.777, 9715.309
137.164, 9144.156
138.550, 8795.301
139.937, 8071.747
141.323, 7498.490
142.709, 6818.395
144.094, 6158.081
145.480, 5583.546
146.865, 5010.778
148.250, 4699.799
149.635, 4216.642
151.019, 3936.711
152.403, 3588.291
153.788, 3313.412
155.171, 3215.103
156.555, 3229.348
157.939, 3020.103
159.322, 3048.132
160.705, 3203.363
162.088, 3274.811
163.470, 3611.483
164.853, 3982.384
166.235, 4438.529
167.617, 5091.917
168.998, 5818.553
170.380, 7023.444
171.761, 8402.664
173.142, 10405.396
174.523, 13392.204
175.904, 17000.113
177.284, 21177.592
178.664, 26496.256
180.044, 31818.793
181.424, 38320.336
182.803, 43868.820
184.183, 48373.035
185.562, 51965.688
186.940, 54778.207
188.319, 55000.348
189.698, 53924.625
191.076, 49892.207
192.454, 45558.082
193.831, 40193.203
195.209, 34732.617
196.586, 30164.307
197.963, 25524.268
199.340, 22220.471
200.717, 18870.924
202.093, 16535.609
203.470, 14454.511
204.846, 12697.616
206.221, 11213.444
207.597, 10417.004
208.972, 9496.653
210.347, 8263.483
211.722, 7746.499
213.097, 7130.694
214.472, 6406.066
215.846, 6004.613
217.220, 5396.327
218.594, 4977.209
219.967, 4697.255
221.341, 4333.462
222.714, 4095.826
224.087, 3808.346
225.460, 3670.038
226.832, 3624.272
228.204, 3447.530
229.577, 3481.330
230.948, 3560.284
232.320, 3591.974
233.692, 3682.271
235.063, 3850.062
236.434, 3939.492
237.805, 4048.659
239.175, 4279.075
240.545, 4325.145
241.916, 4503.091
243.286, 4611.815
244.655, 4789.262
246.025, 4816.621
247.394, 5027.644
248.763, 5310.070
250.132, 5441.977
251.501, 5918.383
252.869, 6093.021
254.237, 6562.005
255.605, 6736.771
256.973, 6941.617
258.340, 7070.717
259.708, 6887.168
261.075, 6554.949
262.442, 5948.039
263.808, 5468.426
265.175, 4718.096
266.541, 4029.033
267.907, 3351.238
269.273, 2595.688
270.639, 2020.381
272.004, 1566.304
273.369, 1227.450
274.734, 862.818
276.099, 572.415
277.463, 280.234
278.828, 197.268
280.192, 90.503
281.556, 102.064
282.919, 112.472
284.283, 323.740
285.646, 336.935
287.009, 335.236
288.372, 267.763
289.734, 229.417
291.097, 185.180
292.459, 136.040
293.821, 165.978
295.183, 90.995
296.544, 66.064
297.905, 2.186
299.266, 37.319
300.627, 4.474
301.988, 36.636
303.348, 11.836
304.709, 53.047
306.069, 92.298
307.428, 141.595
308.788, 153.968
310.147, 215.424
311.507, 300.003
312.865, 214.442
314.224, 108.958
315.583, 63.592
316.941, 287.237
318.299, 546.974
319.657, 840.799
321.015, 1141.709
322.372, 1408.702
323.729, 1661.775
325.086, 1834.926
326.443, 2005.156
327.800, 1996.465
329.156, 2094.850
330.512, 2057.310
331.868, 2081.839
333.224, 2138.440
334.579, 2063.106
335.935, 1919.776
337.290, 1805.268
338.645, 1627.584
339.999, 1428.755
341.354, 1173.783
342.708, 951.691
344.062, 697.480
345.416, 555.158
346.769, 302.729
348.123, 162.186
349.476, 126.519
350.829, 6.273
352.182, 16.953
353.534, 47.240
354.887, 80.597
356.239, 96.010
357.591, 214.484
358.942, 225.018
360.294, 373.604
361.645, 463.245
362.996, 482.939
364.347, 601.680
365.698, 699.469
367.048, 810.304
368.398, 907.187
369.748, 1071.093
371.098, 1277.026
372.448, 1376.997
373.797, 1589.999
375.146, 1655.033
376.495, 1770.097
377.844, 1901.190
379.192, 1900.308
380.540, 2022.453
381.889, 1993.623
383.236, 1937.816
384.584, 2009.031
385.932, 1836.267
387.279, 1786.525
388.626, 1654.865
389.973, 1571.291
391.319, 1292.802
392.666, 1140.400
394.012, 923.082
395.358, 682.849
396.704, 502.713
398.049, 369.661
399.394, 199.688
400.740, 68.797
402.084, 47.012
403.429, 92.843
404.774, 17.103
406.118, 7.566
407.462, 60.037
408.806, 116.564
410.150, 93.184
411.493, 55.883
412.836, 57.633
414.179, 40.435
415.522, 26.275
416.865, 2.303
418.207, 46.572
419.549, 125.831
420.891, 276.102
422.233, 478.385
423.575, 616.677
424.916, 823.982
426.257, 1174.292
427.598, 1417.652
428.939, 1790.529
430.279, 2159.937
431.619, 2602.421
432.959, 2966.754
434.299, 3455.763
435.639, 3792.373
436.978, 3934.260
438.318, 4157.098
439.657, 4042.889
440.996, 3960.272
442.334, 3637.962
443.673, 3390.290
445.011, 3012.433
446.349, 2728.659
447.687, 2250.871
449.024, 2076.117
450.361, 1772.913
451.699, 1487.702
453.036, 1311.613
454.372, 1148.146
455.709, 1031.979
457.045, 836.856
458.381, 798.943
459.717, 749.317
461.053, 715.769
462.388, 693.429
463.724, 661.440
465.059, 724.979
466.394, 806.745
467.728, 752.161
469.063, 966.903
470.397, 1094.364
471.731, 1267.291
473.065, 1644.008
474.398, 1816.319
475.732, 2378.034
477.065, 2888.392
478.398, 3474.584
479.731, 4075.573
481.063, 4646.740
482.396, 5015.946
483.728, 5347.526
485.060, 5565.032
486.391, 5540.767
487.723, 5680.611
489.054, 5901.143
490.385, 6357.369
491.716, 6958.443
493.047, 7837.203
494.377, 8947.130
495.708, 10309.968
497.038, 12119.235
498.368, 13933.994
499.697, 16167.619
501.027, 18836.016
502.356, 21662.414
503.685, 24169.410
505.014, 26378.633
506.342, 27661.863
507.671, 28926.781
508.999, 28207.973
510.327, 27530.730
511.655, 25612.084
512.982, 23298.836
514.310, 21045.463
515.637, 17940.287
516.964, 15654.701
518.291, 13275.214
519.617, 11497.501
520.944, 9795.302
522.270, 8090.398
523.596, 7165.141
524.921, 6099.471
526.247, 5366.819
527.572, 4724.621
528.897, 4240.412
530.222, 3961.313
531.547, 3671.279
532.871, 3649.638
534.196, 3459.032
535.520, 3398.194
536.844, 3424.157
538.167, 3211.043
539.491, 3039.880
540.814, 2715.669
542.137, 2400.408
543.460, 2138.097
544.783, 1878.736
546.105, 1739.325
547.427, 1690.863
548.749, 1662.349
550.071, 1691.785
551.393, 1799.167
552.714, 1894.494
554.035, 1885.769
555.356, 1879.989
556.677, 1669.153
557.998, 1467.262
559.318, 1273.312
560.638, 1104.802
561.958, 940.682
563.278, 775.409
564.597, 670.032
565.917, 524.555
567.236, 472.745
568.555, 395.949
569.874, 319.276
571.192, 262.578
572.511, 272.820
573.829, 178.165
575.147, 120.969
576.464, 143.040
577.782, 103.292
579.099, 55.905
580.416, 60.357
581.733, 99.735
583.050, 70.298
584.366, 80.437
585.683, 40.738
586.999, 4.248
588.315, 38.654
589.630, 0.504
590.946, 49.333
592.261, 10.178
593.576, 11.185
594.891, 33.961
596.206, 33.479
597.520, 29.206
598.834, 28.441
600.148, 38.221
601.462, 12.328
602.776, 31.956
604.089, 17.193
605.402, 24.289
606.715, 20.702
608.028, 17.102
609.341, 24.146
610.653, 18.078
611.965, 10.731
613.277, 12.736
614.589, 18.628
615.901, 3.830
617.212, 24.677
618.523, 7.938
619.834, 23.421
621.145, 6.148
622.456, 26.910
623.766, 2.954
625.076, 25.576
626.386, 9.084
627.696, 7.702
629.006, 18.909
630.315, 16.365
631.624, 3.420
632.933, 11.456
634.242, 12.588
635.551, 10.969
636.859, 8.156
638.167, 13.412
639.475, 16.062
640.783, 15.522
642.090, 1.976
643.398, 11.479
644.705, 33.051
646.012, 10.705
647.318, 25.426
648.625, 15.368
649.931, 20.060
651.237, 4.030
652.543, 2.931
653.849, 24.898
655.155, 7.013
656.460, 6.137
657.765, 15.462
659.070, 6.451
660.375, 9.901
661.679, 4.863
662.984, 26.499
664.288, 10.603
665.592, 10.404
666.895, 29.156
668.199, 21.514
669.502, 2.830
670.805, 41.880
672.108, 17.765
673.411, 3.498
674.713, 9.379
676.016, 1.891
677.318, 4.886
678.620, 5.699
679.921, 8.331
681.223, 1.666
682.524, 2.734
683.825, 8.874
685.126, 47.911
686.427, 34.637
687.727, 26.306
689.028, 79.915
690.328, 69.470
691.628, 91.972
692.927, 127.420
694.227, 167.818
695.526, 215.165
696.825, 326.463
698.124, 432.711
699.423, 604.910
700.721, 860.060
702.020, 1143.161
703.318, 1605.213
704.616, 2104.216
705.913, 2558.173
707.211, 2880.082
708.508, 3140.943
709.805, 2819.757
711.102, 2304.525
712.399, 1704.246
713.695, 1225.920
714.992, 850.549
716.288, 546.133
717.584, 408.675
718.879, 232.212
720.175, 166.766
721.470, 126.335
722.765, 110.918
724.060, 76.515
725.355, 70.134
726.649, 71.770
727.944, 71.419
729.238, 89.083
730.532, 16.762
731.825, 62.454
733.119, 80.132
734.412, 21.781
735.705, 33.386
736.998, 34.949
738.291, 9.531
739.584, 63.936
740.876, 20.362
742.168, 64.699
743.460, 71.482
744.752, 68.694
746.043, 54.790
747.334, 35.994
748.626, 68.480
749.916, 46.319
751.207, 74.837
752.498, 3.358
753.788, 60.879
755.078, 19.758
756.368, 2.714
757.658, 44.320
758.947, 33.858
760.237, 32.403
761.526, 6.959
762.815, 35.522
764.104, 13.506
765.392, 16.430
766.680, 22.086
767.969, 10.239
769.257, 39.703
770.544, 3.416
771.832, 28.059
773.119, 15.193
774.406, 16.996
775.693, 13.578
776.980, 36.813
778.267, 12.929
779.553, 6.890
780.839, 0.734
782.125, 26.416
783.411, 13.449
784.697, 46.566
785.982, 5.552
787.267, 29.342
788.552, 31.252
789.837, 12.233
791.122, 45.395
792.406, 24.177
793.690, 14.271
794.974, 0.813
796.258, 3.781
797.542, 13.275
798.825, 25.047
800.108, 17.661
801.391, 23.529
802.674, 33.652
803.957, 13.875
805.239, 87.359
806.522, 166.623
807.804, 133.920
809.085, 215.734
810.367, 234.008
811.649, 258.352
812.930, 395.891
814.211, 473.371
815.492, 665.201
816.772, 868.764
818.053, 1090.270
819.333, 1431.057
820.613, 1684.523
821.893, 1941.385
823.173, 2198.356
824.452, 2214.199
825.732, 2180.041
827.011, 1853.673
828.290, 1695.665
829.568, 1356.520
830.847, 1126.557
832.125, 977.054
833.403, 727.212
834.681, 611.686
835.959, 522.531
837.236, 448.317
838.514, 342.616
839.791, 287.880
841.068, 281.994
842.345, 301.003
843.621, 248.576
844.898, 240.075
846.174, 190.765
847.450, 227.612
848.726, 213.490
850.001, 227.374
851.277, 274.266
852.552, 225.160
853.827, 231.060
855.102, 249.965
856.376, 256.879
857.651, 314.797
858.925, 324.724
860.199, 335.660
861.473, 338.607
862.746, 427.559
864.020, 451.517
865.293, 458.487
866.566, 512.468
867.839, 576.461
869.112, 632.466
870.384, 808.478
871.656, 863.518
872.928, 946.572
874.200, 1118.617
875.472, 1266.669
876.744, 1408.732
878.015, 1650.667
879.286, 1929.593
880.557, 2372.538
881.828, 2867.499
883.098, 3603.593
884.369, 4596.652
885.639, 6007.851
886.909, 7368.915
888.178, 8983.756
889.448, 10271.636
890.717, 11239.551
891.987, 10982.258
893.256, 10263.324
894.524, 9508.201
895.793, 8501.317
897.061, 7937.494
898.330, 7498.676
899.598, 7231.836
900.865, 7388.939
902.133, 7654.211
903.401, 8114.434
904.668, 8644.844
905.935, 9178.993
907.202, 9269.484
908.468, 9315.863
909.735, 8867.057
911.001, 8192.667
912.267, 7661.309
913.533, 7057.004
914.799, 6882.675
916.064, 6971.366
917.330, 7601.152
918.595, 8128.983
919.860, 8692.857
921.124, 9093.411
922.389, 8965.350
923.653, 8437.328
924.918, 7744.351
926.182, 6989.949
927.445, 6336.034
928.709, 5677.156
929.972, 5088.751
931.236, 4557.618
932.499, 4216.859
933.761, 3868.135
935.024, 3401.621
936.286, 3144.981
937.549, 2899.381
938.811, 2547.721
940.073, 2436.197
941.334, 2142.712
942.596, 1989.001
943.857, 1881.593
945.118, 1665.221
946.379, 1536.574
947.640, 1400.272
948.900, 1388.968
950.161, 1258.755
951.421, 1235.581
952.681, 1179.452
953.940, 1119.361
955.200, 1068.310
956.459, 1035.295
957.719, 1020.321
958.978, 992.381
960.236, 962.477
961.495, 927.596
962.753, 877.750
964.012, 879.939
965.270, 865.155
966.527, 813.408
967.785, 754.933
969.043, 795.119
970.300, 746.034
971.557, 722.042
972.814, 629.485
974.071, 610.870
975.327, 622.599
976.583, 611.136
977.840, 545.661
979.095, 481.158
980.351, 448.631
981.607, 475.948
982.862, 413.010
984.117, 434.615
985.372, 429.948
986.627, 336.950
987.882, 390.183
989.136, 352.717
990.390, 277.848
991.644, 348.893
992.898, 251.865
994.152, 262.872
995.405, 245.898
996.659, 242.302
997.912, 193.312
999.165, 184.313
1000.417, 201.299
1001.670, 167.309
1002.922, 121.347
1004.174, 112.247
1005.426, 128.651
1006.678, 126.829
1007.930, 114.931
1009.181, 111.265
1010.432, 99.197
1011.683, 93.781
1012.934, 93.095
1014.185, 70.273
1015.435, 78.755
1016.685, 63.313
1017.935, 67.750
1019.185, 73.047
1020.435, 43.297
1021.684, 1.206
1022.934, 1.929
1024.183, 6.592
1025.432, 32.894
1026.680, 3.163
1027.929, 22.017
1029.177, 8.667
1030.425, 37.114
1031.673, 16.882
1032.921, 2.892
1034.169, 16.117
1035.416, 10.453
1036.663, 32.985
1037.911, 4.495
1039.157, 26.012
1040.404, 37.968
1041.650, 44.920
1042.897, 50.410
1044.143, 9.266
1045.389, 52.249
1046.634, 86.851
1047.880, 115.451
1049.125, 107.576
1050.371, 145.062
1051.615, 151.311
1052.860, 136.813
1054.105, 224.877
1055.349, 233.614
1056.593, 274.018
1057.837, 269.767
1059.081, 259.341
1060.325, 246.380
1061.568, 168.520
1062.812, 195.413
1064.055, 247.437
1065.298, 244.196
1066.540, 249.191
1067.783, 176.295
1069.025, 273.159
1070.267, 281.985
1071.509, 239.859
1072.751, 246.203
1073.993, 241.005
1075.234, 250.748
1076.475, 246.527
1077.716, 238.773
1078.957, 190.196
1080.198, 234.031
1081.438, 242.889
1082.679, 227.551
1083.919, 215.449
1085.159, 198.340
1086.398, 233.138
1087.638, 219.013
1088.877, 178.903
1090.116, 177.549
1091.355, 112.351
1092.594, 158.271
1093.833, 140.075
1095.071, 84.064
1096.309, 117.854
1097.547, 91.782
1098.785, 118.572
1100.023, 121.995
1101.260, 110.320
1102.498, 99.495
1103.735, 64.361
1104.972, 90.412
1106.208, 58.403
1107.445, 47.268
1108.681, 20.122
1109.918, 28.001
1111.154, 21.824
1112.389, 11.633
1113.625, 12.958
1114.860, 41.287
1116.096, 16.666
1117.331, 0.691
1118.566, 25.368
1119.800, 25.244
1121.035, 7.294
1122.269, 5.732
1123.503, 15.599
1124.737, 13.356
1125.971, 6.221
1127.205, 3.852
1128.438, 0.929
1129.671, 18.318
1130.904, 19.115
1132.137, 22.348
1133.370, 16.655
1134.602, 14.852
1135.834, 13.634
1137.066, 18.468
1138.298, 15.944
1139.530, 12.474
1140.762, 8.900
1141.993, 9.251
1143.224, 6.393
1144.455, 13.042
1145.686, 5.391
1146.917, 3.796
1148.147, 3.475
1149.377, 0.002
1150.607, 20.857
1151.837, 9.997
1153.067, 1.734
1154.296, 4.601
1155.526, 14.112
1156.755, 7.579
1157.984, 8.301
1159.213, 10.686
1160.441, 2.098
1161.670, 7.088
1162.898, 7.687
1164.126, 8.458
1165.354, 6.703
1166.581, 8.827
1167.809, 22.368
1169.036, 5.449
1170.263, 40.051
1171.490, 0.223
1172.717, 23.728
1173.943, 5.469
1175.170, 0.712
1176.396, 1.268
1177.622, 7.914
1178.848, 4.530
1180.073, 13.513
1181.299, 1.632
1182.524, 5.695
1183.749, 25.664
1184.974, 10.459
1186.199, 18.020
1187.423, 3.599
1188.648, 1.524
1189.872, 43.305
1191.096, 3.017
1192.320, 3.519
1193.543, 25.879
1194.767, 30.261
1195.990, 1.201
1197.213, 11.978
1198.436, 5.185
1199.659, 11.384
1200.881, 9.954
1202.104, 20.169
1203.326, 7.199
1204.548, 23.530
1205.770, 5.678
1206.991, 14.801
1208.213, 1.006
1209.434, 21.079
1210.655, 17.189
1211.876, 6.170
1213.096, 4.155
1214.317, 19.117
1215.537, 28.060
1216.757, 34.979
1217.977, 29.871
1219.197, 2.744
1220.417, 47.582
1221.636, 63.403
1222.855, 57.205
1224.074, 21.984
1225.293, 3.743
1226.512, 50.465
1227.731, 47.167
1228.949, 14.845
1230.167, 11.496
1231.385, 44.121
1232.603, 67.726
1233.820, 50.309
1235.038, 47.869
1236.255, 18.404
1237.472, 70.894
1238.689, 45.362
1239.906, 71.805
1241.122, 10.444
1242.338, 76.609
1243.555, 46.972
1244.771, 77.312
1245.986, 27.630
1247.202, 30.920
1248.417, 36.186
1249.633, 59.429
1250.848, 41.650
1252.063, 44.847
1253.277, 59.021
1254.492, 61.173
1255.706, 55.300
1256.920, 67.402
1258.134, 70.481
1259.348, 33.538
1260.562, 33.571
1261.775, 47.578
1262.988, 14.538
1264.201, 12.424
1265.414, 50.810
1266.627, 49.112
1267.839, 41.993
1269.052, 37.932
1270.264, 30.540
1271.476, 65.340
1272.688, 52.169
1273.899, 23.026
1275.111, 50.917
1276.322, 93.975
1277.533, 61.292
1278.744, 36.075
1279.955, 55.140
1281.165, 52.538
1282.376, 13.713
1283.586, 64.591
1284.796, 38.882
1286.006, 59.258
1287.215, 85.708
1288.425, 72.124
1289.634, 68.518
1290.843, 42.535
1292.052, 28.942
1293.261, 21.356
1294.469, 29.782
1295.678, 74.181
1296.886, 86.549
1298.094, 36.053
1299.302, 14.051
1300.509, 24.273
1301.717, 39.568
1302.924, 15.630
1304.131, 38.092
1305.338, 18.900
1306.545, 63.976
1307.752, 24.186
1308.958, 46.092
1310.164, 55.920
1311.370, 47.867
1312.576, 9.953
1313.782, 89.085
1314.987, 69.970
1316.193, 38.075
1317.398, 74.936
1318.603, 51.016
1319.807, 64.129
1321.012, 16.658
1322.216, 57.393
1323.421, 25.332
1324.625, 62.954
1325.829, 22.120
1327.032, 51.739
1328.236, 69.472
1329.439, 4.435
1330.642, 27.320
1331.845, 15.777
1333.048, 4.684
1334.251, 40.157
1335.453, 2.104
1336.656, 25.869
1337.858, 60.342
1339.060, 68.207
1340.261, 6.084
1341.463, 44.448
1342.664, 52.466
1343.866, 28.737
1345.067, 50.774
1346.267, 57.256
1347.468, 34.093
1348.669, 53.281
1349.869, 63.151
1351.069, 57.518
1352.269, 7.186
1353.469, 66.490
1354.668, 62.232
1355.868, 17.098
1357.067, 60.754
1358.266, 73.668
1359.465, 22.055
1360.664, 75.106
1361.862, 95.859
1363.061, 73.684
1364.259, 62.464
1365.457, 35.228
1366.655, 64.876
1367.852, 34.730
1369.050, 96.345
1370.247, 72.592
1371.444, 63.111
1372.641, 34.394
1373.838, 79.428
1375.035, 56.399
1376.231, 85.690
1377.427, 78.941
1378.623, 86.605
1379.819, 68.992
1381.015, 78.459
1382.211, 52.372
1383.406, 53.867
1384.601, 71.374
1385.796, 69.519
1386.991, 92.612
1388.185, 100.413
1389.380, 72.402
1390.574, 101.556
1391.768, 66.508
1392.962, 108.776
1394.156, 89.853
1395.350, 99.365
1396.543, 142.338
1397.736, 136.371
1398.929, 162.637
1400.122, 191.144
1401.315, 186.780
1402.507, 154.650
1403.700, 168.660
1404.892, 181.237
1406.084, 240.374
1407.276, 186.370
1408.467, 210.447
1409.659, 193.264
1410.850, 203.169
1412.041, 166.090
1413.232, 191.812
1414.423, 125.040
1415.614, 168.696
1416.804, 124.211
1417.994, 153.248
1419.184, 138.975
1420.374, 78.961
1421.564, 155.023
1422.753, 81.074
1423.943, 93.113
1425.132, 70.941
1426.321, 124.934
1427.510, 69.993
1428.698, 59.031
1429.887, 60.092
1431.075, 46.162
1432.263, 13.215
1433.451, 21.276
1434.639, 28.352
1435.827, 58.438
1437.014, 56.519
1438.201, 32.613
1439.388, 9.817
1440.575, 24.047
1441.762, 5.310
1442.949, 8.588
1444.135, 51.899
1445.321, 40.216
1446.507, 70.559
1447.693, 8.927
1448.879, 15.339
1450.064, 65.779
1451.250, 70.251
1452.435, 20.745
1453.620, 82.269
1454.805, 92.829
1455.989, 60.518
1457.174, 27.266
1458.358, 28.068
1459.542, 54.917
1460.726, 63.821
1461.910, 69.787
1463.093, 110.817
1464.277, 75.916
1465.460, 59.090
1466.643, 97.350
1467.826, 114.700
1469.009, 102.144
1470.191, 83.688
1471.373, 22.342
1472.556, 44.117
1473.738, 87.025
1474.919, 45.081
1476.101, 40.300
1477.283, 42.691
1478.464, 5.728
1479.645, 44.067
1480.826, 48.101
1482.007, 82.407
1483.187, 33.020
1484.368, 26.988
1485.548, 48.367
1486.728, 40.227
1487.908, 48.422
1489.088, 1.965
1490.268, 71.108
1491.447, 65.863
1492.626, 0.117
1493.805, 30.354
1494.984, 0.000
##END=



