##NAMES=Baryte
##RRUFFID=R040036
##IDEAL CHEMISTRY=BaS^6+^O_4_
##LOCALITY=Cumbria County, England
##OWNER=RRUFF
##SOURCE=University of Arizona Mineral Museum
##DESCRIPTION=Golden brown tabular crystal
##STATUS=The identification of this mineral has been confirmed by X-ray diffraction and chemical analysis
##URL=rruff.info/R040036
##MEASURED CHEMISTRY=Ba_1.00_S_1.00_O_4_; trace amounts of Pb
##PIN_ID=M00021
##ORIENTATION=Laser parallel to c* (0 0 1). Fiducial mark perpendicular to laser is parallel to -a [-1 0 0]
26.288, 0.000
27.694, 5.564
29.099, 40.401
30.504, 40.605
31.909, 0.080
33.313, 18.415
34.717, 65.535
36.121, 65.562
37.525, 55.960
38.929, 133.812
40.332, 136.935
41.735, 154.737
43.138, 144.639
44.541, 110.923
45.943, 130.089
47.345, 133.249
48.747, 113.099
50.149, 151.640
51.551, 132.012
52.952, 135.115
54.353, 164.851
55.754, 139.737
57.155, 204.538
58.555, 145.173
59.955, 163.046
61.355, 147.828
62.755, 158.946
64.154, 135.897
65.553, 117.183
66.952, 143.718
68.351, 94.435
69.750, 115.522
71.148, 89.577
72.546, 75.340
73.944, 49.956
75.342, 33.005
76.739, 28.068
78.136, 30.276
79.533, 33.186
80.930, 32.865
82.327, 13.260
83.723, 21.356
85.119, 1.992
86.515, 40.648
87.910, 24.325
89.306, 48.025
90.701, 50.749
92.096, 40.491
93.490, 38.256
94.885, 45.044
96.279, 14.851
97.673, 5.448
99.067, 9.740
100.461, 23.960
101.854, 25.115
103.247, 43.404
104.640, 48.711
106.032, 60.785
107.425, 64.702
108.817, 84.262
110.209, 93.864
111.601, 103.495
112.992, 158.142
114.384, 176.794
115.775, 204.441
117.166, 229.077
118.556, 187.813
119.947, 181.777
121.337, 153.713
122.727, 174.481
124.116, 195.261
125.506, 201.147
126.895, 163.799
128.284, 174.525
129.673, 174.932
131.062, 196.498
132.450, 169.736
133.838, 178.994
135.226, 200.387
136.614, 204.685
138.001, 217.758
139.388, 219.277
140.775, 225.262
142.162, 221.251
143.549, 199.317
144.935, 209.252
146.321, 245.173
147.707, 271.070
149.093, 329.992
150.478, 387.848
151.863, 465.608
153.248, 484.329
154.633, 476.234
156.018, 439.130
157.402, 361.886
158.786, 326.663
160.170, 299.424
161.554, 240.062
162.937, 229.738
164.320, 192.582
165.703, 192.321
167.086, 170.972
168.469, 174.396
169.851, 180.992
171.233, 161.498
172.615, 164.988
173.996, 179.457
175.378, 172.002
176.759, 198.035
178.140, 171.635
179.521, 180.023
180.901, 209.268
182.281, 253.028
183.662, 290.738
185.041, 361.439
186.421, 491.905
187.800, 580.144
189.180, 637.303
190.558, 641.372
191.937, 556.224
193.316, 509.934
194.694, 396.475
196.072, 316.809
197.450, 291.018
198.827, 244.921
200.205, 195.769
201.582, 200.470
202.959, 196.999
204.336, 177.447
205.712, 182.671
207.088, 173.908
208.465, 180.722
209.840, 154.359
211.216, 140.738
212.591, 146.146
213.967, 140.194
215.341, 140.475
216.716, 149.666
218.091, 143.566
219.465, 140.542
220.839, 140.411
222.213, 127.097
223.586, 126.589
224.960, 123.865
226.333, 148.970
227.706, 118.250
229.079, 129.423
230.451, 151.621
231.823, 128.606
233.195, 128.901
234.567, 109.492
235.939, 140.160
237.310, 126.232
238.682, 133.785
240.052, 106.253
241.423, 102.025
242.794, 93.743
244.164, 102.424
245.534, 85.685
246.904, 91.393
248.274, 70.179
249.643, 75.273
251.012, 93.382
252.381, 105.596
253.750, 92.935
255.118, 86.302
256.487, 100.741
257.855, 84.286
259.223, 80.866
260.590, 93.520
261.958, 85.408
263.325, 88.451
264.692, 85.993
266.059, 84.701
267.425, 87.788
268.791, 78.732
270.158, 82.657
271.523, 82.505
272.889, 83.562
274.255, 89.626
275.620, 87.422
276.985, 97.260
278.350, 80.092
279.714, 76.045
281.078, 60.838
282.443, 74.667
283.806, 56.585
285.170, 74.492
286.534, 76.388
287.897, 70.275
289.260, 70.152
290.623, 76.020
291.985, 60.879
293.348, 78.729
294.710, 75.571
296.072, 69.404
297.433, 71.229
298.795, 56.045
300.156, 44.853
301.517, 68.652
302.878, 46.443
304.239, 56.225
305.599, 69.999
306.959, 97.764
308.319, 68.522
309.679, 60.273
311.038, 65.015
312.398, 70.749
313.757, 67.096
315.116, 70.547
316.474, 64.845
317.833, 69.550
319.191, 64.175
320.549, 60.813
321.907, 50.498
323.264, 65.162
324.622, 72.812
325.979, 62.417
327.336, 49.016
328.692, 43.590
330.049, 52.142
331.405, 55.671
332.761, 65.179
334.117, 59.666
335.473, 64.436
336.828, 49.581
338.183, 62.010
339.538, 55.422
340.893, 45.815
342.247, 64.193
343.602, 56.555
344.956, 65.902
346.310, 75.236
347.663, 50.557
349.017, 54.865
350.370, 68.162
351.723, 48.448
353.076, 54.734
354.428, 45.999
355.780, 60.255
357.133, 65.453
358.484, 50.559
359.836, 44.688
361.188, 50.787
362.539, 50.898
363.890, 54.038
365.241, 54.000
366.591, 45.245
367.942, 54.354
369.292, 42.388
370.642, 46.423
371.992, 66.449
373.341, 33.597
374.691, 63.606
376.040, 55.672
377.388, 40.845
378.737, 27.917
380.086, 60.002
381.434, 66.046
382.782, 58.209
384.130, 50.322
385.477, 54.532
386.825, 39.599
388.172, 62.680
389.519, 34.710
390.865, 64.798
392.212, 73.818
393.558, 66.873
394.904, 37.837
396.250, 36.829
397.596, 64.910
398.941, 40.109
400.286, 59.251
401.631, 47.374
402.976, 55.518
404.321, 59.570
405.665, 46.724
407.009, 48.822
408.353, 31.927
409.697, 59.000
411.040, 27.066
412.384, 26.124
413.727, 48.260
415.070, 21.283
416.412, 56.387
417.755, 35.430
419.097, 31.559
420.439, 74.634
421.781, 48.700
423.122, 74.813
424.464, 41.956
425.805, 55.971
427.146, 79.915
428.486, 48.925
429.827, 84.853
431.167, 70.864
432.507, 100.885
433.847, 110.877
435.187, 117.868
436.526, 152.887
437.865, 191.873
439.204, 210.914
440.543, 287.968
441.882, 355.006
443.220, 452.005
444.558, 579.938
445.896, 773.817
447.234, 1032.807
448.572, 1461.694
449.909, 2010.626
451.246, 2542.623
452.583, 3043.748
453.919, 2983.738
455.256, 2647.690
456.592, 2167.665
457.928, 1843.669
459.264, 1799.656
460.600, 1837.659
461.935, 1953.637
463.270, 1831.636
464.605, 1505.612
465.940, 1156.574
467.274, 824.487
468.609, 573.469
469.943, 411.488
471.277, 305.458
472.610, 226.367
473.944, 184.252
475.277, 155.177
476.610, 96.121
477.943, 102.109
479.275, 65.074
480.608, 69.063
481.940, 75.984
483.272, 73.965
484.604, 43.917
485.935, 42.827
487.267, 31.823
488.598, 68.786
489.929, 58.794
491.260, 56.847
492.590, 48.787
493.920, 47.751
495.250, 45.149
496.580, 26.722
497.910, 36.697
499.239, 38.634
500.569, 22.640
501.898, 32.672
503.226, 37.640
504.555, 32.584
505.883, 24.559
507.212, 34.538
508.540, 35.534
509.867, 33.533
511.195, 23.495
512.522, 35.501
513.849, 32.428
515.176, 40.430
516.503, 36.502
517.829, 35.424
519.156, 31.490
520.482, 31.452
521.808, 38.486
523.133, 38.393
524.459, 15.452
525.784, 32.533
527.109, 39.588
528.434, 13.608
529.758, 20.652
531.083, 16.628
532.407, 22.710
533.731, 22.152
535.055, 24.590
536.378, 24.832
537.701, 26.944
539.025, 33.928
540.348, 27.930
541.670, 9.012
542.993, 9.064
544.315, 7.172
545.637, 17.209
546.959, 33.288
548.281, 1.581
549.602, 26.516
550.923, 10.638
552.244, 31.659
553.565, 18.735
554.886, 18.693
556.206, 4.688
557.526, 20.768
558.846, 5.898
560.166, 21.261
561.486, 1.279
562.805, 25.653
564.124, 23.865
565.443, 27.326
566.762, 1.561
568.080, 50.555
569.399, 22.623
570.717, 44.167
572.035, 37.504
573.352, 29.672
574.670, 39.922
575.987, 44.040
577.304, 33.157
578.621, 27.264
579.938, 10.347
581.254, 16.635
582.570, 10.835
583.886, 7.920
585.202, 38.242
586.518, 17.348
587.833, 20.955
589.148, 44.053
590.463, 39.108
591.778, 55.213
593.093, 54.305
594.407, 52.357
595.721, 39.409
597.035, 52.459
598.349, 77.838
599.662, 45.175
600.976, 76.222
602.289, 70.367
603.602, 84.412
604.914, 98.478
606.227, 111.763
607.539, 101.842
608.851, 155.882
610.163, 187.972
611.475, 306.010
612.786, 438.047
614.097, 714.082
615.408, 1126.165
616.719, 1339.220
618.030, 1398.383
619.340, 1263.415
620.651, 966.654
621.961, 846.684
623.270, 765.711
624.580, 761.895
625.889, 858.003
627.199, 1095.027
628.507, 1401.080
629.816, 1632.119
631.125, 1712.139
632.433, 1500.157
633.741, 1179.174
635.049, 840.534
636.357, 646.596
637.664, 515.500
638.972, 480.819
640.279, 450.828
641.586, 453.004
642.893, 504.984
644.199, 597.519
645.505, 716.521
646.811, 806.575
648.117, 864.718
649.423, 800.716
650.728, 613.858
652.034, 468.852
653.339, 353.846
654.644, 249.836
655.948, 190.918
657.253, 146.003
658.557, 104.071
659.861, 107.345
661.165, 102.337
662.468, 58.314
663.772, 61.290
665.075, 37.264
666.378, 54.197
667.681, 26.185
668.983, 41.152
670.286, 39.612
671.588, 16.582
672.890, 17.674
674.192, 27.633
675.493, 15.587
676.795, 32.540
678.096, 10.079
679.397, 19.027
680.697, 11.973
681.998, 18.970
683.298, 4.853
684.598, 9.734
685.898, 19.604
687.198, 18.193
688.498, 5.122
689.797, 3.932
691.096, 0.855
692.395, 5.731
693.694, 22.696
694.992, 15.013
696.290, 6.512
697.589, 10.497
698.886, 6.596
700.184, 10.288
701.482, 12.609
702.779, 14.580
704.076, 3.591
705.373, 14.708
706.669, 6.169
707.966, 0.066
709.262, 22.804
710.558, 18.328
711.854, 9.468
713.150, 1.614
714.445, 5.763
715.740, 3.083
717.035, 2.926
718.330, 4.765
719.625, 9.601
720.919, 7.605
722.214, 3.786
723.508, 8.002
724.801, 9.227
726.095, 2.713
727.388, 21.605
728.682, 4.198
729.975, 13.999
731.267, 1.796
732.560, 4.589
733.852, 15.380
735.145, 15.168
736.437, 14.953
737.728, 12.265
739.020, 10.490
740.311, 14.281
741.603, 1.952
742.894, 16.812
744.184, 6.572
745.475, 8.670
746.765, 3.082
748.055, 23.831
749.345, 0.578
750.635, 12.936
751.925, 19.061
753.214, 11.798
754.503, 0.532
755.792, 5.264
757.081, 4.008
758.370, 9.716
759.658, 7.563
760.946, 11.153
762.234, 28.867
763.522, 5.423
764.809, 1.716
766.097, 10.987
767.384, 1.687
768.671, 4.384
769.958, 9.078
771.244, 9.769
772.530, 7.458
773.817, 13.856
775.102, 0.177
776.388, 37.500
777.674, 12.834
778.959, 9.825
780.244, 6.518
781.529, 12.135
782.814, 22.214
784.098, 25.428
785.383, 0.932
786.667, 6.295
787.951, 10.338
789.235, 6.032
790.518, 6.594
791.801, 1.218
793.084, 5.839
794.367, 3.543
795.650, 3.928
796.933, 3.141
798.215, 12.708
799.497, 0.894
800.779, 14.495
802.061, 23.092
803.342, 21.688
804.624, 4.281
805.905, 0.128
807.186, 11.461
808.466, 23.953
809.747, 0.374
811.027, 7.798
812.307, 0.775
813.587, 9.345
814.867, 2.911
816.146, 26.523
817.426, 20.007
818.705, 2.563
819.984, 2.902
821.263, 24.649
822.541, 20.147
823.819, 20.668
825.098, 30.787
826.375, 14.750
827.653, 2.235
828.931, 1.714
830.208, 25.176
831.485, 3.339
832.762, 8.189
834.039, 25.713
835.315, 8.804
836.592, 7.695
837.868, 22.982
839.144, 18.244
840.420, 12.743
841.695, 7.134
842.970, 37.236
844.246, 3.350
845.521, 18.814
846.795, 41.242
848.070, 24.745
849.344, 40.771
850.618, 12.001
851.892, 20.400
853.166, 19.714
854.440, 38.158
855.713, 35.602
856.986, 25.053
858.259, 37.576
859.532, 39.793
860.804, 45.145
862.077, 46.610
863.349, 47.838
864.621, 37.278
865.893, 53.216
867.164, 21.663
868.436, 30.150
869.707, 28.586
870.978, 38.035
872.248, 10.520
873.519, 18.005
874.789, 5.489
876.060, 2.969
877.330, 26.837
878.599, 11.320
879.869, 15.703
881.138, 35.185
882.408, 9.645
883.677, 9.883
884.945, 21.327
886.214, 28.808
887.482, 31.239
888.751, 43.719
890.019, 33.200
891.287, 17.680
892.554, 60.112
893.822, 36.571
895.089, 29.922
896.356, 69.402
897.623, 60.673
898.889, 73.154
900.156, 46.635
901.422, 68.959
902.688, 65.358
903.954, 74.839
905.220, 67.291
906.485, 48.756
907.750, 74.239
909.015, 85.723
910.280, 77.806
911.545, 68.345
912.809, 62.783
914.074, 44.376
915.338, 15.544
916.602, 29.031
917.865, 54.350
919.129, 34.839
920.392, 86.798
921.655, 51.288
922.918, 65.727
924.181, 73.063
925.443, 82.557
926.706, 30.904
927.968, 79.401
929.230, 49.882
930.491, 52.381
931.753, 73.787
933.014, 57.189
934.276, 105.608
935.536, 34.820
936.797, 85.314
938.058, 61.821
939.318, 62.329
940.578, 97.839
941.838, 94.351
943.098, 83.845
944.358, 94.361
945.617, 92.671
946.876, 74.837
948.135, 102.197
949.394, 87.717
950.653, 88.241
951.911, 69.767
953.169, 78.707
954.427, 106.237
955.685, 123.769
956.943, 126.249
958.200, 108.785
959.458, 194.324
960.715, 202.865
961.971, 182.735
963.228, 247.281
964.485, 302.829
965.741, 365.380
966.997, 403.933
968.253, 369.441
969.508, 428.000
970.764, 507.561
972.019, 525.979
973.274, 619.546
974.529, 665.647
975.784, 793.221
977.039, 973.798
978.293, 1211.278
979.547, 1675.863
980.801, 2262.453
982.055, 3451.045
983.308, 5806.641
984.562, 10935.239
985.815, 26813.842
987.068, 52092.445
988.321, 63031.062
989.573, 48619.676
990.826, 26928.297
992.078, 14626.916
993.330, 8026.540
994.582, 4609.168
995.833, 2923.800
997.085, 2024.435
998.336, 1487.074
999.587, 1183.717
1000.838, 998.363
1002.088, 882.015
1003.339, 719.671
1004.589, 639.330
1005.839, 595.992
1007.089, 470.657
1008.339, 417.326
1009.588, 380.998
1010.838, 372.673
1012.087, 325.354
1013.336, 325.038
1014.584, 303.727
1015.833, 295.419
1017.081, 234.114
1018.330, 267.813
1019.577, 211.517
1020.825, 194.224
1022.073, 236.935
1023.320, 203.649
1024.567, 229.368
1025.814, 197.092
1027.061, 182.819
1028.308, 195.551
1029.554, 169.286
1030.800, 138.025
1032.046, 172.768
1033.292, 135.517
1034.538, 133.270
1035.783, 121.026
1037.029, 100.787
1038.274, 85.555
1039.519, 45.327
1040.763, 111.102
1042.008, 111.882
1043.252, 57.666
1044.496, 88.455
1045.740, 75.248
1046.984, 76.046
1048.228, 76.849
1049.471, 72.660
1050.714, 61.477
1051.957, 31.302
1053.200, 44.131
1054.442, 39.516
1055.685, 39.805
1056.927, 52.648
1058.169, 52.496
1059.411, 51.350
1060.652, 85.207
1061.894, 38.069
1063.135, 19.935
1064.376, 54.805
1065.617, 16.683
1066.858, 47.564
1068.098, 36.468
1069.339, 18.358
1070.579, 36.254
1071.819, 50.154
1073.058, 50.058
1074.298, 62.966
1075.537, 35.877
1076.776, 42.792
1078.015, 83.711
1079.254, 15.634
1080.493, 61.563
1081.731, 64.498
1082.969, 52.438
1084.207, 89.381
1085.445, 32.330
1086.683, 70.282
1087.920, 42.240
1089.157, 40.203
1090.394, 62.171
1091.631, 75.143
1092.868, 64.119
1094.105, 97.099
1095.341, 65.082
1096.577, 126.098
1097.813, 122.091
1099.049, 158.090
1100.284, 272.093
1101.519, 304.101
1102.755, 339.117
1103.990, 349.267
1105.224, 319.158
1106.459, 296.187
1107.693, 189.219
1108.928, 122.257
1110.162, 173.299
1111.395, 100.344
1112.629, 87.393
1113.863, 89.445
1115.096, 52.501
1116.329, 77.561
1117.562, 112.625
1118.795, 93.692
1120.027, 148.762
1121.259, 150.836
1122.492, 213.912
1123.723, 223.992
1124.955, 192.076
1126.187, 292.162
1127.418, 285.251
1128.649, 342.344
1129.880, 464.440
1131.111, 535.539
1132.342, 737.641
1133.572, 909.750
1134.802, 1262.861
1136.033, 1771.975
1137.262, 2183.094
1138.492, 2731.216
1139.722, 3325.341
1140.951, 3706.468
1142.180, 4303.599
1143.409, 4464.733
1144.638, 4376.871
1145.866, 3993.010
1147.095, 3306.152
1148.323, 2607.298
1149.551, 2034.446
1150.779, 1546.597
1152.006, 1212.751
1153.234, 955.908
1154.461, 765.124
1155.688, 673.290
1156.915, 561.599
1158.141, 479.049
1159.368, 470.220
1160.594, 397.504
1161.820, 464.680
1163.046, 528.858
1164.272, 580.040
1165.498, 671.509
1166.723, 685.770
1167.948, 602.966
1169.173, 525.156
1170.398, 442.976
1171.623, 355.172
1172.847, 279.369
1174.071, 166.796
1175.295, 212.998
1176.519, 187.473
1177.743, 113.809
1178.966, 125.017
1180.190, 87.226
1181.413, 92.635
1182.636, 44.848
1183.858, 60.143
1185.081, 56.359
1186.303, 29.576
1187.526, 44.795
1188.748, 53.016
1189.969, 8.238
1191.191, 48.911
1192.412, 35.136
1193.634, 41.362
1194.855, 11.589
1196.076, 17.818
1197.296, 16.939
1198.517, 23.170
1199.737, 2.496
1200.957, 14.756
1202.177, 19.989
1203.397, 21.240
1204.617, 47.603
1205.836, 47.095
1207.055, 35.076
1208.274, 54.314
1209.493, 25.553
1210.712, 10.792
1211.930, 27.212
1213.148, 21.727
1214.367, 63.050
1215.584, 81.325
1216.802, 59.822
1218.020, 50.065
1219.237, 27.308
1220.454, 38.607
1221.671, 45.345
1222.888, 11.589
1224.105, 45.873
1225.321, 44.117
1226.537, 21.362
1227.753, 3.394
1228.969, 25.850
1230.185, 49.580
1231.400, 36.824
1232.616, 39.466
1233.831, 68.460
1235.046, 21.724
1236.261, 47.968
1237.475, 73.573
1238.689, 52.823
1239.904, 90.187
1241.118, 86.443
1242.332, 48.687
1243.545, 73.930
1244.759, 56.206
1245.972, 27.450
1247.185, 78.949
1248.398, 46.195
1249.611, 55.441
1250.823, 27.720
1252.036, 18.967
1253.248, 53.220
1254.460, 21.469
1255.671, 22.719
1256.883, 54.969
1258.095, 47.220
1259.306, 16.471
1260.517, 19.722
1261.728, 52.974
1262.938, 1.227
1264.149, 42.181
1265.359, 13.433
1266.569, 39.683
1267.779, 20.137
1268.989, 38.387
1270.199, 46.697
1271.408, 28.944
1272.617, 8.234
1273.826, 28.538
1275.035, 31.780
1276.244, 60.020
1277.452, 1.259
1278.661, 2.496
1279.869, 53.727
1281.077, 13.059
1282.285, 48.288
1283.492, 14.584
1284.700, 2.190
1285.907, 2.042
1287.114, 5.741
1288.321, 11.525
1289.527, 21.943
1290.734, 3.845
1291.940, 19.365
1293.146, 29.573
1294.352, 13.033
1295.558, 10.766
1296.763, 1.567
1297.969, 4.626
1299.174, 10.818
1300.379, 24.951
1301.584, 28.236
1302.788, 10.418
1303.993, 7.412
1305.197, 35.755
1306.401, 9.082
1307.605, 2.924
1308.809, 39.232
1310.013, 19.387
1311.216, 5.463
1312.419, 14.684
1313.622, 43.171
1314.825, 13.967
1316.028, 35.103
1317.230, 14.237
1318.432, 32.369
1319.634, 24.490
1320.836, 15.394
1322.038, 59.717
1323.240, 13.824
1324.441, 27.928
1325.642, 19.029
1326.843, 33.873
1328.044, 25.216
1329.245, 0.302
1330.445, 9.367
1331.645, 31.442
1332.845, 10.513
1334.045, 0.422
1335.245, 17.637
1336.445, 21.694
1337.644, 17.746
1338.843, 31.795
1340.042, 15.840
1341.241, 2.118
1342.440, 6.081
1343.638, 2.951
1344.836, 8.980
1346.034, 4.996
1347.232, 18.024
1348.430, 48.040
1349.628, 6.053
1350.825, 14.938
1352.022, 45.064
1353.219, 9.064
1354.416, 18.061
1355.613, 30.054
1356.809, 31.045
1358.005, 29.007
1359.202, 14.007
1360.398, 21.973
1361.593, 10.048
1362.789, 25.073
1363.984, 14.896
1365.179, 32.865
1366.374, 8.168
1367.569, 19.163
1368.764, 3.129
1369.958, 18.097
1371.153, 47.964
1372.347, 59.673
1373.541, 13.885
1374.735, 57.094
1375.928, 2.700
1377.122, 32.505
1378.315, 24.708
1379.508, 15.909
1380.701, 52.109
1381.893, 22.307
1383.086, 51.499
1384.278, 42.686
1385.470, 39.869
1386.662, 34.049
1387.854, 36.226
1389.046, 42.400
1390.237, 36.573
1391.428, 45.743
1392.619, 20.090
1393.810, 52.002
1395.001, 55.645
1396.191, 1.660
1397.382, 48.806
1398.572, 13.590
1399.762, 32.622
1400.952, 16.947
1402.141, 14.066
1403.331, 29.884
1404.520, 38.458
1405.709, 61.561
1406.898, 55.390
1408.087, 41.987
1409.275, 9.062
1410.464, 55.134
1411.652, 12.554
1412.840, 46.614
1414.028, 23.349
1415.215, 93.233
1416.403, 44.238
1417.590, 0.953
1418.777, 37.073
1419.964, 44.098
1421.151, 70.830
1422.338, 0.736
1423.524, 35.791
1424.710, 30.789
1425.896, 32.839
1427.082, 58.751
1428.268, 18.729
1429.453, 76.706
1430.639, 67.790
1431.824, 55.606
1433.009, 78.487
1434.194, 57.692
1435.378, 55.328
1436.563, 113.218
1437.747, 87.031
1438.931, 93.368
1440.115, 132.142
1441.299, 102.955
1442.482, 143.762
1443.666, 143.552
1444.849, 132.324
1446.032, 163.077
1447.215, 148.116
1448.397, 105.301
1449.580, 158.807
1450.762, 186.340
1451.944, 158.818
1453.126, 150.446
1454.308, 198.075
1455.490, 160.407
1456.671, 157.811
1457.852, 171.387
1459.033, 149.589
1460.214, 141.738
1461.395, 145.435
1462.575, 131.942
1463.756, 147.449
1464.936, 159.777
1466.116, 129.281
1467.296, 134.993
1468.475, 135.328
1469.655, 122.833
1470.834, 62.324
1472.013, 77.787
1473.192, 100.221
1474.371, 40.719
1475.550, 86.223
1476.728, 41.723
1477.906, 115.216
1479.084, 68.716
1480.262, 52.254
1481.440, 111.848
1482.617, 90.459
1483.795, 28.089
1484.972, 89.735
1486.149, 61.405
1487.326, 28.112
1488.502, 83.857
1489.679, 43.656
1490.855, 72.514
1492.031, 94.436
1493.207, 56.439
1494.383, 5.452
1495.559, 88.791
1496.734, 56.207
1497.909, 9.690
1499.084, 0.000
##END=



