##NAMES=Baryte
##RRUFFID=R040036
##IDEAL CHEMISTRY=BaS^6+^O_4_
##LOCALITY=Cumbria County, England
##OWNER=RRUFF
##SOURCE=University of Arizona Mineral Museum
##DESCRIPTION=Golden brown tabular crystal
##STATUS=The identification of this mineral has been confirmed by X-ray diffraction and chemical analysis
##URL=rruff.info/R040036
##MEASURED CHEMISTRY=Ba_1.00_S_1.00_O_4_; trace amounts of Pb
##PIN_ID=M00028
##ORIENTATION=Laser parallel to -a* (-1 0 0). Fiducial mark perpendicular to laser is parallel to -b [0 -1 0]
26.288, 0.000
27.694, 11.157
29.099, 17.265
30.504, 23.799
31.909, 40.640
33.313, 25.475
34.717, 24.751
36.121, 29.109
37.525, 39.248
38.929, 33.911
40.332, 40.940
41.735, 34.027
43.138, 37.059
44.541, 41.986
45.943, 50.645
47.345, 49.540
48.747, 56.725
50.149, 55.320
51.551, 53.200
52.952, 60.222
54.353, 53.975
55.754, 69.670
57.155, 69.248
58.555, 85.700
59.955, 71.876
61.355, 95.682
62.755, 89.343
64.154, 71.475
65.553, 67.627
66.952, 52.801
68.351, 46.999
69.750, 47.222
71.148, 58.470
72.546, 40.741
73.944, 48.034
75.342, 46.346
76.739, 33.675
78.136, 22.019
79.533, 5.374
80.930, 4.262
82.327, 16.894
83.723, 25.521
85.119, 34.141
86.515, 32.755
87.910, 32.362
89.306, 35.962
90.701, 42.553
92.096, 44.136
93.490, 16.710
94.885, 24.275
96.279, 8.170
97.673, 36.625
99.067, 58.091
100.461, 114.567
101.854, 129.064
103.247, 155.610
104.640, 145.198
106.032, 222.825
107.425, 252.484
108.817, 297.171
110.209, 386.882
111.601, 349.613
112.992, 478.359
114.384, 507.118
115.775, 765.886
117.166, 697.659
118.556, 1179.432
119.947, 1465.203
121.337, 1006.972
122.727, 824.736
124.116, 605.496
125.506, 680.252
126.895, 580.004
128.284, 596.748
129.673, 625.473
131.062, 525.168
132.450, 609.831
133.838, 513.463
135.226, 627.065
136.614, 508.652
138.001, 532.245
139.388, 563.847
140.775, 512.460
142.162, 642.082
143.549, 472.714
144.935, 599.356
146.321, 529.008
147.707, 534.670
149.093, 617.342
150.478, 565.024
151.863, 699.717
153.248, 595.419
154.633, 654.132
156.018, 583.855
157.402, 561.588
158.786, 591.332
160.170, 476.086
161.554, 586.851
162.937, 464.626
164.320, 536.412
165.703, 462.209
167.086, 469.017
168.469, 483.836
169.851, 421.666
171.233, 522.506
172.615, 405.358
173.996, 526.221
175.378, 411.094
176.759, 446.073
178.140, 516.017
179.521, 401.923
180.901, 532.787
182.281, 403.608
183.662, 490.386
185.041, 506.119
186.421, 481.806
187.800, 588.449
189.180, 494.050
190.558, 655.606
191.937, 513.114
193.316, 535.564
194.694, 517.971
196.072, 422.335
197.450, 516.655
198.827, 369.940
200.205, 506.193
201.582, 385.411
202.959, 419.595
204.336, 439.676
205.712, 339.718
207.088, 471.653
208.465, 341.561
209.840, 455.326
211.216, 374.168
212.591, 382.994
213.967, 389.752
215.341, 339.507
216.716, 441.208
218.091, 312.886
219.465, 416.586
220.839, 349.358
222.213, 379.035
223.586, 412.787
224.960, 325.545
226.333, 419.212
227.706, 284.788
229.079, 403.135
230.451, 330.301
231.823, 335.194
233.195, 419.908
234.567, 270.443
235.939, 381.031
237.310, 283.649
238.682, 305.206
240.052, 316.630
241.423, 250.041
242.794, 376.111
244.164, 256.026
245.534, 359.676
246.904, 256.615
248.274, 339.667
249.643, 324.739
251.012, 245.819
252.381, 354.906
253.750, 205.001
255.118, 329.103
256.487, 284.213
257.855, 295.330
259.223, 357.454
260.590, 230.585
261.958, 365.723
263.325, 236.868
264.692, 352.021
266.059, 314.180
267.425, 285.346
268.791, 358.520
270.158, 217.701
271.523, 345.891
272.889, 218.089
274.255, 305.295
275.620, 289.508
276.985, 227.728
278.350, 339.957
279.714, 178.194
281.078, 297.440
282.443, 240.693
283.806, 242.955
285.170, 317.228
286.534, 185.508
287.897, 322.798
289.260, 181.096
290.623, 261.402
291.985, 227.719
293.348, 189.044
294.710, 311.377
296.072, 156.719
297.433, 285.070
298.795, 178.432
300.156, 232.802
301.517, 256.181
302.878, 171.569
304.239, 295.965
305.599, 157.369
306.959, 247.782
308.319, 210.204
309.679, 196.634
311.038, 258.073
312.398, 121.520
313.757, 279.975
315.116, 129.439
316.474, 205.912
317.833, 240.393
319.191, 149.882
320.549, 234.380
321.907, 116.887
323.264, 228.401
324.622, 130.919
325.979, 162.441
327.336, 228.966
328.692, 100.496
330.049, 281.029
331.405, 136.568
332.761, 207.110
334.117, 215.658
335.473, 142.212
336.828, 265.770
338.183, 93.335
339.538, 226.905
340.893, 150.482
342.247, 185.065
343.602, 211.656
344.956, 84.253
346.310, 251.857
347.663, 116.469
349.017, 207.089
350.370, 162.716
351.723, 142.351
353.076, 243.996
354.428, 70.649
355.780, 222.312
357.133, 78.984
358.484, 130.666
359.836, 181.358
361.188, 44.060
362.539, 230.772
363.890, 59.510
365.241, 152.243
366.591, 137.987
367.942, 90.740
369.292, 202.505
370.642, 57.280
371.992, 205.065
373.341, 64.861
374.691, 113.669
376.040, 207.489
377.388, 57.322
378.737, 212.171
380.086, 66.034
381.434, 183.914
382.782, 148.811
384.130, 58.723
385.477, 216.652
386.825, 8.151
388.172, 144.114
389.519, 83.096
390.865, 153.092
392.212, 198.099
393.558, 55.116
394.904, 214.143
396.250, 86.182
397.596, 135.229
398.941, 131.287
400.286, 60.370
401.631, 170.445
402.976, 14.535
404.321, 201.633
405.665, 88.741
407.009, 111.858
408.353, 162.984
409.697, 31.121
411.040, 192.267
412.384, 75.422
413.727, 128.587
415.070, 160.760
416.412, 56.429
417.755, 209.625
419.097, 79.830
420.439, 170.044
421.781, 175.266
423.122, 102.707
424.464, 240.950
425.805, 117.202
427.146, 265.490
428.486, 165.760
429.827, 198.325
431.167, 311.618
432.507, 212.920
433.847, 404.231
435.187, 306.550
436.526, 434.102
437.865, 550.442
439.204, 539.792
440.543, 880.149
441.882, 862.516
443.220, 1298.415
444.558, 1562.804
445.896, 2063.203
447.234, 3032.610
448.572, 3815.025
449.909, 5663.452
451.246, 7308.887
452.583, 9722.329
453.919, 11130.782
455.256, 10139.239
456.592, 8381.716
457.928, 6043.199
459.264, 4242.691
460.600, 2970.191
461.935, 1957.699
463.270, 1624.221
464.605, 1050.751
465.940, 947.288
467.274, 724.835
468.609, 514.390
469.943, 560.959
471.277, 315.536
472.610, 465.120
473.944, 300.715
475.277, 254.317
476.610, 293.932
477.943, 118.554
479.275, 234.185
480.608, 145.822
481.940, 179.468
483.272, 189.122
484.604, 67.783
485.935, 224.452
487.267, 60.131
488.598, 128.818
489.929, 142.514
491.260, 71.218
492.590, 233.929
493.920, 19.648
495.250, 160.373
496.580, 106.106
497.910, 60.846
499.239, 174.594
500.569, 3.349
501.898, 157.111
503.226, 36.881
504.555, 114.657
505.883, 151.440
507.212, 0.767
508.540, 205.032
509.867, 48.839
511.195, 112.651
512.522, 165.470
513.849, 25.300
515.176, 170.135
516.503, 11.978
517.829, 137.826
519.156, 124.733
520.482, 48.598
521.808, 183.470
523.133, 38.348
524.459, 141.232
525.784, 94.192
527.109, 13.089
528.434, 118.992
529.758, 49.100
531.083, 158.809
532.407, 65.607
533.731, 68.526
535.055, 156.451
536.378, 6.380
537.701, 161.315
539.025, 39.759
540.348, 90.704
541.670, 134.653
542.993, 1.392
544.315, 150.569
545.637, 13.395
546.959, 109.366
548.281, 110.341
549.602, 5.321
550.923, 150.306
552.244, 5.588
553.565, 92.581
554.886, 76.579
556.206, 10.580
557.526, 152.593
558.846, 40.565
560.166, 120.450
561.486, 62.469
562.805, 3.491
564.124, 165.520
565.443, 21.093
566.762, 198.941
568.080, 80.977
569.399, 3.983
570.717, 160.060
572.035, 25.654
573.352, 151.392
574.670, 35.441
575.987, 45.492
577.304, 136.547
578.621, 20.547
579.938, 145.510
581.254, 27.571
582.570, 48.634
583.886, 136.699
585.202, 38.078
586.518, 178.987
587.833, 32.272
589.148, 107.341
590.463, 132.412
591.778, 35.069
593.093, 175.144
594.407, 11.232
595.721, 101.321
597.035, 141.413
598.349, 25.180
599.662, 210.275
600.976, 21.371
602.289, 184.468
603.602, 157.566
604.914, 70.931
606.227, 250.032
607.539, 95.134
608.851, 249.406
610.163, 299.510
611.475, 324.008
612.786, 639.113
614.097, 681.219
615.408, 1212.787
616.719, 1613.894
618.030, 1789.966
619.340, 1838.074
620.651, 1264.182
621.961, 1157.290
623.270, 821.399
624.580, 589.677
625.889, 676.785
627.199, 425.894
628.507, 587.495
629.816, 459.603
631.125, 444.244
632.433, 530.352
633.741, 322.459
635.049, 439.572
636.357, 253.678
637.664, 225.784
638.972, 326.889
640.279, 115.993
641.586, 258.327
642.893, 170.429
644.199, 155.546
645.505, 309.647
646.811, 107.747
648.117, 338.470
649.423, 167.553
650.728, 213.650
652.034, 264.746
653.339, 61.840
654.644, 258.720
655.948, 87.812
657.253, 136.902
658.557, 187.991
659.861, 0.922
661.165, 216.185
662.468, 67.268
663.772, 114.349
665.075, 182.428
666.378, 1.495
667.681, 194.003
668.983, 29.075
670.286, 42.146
671.588, 147.708
672.890, 38.225
674.192, 159.848
675.493, 38.902
676.795, 96.952
678.096, 140.001
679.397, 20.953
680.697, 161.204
681.998, 63.240
683.298, 85.274
684.598, 129.939
685.898, 35.032
687.198, 150.986
688.498, 17.001
689.797, 97.014
691.096, 167.207
692.395, 9.786
693.694, 178.215
694.992, 32.213
696.290, 83.209
697.589, 186.749
698.886, 31.262
700.184, 198.234
701.482, 22.209
702.779, 68.181
704.076, 147.606
705.373, 10.429
706.669, 160.323
707.966, 72.279
709.262, 54.231
710.558, 181.152
711.854, 47.902
713.150, 159.747
714.445, 30.674
715.740, 57.597
717.035, 137.517
718.330, 30.566
719.625, 172.120
720.919, 58.021
722.214, 73.919
723.508, 193.814
724.801, 43.295
726.095, 145.062
727.388, 3.064
728.682, 88.802
729.975, 147.666
731.267, 18.474
732.560, 186.376
733.852, 48.517
735.145, 44.360
736.437, 210.199
737.728, 63.965
739.020, 205.851
740.311, 50.663
741.603, 60.471
742.894, 175.275
744.184, 45.924
745.475, 120.860
746.765, 84.641
748.055, 1.418
749.345, 166.189
750.635, 51.044
751.925, 124.706
753.214, 81.452
754.503, 10.805
755.792, 178.929
757.081, 32.341
758.370, 100.376
759.658, 59.089
760.946, 26.798
762.234, 177.504
763.522, 2.206
764.809, 154.901
766.097, 103.594
767.384, 11.718
768.671, 185.961
769.958, 13.363
771.244, 110.303
772.530, 113.966
773.817, 13.625
775.102, 260.279
776.388, 22.930
777.674, 146.577
778.959, 151.220
780.244, 0.140
781.529, 195.493
782.814, 13.123
784.098, 103.748
785.383, 194.370
786.667, 17.012
787.951, 174.595
789.235, 77.200
790.518, 96.800
791.801, 210.397
793.084, 24.009
794.367, 183.573
795.650, 128.151
796.933, 66.725
798.215, 228.296
799.497, 34.188
800.779, 198.366
802.061, 100.917
803.342, 35.464
804.624, 205.007
805.905, 8.524
807.186, 175.008
808.466, 69.537
809.747, 10.062
811.027, 214.586
812.307, 12.221
813.587, 168.738
814.867, 114.251
816.146, 17.761
817.426, 221.268
818.705, 4.266
819.984, 163.765
821.263, 148.260
822.541, 19.247
823.819, 233.236
825.098, 71.856
826.375, 77.333
827.653, 172.807
828.931, 0.277
830.208, 149.743
831.485, 16.912
832.762, 39.372
834.039, 154.829
835.315, 58.717
836.592, 138.719
837.868, 61.327
839.144, 63.760
840.420, 227.190
841.695, 12.382
842.970, 218.038
844.246, 157.100
845.521, 101.516
846.795, 293.930
848.070, 31.341
849.344, 217.750
850.618, 210.916
851.892, 62.322
853.166, 309.725
854.440, 68.126
855.713, 208.524
856.986, 229.075
858.259, 83.473
859.532, 317.869
860.804, 140.263
862.077, 202.655
863.349, 285.889
864.621, 90.280
865.893, 302.450
867.164, 184.840
868.436, 72.228
869.707, 128.031
870.978, 94.584
872.248, 34.777
873.519, 33.137
874.789, 9.495
876.060, 237.177
877.330, 25.532
878.599, 195.886
879.869, 203.238
881.138, 53.589
882.408, 261.674
883.677, 51.034
884.945, 173.393
886.214, 195.582
887.482, 28.949
888.751, 266.922
890.019, 52.287
891.287, 86.651
892.554, 237.554
893.822, 43.919
895.089, 286.319
896.356, 159.683
897.623, 114.047
898.889, 299.409
900.156, 97.772
901.422, 212.965
902.688, 222.326
903.954, 114.687
905.220, 298.554
906.485, 97.915
907.750, 218.742
909.015, 266.101
910.280, 63.460
911.545, 335.813
912.809, 109.172
914.074, 153.534
915.338, 235.895
916.602, 22.256
917.865, 252.391
919.129, 97.755
920.392, 89.105
921.655, 249.470
922.918, 32.835
924.181, 220.578
925.443, 208.945
926.706, 67.312
927.968, 266.682
929.230, 64.052
930.491, 194.636
931.753, 211.007
933.014, 70.378
934.276, 299.755
935.536, 111.142
936.797, 142.498
938.058, 264.876
939.318, 39.256
940.578, 266.636
941.838, 207.017
943.098, 77.976
944.358, 245.361
945.617, 31.746
946.876, 209.084
948.135, 219.472
949.394, 77.845
950.653, 323.239
951.911, 95.633
953.169, 183.028
954.427, 248.425
955.685, 11.709
956.943, 249.111
958.200, 142.514
959.458, 150.267
960.715, 352.672
961.971, 116.083
963.228, 339.495
964.485, 383.908
965.741, 304.139
966.997, 598.554
968.253, 372.973
969.508, 492.392
970.764, 642.813
972.019, 453.688
973.274, 760.113
974.529, 674.542
975.784, 730.973
977.039, 990.406
978.293, 982.384
979.547, 1485.820
980.801, 1936.259
982.055, 2585.700
983.308, 4381.142
984.562, 7068.586
985.815, 14955.032
987.068, 33123.488
988.321, 51871.945
989.573, 52930.402
990.826, 33948.859
992.078, 18167.875
993.330, 9846.343
994.582, 5418.812
995.833, 3565.281
997.085, 2273.753
998.336, 1594.236
999.587, 1401.727
1000.838, 1034.219
1002.088, 1010.382
1003.339, 947.880
1004.589, 637.378
1005.839, 779.882
1007.089, 498.094
1008.339, 468.602
1009.588, 615.111
1010.838, 259.622
1012.087, 470.144
1013.336, 444.667
1014.584, 259.193
1015.833, 451.720
1017.081, 253.249
1018.330, 339.196
1019.577, 437.735
1020.825, 171.378
1022.073, 443.933
1023.320, 308.482
1024.567, 238.039
1025.814, 408.597
1027.061, 161.157
1028.308, 347.290
1029.554, 274.856
1030.800, 112.428
1032.046, 383.065
1033.292, 166.645
1034.538, 250.226
1035.783, 313.809
1037.029, 76.395
1038.274, 339.982
1039.519, 166.571
1040.763, 96.164
1042.008, 320.764
1043.252, 97.368
1044.496, 178.974
1045.740, 185.581
1046.984, 71.191
1048.228, 306.288
1049.471, 175.901
1050.714, 192.515
1051.957, 335.787
1053.200, 101.406
1054.442, 342.109
1055.685, 295.731
1056.927, 251.355
1058.169, 525.269
1059.411, 115.899
1060.652, 240.530
1061.894, 278.669
1063.135, 61.303
1064.376, 253.939
1065.617, 144.582
1066.858, 41.227
1068.098, 273.960
1069.339, 0.607
1070.579, 213.255
1071.819, 216.919
1073.058, 85.575
1074.298, 299.232
1075.537, 136.894
1076.776, 185.557
1078.015, 311.481
1079.254, 110.149
1080.493, 393.818
1081.731, 358.575
1082.969, 323.247
1084.207, 652.919
1085.445, 401.593
1086.683, 464.268
1087.920, 464.155
1089.157, 181.836
1090.394, 443.519
1091.631, 232.203
1092.868, 190.890
1094.105, 408.580
1095.341, 190.272
1096.577, 430.964
1097.813, 585.686
1099.049, 461.381
1100.284, 925.078
1101.519, 1006.776
1102.755, 1331.475
1103.990, 1934.175
1105.224, 1763.876
1106.459, 1808.587
1107.693, 1485.299
1108.928, 952.011
1110.162, 965.725
1111.395, 526.438
1112.629, 478.155
1113.863, 537.872
1115.096, 207.590
1116.329, 370.315
1117.562, 279.040
1118.795, 138.766
1120.027, 367.492
1121.259, 61.219
1122.492, 208.945
1123.723, 256.672
1124.955, 23.600
1126.187, 214.121
1127.418, 122.844
1128.649, 13.566
1129.880, 303.289
1131.111, 22.016
1132.342, 178.738
1133.572, 224.462
1134.802, 26.760
1136.033, 260.956
1137.262, 108.672
1138.492, 94.388
1139.722, 324.106
1140.951, 43.835
1142.180, 246.563
1143.409, 284.294
1144.638, 45.023
1145.866, 302.753
1147.095, 78.482
1148.323, 94.211
1149.551, 210.939
1150.779, 100.292
1152.006, 71.413
1153.234, 0.877
1154.461, 82.714
1155.688, 204.974
1156.915, 31.662
1158.141, 80.348
1159.368, 270.034
1160.594, 20.280
1161.820, 212.398
1163.046, 185.078
1164.272, 3.484
1165.498, 321.161
1166.723, 75.838
1167.948, 128.514
1169.173, 268.188
1170.398, 25.862
1171.623, 236.535
1172.847, 138.207
1174.071, 29.872
1175.295, 293.541
1176.519, 44.209
1177.743, 151.906
1178.966, 241.571
1180.190, 14.765
1181.413, 205.892
1182.636, 106.548
1183.858, 21.797
1185.081, 248.849
1186.303, 4.494
1187.526, 58.136
1188.748, 212.777
1189.969, 5.584
1191.191, 263.050
1192.412, 193.683
1193.634, 14.686
1194.855, 244.937
1196.076, 51.559
1197.296, 116.681
1198.517, 247.299
1199.737, 39.085
1200.957, 206.519
1202.177, 149.112
1203.397, 21.711
1204.617, 317.309
1205.836, 73.904
1207.055, 165.190
1208.274, 316.781
1209.493, 2.631
1210.712, 235.023
1211.930, 135.603
1213.148, 8.181
1214.367, 325.756
1215.584, 52.329
1216.802, 136.898
1218.020, 271.466
1219.237, 0.031
1220.454, 226.585
1221.671, 191.142
1222.888, 30.697
1224.105, 297.562
1225.321, 62.111
1226.537, 122.657
1227.753, 257.201
1228.969, 22.741
1230.185, 261.582
1231.400, 200.117
1232.616, 41.648
1233.831, 345.269
1235.046, 167.795
1236.261, 151.318
1237.475, 366.334
1238.689, 70.854
1239.904, 301.423
1241.118, 290.937
1242.332, 89.448
1243.545, 314.016
1244.759, 158.520
1245.972, 116.021
1247.185, 303.891
1248.398, 61.385
1249.611, 242.878
1250.823, 224.369
1252.036, 33.857
1253.248, 344.343
1254.460, 159.827
1255.671, 122.299
1256.883, 321.264
1258.095, 40.731
1259.306, 92.196
1260.517, 176.697
1261.728, 73.844
1262.938, 191.604
1264.149, 98.135
1265.359, 22.578
1266.569, 356.347
1267.779, 130.782
1268.989, 165.215
1270.199, 313.111
1271.408, 51.534
1272.617, 280.955
1273.826, 223.772
1275.035, 121.188
1276.244, 369.595
1277.452, 179.000
1278.661, 155.401
1279.869, 356.935
1281.077, 27.332
1282.285, 291.316
1283.492, 257.892
1284.700, 6.821
1285.907, 345.553
1287.114, 201.934
1288.321, 72.308
1289.527, 326.680
1290.734, 47.050
1291.940, 171.849
1293.146, 279.540
1294.352, 19.104
1295.558, 261.188
1296.763, 183.702
1297.969, 57.047
1299.174, 341.382
1300.379, 83.780
1301.584, 189.107
1302.788, 339.431
1303.993, 30.250
1305.197, 297.061
1306.401, 247.369
1307.605, 28.669
1308.809, 349.967
1310.013, 137.261
1311.216, 70.066
1312.419, 340.341
1313.622, 49.613
1314.825, 247.226
1316.028, 294.492
1317.230, 46.671
1318.432, 356.931
1319.634, 88.187
1320.836, 96.149
1322.038, 340.398
1323.240, 39.643
1324.441, 243.374
1325.642, 300.602
1326.843, 9.173
1328.044, 297.047
1329.245, 271.261
1330.445, 40.370
1331.645, 372.561
1332.845, 108.749
1334.045, 156.922
1335.245, 354.097
1336.445, 17.733
1337.644, 240.427
1338.843, 224.582
1340.042, 18.473
1341.241, 273.619
1342.440, 144.760
1343.638, 93.810
1344.836, 342.942
1346.034, 59.070
1347.232, 196.194
1348.430, 311.313
1349.628, 30.759
1350.825, 206.347
1352.022, 237.448
1353.219, 1.455
1354.416, 293.637
1355.613, 137.725
1356.809, 96.811
1358.005, 308.893
1359.202, 1.056
1360.398, 198.019
1361.593, 246.093
1362.789, 14.164
1363.984, 309.232
1365.179, 161.299
1366.374, 9.120
1367.569, 296.944
1368.764, 22.008
1369.958, 41.074
1371.153, 288.142
1372.347, 20.140
1373.541, 199.118
1374.735, 257.056
1375.928, 47.042
1377.122, 304.236
1378.315, 154.509
1379.508, 66.778
1380.701, 346.042
1381.893, 61.307
1383.086, 176.567
1384.278, 329.678
1385.470, 19.847
1386.662, 312.077
1387.854, 213.300
1389.046, 23.516
1390.237, 363.722
1391.428, 137.923
1392.619, 14.119
1393.810, 378.275
1395.001, 38.940
1396.191, 145.152
1397.382, 277.359
1398.572, 8.434
1399.762, 233.873
1400.952, 203.061
1402.141, 5.757
1403.331, 334.420
1404.520, 94.312
1405.709, 104.466
1406.898, 367.575
1408.087, 7.722
1409.275, 225.868
1410.464, 281.020
1411.652, 39.830
1412.840, 321.318
1414.028, 190.465
1415.215, 39.616
1416.403, 340.031
1417.590, 71.175
1418.777, 48.324
1419.964, 336.472
1421.151, 3.453
1422.338, 197.568
1423.524, 289.699
1424.710, 4.832
1425.896, 298.963
1427.082, 238.438
1428.268, 14.547
1429.453, 406.117
1430.639, 141.216
1431.824, 140.776
1433.009, 426.866
1434.194, 102.788
1435.378, 257.947
1436.563, 374.907
1437.747, 118.964
1438.931, 386.901
1440.115, 316.200
1441.299, 144.199
1442.482, 495.187
1443.666, 230.163
1444.849, 224.050
1446.032, 548.046
1447.215, 214.943
1448.397, 355.719
1449.580, 496.683
1450.762, 149.642
1451.944, 489.449
1453.126, 431.369
1454.308, 182.275
1455.490, 529.184
1456.671, 311.711
1457.852, 251.275
1459.033, 538.042
1460.214, 196.796
1461.395, 381.537
1462.575, 500.237
1463.756, 123.932
1464.936, 406.048
1466.116, 396.496
1467.296, 71.148
1468.475, 486.787
1469.655, 208.416
1470.834, 90.032
1472.013, 402.670
1473.192, 108.331
1474.371, 151.965
1475.550, 407.570
1476.728, 12.150
1477.906, 329.720
1479.084, 304.333
1480.262, 33.922
1481.440, 423.671
1482.617, 231.416
1483.795, 97.226
1484.972, 445.094
1486.149, 130.994
1487.326, 131.929
1488.502, 404.904
1489.679, 54.931
1490.855, 201.793
1492.031, 337.965
1493.207, 14.769
1494.383, 271.599
1495.559, 169.084
