##NAMES=Baryte
##RRUFFID=R040036
##IDEAL CHEMISTRY=BaS^6+^O_4_
##LOCALITY=Cumbria County, England
##OWNER=RRUFF
##SOURCE=University of Arizona Mineral Museum
##DESCRIPTION=Golden brown tabular crystal
##STATUS=The identification of this mineral has been confirmed by X-ray diffraction and chemical analysis
##URL=rruff.info/R040036
##MEASURED CHEMISTRY=Ba_1.00_S_1.00_O_4_; trace amounts of Pb
##PIN_ID=M00028
##ORIENTATION=Laser parallel to -a* (-1 0 0). Fiducial mark perpendicular to laser is parallel to -b [0 -1 0]
26.288, 0.000
27.694, 20.630
29.099, 16.078
30.504, 35.884
31.909, 25.887
33.313, 40.005
34.717, 41.268
36.121, 21.553
37.525, 34.812
38.929, 45.958
40.332, 33.736
41.735, 37.320
43.138, 56.719
44.541, 58.949
45.943, 56.473
47.345, 50.754
48.747, 61.384
50.149, 46.737
51.551, 66.106
52.952, 42.774
54.353, 45.190
55.754, 49.021
57.155, 53.275
58.555, 57.907
59.955, 65.845
61.355, 55.727
62.755, 43.963
64.154, 38.378
65.553, 19.503
66.952, 17.641
68.351, 15.793
69.750, 6.961
71.148, 16.143
72.546, 2.338
73.944, 8.545
75.342, 9.761
76.739, 8.985
78.136, 8.214
79.533, 2.554
80.930, 5.679
82.327, 15.089
83.723, 1.857
85.119, 3.626
86.515, 39.395
87.910, 31.163
89.306, 26.931
90.701, 14.697
92.096, 9.217
93.490, 20.225
94.885, 4.013
96.279, 16.254
97.673, 20.497
99.067, 43.743
100.461, 59.992
101.854, 42.254
103.247, 98.558
104.640, 111.898
106.032, 161.269
107.425, 175.666
108.817, 217.085
110.209, 291.520
111.601, 242.969
112.992, 376.426
114.384, 484.890
115.775, 426.355
117.166, 401.818
118.556, 385.277
119.947, 551.730
121.337, 546.174
122.727, 587.605
124.116, 541.023
125.506, 637.427
126.895, 762.822
128.284, 834.204
129.673, 941.570
131.062, 785.920
132.450, 779.240
133.838, 566.534
135.226, 556.811
136.614, 453.079
138.001, 422.347
139.388, 505.617
140.775, 421.890
142.162, 527.169
143.549, 491.451
144.935, 680.737
146.321, 700.027
147.707, 766.320
149.093, 826.618
150.478, 764.919
151.863, 774.224
153.248, 667.532
154.633, 623.845
156.018, 566.161
157.402, 459.482
158.786, 442.806
160.170, 380.134
161.554, 386.466
162.937, 343.802
164.320, 351.142
165.703, 317.487
167.086, 331.835
168.469, 367.188
169.851, 286.544
171.233, 357.906
172.615, 321.271
173.996, 349.640
175.378, 326.014
176.759, 290.520
178.140, 351.985
179.521, 273.405
180.901, 336.779
182.281, 272.104
183.662, 296.381
185.041, 300.608
186.421, 279.786
187.800, 389.914
189.180, 330.993
190.558, 372.020
191.937, 359.996
193.316, 323.922
194.694, 309.799
196.072, 267.624
197.450, 316.401
198.827, 239.130
200.205, 257.800
201.582, 238.448
202.959, 212.002
204.336, 255.508
205.712, 206.986
207.088, 272.382
208.465, 213.734
209.840, 252.074
211.216, 237.357
212.591, 212.587
213.967, 242.795
215.341, 176.893
216.716, 233.952
218.091, 176.003
219.465, 223.946
220.839, 201.017
222.213, 158.907
223.586, 223.900
224.960, 139.111
226.333, 226.128
227.706, 177.144
229.079, 208.968
230.451, 176.966
231.823, 187.517
233.195, 222.386
234.567, 157.223
235.939, 212.237
237.310, 163.452
238.682, 171.797
240.052, 188.414
241.423, 114.167
242.794, 206.674
244.164, 101.737
245.534, 211.951
246.904, 155.212
248.274, 162.596
249.643, 175.055
251.012, 115.444
252.381, 165.909
253.750, 110.377
255.118, 160.911
256.487, 142.384
257.855, 119.859
259.223, 203.336
260.590, 107.816
261.958, 191.298
263.325, 138.782
264.692, 168.268
266.059, 163.757
267.425, 120.248
268.791, 202.741
270.158, 124.237
271.523, 173.735
272.889, 120.236
274.255, 146.740
275.620, 157.246
276.985, 98.756
278.350, 177.268
279.714, 104.783
281.078, 163.302
282.443, 152.824
283.806, 93.349
285.170, 156.878
286.534, 90.410
287.897, 124.946
289.260, 92.486
290.623, 121.029
291.985, 108.575
293.348, 55.126
294.710, 182.679
296.072, 65.237
297.433, 141.798
298.795, 110.362
300.156, 93.930
301.517, 137.502
302.878, 49.077
304.239, 140.656
305.599, 84.238
306.959, 137.824
308.319, 111.414
309.679, 49.007
311.038, 149.604
312.398, 46.204
313.757, 134.808
315.116, 62.416
316.474, 76.027
317.833, 96.642
319.191, 31.260
320.549, 106.883
321.907, 16.508
323.264, 109.137
324.622, 68.765
325.979, 44.391
327.336, 94.016
328.692, 40.640
330.049, 118.264
331.405, 36.886
332.761, 83.509
334.117, 116.132
335.473, 36.755
336.828, 112.378
338.183, 26.003
339.538, 96.628
340.893, 89.255
342.247, 55.883
343.602, 108.513
344.956, 29.145
346.310, 97.779
347.663, 56.416
349.017, 66.055
350.370, 97.698
351.723, 10.344
353.076, 105.994
354.428, 10.647
355.780, 60.305
357.133, 35.967
358.484, 38.634
359.836, 81.305
361.188, 5.019
362.539, 95.663
363.890, 21.515
365.241, 37.208
366.591, 45.907
367.942, 0.388
369.292, 99.323
370.642, 20.947
371.992, 69.774
373.341, 43.501
374.691, 23.234
376.040, 81.974
377.388, 11.720
378.737, 70.474
380.086, 29.235
381.434, 65.002
382.782, 73.782
384.130, 3.429
385.477, 89.369
386.825, 6.176
388.172, 70.989
389.519, 52.813
390.865, 13.644
392.212, 110.479
393.558, 5.319
394.904, 106.164
396.250, 44.016
397.596, 62.873
398.941, 82.734
400.286, 9.401
401.631, 110.467
402.976, 21.340
404.321, 51.217
405.665, 56.098
407.009, 40.983
408.353, 90.872
409.697, 10.768
411.040, 89.669
412.384, 10.574
413.727, 44.483
415.070, 108.396
416.412, 7.320
417.755, 79.249
419.097, 31.181
420.439, 61.117
421.781, 118.058
423.122, 42.002
424.464, 125.951
425.805, 39.903
427.146, 114.860
428.486, 94.821
429.827, 73.792
431.167, 190.767
432.507, 121.745
433.847, 216.728
435.187, 202.714
436.526, 267.707
437.865, 366.704
439.204, 355.705
440.543, 533.712
441.882, 652.724
443.220, 853.740
444.558, 1147.761
445.896, 1477.785
447.234, 2142.813
448.572, 2769.844
449.909, 4023.883
451.246, 5195.925
452.583, 6654.972
453.919, 7563.023
455.256, 6741.077
456.592, 5697.141
457.928, 4197.208
459.264, 3244.279
460.600, 2659.353
461.935, 2177.430
463.270, 1993.513
464.605, 1465.599
465.940, 1143.689
467.274, 826.786
468.609, 508.886
469.943, 485.992
471.277, 293.102
472.610, 318.215
473.944, 227.333
475.277, 171.454
476.610, 221.580
477.943, 76.709
479.275, 172.842
480.608, 119.980
481.940, 101.120
483.272, 122.265
484.604, 48.412
485.935, 139.563
487.267, 51.718
488.598, 86.875
489.929, 120.037
491.260, 52.202
492.590, 132.370
493.920, 18.545
495.250, 87.723
496.580, 80.906
497.910, 5.093
499.239, 101.282
500.569, 7.477
501.898, 80.675
503.226, 49.876
504.555, 15.081
505.883, 123.258
507.212, 17.529
508.540, 126.686
509.867, 57.903
511.195, 74.123
512.522, 84.338
513.849, 1.434
515.176, 110.605
516.503, 33.838
517.829, 76.075
519.156, 111.316
520.482, 8.559
521.808, 111.804
523.133, 26.051
524.459, 98.302
525.784, 106.735
527.109, 28.991
528.434, 100.227
529.758, 11.488
531.083, 90.751
532.407, 69.454
533.731, 39.721
535.055, 110.990
536.378, 23.261
537.701, 93.538
539.025, 73.526
540.348, 69.807
541.670, 85.090
542.993, 32.375
544.315, 94.603
545.637, 32.988
546.959, 52.285
548.281, 109.583
549.602, 18.882
550.923, 102.183
552.244, 22.258
553.565, 92.562
554.886, 96.867
556.206, 14.173
557.526, 112.483
558.846, 8.315
560.166, 58.627
561.486, 78.940
562.805, 2.254
564.124, 105.571
565.443, 30.914
566.762, 90.233
568.080, 71.552
569.399, 14.961
570.717, 116.282
572.035, 11.890
573.352, 131.213
574.670, 53.536
575.987, 37.860
577.304, 135.184
578.621, 30.043
579.938, 112.368
581.254, 58.694
582.570, 63.643
583.886, 154.969
585.202, 7.591
586.518, 131.918
587.833, 70.245
589.148, 131.572
590.463, 171.899
591.778, 91.983
593.093, 208.310
594.407, 91.637
595.721, 148.161
597.035, 194.488
598.349, 123.940
599.662, 260.267
600.976, 179.593
602.289, 224.933
603.602, 309.258
604.914, 285.895
606.227, 483.220
607.539, 482.544
608.851, 717.552
610.163, 943.875
611.475, 1168.811
612.786, 1867.133
614.097, 2516.456
615.408, 3519.043
616.719, 4457.363
618.030, 4759.857
619.340, 4812.175
620.651, 4016.493
621.961, 3264.103
623.270, 2598.418
624.580, 2055.733
625.889, 1753.046
627.199, 1288.358
628.507, 1208.670
629.816, 1069.980
631.125, 912.371
632.433, 811.544
633.741, 613.984
635.049, 586.108
636.357, 419.411
637.664, 344.024
638.972, 365.324
640.279, 200.622
641.586, 271.376
642.893, 222.671
644.199, 200.964
645.505, 281.255
646.811, 165.545
648.117, 271.511
649.423, 178.632
650.728, 147.917
652.034, 229.199
653.339, 108.479
654.644, 194.263
655.948, 113.527
657.253, 69.802
658.557, 172.287
659.861, 4.559
661.165, 144.828
662.468, 72.095
663.772, 56.359
665.075, 110.872
666.378, 4.868
667.681, 114.434
668.983, 35.687
670.286, 25.939
671.588, 95.198
672.890, 15.556
674.192, 79.684
675.493, 37.922
676.795, 33.156
678.096, 78.381
679.397, 26.390
680.697, 99.831
681.998, 28.048
683.298, 18.263
684.598, 110.869
685.898, 1.079
687.198, 106.285
688.498, 35.488
689.797, 20.689
691.096, 83.895
692.395, 27.911
693.694, 108.273
694.992, 38.455
696.290, 23.633
697.589, 112.236
698.886, 59.591
700.184, 106.564
701.482, 34.716
702.779, 17.865
704.076, 74.321
705.373, 7.464
706.669, 93.603
707.966, 21.739
709.262, 2.872
710.558, 94.001
711.854, 48.873
713.150, 88.238
714.445, 28.345
715.740, 31.449
717.035, 136.550
718.330, 16.352
719.625, 91.737
720.919, 30.823
722.214, 20.094
723.508, 81.979
724.801, 5.950
726.095, 75.114
727.388, 32.175
728.682, 29.232
729.975, 100.287
731.267, 25.662
732.560, 82.378
733.852, 26.425
735.145, 1.541
736.437, 106.488
737.728, 41.486
739.020, 80.525
740.311, 53.533
741.603, 11.538
742.894, 113.540
744.184, 6.462
745.475, 71.529
746.765, 89.518
748.055, 22.497
749.345, 72.478
750.635, 19.265
751.925, 54.698
753.214, 52.658
754.503, 4.386
755.792, 124.564
757.081, 0.489
758.370, 61.453
759.658, 42.392
760.946, 5.672
762.234, 119.257
763.522, 37.183
764.809, 44.106
766.097, 86.026
767.384, 13.943
768.671, 133.856
769.958, 3.766
771.244, 73.672
772.530, 84.575
773.817, 28.525
775.102, 114.364
776.388, 6.751
777.674, 52.129
778.959, 86.005
780.244, 13.122
781.529, 98.744
782.814, 13.607
784.098, 55.467
785.383, 107.323
786.667, 22.823
787.951, 95.021
789.235, 23.863
790.518, 19.703
791.801, 106.539
793.084, 15.628
794.367, 77.198
795.650, 42.021
796.933, 3.159
798.215, 138.656
799.497, 24.468
800.779, 102.277
802.061, 70.084
803.342, 5.112
804.624, 128.687
805.905, 4.304
807.186, 105.097
808.466, 69.887
809.747, 8.675
811.027, 141.460
812.307, 24.805
813.587, 63.585
814.867, 113.362
816.146, 37.863
817.426, 133.900
818.705, 21.953
819.984, 41.711
821.263, 56.467
822.541, 55.779
823.819, 97.959
825.098, 23.605
826.375, 11.339
827.653, 102.070
828.931, 5.800
830.208, 75.527
831.485, 59.479
832.762, 30.202
834.039, 85.923
835.315, 15.358
836.592, 111.355
837.868, 62.546
839.144, 6.255
840.420, 132.963
841.695, 11.332
842.970, 89.369
844.246, 88.044
845.521, 8.741
846.795, 161.437
848.070, 48.043
849.344, 84.736
850.618, 133.142
851.892, 17.832
853.166, 162.521
854.440, 64.208
855.713, 96.894
856.986, 176.045
858.259, 23.729
859.532, 199.411
860.804, 100.470
862.077, 92.150
863.349, 190.534
864.621, 21.212
865.893, 160.890
867.164, 110.567
868.436, 16.244
869.707, 132.163
870.978, 0.162
872.248, 57.512
873.519, 24.989
874.789, 1.661
876.060, 125.207
877.330, 3.879
878.599, 105.550
879.869, 105.207
881.138, 16.877
882.408, 164.234
883.677, 15.904
884.945, 65.573
886.214, 95.557
887.482, 15.769
888.751, 152.289
890.019, 67.959
891.287, 55.629
892.554, 157.034
893.822, 24.706
895.089, 166.204
896.356, 136.877
897.623, 45.550
898.889, 196.929
900.156, 72.603
901.422, 154.276
902.688, 154.950
903.954, 32.625
905.220, 206.298
906.485, 65.973
907.750, 121.566
909.015, 182.242
910.280, 34.919
911.545, 192.776
912.809, 99.454
914.074, 84.825
915.338, 156.507
916.602, 14.191
917.865, 149.422
919.129, 118.111
920.392, 43.802
921.655, 156.493
922.918, 19.185
924.181, 111.203
925.443, 121.900
926.706, 34.598
927.968, 217.301
929.230, 50.005
930.491, 80.206
931.753, 177.912
933.014, 39.620
934.276, 180.118
935.536, 130.829
936.797, 81.541
938.058, 200.257
939.318, 70.974
940.578, 169.443
941.838, 139.163
943.098, 63.840
944.358, 185.564
945.617, 78.290
946.876, 146.007
948.135, 162.738
949.394, 65.472
950.653, 182.209
951.911, 95.947
953.169, 142.695
954.427, 233.436
955.685, 50.183
956.943, 202.932
958.200, 163.682
959.458, 128.041
960.715, 260.795
961.971, 120.552
963.228, 249.312
964.485, 351.075
965.741, 308.831
966.997, 508.599
968.253, 368.373
969.508, 435.150
970.764, 558.928
972.019, 432.282
973.274, 658.065
974.529, 684.858
975.784, 682.653
977.039, 957.450
978.293, 1012.940
979.547, 1413.743
980.801, 1912.547
982.055, 2618.355
983.308, 4475.165
984.562, 7592.978
985.815, 16336.793
987.068, 35875.613
988.321, 52164.441
989.573, 51883.273
990.826, 32642.104
992.078, 17630.941
993.330, 9749.780
994.582, 5438.622
995.833, 3378.483
997.085, 2235.333
998.336, 1503.194
999.587, 1260.058
1000.838, 1009.925
1002.088, 894.914
1003.339, 880.789
1004.589, 653.665
1005.839, 651.549
1007.089, 494.425
1008.339, 375.314
1009.588, 494.207
1010.838, 305.103
1012.087, 401.007
1013.336, 402.913
1014.584, 221.823
1015.833, 389.735
1017.081, 263.650
1018.330, 259.570
1019.577, 345.492
1020.825, 222.417
1022.073, 328.323
1023.320, 308.972
1024.567, 210.912
1025.814, 339.855
1027.061, 179.801
1028.308, 258.153
1029.554, 261.106
1030.800, 131.062
1032.046, 297.078
1033.292, 142.040
1034.538, 152.006
1035.783, 219.976
1037.029, 71.948
1038.274, 206.923
1039.519, 129.901
1040.763, 61.881
1042.008, 208.868
1043.252, 59.857
1044.496, 99.849
1045.740, 189.845
1046.984, 28.848
1048.228, 199.594
1049.471, 82.604
1050.714, 94.616
1051.957, 196.503
1053.200, 69.523
1054.442, 226.554
1055.685, 276.581
1056.927, 223.610
1058.169, 368.171
1059.411, 151.209
1060.652, 166.250
1061.894, 190.140
1063.135, 45.186
1064.376, 188.234
1065.617, 114.287
1066.858, 91.343
1068.098, 264.425
1069.339, 72.488
1070.579, 150.554
1071.819, 229.143
1073.058, 155.214
1074.298, 328.287
1075.537, 306.364
1076.776, 350.443
1078.015, 512.525
1079.254, 500.611
1080.493, 856.699
1081.731, 1095.194
1082.969, 1219.287
1084.207, 1293.584
1085.445, 1286.480
1086.683, 1104.580
1087.920, 953.686
1089.157, 563.796
1090.394, 561.907
1091.631, 377.021
1092.868, 264.141
1094.105, 437.268
1095.341, 241.399
1096.577, 315.531
1097.813, 447.054
1099.049, 390.191
1100.284, 700.330
1101.519, 774.666
1102.755, 1013.815
1103.990, 1404.965
1105.224, 1286.117
1106.459, 1233.277
1107.693, 1040.439
1108.928, 645.603
1110.162, 686.768
1111.395, 375.936
1112.629, 306.107
1113.863, 347.280
1115.096, 129.455
1116.329, 263.636
1117.562, 201.819
1118.795, 77.003
1120.027, 210.193
1121.259, 73.384
1122.492, 130.576
1123.723, 207.771
1124.955, 65.966
1126.187, 130.164
1127.418, 74.362
1128.649, 1.438
1129.880, 157.764
1131.111, 16.421
1132.342, 125.625
1133.572, 150.830
1134.802, 9.673
1136.033, 164.533
1137.262, 112.740
1138.492, 81.949
1139.722, 294.160
1140.951, 126.395
1142.180, 223.609
1143.409, 259.824
1144.638, 125.041
1145.866, 301.258
1147.095, 165.476
1148.323, 112.696
1149.551, 216.916
1150.779, 37.137
1152.006, 87.359
1153.234, 75.583
1154.461, 45.168
1155.688, 132.048
1156.915, 30.266
1158.141, 38.486
1159.368, 161.706
1160.594, 20.072
1161.820, 113.146
1163.046, 110.365
1164.272, 4.415
1165.498, 209.805
1166.723, 94.026
1167.948, 64.247
1169.173, 178.468
1170.398, 18.714
1171.623, 136.936
1172.847, 100.160
1174.071, 1.916
1175.295, 143.140
1176.519, 15.364
1177.743, 44.731
1178.966, 109.956
1180.190, 32.820
1181.413, 95.397
1182.636, 70.614
1183.858, 38.169
1185.081, 157.040
1186.303, 0.248
1187.526, 1.672
1188.748, 146.880
1189.969, 22.913
1191.191, 108.289
1192.412, 102.491
1193.634, 36.308
1194.855, 129.885
1196.076, 44.077
1197.296, 38.269
1198.517, 173.460
1199.737, 0.349
1200.957, 120.163
1202.177, 122.353
1203.397, 21.459
1204.617, 167.724
1205.836, 73.906
1207.055, 67.088
1208.274, 147.269
1209.493, 5.449
1210.712, 132.975
1211.930, 128.154
1213.148, 15.669
1214.367, 199.504
1215.584, 53.675
1216.802, 48.846
1218.020, 191.015
1219.237, 27.184
1220.454, 117.457
1221.671, 134.624
1222.888, 7.789
1224.105, 135.640
1225.321, 62.803
1226.537, 29.965
1227.753, 183.228
1228.969, 13.612
1230.185, 147.571
1231.400, 144.724
1232.616, 5.125
1233.831, 217.141
1235.046, 87.287
1236.261, 22.433
1237.475, 199.354
1238.689, 35.497
1239.904, 129.638
1241.118, 214.852
1242.332, 12.991
1243.545, 174.185
1244.759, 89.321
1245.972, 53.456
1247.185, 224.557
1248.398, 40.689
1249.611, 120.820
1250.823, 186.665
1252.036, 16.795
1253.248, 208.923
1254.460, 112.050
1255.671, 38.170
1256.883, 195.286
1258.095, 29.401
1259.306, 57.515
1260.517, 124.613
1261.728, 56.275
1262.938, 87.829
1264.149, 59.931
1265.359, 5.968
1266.569, 204.013
1267.779, 91.110
1268.989, 85.205
1270.199, 185.766
1271.408, 10.859
1272.617, 143.950
1273.826, 163.040
1275.035, 44.129
1276.244, 214.212
1277.452, 131.294
1278.661, 96.374
1279.869, 208.463
1281.077, 49.539
1282.285, 139.615
1283.492, 167.968
1284.700, 12.038
1285.907, 211.133
1287.114, 133.201
1288.321, 24.267
1289.527, 235.329
1290.734, 47.694
1291.940, 119.351
1293.146, 149.441
1294.352, 18.495
1295.558, 181.491
1296.763, 116.644
1297.969, 21.693
1299.174, 177.740
1300.379, 12.854
1301.584, 81.891
1302.788, 157.927
1303.993, 15.040
1305.197, 141.990
1306.401, 135.008
1307.605, 2.017
1308.809, 224.024
1310.013, 120.028
1311.216, 54.290
1312.419, 188.280
1313.622, 31.269
1314.825, 112.376
1316.028, 166.353
1317.230, 1.679
1318.432, 140.292
1319.634, 95.262
1320.836, 55.700
1322.038, 204.665
1323.240, 34.627
1324.441, 137.735
1325.642, 193.687
1326.843, 22.636
1328.044, 164.583
1329.245, 97.528
1330.445, 6.558
1331.645, 175.375
1332.845, 82.306
1334.045, 48.708
1335.245, 198.628
1336.445, 34.544
1337.644, 81.456
1338.843, 114.363
1340.042, 7.734
1341.241, 149.165
1342.440, 112.060
1343.638, 58.548
1344.836, 197.437
1346.034, 48.323
1347.232, 81.207
1348.430, 192.088
1349.628, 2.967
1350.825, 138.842
1352.022, 112.714
1353.219, 22.416
1354.416, 179.448
1355.613, 85.310
1356.809, 3.170
1358.005, 151.028
1359.202, 10.497
1360.398, 59.352
1361.593, 133.206
1362.789, 41.136
1363.984, 102.712
1365.179, 81.560
1366.374, 26.477
1367.569, 140.370
1368.764, 17.218
1369.958, 5.175
1371.153, 204.030
1372.347, 6.872
1373.541, 93.691
1374.735, 130.493
1375.928, 34.716
1377.122, 182.294
1378.315, 131.298
1379.508, 23.704
1380.701, 207.290
1381.893, 50.282
1383.086, 81.270
1384.278, 168.699
1385.470, 30.354
1386.662, 136.316
1387.854, 119.273
1389.046, 23.200
1390.237, 199.147
1391.428, 79.091
1392.619, 30.031
1393.810, 227.968
1395.001, 24.870
1396.191, 44.806
1397.382, 178.740
1398.572, 13.331
1399.762, 111.596
1400.952, 130.521
1402.141, 30.441
1403.331, 192.328
1404.520, 75.553
1405.709, 69.453
1406.898, 201.161
1408.087, 14.057
1409.275, 123.956
1410.464, 181.863
1411.652, 5.532
1412.840, 165.371
1414.028, 140.275
1415.215, 21.189
1416.403, 219.102
1417.590, 105.535
1418.777, 6.561
1419.964, 169.350
1421.151, 9.260
1422.338, 78.624
1423.524, 154.525
1424.710, 2.432
1425.896, 146.340
1427.082, 171.071
1428.268, 4.976
1429.453, 238.701
1430.639, 81.408
1431.824, 70.244
1433.009, 265.135
1434.194, 82.978
1435.378, 166.385
1436.563, 287.217
1437.747, 120.905
1438.931, 265.618
1440.115, 241.493
1441.299, 132.272
1442.482, 319.549
1443.666, 242.279
1444.849, 193.033
1446.032, 380.781
1447.215, 175.520
1448.397, 278.249
1449.580, 371.969
1450.762, 161.678
1451.944, 352.223
1453.126, 345.882
1454.308, 173.537
1455.490, 418.191
1456.671, 294.805
1457.852, 195.651
1459.033, 426.250
1460.214, 214.830
1461.395, 267.483
1462.575, 321.909
1463.756, 143.426
1464.936, 286.580
1466.116, 266.805
1467.296, 104.270
1468.475, 342.709
1469.655, 215.214
1470.834, 50.724
1472.013, 307.254
1473.192, 141.831
1474.371, 102.423
1475.550, 279.000
1476.728, 97.561
1477.906, 221.133
1479.084, 212.724
1480.262, 51.306
1481.440, 218.927
1482.617, 132.577
1483.795, 57.275
1484.972, 294.029
1486.149, 149.829
1487.326, 65.671
1488.502, 301.556
1489.679, 35.487
1490.855, 131.478
1492.031, 243.546
1493.207, 3.294
1494.383, 180.970
1495.559, 137.350
1496.734, 2.127
1497.909, 197.572
1499.084, 76.967
1500.259, 49.172
1501.434, 224.496
1502.608, 0.000
##END=



