##NAMES=Baryte
##RRUFFID=R040036
##IDEAL CHEMISTRY=BaS^6+^O_4_
##LOCALITY=Cumbria County, England
##OWNER=RRUFF
##SOURCE=University of Arizona Mineral Museum
##DESCRIPTION=Golden brown tabular crystal
##STATUS=The identification of this mineral has been confirmed by X-ray diffraction and chemical analysis
##URL=rruff.info/R040036
##MEASURED CHEMISTRY=Ba_1.00_S_1.00_O_4_; trace amounts of Pb
##PIN_ID=M00028
##ORIENTATION=Laser parallel to -a* (-1 0 0). Fiducial mark perpendicular to laser is parallel to -b [0 -1 0]
26.288, 0.000
27.694, 0.186
29.099, 21.930
30.504, 38.327
31.909, 38.921
33.313, 53.594
34.717, 44.386
36.121, 36.304
37.525, 50.205
38.929, 55.055
40.332, 50.789
41.735, 53.826
43.138, 55.790
44.541, 60.751
45.943, 63.439
47.345, 72.428
48.747, 85.158
50.149, 72.721
51.551, 84.513
52.952, 82.646
54.353, 67.581
55.754, 83.975
57.155, 102.056
58.555, 92.572
59.955, 100.919
61.355, 98.365
62.755, 84.251
64.154, 74.042
65.553, 80.852
66.952, 61.205
68.351, 41.316
69.750, 52.435
71.148, 30.564
72.546, 33.700
73.944, 28.844
75.342, 21.994
76.739, 21.149
78.136, 20.308
79.533, 21.469
80.930, 15.169
82.327, 17.786
83.723, 0.940
85.119, 5.910
86.515, 16.763
87.910, 19.620
89.306, 22.583
90.701, 8.342
92.096, 24.206
93.490, 13.071
94.885, 14.936
96.279, 10.800
97.673, 1.666
99.067, 10.465
100.461, 20.593
101.854, 24.728
103.247, 44.892
104.640, 40.080
106.032, 47.289
107.425, 68.517
108.817, 69.760
110.209, 88.015
111.601, 90.280
112.992, 120.552
114.384, 128.854
115.775, 137.587
117.166, 153.390
118.556, 153.669
119.947, 156.944
121.337, 168.215
122.727, 160.480
124.116, 159.739
125.506, 163.988
126.895, 147.231
128.284, 162.481
129.673, 172.705
131.062, 148.914
132.450, 138.097
133.838, 143.253
135.226, 122.383
136.614, 141.525
138.001, 123.618
139.388, 135.702
140.775, 128.815
142.162, 149.893
143.549, 135.971
144.935, 158.049
146.321, 180.127
147.707, 184.231
149.093, 225.309
150.478, 262.390
151.863, 296.470
153.248, 325.550
154.633, 315.496
156.018, 334.741
157.402, 274.873
158.786, 213.055
160.170, 181.147
161.554, 160.289
162.937, 141.420
164.320, 126.925
165.703, 126.735
167.086, 107.837
168.469, 107.940
169.851, 97.992
171.233, 116.044
172.615, 95.093
173.996, 89.176
175.378, 94.300
176.759, 78.273
178.140, 90.181
179.521, 92.094
180.901, 84.982
182.281, 89.829
183.662, 81.629
185.041, 97.408
186.421, 99.145
187.800, 130.868
189.180, 123.563
190.558, 122.202
191.937, 109.827
193.316, 106.500
194.694, 99.021
196.072, 94.543
197.450, 87.014
198.827, 79.526
200.205, 76.960
201.582, 80.336
202.959, 71.714
204.336, 76.067
205.712, 75.376
207.088, 84.652
208.465, 78.877
209.840, 70.048
211.216, 73.194
212.591, 56.329
213.967, 71.507
215.341, 67.652
216.716, 80.761
218.091, 53.749
219.465, 52.784
220.839, 48.715
222.213, 62.710
223.586, 58.664
224.960, 73.774
226.333, 64.690
227.706, 45.657
229.079, 65.527
230.451, 59.376
231.823, 69.240
233.195, 69.830
234.567, 49.365
235.939, 75.572
237.310, 51.658
238.682, 52.738
240.052, 71.090
241.423, 49.061
242.794, 52.316
244.164, 35.552
245.534, 45.844
246.904, 47.341
248.274, 52.072
249.643, 69.886
251.012, 46.739
252.381, 59.696
253.750, 33.667
255.118, 44.671
256.487, 44.711
257.855, 50.774
259.223, 80.858
260.590, 51.908
261.958, 74.021
263.325, 45.048
264.692, 47.153
266.059, 59.252
267.425, 32.311
268.791, 47.553
270.158, 55.567
271.523, 45.809
272.889, 46.876
274.255, 48.006
275.620, 47.051
276.985, 38.085
278.350, 57.127
279.714, 33.129
281.078, 43.140
282.443, 42.139
283.806, 30.137
285.170, 27.133
286.534, 31.128
287.897, 24.122
289.260, 23.115
290.623, 32.107
291.985, 31.097
293.348, 21.086
294.710, 31.075
296.072, 20.062
297.433, 42.047
298.795, 25.032
300.156, 25.015
301.517, 50.998
302.878, 8.979
304.239, 30.958
305.599, 23.937
306.959, 21.913
308.319, 35.888
309.679, 31.862
311.038, 39.835
312.398, 41.002
313.757, 43.776
315.116, 41.745
316.474, 31.712
317.833, 31.679
319.191, 22.645
320.549, 19.609
321.907, 23.572
323.264, 29.534
324.622, 25.491
325.979, 24.442
327.336, 23.389
328.692, 25.331
330.049, 31.267
331.405, 26.200
332.761, 28.128
334.117, 24.052
335.473, 22.972
336.828, 29.887
338.183, 23.799
339.538, 22.707
340.893, 13.612
342.247, 23.513
343.602, 40.411
344.956, 11.305
346.310, 32.196
347.663, 21.085
349.017, 19.971
350.370, 18.854
351.723, 19.734
353.076, 15.612
354.428, 16.488
355.780, 18.362
357.133, 16.234
358.484, 14.105
359.836, 2.974
361.188, 8.821
362.539, 8.705
363.890, 14.569
365.241, 15.431
366.591, 15.292
367.942, 5.152
369.292, 7.011
370.642, 8.131
371.992, 0.725
373.341, 2.711
374.691, 10.422
376.040, 2.274
377.388, 4.126
378.737, 11.977
380.086, 2.171
381.434, 6.682
382.782, 18.537
384.130, 5.395
385.477, 18.257
386.825, 21.121
388.172, 15.988
389.519, 10.858
390.865, 19.706
392.212, 21.581
393.558, 16.458
394.904, 33.335
396.250, 31.213
397.596, 23.090
398.941, 12.967
400.286, 12.820
401.631, 18.695
402.976, 13.569
404.321, 8.442
405.665, 15.314
407.009, 1.184
408.353, 19.053
409.697, 1.922
411.040, 2.789
412.384, 10.654
413.727, 6.501
415.070, 20.362
416.412, 6.776
417.755, 7.084
419.097, 2.057
420.439, 10.799
421.781, 12.654
423.122, 10.508
424.464, 27.361
425.805, 16.202
427.146, 32.060
428.486, 21.910
429.827, 18.739
431.167, 69.554
432.507, 53.389
433.847, 70.194
435.187, 89.994
436.526, 87.838
437.865, 139.678
439.204, 159.471
440.543, 223.311
441.882, 270.099
443.220, 372.949
444.558, 473.763
445.896, 658.576
447.234, 938.425
448.572, 1224.165
449.909, 1785.006
451.246, 2352.814
452.583, 2953.614
453.919, 3407.458
455.256, 3115.302
456.592, 2565.145
457.928, 1868.987
459.264, 1411.828
460.600, 1068.670
461.935, 863.511
463.270, 711.351
464.605, 561.155
465.940, 426.945
467.274, 325.755
468.609, 227.593
469.943, 199.412
471.277, 140.227
472.610, 123.036
473.944, 113.856
475.277, 90.692
476.610, 69.516
477.943, 50.349
479.275, 65.163
480.608, 55.973
481.940, 49.807
483.272, 42.621
484.604, 31.429
485.935, 43.196
487.267, 41.008
488.598, 34.837
489.929, 38.592
491.260, 17.419
492.590, 29.219
493.920, 32.014
495.250, 24.804
496.580, 34.598
497.910, 21.373
499.239, 38.151
500.569, 16.939
501.898, 38.716
503.226, 20.483
504.555, 22.199
505.883, 34.941
507.212, 15.685
508.540, 30.456
509.867, 34.230
511.195, 19.004
512.522, 42.731
513.849, 39.466
515.176, 36.981
516.503, 24.682
517.829, 46.324
519.156, 53.074
520.482, 42.786
521.808, 32.506
523.133, 33.263
524.459, 41.920
525.784, 35.653
527.109, 35.440
528.434, 33.166
529.758, 32.951
531.083, 32.749
532.407, 44.581
533.731, 42.330
535.055, 39.121
536.378, 36.958
537.701, 30.751
539.025, 41.730
540.348, 27.531
541.670, 33.323
542.993, 18.093
544.315, 29.847
545.637, 14.759
546.959, 40.516
548.281, 19.272
549.602, 14.035
550.923, 37.760
552.244, 17.806
553.565, 18.539
554.886, 39.273
556.206, 13.420
557.526, 17.974
558.846, 17.038
560.166, 13.648
561.486, 43.408
562.805, 17.072
564.124, 27.828
565.443, 15.587
566.762, 35.335
568.080, 28.121
569.399, 10.957
570.717, 36.758
572.035, 38.829
573.352, 22.770
574.670, 36.881
575.987, 27.977
577.304, 37.965
578.621, 35.124
579.938, 48.082
581.254, 44.851
582.570, 45.610
583.886, 72.375
585.202, 53.692
586.518, 61.461
587.833, 78.221
589.148, 75.216
590.463, 108.960
591.778, 97.730
593.093, 127.471
594.407, 109.227
595.721, 122.126
597.035, 128.872
598.349, 144.788
599.662, 163.522
600.976, 158.254
602.289, 162.382
603.602, 192.111
604.914, 184.954
606.227, 250.737
607.539, 306.460
608.851, 359.610
610.163, 495.330
611.475, 626.335
612.786, 1005.073
614.097, 1541.788
615.408, 2301.774
616.719, 3063.537
618.030, 3400.333
619.340, 3175.161
620.651, 2461.884
621.961, 1858.894
623.270, 1465.596
624.580, 1202.297
625.889, 1106.996
627.199, 1054.693
628.507, 1079.404
629.816, 1130.098
631.125, 1077.789
632.433, 960.480
633.741, 684.168
635.049, 520.901
636.357, 387.585
637.664, 269.268
638.972, 239.949
640.279, 173.628
641.586, 147.340
642.893, 158.016
644.199, 145.690
645.505, 173.362
646.811, 123.033
648.117, 141.121
649.423, 153.788
650.728, 127.462
652.034, 140.126
653.339, 111.788
654.644, 111.449
655.948, 88.108
657.253, 90.767
658.557, 85.424
659.861, 62.080
661.165, 72.734
662.468, 45.387
663.772, 37.038
665.075, 40.818
666.378, 21.466
667.681, 41.112
668.983, 30.757
670.286, 16.400
671.588, 23.051
672.890, 1.690
674.192, 19.327
675.493, 20.962
676.795, 3.594
678.096, 8.225
679.397, 4.147
680.697, 10.478
681.998, 13.101
683.298, 8.721
684.598, 16.391
685.898, 1.992
687.198, 11.622
688.498, 6.282
689.797, 15.892
691.096, 5.604
692.395, 7.790
693.694, 3.812
694.992, 4.412
696.290, 13.991
697.589, 13.602
698.886, 8.807
700.184, 0.780
701.482, 2.365
702.779, 7.948
704.076, 5.530
705.373, 6.723
706.669, 6.582
707.966, 6.264
709.262, 0.163
710.558, 2.401
711.854, 10.030
713.150, 4.466
714.445, 11.906
715.740, 11.351
717.035, 6.801
718.330, 14.254
719.625, 5.714
720.919, 5.823
722.214, 7.357
723.508, 5.890
724.801, 21.579
726.095, 3.944
727.388, 5.466
728.682, 8.014
729.975, 9.501
731.267, 2.015
732.560, 8.527
733.852, 4.037
735.145, 4.455
736.437, 5.050
737.728, 5.447
739.020, 14.053
740.311, 7.551
741.603, 14.953
742.894, 9.538
744.184, 2.973
745.475, 0.487
746.765, 6.997
748.055, 16.521
749.345, 11.956
750.635, 10.569
751.925, 0.902
753.214, 17.371
754.503, 10.161
755.792, 0.698
757.081, 2.237
758.370, 3.778
759.658, 0.678
760.946, 11.868
762.234, 4.582
763.522, 18.031
764.809, 9.478
766.097, 8.923
767.384, 0.368
768.671, 8.810
769.958, 7.252
771.244, 7.692
772.530, 18.131
773.817, 1.432
775.102, 4.004
776.388, 4.438
777.674, 3.871
778.959, 8.405
780.244, 1.266
781.529, 10.163
782.814, 9.591
784.098, 1.018
785.383, 22.443
786.667, 18.132
787.951, 8.287
789.235, 0.295
790.518, 2.122
791.801, 6.538
793.084, 13.953
794.367, 21.367
795.650, 20.780
796.933, 7.192
798.215, 21.603
799.497, 9.013
800.779, 12.423
802.061, 25.831
803.342, 6.761
804.624, 16.644
805.905, 10.049
807.186, 18.452
808.466, 4.855
809.747, 0.742
811.027, 13.659
812.307, 23.001
813.587, 3.401
814.867, 29.801
816.146, 2.159
817.426, 27.539
818.705, 11.753
819.984, 22.143
821.263, 27.539
822.541, 4.080
823.819, 18.315
825.098, 0.578
826.375, 4.029
827.653, 24.340
828.931, 7.268
830.208, 22.096
831.485, 20.220
832.762, 2.576
834.039, 33.935
835.315, 20.916
836.592, 22.305
837.868, 26.408
839.144, 24.733
840.420, 30.081
841.695, 34.457
842.970, 42.823
844.246, 47.195
845.521, 20.567
846.795, 68.938
848.070, 46.247
849.344, 33.600
850.618, 52.681
851.892, 40.893
853.166, 58.932
854.440, 52.985
855.713, 65.146
856.986, 76.134
858.259, 68.322
859.532, 103.698
860.804, 104.083
862.077, 105.461
863.349, 103.286
864.621, 102.658
865.893, 99.038
867.164, 93.183
868.436, 59.576
869.707, 65.944
870.978, 59.339
872.248, 35.718
873.519, 44.955
874.789, 34.342
876.060, 61.559
877.330, 31.957
878.599, 32.356
879.869, 65.358
881.138, 26.759
882.408, 57.044
883.677, 27.389
884.945, 41.792
886.214, 39.768
887.482, 35.174
888.751, 60.293
890.019, 50.680
891.287, 47.088
892.554, 79.224
893.822, 36.584
895.089, 64.910
896.356, 75.203
897.623, 27.600
898.889, 63.711
900.156, 62.129
901.422, 65.548
902.688, 91.969
903.954, 53.391
905.220, 80.799
906.485, 56.224
907.750, 62.650
909.015, 74.078
910.280, 47.507
911.545, 70.891
912.809, 70.324
914.074, 41.758
915.338, 71.193
916.602, 57.630
917.865, 63.035
919.129, 80.475
920.392, 33.917
921.655, 62.361
922.918, 41.806
924.181, 52.835
925.443, 55.285
926.706, 49.728
927.968, 76.183
929.230, 66.640
930.491, 56.099
931.753, 68.563
933.014, 57.028
934.276, 80.497
935.536, 75.969
936.797, 73.443
938.058, 97.920
939.318, 65.399
940.578, 91.749
941.838, 111.232
943.098, 85.718
944.358, 100.207
945.617, 93.698
946.876, 94.181
948.135, 108.676
949.394, 66.173
950.653, 108.673
951.911, 109.175
953.169, 100.679
954.427, 128.185
955.685, 123.695
956.943, 158.206
958.200, 124.720
959.458, 133.186
960.715, 160.704
961.971, 167.225
963.228, 198.700
964.485, 252.226
965.741, 291.650
966.997, 376.181
968.253, 350.715
969.508, 340.252
970.764, 410.791
972.019, 417.335
973.274, 527.881
974.529, 569.431
975.784, 615.984
977.039, 776.539
978.293, 965.096
979.547, 1262.657
980.801, 1771.219
982.055, 2474.811
983.308, 4043.379
984.562, 7107.950
985.815, 14933.535
987.068, 32543.111
988.321, 49232.691
989.573, 49852.281
990.826, 32631.867
992.078, 17411.461
993.330, 9298.059
994.582, 5247.660
995.833, 3147.263
997.085, 2120.870
998.336, 1447.479
999.587, 1175.093
1000.838, 989.710
1002.088, 835.329
1003.339, 800.953
1004.589, 672.579
1005.839, 561.207
1007.089, 497.839
1008.339, 395.473
1009.588, 380.110
1010.838, 338.751
1012.087, 310.395
1013.336, 317.041
1014.584, 278.690
1015.833, 266.344
1017.081, 269.000
1018.330, 246.660
1019.577, 255.323
1020.825, 218.988
1022.073, 217.658
1023.320, 245.331
1024.567, 245.008
1025.814, 285.688
1027.061, 272.370
1028.308, 263.056
1029.554, 275.746
1030.800, 255.439
1032.046, 226.241
1033.292, 182.940
1034.538, 134.753
1035.783, 143.500
1037.029, 96.208
1038.274, 121.919
1039.519, 107.633
1040.763, 85.349
1042.008, 89.069
1043.252, 48.791
1044.496, 80.515
1045.740, 72.305
1046.984, 55.035
1048.228, 78.768
1049.471, 79.504
1050.714, 59.242
1051.957, 88.983
1053.200, 97.727
1054.442, 126.489
1055.685, 225.254
1056.927, 243.006
1058.169, 275.790
1059.411, 133.607
1060.652, 106.369
1061.894, 80.551
1063.135, 55.319
1064.376, 50.256
1065.617, 61.523
1066.858, 44.297
1068.098, 60.411
1069.339, 55.346
1070.579, 45.128
1071.819, 93.210
1073.058, 83.998
1074.298, 86.789
1075.537, 97.704
1076.776, 107.502
1078.015, 133.603
1079.254, 157.407
1080.493, 196.213
1081.731, 275.021
1082.969, 315.834
1084.207, 355.650
1085.445, 345.469
1086.683, 292.289
1087.920, 257.112
1089.157, 175.937
1090.394, 150.764
1091.631, 127.594
1092.868, 78.426
1094.105, 78.260
1095.341, 74.097
1096.577, 61.936
1097.813, 86.778
1099.049, 97.623
1100.284, 114.472
1101.519, 159.324
1102.755, 175.178
1103.990, 227.034
1105.224, 225.893
1106.459, 208.755
1107.693, 173.619
1108.928, 115.486
1110.162, 91.355
1111.395, 66.227
1112.629, 43.100
1113.863, 47.975
1115.096, 3.147
1116.329, 20.732
1117.562, 30.613
1118.795, 1.503
1120.027, 18.382
1121.259, 7.268
1122.492, 8.157
1123.723, 28.048
1124.955, 1.941
1126.187, 5.835
1127.418, 16.732
1128.649, 2.630
1129.880, 27.530
1131.111, 20.432
1132.342, 18.336
1133.572, 38.242
1134.802, 49.149
1136.033, 57.058
1137.262, 97.969
1138.492, 87.881
1139.722, 129.796
1140.951, 195.711
1142.180, 236.629
1143.409, 311.550
1144.638, 306.473
1145.866, 292.399
1147.095, 292.326
1148.323, 223.255
1149.551, 204.186
1150.779, 134.118
1152.006, 101.052
1153.234, 84.988
1154.461, 44.925
1155.688, 60.864
1156.915, 51.805
1158.141, 25.747
1159.368, 54.690
1160.594, 20.635
1161.820, 22.582
1163.046, 28.531
1164.272, 8.518
1165.498, 51.433
1166.723, 8.615
1167.948, 3.662
1169.173, 11.292
1170.398, 33.247
1171.623, 7.203
1172.847, 25.160
1174.071, 7.118
1175.295, 34.078
1176.519, 13.039
1177.743, 4.999
1178.966, 10.963
1180.190, 18.927
1181.413, 28.891
1182.636, 11.857
1183.858, 6.823
1185.081, 16.791
1186.303, 1.240
1187.526, 1.271
1188.748, 14.699
1189.969, 2.330
1191.191, 4.358
1192.412, 2.614
1193.634, 22.413
1194.855, 0.556
1196.076, 10.473
1197.296, 25.504
1198.517, 19.462
1199.737, 18.572
1200.957, 9.608
1202.177, 38.354
1203.397, 16.682
1204.617, 32.623
1205.836, 3.585
1207.055, 7.423
1208.274, 42.751
1209.493, 16.286
1210.712, 11.918
1211.930, 19.878
1213.148, 7.839
1214.367, 50.215
1215.584, 16.315
1216.802, 34.277
1218.020, 41.240
1219.237, 25.203
1220.454, 24.167
1221.671, 31.131
1222.888, 12.095
1224.105, 20.060
1225.321, 33.025
1226.537, 4.990
1227.753, 24.956
1228.969, 7.921
1230.185, 1.265
1231.400, 36.472
1232.616, 24.438
1233.831, 40.405
1235.046, 42.481
1236.261, 18.448
1237.475, 71.715
1238.689, 46.683
1239.904, 52.816
1241.118, 82.784
1242.332, 32.751
1243.545, 66.719
1244.759, 49.688
1245.972, 28.656
1247.185, 64.620
1248.398, 31.589
1249.611, 46.558
1250.823, 64.517
1252.036, 43.487
1253.248, 45.457
1254.460, 57.428
1255.671, 31.399
1256.883, 52.371
1258.095, 45.342
1259.306, 20.315
1260.517, 56.287
1261.728, 33.260
1262.938, 36.233
1264.149, 73.206
1265.359, 15.179
1266.569, 55.153
1267.779, 67.126
1268.989, 47.100
1270.199, 67.074
1271.408, 64.048
1272.617, 60.022
1273.826, 92.283
1275.035, 65.430
1276.244, 80.602
1277.452, 46.576
1278.661, 26.551
1279.869, 72.525
1281.077, 48.500
1282.285, 48.474
1283.492, 75.564
1284.700, 42.539
1285.907, 49.513
1287.114, 82.488
1288.321, 40.462
1289.527, 41.436
1290.734, 46.491
1291.940, 38.463
1293.146, 68.691
1294.352, 32.660
1295.558, 71.521
1296.763, 78.604
1297.969, 17.457
1299.174, 50.381
1300.379, 48.344
1301.584, 34.308
1302.788, 33.271
1303.993, 36.232
1305.197, 20.190
1306.401, 58.147
1307.605, 26.100
1308.809, 81.990
1310.013, 56.942
1311.216, 35.893
1312.419, 67.844
1313.622, 53.795
1314.825, 70.745
1316.028, 70.695
1317.230, 42.629
1318.432, 43.563
1319.634, 75.512
1320.836, 40.431
1322.038, 63.320
1323.240, 59.268
1324.441, 46.797
1325.642, 76.740
1326.843, 29.509
1328.044, 40.952
1329.245, 57.888
1330.445, 25.486
1331.645, 22.264
1332.845, 27.196
1334.045, 13.171
1335.245, 8.752
1336.445, 0.675
1337.644, 7.526
1338.843, 42.391
1340.042, 8.993
1341.241, 12.921
1342.440, 22.834
1343.638, 16.254
1344.836, 4.344
1346.034, 21.563
1347.232, 6.470
1348.430, 23.375
1349.628, 6.279
1350.825, 6.182
1352.022, 23.084
1353.219, 4.985
1354.416, 12.885
1355.613, 3.784
1356.809, 7.682
1358.005, 17.580
1359.202, 14.523
1360.398, 8.627
1361.593, 24.267
1362.789, 3.161
1363.984, 2.945
1365.179, 16.949
1366.374, 11.156
1367.569, 8.738
1368.764, 5.366
1369.958, 5.531
1371.153, 29.430
1372.347, 7.349
1373.541, 8.256
1374.735, 10.163
1375.928, 1.072
1377.122, 18.039
1378.315, 19.006
1379.508, 4.973
1380.701, 41.939
1381.893, 25.904
1383.086, 19.869
1384.278, 39.834
1385.470, 19.798
1386.662, 17.761
1387.854, 26.724
1389.046, 15.686
1390.237, 24.643
1391.428, 20.596
1392.619, 17.549
1393.810, 18.123
1395.001, 11.450
1396.191, 10.398
1397.382, 23.345
1398.572, 16.291
1399.762, 28.232
1400.952, 16.173
1402.141, 9.886
1403.331, 4.946
1404.520, 6.007
1405.709, 15.932
1406.898, 36.870
1408.087, 15.807
1409.275, 19.744
1410.464, 30.681
1411.652, 2.383
1412.840, 23.552
1414.028, 9.488
1415.215, 25.430
1416.403, 19.376
1417.590, 18.329
1418.777, 0.713
1419.964, 34.726
1421.151, 8.691
1422.338, 25.881
1423.524, 25.834
1424.710, 3.104
1425.896, 14.838
1427.082, 54.780
1428.268, 15.723
1429.453, 56.666
1430.639, 35.611
1431.824, 32.886
1433.009, 42.387
1434.194, 39.116
1435.378, 70.481
1436.563, 78.083
1437.747, 64.995
1438.931, 77.905
1440.115, 117.773
1441.299, 113.680
1442.482, 160.584
1443.666, 150.485
1444.849, 158.382
1446.032, 175.276
1447.215, 171.167
1448.397, 165.054
1449.580, 197.938
1450.762, 182.818
1451.944, 180.695
1453.126, 235.842
1454.308, 164.735
1455.490, 201.557
1456.671, 204.373
1457.852, 191.858
1459.033, 207.651
1460.214, 178.434
1461.395, 188.965
1462.575, 178.936
1463.756, 162.694
1464.936, 148.075
1466.116, 175.825
1467.296, 122.561
1468.475, 141.312
1469.655, 126.077
1470.834, 64.852
1472.013, 97.617
1473.192, 80.370
1474.371, 44.110
1475.550, 87.836
1476.728, 49.546
1477.906, 52.239
1479.084, 85.975
1480.262, 55.726
1481.440, 74.488
1482.617, 65.255
1483.795, 41.079
1484.972, 79.936
1486.149, 62.807
1487.326, 49.692
1488.502, 71.595
1489.679, 42.523
1490.855, 26.490
1492.031, 61.504
1493.207, 23.572
1494.383, 15.699
1495.559, 34.894
1496.734, 6.178
1497.909, 24.578
1499.084, 0.874
1500.259, 17.875
1501.434, 28.737
1502.608, 0.000
##END=



