##NAMES=Baryte
##RRUFFID=R040036
##IDEAL CHEMISTRY=BaS^6+^O_4_
##LOCALITY=Cumbria County, England
##OWNER=RRUFF
##SOURCE=University of Arizona Mineral Museum
##DESCRIPTION=Golden brown tabular crystal
##STATUS=The identification of this mineral has been confirmed by X-ray diffraction and chemical analysis
##URL=rruff.info/R040036
##MEASURED CHEMISTRY=Ba_1.00_S_1.00_O_4_; trace amounts of Pb
##PIN_ID=M00028
##ORIENTATION=Laser parallel to -a* (-1 0 0). Fiducial mark perpendicular to laser is parallel to -b [0 -1 0]
26.288, 0.000
27.694, 40.490
29.099, 30.356
30.504, 23.831
31.909, 38.784
33.313, 30.769
34.717, 36.098
36.121, 29.639
37.525, 48.752
38.929, 62.940
40.332, 53.875
41.735, 42.900
43.138, 66.135
44.541, 58.608
45.943, 56.050
47.345, 54.367
48.747, 53.326
50.149, 56.394
51.551, 57.696
52.952, 71.848
54.353, 84.810
55.754, 94.261
57.155, 103.653
58.555, 138.289
59.955, 158.730
61.355, 179.534
62.755, 167.852
64.154, 169.320
65.553, 145.811
66.952, 120.329
68.351, 101.878
69.750, 114.458
71.148, 101.068
72.546, 90.707
73.944, 88.372
75.342, 78.061
76.739, 57.772
78.136, 33.501
79.533, 8.244
80.930, 0.005
82.327, 16.291
83.723, 19.492
85.119, 35.729
86.515, 35.961
87.910, 47.186
89.306, 60.404
90.701, 54.614
92.096, 61.816
93.490, 43.010
94.885, 28.194
96.279, 3.631
97.673, 36.466
99.067, 80.312
100.461, 124.170
101.854, 129.053
103.247, 197.002
104.640, 206.009
106.032, 291.067
107.425, 303.169
108.817, 406.307
110.209, 446.477
111.601, 447.671
112.992, 617.883
114.384, 660.109
115.775, 723.347
117.166, 722.590
118.556, 825.834
119.947, 1030.076
121.337, 919.316
122.727, 955.552
124.116, 831.784
125.506, 964.011
126.895, 1001.232
128.284, 1158.437
129.673, 1217.614
131.062, 1086.753
132.450, 1075.846
133.838, 914.887
135.226, 924.878
136.614, 784.843
138.001, 775.807
139.388, 832.782
140.775, 747.768
142.162, 854.765
143.549, 802.774
144.935, 966.793
146.321, 926.823
147.707, 1023.865
149.093, 1094.918
150.478, 977.982
151.863, 1057.057
153.248, 918.144
154.633, 996.242
156.018, 783.351
157.402, 807.472
158.786, 753.604
160.170, 690.748
161.554, 735.903
162.937, 623.070
164.320, 699.250
165.703, 638.441
167.086, 627.644
168.469, 718.859
169.851, 585.086
171.233, 686.325
172.615, 605.576
173.996, 684.840
175.378, 584.116
176.759, 621.999
178.140, 654.831
179.521, 508.605
180.901, 645.316
182.281, 528.964
183.662, 617.546
185.041, 562.062
186.421, 624.511
187.800, 717.890
189.180, 624.203
190.558, 755.456
191.937, 609.619
193.316, 697.741
194.694, 587.787
196.072, 531.744
197.450, 634.622
198.827, 463.433
200.205, 608.202
201.582, 473.922
202.959, 533.625
204.336, 520.271
205.712, 460.821
207.088, 595.265
208.465, 440.663
209.840, 531.975
211.216, 455.247
212.591, 508.519
213.967, 504.799
215.341, 438.088
216.716, 543.312
218.091, 379.466
219.465, 494.696
220.839, 433.880
222.213, 465.031
223.586, 486.189
224.960, 386.314
226.333, 516.328
227.706, 361.136
229.079, 501.600
230.451, 424.931
231.823, 429.907
233.195, 464.833
234.567, 302.406
235.939, 487.998
237.310, 348.354
238.682, 416.426
240.052, 405.658
241.423, 358.748
242.794, 454.299
244.164, 309.219
245.534, 427.893
246.904, 308.019
248.274, 366.425
249.643, 379.926
251.012, 283.435
252.381, 433.953
253.750, 274.478
255.118, 413.012
256.487, 338.554
257.855, 361.103
259.223, 392.660
260.590, 280.225
261.958, 431.798
263.325, 303.378
264.692, 414.967
266.059, 357.563
267.425, 294.166
268.791, 418.778
270.158, 261.397
271.523, 404.024
272.889, 258.659
274.255, 348.302
275.620, 364.954
276.985, 270.613
278.350, 371.282
279.714, 224.960
281.078, 385.647
282.443, 235.343
283.806, 301.049
285.170, 342.764
286.534, 252.490
287.897, 360.224
289.260, 205.969
290.623, 298.723
291.985, 293.487
293.348, 231.260
294.710, 333.044
296.072, 172.836
297.433, 286.639
298.795, 236.451
300.156, 245.272
301.517, 278.103
302.878, 220.944
304.239, 297.794
305.599, 185.654
306.959, 296.523
308.319, 195.402
309.679, 238.291
311.038, 300.189
312.398, 153.097
313.757, 278.014
315.116, 163.941
316.474, 243.877
317.833, 246.823
319.191, 171.778
320.549, 267.742
321.907, 151.716
323.264, 267.700
324.622, 152.685
325.979, 202.673
327.336, 265.664
328.692, 149.657
330.049, 247.654
331.405, 124.655
332.761, 223.659
334.117, 230.668
335.473, 173.682
336.828, 269.701
338.183, 118.726
339.538, 260.756
340.893, 160.792
342.247, 193.836
343.602, 202.886
344.956, 97.943
346.310, 283.009
347.663, 103.082
349.017, 217.164
350.370, 190.278
351.723, 140.377
353.076, 233.486
354.428, 80.604
355.780, 226.732
357.133, 118.923
358.484, 134.072
359.836, 165.232
361.188, 38.403
362.539, 193.584
363.890, 67.777
365.241, 168.981
366.591, 122.196
367.942, 105.423
369.292, 191.661
370.642, 78.952
371.992, 205.214
373.341, 97.488
374.691, 126.775
376.040, 178.077
377.388, 57.395
378.737, 216.731
380.086, 69.084
381.434, 164.456
382.782, 169.848
384.130, 66.261
385.477, 224.695
386.825, 29.490
388.172, 202.967
389.519, 115.466
390.865, 122.983
392.212, 207.515
393.558, 71.095
394.904, 195.650
396.250, 87.217
397.596, 167.794
398.941, 165.384
400.286, 93.007
401.631, 208.617
402.976, 18.241
404.321, 196.876
405.665, 76.524
407.009, 89.339
408.353, 197.007
409.697, 6.832
411.040, 206.522
412.384, 35.225
413.727, 112.938
415.070, 147.662
416.412, 21.520
417.755, 207.271
419.097, 43.036
420.439, 205.810
421.781, 161.596
423.122, 115.758
424.464, 226.569
425.805, 69.391
427.146, 257.223
428.486, 161.064
429.827, 196.035
431.167, 281.902
432.507, 163.780
433.847, 397.667
435.187, 294.564
436.526, 418.488
437.865, 505.410
439.204, 514.341
440.543, 842.282
441.882, 791.233
443.220, 1193.199
444.558, 1461.175
445.896, 1931.160
447.234, 2861.155
448.572, 3531.160
449.909, 5230.181
451.246, 6801.210
452.583, 8817.250
453.919, 10235.299
455.256, 9173.355
456.592, 7805.429
457.928, 5678.511
459.264, 4180.602
460.600, 3237.703
461.935, 2417.812
463.270, 2204.935
464.605, 1591.068
465.940, 1285.209
467.274, 956.359
468.609, 670.518
469.943, 664.691
471.277, 338.873
472.610, 471.063
473.944, 327.265
475.277, 275.476
476.610, 335.702
477.943, 107.938
479.275, 249.182
480.608, 120.437
481.940, 168.701
483.272, 181.977
484.604, 74.262
485.935, 198.556
487.267, 33.858
488.598, 152.170
489.929, 138.493
491.260, 61.824
492.590, 187.165
493.920, 2.482
495.250, 146.879
496.580, 105.249
497.910, 60.627
499.239, 177.014
500.569, 8.591
501.898, 181.812
503.226, 37.223
504.555, 102.642
505.883, 105.069
507.212, 5.509
508.540, 197.958
509.867, 19.414
511.195, 94.878
512.522, 159.350
513.849, 6.169
515.176, 195.319
516.503, 14.815
517.829, 162.319
519.156, 107.830
520.482, 26.350
521.808, 220.877
523.133, 42.412
524.459, 169.954
525.784, 81.600
527.109, 67.156
528.434, 156.719
529.758, 35.712
531.083, 200.860
532.407, 44.901
533.731, 65.490
535.055, 152.086
536.378, 5.312
537.701, 170.299
539.025, 48.180
540.348, 91.806
541.670, 124.630
542.993, 2.732
544.315, 149.913
545.637, 10.292
546.959, 152.948
548.281, 107.987
549.602, 19.347
550.923, 193.326
552.244, 17.910
553.565, 142.772
554.886, 99.020
556.206, 16.712
557.526, 172.414
558.846, 14.373
560.166, 145.337
561.486, 71.534
562.805, 54.253
564.124, 170.977
565.443, 33.084
566.762, 132.645
568.080, 59.378
569.399, 60.115
570.717, 233.856
572.035, 13.385
573.352, 171.362
574.670, 54.113
575.987, 73.868
577.304, 182.626
578.621, 0.657
579.938, 240.108
581.254, 99.875
582.570, 105.646
583.886, 207.421
585.202, 9.260
586.518, 219.040
587.833, 47.823
589.148, 148.608
590.463, 182.396
591.778, 73.428
593.093, 234.221
594.407, 50.025
595.721, 218.832
597.035, 210.641
598.349, 120.382
599.662, 267.195
600.976, 128.010
602.289, 335.856
603.602, 272.675
604.914, 259.259
606.227, 516.081
607.539, 382.905
608.851, 702.730
610.163, 821.557
611.475, 1004.212
612.786, 1685.044
614.097, 2063.877
615.408, 3094.112
616.719, 3915.948
618.030, 4238.162
619.340, 4479.002
620.651, 3585.842
621.961, 3023.009
623.270, 2409.850
624.580, 1799.327
625.889, 1658.169
627.199, 1174.012
628.507, 1179.861
629.816, 983.704
631.125, 891.094
632.433, 951.937
633.741, 569.781
635.049, 638.495
636.357, 476.313
637.664, 389.156
638.972, 481.998
640.279, 218.840
641.586, 453.683
642.893, 233.472
644.199, 233.313
645.505, 383.154
646.811, 119.994
648.117, 375.859
649.423, 236.697
650.728, 218.534
652.034, 304.371
653.339, 98.206
654.644, 295.333
655.948, 122.125
657.253, 140.957
658.557, 216.787
659.861, 28.616
661.165, 250.819
662.468, 76.645
663.772, 145.469
665.075, 202.292
666.378, 3.888
667.681, 212.934
668.983, 59.750
670.286, 71.564
671.588, 178.037
672.890, 22.152
674.192, 166.647
675.493, 16.448
676.795, 64.247
678.096, 128.708
679.397, 11.498
680.697, 176.983
681.998, 7.230
683.298, 96.552
684.598, 159.615
685.898, 30.608
687.198, 184.159
688.498, 15.076
689.797, 115.681
691.096, 174.830
692.395, 0.417
693.694, 264.185
694.992, 22.070
696.290, 104.667
697.589, 188.612
698.886, 61.658
700.184, 208.939
701.482, 17.352
702.779, 68.349
704.076, 123.195
705.373, 48.110
706.669, 179.209
707.966, 12.885
709.262, 60.558
710.558, 130.228
711.854, 39.106
713.150, 176.432
714.445, 39.081
715.740, 58.727
717.035, 171.369
718.330, 35.992
719.625, 194.620
720.919, 16.242
722.214, 39.860
723.508, 196.475
724.801, 39.914
726.095, 191.682
727.388, 41.275
728.682, 84.864
729.975, 182.450
731.267, 46.969
732.560, 133.597
733.852, 27.949
735.145, 24.506
736.437, 196.061
737.728, 32.389
739.020, 175.147
740.311, 89.680
741.603, 8.209
742.894, 202.733
744.184, 24.748
745.475, 172.761
746.765, 50.265
748.055, 16.765
749.345, 161.261
750.635, 26.752
751.925, 134.727
753.214, 45.203
754.503, 8.326
755.792, 197.137
757.081, 49.999
758.370, 141.443
759.658, 91.880
760.946, 4.687
762.234, 226.739
763.522, 17.840
764.809, 187.571
766.097, 127.977
767.384, 12.379
768.671, 240.777
769.958, 13.829
771.244, 187.555
772.530, 165.934
773.817, 27.690
775.102, 256.672
776.388, 48.031
777.674, 170.386
778.959, 153.736
780.244, 14.214
781.529, 237.556
782.814, 18.894
784.098, 114.228
785.383, 206.558
786.667, 34.116
787.951, 222.195
789.235, 49.502
790.518, 133.806
791.801, 205.105
793.084, 2.600
794.367, 220.688
795.650, 69.972
796.933, 55.252
798.215, 246.528
799.497, 6.200
800.779, 238.064
802.061, 90.324
803.342, 63.580
804.624, 250.832
805.905, 14.983
807.186, 212.227
808.466, 92.467
809.747, 22.704
811.027, 243.938
812.307, 33.294
813.587, 156.923
814.867, 120.136
816.146, 20.655
817.426, 223.544
818.705, 20.524
819.984, 110.661
821.263, 146.650
822.541, 4.173
823.819, 253.997
825.098, 30.435
826.375, 125.599
827.653, 199.382
828.931, 15.461
830.208, 178.688
831.485, 54.747
832.762, 61.889
834.039, 163.467
835.315, 44.397
836.592, 234.725
837.868, 77.337
839.144, 44.453
840.420, 264.084
841.695, 0.194
842.970, 270.299
844.246, 133.192
845.521, 50.293
846.795, 319.392
848.070, 18.487
849.344, 235.581
850.618, 247.658
851.892, 34.747
853.166, 289.833
854.440, 66.917
855.713, 245.998
856.986, 274.121
858.259, 54.198
859.532, 305.273
860.804, 118.345
862.077, 200.415
863.349, 295.421
864.621, 63.487
865.893, 267.551
867.164, 120.619
868.436, 95.686
869.707, 201.511
870.978, 74.426
872.248, 143.618
873.519, 74.661
874.789, 11.702
876.060, 251.811
877.330, 25.849
878.599, 234.885
879.869, 202.891
881.138, 42.924
882.408, 295.193
883.677, 43.232
884.945, 158.271
886.214, 231.309
887.482, 20.642
888.751, 315.576
890.019, 79.617
891.287, 124.657
892.554, 334.295
893.822, 17.664
895.089, 324.995
896.356, 149.029
897.623, 117.063
898.889, 315.770
900.156, 84.802
901.422, 268.200
902.688, 212.231
903.954, 108.263
905.220, 352.289
906.485, 83.321
907.750, 234.807
909.015, 262.838
910.280, 50.869
911.545, 379.029
912.809, 109.060
914.074, 129.097
915.338, 273.135
916.602, 8.828
917.865, 290.208
919.129, 157.244
920.392, 125.281
921.655, 310.318
922.918, 37.355
924.181, 301.369
925.443, 208.409
926.706, 86.449
927.968, 336.490
929.230, 60.531
930.491, 213.279
931.753, 232.321
933.014, 71.363
934.276, 333.409
935.536, 134.455
936.797, 179.126
938.058, 326.174
939.318, 57.222
940.578, 303.271
941.838, 207.321
943.098, 102.369
944.358, 353.424
945.617, 68.481
946.876, 279.538
948.135, 235.597
949.394, 45.663
950.653, 373.725
951.911, 116.789
953.169, 214.155
954.427, 323.223
955.685, 52.603
956.943, 327.676
958.200, 168.754
959.458, 173.526
960.715, 436.607
961.971, 109.692
963.228, 463.779
964.485, 429.871
965.741, 389.413
966.997, 726.508
968.253, 400.606
969.508, 526.706
970.764, 693.810
972.019, 475.705
973.274, 859.812
974.529, 758.929
975.784, 853.047
977.039, 1169.171
978.293, 1031.148
979.547, 1687.275
980.801, 2128.410
982.055, 2923.546
983.308, 4910.686
984.562, 7986.826
985.815, 16934.969
987.068, 37213.117
988.321, 57151.270
989.573, 59059.430
990.826, 38487.582
992.078, 20525.768
993.330, 11313.934
994.582, 6286.104
995.833, 4048.275
997.085, 2602.450
998.336, 1719.640
999.587, 1592.839
1000.838, 1159.039
1002.088, 1126.614
1003.339, 1093.819
1004.589, 747.026
1005.839, 881.241
1007.089, 551.669
1008.339, 505.890
1009.588, 624.113
1010.838, 316.338
1012.087, 544.570
1013.336, 470.805
1014.584, 302.042
1015.833, 533.281
1017.081, 264.523
1018.330, 452.589
1019.577, 469.840
1020.825, 180.499
1022.073, 544.919
1023.320, 298.681
1024.567, 264.945
1025.814, 457.210
1027.061, 151.478
1028.308, 468.247
1029.554, 339.117
1030.800, 151.401
1032.046, 424.688
1033.292, 153.976
1034.538, 296.269
1035.783, 342.564
1037.029, 81.864
1038.274, 329.506
1039.519, 152.811
1040.763, 109.118
1042.008, 319.510
1043.252, 49.826
1044.496, 267.143
1045.740, 244.464
1046.984, 57.792
1048.228, 351.415
1049.471, 151.747
1050.714, 180.080
1051.957, 365.534
1053.200, 99.872
1054.442, 424.238
1055.685, 373.583
1056.927, 271.930
1058.169, 542.764
1059.411, 137.119
1060.652, 248.477
1061.894, 301.836
1063.135, 5.197
1064.376, 308.560
1065.617, 140.928
1066.858, 101.298
1068.098, 329.240
1069.339, 24.615
1070.579, 275.992
1071.819, 310.373
1073.058, 131.755
1074.298, 477.138
1075.537, 262.525
1076.776, 383.913
1078.015, 550.051
1079.254, 398.446
1080.493, 853.842
1081.731, 936.239
1082.969, 1064.639
1084.207, 1531.044
1085.445, 1131.452
1086.683, 1129.860
1087.920, 1024.808
1089.157, 543.227
1090.394, 724.651
1091.631, 426.583
1092.868, 324.010
1094.105, 591.440
1095.341, 250.871
1096.577, 544.304
1097.813, 591.035
1099.049, 501.474
1100.284, 1000.916
1101.519, 967.543
1102.755, 1345.993
1103.990, 1958.444
1105.224, 1713.896
1106.459, 1806.356
1107.693, 1475.817
1108.928, 906.280
1110.162, 1006.743
1111.395, 549.262
1112.629, 478.738
1113.863, 595.214
1115.096, 198.691
1116.329, 430.175
1117.562, 307.659
1118.795, 144.145
1120.027, 391.631
1121.259, 75.171
1122.492, 283.658
1123.723, 284.145
1124.955, 3.633
1126.187, 232.121
1127.418, 104.977
1128.649, 20.466
1129.880, 284.955
1131.111, 17.527
1132.342, 204.016
1133.572, 187.506
1134.802, 60.005
1136.033, 371.473
1137.262, 201.950
1138.492, 147.426
1139.722, 390.909
1140.951, 89.550
1142.180, 346.041
1143.409, 323.532
1144.638, 133.023
1145.866, 404.513
1147.095, 184.003
1148.323, 152.492
1149.551, 246.983
1150.779, 77.527
1152.006, 34.945
1153.234, 16.580
1154.461, 92.110
1155.688, 216.339
1156.915, 39.790
1158.141, 136.241
1159.368, 287.691
1160.594, 19.690
1161.820, 232.753
1163.046, 176.198
1164.272, 30.747
1165.498, 357.190
1166.723, 93.633
1167.948, 121.074
1169.173, 313.515
1170.398, 12.022
1171.623, 288.412
1172.847, 165.844
1174.071, 8.550
1175.295, 343.979
1176.519, 54.406
1177.743, 142.135
1178.966, 282.559
1180.190, 52.019
1181.413, 239.390
1182.636, 100.796
1183.858, 6.799
1185.081, 296.602
1186.303, 24.000
1187.526, 125.033
1188.748, 265.428
1189.969, 16.180
1191.191, 307.205
1192.412, 151.588
1193.634, 47.969
1194.855, 349.347
1196.076, 37.723
1197.296, 154.376
1198.517, 299.747
1199.737, 18.884
1200.957, 331.856
1202.177, 196.214
1203.397, 72.568
1204.617, 354.920
1205.836, 66.270
1207.055, 192.825
1208.274, 299.169
1209.493, 25.490
1210.712, 308.495
1211.930, 253.822
1213.148, 61.146
1214.367, 368.503
1215.584, 84.821
1216.802, 180.223
1218.020, 307.535
1219.237, 15.157
1220.454, 302.996
1221.671, 209.292
1222.888, 13.416
1224.105, 407.060
1225.321, 91.340
1226.537, 125.617
1227.753, 374.890
1228.969, 3.840
1230.185, 331.187
1231.400, 285.447
1232.616, 5.702
1233.831, 360.242
1235.046, 132.489
1236.261, 183.731
1237.475, 399.269
1238.689, 76.505
1239.904, 314.926
1241.118, 330.157
1242.332, 37.384
1243.545, 420.742
1244.759, 119.961
1245.972, 138.176
1247.185, 403.757
1248.398, 81.961
1249.611, 289.163
1250.823, 320.414
1252.036, 42.610
1253.248, 326.803
1254.460, 167.992
1255.671, 92.162
1256.883, 337.553
1258.095, 2.282
1259.306, 98.877
1260.517, 156.235
1261.728, 118.612
1262.938, 195.523
1264.149, 111.674
1265.359, 78.802
1266.569, 432.808
1267.779, 117.930
1268.989, 226.050
1270.199, 387.501
1271.408, 27.613
1272.617, 340.720
1273.826, 290.969
1275.035, 86.070
1276.244, 456.167
1277.452, 162.260
1278.661, 232.348
1279.869, 410.879
1281.077, 69.959
1282.285, 424.219
1283.492, 255.103
1284.700, 68.764
1285.907, 413.662
1287.114, 168.941
1288.321, 111.996
1289.527, 425.047
1290.734, 26.163
1291.940, 231.709
1293.146, 345.838
1294.352, 40.871
1295.558, 376.896
1296.763, 164.157
1297.969, 78.174
1299.174, 384.188
1300.379, 60.192
1301.584, 174.851
1302.788, 309.847
1303.993, 8.839
1305.197, 338.739
1306.401, 238.706
1307.605, 6.669
1308.809, 445.624
1310.013, 100.574
1311.216, 127.208
1312.419, 419.131
1313.622, 77.038
1314.825, 298.689
1316.028, 267.587
1317.230, 10.547
1318.432, 394.336
1319.634, 157.214
1320.836, 116.602
1322.038, 406.471
1323.240, 100.333
1324.441, 266.175
1325.642, 389.012
1326.843, 11.843
1328.044, 390.667
1329.245, 244.481
1330.445, 1.718
1331.645, 415.509
1332.845, 147.290
1334.045, 121.066
1335.245, 376.835
1336.445, 28.596
1337.644, 262.347
1338.843, 307.092
1340.042, 9.919
1341.241, 391.809
1342.440, 181.531
1343.638, 67.246
1344.836, 421.956
1346.034, 56.659
1347.232, 202.356
1348.430, 349.048
1349.628, 17.800
1350.825, 321.875
1352.022, 284.546
1353.219, 35.816
1354.416, 425.476
1355.613, 92.132
1356.809, 104.784
1358.005, 416.432
1359.202, 13.220
1360.398, 238.418
1361.593, 309.056
1362.789, 35.487
1363.984, 370.142
1365.179, 228.770
1366.374, 16.780
1367.569, 392.403
1368.764, 41.028
1369.958, 116.166
1371.153, 339.797
1372.347, 70.663
1373.541, 257.033
1374.735, 282.504
1375.928, 36.791
1377.122, 383.124
1378.315, 222.053
1379.508, 73.920
1380.701, 511.837
1381.893, 110.747
1383.086, 249.264
1384.278, 372.893
1385.470, 30.747
1386.662, 383.601
1387.854, 320.454
1389.046, 42.123
1390.237, 440.947
1391.428, 148.765
1392.619, 82.576
1393.810, 440.376
1395.001, 33.185
1396.191, 227.001
1397.382, 354.820
1398.572, 34.571
1399.762, 355.240
1400.952, 270.914
1402.141, 58.709
1403.331, 443.467
1404.520, 137.255
1405.709, 123.684
1406.898, 468.064
1408.087, 8.828
1409.275, 245.604
1410.464, 341.377
1411.652, 10.722
1412.840, 382.036
1414.028, 293.797
1415.215, 46.555
1416.403, 444.906
1417.590, 133.653
1418.777, 79.844
1419.964, 434.588
1421.151, 76.011
1422.338, 316.748
1423.524, 311.468
1424.710, 45.143
1425.896, 403.732
1427.082, 286.462
1428.268, 101.778
1429.453, 526.175
1430.639, 183.897
1431.824, 191.621
1433.009, 570.993
1434.194, 103.373
1435.378, 353.048
1436.563, 489.161
1437.747, 109.458
1438.931, 535.968
1440.115, 425.536
1441.299, 214.356
1442.482, 628.762
1443.666, 344.258
1444.849, 342.777
1446.032, 683.772
1447.215, 189.838
1448.397, 422.331
1449.580, 593.765
1450.762, 199.630
1451.944, 634.836
1453.126, 564.179
1454.308, 259.137
1455.490, 707.432
1456.671, 374.532
1457.852, 382.760
1459.033, 716.710
1460.214, 318.213
1461.395, 449.302
1462.575, 616.158
1463.756, 221.902
1464.936, 588.144
1466.116, 477.089
1467.296, 142.035
1468.475, 601.933
1469.655, 295.861
1470.834, 218.786
1472.013, 565.756
1473.192, 137.808
1474.371, 267.881
1475.550, 499.926
1476.728, 116.958
1477.906, 426.963
1479.084, 382.094
1480.262, 82.220
1481.440, 474.390
1482.617, 277.697
1483.795, 180.048
1484.972, 496.480
1486.149, 176.991
1487.326, 201.577
1488.502, 525.250
1489.679, 112.014
1490.855, 320.890
