##NAMES=Baryte
##RRUFFID=R040036
##IDEAL CHEMISTRY=BaS^6+^O_4_
##LOCALITY=Cumbria County, England
##OWNER=RRUFF
##SOURCE=University of Arizona Mineral Museum
##DESCRIPTION=Golden brown tabular crystal
##STATUS=The identification of this mineral has been confirmed by X-ray diffraction and chemical analysis
##URL=rruff.info/R040036
##MEASURED CHEMISTRY=Ba_1.00_S_1.00_O_4_; trace amounts of Pb
##PIN_ID=M00021
##ORIENTATION=Laser parallel to c* (0 0 1). Fiducial mark perpendicular to laser is parallel to -a [-1 0 0]
26.288, 0.000
27.694, 0.223
29.099, 25.809
30.504, 4.016
31.909, 23.477
33.313, 22.652
34.717, 67.842
36.121, 60.158
37.525, 66.986
38.929, 58.883
40.332, 53.059
41.735, 59.257
43.138, 48.049
44.541, 45.164
45.943, 48.479
47.345, 44.920
48.747, 50.286
50.149, 45.780
51.551, 44.608
52.952, 48.013
54.353, 53.795
55.754, 56.322
57.155, 70.033
58.555, 53.248
59.955, 88.588
61.355, 105.751
62.755, 88.040
64.154, 105.978
65.553, 88.740
66.952, 89.031
68.351, 85.222
69.750, 89.134
71.148, 85.734
72.546, 97.710
73.944, 86.519
75.342, 76.343
76.739, 81.170
78.136, 71.007
79.533, 61.846
80.930, 41.688
82.327, 33.527
83.723, 27.361
85.119, 13.186
86.515, 15.004
87.910, 14.207
89.306, 13.420
90.701, 7.645
92.096, 27.883
93.490, 37.131
94.885, 43.393
96.279, 35.667
97.673, 32.953
99.067, 10.131
100.461, 6.420
101.854, 0.592
103.247, 10.278
104.640, 44.160
106.032, 50.059
107.425, 63.958
108.817, 74.886
110.209, 90.838
111.601, 115.802
112.992, 124.769
114.384, 134.735
115.775, 139.744
117.166, 131.696
118.556, 157.633
119.947, 139.727
121.337, 153.001
122.727, 148.092
124.116, 168.042
125.506, 194.875
126.895, 216.869
128.284, 220.921
129.673, 237.969
131.062, 196.820
132.450, 185.750
133.838, 191.621
135.226, 155.562
136.614, 155.368
138.001, 164.057
139.388, 139.907
140.775, 157.524
142.162, 152.229
143.549, 192.919
144.935, 213.328
146.321, 240.921
147.707, 278.422
149.093, 340.969
150.478, 339.628
151.863, 351.129
153.248, 354.725
154.633, 330.201
156.018, 302.667
157.402, 253.210
158.786, 206.764
160.170, 177.256
161.554, 158.683
162.937, 158.077
164.320, 144.535
165.703, 143.021
167.086, 106.454
168.469, 107.836
169.851, 111.189
171.233, 91.531
172.615, 100.950
173.996, 103.283
175.378, 112.635
176.759, 88.533
178.140, 91.086
179.521, 120.586
180.901, 95.910
182.281, 110.221
183.662, 99.427
185.041, 122.535
186.421, 115.547
187.800, 114.414
189.180, 154.242
190.558, 130.946
191.937, 153.625
193.316, 154.114
194.694, 130.473
196.072, 133.643
197.450, 108.759
198.827, 122.761
200.205, 121.717
201.582, 109.539
202.959, 109.331
204.336, 96.082
205.712, 112.799
207.088, 110.515
208.465, 104.955
209.840, 102.430
211.216, 93.903
212.591, 84.171
213.967, 68.491
215.341, 79.644
216.716, 108.719
218.091, 67.812
219.465, 95.930
220.839, 85.071
222.213, 103.241
223.586, 95.366
224.960, 68.482
226.333, 97.492
227.706, 93.549
229.079, 56.504
230.451, 61.233
231.823, 81.930
233.195, 78.539
234.567, 86.017
235.939, 76.862
237.310, 63.753
238.682, 66.668
240.052, 70.661
241.423, 65.058
242.794, 46.536
244.164, 57.719
245.534, 58.105
246.904, 44.555
248.274, 75.531
249.643, 40.553
251.012, 42.725
252.381, 63.064
253.750, 49.781
255.118, 41.551
256.487, 51.400
257.855, 53.295
259.223, 37.260
260.590, 84.366
261.958, 60.534
263.325, 55.729
264.692, 43.848
266.059, 68.026
267.425, 44.218
268.791, 35.294
270.158, 65.398
271.523, 33.524
272.889, 43.578
274.255, 48.626
275.620, 52.666
276.985, 44.700
278.350, 35.727
279.714, 52.748
281.078, 45.762
282.443, 49.770
283.806, 46.772
285.170, 35.767
286.534, 42.757
287.897, 33.741
289.260, 38.719
290.623, 39.821
291.985, 40.417
293.348, 44.621
294.710, 44.579
296.072, 47.532
297.433, 44.481
298.795, 32.424
300.156, 43.362
301.517, 28.295
302.878, 38.224
304.239, 33.148
305.599, 40.066
306.959, 48.980
308.319, 30.890
309.679, 55.795
311.038, 26.696
312.398, 45.592
313.757, 35.484
315.116, 30.372
316.474, 31.255
317.833, 33.134
319.191, 42.949
320.549, 30.806
321.907, 37.673
323.264, 22.535
324.622, 34.314
325.979, 34.090
327.336, 30.908
328.692, 29.677
330.049, 25.468
331.405, 30.227
332.761, 27.993
334.117, 36.747
335.473, 23.491
336.828, 30.223
338.183, 16.944
339.538, 27.655
340.893, 28.357
342.247, 59.050
343.602, 35.735
344.956, 46.413
346.310, 35.084
347.663, 50.748
349.017, 42.406
350.370, 40.058
351.723, 31.675
353.076, 17.316
354.428, 35.951
355.780, 33.581
357.133, 21.207
358.484, 25.796
359.836, 18.338
361.188, 29.805
362.539, 45.323
363.890, 32.931
365.241, 30.393
366.591, 20.985
367.942, 25.526
369.292, 23.121
370.642, 13.708
371.992, 40.168
373.341, 18.755
374.691, 30.332
376.040, 38.736
377.388, 28.163
378.737, 34.099
380.086, 19.202
381.434, 29.752
382.782, 23.269
384.130, 21.734
385.477, 33.220
386.825, 19.732
388.172, 44.229
389.519, 27.653
390.865, 22.144
392.212, 21.650
393.558, 22.105
394.904, 30.712
396.250, 27.198
397.596, 34.588
398.941, 44.231
400.286, 41.737
401.631, 40.207
402.976, 34.720
404.321, 39.251
405.665, 25.704
407.009, 19.325
408.353, 11.898
409.697, 26.434
411.040, 11.914
412.384, 7.506
413.727, 33.985
415.070, 22.423
416.412, 16.002
417.755, 53.431
419.097, 38.907
420.439, 39.407
421.781, 29.925
423.122, 35.455
424.464, 47.981
425.805, 56.500
427.146, 62.986
428.486, 52.491
429.827, 56.984
431.167, 79.426
432.507, 74.903
433.847, 100.338
435.187, 110.797
436.526, 156.262
437.865, 170.729
439.204, 209.217
440.543, 234.705
441.882, 275.206
443.220, 373.694
444.558, 424.125
445.896, 595.607
447.234, 805.019
448.572, 1092.477
449.909, 1522.912
451.246, 1975.379
452.583, 2415.889
453.919, 2489.313
455.256, 2417.854
456.592, 2419.262
457.928, 2519.756
459.264, 3279.205
460.600, 4197.629
461.935, 4831.058
463.270, 4575.497
464.605, 3703.982
465.940, 2605.411
467.274, 1795.872
468.609, 1243.263
469.943, 856.710
471.277, 618.155
472.610, 444.587
473.944, 334.013
475.277, 252.421
476.610, 228.853
477.943, 174.274
479.275, 187.736
480.608, 122.138
481.940, 128.571
483.272, 116.944
484.604, 95.368
485.935, 90.797
487.267, 92.323
488.598, 79.789
489.929, 77.307
491.260, 59.772
492.590, 61.295
493.920, 58.797
495.250, 66.289
496.580, 45.743
497.910, 59.131
499.239, 46.607
500.569, 44.073
501.898, 37.483
503.226, 60.916
504.555, 56.317
505.883, 38.773
507.212, 60.292
508.540, 36.766
509.867, 21.230
511.195, 35.651
512.522, 43.095
513.849, 22.529
515.176, 48.920
516.503, 42.436
517.829, 56.853
519.156, 36.326
520.482, 37.840
521.808, 43.307
523.133, 39.803
524.459, 49.230
525.784, 19.767
527.109, 44.225
528.434, 29.739
529.758, 32.238
531.083, 36.723
532.407, 26.260
533.731, 33.990
535.055, 20.488
536.378, 26.104
537.701, 41.586
539.025, 7.162
540.348, 23.641
541.670, 36.153
542.993, 16.679
544.315, 38.416
545.637, 27.191
546.959, 16.723
548.281, 30.232
549.602, 33.757
550.923, 11.412
552.244, 24.826
553.565, 42.311
554.886, 15.794
556.206, 26.192
557.526, 16.767
558.846, 13.317
560.166, 45.850
561.486, 19.604
562.805, 27.279
564.124, 28.806
565.443, 3.313
566.762, 2.155
568.080, 27.462
569.399, 15.993
570.717, 28.499
572.035, 26.600
573.352, 23.098
574.670, 16.230
575.987, 22.726
577.304, 22.330
578.621, 23.295
579.938, 37.598
581.254, 31.247
582.570, 29.776
583.886, 41.279
585.202, 54.779
586.518, 57.268
587.833, 64.791
589.148, 68.329
590.463, 67.842
591.778, 81.328
593.093, 93.865
594.407, 93.798
595.721, 95.979
597.035, 96.479
598.349, 118.234
599.662, 116.715
600.976, 111.195
602.289, 133.689
603.602, 135.368
604.914, 198.886
606.227, 204.377
607.539, 278.987
608.851, 381.566
610.163, 470.054
611.475, 703.526
612.786, 1005.998
614.097, 1629.492
615.408, 2330.961
616.719, 2798.684
618.030, 2710.152
619.340, 2303.619
620.651, 1839.100
621.961, 1444.578
623.270, 1112.044
624.580, 995.512
625.889, 880.117
627.199, 910.761
628.507, 947.329
629.816, 946.006
631.125, 892.463
632.433, 711.919
633.741, 544.373
635.049, 401.886
636.357, 284.337
637.664, 210.800
638.972, 154.248
640.279, 149.696
641.586, 138.218
642.893, 150.757
644.199, 149.216
645.505, 190.860
646.811, 168.301
648.117, 167.838
649.423, 160.391
650.728, 141.828
652.034, 106.274
653.339, 88.723
654.644, 59.191
655.948, 42.622
657.253, 49.067
658.557, 39.495
659.861, 45.943
661.165, 48.510
662.468, 32.943
663.772, 17.365
665.075, 20.795
666.378, 0.214
667.681, 10.705
668.983, 0.873
670.286, 16.555
671.588, 1.966
672.890, 7.375
674.192, 9.215
675.493, 2.188
676.795, 5.412
678.096, 5.986
679.397, 1.619
680.697, 21.809
681.998, 19.201
683.298, 8.590
684.598, 8.015
685.898, 9.632
687.198, 6.747
688.498, 21.124
689.797, 1.498
691.096, 7.129
692.395, 15.259
693.694, 26.037
694.992, 0.598
696.290, 13.846
697.589, 0.792
698.886, 1.433
700.184, 2.061
701.482, 8.707
702.779, 5.358
704.076, 6.060
705.373, 10.404
706.669, 4.897
707.966, 2.851
709.262, 4.485
710.558, 9.819
711.854, 23.849
713.150, 20.475
714.445, 25.203
715.740, 11.111
717.035, 2.577
718.330, 9.268
719.625, 7.036
720.919, 4.661
722.214, 2.637
723.508, 7.830
724.801, 8.228
726.095, 15.521
727.388, 2.811
728.682, 0.099
729.975, 4.384
731.267, 15.668
732.560, 0.051
733.852, 3.772
735.145, 6.503
736.437, 5.791
737.728, 9.938
739.020, 11.329
740.311, 10.608
741.603, 5.871
742.894, 6.868
744.184, 0.388
745.475, 5.643
746.765, 4.105
748.055, 2.856
749.345, 5.390
750.635, 8.635
751.925, 12.877
753.214, 3.117
754.503, 14.355
755.792, 9.409
757.081, 10.823
758.370, 28.053
759.658, 4.281
760.946, 4.507
762.234, 6.731
763.522, 5.953
764.809, 4.827
766.097, 6.610
767.384, 3.396
768.671, 8.186
769.958, 16.020
771.244, 22.225
772.530, 7.428
773.817, 1.371
775.102, 24.827
776.388, 3.024
777.674, 22.219
778.959, 17.412
780.244, 2.397
781.529, 3.208
782.814, 1.978
784.098, 7.868
785.383, 5.343
786.667, 3.479
787.951, 4.302
789.235, 17.871
790.518, 2.042
791.801, 1.212
793.084, 0.620
794.367, 17.546
795.650, 0.710
796.933, 4.873
798.215, 0.034
799.497, 5.807
800.779, 1.349
802.061, 4.504
803.342, 0.903
804.624, 20.808
805.905, 3.100
807.186, 1.039
808.466, 0.114
809.747, 11.259
811.027, 12.354
812.307, 1.472
813.587, 11.359
814.867, 5.274
816.146, 11.424
817.426, 4.532
818.705, 3.415
819.984, 1.718
821.263, 6.850
822.541, 0.035
823.819, 5.867
825.098, 12.730
826.375, 2.833
827.653, 2.959
828.931, 16.036
830.208, 2.048
831.485, 18.926
832.762, 9.191
834.039, 4.759
835.315, 21.355
836.592, 4.398
837.868, 1.571
839.144, 2.445
840.420, 5.305
841.695, 4.757
842.970, 27.325
844.246, 10.573
845.521, 22.501
846.795, 26.489
848.070, 32.560
849.344, 19.655
850.618, 8.153
851.892, 11.253
853.166, 37.718
854.440, 14.817
855.713, 38.807
856.986, 26.642
858.259, 39.722
859.532, 16.664
860.804, 19.724
862.077, 52.808
863.349, 31.894
864.621, 36.989
865.893, 41.050
867.164, 22.094
868.436, 32.162
869.707, 3.256
870.978, 23.297
872.248, 18.259
873.519, 1.662
874.789, 14.413
876.060, 16.231
877.330, 1.677
878.599, 17.414
879.869, 10.491
881.138, 15.381
882.408, 13.431
883.677, 5.508
884.945, 18.464
886.214, 7.449
887.482, 37.526
888.751, 42.617
890.019, 34.708
891.287, 30.776
892.554, 29.867
893.822, 32.611
895.089, 53.795
896.356, 48.886
897.623, 56.963
898.889, 73.041
900.156, 46.131
901.422, 81.217
902.688, 38.167
903.954, 66.076
905.220, 31.061
906.485, 42.936
907.750, 44.030
909.015, 57.124
910.280, 49.219
911.545, 57.253
912.809, 64.349
914.074, 54.431
915.338, 35.528
916.602, 52.625
917.865, 38.646
919.129, 15.650
920.392, 60.733
921.655, 51.632
922.918, 64.733
924.181, 61.737
925.443, 53.723
926.706, 53.828
927.968, 63.922
929.230, 57.014
930.491, 73.088
931.753, 79.200
933.014, 59.297
934.276, 66.411
935.536, 61.591
936.797, 80.477
938.058, 59.584
939.318, 73.702
940.578, 76.811
941.838, 83.931
943.098, 74.977
944.358, 93.092
945.617, 63.200
946.876, 93.325
948.135, 78.451
949.394, 70.575
950.653, 119.705
951.911, 89.836
953.169, 104.968
954.427, 111.102
955.685, 122.168
956.943, 130.305
958.200, 115.443
959.458, 158.575
960.715, 174.716
961.971, 180.861
963.228, 220.007
964.485, 284.154
965.741, 349.302
966.997, 333.420
968.253, 325.163
969.508, 397.317
970.764, 424.392
972.019, 470.550
973.274, 566.709
974.529, 622.852
975.784, 740.015
977.039, 855.181
978.293, 1063.277
979.547, 1453.447
980.801, 2024.418
982.055, 3078.591
983.308, 5307.766
984.562, 10290.943
985.815, 25370.121
987.068, 46479.301
988.321, 51188.488
989.573, 36927.676
990.826, 20376.867
992.078, 11426.062
993.330, 6645.259
994.582, 3796.457
995.833, 2416.657
997.085, 1616.859
998.336, 1273.063
999.587, 986.269
1000.838, 810.477
1002.088, 754.686
1003.339, 614.897
1004.589, 548.111
1005.839, 458.326
1007.089, 406.543
1008.339, 363.763
1009.588, 334.970
1010.838, 316.193
1012.087, 270.420
1013.336, 271.634
1014.584, 258.865
1015.833, 234.097
1017.081, 240.332
1018.330, 263.569
1019.577, 217.808
1020.825, 215.050
1022.073, 225.294
1023.320, 203.540
1024.567, 224.788
1025.814, 213.039
1027.061, 229.292
1028.308, 217.546
1029.554, 235.804
1030.800, 201.064
1032.046, 188.326
1033.292, 142.589
1034.538, 136.855
1035.783, 122.123
1037.029, 104.393
1038.274, 87.665
1039.519, 64.940
1040.763, 72.219
1042.008, 91.501
1043.252, 55.785
1044.496, 77.071
1045.740, 63.359
1046.984, 76.650
1048.228, 75.942
1049.471, 91.236
1050.714, 62.536
1051.957, 61.834
1053.200, 67.135
1054.442, 84.488
1055.685, 46.793
1056.927, 61.153
1058.169, 74.463
1059.411, 53.775
1060.652, 61.505
1061.894, 36.821
1063.135, 68.140
1064.376, 46.195
1065.617, 20.540
1066.858, 26.865
1068.098, 48.191
1069.339, 35.578
1070.579, 51.671
1071.819, 59.317
1073.058, 68.690
1074.298, 78.059
1075.537, 89.398
1076.776, 95.740
1078.015, 142.084
1079.254, 160.430
1080.493, 271.778
1081.731, 259.128
1082.969, 308.479
1084.207, 313.832
1085.445, 236.187
1086.683, 213.544
1087.920, 135.903
1089.157, 98.264
1090.394, 101.627
1091.631, 61.992
1092.868, 43.359
1094.105, 74.727
1095.341, 29.139
1096.577, 49.514
1097.813, 73.892
1099.049, 52.272
1100.284, 118.656
1101.519, 110.130
1102.755, 147.521
1103.990, 149.913
1105.224, 127.308
1106.459, 103.704
1107.693, 92.673
1108.928, 63.503
1110.162, 59.905
1111.395, 38.309
1112.629, 29.715
1113.863, 19.122
1115.096, 12.532
1116.329, 29.944
1117.562, 7.357
1118.795, 18.771
1120.027, 41.187
1121.259, 7.605
1122.492, 65.026
1123.723, 39.448
1124.955, 43.872
1126.187, 22.299
1127.418, 29.728
1128.649, 27.159
1129.880, 36.591
1131.111, 50.028
1132.342, 68.463
1133.572, 96.900
1134.802, 170.338
1136.033, 221.778
1137.262, 285.220
1138.492, 361.663
1139.722, 408.107
1140.951, 406.552
1142.180, 495.000
1143.409, 497.450
1144.638, 522.900
1145.866, 440.363
1147.095, 362.816
1148.323, 315.270
1149.551, 247.726
1150.779, 198.183
1152.006, 148.641
1153.234, 107.102
1154.461, 99.564
1155.688, 100.028
1156.915, 71.492
1158.141, 72.126
1159.368, 70.592
1160.594, 83.062
1161.820, 75.530
1163.046, 97.999
1164.272, 93.477
1165.498, 131.948
1166.723, 99.420
1167.948, 150.893
1169.173, 108.367
1170.398, 79.869
1171.623, 78.344
1172.847, 53.928
1174.071, 62.551
1175.295, 44.029
1176.519, 16.507
1177.743, 5.986
1178.966, 6.465
1180.190, 8.945
1181.413, 8.426
1182.636, 0.093
1183.858, 24.389
1185.081, 15.871
1186.303, 4.646
1187.526, 19.836
1188.748, 4.681
1189.969, 18.802
1191.191, 3.285
1192.412, 21.232
1193.634, 8.248
1194.855, 1.728
1196.076, 34.792
1197.296, 2.319
1198.517, 5.155
1199.737, 1.628
1200.957, 4.888
1202.177, 2.415
1203.397, 4.261
1204.617, 3.333
1205.836, 2.861
1207.055, 6.727
1208.274, 7.198
1209.493, 21.670
1210.712, 27.237
1211.930, 14.709
1213.148, 2.180
1214.367, 5.800
1215.584, 23.122
1216.802, 2.606
1218.020, 20.102
1219.237, 14.592
1220.454, 22.152
1221.671, 21.635
1222.888, 1.132
1224.105, 33.646
1225.321, 25.114
1226.537, 2.847
1227.753, 10.743
1228.969, 0.444
1230.185, 26.910
1231.400, 20.086
1232.616, 4.411
1233.831, 13.218
1235.046, 42.681
1236.261, 33.143
1237.475, 31.605
1238.689, 28.185
1239.904, 41.876
1241.118, 38.341
1242.332, 16.810
1243.545, 44.268
1244.759, 44.726
1245.972, 37.183
1247.185, 56.658
1248.398, 30.177
1249.611, 44.633
1250.823, 27.089
1252.036, 6.545
1253.248, 21.482
1254.460, 7.954
1255.671, 52.473
1256.883, 26.246
1258.095, 47.723
1259.306, 21.480
1260.517, 25.983
1261.728, 2.437
1262.938, 16.891
1264.149, 15.454
1265.359, 25.907
1266.569, 26.217
1267.779, 30.998
1268.989, 28.449
1270.199, 29.900
1271.408, 37.351
1272.617, 44.093
1273.826, 10.542
1275.035, 26.991
1276.244, 2.503
1277.452, 34.949
1278.661, 21.434
1279.869, 13.946
1281.077, 25.390
1282.285, 40.982
1283.492, 39.706
1284.700, 45.149
1285.907, 18.633
1287.114, 15.074
1288.321, 4.466
1289.527, 22.973
1290.734, 6.463
1291.940, 43.899
1293.146, 17.334
1294.352, 5.767
1295.558, 40.200
1296.763, 7.632
1297.969, 27.104
1299.174, 30.533
1300.379, 2.961
1301.584, 40.388
1302.788, 1.191
1303.993, 2.774
1305.197, 8.635
1306.401, 34.042
1307.605, 18.448
1308.809, 11.850
1310.013, 28.250
1311.216, 48.650
1312.419, 41.048
1313.622, 45.613
1314.825, 43.837
1316.028, 33.226
1317.230, 31.559
1318.432, 26.939
1319.634, 20.264
1320.836, 20.502
1322.038, 30.011
1323.240, 21.965
1324.441, 16.333
1325.642, 24.694
1326.843, 16.319
1328.044, 21.654
1329.245, 36.008
1330.445, 7.354
1331.645, 26.638
1332.845, 2.046
1334.045, 15.240
1335.245, 13.536
1336.445, 1.165
1337.644, 36.162
1338.843, 30.486
1340.042, 0.193
1341.241, 22.124
1342.440, 20.438
1343.638, 10.750
1344.836, 13.059
1346.034, 7.364
1347.232, 4.893
1348.430, 5.966
1349.628, 0.262
1350.825, 7.555
1352.022, 4.845
1353.219, 3.132
1354.416, 23.416
1355.613, 20.303
1356.809, 1.066
1358.005, 5.793
1359.202, 11.475
1360.398, 26.258
1361.593, 4.003
1362.789, 2.826
1363.984, 16.430
1365.179, 37.683
1366.374, 14.935
1367.569, 0.815
1368.764, 5.567
1369.958, 9.679
1371.153, 8.924
1372.347, 20.243
1373.541, 19.488
1374.735, 15.155
1375.928, 6.909
1377.122, 2.322
1378.315, 15.733
1379.508, 12.141
1380.701, 13.437
1381.893, 16.057
1383.086, 8.337
1384.278, 2.727
1385.470, 8.884
1386.662, 7.502
1387.854, 8.114
1389.046, 4.266
1390.237, 20.643
1391.428, 23.005
1392.619, 0.377
1393.810, 36.745
1395.001, 4.108
1396.191, 0.533
1397.382, 17.622
1398.572, 23.972
1399.762, 23.313
1400.952, 7.339
1402.141, 31.006
1403.331, 21.313
1404.520, 3.326
1405.709, 45.660
1406.898, 5.991
1408.087, 3.321
1409.275, 18.648
1410.464, 1.027
1411.652, 6.703
1412.840, 24.620
1414.028, 5.944
1415.215, 42.270
1416.403, 9.605
1417.590, 19.925
1418.777, 5.053
1419.964, 15.386
1421.151, 23.538
1422.338, 33.718
1423.524, 23.046
1424.710, 39.375
1425.896, 6.639
1427.082, 50.784
1428.268, 48.040
1429.453, 39.289
1430.639, 15.402
1431.824, 74.295
1433.009, 48.245
1434.194, 18.224
1435.378, 75.501
1436.563, 49.113
1437.747, 69.349
1438.931, 57.613
1440.115, 65.839
1441.299, 85.972
1442.482, 123.223
1443.666, 83.409
1444.849, 115.799
1446.032, 93.275
1447.215, 92.336
1448.397, 113.242
1449.580, 121.259
1450.762, 105.072
1451.944, 122.188
1453.126, 99.555
1454.308, 95.465
1455.490, 135.429
1456.671, 83.295
1457.852, 136.126
1459.033, 108.986
1460.214, 90.886
1461.395, 138.667
1462.575, 65.584
1463.756, 88.483
1464.936, 85.224
1466.116, 84.072
1467.296, 64.912
1468.475, 77.779
1469.655, 54.651
1470.834, 93.518
1472.013, 58.355
1473.192, 63.165
1474.371, 83.000
1475.550, 35.856
1476.728, 44.702
1477.906, 38.538
1479.084, 44.389
1480.262, 52.233
1481.440, 48.131
1482.617, 41.034
1483.795, 49.939
1484.972, 57.857
1486.149, 50.784
1487.326, 39.719
1488.502, 44.669
1489.679, 18.639
1490.855, 10.630
1492.031, 26.650
1493.207, 12.699
1494.383, 25.782
1495.559, 6.907
1496.734, 13.086
1497.909, 33.334
1499.084, 1.329
1500.259, 21.130
1501.434, 11.457
1502.608, 0.000
##END=



