##NAMES=Baryte
##RRUFFID=R040036
##IDEAL CHEMISTRY=BaS^6+^O_4_
##LOCALITY=Cumbria County, England
##OWNER=RRUFF
##SOURCE=University of Arizona Mineral Museum
##DESCRIPTION=Golden brown tabular crystal
##STATUS=The identification of this mineral has been confirmed by X-ray diffraction and chemical analysis
##URL=rruff.info/R040036
##MEASURED CHEMISTRY=Ba_1.00_S_1.00_O_4_; trace amounts of Pb
##PIN_ID=M00019
##ORIENTATION=Laser parallel to b* (0 1 0). Fiducial mark perpendicular to laser is parallel to c [0 0 1]
26.288, 0.000
27.694, 5.289
29.099, 61.066
30.504, 1.693
31.909, 16.254
33.313, 45.741
34.717, 73.291
36.121, 9.846
37.525, 43.100
38.929, 49.162
40.332, 79.110
41.735, 88.194
43.138, 42.943
44.541, 100.301
45.943, 116.283
47.345, 101.935
48.747, 101.473
50.149, 146.172
51.551, 107.613
52.952, 99.587
54.353, 105.370
55.754, 111.602
57.155, 152.796
58.555, 152.640
59.955, 135.149
61.355, 141.289
62.755, 140.264
64.154, 145.729
65.553, 124.757
66.952, 113.991
68.351, 116.310
69.750, 107.475
71.148, 63.923
72.546, 67.315
73.944, 44.946
75.342, 34.767
76.739, 25.159
78.136, 3.958
79.533, 7.925
80.930, 6.806
82.327, 11.246
83.723, 11.958
85.119, 14.337
86.515, 23.498
87.910, 28.715
89.306, 0.949
90.701, 19.204
92.096, 21.477
93.490, 38.770
94.885, 1.086
96.279, 10.324
97.673, 26.832
99.067, 50.778
100.461, 28.601
101.854, 21.371
103.247, 23.039
104.640, 23.766
106.032, 32.542
107.425, 23.355
108.817, 28.198
110.209, 43.063
111.601, 73.943
112.992, 81.832
114.384, 90.725
115.775, 100.612
117.166, 132.575
118.556, 121.503
119.947, 116.565
121.337, 117.768
122.727, 114.022
124.116, 103.110
125.506, 114.410
126.895, 129.517
128.284, 159.642
129.673, 152.557
131.062, 163.547
132.450, 148.344
133.838, 150.219
135.226, 156.085
136.614, 144.755
138.001, 129.544
139.388, 124.181
140.775, 109.847
142.162, 101.589
143.549, 99.221
144.935, 129.626
146.321, 158.005
147.707, 157.402
149.093, 188.772
150.478, 275.179
151.863, 256.548
153.248, 293.853
154.633, 290.200
156.018, 327.534
157.402, 303.787
158.786, 277.096
160.170, 230.378
161.554, 189.480
162.937, 155.600
164.320, 118.778
165.703, 118.927
167.086, 99.113
168.469, 93.257
169.851, 110.301
171.233, 97.326
172.615, 103.313
173.996, 111.403
175.378, 99.535
176.759, 140.953
178.140, 151.867
179.521, 188.508
180.901, 217.744
182.281, 268.959
183.662, 343.195
185.041, 460.269
186.421, 600.039
187.800, 716.862
189.180, 778.571
190.558, 741.279
191.937, 669.878
193.316, 554.140
194.694, 453.534
196.072, 341.796
197.450, 247.973
198.827, 216.125
200.205, 179.153
201.582, 150.087
202.959, 143.776
204.336, 133.435
205.712, 140.924
207.088, 105.482
208.465, 114.871
209.840, 108.158
211.216, 119.217
212.591, 84.308
213.967, 87.396
215.341, 86.297
216.716, 94.163
218.091, 64.953
219.465, 89.772
220.839, 84.425
222.213, 77.990
223.586, 57.317
224.960, 70.609
226.333, 81.762
227.706, 67.401
229.079, 69.304
230.451, 84.168
231.823, 70.624
233.195, 74.038
234.567, 54.367
235.939, 62.622
237.310, 78.672
238.682, 61.337
240.052, 53.537
241.423, 59.745
242.794, 39.525
244.164, 56.196
245.534, 59.588
246.904, 44.606
248.274, 41.841
249.643, 51.863
251.012, 49.812
252.381, 31.772
253.750, 55.767
255.118, 32.804
256.487, 32.750
257.855, 42.741
259.223, 31.856
260.590, 53.194
261.958, 52.510
263.325, 55.910
264.692, 48.298
266.059, 54.825
267.425, 40.293
268.791, 42.728
270.158, 51.159
271.523, 35.563
272.889, 45.906
274.255, 49.291
275.620, 32.738
276.985, 46.222
278.350, 41.695
279.714, 50.157
281.078, 24.608
282.443, 45.049
283.806, 26.479
285.170, 30.899
286.534, 50.281
287.897, 31.631
289.260, 32.907
290.623, 34.137
291.985, 29.350
293.348, 45.698
294.710, 47.052
296.072, 50.397
297.433, 33.735
298.795, 27.064
300.156, 40.384
301.517, 39.696
302.878, 28.000
304.239, 26.296
305.599, 28.583
306.959, 32.862
308.319, 25.133
309.679, 42.396
311.038, 30.652
312.398, 34.875
313.757, 37.094
315.116, 37.216
316.474, 37.306
317.833, 17.471
319.191, 29.571
320.549, 12.695
321.907, 19.852
323.264, 3.948
324.622, 29.114
325.979, 36.259
327.336, 28.386
328.692, 36.495
330.049, 31.587
331.405, 42.663
332.761, 25.721
334.117, 32.765
335.473, 36.793
336.828, 32.807
338.183, 33.806
339.538, 41.790
340.893, 33.763
342.247, 41.721
343.602, 39.668
344.956, 22.603
346.310, 31.525
347.663, 26.435
349.017, 40.335
350.370, 23.224
351.723, 35.104
353.076, 18.975
354.428, 36.783
355.780, 14.629
357.133, 51.438
358.484, 34.276
359.836, 30.965
361.188, 40.665
362.539, 29.355
363.890, 41.079
365.241, 21.663
366.591, 10.360
367.942, 30.029
369.292, 39.666
370.642, 24.207
371.992, 31.808
373.341, 36.463
374.691, 30.055
376.040, 32.659
377.388, 35.335
378.737, 38.954
380.086, 50.595
381.434, 12.152
382.782, 28.755
384.130, 34.443
385.477, 48.054
386.825, 27.637
388.172, 32.256
389.519, 27.794
390.865, 47.413
392.212, 47.054
393.558, 41.627
394.904, 41.187
396.250, 44.805
397.596, 56.405
398.941, 30.922
400.286, 42.553
401.631, 39.078
402.976, 35.605
404.321, 40.188
405.665, 25.712
407.009, 47.369
408.353, 25.024
409.697, 49.657
411.040, 64.307
412.384, 39.933
413.727, 57.491
415.070, 46.058
416.412, 44.664
417.755, 45.195
419.097, 56.774
420.439, 68.368
421.781, 72.919
423.122, 76.496
424.464, 87.051
425.805, 103.643
427.146, 114.116
428.486, 152.682
429.827, 181.160
431.167, 204.690
432.507, 258.277
433.847, 276.787
435.187, 371.323
436.526, 477.835
437.865, 591.367
439.204, 752.932
440.543, 949.585
441.882, 1278.172
443.220, 1680.681
444.558, 2302.158
445.896, 3208.696
447.234, 4425.230
448.572, 5943.710
449.909, 7390.181
451.246, 8501.676
452.583, 8563.176
453.919, 7256.641
455.256, 5648.184
456.592, 4023.673
457.928, 2881.182
459.264, 2107.701
460.600, 1506.221
461.935, 1126.744
463.270, 849.175
464.605, 642.664
465.940, 498.073
467.274, 430.516
468.609, 299.886
469.943, 254.373
471.277, 207.894
472.610, 185.378
473.944, 148.901
475.277, 147.403
476.610, 118.957
477.943, 101.432
479.275, 82.941
480.608, 83.470
481.940, 74.982
483.272, 60.498
484.604, 55.053
485.935, 57.572
487.267, 54.128
488.598, 40.677
489.929, 57.147
491.260, 59.659
492.590, 30.150
493.920, 51.706
495.250, 32.184
496.580, 46.718
497.910, 56.177
499.239, 36.722
500.569, 39.164
501.898, 37.777
503.226, 43.314
504.555, 42.837
505.883, 47.407
507.212, 48.926
508.540, 32.503
509.867, 47.991
511.195, 40.430
512.522, 26.962
513.849, 58.541
515.176, 37.050
516.503, 30.596
517.829, 35.166
519.156, 48.708
520.482, 35.265
521.808, 51.838
523.133, 56.430
524.459, 39.044
525.784, 31.514
527.109, 39.064
528.434, 22.641
529.758, 31.254
531.083, 35.803
532.407, 38.375
533.731, 31.928
535.055, 29.542
536.378, 32.157
537.701, 16.818
539.025, 12.434
540.348, 20.051
541.670, 17.667
542.993, 22.250
544.315, 16.869
545.637, 25.490
546.959, 12.109
548.281, 33.730
549.602, 6.334
550.923, 6.009
552.244, 29.580
553.565, 2.309
554.886, 25.929
556.206, 29.548
557.526, 15.168
558.846, 15.789
560.166, 36.416
561.486, 30.050
562.805, 13.668
564.124, 5.315
565.443, 35.955
566.762, 22.606
568.080, 33.224
569.399, 22.883
570.717, 21.500
572.035, 17.116
573.352, 5.858
574.670, 13.502
575.987, 10.139
577.304, 5.872
578.621, 24.618
579.938, 3.233
581.254, 23.144
582.570, 2.186
583.886, 38.658
585.202, 26.312
586.518, 21.930
587.833, 22.578
589.148, 24.237
590.463, 13.076
591.778, 19.686
593.093, 9.337
594.407, 23.945
595.721, 30.591
597.035, 27.225
598.349, 30.832
599.662, 33.809
600.976, 55.450
602.289, 45.221
603.602, 60.214
604.914, 83.106
606.227, 91.782
607.539, 128.432
608.851, 188.038
610.163, 276.962
611.475, 399.596
612.786, 662.293
614.097, 960.120
615.408, 1226.822
616.719, 1233.770
618.030, 1103.413
619.340, 878.069
620.651, 744.921
621.961, 599.693
623.270, 551.290
624.580, 538.927
625.889, 564.812
627.199, 687.433
628.507, 694.026
629.816, 794.908
631.125, 728.533
632.433, 651.190
633.741, 626.841
635.049, 568.525
636.357, 615.201
637.664, 674.798
638.972, 781.381
640.279, 960.989
641.586, 1211.576
642.893, 1591.397
644.199, 1997.013
645.505, 2313.623
646.811, 2407.198
648.117, 2137.773
649.423, 1671.552
650.728, 1171.206
652.034, 821.061
653.339, 568.656
654.644, 402.223
655.948, 266.789
657.253, 218.353
658.557, 189.916
659.861, 115.724
661.165, 119.283
662.468, 89.285
663.772, 69.861
665.075, 46.414
666.378, 70.966
667.681, 42.517
668.983, 57.096
670.286, 23.686
671.588, 25.231
672.890, 42.774
674.192, 24.315
675.493, 31.076
676.795, 29.830
678.096, 3.575
679.397, 28.314
680.697, 45.919
681.998, 35.447
683.298, 44.209
684.598, 19.197
685.898, 13.944
687.198, 12.489
688.498, 17.996
689.797, 6.768
691.096, 2.245
692.395, 16.945
693.694, 2.504
694.992, 20.947
696.290, 23.569
697.589, 27.067
698.886, 13.562
700.184, 12.055
701.482, 10.545
702.779, 28.032
704.076, 7.573
705.373, 9.181
706.669, 6.661
707.966, 14.137
709.262, 4.611
710.558, 15.082
711.854, 17.551
713.150, 2.984
714.445, 7.448
715.740, 9.038
717.035, 2.516
718.330, 3.093
719.625, 16.356
720.919, 10.240
722.214, 1.200
723.508, 7.444
724.801, 3.989
726.095, 11.418
727.388, 4.844
728.682, 2.268
729.975, 7.312
731.267, 25.104
732.560, 3.517
733.852, 15.913
735.145, 4.320
736.437, 6.724
737.728, 27.126
739.020, 13.136
740.311, 5.256
741.603, 4.247
742.894, 13.862
744.184, 9.483
745.475, 0.110
746.765, 2.262
748.055, 11.637
749.345, 10.999
750.635, 5.358
751.925, 1.287
753.214, 6.937
754.503, 1.591
755.792, 12.249
757.081, 2.087
758.370, 0.420
759.658, 8.250
760.946, 4.926
762.234, 13.394
763.522, 1.711
764.809, 9.975
766.097, 4.333
767.384, 12.638
768.671, 10.059
769.958, 2.238
771.244, 0.468
772.530, 0.177
773.817, 1.890
775.102, 1.607
776.388, 6.673
777.674, 19.950
778.959, 3.225
780.244, 7.496
781.529, 8.235
782.814, 1.028
784.098, 1.289
785.383, 8.546
786.667, 12.801
787.951, 6.947
789.235, 1.699
790.518, 10.455
791.801, 1.784
793.084, 13.019
794.367, 14.253
795.650, 10.483
796.933, 6.711
798.215, 9.063
799.497, 13.157
800.779, 17.625
802.061, 1.586
803.342, 22.795
804.624, 26.001
805.905, 6.204
807.186, 0.405
808.466, 0.396
809.747, 6.799
811.027, 15.992
812.307, 5.182
813.587, 8.630
814.867, 8.447
816.146, 8.268
817.426, 8.139
818.705, 2.969
819.984, 15.198
821.263, 9.637
822.541, 19.478
823.819, 9.324
825.098, 0.176
826.375, 6.964
827.653, 10.893
828.931, 5.213
830.208, 9.704
831.485, 1.572
832.762, 7.450
834.039, 5.422
835.315, 33.703
836.592, 12.826
837.868, 11.945
839.144, 13.056
840.420, 10.157
841.695, 2.728
842.970, 7.645
844.246, 10.443
845.521, 11.516
846.795, 17.622
848.070, 3.683
849.344, 11.784
850.618, 2.884
851.892, 19.856
853.166, 7.076
854.440, 27.997
855.713, 29.971
856.986, 36.930
858.259, 25.018
859.532, 11.808
860.804, 41.838
862.077, 38.689
863.349, 29.730
864.621, 15.805
865.893, 21.847
867.164, 7.877
868.436, 17.724
869.707, 8.800
870.978, 4.832
872.248, 15.905
873.519, 12.940
874.789, 20.984
876.060, 17.946
877.330, 28.750
878.599, 8.219
879.869, 3.679
881.138, 0.353
882.408, 17.127
883.677, 0.115
884.945, 0.872
886.214, 7.183
887.482, 41.920
888.751, 32.945
890.019, 11.906
891.287, 12.736
892.554, 35.689
893.822, 30.394
895.089, 30.403
896.356, 58.397
897.623, 52.195
898.889, 57.070
900.156, 45.119
901.422, 58.127
902.688, 48.885
903.954, 39.905
905.220, 60.953
906.485, 28.709
907.750, 23.721
909.015, 49.700
910.280, 23.684
911.545, 47.633
912.809, 38.589
914.074, 54.624
915.338, 22.671
916.602, 29.691
917.865, 28.732
919.129, 39.538
920.392, 52.547
921.655, 45.560
922.918, 28.607
924.181, 57.654
925.443, 58.495
926.706, 32.459
927.968, 67.222
929.230, 35.244
930.491, 73.293
931.753, 33.342
933.014, 66.391
934.276, 60.441
935.536, 44.245
936.797, 62.296
938.058, 31.913
939.318, 60.945
940.578, 61.999
941.838, 73.053
943.098, 72.107
944.358, 43.133
945.617, 67.145
946.876, 65.202
948.135, 60.260
949.394, 76.320
950.653, 70.158
951.911, 71.002
953.169, 89.854
954.427, 79.711
955.685, 68.691
956.943, 89.757
958.200, 102.587
959.458, 125.191
960.715, 167.034
961.971, 190.080
963.228, 278.152
964.485, 291.969
965.741, 330.044
966.997, 319.895
968.253, 378.928
969.508, 406.010
970.764, 443.971
972.019, 510.056
973.274, 594.142
974.529, 651.230
975.784, 808.320
977.039, 994.412
978.293, 1379.450
979.547, 1896.385
980.801, 2828.482
982.055, 4792.583
983.308, 8855.685
984.562, 20366.787
985.815, 41125.891
987.068, 52345.000
988.321, 43104.109
989.573, 25203.092
990.826, 13802.209
992.078, 7917.327
993.330, 4476.447
994.582, 2725.570
995.833, 1885.696
997.085, 1295.825
998.336, 1072.957
999.587, 821.092
1000.838, 743.229
1002.088, 664.369
1003.339, 524.511
1004.589, 472.657
1005.839, 401.805
1007.089, 351.956
1008.339, 335.109
1009.588, 278.265
1010.838, 264.424
1012.087, 234.245
1013.336, 218.410
1014.584, 202.470
1015.833, 190.642
1017.081, 166.817
1018.330, 185.997
1019.577, 162.177
1020.825, 178.354
1022.073, 171.542
1023.320, 140.735
1024.567, 134.932
1025.814, 122.131
1027.061, 113.335
1028.308, 130.542
1029.554, 101.754
1030.800, 73.968
1032.046, 54.186
1033.292, 70.408
1034.538, 90.633
1035.783, 48.863
1037.029, 63.095
1038.274, 47.332
1039.519, 28.572
1040.763, 28.815
1042.008, 36.062
1043.252, 49.314
1044.496, 60.569
1045.740, 24.827
1046.984, 44.089
1048.228, 34.355
1049.471, 43.624
1050.714, 38.896
1051.957, 28.171
1053.200, 36.450
1054.442, 27.733
1055.685, 18.019
1056.927, 10.308
1058.169, 34.601
1059.411, 22.896
1060.652, 42.196
1061.894, 22.500
1063.135, 2.808
1064.376, 20.120
1065.617, 14.438
1066.858, 41.762
1068.098, 17.088
1069.339, 35.418
1070.579, 28.753
1071.819, 0.908
1073.058, 58.438
1074.298, 37.788
1075.537, 38.141
1076.776, 37.497
1078.015, 62.860
1079.254, 68.226
1080.493, 56.595
1081.731, 55.971
1082.969, 101.351
1084.207, 72.734
1085.445, 46.122
1086.683, 78.514
1087.920, 57.910
1089.157, 78.311
1090.394, 102.716
1091.631, 113.125
1092.868, 149.537
1094.105, 139.955
1095.341, 225.379
1096.577, 290.805
1097.813, 420.235
1099.049, 615.670
1100.284, 847.110
1101.519, 1128.553
1102.755, 1326.004
1103.990, 1279.458
1105.224, 1093.915
1106.459, 860.376
1107.693, 603.841
1108.928, 455.308
1110.162, 340.779
1111.395, 251.255
1112.629, 192.733
1113.863, 169.216
1115.096, 175.702
1116.329, 168.192
1117.562, 122.687
1118.795, 145.184
1120.027, 124.685
1121.259, 152.189
1122.492, 177.696
1123.723, 154.207
1124.955, 211.721
1126.187, 223.238
1127.418, 298.758
1128.649, 337.282
1129.880, 448.808
1131.111, 603.339
1132.342, 876.873
1133.572, 1303.410
1134.802, 1957.950
1136.033, 2590.494
1137.262, 2971.042
1138.492, 2915.593
1139.722, 2506.147
1140.951, 2286.705
1142.180, 2115.265
1143.409, 1856.829
1144.638, 1675.395
1145.866, 1370.966
1147.095, 1143.541
1148.323, 942.119
1149.551, 771.699
1150.779, 631.283
1152.006, 544.870
1153.234, 476.460
1154.461, 454.053
1155.688, 464.650
1156.915, 460.323
1158.141, 512.939
1159.368, 620.544
1160.594, 744.181
1161.820, 1029.792
1163.046, 1328.406
1164.272, 1616.022
1165.498, 1792.641
1166.723, 1695.263
1167.948, 1458.031
1169.173, 1096.658
1170.398, 857.288
1171.623, 694.920
1172.847, 549.554
1174.071, 465.191
1175.295, 346.073
1176.519, 268.720
1177.743, 262.364
1178.966, 220.051
1180.190, 166.699
1181.413, 155.350
1182.636, 127.028
1183.858, 117.683
1185.081, 94.340
1186.303, 68.000
1187.526, 102.662
1188.748, 68.326
1189.969, 79.992
1191.191, 100.660
1192.412, 20.331
1193.634, 71.017
1194.855, 71.691
1196.076, 23.580
1197.296, 24.736
1198.517, 39.881
1199.737, 55.562
1200.957, 46.311
1202.177, 40.996
1203.397, 48.884
1204.617, 37.029
1205.836, 37.734
1207.055, 43.426
1208.274, 43.119
1209.493, 47.437
1210.712, 51.133
1211.930, 56.843
1213.148, 74.358
1214.367, 54.066
1215.584, 33.769
1216.802, 58.485
1218.020, 25.190
1219.237, 65.909
1220.454, 35.726
1221.671, 42.454
1222.888, 17.171
1224.105, 50.882
1225.321, 43.593
1226.537, 51.422
1227.753, 60.154
1228.969, 34.869
1230.185, 55.733
1231.400, 12.585
1232.616, 43.356
1233.831, 56.742
1235.046, 33.477
1236.261, 45.198
1237.475, 47.919
1238.689, 46.701
1239.904, 58.424
1241.118, 60.163
1242.332, 74.118
1243.545, 38.843
1244.759, 38.569
1245.972, 47.296
1247.185, 33.203
1248.398, 44.150
1249.611, 52.894
1250.823, 27.624
1252.036, 33.354
1253.248, 30.086
1254.460, 13.819
1255.671, 24.553
1256.883, 19.289
1258.095, 21.025
1259.306, 19.781
1260.517, 25.520
1261.728, 45.457
1262.938, 39.232
1264.149, 32.975
1265.359, 26.738
1266.569, 31.715
1267.779, 39.502
1268.989, 24.382
1270.199, 21.128
1271.408, 40.875
1272.617, 57.623
1273.826, 16.371
1275.035, 41.151
1276.244, 39.935
1277.452, 38.683
1278.661, 26.432
1279.869, 31.182
1281.077, 14.940
1282.285, 27.742
1283.492, 13.558
1284.700, 36.310
1285.907, 4.239
1287.114, 6.008
1288.321, 1.260
1289.527, 14.498
1290.734, 2.756
1291.940, 61.984
1293.146, 24.725
1294.352, 23.560
1295.558, 19.296
1296.763, 8.026
1297.969, 8.243
1299.174, 15.486
1300.379, 14.214
1301.584, 3.943
1302.788, 9.670
1303.993, 5.397
1305.197, 11.879
1306.401, 0.162
1307.605, 5.555
1308.809, 2.730
1310.013, 4.985
1311.216, 21.697
1312.419, 1.591
1313.622, 13.116
1314.825, 27.822
1316.028, 29.528
1317.230, 28.233
1318.432, 35.938
1319.634, 25.642
1320.836, 11.342
1322.038, 23.041
1323.240, 0.264
1324.441, 29.427
1325.642, 8.882
1326.843, 20.194
1328.044, 19.511
1329.245, 14.169
1330.445, 2.153
1331.645, 7.521
1332.845, 7.809
1334.045, 19.142
1335.245, 0.521
1336.445, 12.180
1337.644, 6.838
1338.843, 25.507
1340.042, 6.144
1341.241, 1.793
1342.440, 33.560
1343.638, 3.081
1344.836, 12.720
1346.034, 2.357
1347.232, 14.992
1348.430, 2.625
1349.628, 2.744
1350.825, 1.884
1352.022, 4.510
1353.219, 7.134
1354.416, 17.756
1355.613, 2.624
1356.809, 2.993
1358.005, 21.609
1359.202, 3.778
1360.398, 3.166
1361.593, 0.443
1362.789, 25.861
1363.984, 4.742
1365.179, 11.343
1366.374, 13.942
1367.569, 0.541
1368.764, 10.138
1369.958, 5.775
1371.153, 6.638
1372.347, 14.003
1373.541, 10.653
1374.735, 24.410
1375.928, 4.070
1377.122, 5.790
1378.315, 6.962
1379.508, 28.714
1380.701, 29.466
1381.893, 17.218
1383.086, 12.969
1384.278, 40.719
1385.470, 18.466
1386.662, 38.212
1387.854, 8.955
1389.046, 30.696
1390.237, 3.564
1391.428, 6.175
1392.619, 43.913
1393.810, 9.649
1395.001, 4.616
1396.191, 6.116
1397.382, 0.256
1398.572, 17.436
1399.762, 34.162
1400.952, 16.886
1402.141, 26.430
1403.331, 9.150
1404.520, 8.870
1405.709, 38.274
1406.898, 20.982
1408.087, 17.641
1409.275, 15.319
1410.464, 7.029
1411.652, 5.739
1412.840, 26.447
1414.028, 0.845
1415.215, 40.843
1416.403, 21.553
1417.590, 14.567
1418.777, 25.154
1419.964, 26.833
1421.151, 36.478
1422.338, 2.182
1423.524, 22.815
1424.710, 28.155
1425.896, 44.765
1427.082, 29.371
1428.268, 30.785
1429.453, 37.396
1430.639, 36.819
1431.824, 89.406
1433.009, 71.519
1434.194, 63.826
1435.378, 79.381
1436.563, 50.851
1437.747, 83.399
1438.931, 102.527
1440.115, 90.089
1441.299, 122.850
1442.482, 118.360
1443.666, 109.894
1444.849, 129.418
1446.032, 95.931
1447.215, 130.395
1448.397, 121.360
1449.580, 140.779
1450.762, 157.584
1451.944, 154.685
1453.126, 146.091
1454.308, 115.404
1455.490, 139.694
1456.671, 98.057
1457.852, 115.243
1459.033, 119.382
1460.214, 122.173
1461.395, 112.429
1462.575, 94.728
1463.756, 95.727
1464.936, 112.037
1466.116, 79.348
1467.296, 80.645
1468.475, 73.926
1469.655, 47.226
1470.834, 67.531
1472.013, 79.826
1473.192, 38.123
1474.371, 27.418
1475.550, 60.692
1476.728, 42.959
1477.906, 60.235
1479.084, 45.528
1480.262, 45.816
1481.440, 50.101
1482.617, 44.411
1483.795, 53.738
1484.972, 53.085
1486.149, 42.437
1487.326, 31.795
1488.502, 61.160
1489.679, 2.534
1490.855, 34.923
1492.031, 27.331
1493.207, 31.760
1494.383, 39.214
1495.559, 24.692
1496.734, 10.200
1497.909, 26.005
1499.084, 7.211
1500.259, 6.253
1501.434, 1.518
1502.608, 23.363
1503.783, 0.000
##END=



