##NAMES=Baryte
##RRUFFID=R040036
##IDEAL CHEMISTRY=BaS^6+^O_4_
##LOCALITY=Cumbria County, England
##OWNER=RRUFF
##SOURCE=University of Arizona Mineral Museum
##DESCRIPTION=Golden brown tabular crystal
##STATUS=The identification of this mineral has been confirmed by X-ray diffraction and chemical analysis
##URL=rruff.info/R040036
##MEASURED CHEMISTRY=Ba_1.00_S_1.00_O_4_; trace amounts of Pb
##PIN_ID=M00028
##ORIENTATION=Laser parallel to -a* (-1 0 0). Fiducial mark perpendicular to laser is parallel to -b [0 -1 0]
26.288, 0.000
27.694, 16.811
29.099, 12.542
30.504, 40.692
31.909, 37.070
33.313, 26.567
34.717, 28.344
36.121, 42.016
37.525, 47.708
38.929, 50.514
40.332, 51.237
41.735, 50.528
43.138, 55.790
44.541, 42.791
45.943, 56.074
47.345, 47.710
48.747, 35.095
50.149, 51.892
51.551, 27.814
52.952, 34.508
54.353, 34.716
55.754, 34.570
57.155, 55.608
58.555, 57.401
59.955, 41.489
61.355, 79.137
62.755, 53.798
64.154, 61.469
65.553, 49.151
66.952, 44.847
68.351, 26.560
69.750, 34.289
71.148, 33.035
72.546, 31.796
73.944, 27.570
75.342, 27.356
76.739, 14.152
78.136, 20.956
79.533, 9.767
80.930, 3.421
82.327, 3.607
83.723, 19.792
85.119, 18.976
86.515, 31.158
87.910, 29.337
89.306, 37.513
90.701, 32.687
92.096, 18.857
93.490, 17.023
94.885, 2.814
96.279, 13.656
97.673, 60.502
99.067, 86.353
100.461, 115.208
101.854, 109.078
103.247, 145.987
104.640, 154.930
106.032, 211.902
107.425, 252.900
108.817, 251.919
110.209, 329.955
111.601, 320.005
112.992, 393.064
114.384, 490.130
115.775, 495.019
117.166, 664.269
118.556, 547.335
119.947, 525.396
121.337, 518.453
122.727, 606.504
124.116, 569.548
125.506, 628.586
126.895, 669.617
128.284, 765.640
129.673, 836.647
131.062, 789.631
132.450, 716.586
133.838, 556.511
135.226, 561.413
136.614, 454.307
138.001, 439.205
139.388, 478.108
140.775, 456.016
142.162, 524.930
143.549, 474.849
144.935, 584.773
146.321, 614.702
147.707, 651.637
149.093, 751.576
150.478, 700.521
151.863, 685.472
153.248, 617.427
154.633, 588.388
156.018, 529.354
157.402, 480.325
158.786, 466.302
160.170, 384.284
161.554, 416.271
162.937, 356.265
164.320, 361.263
165.703, 352.267
167.086, 347.277
168.469, 381.293
169.851, 313.314
171.233, 379.341
172.615, 336.373
173.996, 341.411
175.378, 322.456
176.759, 303.501
178.140, 334.513
179.521, 324.487
180.901, 335.420
182.281, 297.313
183.662, 327.163
185.041, 327.970
186.421, 334.733
187.800, 386.453
189.180, 366.130
190.558, 438.763
191.937, 369.350
193.316, 421.887
194.694, 351.383
196.072, 275.843
197.450, 315.264
198.827, 246.624
200.205, 291.984
201.582, 245.232
202.959, 266.473
204.336, 251.655
205.712, 221.752
207.088, 274.852
208.465, 236.868
209.840, 254.754
211.216, 223.796
212.591, 231.737
213.967, 257.723
215.341, 195.659
216.716, 245.583
218.091, 197.384
219.465, 206.267
220.839, 229.149
222.213, 216.029
223.586, 239.881
224.960, 197.772
226.333, 259.506
227.706, 205.326
229.079, 220.022
230.451, 211.479
231.823, 204.943
233.195, 226.044
234.567, 209.645
235.939, 249.035
237.310, 194.948
238.682, 205.684
240.052, 197.544
241.423, 139.737
242.794, 185.985
244.164, 180.696
245.534, 207.578
246.904, 163.722
248.274, 167.870
249.643, 176.021
251.012, 142.177
252.381, 198.337
253.750, 147.501
255.118, 182.668
256.487, 141.839
257.855, 172.027
259.223, 194.205
260.590, 130.386
261.958, 191.571
263.325, 149.759
264.692, 182.952
266.059, 183.147
267.425, 137.346
268.791, 186.548
270.158, 97.754
271.523, 182.964
272.889, 134.177
274.255, 160.395
275.620, 168.616
276.985, 136.840
278.350, 166.069
279.714, 94.302
281.078, 147.539
282.443, 130.780
283.806, 102.026
285.170, 161.277
286.534, 82.533
287.897, 177.794
289.260, 104.059
290.623, 141.329
291.985, 117.603
293.348, 107.882
294.710, 143.166
296.072, 75.454
297.433, 135.747
298.795, 84.045
300.156, 106.347
301.517, 134.654
302.878, 78.966
304.239, 127.282
305.599, 70.603
306.959, 116.928
308.319, 91.258
309.679, 86.593
311.038, 85.932
312.398, 76.276
313.757, 129.625
315.116, 55.978
316.474, 100.336
317.833, 103.699
319.191, 46.066
320.549, 146.438
321.907, 59.814
323.264, 92.195
324.622, 58.576
325.979, 84.957
327.336, 75.338
328.692, 46.720
330.049, 121.103
331.405, 59.487
332.761, 81.872
334.117, 87.259
335.473, 46.647
336.828, 86.037
338.183, 43.430
339.538, 101.824
340.893, 67.222
342.247, 51.622
343.602, 103.025
344.956, 30.432
346.310, 126.842
347.663, 59.255
349.017, 73.673
350.370, 66.095
351.723, 25.522
353.076, 105.953
354.428, 33.390
355.780, 64.831
357.133, 37.279
358.484, 42.732
359.836, 36.190
361.188, 6.654
362.539, 83.124
363.890, 11.600
365.241, 46.082
366.591, 57.571
367.942, 25.065
369.292, 68.566
370.642, 4.915
371.992, 63.597
373.341, 52.117
374.691, 57.643
376.040, 40.177
377.388, 11.718
378.737, 91.268
380.086, 19.828
381.434, 45.398
382.782, 68.978
384.130, 13.570
385.477, 68.173
386.825, 21.787
388.172, 79.411
389.519, 33.044
390.865, 46.685
392.212, 78.332
393.558, 20.984
394.904, 121.641
396.250, 35.306
397.596, 93.976
398.941, 55.652
400.286, 23.332
401.631, 63.018
402.976, 1.289
404.321, 68.408
405.665, 37.110
407.009, 27.894
408.353, 78.607
409.697, 1.328
411.040, 63.054
412.384, 27.787
413.727, 28.621
415.070, 51.364
416.412, 20.128
417.755, 42.771
419.097, 25.650
420.439, 56.419
421.781, 72.194
423.122, 65.977
424.464, 115.764
425.805, 71.557
427.146, 133.355
428.486, 107.157
429.827, 141.088
431.167, 206.905
432.507, 158.728
433.847, 257.556
435.187, 246.390
436.526, 354.233
437.865, 442.081
439.204, 486.934
440.543, 705.793
441.882, 789.656
443.220, 1147.528
444.558, 1445.404
445.896, 1911.285
447.234, 2741.172
448.572, 3552.062
449.909, 5135.959
451.246, 6590.860
452.583, 8762.767
453.919, 9928.679
455.256, 9187.594
456.592, 7613.518
457.928, 5600.445
459.264, 4119.376
460.600, 3132.314
461.935, 2409.256
463.270, 2030.204
464.605, 1468.157
465.940, 1114.114
467.274, 845.078
468.609, 561.046
469.943, 518.019
471.277, 353.996
472.610, 331.978
473.944, 271.968
475.277, 207.962
476.610, 242.963
477.943, 110.968
479.275, 163.977
480.608, 120.994
481.940, 114.015
483.272, 117.043
484.604, 69.074
485.935, 122.110
487.267, 31.151
488.598, 89.197
489.929, 71.248
491.260, 29.302
492.590, 117.361
493.920, 15.426
495.250, 89.494
496.580, 65.567
497.910, 45.643
499.239, 82.723
500.569, 19.810
501.898, 117.901
503.226, 37.996
504.555, 42.095
505.883, 83.197
507.212, 12.305
508.540, 102.417
509.867, 33.533
511.195, 33.651
512.522, 96.774
513.849, 1.100
515.176, 93.999
516.503, 26.132
517.829, 66.268
519.156, 85.407
520.482, 10.549
521.808, 111.695
523.133, 47.843
524.459, 73.995
525.784, 88.149
527.109, 27.307
528.434, 74.468
529.758, 13.631
531.083, 78.797
532.407, 35.965
533.731, 43.137
535.055, 78.311
536.378, 26.487
537.701, 99.665
539.025, 24.442
540.348, 70.625
541.670, 46.833
542.993, 26.021
544.315, 87.215
545.637, 15.711
546.959, 32.896
548.281, 41.096
549.602, 9.702
550.923, 86.501
552.244, 16.401
553.565, 60.606
554.886, 83.230
556.206, 11.560
557.526, 76.651
558.846, 1.071
560.166, 55.143
561.486, 44.359
562.805, 7.875
564.124, 78.094
565.443, 28.008
566.762, 63.229
568.080, 40.456
569.399, 22.684
570.717, 99.908
572.035, 11.865
573.352, 76.360
574.670, 48.869
575.987, 22.160
577.304, 57.387
578.621, 19.693
579.938, 115.921
581.254, 43.396
582.570, 46.624
583.886, 88.854
585.202, 50.940
586.518, 126.169
587.833, 54.399
589.148, 79.729
590.463, 108.959
591.778, 48.546
593.093, 150.776
594.407, 53.006
595.721, 127.438
597.035, 136.668
598.349, 66.477
599.662, 208.706
600.976, 130.936
602.289, 177.427
603.602, 198.655
604.914, 224.292
606.227, 304.321
607.539, 356.746
608.851, 509.647
610.163, 636.872
611.475, 836.244
612.786, 1305.468
614.097, 1769.691
615.408, 2619.792
616.719, 3428.014
618.030, 3847.842
619.340, 3778.062
620.651, 3222.280
621.961, 2628.257
623.270, 2035.473
624.580, 1599.201
625.889, 1419.415
627.199, 1092.627
628.507, 978.225
629.816, 876.434
631.125, 767.922
632.433, 682.153
633.741, 570.333
635.049, 508.041
636.357, 405.242
637.664, 293.442
638.972, 324.639
640.279, 211.835
641.586, 302.817
642.893, 237.009
644.199, 185.247
645.505, 310.435
646.811, 205.621
648.117, 266.434
649.423, 234.616
650.728, 223.796
652.034, 230.974
653.339, 111.149
654.644, 245.539
655.948, 149.698
657.253, 89.867
658.557, 168.033
659.861, 33.196
661.165, 109.443
662.468, 44.602
663.772, 51.758
665.075, 92.917
666.378, 14.068
667.681, 48.405
668.983, 53.551
670.286, 27.694
671.588, 71.835
672.890, 4.972
674.192, 62.213
675.493, 19.345
676.795, 22.474
678.096, 34.624
679.397, 22.253
680.697, 50.871
681.998, 2.983
683.298, 28.092
684.598, 78.182
685.898, 8.715
687.198, 74.382
688.498, 46.491
689.797, 56.582
691.096, 79.593
692.395, 25.323
693.694, 96.752
694.992, 13.177
696.290, 19.887
697.589, 77.072
698.886, 40.871
700.184, 82.162
701.482, 15.203
702.779, 7.759
704.076, 39.458
705.373, 24.515
706.669, 28.503
707.966, 8.518
709.262, 8.529
710.558, 50.536
711.854, 37.460
713.150, 44.413
714.445, 6.599
715.740, 3.382
717.035, 61.360
718.330, 40.667
719.625, 39.293
720.919, 4.750
722.214, 16.200
723.508, 57.147
724.801, 30.909
726.095, 36.023
727.388, 26.951
728.682, 1.876
729.975, 98.797
731.267, 9.286
732.560, 53.623
733.852, 32.556
735.145, 2.541
736.437, 70.356
737.728, 18.750
739.020, 76.134
740.311, 28.015
741.603, 5.107
742.894, 69.764
744.184, 11.368
745.475, 51.492
746.765, 34.349
748.055, 22.798
749.345, 92.045
750.635, 0.115
751.925, 56.720
753.214, 38.552
754.503, 31.620
755.792, 79.196
757.081, 19.991
758.370, 27.812
759.658, 31.612
760.946, 26.591
762.234, 103.195
763.522, 16.022
764.809, 42.752
766.097, 55.523
767.384, 10.709
768.671, 80.052
769.958, 6.191
771.244, 61.560
772.530, 39.308
773.817, 15.948
775.102, 79.789
776.388, 22.522
777.674, 28.252
778.959, 84.979
780.244, 28.297
781.529, 106.416
782.814, 4.125
784.098, 49.831
785.383, 78.534
786.667, 21.766
787.951, 107.925
789.235, 53.613
790.518, 9.297
791.801, 90.979
793.084, 4.342
794.367, 81.331
795.650, 57.002
796.933, 23.670
798.215, 137.335
799.497, 0.997
800.779, 80.655
802.061, 66.310
803.342, 6.963
804.624, 83.613
805.905, 3.740
807.186, 95.902
808.466, 64.542
809.747, 30.178
811.027, 115.813
812.307, 0.556
813.587, 58.072
814.867, 96.698
816.146, 3.320
817.426, 86.940
818.705, 3.962
819.984, 20.576
821.263, 83.166
822.541, 39.224
823.819, 79.374
825.098, 20.670
826.375, 2.263
827.653, 104.854
828.931, 7.443
830.208, 77.030
831.485, 52.920
832.762, 35.503
834.039, 91.668
835.315, 7.753
836.592, 37.822
837.868, 30.330
839.144, 41.901
840.420, 115.471
841.695, 7.260
842.970, 138.304
844.246, 111.172
845.521, 53.734
846.795, 181.289
848.070, 34.842
849.344, 127.399
850.618, 145.952
851.892, 56.507
853.166, 194.776
854.440, 77.263
855.713, 135.814
856.986, 121.284
858.259, 79.832
859.532, 219.134
860.804, 184.680
862.077, 149.225
863.349, 237.913
864.621, 102.457
865.893, 176.000
867.164, 141.442
868.436, 59.985
869.707, 154.170
870.978, 2.290
872.248, 40.250
873.519, 41.588
874.789, 5.127
876.060, 140.087
877.330, 31.624
878.599, 109.162
879.869, 128.437
881.138, 14.974
882.408, 163.103
883.677, 51.642
884.945, 76.183
886.214, 116.049
887.482, 6.598
888.751, 148.000
890.019, 67.549
891.287, 47.098
892.554, 177.769
893.822, 33.321
895.089, 208.266
896.356, 134.818
897.623, 90.371
898.889, 235.165
900.156, 115.719
901.422, 191.760
902.688, 175.315
903.954, 82.871
905.220, 194.040
906.485, 78.597
907.750, 131.874
909.015, 183.432
910.280, 64.992
911.545, 155.047
912.809, 96.608
914.074, 74.172
915.338, 166.738
916.602, 22.305
917.865, 172.089
919.129, 100.661
920.392, 53.189
921.655, 134.765
922.918, 38.343
924.181, 104.293
925.443, 114.875
926.706, 41.457
927.968, 172.043
929.230, 48.631
930.491, 92.004
931.753, 171.595
933.014, 32.187
934.276, 154.782
935.536, 108.379
936.797, 84.892
938.058, 154.493
939.318, 46.095
940.578, 141.695
941.838, 106.301
943.098, 67.720
944.358, 204.333
945.617, 47.947
946.876, 124.563
948.135, 149.181
949.394, 70.696
950.653, 194.318
951.911, 80.943
953.169, 134.546
954.427, 228.175
955.685, 94.799
956.943, 206.435
958.200, 155.073
959.458, 129.728
960.715, 260.370
961.971, 142.017
963.228, 277.649
964.485, 334.301
965.741, 300.955
966.997, 483.612
968.253, 351.274
969.508, 433.939
970.764, 548.608
972.019, 462.060
973.274, 625.735
974.529, 666.417
975.784, 743.102
977.039, 977.789
978.293, 1072.295
979.547, 1473.990
980.801, 2008.690
982.055, 2781.394
983.308, 4560.099
984.562, 7873.808
985.815, 16452.518
987.068, 36271.238
988.321, 55429.961
989.573, 56308.688
990.826, 37147.414
992.078, 20046.148
993.330, 11004.893
994.582, 6109.637
995.833, 3803.384
997.085, 2469.135
998.336, 1669.891
999.587, 1417.654
1000.838, 1074.419
1002.088, 995.317
1003.339, 948.090
1004.589, 740.866
1005.839, 730.647
1007.089, 548.405
1008.339, 456.192
1009.588, 506.983
1010.838, 365.777
1012.087, 376.577
1013.336, 344.381
1014.584, 232.187
1015.833, 341.998
1017.081, 250.812
1018.330, 291.269
1019.577, 324.238
1020.825, 237.064
1022.073, 339.576
1023.320, 267.411
1024.567, 241.353
1025.814, 337.196
1027.061, 185.042
1028.308, 284.358
1029.554, 264.214
1030.800, 133.076
1032.046, 258.940
1033.292, 129.808
1034.538, 134.683
1035.783, 215.560
1037.029, 56.443
1038.274, 154.330
1039.519, 112.219
1040.763, 67.113
1042.008, 203.016
1043.252, 53.918
1044.496, 130.823
1045.740, 129.731
1046.984, 24.644
1048.228, 162.100
1049.471, 78.020
1050.714, 76.942
1051.957, 185.497
1053.200, 125.429
1054.442, 229.736
1055.685, 273.675
1056.927, 293.616
1058.169, 363.742
1059.411, 172.693
1060.652, 174.646
1061.894, 185.106
1063.135, 35.065
1064.376, 155.026
1065.617, 109.992
1066.858, 81.960
1068.098, 142.153
1069.339, 61.127
1070.579, 158.104
1071.819, 203.185
1073.058, 124.168
1074.298, 275.154
1075.537, 228.144
1076.776, 315.136
1078.015, 422.666
1079.254, 387.669
1080.493, 661.675
1081.731, 817.709
1082.969, 952.720
1084.207, 1028.048
1085.445, 1017.750
1086.683, 948.769
1087.920, 795.791
1089.157, 494.816
1090.394, 478.844
1091.631, 341.875
1092.868, 296.912
1094.105, 345.956
1095.341, 253.003
1096.577, 345.052
1097.813, 469.248
1099.049, 471.302
1100.284, 785.359
1101.519, 965.418
1102.755, 1296.485
1103.990, 1697.554
1105.224, 1705.625
1106.459, 1619.705
1107.693, 1372.787
1108.928, 906.871
1110.162, 847.957
1111.395, 520.046
1112.629, 393.140
1113.863, 396.236
1115.096, 213.334
1116.329, 260.435
1117.562, 195.539
1118.795, 104.644
1120.027, 181.754
1121.259, 90.866
1122.492, 148.980
1123.723, 174.095
1124.955, 73.213
1126.187, 131.335
1127.418, 41.460
1128.649, 20.586
1129.880, 114.714
1131.111, 11.148
1132.342, 98.280
1133.572, 123.413
1134.802, 11.354
1136.033, 152.782
1137.262, 122.919
1138.492, 53.057
1139.722, 181.200
1140.951, 72.344
1142.180, 161.490
1143.409, 170.637
1144.638, 66.785
1145.866, 183.935
1147.095, 94.087
1148.323, 65.239
1149.551, 111.394
1150.779, 32.450
1152.006, 11.299
1153.234, 18.855
1154.461, 76.990
1155.688, 102.150
1156.915, 8.709
1158.141, 11.532
1159.368, 128.674
1160.594, 24.182
1161.820, 87.957
1163.046, 107.100
1164.272, 20.244
1165.498, 132.388
1166.723, 74.535
1167.948, 37.683
1169.173, 145.831
1170.398, 38.981
1171.623, 84.131
1172.847, 82.282
1174.071, 0.434
1175.295, 124.586
1176.519, 23.738
1177.743, 102.891
1178.966, 113.045
1180.190, 25.801
1181.413, 103.349
1182.636, 64.498
1183.858, 29.352
1185.081, 131.792
1186.303, 18.064
1187.526, 3.140
1188.748, 91.280
1189.969, 9.579
1191.191, 96.560
1192.412, 61.699
1193.634, 23.162
1194.855, 125.972
1196.076, 30.106
1197.296, 25.240
1198.517, 126.373
1199.737, 10.493
1200.957, 64.691
1202.177, 57.821
1203.397, 5.048
1204.617, 145.081
1205.836, 26.209
1207.055, 36.695
1208.274, 132.823
1209.493, 23.050
1210.712, 128.891
1211.930, 109.012
1213.148, 0.132
1214.367, 109.251
1215.584, 61.369
1216.802, 48.487
1218.020, 127.604
1219.237, 40.720
1220.454, 104.108
1221.671, 113.222
1222.888, 14.336
1224.105, 182.317
1225.321, 74.429
1226.537, 11.539
1227.753, 139.717
1228.969, 4.174
1230.185, 123.975
1231.400, 123.079
1232.616, 61.182
1233.831, 163.384
1235.046, 72.485
1236.261, 79.584
1237.475, 248.821
1238.689, 70.918
1239.904, 155.014
1241.118, 183.109
1242.332, 24.203
1243.545, 214.808
1244.759, 111.900
1245.972, 110.990
1247.185, 194.395
1248.398, 57.481
1249.611, 145.566
1250.823, 186.173
1252.036, 23.258
1253.248, 138.342
1254.460, 85.425
1255.671, 48.506
1256.883, 163.333
1258.095, 50.412
1259.306, 76.490
1260.517, 108.604
1261.728, 7.320
1262.938, 82.754
1264.149, 60.881
1265.359, 1.953
1266.569, 146.993
1267.779, 91.062
1268.989, 118.130
1270.199, 199.724
1271.408, 68.790
1272.617, 212.855
1273.826, 195.920
1275.035, 102.983
1276.244, 190.045
1277.452, 107.206
1278.661, 94.266
1279.869, 225.439
1281.077, 48.497
1282.285, 117.917
1283.492, 160.505
1284.700, 41.559
1285.907, 153.932
1287.114, 131.067
1288.321, 3.015
1289.527, 153.064
1290.734, 32.112
1291.940, 75.696
1293.146, 158.179
1294.352, 37.221
1295.558, 159.257
1296.763, 118.552
1297.969, 37.585
1299.174, 172.617
1300.379, 40.688
1301.584, 75.708
1302.788, 145.728
1303.993, 27.746
1305.197, 111.757
1306.401, 124.763
1307.605, 41.768
1308.809, 199.761
1310.013, 105.753
1311.216, 101.198
1312.419, 184.182
1313.622, 54.161
1314.825, 144.504
1316.028, 174.475
1317.230, 11.072
1318.432, 169.032
1319.634, 105.989
1320.836, 47.762
1322.038, 196.715
1323.240, 77.664
1324.441, 136.101
1325.642, 184.040
1326.843, 42.976
1328.044, 166.909
1329.245, 133.837
1330.445, 14.542
1331.645, 172.456
1332.845, 71.366
1334.045, 56.171
1335.245, 139.074
1336.445, 7.033
1337.644, 96.850
1338.843, 105.730
1340.042, 26.928
1341.241, 158.939
1342.440, 99.802
1343.638, 28.635
1344.836, 150.491
1346.034, 36.343
1347.232, 109.191
1348.430, 135.035
1349.628, 3.124
1350.825, 88.712
1352.022, 126.544
1353.219, 28.628
1354.416, 151.192
1355.613, 59.009
1356.809, 13.823
1358.005, 121.633
1359.202, 19.297
1360.398, 54.103
1361.593, 87.906
1362.789, 38.293
1363.984, 108.501
1365.179, 65.295
1366.374, 39.825
1367.569, 154.962
1368.764, 29.748
1369.958, 31.676
1371.153, 120.466
1372.347, 12.752
1373.541, 89.180
1374.735, 115.934
1375.928, 3.989
1377.122, 137.250
1378.315, 38.244
1379.508, 12.769
1380.701, 138.216
1381.893, 62.194
1383.086, 106.167
1384.278, 166.813
1385.470, 22.224
1386.662, 111.630
1387.854, 138.587
1389.046, 24.536
1390.237, 171.481
1391.428, 97.423
1392.619, 21.361
1393.810, 161.295
1395.001, 12.230
1396.191, 82.168
1397.382, 156.995
1398.572, 12.064
1399.762, 126.878
1400.952, 87.814
1402.141, 44.744
1403.331, 156.670
1404.520, 60.594
1405.709, 13.514
1406.898, 189.432
1408.087, 11.348
1409.275, 78.268
1410.464, 146.191
1411.652, 17.968
1412.840, 179.959
1414.028, 85.888
1415.215, 18.820
1416.403, 176.754
1417.590, 62.688
1418.777, 38.547
1419.964, 184.484
1421.151, 7.124
1422.338, 124.808
1423.524, 153.463
1424.710, 0.387
1425.896, 172.312
1427.082, 131.239
1428.268, 28.713
1429.453, 271.166
1430.639, 99.069
1431.824, 89.855
1433.009, 257.686
1434.194, 131.610
1435.378, 200.490
1436.563, 257.242
1437.747, 141.086
1438.931, 277.936
1440.115, 276.760
1441.299, 162.952
1442.482, 359.696
1443.666, 298.479
1444.849, 239.257
1446.032, 430.409
1447.215, 280.061
1448.397, 309.783
1449.580, 419.370
1450.762, 249.836
1451.944, 347.248
1453.126, 379.890
1454.308, 258.517
1455.490, 471.869
1456.671, 326.152
1457.852, 273.715
1459.033, 472.359
1460.214, 294.594
1461.395, 366.032
1462.575, 406.444
1463.756, 190.470
1464.936, 322.994
1466.116, 315.293
1467.296, 154.448
1468.475, 364.725
1469.655, 232.996
1470.834, 192.296
1472.013, 255.611
1473.192, 124.918
1474.371, 136.240
1475.550, 241.557
1476.728, 96.875
1477.906, 221.166
1479.084, 229.486
1480.262, 99.779
1481.440, 224.063
1482.617, 197.429
1483.795, 109.791
1484.972, 271.260
1486.149, 93.779
1487.326, 64.333
1488.502, 229.922
1489.679, 87.549
1490.855, 123.224
1492.031, 194.963
1493.207, 13.786
1494.383, 147.709
1495.559, 97.741
1496.734, 7.897
1497.909, 158.212
1499.084, 50.618
1500.259, 9.796
1501.434, 171.821
1502.608, 3.289
1503.783, 0.000
##END=



