##NAMES=Barysilite
##RRUFFID=R050002
##IDEAL CHEMISTRY=Pb^2+^_8_Mn^2+^(Si_2_O_7_)_3_
##LOCALITY=Franklin, Sussex County, New Jersey, USA
##OWNER=RRUFF
##SOURCE=University of Arizona Mineral Museum
##DESCRIPTION=A lamellar aggregate of platy crystals
##STATUS=The identification of this mineral has been confirmed by X-ray diffraction and chemical analysis
##URL=rruff.info/R050002
##MEASURED CHEMISTRY=Pb_8.00_Mn_1.00_(Si_2.00_O_7_)_3_
##PIN_ID=M00057
##ORIENTATION=Laser parallel to c* (0 0 1). Fiducial mark perpendicular to laser is parallel to a [1 0 0]
94.071, 0.000
95.465, 28.103
96.858, 1875.777
98.251, 4922.848
99.644, 8439.467
101.036, 11110.984
102.428, 13204.945
103.820, 14344.853
105.212, 14278.064
106.604, 12873.685
107.995, 10536.362
109.387, 8218.303
110.777, 6082.184
112.168, 5246.100
113.559, 4317.927
114.949, 4015.040
116.339, 3654.529
117.729, 3446.423
119.119, 3295.833
120.508, 2941.109
121.897, 2652.773
123.286, 2866.196
124.675, 2594.903
126.063, 2550.313
127.452, 2839.538
128.840, 2471.887
130.228, 2378.680
131.615, 1942.015
133.003, 2143.390
134.390, 1495.360
135.777, 1496.532
137.164, 924.582
138.550, 877.316
139.937, 297.073
141.323, 114.952
142.709, 202.922
144.094, 115.215
145.480, 212.082
146.865, 193.078
148.250, 188.539
149.635, 110.838
151.019, 225.411
152.403, 174.686
153.788, 148.017
155.171, 103.487
156.555, 259.204
157.939, 162.043
159.322, 194.215
160.705, 31.849
162.088, 11.321
163.470, 77.305
164.853, 157.830
166.235, 185.861
167.617, 638.233
168.998, 1364.123
170.380, 2278.558
171.761, 3562.627
173.142, 4990.466
174.523, 7276.152
175.904, 9733.584
177.284, 12786.633
178.664, 16242.551
180.044, 19022.982
181.424, 22485.152
182.803, 24999.119
184.183, 26524.758
185.562, 27524.566
186.940, 27886.189
188.319, 26545.686
189.698, 24708.562
191.076, 21967.088
192.454, 19469.691
193.831, 16726.902
195.209, 14422.306
196.586, 12464.571
197.963, 10637.029
199.340, 9259.469
200.717, 7778.729
202.093, 7028.387
203.470, 6167.517
204.846, 5519.285
206.221, 4770.935
207.597, 4415.278
208.972, 4076.827
210.347, 3320.700
211.722, 3078.174
213.097, 2818.674
214.472, 2336.573
215.846, 2176.862
217.220, 1761.515
218.594, 1599.524
219.967, 1579.871
221.341, 1480.123
222.714, 1286.465
224.087, 1148.432
225.460, 1271.014
226.832, 1181.874
228.204, 1211.289
229.577, 1291.153
230.948, 1426.987
232.320, 1442.917
233.692, 1434.939
235.063, 1664.052
236.434, 1734.249
237.805, 1946.534
239.175, 1812.898
240.545, 1783.343
241.916, 2127.858
243.286, 1912.448
244.655, 1918.104
246.025, 1961.821
247.394, 1973.886
248.763, 2030.633
250.132, 1869.673
251.501, 2412.062
252.869, 2259.812
254.237, 2378.031
255.605, 2583.568
256.973, 2452.868
258.340, 2591.915
259.708, 2448.524
261.075, 2209.548
262.442, 2095.764
263.808, 1620.729
265.175, 1244.426
266.541, 1112.539
267.907, 719.166
269.273, 421.613
270.639, 349.491
272.004, 124.457
273.369, 2.801
274.734, 104.485
276.099, 27.485
277.463, 6.435
278.828, 36.755
280.192, 1.314
281.556, 46.243
282.919, 36.667
284.283, 17.430
285.646, 28.692
287.009, 73.359
288.372, 76.317
289.734, 26.148
291.097, 65.335
292.459, 30.605
293.821, 39.157
295.183, 10.661
296.544, 49.448
297.905, 15.367
299.266, 102.534
300.627, 82.793
301.988, 80.179
303.348, 29.308
304.709, 93.249
306.069, 71.986
307.428, 20.425
308.788, 38.826
310.147, 70.258
311.507, 143.764
312.865, 158.813
314.224, 258.182
315.583, 274.036
316.941, 613.611
318.299, 897.263
319.657, 902.102
321.015, 1224.118
322.372, 1441.211
323.729, 1320.922
325.086, 1497.506
326.443, 1564.411
327.800, 1256.293
329.156, 1663.348
330.512, 1371.674
331.868, 1320.919
333.224, 1415.075
334.579, 1459.205
335.935, 993.251
337.290, 1243.257
338.645, 893.181
339.999, 811.029
341.354, 639.798
342.708, 457.528
344.062, 406.173
345.416, 180.735
346.769, 182.204
348.123, 93.444
349.476, 91.810
350.829, 70.292
352.182, 36.757
353.534, 57.542
354.887, 49.280
356.239, 123.272
357.591, 214.185
358.942, 66.538
360.294, 273.273
361.645, 399.387
362.996, 300.931
364.347, 636.998
365.698, 600.898
367.048, 650.628
368.398, 749.347
369.748, 902.037
371.098, 1209.710
372.448, 1038.371
373.797, 1261.018
375.146, 1145.686
376.495, 1320.341
377.844, 1634.984
379.192, 1283.609
380.540, 1506.264
381.889, 1084.900
383.236, 1164.512
384.584, 1292.098
385.932, 1029.609
387.279, 839.076
388.626, 989.480
389.973, 940.846
391.319, 679.177
392.666, 663.472
394.012, 479.737
395.358, 448.968
396.704, 365.162
398.049, 205.324
399.394, 521.446
400.740, 9.530
402.084, 127.565
403.429, 44.557
404.774, 37.332
406.118, 202.590
407.462, 18.467
408.806, 26.807
410.150, 21.427
411.493, 142.794
412.836, 313.694
414.179, 290.285
415.522, 30.114
416.865, 436.606
418.207, 431.081
419.549, 352.188
420.891, 540.820
422.233, 727.445
423.575, 804.443
424.916, 652.416
426.257, 1142.948
427.598, 1387.820
428.939, 1607.121
430.279, 2018.258
431.619, 1967.913
432.959, 2091.435
434.299, 2307.895
435.639, 2765.128
436.978, 2400.859
438.318, 2552.120
439.657, 2369.191
440.996, 2545.644
442.334, 2151.563
443.673, 1775.206
445.011, 1671.066
446.349, 1735.967
447.687, 1392.732
449.024, 1302.754
450.361, 1094.505
451.699, 520.428
453.036, 742.225
454.372, 324.728
455.709, 615.989
457.045, 221.746
458.381, 410.548
459.717, 190.517
461.053, 142.355
462.388, 81.854
463.724, 121.864
465.059, 357.371
466.394, 102.552
467.728, 61.149
469.063, 429.656
470.397, 470.414
471.731, 434.652
473.065, 835.234
474.398, 581.714
475.732, 1421.443
477.065, 992.108
478.398, 1594.846
479.731, 1886.815
481.063, 2124.406
482.396, 2212.897
483.728, 2362.979
485.060, 2723.367
486.391, 2645.135
487.723, 2947.646
489.054, 2975.908
490.385, 3600.485
491.716, 4001.427
493.047, 4300.546
494.377, 5237.435
495.708, 5853.784
497.038, 7159.693
498.368, 8186.935
499.697, 9455.660
501.027, 10971.088
502.356, 12448.494
503.685, 13614.076
505.014, 14896.828
506.342, 15053.282
507.671, 15619.836
508.999, 14679.187
510.327, 14268.341
511.655, 13077.495
512.982, 11722.779
514.310, 10269.830
515.637, 8581.552
516.964, 7781.613
518.291, 6403.607
519.617, 5696.097
520.944, 4825.183
522.270, 3822.805
523.596, 3610.249
524.921, 2942.341
526.247, 2580.288
527.572, 2239.782
528.897, 1841.074
530.222, 1906.294
531.547, 1754.068
532.871, 1816.156
534.196, 1372.761
535.520, 1455.712
536.844, 1714.593
538.167, 1445.441
539.491, 1483.210
540.814, 1045.883
542.137, 1142.492
543.460, 783.029
544.783, 895.499
546.105, 535.897
547.427, 816.224
548.749, 769.480
550.071, 817.665
551.393, 753.780
552.714, 790.824
554.035, 813.796
555.356, 884.698
556.677, 656.271
557.998, 651.089
559.318, 642.780
560.638, 522.645
561.958, 357.594
563.278, 52.608
564.597, 252.934
565.917, 42.786
567.236, 29.214
568.555, 120.070
569.874, 9.801
571.192, 34.965
572.511, 197.962
573.829, 24.918
575.147, 4.196
576.464, 206.059
577.782, 38.892
579.099, 43.988
580.416, 4.446
581.733, 53.274
583.050, 3.795
584.366, 10.710
585.683, 197.118
586.999, 30.664
588.315, 0.905
589.630, 38.418
590.946, 57.150
592.261, 187.135
593.576, 11.701
594.891, 23.691
596.206, 4.361
597.520, 32.975
598.834, 61.220
600.148, 20.959
601.462, 29.079
602.776, 39.957
604.089, 2.634
605.402, 21.601
606.715, 48.915
608.028, 39.235
609.341, 35.787
610.653, 35.445
611.965, 52.941
613.277, 48.229
614.589, 1.547
615.901, 33.633
617.212, 25.031
618.523, 76.226
619.834, 4.608
621.145, 1.954
622.456, 40.021
623.766, 6.297
625.076, 86.221
626.386, 16.841
627.696, 342.485
629.006, 61.810
630.315, 299.412
631.624, 0.603
632.933, 31.745
634.242, 272.299
635.551, 6.033
636.859, 33.891
638.167, 103.635
639.475, 257.492
640.783, 13.170
642.090, 38.618
643.398, 222.035
644.705, 38.387
646.012, 14.781
647.318, 26.810
648.625, 152.883
649.931, 87.885
651.237, 71.136
652.543, 16.583
653.849, 4.622
655.155, 328.820
656.460, 2.304
657.765, 114.711
659.070, 13.167
660.375, 31.252
661.679, 359.388
662.984, 359.459
664.288, 22.525
665.592, 72.389
666.895, 141.244
668.199, 21.257
669.502, 106.760
670.805, 4.793
672.108, 123.908
673.411, 21.385
674.713, 33.955
676.016, 258.115
677.318, 22.620
678.620, 207.545
679.921, 195.657
681.223, 21.143
682.524, 68.694
683.825, 16.048
685.126, 319.701
686.427, 385.456
687.727, 44.154
689.028, 278.797
690.328, 8.728
691.628, 279.352
692.927, 297.778
694.227, 178.154
695.526, 85.978
696.825, 681.653
698.124, 311.749
699.423, 635.842
700.721, 876.902
702.020, 977.910
703.318, 1107.875
704.616, 1437.789
705.913, 1193.658
707.211, 1811.479
708.508, 2056.252
709.805, 1641.980
711.102, 864.664
712.399, 980.300
713.695, 439.896
714.992, 726.451
716.288, 168.960
717.584, 478.439
718.879, 4.888
720.175, 9.596
721.470, 316.438
722.765, 296.714
724.060, 115.445
725.355, 235.663
726.649, 35.716
727.944, 22.901
729.238, 424.222
730.532, 269.061
731.825, 300.724
733.119, 319.471
734.412, 134.486
735.705, 9.728
736.998, 16.107
738.291, 44.039
739.584, 126.713
740.876, 70.638
742.168, 265.005
743.460, 18.278
744.752, 3.647
746.043, 66.229
747.334, 367.997
748.626, 89.176
749.916, 12.764
751.207, 199.573
752.498, 11.594
753.788, 293.656
755.078, 21.739
756.368, 239.757
757.658, 53.038
758.947, 43.214
760.237, 247.332
761.526, 37.294
762.815, 127.840
764.104, 50.596
765.392, 143.984
766.680, 10.089
767.969, 13.163
769.257, 248.313
770.544, 4.644
771.832, 255.636
773.119, 60.178
774.406, 17.690
775.693, 197.082
776.980, 3.721
778.267, 273.487
779.553, 334.021
780.839, 146.441
782.125, 69.000
783.411, 265.758
784.697, 32.131
785.982, 44.734
787.267, 99.286
788.552, 256.317
789.837, 19.796
791.122, 211.849
792.406, 192.637
793.690, 174.893
794.974, 73.343
796.258, 128.311
797.542, 368.060
798.825, 126.501
800.108, 406.233
801.391, 119.228
802.674, 344.875
803.957, 353.062
805.239, 262.957
806.522, 984.965
807.804, 194.403
809.085, 836.191
810.367, 618.529
811.649, 512.297
812.930, 709.248
814.211, 897.099
815.492, 648.699
816.772, 935.016
818.053, 1105.316
819.333, 1201.372
820.613, 1026.134
821.893, 1325.175
823.173, 1334.667
824.452, 1311.582
825.732, 1286.748
827.011, 721.747
828.290, 909.185
829.568, 656.106
830.847, 712.456
832.125, 748.250
833.403, 575.803
834.681, 145.183
835.959, 16.303
837.236, 328.184
838.514, 33.512
839.791, 335.331
841.068, 262.852
842.345, 218.752
843.621, 480.341
844.898, 16.623
846.174, 135.035
847.450, 380.733
848.726, 42.394
850.001, 192.066
851.277, 42.848
852.552, 171.832
853.827, 222.655
855.102, 38.366
856.376, 102.079
857.651, 239.796
858.925, 563.557
860.199, 317.322
861.473, 135.119
862.746, 377.940
864.020, 515.765
865.293, 70.595
866.566, 577.433
867.839, 403.273
869.112, 600.117
870.384, 774.963
871.656, 724.148
872.928, 426.133
874.200, 927.925
875.472, 920.840
876.744, 767.813
878.015, 1092.670
879.286, 1106.694
880.557, 1725.728
881.828, 1820.937
883.098, 2130.058
884.369, 2762.093
885.639, 3632.259
886.909, 4149.433
888.178, 4884.641
889.448, 5358.848
890.717, 6172.763
891.987, 5398.789
893.256, 5214.104
894.524, 4815.370
895.793, 4146.759
897.061, 4039.859
898.330, 3633.183
899.598, 3629.646
900.865, 4058.173
902.133, 3897.719
903.401, 4050.340
904.668, 4459.973
905.935, 4731.520
907.202, 4286.202
908.468, 4494.838
909.735, 4485.617
911.001, 4067.395
912.267, 3822.234
913.533, 3658.108
914.799, 3820.483
916.064, 3634.425
917.330, 4325.205
918.595, 4211.189
919.860, 4103.256
921.124, 4502.583
922.389, 4607.706
923.653, 3876.675
924.918, 3730.904
926.182, 3621.157
927.445, 3199.371
928.709, 3105.661
929.972, 2735.599
931.236, 2607.959
932.499, 2378.381
933.761, 2300.828
935.024, 1799.385
936.286, 1569.964
937.549, 1798.717
938.811, 1013.671
940.073, 1520.399
941.334, 1091.183
942.596, 974.467
943.857, 1228.333
945.118, 1051.187
946.379, 741.249
947.640, 680.166
948.900, 893.218
950.161, 587.188
951.421, 616.461
952.681, 670.900
953.940, 607.062
955.200, 456.395
956.459, 305.615
957.719, 773.048
958.978, 399.549
960.236, 625.489
961.495, 388.879
962.753, 778.402
964.012, 319.056
965.270, 342.564
966.527, 543.899
967.785, 473.567
969.043, 396.607
970.300, 489.299
971.557, 245.360
972.814, 271.425
974.071, 300.098
975.327, 387.592
976.583, 170.858
977.840, 447.705
979.095, 420.312
980.351, 62.982
981.607, 511.953
982.862, 444.504
984.117, 9.007
985.372, 889.742
986.627, 2.692
987.882, 407.341
989.136, 438.643
990.390, 81.581
991.644, 396.702
992.898, 251.757
994.152, 202.624
995.405, 290.588
996.659, 393.096
997.912, 543.911
999.165, 426.216
1000.417, 339.614
1001.670, 1.435
1002.922, 547.761
1004.174, 59.967
1005.426, 245.706
1006.678, 182.056
1007.930, 160.272
1009.181, 373.331
1010.432, 80.668
1011.683, 397.469
1012.934, 416.104
1014.185, 423.160
1015.435, 410.045
1016.685, 164.616
1017.935, 36.043
1019.185, 445.732
1020.435, 385.079
1021.684, 26.469
1022.934, 356.324
1024.183, 508.600
1025.432, 171.288
1026.680, 455.003
1027.929, 27.790
1029.177, 457.060
1030.425, 362.444
1031.673, 551.485
1032.921, 499.922
1034.169, 200.751
1035.416, 163.126
1036.663, 489.775
1037.911, 154.338
1039.157, 104.186
1040.404, 352.878
1041.650, 236.615
1042.897, 525.273
1044.143, 205.196
1045.389, 1246.461
1046.634, 953.549
1047.880, 477.223
1049.125, 380.707
1050.371, 342.721
1051.615, 826.034
1052.860, 256.629
1054.105, 835.797
1055.349, 552.681
1056.593, 459.070
1057.837, 348.645
1059.081, 794.317
1060.325, 586.856
1061.568, 379.546
1062.812, 383.060
1064.055, 349.795
1065.298, 305.111
1066.540, 314.596
1067.783, 158.081
1069.025, 91.894
1070.267, 552.012
1071.509, 43.294
1072.751, 211.908
1073.993, 496.687
1075.234, 166.724
1076.475, 448.689
1077.716, 289.469
1078.957, 75.576
1080.198, 107.805
1081.438, 597.072
1082.679, 206.139
1083.919, 241.624
1085.159, 39.791
1086.398, 388.303
1087.638, 12.937
1088.877, 224.174
1090.116, 168.741
1091.355, 243.252
1092.594, 142.332
1093.833, 3.370
1095.071, 56.467
1096.309, 7.457
1097.547, 319.598
1098.785, 27.270
1100.023, 52.512
1101.260, 7.773
1102.498, 166.434
1103.735, 4.185
1104.972, 215.186
1106.208, 76.691
1107.445, 83.854
1108.681, 39.672
1109.918, 177.671
1111.154, 38.928
1112.389, 92.043
1113.625, 175.119
1114.860, 11.457
1116.096, 144.068
1117.331, 65.642
1118.566, 154.849
1119.800, 34.551
1121.035, 87.869
1122.269, 16.414
1123.503, 7.059
1124.737, 87.910
1125.971, 10.114
1127.205, 54.242
1128.438, 67.237
1129.671, 453.617
1130.904, 30.028
1132.137, 120.584
1133.370, 19.951
1134.602, 108.118
1135.834, 12.929
1137.066, 32.543
1138.298, 382.266
1139.530, 235.700
1140.762, 292.342
1141.993, 132.181
1143.224, 21.708
1144.455, 5.060
1145.686, 18.136
1146.917, 16.712
1148.147, 239.214
1149.377, 142.599
1150.607, 328.520
1151.837, 15.924
1153.067, 22.106
1154.296, 60.399
1155.526, 95.371
1156.755, 21.519
1157.984, 311.455
1159.213, 13.040
1160.441, 16.329
1161.670, 145.232
1162.898, 189.099
1164.126, 26.378
1165.354, 301.458
1166.581, 243.405
1167.809, 327.963
1169.036, 18.083
1170.263, 227.007
1171.490, 152.637
1172.717, 300.860
1173.943, 2.955
1175.170, 278.201
1176.396, 14.261
1177.622, 399.518
1178.848, 244.238
1180.073, 13.665
1181.299, 326.337
1182.524, 226.836
1183.749, 161.053
1184.974, 575.167
1186.199, 377.733
1187.423, 199.350
1188.648, 432.221
1189.872, 538.014
1191.096, 153.746
1192.320, 310.218
1193.543, 349.352
1194.767, 578.063
1195.990, 274.431
1197.213, 383.115
1198.436, 309.302
1199.659, 490.492
1200.881, 343.913
1202.104, 409.842
1203.326, 291.680
1204.548, 540.436
1205.770, 12.897
1206.991, 604.621
1208.213, 452.264
1209.434, 573.614
1210.655, 193.313
1211.876, 298.490
1213.096, 610.573
1214.317, 507.717
1215.537, 171.639
1216.757, 335.513
1217.977, 301.296
1219.197, 213.997
1220.417, 409.612
1221.636, 340.143
1222.855, 351.584
1224.074, 396.942
1225.293, 118.219
1226.512, 284.402
1227.731, 633.495
1228.949, 307.689
1230.167, 0.685
1231.385, 545.348
1232.603, 417.009
1233.820, 352.587
1235.038, 257.795
1236.255, 379.206
1237.472, 383.527
1238.689, 245.769
1239.906, 560.929
1241.122, 186.032
1242.338, 503.938
1243.555, 365.896
1244.771, 304.704
1245.986, 300.517
1247.202, 98.968
1248.417, 538.135
1249.633, 393.534
1250.848, 10.292
1252.063, 437.914
1253.277, 268.807
1254.492, 179.558
1255.706, 426.791
1256.920, 132.524
1258.134, 291.053
1259.348, 2.863
1260.562, 534.793
1261.775, 384.341
1262.988, 90.463
1264.201, 340.081
1265.414, 316.968
1266.627, 158.407
1267.839, 74.681
1269.052, 374.274
1270.264, 28.478
1271.476, 456.921
1272.688, 18.065
1273.899, 320.639
1275.111, 46.889
1276.322, 13.275
1277.533, 129.877
1278.744, 101.976
1279.955, 164.740
1281.165, 458.483
1282.376, 207.731
1283.586, 235.494
1284.796, 188.399
1286.006, 45.957
1287.215, 186.677
1288.425, 95.438
1289.634, 40.979
1290.843, 157.525
1292.052, 28.272
1293.261, 237.181
1294.469, 29.070
1295.678, 3.532
1296.886, 170.379
1298.094, 51.192
1299.302, 44.754
1300.509, 20.074
1301.717, 283.697
1302.924, 66.408
1304.131, 84.756
1305.338, 210.563
1306.545, 72.459
1307.752, 80.848
1308.958, 200.335
1310.164, 227.056
1311.370, 31.161
1312.576, 326.271
1313.782, 28.570
1314.987, 71.494
1316.193, 83.853
1317.398, 279.113
1318.603, 117.187
1319.807, 138.159
1321.012, 38.580
1322.216, 26.230
1323.421, 18.290
1324.625, 53.096
1325.829, 9.559
1327.032, 58.212
1328.236, 439.904
1329.439, 3.895
1330.642, 13.442
1331.845, 28.127
1333.048, 9.636
1334.251, 463.916
1335.453, 66.778
1336.656, 37.203
1337.858, 95.790
1339.060, 21.815
1340.261, 233.561
1341.463, 133.779
1342.664, 292.411
1343.866, 204.697
1345.067, 126.649
1346.267, 268.008
1347.468, 369.619
1348.669, 302.710
1349.869, 306.583
1351.069, 509.332
1352.269, 158.188
1353.469, 514.895
1354.668, 100.749
1355.868, 504.371
1357.067, 681.439
1358.266, 164.327
1359.465, 591.245
1360.664, 624.188
1361.862, 350.506
1363.061, 659.781
1364.259, 261.673
1365.457, 487.446
1366.655, 735.001
1367.852, 439.767
1369.050, 388.736
1370.247, 484.819
1371.444, 298.722
1372.641, 143.471
1373.838, 337.319
1375.035, 278.649
1376.231, 308.770
1377.427, 591.063
1378.623, 519.601
1379.819, 296.835
1381.015, 201.882
1382.211, 355.107
1383.406, 440.010
1384.601, 269.726
1385.796, 679.056
1386.991, 803.940
1388.185, 554.831
1389.380, 437.191
1390.574, 616.543
1391.768, 331.003
1392.962, 694.157
1394.156, 177.324
1395.350, 669.106
1396.543, 759.261
1397.736, 294.132
1398.929, 517.179
1400.122, 640.751
1401.315, 712.609
1402.507, 330.504
1403.700, 640.423
1404.892, 705.495
1406.084, 560.069
1407.276, 357.818
1408.467, 666.554
1409.659, 158.470
1410.850, 421.036
1412.041, 768.571
1413.232, 196.518
1414.423, 722.306
1415.614, 344.088
1416.804, 791.796
1417.994, 646.708
1419.184, 784.494
1420.374, 332.579
1421.564, 792.673
1422.753, 397.685
1423.943, 713.095
1425.132, 493.207
1426.321, 341.093
1427.510, 519.751
1428.698, 302.115
1429.887, 489.806
1431.075, 620.839
1432.263, 455.767
1433.451, 344.471
1434.639, 737.918
1435.827, 702.310
1437.014, 418.388
1438.201, 731.001
1439.388, 815.269
1440.575, 471.218
1441.762, 769.191
1442.949, 771.046
1444.135, 612.814
1445.321, 499.469
1446.507, 767.035
1447.693, 509.127
1448.879, 573.662
1450.064, 783.075
1451.250, 727.361
1452.435, 344.495
1453.620, 746.490
1454.805, 794.441
1455.989, 534.265
1457.174, 1004.199
1458.358, 491.034
1459.542, 677.088
1460.726, 958.276
1461.910, 384.442
1463.093, 1080.518
1464.277, 484.794
1465.460, 466.239
1466.643, 934.165
1467.826, 308.059
1469.009, 1194.939
1470.191, 406.274
1471.373, 580.097
1472.556, 632.414
1473.738, 950.531
1474.919, 405.517
1476.101, 741.000
1477.283, 775.905
1478.464, 438.986
1479.645, 416.273
1480.826, 585.790
1482.007, 315.552
1483.187, 920.603
1484.368, 389.993
1485.548, 536.752
1486.728, 422.930
1487.908, 360.597
1489.088, 162.800
1490.268, 1110.608
1491.447, 273.078
1492.626, 504.278
1493.805, 318.270
1494.984, 633.129
1496.163, 688.922
1497.341, 322.686
1498.520, 461.392
1499.698, 47.092
1500.876, 313.888
1502.054, 39.916
1503.232, 157.361
1504.409, 7.488
1505.586, 109.103
1506.763, 346.793
1507.940, 292.662
1509.117, 90.955
1510.294, 322.006
1511.470, 121.321
1512.647, 6.368
1513.823, 447.549
1514.999, 332.692
1516.174, 397.838
1517.350, 0.589
1518.526, 389.806
1519.701, 0.000
##END=



