##NAMES=Baryte
##RRUFFID=R040036
##IDEAL CHEMISTRY=BaS^6+^O_4_
##LOCALITY=Cumbria County, England
##OWNER=RRUFF
##SOURCE=University of Arizona Mineral Museum
##DESCRIPTION=Golden brown tabular crystal
##STATUS=The identification of this mineral has been confirmed by X-ray diffraction and chemical analysis
##URL=rruff.info/R040036
##MEASURED CHEMISTRY=Ba_1.00_S_1.00_O_4_; trace amounts of Pb
##PIN_ID=M00028
##ORIENTATION=Laser parallel to -a* (-1 0 0). Fiducial mark perpendicular to laser is parallel to -b [0 -1 0]
26.288, 0.000
27.694, 22.597
29.099, 10.388
30.504, 25.703
31.909, 33.358
33.313, 34.112
34.717, 32.136
36.121, 60.344
37.525, 50.405
38.929, 60.296
40.332, 61.279
41.735, 59.932
43.138, 64.202
44.541, 67.073
45.943, 71.674
47.345, 78.210
48.747, 82.105
50.149, 91.114
51.551, 93.299
52.952, 96.713
54.353, 84.129
55.754, 93.126
57.155, 98.825
58.555, 118.670
59.955, 107.134
61.355, 111.830
62.755, 113.174
64.154, 92.165
65.553, 83.491
66.952, 85.680
68.351, 63.884
69.750, 52.104
71.148, 42.340
72.546, 41.591
73.944, 45.856
75.342, 30.133
76.739, 32.421
78.136, 12.716
79.533, 13.018
80.930, 1.321
82.327, 0.624
83.723, 16.074
85.119, 13.773
86.515, 23.471
87.910, 33.170
89.306, 15.867
90.701, 45.564
92.096, 38.259
93.490, 11.952
94.885, 17.643
96.279, 4.332
97.673, 8.982
99.067, 15.299
100.461, 30.445
101.854, 63.951
103.247, 59.323
104.640, 83.730
106.032, 106.168
107.425, 154.632
108.817, 162.119
110.209, 227.624
111.601, 205.145
112.992, 282.677
114.384, 282.219
115.775, 270.767
117.166, 319.318
118.556, 286.868
119.947, 334.415
121.337, 303.958
122.727, 373.497
124.116, 339.029
125.506, 317.553
126.895, 357.068
128.284, 329.570
129.673, 415.055
131.062, 350.515
132.450, 373.945
133.838, 332.343
135.226, 332.708
136.614, 356.054
138.001, 296.391
139.388, 360.729
140.775, 296.070
142.162, 335.415
143.549, 360.765
144.935, 359.119
146.321, 385.477
147.707, 381.840
149.093, 466.206
150.478, 411.578
151.863, 520.953
153.248, 555.333
154.633, 479.717
156.018, 507.105
157.402, 434.498
158.786, 433.895
160.170, 367.297
161.554, 375.702
162.937, 323.113
164.320, 324.528
165.703, 350.947
167.086, 284.371
168.469, 315.799
169.851, 289.232
171.233, 266.670
172.615, 291.112
173.996, 249.558
175.378, 311.010
176.759, 230.508
178.140, 297.981
179.521, 241.423
180.901, 268.829
182.281, 278.200
183.662, 232.533
185.041, 302.828
186.421, 243.083
187.800, 304.300
189.180, 295.479
190.558, 305.619
191.937, 318.718
193.316, 250.772
194.694, 314.784
196.072, 234.758
197.450, 257.696
198.827, 243.597
200.205, 245.463
201.582, 278.295
202.959, 200.087
204.336, 295.833
205.712, 196.522
207.088, 257.146
208.465, 248.708
209.840, 201.221
211.216, 252.701
212.591, 205.169
213.967, 255.636
215.341, 201.088
216.716, 232.557
218.091, 213.931
219.465, 187.258
220.839, 245.545
222.213, 182.835
223.586, 234.152
224.960, 189.358
226.333, 216.594
227.706, 221.628
229.079, 163.676
230.451, 251.543
231.823, 175.434
233.195, 223.920
234.567, 174.470
235.939, 174.805
237.310, 216.924
238.682, 174.456
240.052, 224.308
241.423, 162.339
242.794, 219.993
244.164, 154.524
245.534, 177.376
246.904, 187.494
248.274, 136.706
249.643, 195.067
251.012, 142.593
252.381, 196.104
253.750, 167.656
255.118, 133.211
256.487, 181.768
257.855, 134.328
259.223, 204.891
260.590, 134.457
261.958, 187.025
263.325, 189.596
264.692, 131.170
266.059, 207.745
267.425, 147.324
268.791, 165.904
270.158, 148.487
271.523, 156.096
272.889, 181.684
274.255, 106.274
275.620, 182.868
276.985, 115.464
278.350, 161.063
279.714, 127.665
281.078, 146.271
282.443, 170.882
283.806, 99.497
285.170, 168.116
286.534, 123.738
287.897, 149.364
289.260, 169.993
290.623, 105.626
291.985, 151.263
293.348, 101.904
294.710, 154.548
296.072, 104.196
297.433, 99.848
298.795, 161.503
300.156, 71.162
301.517, 161.825
302.878, 92.491
304.239, 141.161
305.599, 119.835
306.959, 96.512
308.319, 157.193
309.679, 83.878
311.038, 139.566
312.398, 105.258
313.757, 108.953
315.116, 149.653
316.474, 84.356
317.833, 144.062
319.191, 68.772
320.549, 101.486
321.907, 90.203
323.264, 47.925
324.622, 123.645
325.979, 46.363
327.336, 130.081
328.692, 65.799
330.049, 94.515
331.405, 102.232
332.761, 86.948
334.117, 121.664
335.473, 60.381
336.828, 95.098
338.183, 98.815
339.538, 81.534
340.893, 125.253
342.247, 42.974
343.602, 138.696
344.956, 43.420
346.310, 117.146
347.663, 99.883
349.017, 60.613
350.370, 114.346
351.723, 42.081
353.076, 109.819
354.428, 55.563
355.780, 68.308
357.133, 104.057
358.484, 30.810
359.836, 93.567
361.188, 39.329
362.539, 35.094
363.890, 48.899
365.241, 16.673
366.591, 84.452
367.942, 10.243
369.292, 97.032
370.642, 40.826
371.992, 35.625
373.341, 81.429
374.691, 31.240
376.040, 76.057
377.388, 4.119
378.737, 55.712
380.086, 84.552
381.434, 19.400
382.782, 87.259
384.130, 13.128
385.477, 78.006
386.825, 54.896
388.172, 37.798
389.519, 72.708
390.865, 25.697
392.212, 100.623
393.558, 43.555
394.904, 98.493
396.250, 85.436
397.596, 22.383
398.941, 102.334
400.286, 24.289
401.631, 78.249
402.976, 47.212
404.321, 32.255
405.665, 90.226
407.009, 14.404
408.353, 76.383
409.697, 27.367
411.040, 28.355
412.384, 53.347
413.727, 8.345
415.070, 72.347
416.412, 3.647
417.755, 55.363
419.097, 54.376
420.439, 16.471
421.781, 82.495
423.122, 8.525
424.464, 84.558
425.805, 44.596
427.146, 51.246
428.486, 104.293
429.827, 41.345
431.167, 110.400
432.507, 42.459
433.847, 96.528
435.187, 138.600
436.526, 122.676
437.865, 210.756
439.204, 152.840
440.543, 271.931
441.882, 301.027
443.220, 361.126
444.558, 535.229
445.896, 642.335
447.234, 975.448
448.572, 1254.564
449.909, 1791.684
451.246, 2341.808
452.583, 2949.935
453.919, 3482.067
455.256, 3113.203
456.592, 2633.343
457.928, 1974.486
459.264, 1427.633
460.600, 1142.786
461.935, 859.943
463.270, 813.104
464.605, 624.270
465.940, 448.439
467.274, 367.615
468.609, 236.794
469.943, 249.977
471.277, 169.163
472.610, 139.352
473.944, 154.547
475.277, 37.744
476.610, 148.946
477.943, 78.152
479.275, 61.362
480.608, 98.578
481.940, 25.797
483.272, 104.020
484.604, 32.246
485.935, 105.476
487.267, 54.710
488.598, 27.947
489.929, 95.188
491.260, 0.567
492.590, 71.681
493.920, 42.933
495.250, 39.188
496.580, 93.447
497.910, 0.710
499.239, 69.976
500.569, 22.247
501.898, 34.520
503.226, 69.797
504.555, 1.080
505.883, 75.366
507.212, 5.344
508.540, 46.949
509.867, 40.245
511.195, 0.454
512.522, 93.849
513.849, 8.156
515.176, 50.466
516.503, 78.778
517.829, 29.096
519.156, 63.418
520.482, 10.741
521.808, 63.042
523.133, 61.398
524.459, 36.731
525.784, 120.067
527.109, 17.406
528.434, 79.747
529.758, 25.261
531.083, 19.607
532.407, 105.956
533.731, 8.694
535.055, 79.658
536.378, 36.020
537.701, 30.378
539.025, 92.738
540.348, 7.100
541.670, 97.466
542.993, 21.833
544.315, 53.206
545.637, 58.582
546.959, 9.041
548.281, 79.338
549.602, 18.281
550.923, 61.099
552.244, 61.502
553.565, 37.886
554.886, 64.272
556.206, 9.068
557.526, 80.458
558.846, 24.850
560.166, 13.219
561.486, 60.614
562.805, 8.638
564.124, 67.759
565.443, 37.637
566.762, 6.036
568.080, 92.437
569.399, 34.745
570.717, 72.652
572.035, 26.050
573.352, 26.449
574.670, 85.849
575.987, 17.414
577.304, 113.816
578.621, 46.219
579.938, 63.622
581.254, 77.027
582.570, 6.337
583.886, 116.743
585.202, 41.149
586.518, 112.557
587.833, 119.965
589.148, 74.857
590.463, 168.266
591.778, 86.676
593.093, 146.086
594.407, 152.497
595.721, 89.251
597.035, 193.663
598.349, 99.086
599.662, 186.499
600.976, 157.911
602.289, 131.993
603.602, 236.406
604.914, 180.819
606.227, 278.609
607.539, 338.022
608.851, 349.106
610.163, 539.519
611.475, 662.933
612.786, 1132.346
614.097, 1573.759
615.408, 2355.497
616.719, 3248.909
618.030, 3498.322
619.340, 3321.094
620.651, 2601.505
621.961, 1955.433
623.270, 1612.844
624.580, 1192.254
625.889, 1190.751
627.199, 1076.161
628.507, 1077.696
629.816, 1178.104
631.125, 1022.512
632.433, 1044.198
633.741, 717.596
635.049, 524.016
636.357, 427.420
637.664, 220.824
638.972, 270.562
640.279, 180.961
641.586, 198.551
642.893, 215.952
644.199, 129.351
645.505, 210.372
646.811, 110.769
648.117, 143.387
649.423, 165.747
650.728, 56.141
652.034, 193.004
653.339, 120.388
654.644, 135.778
655.948, 142.167
657.253, 58.555
658.557, 122.587
659.861, 41.972
661.165, 90.355
662.468, 102.737
663.772, 0.118
665.075, 114.853
666.378, 46.231
667.681, 35.607
668.983, 89.981
670.286, 5.647
671.588, 124.793
672.890, 33.161
674.192, 40.527
675.493, 51.820
676.795, 2.183
678.096, 68.955
679.397, 14.313
680.697, 55.670
681.998, 90.293
683.298, 10.646
684.598, 64.867
685.898, 9.216
687.198, 56.564
688.498, 67.072
689.797, 20.415
691.096, 100.564
692.395, 2.904
693.694, 61.241
694.992, 72.739
696.290, 13.928
697.589, 88.428
698.886, 24.752
700.184, 36.075
701.482, 54.444
702.779, 11.238
704.076, 92.999
705.373, 16.690
706.669, 25.613
707.966, 36.914
709.262, 13.786
710.558, 79.900
711.854, 9.191
713.150, 38.479
714.445, 73.765
715.740, 45.951
717.035, 115.320
718.330, 14.588
719.625, 11.854
720.919, 91.118
722.214, 34.620
723.508, 88.631
724.801, 27.879
726.095, 30.125
727.388, 72.369
728.682, 16.389
729.975, 82.846
731.267, 21.078
732.560, 15.308
733.852, 76.536
735.145, 10.239
736.437, 94.981
737.728, 6.336
739.020, 41.551
740.311, 102.763
741.603, 24.027
742.894, 65.175
744.184, 19.374
745.475, 11.429
746.765, 94.761
748.055, 24.050
749.345, 68.129
750.635, 37.307
751.925, 18.481
753.214, 114.654
754.503, 9.176
755.792, 72.989
757.081, 27.151
758.370, 10.689
759.658, 96.465
760.946, 17.384
762.234, 77.761
763.522, 54.903
764.809, 1.042
766.097, 98.179
767.384, 0.687
768.671, 98.443
769.958, 59.571
771.244, 7.303
772.530, 121.818
773.817, 5.936
775.102, 31.052
776.388, 72.166
777.674, 9.722
778.959, 82.384
780.244, 3.512
781.529, 54.588
782.814, 41.685
784.098, 22.220
785.383, 108.868
786.667, 5.047
787.951, 46.033
789.235, 85.112
790.518, 15.811
791.801, 123.258
793.084, 9.326
794.367, 30.392
795.650, 72.456
796.933, 23.482
798.215, 80.572
799.497, 25.624
800.779, 24.674
802.061, 86.722
803.342, 11.259
804.624, 129.781
805.905, 44.820
807.186, 33.857
808.466, 86.891
809.747, 0.753
811.027, 96.783
812.307, 69.812
813.587, 18.838
814.867, 105.863
816.146, 14.122
817.426, 83.896
818.705, 64.911
819.984, 8.075
821.263, 110.935
822.541, 34.057
823.819, 88.940
825.098, 67.936
826.375, 7.069
827.653, 102.922
828.931, 3.911
830.208, 55.899
831.485, 91.866
832.762, 4.149
834.039, 100.833
835.315, 1.405
836.592, 34.384
837.868, 95.361
839.144, 0.336
840.420, 134.309
841.695, 49.929
842.970, 46.900
844.246, 114.390
845.521, 33.358
846.795, 147.325
848.070, 64.875
849.344, 53.843
850.618, 150.810
851.892, 6.776
853.166, 99.741
854.440, 124.542
855.713, 32.506
856.986, 163.469
858.259, 63.431
859.532, 126.392
860.804, 158.452
862.077, 60.416
863.349, 203.379
864.621, 72.341
865.893, 101.302
867.164, 177.779
868.436, 2.739
869.707, 135.698
870.978, 62.656
872.248, 17.614
873.519, 94.228
874.789, 6.815
876.060, 95.128
877.330, 89.082
878.599, 25.036
879.869, 138.321
881.138, 35.273
882.408, 143.225
883.677, 85.801
884.945, 35.753
886.214, 143.034
887.482, 29.985
888.751, 94.937
890.019, 144.888
891.287, 9.839
892.554, 198.466
893.822, 88.417
895.089, 129.368
896.356, 167.959
897.623, 38.910
898.889, 171.346
900.156, 127.297
901.422, 125.254
902.688, 168.124
903.954, 52.081
905.220, 158.911
906.485, 104.869
907.750, 45.830
909.015, 162.511
910.280, 61.473
911.545, 145.421
912.809, 158.385
914.074, 67.348
915.338, 166.978
916.602, 57.942
917.865, 92.720
919.129, 158.687
920.392, 33.655
921.655, 148.002
922.918, 84.972
924.181, 79.721
925.443, 198.693
926.706, 11.665
927.968, 121.169
929.230, 115.144
930.491, 59.120
931.753, 196.102
933.014, 52.171
934.276, 142.510
935.536, 146.495
936.797, 81.480
938.058, 200.471
939.318, 74.464
940.578, 111.101
941.838, 196.095
943.098, 90.091
944.358, 184.088
945.617, 101.085
946.876, 68.014
948.135, 208.015
949.394, 71.016
950.653, 164.019
951.911, 173.023
953.169, 109.616
954.427, 211.623
955.685, 123.630
956.943, 170.371
958.200, 201.381
959.458, 100.523
960.715, 247.536
961.971, 198.550
963.228, 217.328
964.485, 372.345
965.741, 290.354
966.997, 452.373
968.253, 422.395
969.508, 351.254
970.764, 536.278
972.019, 424.278
973.274, 581.309
974.529, 659.341
975.784, 612.326
977.039, 916.362
978.293, 970.400
979.547, 1324.447
980.801, 1869.491
982.055, 2465.537
983.308, 4121.584
984.562, 7161.635
985.815, 14993.799
987.068, 33362.855
988.321, 49621.910
989.573, 50181.000
990.826, 32720.068
992.078, 17349.283
993.330, 9538.352
994.582, 5325.421
995.833, 3213.370
997.085, 2219.447
998.336, 1485.526
999.587, 1235.607
1000.838, 1016.689
1002.088, 799.774
1003.339, 871.864
1004.589, 638.954
1005.839, 616.047
1007.089, 565.141
1008.339, 375.237
1009.588, 482.336
1010.838, 366.300
1012.087, 299.403
1013.336, 418.507
1014.584, 245.614
1015.833, 336.725
1017.081, 293.838
1018.330, 237.953
1019.577, 388.072
1020.825, 216.192
1022.073, 297.427
1023.320, 339.555
1024.567, 225.683
1025.814, 397.873
1027.061, 269.006
1028.308, 317.141
1029.554, 408.279
1030.800, 212.419
1032.046, 319.587
1033.292, 272.732
1034.538, 123.881
1035.783, 219.171
1037.029, 130.323
1038.274, 176.479
1039.519, 182.636
1040.763, 42.795
1042.008, 151.648
1043.252, 140.811
1044.496, 87.977
1045.740, 179.332
1046.984, 75.502
1048.228, 125.673
1049.471, 156.845
1050.714, 62.022
1051.957, 192.592
1053.200, 106.772
1054.442, 148.954
1055.685, 339.491
1056.927, 233.680
1058.169, 308.870
1059.411, 204.062
1060.652, 99.256
1061.894, 191.756
1063.135, 43.956
1064.376, 93.157
1065.617, 115.578
1066.858, 8.217
1068.098, 161.987
1069.339, 74.197
1070.579, 57.408
1071.819, 195.627
1073.058, 40.841
1074.298, 130.056
1075.537, 192.343
1076.776, 105.563
1078.015, 267.784
1079.254, 169.007
1080.493, 260.231
1081.731, 406.458
1082.969, 333.685
1084.207, 476.914
1085.445, 450.144
1086.683, 323.376
1087.920, 399.611
1089.157, 188.847
1090.394, 223.085
1091.631, 249.395
1092.868, 78.636
1094.105, 203.883
1095.341, 85.167
1096.577, 83.417
1097.813, 193.668
1099.049, 41.921
1100.284, 171.175
1101.519, 236.443
1102.755, 141.699
1103.990, 360.958
1105.224, 277.509
1106.459, 263.773
1107.693, 307.038
1108.928, 89.304
1110.162, 159.573
1111.395, 125.844
1112.629, 0.116
1113.863, 161.388
1115.096, 42.701
1116.329, 48.976
1117.562, 140.251
1118.795, 8.472
1120.027, 112.804
1121.259, 95.082
1122.492, 3.640
1123.723, 134.640
1124.955, 10.079
1126.187, 14.202
1127.418, 92.483
1128.649, 41.235
1129.880, 126.040
1131.111, 26.354
1132.342, 24.631
1133.572, 160.909
1134.802, 26.432
1136.033, 120.711
1137.262, 191.993
1138.492, 67.277
1139.722, 276.560
1140.951, 226.845
1142.180, 288.130
1143.409, 384.418
1144.638, 291.707
1145.866, 422.997
1147.095, 383.288
1148.323, 181.617
1149.551, 332.909
1150.779, 148.202
1152.006, 96.495
1153.234, 200.789
1154.461, 6.916
1155.688, 105.377
1156.915, 100.672
1158.141, 4.031
1159.368, 165.264
1160.594, 52.563
1161.820, 29.862
1163.046, 135.161
1164.272, 1.539
1165.498, 139.761
1166.723, 100.061
1167.948, 50.564
1169.173, 144.726
1170.398, 48.016
1171.623, 32.307
1172.847, 146.599
1174.071, 31.109
1175.295, 103.177
1176.519, 92.463
1177.743, 9.251
1178.966, 150.033
1180.190, 12.318
1181.413, 3.653
1182.636, 129.938
1183.858, 17.776
1185.081, 80.505
1186.303, 60.787
1187.526, 15.932
1188.748, 119.347
1189.969, 10.625
1191.191, 39.903
1192.412, 165.181
1193.634, 13.540
1194.855, 94.735
1196.076, 57.010
1197.296, 52.714
1198.517, 159.549
1199.737, 26.727
1200.957, 5.075
1202.177, 135.339
1203.397, 43.398
1204.617, 106.932
1205.836, 122.185
1207.055, 2.562
1208.274, 150.690
1209.493, 43.942
1210.712, 62.266
1211.930, 146.517
1213.148, 10.769
1214.367, 93.083
1215.584, 139.334
1216.802, 9.584
1218.020, 182.875
1219.237, 51.125
1220.454, 49.374
1221.671, 170.623
1222.888, 2.128
1224.105, 86.133
1225.321, 117.380
1226.537, 0.627
1227.753, 149.888
1228.969, 57.134
1230.185, 43.379
1231.400, 130.624
1232.616, 5.868
1233.831, 123.148
1235.046, 133.391
1236.261, 11.365
1237.475, 166.429
1238.689, 96.669
1239.904, 43.908
1241.118, 219.600
1242.332, 28.840
1243.545, 115.089
1244.759, 182.325
1245.972, 2.568
1247.185, 165.823
1248.398, 89.061
1249.611, 47.299
1250.823, 202.437
1252.036, 30.675
1253.248, 111.912
1254.460, 133.461
1255.671, 43.698
1256.883, 183.783
1258.095, 138.018
1259.306, 29.252
1260.517, 177.723
1261.728, 3.956
1262.938, 34.189
1264.149, 108.490
1265.359, 8.278
1266.569, 162.953
1267.779, 155.711
1268.989, 46.941
1270.199, 261.171
1271.408, 73.400
1272.617, 91.628
1273.826, 187.256
1275.035, 81.483
1276.244, 160.710
1277.452, 191.015
1278.661, 7.242
1279.869, 196.467
1281.077, 72.692
1282.285, 53.917
1283.492, 161.141
1284.700, 18.365
1285.907, 130.479
1287.114, 149.977
1288.321, 20.199
1289.527, 165.363
1290.734, 117.085
1291.940, 67.306
1293.146, 203.527
1294.352, 47.756
1295.558, 123.951
1296.763, 196.171
1297.969, 2.390
1299.174, 179.471
1300.379, 113.771
1301.584, 24.989
1302.788, 204.208
1303.993, 57.531
1305.197, 88.057
1306.401, 209.276
1307.605, 21.490
1308.809, 146.516
1310.013, 176.725
1311.216, 7.935
1312.419, 220.143
1313.622, 77.352
1314.825, 52.169
1316.028, 228.374
1317.230, 27.579
1318.432, 78.431
1319.634, 191.635
1320.836, 19.838
1322.038, 169.041
1323.240, 134.238
1324.441, 20.132
1325.642, 233.324
1326.843, 74.515
1328.044, 96.488
1329.245, 195.678
1330.445, 1.870
1331.645, 150.060
1332.845, 146.247
1334.045, 3.419
1335.245, 206.598
1336.445, 103.775
1337.644, 38.885
1338.843, 219.060
1340.042, 5.236
1341.241, 86.409
1342.440, 144.581
1343.638, 7.752
1344.836, 135.924
1346.034, 102.094
1347.232, 13.265
1348.430, 191.435
1349.628, 74.604
1350.825, 60.774
1352.022, 178.944
1353.219, 20.043
1354.416, 137.214
1355.613, 125.385
1356.809, 20.521
1358.005, 166.694
1359.202, 69.869
1360.398, 26.047
1361.593, 167.226
1362.789, 17.396
1363.984, 43.582
1365.179, 177.772
1366.374, 18.325
1367.569, 135.873
1368.764, 127.077
1369.958, 13.607
1371.153, 199.613
1372.347, 24.844
1373.541, 47.828
1374.735, 180.059
1375.928, 24.497
1377.122, 114.720
1378.315, 212.942
1379.508, 26.165
1380.701, 177.383
1381.893, 136.604
1383.086, 8.173
1384.278, 200.012
1385.470, 75.973
1386.662, 71.193
1387.854, 236.409
1389.046, 5.625
1390.237, 142.836
1391.428, 178.046
1392.619, 16.212
1393.810, 186.420
1395.001, 98.628
1396.191, 15.166
1397.382, 195.039
1398.572, 36.238
1399.762, 91.436
1400.952, 196.633
1402.141, 9.256
1403.331, 161.952
1404.520, 137.159
1405.709, 16.374
1406.898, 181.589
1408.087, 94.739
1409.275, 45.954
1410.464, 215.176
1411.652, 37.400
1412.840, 107.627
1414.028, 220.854
1415.215, 2.913
1416.403, 190.328
1417.590, 162.454
1418.777, 12.295
1419.964, 145.856
1421.151, 99.125
1422.338, 35.283
1423.524, 224.557
1424.710, 63.729
1425.896, 83.939
1427.082, 195.219
1428.268, 21.502
1429.453, 172.764
1430.639, 198.028
1431.824, 17.323
1433.009, 291.621
1434.194, 148.858
1435.378, 99.127
1436.563, 262.422
1437.747, 136.841
1438.931, 147.095
1440.115, 309.337
1441.299, 114.619
1442.482, 279.879
1443.666, 303.421
1444.849, 153.697
1446.032, 346.979
1447.215, 303.004
1448.397, 182.128
1449.580, 403.409
1450.762, 213.416
1451.944, 265.673
1453.126, 415.923
1454.308, 188.163
1455.490, 360.195
1456.671, 349.432
1457.852, 183.670
1459.033, 411.908
1460.214, 320.336
1461.395, 197.038
1462.575, 369.211
1463.756, 206.352
1464.936, 231.517
1466.116, 342.400
1467.296, 150.540
1468.475, 211.288
1469.655, 276.411
1470.834, 101.556
1472.013, 282.709
1473.192, 198.851
1474.371, 84.013
1475.550, 314.168
1476.728, 145.324
1477.906, 136.528
1479.084, 280.778
1480.262, 118.037
1481.440, 180.295
1482.617, 280.650
1483.795, 95.071
1484.972, 236.531
1486.149, 240.055
1487.326, 77.647
1488.502, 250.305
1489.679, 152.043
1490.855, 107.881
1492.031, 297.832
1493.207, 73.926
1494.383, 139.178
1495.559, 211.623
1496.734, 44.307
1497.909, 175.298
1499.084, 193.686
1500.259, 6.824
1501.434, 182.882
1502.608, 0.000
##END=



