##NAMES=Baryte
##RRUFFID=R040036
##IDEAL CHEMISTRY=BaS^6+^O_4_
##LOCALITY=Cumbria County, England
##OWNER=RRUFF
##SOURCE=University of Arizona Mineral Museum
##DESCRIPTION=Golden brown tabular crystal
##STATUS=The identification of this mineral has been confirmed by X-ray diffraction and chemical analysis
##URL=rruff.info/R040036
##MEASURED CHEMISTRY=Ba_1.00_S_1.00_O_4_; trace amounts of Pb
##PIN_ID=M00021
##ORIENTATION=Laser parallel to c* (0 0 1). Fiducial mark perpendicular to laser is parallel to -a [-1 0 0]
26.288, 0.000
27.694, 0.030
29.099, 17.166
30.504, 19.077
31.909, 9.205
33.313, 38.539
34.717, 42.928
36.121, 28.180
37.525, 59.413
38.929, 36.396
40.332, 41.085
41.735, 54.499
43.138, 48.314
44.541, 46.168
45.943, 73.847
47.345, 62.414
48.747, 53.511
50.149, 31.194
51.551, 64.067
52.952, 44.491
54.353, 75.542
55.754, 99.900
57.155, 87.639
58.555, 95.420
59.955, 102.123
61.355, 110.334
62.755, 118.459
64.154, 90.840
65.553, 112.775
66.952, 88.786
68.351, 70.641
69.750, 70.623
71.148, 80.380
72.546, 71.145
73.944, 73.925
75.342, 40.726
76.739, 37.543
78.136, 25.369
79.533, 17.203
80.930, 14.034
82.327, 1.862
83.723, 17.318
85.119, 37.507
86.515, 16.708
87.910, 13.920
89.306, 5.142
90.701, 11.375
92.096, 26.619
93.490, 29.876
94.885, 23.144
96.279, 11.423
97.673, 2.713
99.067, 16.018
100.461, 1.696
101.854, 11.380
103.247, 33.125
104.640, 18.922
106.032, 31.759
107.425, 37.629
108.817, 58.525
110.209, 46.440
111.601, 58.366
112.992, 92.299
114.384, 130.230
115.775, 228.156
117.166, 193.965
118.556, 281.980
119.947, 162.983
121.337, 134.255
122.727, 136.436
124.116, 142.562
125.506, 124.637
126.895, 126.715
128.284, 160.749
129.673, 159.750
131.062, 160.766
132.450, 146.672
133.838, 142.196
135.226, 135.279
136.614, 124.063
138.001, 126.769
139.388, 122.361
140.775, 128.192
142.162, 140.805
143.549, 133.399
144.935, 177.986
146.321, 185.515
147.707, 242.016
149.093, 262.744
150.478, 279.273
151.863, 338.892
153.248, 344.351
154.633, 300.899
156.018, 278.486
157.402, 223.918
158.786, 214.422
160.170, 196.887
161.554, 164.389
162.937, 147.808
164.320, 119.295
165.703, 101.791
167.086, 106.248
168.469, 94.683
169.851, 91.992
171.233, 92.373
172.615, 95.574
173.996, 95.890
175.378, 95.592
176.759, 111.701
178.140, 103.104
179.521, 103.398
180.901, 116.631
182.281, 121.675
183.662, 149.628
185.041, 175.605
186.421, 247.415
187.800, 286.182
189.180, 315.831
190.558, 318.352
191.937, 286.840
193.316, 251.241
194.694, 216.542
196.072, 163.742
197.450, 147.906
198.827, 109.900
200.205, 110.763
201.582, 110.681
202.959, 135.364
204.336, 124.120
205.712, 119.938
207.088, 111.525
208.465, 109.998
209.840, 93.407
211.216, 87.757
212.591, 76.146
213.967, 62.318
215.341, 59.802
216.716, 68.663
218.091, 59.688
219.465, 55.683
220.839, 73.711
222.213, 71.692
223.586, 58.702
224.960, 63.478
226.333, 59.495
227.706, 61.887
229.079, 59.411
230.451, 58.889
231.823, 58.165
233.195, 62.018
234.567, 39.384
235.939, 59.232
237.310, 45.211
238.682, 73.327
240.052, 43.314
241.423, 44.929
242.794, 42.468
244.164, 36.183
245.534, 49.208
246.904, 37.377
248.274, 50.868
249.643, 41.132
251.012, 57.557
252.381, 37.220
253.750, 15.747
255.118, 49.392
256.487, 33.089
257.855, 39.912
259.223, 40.674
260.590, 39.487
261.958, 37.456
263.325, 49.510
264.692, 33.597
266.059, 29.638
267.425, 54.672
268.791, 33.700
270.158, 8.720
271.523, 40.730
272.889, 30.734
274.255, 29.730
275.620, 21.718
276.985, 37.699
278.350, 38.673
279.714, 11.640
281.078, 44.599
282.443, 23.553
283.806, 21.501
285.170, 32.442
286.534, 37.377
287.897, 23.308
289.260, 29.232
290.623, 23.151
291.985, 33.064
293.348, 25.973
294.710, 18.876
296.072, 28.775
297.433, 28.667
298.795, 18.555
300.156, 21.437
301.517, 18.314
302.878, 15.862
304.239, 26.052
305.599, 11.914
306.959, 21.771
308.319, 16.623
309.679, 16.470
311.038, 44.312
312.398, 23.150
313.757, 18.984
315.116, 38.812
316.474, 37.636
317.833, 21.445
319.191, 27.255
320.549, 36.068
321.907, 34.877
323.264, 13.683
324.622, 16.474
325.979, 27.251
327.336, 21.015
328.692, 31.766
330.049, 41.505
331.405, 17.233
332.761, 29.950
334.117, 24.655
335.473, 25.350
336.828, 35.035
338.183, 29.711
339.538, 23.377
340.893, 21.034
342.247, 43.683
343.602, 25.324
344.956, 34.958
346.310, 23.585
347.663, 27.205
349.017, 41.818
350.370, 16.427
351.723, 28.029
353.076, 24.625
354.428, 37.217
355.780, 31.804
357.133, 33.387
358.484, 21.957
359.836, 31.470
361.188, 29.919
362.539, 35.354
363.890, 28.830
365.241, 32.748
366.591, 36.681
367.942, 38.180
369.292, 29.670
370.642, 36.100
371.992, 41.554
373.341, 24.990
374.691, 33.440
376.040, 31.881
377.388, 34.323
378.737, 27.767
380.086, 35.238
381.434, 35.616
382.782, 16.095
384.130, 30.517
385.477, 26.076
386.825, 33.504
388.172, 45.950
389.519, 24.395
390.865, 15.820
392.212, 32.313
393.558, 40.757
394.904, 34.267
396.250, 31.737
397.596, 37.286
398.941, 35.744
400.286, 49.104
401.631, 40.623
402.976, 29.068
404.321, 41.545
405.665, 45.031
407.009, 24.508
408.353, 27.976
409.697, 16.505
411.040, 37.954
412.384, 39.385
413.727, 24.932
415.070, 43.382
416.412, 37.707
417.755, 58.189
419.097, 48.625
420.439, 51.057
421.781, 46.467
423.122, 79.937
424.464, 76.411
425.805, 85.761
427.146, 103.264
428.486, 107.669
429.827, 102.066
431.167, 137.531
432.507, 157.036
433.847, 180.441
435.187, 174.951
436.526, 214.356
437.865, 243.808
439.204, 287.245
440.543, 359.636
441.882, 422.073
443.220, 523.510
444.558, 621.903
445.896, 848.309
447.234, 1116.702
448.572, 1465.083
449.909, 1940.513
451.246, 2375.879
452.583, 2950.293
453.919, 3198.686
455.256, 3360.079
456.592, 3885.602
457.928, 4852.027
459.264, 7082.434
460.600, 9405.935
461.935, 11105.433
463.270, 10454.855
464.605, 8169.305
465.940, 5664.798
467.274, 3892.285
468.609, 2528.675
469.943, 1738.079
471.277, 1194.534
472.610, 889.962
473.944, 670.440
475.277, 552.964
476.610, 437.377
477.943, 388.851
479.275, 314.301
480.608, 265.755
481.940, 259.255
483.272, 215.733
484.604, 203.184
485.935, 179.625
487.267, 159.161
488.598, 151.625
489.929, 123.136
491.260, 126.596
492.590, 102.075
493.920, 100.610
495.250, 116.042
496.580, 76.529
497.910, 102.001
499.239, 97.534
500.569, 72.043
501.898, 68.562
503.226, 74.029
504.555, 72.542
505.883, 72.721
507.212, 68.858
508.540, 72.093
509.867, 58.621
511.195, 56.158
512.522, 54.697
513.849, 42.217
515.176, 39.757
516.503, 50.297
517.829, 52.801
519.156, 50.255
520.482, 58.883
521.808, 45.425
523.133, 32.951
524.459, 31.547
525.784, 30.090
527.109, 55.568
528.434, 25.378
529.758, 63.905
531.083, 40.448
532.407, 35.992
533.731, 42.516
535.055, 22.001
536.378, 26.571
537.701, 34.116
539.025, 14.691
540.348, 29.237
541.670, 20.893
542.993, 28.439
544.315, 19.985
545.637, 27.568
546.959, 29.114
548.281, 8.688
549.602, 33.235
550.923, 36.779
552.244, 8.352
553.565, 15.861
554.886, 19.457
556.206, 29.005
557.526, 35.602
558.846, 21.221
560.166, 32.771
561.486, 18.377
562.805, 29.970
564.124, 5.566
565.443, 25.166
566.762, 11.835
568.080, 12.431
569.399, 19.076
570.717, 9.678
572.035, 15.254
573.352, 4.825
574.670, 1.406
575.987, 9.957
577.304, 3.491
578.621, 21.059
579.938, 18.700
581.254, 5.843
582.570, 13.605
583.886, 18.170
585.202, 12.779
586.518, 29.654
587.833, 21.232
589.148, 26.927
590.463, 30.475
591.778, 43.061
593.093, 37.985
594.407, 30.737
595.721, 41.922
597.035, 58.471
598.349, 51.103
599.662, 63.682
600.976, 49.240
602.289, 54.986
603.602, 55.932
604.914, 98.482
606.227, 106.063
607.539, 120.635
608.851, 183.264
610.163, 237.844
611.475, 347.422
612.786, 543.143
614.097, 848.712
615.408, 1266.273
616.719, 1533.817
618.030, 1570.482
619.340, 1327.027
620.651, 1081.601
621.961, 849.142
623.270, 696.702
624.580, 676.327
625.889, 664.200
627.199, 766.766
628.507, 887.302
629.816, 986.966
631.125, 987.576
632.433, 832.157
633.741, 671.752
635.049, 506.301
636.357, 387.847
637.664, 336.387
638.972, 283.920
640.279, 282.458
641.586, 301.008
642.893, 334.618
644.199, 401.166
645.505, 480.697
646.811, 534.217
648.117, 534.735
649.423, 472.251
650.728, 344.864
652.034, 254.378
653.339, 176.115
654.644, 104.626
655.948, 81.135
657.253, 90.643
658.557, 34.149
659.861, 49.654
661.165, 28.324
662.468, 38.825
663.772, 29.324
665.075, 0.177
666.378, 15.319
667.681, 18.813
668.983, 10.695
670.286, 13.793
671.588, 13.279
672.890, 15.766
674.192, 12.249
675.493, 10.730
676.795, 5.210
678.096, 18.838
679.397, 4.314
680.697, 11.882
681.998, 3.646
683.298, 10.868
684.598, 23.335
685.898, 2.799
687.198, 13.315
688.498, 4.776
689.797, 17.230
691.096, 17.980
692.395, 5.434
693.694, 25.891
694.992, 0.345
696.290, 10.823
697.589, 0.269
698.886, 1.288
700.184, 10.232
701.482, 0.329
702.779, 1.159
704.076, 0.824
705.373, 0.240
706.669, 3.332
707.966, 1.549
709.262, 2.029
710.558, 0.412
711.854, 5.828
713.150, 6.862
714.445, 4.637
715.740, 11.147
717.035, 18.555
718.330, 12.884
719.625, 1.713
720.919, 23.314
722.214, 6.936
723.508, 7.451
724.801, 0.163
726.095, 11.781
727.388, 4.596
728.682, 4.030
729.975, 15.341
731.267, 2.780
732.560, 13.854
733.852, 6.359
735.145, 25.003
736.437, 26.401
737.728, 1.093
739.020, 4.249
740.311, 8.699
741.603, 5.964
742.894, 14.632
744.184, 9.695
745.475, 3.019
746.765, 5.839
748.055, 0.842
749.345, 3.572
750.635, 3.889
751.925, 4.800
753.214, 5.506
754.503, 6.809
755.792, 13.111
757.081, 2.591
758.370, 9.704
759.658, 2.997
760.946, 17.287
762.234, 5.575
763.522, 1.140
764.809, 11.858
766.097, 3.418
767.384, 9.691
768.671, 3.037
769.958, 0.770
771.244, 0.495
772.530, 0.244
773.817, 5.015
775.102, 5.271
776.388, 6.431
777.674, 7.486
778.959, 6.024
780.244, 3.270
781.529, 1.486
782.814, 2.863
784.098, 5.992
785.383, 11.228
786.667, 10.461
787.951, 14.692
789.235, 2.079
790.518, 14.146
791.801, 7.630
793.084, 17.588
794.367, 23.805
795.650, 7.019
796.933, 16.231
798.215, 9.441
799.497, 5.351
800.779, 13.852
802.061, 12.054
803.342, 6.253
804.624, 12.397
805.905, 15.592
807.186, 7.785
808.466, 8.709
809.747, 5.897
811.027, 5.084
812.307, 15.269
813.587, 5.451
814.867, 8.632
816.146, 5.215
817.426, 7.960
818.705, 2.897
819.984, 9.273
821.263, 0.670
822.541, 10.495
823.819, 13.659
825.098, 1.216
826.375, 5.943
827.653, 8.073
828.931, 11.772
830.208, 16.379
831.485, 1.502
832.762, 2.649
834.039, 0.255
835.315, 9.888
836.592, 5.979
837.868, 2.953
839.144, 8.181
840.420, 1.741
841.695, 9.654
842.970, 8.428
844.246, 3.505
845.521, 19.489
846.795, 3.586
848.070, 0.390
849.344, 9.676
850.618, 8.765
851.892, 1.859
853.166, 6.060
854.440, 4.049
855.713, 20.156
856.986, 16.263
858.259, 18.277
859.532, 38.788
860.804, 13.678
862.077, 5.762
863.349, 11.802
864.621, 10.575
865.893, 35.643
867.164, 3.593
868.436, 4.312
869.707, 20.744
870.978, 7.540
872.248, 8.347
873.519, 4.201
874.789, 9.115
876.060, 26.887
877.330, 7.060
878.599, 5.011
879.869, 18.894
881.138, 4.575
882.408, 15.650
883.677, 24.308
884.945, 2.741
886.214, 7.270
887.482, 0.234
888.751, 28.803
890.019, 24.697
891.287, 28.741
892.554, 36.790
893.822, 37.010
895.089, 30.800
896.356, 37.862
897.623, 42.893
898.889, 28.957
900.156, 23.000
901.422, 54.976
902.688, 37.703
903.954, 37.737
905.220, 40.798
906.485, 14.731
907.750, 67.716
909.015, 44.728
910.280, 32.726
911.545, 59.767
912.809, 22.810
914.074, 34.859
915.338, 40.913
916.602, 33.961
917.865, 49.996
919.129, 29.968
920.392, 55.002
921.655, 33.051
922.918, 49.111
924.181, 53.171
925.443, 42.231
926.706, 44.194
927.968, 51.254
929.230, 39.090
930.491, 74.151
931.753, 41.212
933.014, 88.272
934.276, 49.333
935.536, 40.395
936.797, 64.290
938.058, 50.352
939.318, 61.415
940.578, 72.477
941.838, 75.542
943.098, 66.607
944.358, 56.673
945.617, 65.740
946.876, 64.808
948.135, 73.874
949.394, 80.943
950.653, 84.013
951.911, 93.979
953.169, 94.963
954.427, 110.075
955.685, 97.052
956.943, 103.126
958.200, 100.155
959.458, 132.231
960.715, 131.307
961.971, 153.331
963.228, 183.409
964.485, 251.489
965.741, 307.276
966.997, 314.357
968.253, 269.430
969.508, 365.510
970.764, 345.565
972.019, 414.650
973.274, 469.737
974.529, 531.746
975.784, 595.835
977.039, 742.874
978.293, 939.735
979.547, 1244.828
980.801, 1716.923
982.055, 2665.564
983.308, 4481.663
984.562, 8700.743
985.815, 21413.846
987.068, 40262.945
988.321, 46642.055
989.573, 35281.020
990.826, 19860.131
992.078, 11269.242
993.330, 6359.353
994.582, 3558.465
995.833, 2248.582
997.085, 1472.701
998.336, 1091.823
999.587, 924.946
1000.838, 721.072
1002.088, 641.200
1003.339, 542.330
1004.589, 451.392
1005.839, 403.526
1007.089, 361.527
1008.339, 312.667
1009.588, 296.755
1010.838, 259.740
1012.087, 268.889
1013.336, 231.929
1014.584, 244.082
1015.833, 202.237
1017.081, 188.396
1018.330, 223.556
1019.577, 190.222
1020.825, 180.387
1022.073, 169.456
1023.320, 179.622
1024.567, 180.794
1025.814, 186.969
1027.061, 193.146
1028.308, 188.326
1029.554, 180.139
1030.800, 166.842
1032.046, 149.880
1033.292, 122.069
1034.538, 101.260
1035.783, 65.453
1037.029, 89.649
1038.274, 61.850
1039.519, 71.053
1040.763, 77.258
1042.008, 71.467
1043.252, 36.678
1044.496, 46.893
1045.740, 43.110
1046.984, 62.331
1048.228, 48.554
1049.471, 46.780
1050.714, 54.008
1051.957, 46.238
1053.200, 51.626
1054.442, 41.705
1055.685, 54.942
1056.927, 65.182
1058.169, 63.423
1059.411, 23.667
1060.652, 30.962
1061.894, 36.211
1063.135, 19.462
1064.376, 24.382
1065.617, 28.974
1066.858, 15.233
1068.098, 18.494
1069.339, 11.758
1070.579, 47.025
1071.819, 50.310
1073.058, 48.585
1074.298, 64.862
1075.537, 42.234
1076.776, 79.518
1078.015, 55.804
1079.254, 87.092
1080.493, 138.383
1081.731, 146.676
1082.969, 187.972
1084.207, 188.270
1085.445, 162.570
1086.683, 113.872
1087.920, 111.179
1089.157, 78.488
1090.394, 52.800
1091.631, 72.115
1092.868, 50.432
1094.105, 53.751
1095.341, 53.073
1096.577, 98.398
1097.813, 89.725
1099.049, 128.055
1100.284, 148.391
1101.519, 191.728
1102.755, 226.068
1103.990, 258.410
1105.224, 219.783
1106.459, 171.130
1107.693, 140.479
1108.928, 97.831
1110.162, 85.187
1111.395, 38.545
1112.629, 49.910
1113.863, 32.277
1115.096, 61.647
1116.329, 86.022
1117.562, 66.399
1118.795, 40.779
1120.027, 81.160
1121.259, 80.544
1122.492, 103.930
1123.723, 97.319
1124.955, 131.710
1126.187, 156.103
1127.418, 180.500
1128.649, 206.899
1129.880, 250.299
1131.111, 315.702
1132.342, 409.107
1133.572, 516.515
1134.802, 706.926
1136.033, 1047.338
1137.262, 1287.752
1138.492, 1546.169
1139.722, 1752.589
1140.951, 1996.011
1142.180, 2223.435
1143.409, 2286.862
1144.638, 2228.291
1145.866, 2071.723
1147.095, 1668.157
1148.323, 1336.593
1149.551, 1076.031
1150.779, 840.470
1152.006, 644.066
1153.234, 539.512
1154.461, 385.959
1155.688, 340.410
1156.915, 328.863
1158.141, 255.317
1159.368, 300.774
1160.594, 238.427
1161.820, 287.890
1163.046, 336.354
1164.272, 379.817
1165.498, 395.805
1166.723, 382.413
1167.948, 392.222
1169.173, 312.747
1170.398, 254.451
1171.623, 206.923
1172.847, 173.425
1174.071, 125.901
1175.295, 117.526
1176.519, 100.141
1177.743, 27.750
1178.966, 65.373
1180.190, 54.942
1181.413, 69.426
1182.636, 12.911
1183.858, 15.398
1185.081, 35.886
1186.303, 5.375
1187.526, 13.865
1188.748, 43.356
1189.969, 22.852
1191.191, 11.346
1192.412, 6.153
1193.634, 13.342
1194.855, 22.841
1196.076, 15.355
1197.296, 19.863
1198.517, 8.376
1199.737, 14.884
1200.957, 42.505
1202.177, 12.007
1203.397, 1.898
1204.617, 37.655
1205.836, 16.159
1207.055, 9.164
1208.274, 38.621
1209.493, 3.127
1210.712, 16.653
1211.930, 31.169
1213.148, 20.698
1214.367, 34.237
1215.584, 19.746
1216.802, 39.255
1218.020, 38.764
1219.237, 33.623
1220.454, 43.151
1221.671, 46.708
1222.888, 42.242
1224.105, 29.756
1225.321, 16.268
1226.537, 44.804
1227.753, 25.589
1228.969, 44.102
1230.185, 31.617
1231.400, 12.497
1232.616, 27.011
1233.831, 41.573
1235.046, 17.104
1236.261, 3.315
1237.475, 59.199
1238.689, 30.714
1239.904, 27.236
1241.118, 64.127
1242.332, 25.643
1243.545, 71.773
1244.759, 40.290
1245.972, 22.129
1247.185, 36.685
1248.398, 56.201
1249.611, 29.770
1250.823, 51.297
1252.036, 10.815
1253.248, 37.333
1254.460, 25.877
1255.671, 26.396
1256.883, 12.991
1258.095, 7.723
1259.306, 29.243
1260.517, 17.765
1261.728, 28.287
1262.938, 17.848
1264.149, 11.651
1265.359, 10.173
1266.569, 27.696
1267.779, 22.219
1268.989, 20.742
1270.199, 22.675
1271.408, 19.934
1272.617, 15.520
1273.826, 20.066
1275.035, 16.619
1276.244, 28.140
1277.452, 14.660
1278.661, 5.178
1279.869, 37.695
1281.077, 12.221
1282.285, 7.259
1283.492, 27.273
1284.700, 14.794
1285.907, 27.504
1287.114, 20.042
1288.321, 33.558
1289.527, 13.111
1290.734, 8.359
1291.940, 1.150
1293.146, 1.655
1294.352, 21.160
1295.558, 14.665
1296.763, 10.169
1297.969, 1.687
1299.174, 1.813
1300.379, 9.314
1301.584, 5.184
1302.788, 0.321
1303.993, 8.173
1305.197, 5.337
1306.401, 4.832
1307.605, 4.362
1308.809, 4.876
1310.013, 2.395
1311.216, 15.079
1312.419, 7.548
1313.622, 17.016
1314.825, 25.484
1316.028, 10.950
1317.230, 23.414
1318.432, 40.875
1319.634, 5.335
1320.836, 26.789
1322.038, 5.243
1323.240, 22.646
1324.441, 6.095
1325.642, 3.541
1326.843, 4.985
1328.044, 4.428
1329.245, 5.868
1330.445, 2.693
1331.645, 9.740
1332.845, 22.829
1334.045, 0.583
1335.245, 20.006
1336.445, 4.573
1337.644, 9.248
1338.843, 21.166
1340.042, 4.578
1341.241, 6.987
1342.440, 4.394
1343.638, 2.798
1344.836, 18.200
1346.034, 15.600
1347.232, 13.998
1348.430, 11.606
1349.628, 5.786
1350.825, 2.175
1352.022, 5.562
1353.219, 9.947
1354.416, 16.330
1355.613, 5.711
1356.809, 7.910
1358.005, 15.466
1359.202, 10.840
1360.398, 11.787
1361.593, 11.581
1362.789, 2.949
1363.984, 8.016
1365.179, 1.679
1366.374, 17.014
1367.569, 14.452
1368.764, 10.827
1369.958, 11.812
1371.153, 37.546
1372.347, 21.858
1373.541, 14.484
1374.735, 9.268
1375.928, 4.885
1377.122, 22.391
1378.315, 3.896
1379.508, 11.401
1380.701, 26.904
1381.893, 32.405
1383.086, 8.903
1384.278, 20.401
1385.470, 2.894
1386.662, 3.613
1387.854, 23.877
1389.046, 23.365
1390.237, 35.852
1391.428, 7.336
1392.619, 6.180
1393.810, 38.123
1395.001, 16.602
1396.191, 30.077
1397.382, 30.550
1398.572, 0.219
1399.762, 42.246
1400.952, 5.712
1402.141, 12.099
1403.331, 10.266
1404.520, 26.688
1405.709, 27.772
1406.898, 21.865
1408.087, 24.194
1409.275, 15.636
1410.464, 17.076
1411.652, 14.515
1412.840, 16.947
1414.028, 1.624
1415.215, 13.784
1416.403, 26.185
1417.590, 10.429
1418.777, 13.970
1419.964, 20.313
1421.151, 27.031
1422.338, 21.407
1423.524, 25.763
1424.710, 25.118
1425.896, 15.522
1427.082, 28.313
1428.268, 47.595
1429.453, 49.983
1430.639, 35.858
1431.824, 36.238
1433.009, 31.814
1434.194, 68.213
1435.378, 40.459
1436.563, 30.812
1437.747, 64.447
1438.931, 49.581
1440.115, 64.176
1441.299, 38.375
1442.482, 79.651
1443.666, 63.885
1444.849, 88.000
1446.032, 90.798
1447.215, 85.042
1448.397, 93.536
1449.580, 87.746
1450.762, 83.942
1451.944, 103.766
1453.126, 114.715
1454.308, 105.789
1455.490, 106.942
1456.671, 107.065
1457.852, 112.144
1459.033, 114.685
1460.214, 109.700
1461.395, 95.600
1462.575, 68.675
1463.756, 90.741
1464.936, 57.740
1466.116, 75.784
1467.296, 74.815
1468.475, 51.842
1469.655, 75.862
1470.834, 47.872
1472.013, 44.930
1473.192, 53.988
1474.371, 46.031
1475.550, 56.079
1476.728, 51.144
1477.906, 60.204
1479.084, 60.424
1480.262, 54.340
1481.440, 56.416
1482.617, 47.515
1483.795, 31.623
1484.972, 65.739
1486.149, 49.866
1487.326, 45.008
1488.502, 22.163
1489.679, 29.335
1490.855, 33.526
1492.031, 34.741
1493.207, 30.983
1494.383, 5.256
1495.559, 15.567
1496.734, 38.923
1497.909, 48.337
1499.084, 3.532
1500.259, 18.505
1501.434, 11.622
1502.608, 0.000
##END=



