##NAMES=Baryte
##RRUFFID=R040036
##IDEAL CHEMISTRY=BaS^6+^O_4_
##LOCALITY=Cumbria County, England
##OWNER=RRUFF
##SOURCE=University of Arizona Mineral Museum
##DESCRIPTION=Golden brown tabular crystal
##STATUS=The identification of this mineral has been confirmed by X-ray diffraction and chemical analysis
##URL=rruff.info/R040036
##MEASURED CHEMISTRY=Ba_1.00_S_1.00_O_4_; trace amounts of Pb
##PIN_ID=M00021
##ORIENTATION=Laser parallel to c* (0 0 1). Fiducial mark perpendicular to laser is parallel to -a [-1 0 0]
26.288, 0.000
27.694, 3.745
29.099, 16.787
30.504, 24.676
31.909, 0.874
33.313, 57.470
34.717, 40.793
36.121, 50.613
37.525, 34.018
38.929, 62.220
40.332, 65.678
41.735, 73.777
43.138, 33.767
44.541, 38.481
45.943, 42.146
47.345, 45.324
48.747, 51.816
50.149, 39.933
51.551, 45.217
52.952, 38.500
54.353, 64.210
55.754, 39.906
57.155, 60.651
58.555, 37.666
59.955, 26.320
61.355, 42.670
62.755, 49.599
64.154, 41.884
65.553, 64.986
66.952, 71.390
68.351, 55.373
69.750, 29.591
71.148, 48.865
72.546, 40.957
73.944, 46.632
75.342, 63.940
76.739, 38.955
78.136, 20.969
79.533, 29.971
80.930, 2.962
82.327, 24.268
83.723, 14.382
85.119, 21.300
86.515, 5.193
87.910, 16.941
89.306, 1.099
90.701, 7.283
92.096, 5.490
93.490, 19.721
94.885, 37.977
96.279, 35.993
97.673, 21.668
99.067, 8.562
100.461, 17.429
101.854, 15.093
103.247, 2.247
104.640, 5.685
106.032, 6.666
107.425, 27.434
108.817, 33.685
110.209, 28.039
111.601, 61.858
112.992, 79.047
114.384, 95.240
115.775, 101.135
117.166, 103.086
118.556, 103.406
119.947, 80.735
121.337, 85.116
122.727, 84.452
124.116, 117.673
125.506, 106.812
126.895, 135.867
128.284, 165.969
129.673, 175.830
131.062, 161.614
132.450, 117.332
133.838, 111.242
135.226, 103.023
136.614, 91.611
138.001, 84.232
139.388, 86.826
140.775, 104.448
142.162, 102.873
143.549, 117.154
144.935, 167.600
146.321, 179.975
147.707, 222.229
149.093, 255.633
150.478, 306.972
151.863, 310.280
153.248, 302.508
154.633, 277.782
156.018, 221.015
157.402, 179.325
158.786, 141.568
160.170, 117.244
161.554, 109.904
162.937, 95.177
164.320, 75.251
165.703, 83.297
167.086, 62.399
168.469, 55.506
169.851, 71.595
171.233, 62.656
172.615, 64.629
173.996, 60.633
175.378, 55.830
176.759, 44.289
178.140, 48.638
179.521, 55.968
180.901, 45.130
182.281, 52.162
183.662, 62.261
185.041, 92.209
186.421, 93.979
187.800, 112.643
189.180, 133.175
190.558, 135.661
191.937, 130.006
193.316, 100.218
194.694, 132.263
196.072, 95.215
197.450, 65.134
198.827, 68.959
200.205, 85.619
201.582, 70.278
202.959, 68.805
204.336, 72.376
205.712, 84.675
207.088, 71.138
208.465, 64.285
209.840, 38.343
211.216, 48.372
212.591, 46.274
213.967, 47.056
215.341, 32.880
216.716, 38.737
218.091, 39.464
219.465, 42.987
220.839, 42.710
222.213, 45.273
223.586, 44.080
224.960, 51.626
226.333, 42.212
227.706, 38.624
229.079, 40.106
230.451, 56.172
231.823, 48.572
233.195, 53.894
234.567, 54.203
235.939, 58.355
237.310, 50.002
238.682, 28.945
240.052, 38.744
241.423, 38.622
242.794, 37.220
244.164, 44.296
245.534, 46.486
246.904, 26.917
248.274, 45.646
249.643, 22.162
251.012, 42.736
252.381, 29.685
253.750, 20.720
255.118, 33.778
256.487, 41.028
257.855, 52.382
259.223, 40.635
260.590, 37.088
261.958, 22.639
263.325, 38.223
264.692, 28.826
266.059, 41.428
267.425, 42.022
268.791, 26.499
270.158, 25.986
271.523, 24.866
272.889, 34.015
274.255, 30.561
275.620, 29.096
276.985, 39.620
278.350, 30.134
279.714, 30.638
281.078, 26.134
282.443, 38.619
283.806, 21.094
285.170, 26.515
286.534, 13.894
287.897, 16.278
289.260, 31.717
290.623, 31.149
291.985, 22.573
293.348, 33.990
294.710, 23.398
296.072, 7.799
297.433, 20.192
298.795, 36.576
300.156, 25.954
301.517, 37.324
302.878, 26.688
304.239, 24.044
305.599, 24.392
306.959, 16.733
308.319, 26.067
309.679, 21.367
311.038, 20.714
312.398, 20.945
313.757, 22.210
315.116, 24.372
316.474, 32.498
317.833, 21.694
319.191, 23.844
320.549, 12.999
321.907, 18.131
323.264, 27.236
324.622, 51.268
325.979, 22.303
327.336, 35.354
328.692, 15.339
330.049, 2.339
331.405, 11.370
332.761, 25.516
334.117, 24.648
335.473, 31.765
336.828, 20.870
338.183, 30.961
339.538, 20.040
340.893, 35.107
342.247, 34.163
343.602, 23.209
344.956, 28.129
346.310, 33.056
347.663, 22.053
349.017, 25.971
350.370, 22.873
351.723, 43.785
353.076, 4.747
354.428, 30.639
355.780, 5.493
357.133, 11.222
358.484, 27.992
359.836, 21.749
361.188, 32.506
362.539, 24.194
363.890, 30.906
365.241, 26.618
366.591, 19.345
367.942, 39.068
369.292, 21.801
370.642, 37.525
371.992, 21.282
373.341, 20.993
374.691, 20.687
376.040, 37.386
377.388, 24.161
378.737, 13.900
380.086, 36.664
381.434, 17.429
382.782, 19.213
384.130, 33.964
385.477, 31.620
386.825, 22.325
388.172, 10.033
389.519, 29.739
390.865, 13.489
392.212, 39.258
393.558, 35.943
394.904, 32.721
396.250, 28.396
397.596, 38.172
398.941, 23.889
400.286, 20.567
401.631, 32.306
402.976, 18.079
404.321, 26.903
405.665, 27.672
407.009, 21.423
408.353, 29.106
409.697, 27.859
411.040, 28.568
412.384, 27.333
413.727, 46.099
415.070, 27.791
416.412, 47.479
417.755, 44.161
419.097, 44.885
420.439, 64.632
421.781, 48.329
423.122, 65.073
424.464, 58.772
425.805, 67.498
427.146, 67.176
428.486, 73.910
429.827, 88.561
431.167, 103.236
432.507, 116.852
433.847, 136.477
435.187, 157.443
436.526, 192.865
437.865, 215.515
439.204, 239.218
440.543, 290.871
441.882, 337.452
443.220, 425.089
444.558, 514.802
445.896, 671.465
447.234, 896.179
448.572, 1207.844
449.909, 1731.497
451.246, 2152.152
452.583, 2685.771
453.919, 2796.433
455.256, 2835.073
456.592, 3027.710
457.928, 3532.347
459.264, 5092.988
460.600, 6775.641
461.935, 8080.331
463.270, 7654.971
464.605, 5822.621
465.940, 4043.219
467.274, 2732.842
468.609, 1790.506
469.943, 1249.266
471.277, 888.909
472.610, 667.612
473.944, 472.223
475.277, 403.773
476.610, 321.365
477.943, 266.023
479.275, 253.677
480.608, 197.364
481.940, 196.000
483.272, 167.683
484.604, 168.315
485.935, 133.017
487.267, 126.715
488.598, 131.362
489.929, 107.033
491.260, 83.727
492.590, 98.371
493.920, 86.034
495.250, 89.683
496.580, 84.417
497.910, 69.982
499.239, 76.668
500.569, 49.239
501.898, 61.837
503.226, 43.514
504.555, 57.164
505.883, 40.865
507.212, 58.529
508.540, 52.225
509.867, 48.903
511.195, 73.549
512.522, 36.277
513.849, 48.936
515.176, 51.664
516.503, 52.324
517.829, 62.983
519.156, 43.641
520.482, 19.369
521.808, 29.046
523.133, 47.678
524.459, 34.433
525.784, 41.083
527.109, 58.742
528.434, 35.467
529.758, 38.225
531.083, 49.939
532.407, 43.559
533.731, 38.404
535.055, 48.097
536.378, 38.039
537.701, 38.083
539.025, 26.818
540.348, 27.543
541.670, 25.289
542.993, 39.026
544.315, 24.727
545.637, 39.445
546.959, 36.110
548.281, 14.856
549.602, 32.566
550.923, 27.362
552.244, 21.123
553.565, 41.176
554.886, 24.920
556.206, 15.694
557.526, 24.408
558.846, 32.122
560.166, 36.038
561.486, 30.940
562.805, 4.652
564.124, 30.436
565.443, 17.275
566.762, 34.983
568.080, 7.888
569.399, 28.595
570.717, 20.427
572.035, 15.142
573.352, 39.886
574.670, 33.725
575.987, 37.435
577.304, 32.169
578.621, 30.016
579.938, 27.717
581.254, 32.418
582.570, 21.435
583.886, 45.579
585.202, 49.311
586.518, 66.244
587.833, 48.955
589.148, 70.694
590.463, 42.752
591.778, 77.774
593.093, 62.826
594.407, 78.660
595.721, 97.529
597.035, 79.502
598.349, 94.370
599.662, 117.085
600.976, 107.788
602.289, 139.531
603.602, 140.490
604.914, 163.200
606.227, 176.921
607.539, 222.660
608.851, 326.375
610.163, 431.057
611.475, 638.786
612.786, 949.661
614.097, 1494.339
615.408, 2124.034
616.719, 2496.741
618.030, 2496.416
619.340, 2047.101
620.651, 1596.047
621.961, 1272.719
623.270, 986.389
624.580, 843.083
625.889, 798.751
627.199, 858.499
628.507, 921.164
629.816, 953.829
631.125, 878.682
632.433, 714.343
633.741, 524.220
635.049, 376.878
636.357, 261.535
637.664, 202.191
638.972, 185.845
640.279, 170.498
641.586, 183.150
642.893, 171.801
644.199, 209.542
645.505, 225.214
646.811, 255.862
648.117, 261.507
649.423, 249.151
650.728, 186.861
652.034, 139.501
653.339, 107.140
654.644, 58.841
655.948, 66.476
657.253, 58.110
658.557, 37.742
659.861, 29.372
661.165, 28.110
662.468, 24.737
663.772, 24.359
665.075, 7.170
666.378, 26.792
667.681, 28.459
668.983, 30.078
670.286, 4.694
671.588, 5.373
672.890, 16.985
674.192, 3.404
675.493, 1.203
676.795, 7.192
678.096, 11.591
679.397, 10.006
680.697, 9.599
681.998, 7.230
683.298, 2.820
684.598, 7.407
685.898, 15.012
687.198, 31.596
688.498, 4.258
689.797, 16.843
691.096, 2.470
692.395, 3.348
693.694, 11.983
694.992, 6.583
696.290, 0.147
697.589, 14.708
698.886, 12.267
700.184, 6.176
701.482, 5.622
702.779, 16.927
704.076, 0.568
705.373, 3.024
706.669, 20.517
707.966, 5.944
709.262, 15.564
710.558, 2.903
711.854, 9.626
713.150, 3.153
714.445, 3.323
715.740, 10.209
717.035, 4.728
718.330, 3.755
719.625, 14.758
720.919, 12.269
722.214, 11.223
723.508, 16.719
724.801, 3.779
726.095, 7.727
727.388, 7.764
728.682, 1.252
729.975, 13.241
731.267, 11.761
732.560, 13.100
733.852, 3.817
735.145, 5.351
736.437, 9.888
737.728, 5.431
739.020, 4.023
740.311, 6.474
741.603, 0.077
742.894, 9.631
744.184, 3.811
745.475, 1.251
746.765, 0.138
748.055, 2.296
749.345, 11.728
750.635, 0.158
751.925, 6.414
753.214, 21.009
754.503, 4.431
755.792, 1.850
757.081, 20.267
758.370, 5.682
759.658, 9.905
760.946, 9.503
762.234, 13.909
763.522, 2.313
764.809, 27.716
766.097, 1.884
767.384, 8.513
768.671, 10.908
769.958, 6.698
771.244, 21.692
772.530, 7.921
773.817, 16.463
775.102, 14.845
776.388, 7.225
777.674, 17.603
778.959, 8.979
780.244, 8.353
781.529, 5.726
782.814, 2.904
784.098, 0.464
785.383, 4.830
786.667, 5.194
787.951, 16.556
789.235, 2.084
790.518, 8.274
791.801, 8.630
793.084, 2.015
794.367, 11.336
795.650, 6.687
796.933, 9.035
798.215, 14.382
799.497, 4.273
800.779, 13.069
802.061, 7.590
803.342, 19.747
804.624, 11.054
805.905, 1.612
807.186, 7.720
808.466, 9.050
809.747, 2.660
811.027, 9.630
812.307, 8.955
813.587, 10.147
814.867, 11.974
816.146, 7.190
817.426, 7.513
818.705, 2.817
819.984, 1.881
821.263, 6.407
822.541, 5.675
823.819, 1.038
825.098, 4.273
826.375, 4.418
827.653, 0.150
828.931, 5.844
830.208, 11.654
831.485, 5.398
832.762, 7.562
834.039, 26.830
835.315, 4.065
836.592, 19.359
837.868, 9.651
839.144, 17.741
840.420, 13.842
841.695, 5.132
842.970, 17.348
844.246, 13.507
845.521, 10.287
846.795, 16.884
848.070, 2.170
849.344, 5.329
850.618, 2.604
851.892, 17.848
853.166, 1.004
854.440, 22.272
855.713, 25.522
856.986, 39.658
858.259, 42.938
859.532, 54.217
860.804, 21.178
862.077, 35.011
863.349, 23.256
864.621, 25.297
865.893, 10.560
867.164, 2.207
868.436, 15.706
869.707, 16.653
870.978, 20.570
872.248, 20.702
873.519, 27.799
874.789, 13.791
876.060, 12.887
877.330, 12.134
878.599, 12.393
879.869, 3.611
881.138, 9.611
882.408, 16.859
883.677, 12.904
884.945, 21.312
886.214, 5.552
887.482, 13.824
888.751, 19.047
890.019, 23.123
891.287, 24.395
892.554, 35.649
893.822, 22.891
895.089, 52.164
896.356, 37.425
897.623, 37.427
898.889, 56.700
900.156, 51.974
901.422, 43.223
902.688, 53.498
903.954, 33.691
905.220, 72.966
906.485, 44.242
907.750, 55.328
909.015, 33.604
910.280, 45.665
911.545, 32.942
912.809, 18.220
914.074, 33.499
915.338, 53.778
916.602, 26.058
917.865, 63.339
919.129, 37.620
920.392, 55.810
921.655, 20.068
922.918, 42.351
924.181, 50.636
925.443, 50.922
926.706, 63.140
927.968, 56.427
929.230, 41.715
930.491, 55.940
931.753, 33.231
933.014, 50.523
934.276, 69.816
935.536, 52.110
936.797, 59.295
938.058, 43.592
939.318, 66.706
940.578, 36.005
941.838, 58.306
943.098, 75.560
944.358, 68.864
945.617, 69.169
946.876, 71.410
948.135, 90.718
949.394, 73.026
950.653, 95.337
951.911, 75.649
953.169, 83.964
954.427, 89.281
955.685, 117.600
956.943, 119.882
958.200, 105.204
959.458, 138.527
960.715, 157.833
961.971, 174.159
963.228, 211.407
964.485, 274.731
965.741, 315.952
966.997, 321.042
968.253, 328.280
969.508, 340.619
970.764, 387.959
972.019, 438.302
973.274, 517.646
974.529, 599.992
975.784, 632.340
977.039, 836.691
978.293, 1010.044
979.547, 1393.400
980.801, 1917.757
982.055, 2905.116
983.308, 4941.479
984.562, 9648.842
985.815, 24258.207
987.068, 45837.574
988.321, 51426.945
989.573, 35896.312
990.826, 18395.682
992.078, 10075.062
993.330, 5730.440
994.582, 3374.822
995.833, 2209.205
997.085, 1530.592
998.336, 1152.983
999.587, 920.376
1000.838, 766.773
1002.088, 672.171
1003.339, 563.551
1004.589, 485.955
1005.839, 414.406
1007.089, 373.775
1008.339, 311.190
1009.588, 320.607
1010.838, 311.028
1012.087, 262.452
1013.336, 240.878
1014.584, 245.306
1015.833, 230.737
1017.081, 202.171
1018.330, 209.608
1019.577, 197.872
1020.825, 187.314
1022.073, 221.757
1023.320, 180.203
1024.567, 186.651
1025.814, 201.103
1027.061, 190.557
1028.308, 212.013
1029.554, 215.471
1030.800, 162.931
1032.046, 156.394
1033.292, 113.861
1034.538, 121.329
1035.783, 95.800
1037.029, 86.274
1038.274, 85.749
1039.519, 54.228
1040.763, 59.708
1042.008, 56.191
1043.252, 54.677
1044.496, 58.165
1045.740, 39.657
1046.984, 55.151
1048.228, 40.647
1049.471, 74.146
1050.714, 39.647
1051.957, 48.150
1053.200, 58.655
1054.442, 48.167
1055.685, 52.678
1056.927, 41.302
1058.169, 46.818
1059.411, 31.336
1060.652, 39.856
1061.894, 40.379
1063.135, 52.904
1064.376, 50.540
1065.617, 48.844
1066.858, 43.718
1068.098, 44.254
1069.339, 45.206
1070.579, 39.334
1071.819, 51.027
1073.058, 66.586
1074.298, 71.197
1075.537, 66.786
1076.776, 104.396
1078.015, 134.011
1079.254, 131.572
1080.493, 200.137
1081.731, 243.702
1082.969, 298.270
1084.207, 277.840
1085.445, 209.413
1086.683, 173.991
1087.920, 114.573
1089.157, 78.205
1090.394, 79.795
1091.631, 38.389
1092.868, 40.987
1094.105, 55.586
1095.341, 37.188
1096.577, 57.793
1097.813, 56.401
1099.049, 52.012
1100.284, 97.627
1101.519, 105.247
1102.755, 163.870
1103.990, 178.496
1105.224, 152.123
1106.459, 127.753
1107.693, 89.385
1108.928, 58.019
1110.162, 53.655
1111.395, 28.293
1112.629, 21.932
1113.863, 45.574
1115.096, 6.218
1116.329, 6.863
1117.562, 18.511
1118.795, 5.160
1120.027, 0.813
1121.259, 13.467
1122.492, 17.859
1123.723, 38.782
1124.955, 42.443
1126.187, 58.105
1127.418, 59.769
1128.649, 40.436
1129.880, 75.104
1131.111, 80.773
1132.342, 126.445
1133.572, 201.119
1134.802, 286.795
1136.033, 380.473
1137.262, 468.286
1138.492, 568.835
1139.722, 657.519
1140.951, 734.206
1142.180, 826.894
1143.409, 871.584
1144.638, 861.276
1145.866, 770.969
1147.095, 625.664
1148.323, 483.360
1149.551, 403.058
1150.779, 310.759
1152.006, 238.461
1153.234, 192.166
1154.461, 155.873
1155.688, 136.580
1156.915, 104.290
1158.141, 102.721
1159.368, 107.714
1160.594, 105.428
1161.820, 132.143
1163.046, 134.860
1164.272, 175.578
1165.498, 206.297
1166.723, 214.018
1167.948, 159.740
1169.173, 155.463
1170.398, 113.187
1171.623, 97.913
1172.847, 81.639
1174.071, 30.367
1175.295, 46.095
1176.519, 4.825
1177.743, 45.556
1178.966, 27.288
1180.190, 25.020
1181.413, 20.754
1182.636, 6.488
1183.858, 22.224
1185.081, 27.960
1186.303, 0.213
1187.526, 12.525
1188.748, 9.737
1189.969, 9.002
1191.191, 16.741
1192.412, 4.481
1193.634, 3.221
1194.855, 17.963
1196.076, 10.294
1197.296, 12.691
1198.517, 8.567
1199.737, 9.174
1200.957, 21.916
1202.177, 27.035
1203.397, 11.116
1204.617, 1.344
1205.836, 5.602
1207.055, 3.860
1208.274, 5.119
1209.493, 5.360
1210.712, 19.458
1211.930, 0.199
1213.148, 27.940
1214.367, 21.704
1215.584, 33.452
1216.802, 24.461
1218.020, 11.621
1219.237, 40.822
1220.454, 4.114
1221.671, 13.263
1222.888, 26.185
1224.105, 12.235
1225.321, 33.976
1226.537, 29.717
1227.753, 11.636
1228.969, 38.659
1230.185, 47.416
1231.400, 44.460
1232.616, 13.539
1233.831, 26.489
1235.046, 28.271
1236.261, 41.038
1237.475, 52.798
1238.689, 41.556
1239.904, 41.294
1241.118, 32.031
1242.332, 22.768
1243.545, 51.505
1244.759, 31.241
1245.972, 37.017
1247.185, 44.771
1248.398, 22.506
1249.611, 52.246
1250.823, 20.134
1252.036, 17.031
1253.248, 19.767
1254.460, 24.526
1255.671, 21.263
1256.883, 33.999
1258.095, 17.815
1259.306, 33.569
1260.517, 35.306
1261.728, 14.069
1262.938, 50.867
1264.149, 46.604
1265.359, 19.351
1266.569, 23.332
1267.779, 31.078
1268.989, 23.815
1270.199, 46.754
1271.408, 37.552
1272.617, 48.358
1273.826, 33.095
1275.035, 27.849
1276.244, 33.585
1277.452, 26.321
1278.661, 51.057
1279.869, 33.797
1281.077, 28.771
1282.285, 42.528
1283.492, 18.321
1284.700, 41.068
1285.907, 23.802
1287.114, 31.535
1288.321, 40.345
1289.527, 18.075
1290.734, 30.810
1291.940, 30.536
1293.146, 52.261
1294.352, 48.986
1295.558, 6.710
1296.763, 35.433
1297.969, 7.150
1299.174, 43.861
1300.379, 19.564
1301.584, 10.264
1302.788, 32.962
1303.993, 15.657
1305.197, 8.345
1306.401, 17.030
1307.605, 14.713
1308.809, 7.395
1310.013, 18.076
1311.216, 9.756
1312.419, 25.434
1313.622, 20.111
1314.825, 23.784
1316.028, 0.545
1317.230, 23.121
1318.432, 23.787
1319.634, 45.342
1320.836, 30.005
1322.038, 8.664
1323.240, 16.320
1324.441, 8.972
1325.642, 8.621
1326.843, 6.856
1328.044, 28.787
1329.245, 11.327
1330.445, 21.962
1331.645, 12.406
1332.845, 0.780
1334.045, 3.695
1335.245, 12.304
1336.445, 14.861
1337.644, 10.440
1338.843, 5.997
1340.042, 0.548
1341.241, 30.154
1342.440, 21.756
1343.638, 5.357
1344.836, 8.955
1346.034, 7.450
1347.232, 13.858
1348.430, 15.637
1349.628, 9.689
1350.825, 23.158
1352.022, 3.586
1353.219, 9.017
1354.416, 19.548
1355.613, 34.111
1356.809, 3.329
1358.005, 7.772
1359.202, 7.781
1360.398, 8.667
1361.593, 10.119
1362.789, 4.575
1363.984, 3.966
1365.179, 5.617
1366.374, 7.043
1367.569, 7.579
1368.764, 12.879
1369.958, 14.820
1371.153, 24.182
1372.347, 14.715
1373.541, 20.365
1374.735, 4.900
1375.928, 8.321
1377.122, 18.021
1378.315, 11.720
1379.508, 1.585
1380.701, 1.891
1381.893, 31.802
1383.086, 8.492
1384.278, 31.181
1385.470, 23.868
1386.662, 2.550
1387.854, 10.230
1389.046, 15.907
1390.237, 8.581
1391.428, 4.253
1392.619, 19.924
1393.810, 12.590
1395.001, 4.747
1396.191, 12.914
1397.382, 17.572
1398.572, 2.772
1399.762, 4.882
1400.952, 4.266
1402.141, 24.184
1403.331, 11.832
1404.520, 20.478
1405.709, 24.123
1406.898, 24.767
1408.087, 15.409
1409.275, 3.950
1410.464, 11.567
1411.652, 6.204
1412.840, 13.841
1414.028, 23.477
1415.215, 36.110
1416.403, 4.389
1417.590, 46.022
1418.777, 14.928
1419.964, 18.506
1421.151, 22.130
1422.338, 24.607
1423.524, 24.232
1424.710, 23.609
1425.896, 24.613
1427.082, 20.618
1428.268, 24.826
1429.453, 33.863
1430.639, 36.110
1431.824, 48.133
1433.009, 58.515
1434.194, 43.573
1435.378, 20.993
1436.563, 59.466
1437.747, 43.974
1438.931, 74.480
1440.115, 85.867
1441.299, 74.354
1442.482, 87.190
1443.666, 63.608
1444.849, 104.063
1446.032, 118.296
1447.215, 100.667
1448.397, 83.944
1449.580, 119.749
1450.762, 115.103
1451.944, 110.815
1453.126, 135.973
1454.308, 125.238
1455.490, 130.532
1456.671, 101.145
1457.852, 111.158
1459.033, 117.333
1460.214, 108.295
1461.395, 102.448
1462.575, 102.733
1463.756, 79.750
1464.936, 95.878
1466.116, 77.057
1467.296, 68.256
1468.475, 72.475
1469.655, 51.710
1470.834, 67.928
1472.013, 52.126
1473.192, 62.315
1474.371, 47.496
1475.550, 46.665
1476.728, 41.833
1477.906, 48.010
1479.084, 18.199
1480.262, 36.394
1481.440, 19.616
1482.617, 42.856
1483.795, 34.105
1484.972, 14.368
1486.149, 31.639
1487.326, 10.915
1488.502, 32.202
1489.679, 19.506
1490.855, 44.834
1492.031, 15.190
1493.207, 29.574
1494.383, 26.989
1495.559, 16.442
1496.734, 14.946
1497.909, 15.515
1499.084, 15.167
1500.259, 1.067
1501.434, 25.863
1502.608, 0.000
##END=



