##NAMES=Baryte
##RRUFFID=R040036
##IDEAL CHEMISTRY=BaS^6+^O_4_
##LOCALITY=Cumbria County, England
##OWNER=RRUFF
##SOURCE=University of Arizona Mineral Museum
##DESCRIPTION=Golden brown tabular crystal
##STATUS=The identification of this mineral has been confirmed by X-ray diffraction and chemical analysis
##URL=rruff.info/R040036
##MEASURED CHEMISTRY=Ba_1.00_S_1.00_O_4_; trace amounts of Pb
##PIN_ID=M00021
##ORIENTATION=Laser parallel to c* (0 0 1). Fiducial mark perpendicular to laser is parallel to -a [-1 0 0]
26.288, 0.000
27.694, 30.701
29.099, 27.282
30.504, 17.236
31.909, 42.389
33.313, 32.668
34.717, 44.061
36.121, 35.503
37.525, 36.846
38.929, 52.410
40.332, 37.962
41.735, 48.668
43.138, 53.270
44.541, 42.445
45.943, 50.735
47.345, 41.021
48.747, 47.726
50.149, 35.106
51.551, 20.843
52.952, 31.663
54.353, 16.034
55.754, 21.136
57.155, 19.517
58.555, 24.675
59.955, 21.791
61.355, 33.717
62.755, 12.618
64.154, 3.520
65.553, 6.715
66.952, 11.717
68.351, 8.625
69.750, 4.458
71.148, 2.468
72.546, 7.401
73.944, 17.341
75.342, 1.285
76.739, 10.233
78.136, 5.817
79.533, 0.134
80.930, 5.086
82.327, 9.036
83.723, 3.015
85.119, 6.067
86.515, 2.119
87.910, 14.172
89.306, 6.225
90.701, 22.277
92.096, 3.330
93.490, 16.382
94.885, 8.434
96.279, 20.514
97.673, 45.464
99.067, 46.414
100.461, 53.365
101.854, 40.323
103.247, 31.308
104.640, 25.315
106.032, 30.341
107.425, 68.384
108.817, 66.438
110.209, 103.503
111.601, 117.575
112.992, 165.651
114.384, 196.729
115.775, 178.808
117.166, 187.883
118.556, 185.954
119.947, 184.019
121.337, 177.075
122.727, 184.123
124.116, 167.160
125.506, 198.190
126.895, 164.213
128.284, 187.225
129.673, 191.231
131.062, 195.228
132.450, 177.213
133.838, 185.183
135.226, 163.141
136.614, 176.089
138.001, 181.038
139.388, 201.989
140.775, 203.941
142.162, 181.894
143.549, 208.849
144.935, 241.806
146.321, 245.764
147.707, 313.724
149.093, 386.685
150.478, 480.648
151.863, 569.613
153.248, 586.579
154.633, 563.547
156.018, 498.517
157.402, 415.488
158.786, 318.461
160.170, 298.436
161.554, 258.412
162.937, 243.391
164.320, 220.370
165.703, 207.352
167.086, 186.335
168.469, 190.320
169.851, 182.307
171.233, 192.296
172.615, 191.286
173.996, 179.278
175.378, 159.272
176.759, 201.997
178.140, 187.697
179.521, 217.367
180.901, 227.006
182.281, 258.613
183.662, 317.186
185.041, 377.725
186.421, 540.231
187.800, 644.702
189.180, 648.138
190.558, 643.540
191.937, 508.907
193.316, 416.238
194.694, 308.536
196.072, 254.796
197.450, 210.027
198.827, 209.222
200.205, 166.398
201.582, 150.499
202.959, 161.613
204.336, 143.635
205.712, 135.648
207.088, 128.616
208.465, 124.072
209.840, 137.467
211.216, 123.412
212.591, 121.232
213.967, 120.950
215.341, 111.715
216.716, 92.538
218.091, 85.364
219.465, 101.930
220.839, 102.651
222.213, 113.447
223.586, 108.338
224.960, 101.050
226.333, 97.884
227.706, 96.444
229.079, 95.148
230.451, 105.936
231.823, 112.773
233.195, 113.495
234.567, 124.996
235.939, 116.668
237.310, 126.064
238.682, 126.649
240.052, 114.865
241.423, 112.526
242.794, 84.887
244.164, 107.438
245.534, 87.383
246.904, 86.412
248.274, 88.441
249.643, 77.472
251.012, 80.504
252.381, 69.512
253.750, 70.495
255.118, 65.503
256.487, 82.538
257.855, 85.575
259.223, 71.624
260.590, 87.662
261.958, 61.701
263.325, 56.740
264.692, 57.780
266.059, 67.820
267.425, 60.862
268.791, 68.904
270.158, 63.949
271.523, 57.995
272.889, 52.042
274.255, 56.090
275.620, 41.139
276.985, 57.189
278.350, 51.240
279.714, 45.293
281.078, 49.346
282.443, 42.401
283.806, 31.457
285.170, 46.515
286.534, 37.348
287.897, 37.635
289.260, 39.697
290.623, 39.760
291.985, 48.825
293.348, 27.891
294.710, 27.958
296.072, 34.027
297.433, 38.098
298.795, 31.170
300.156, 44.243
301.517, 30.318
302.878, 26.394
304.239, 23.471
305.599, 46.550
306.959, 31.630
308.319, 13.712
309.679, 42.795
311.038, 44.880
312.398, 18.965
313.757, 43.052
315.116, 31.141
316.474, 36.231
317.833, 42.322
319.191, 25.415
320.549, 35.509
321.907, 26.605
323.264, 16.702
324.622, 21.796
325.979, 25.889
327.336, 21.732
328.692, 12.070
330.049, 23.158
331.405, 26.245
332.761, 33.331
334.117, 24.416
335.473, 15.500
336.828, 11.583
338.183, 41.666
339.538, 20.749
340.893, 15.832
342.247, 47.915
343.602, 21.998
344.956, 14.081
346.310, 21.165
347.663, 14.250
349.017, 17.335
350.370, 28.422
351.723, 38.510
353.076, 28.599
354.428, 15.690
355.780, 6.783
357.133, 13.878
358.484, 12.975
359.836, 1.074
361.188, 13.176
362.539, 18.280
363.890, 3.613
365.241, 19.497
366.591, 23.609
367.942, 22.725
369.292, 5.843
370.642, 2.964
371.992, 22.087
373.341, 9.212
374.691, 34.342
376.040, 17.474
377.388, 22.609
378.737, 0.254
380.086, 14.887
381.434, 13.031
382.782, 2.178
384.130, 35.330
385.477, 25.485
386.825, 10.646
388.172, 17.810
389.519, 15.979
390.865, 13.151
392.212, 14.327
393.558, 13.770
394.904, 9.683
396.250, 16.864
397.596, 15.047
398.941, 19.232
400.286, 29.418
401.631, 14.607
402.976, 2.797
404.321, 2.011
405.665, 3.182
407.009, 24.378
408.353, 18.576
409.697, 28.777
411.040, 22.980
412.384, 10.184
413.727, 25.492
415.070, 37.047
416.412, 19.258
417.755, 2.470
419.097, 21.684
420.439, 34.901
421.781, 22.120
423.122, 21.340
424.464, 13.562
425.805, 38.786
427.146, 46.011
428.486, 44.237
429.827, 48.465
431.167, 69.695
432.507, 89.925
433.847, 97.158
435.187, 102.391
436.526, 146.627
437.865, 190.863
439.204, 218.101
440.543, 310.340
441.882, 376.580
443.220, 501.822
444.558, 622.065
445.896, 873.310
447.234, 1225.555
448.572, 1686.802
449.909, 2367.050
451.246, 3098.299
452.583, 3823.549
453.919, 3890.801
455.256, 3345.053
456.592, 2748.306
457.928, 2155.561
459.264, 1950.817
460.600, 1932.073
461.935, 1924.331
463.270, 1742.591
464.605, 1430.852
465.940, 1038.115
467.274, 726.380
468.609, 508.648
469.943, 367.918
471.277, 266.189
472.610, 202.463
473.944, 139.737
475.277, 139.014
476.610, 85.292
477.943, 104.571
479.275, 75.853
480.608, 57.137
481.940, 59.422
483.272, 53.709
484.604, 64.996
485.935, 28.284
487.267, 38.573
488.598, 33.863
489.929, 20.154
491.260, 42.446
492.590, 41.738
493.920, 23.033
495.250, 26.330
496.580, 11.630
497.910, 28.930
499.239, 15.232
500.569, 19.536
501.898, 38.844
503.226, 11.152
504.555, 31.462
505.883, 10.772
507.212, 12.084
508.540, 17.369
509.867, 14.684
511.195, 2.999
512.522, 14.315
513.849, 13.631
515.176, 27.948
516.503, 20.265
517.829, 29.582
519.156, 7.900
520.482, 13.220
521.808, 22.542
523.133, 37.861
524.459, 17.185
525.784, 22.509
527.109, 12.836
528.434, 15.194
529.758, 21.563
531.083, 14.857
532.407, 29.186
533.731, 34.515
535.055, 21.090
536.378, 19.419
537.701, 35.789
539.025, 18.353
540.348, 40.717
541.670, 29.048
542.993, 4.401
544.315, 1.732
545.637, 11.205
546.959, 14.552
548.281, 15.918
549.602, 16.378
550.923, 11.043
552.244, 28.475
553.565, 9.922
554.886, 21.256
556.206, 6.282
557.526, 16.637
558.846, 25.715
560.166, 12.043
561.486, 17.494
562.805, 18.083
564.124, 9.553
565.443, 17.117
566.762, 27.266
568.080, 17.667
569.399, 22.990
570.717, 9.328
572.035, 13.709
573.352, 5.031
574.670, 14.388
575.987, 14.708
577.304, 13.112
578.621, 18.441
579.938, 9.758
581.254, 17.104
582.570, 10.419
583.886, 37.739
585.202, 16.092
586.518, 25.453
587.833, 44.764
589.148, 15.082
590.463, 46.395
591.778, 38.702
593.093, 47.008
594.407, 37.313
595.721, 37.616
597.035, 39.918
598.349, 52.219
599.662, 60.519
600.976, 59.818
602.289, 78.115
603.602, 79.411
604.914, 113.047
606.227, 115.339
607.539, 113.631
608.851, 159.355
610.163, 219.124
611.475, 322.520
612.786, 497.805
614.097, 806.384
615.408, 1229.693
616.719, 1493.293
618.030, 1491.579
619.340, 1316.856
620.651, 1030.476
621.961, 882.165
623.270, 804.448
624.580, 862.717
625.889, 1056.985
627.199, 1288.250
628.507, 1739.539
629.816, 2039.801
631.125, 2088.061
632.433, 1791.319
633.741, 1316.575
635.049, 983.164
636.357, 719.682
637.664, 544.293
638.972, 455.559
640.279, 339.937
641.586, 344.430
642.893, 349.295
644.199, 374.583
645.505, 421.829
646.811, 445.158
648.117, 459.581
649.423, 363.120
650.728, 301.351
652.034, 231.576
653.339, 166.797
654.644, 133.021
655.948, 131.238
657.253, 86.452
658.557, 65.664
659.861, 49.873
661.165, 36.436
662.468, 32.677
663.772, 24.401
665.075, 28.600
666.378, 38.795
667.681, 28.617
668.983, 5.807
670.286, 15.048
671.588, 11.233
672.890, 19.592
674.192, 21.790
675.493, 6.034
676.795, 15.137
678.096, 4.384
679.397, 5.414
680.697, 5.953
681.998, 21.119
683.298, 8.272
684.598, 19.573
685.898, 1.280
687.198, 9.978
688.498, 4.117
689.797, 0.413
691.096, 9.282
692.395, 0.892
693.694, 0.370
694.992, 15.757
696.290, 0.129
697.589, 8.122
698.886, 8.635
700.184, 18.734
701.482, 0.169
702.779, 6.077
704.076, 0.990
705.373, 15.092
706.669, 3.171
707.966, 2.246
709.262, 15.324
710.558, 10.575
711.854, 3.640
713.150, 15.701
714.445, 5.758
715.740, 25.812
717.035, 1.863
718.330, 10.909
719.625, 21.953
720.919, 6.993
722.214, 15.030
723.508, 12.063
724.801, 5.093
726.095, 4.120
727.388, 13.143
728.682, 11.162
729.975, 12.178
731.267, 14.191
732.560, 15.201
733.852, 19.326
735.145, 31.211
736.437, 27.211
737.728, 29.833
739.020, 31.869
740.311, 19.193
741.603, 27.180
742.894, 12.164
744.184, 9.855
745.475, 14.120
746.765, 17.091
748.055, 13.941
749.345, 15.980
750.635, 0.027
751.925, 22.922
753.214, 8.132
754.503, 5.808
755.792, 9.256
757.081, 9.674
758.370, 15.601
759.658, 10.475
760.946, 13.558
762.234, 8.352
763.522, 13.259
764.809, 11.163
766.097, 16.541
767.384, 4.962
768.671, 13.856
769.958, 9.748
771.244, 14.636
772.530, 10.522
773.817, 10.596
775.102, 7.720
776.388, 11.849
777.674, 5.015
778.959, 2.124
780.244, 7.267
781.529, 23.416
782.814, 1.427
784.098, 6.266
785.383, 0.898
786.667, 5.066
787.951, 10.239
789.235, 6.583
790.518, 22.401
791.801, 31.217
793.084, 6.030
794.367, 48.841
795.650, 18.648
796.933, 10.453
798.215, 13.255
799.497, 12.946
800.779, 5.153
802.061, 14.364
803.342, 10.419
804.624, 12.198
805.905, 25.024
807.186, 15.744
808.466, 0.521
809.747, 12.242
811.027, 6.004
812.307, 0.752
813.587, 16.505
814.867, 6.010
816.146, 2.241
817.426, 0.537
818.705, 8.028
819.984, 0.676
821.263, 18.412
822.541, 5.878
823.819, 6.852
825.098, 4.564
826.375, 8.144
827.653, 14.182
828.931, 4.407
830.208, 2.212
831.485, 15.601
832.762, 12.008
834.039, 11.693
835.315, 15.265
836.592, 10.651
837.868, 9.324
839.144, 14.021
840.420, 11.757
841.695, 14.021
842.970, 15.568
844.246, 13.257
845.521, 19.881
846.795, 0.510
848.070, 9.826
849.344, 0.841
850.618, 4.461
851.892, 18.139
853.166, 54.779
854.440, 15.455
855.713, 44.044
856.986, 62.704
858.259, 25.375
859.532, 35.015
860.804, 43.684
862.077, 46.346
863.349, 28.972
864.621, 42.588
865.893, 48.252
867.164, 17.906
868.436, 7.565
869.707, 21.226
870.978, 23.886
872.248, 18.545
873.519, 9.204
874.789, 24.861
876.060, 1.518
877.330, 2.173
878.599, 31.828
879.869, 27.483
881.138, 39.136
882.408, 27.447
883.677, 16.100
884.945, 17.751
886.214, 19.968
887.482, 27.138
888.751, 21.680
890.019, 14.330
891.287, 39.684
892.554, 50.306
893.822, 52.635
895.089, 72.277
896.356, 64.925
897.623, 54.229
898.889, 72.461
900.156, 88.098
901.422, 54.747
902.688, 78.395
903.954, 58.044
905.220, 72.668
906.485, 66.317
907.750, 71.965
909.015, 81.614
910.280, 51.264
911.545, 39.579
912.809, 29.963
914.074, 22.781
915.338, 41.884
916.602, 22.404
917.865, 38.805
919.129, 35.381
920.392, 33.438
921.655, 57.082
922.918, 53.641
924.181, 70.106
925.443, 56.453
926.706, 50.105
927.968, 60.763
929.230, 76.423
930.491, 71.078
931.753, 69.740
933.014, 82.402
934.276, 84.066
935.536, 79.731
936.797, 82.040
938.058, 67.533
939.318, 94.815
940.578, 79.485
941.838, 114.156
943.098, 81.201
944.358, 116.875
945.617, 80.496
946.876, 104.174
948.135, 102.675
949.394, 98.336
950.653, 122.018
951.911, 87.703
953.169, 136.311
954.427, 106.962
955.685, 109.446
956.943, 159.131
958.200, 136.827
959.458, 156.374
960.715, 176.074
961.971, 255.662
963.228, 299.367
964.485, 354.740
965.741, 445.451
966.997, 441.117
968.253, 415.478
969.508, 482.927
970.764, 547.650
972.019, 608.375
973.274, 758.104
974.529, 827.836
975.784, 906.571
977.039, 1064.308
978.293, 1401.050
979.547, 1894.795
980.801, 2671.542
982.055, 3923.292
983.308, 6559.038
984.562, 12493.609
985.815, 30242.369
987.068, 59571.133
988.321, 64419.898
989.573, 51508.664
990.826, 26247.436
992.078, 13286.208
993.330, 7336.985
994.582, 4359.765
995.833, 2842.548
997.085, 1985.334
998.336, 1516.124
999.587, 1258.917
1000.838, 1054.713
1002.088, 910.511
1003.339, 798.313
1004.589, 660.119
1005.839, 607.927
1007.089, 543.738
1008.339, 446.553
1009.588, 390.371
1010.838, 390.192
1012.087, 358.016
1013.336, 330.843
1014.584, 309.674
1015.833, 287.507
1017.081, 265.345
1018.330, 268.187
1019.577, 229.032
1020.825, 207.881
1022.073, 188.735
1023.320, 234.595
1024.567, 195.460
1025.814, 179.328
1027.061, 169.201
1028.308, 147.078
1029.554, 182.961
1030.800, 154.847
1032.046, 162.737
1033.292, 122.632
1034.538, 85.533
1035.783, 135.437
1037.029, 96.345
1038.274, 113.257
1039.519, 102.173
1040.763, 91.092
1042.008, 81.015
1043.252, 84.942
1044.496, 77.873
1045.740, 61.807
1046.984, 77.746
1048.228, 65.690
1049.471, 72.640
1050.714, 65.593
1051.957, 87.551
1053.200, 79.513
1054.442, 82.657
1055.685, 83.456
1056.927, 76.433
1058.169, 70.414
1059.411, 56.399
1060.652, 56.390
1061.894, 91.385
1063.135, 34.383
1064.376, 72.399
1065.617, 48.404
1066.858, 32.413
1068.098, 69.427
1069.339, 63.443
1070.579, 50.464
1071.819, 53.490
1073.058, 34.522
1074.298, 71.561
1075.537, 29.607
1076.776, 49.658
1078.015, 67.717
1079.254, 19.782
1080.493, 28.854
1081.731, 25.930
1082.969, 52.010
1084.207, 53.095
1085.445, 18.186
1086.683, 66.282
1087.920, 75.381
1089.157, 54.487
1090.394, 75.602
1091.631, 58.720
1092.868, 79.844
1094.105, 80.973
1095.341, 127.106
1096.577, 148.244
1097.813, 180.386
1099.049, 223.815
1100.284, 253.691
1101.519, 301.848
1102.755, 366.011
1103.990, 394.180
1105.224, 352.354
1106.459, 258.532
1107.693, 200.713
1108.928, 129.897
1110.162, 104.024
1111.395, 83.279
1112.629, 82.477
1113.863, 96.678
1115.096, 104.884
1116.329, 114.310
1117.562, 113.305
1118.795, 141.521
1120.027, 153.741
1121.259, 175.963
1122.492, 207.190
1123.723, 241.419
1124.955, 246.652
1126.187, 340.888
1127.418, 346.127
1128.649, 418.528
1129.880, 529.775
1131.111, 636.024
1132.342, 797.275
1133.572, 1027.531
1134.802, 1309.790
1136.033, 1765.055
1137.262, 2205.322
1138.492, 2789.593
1139.722, 3541.870
1140.951, 4163.149
1142.180, 4897.433
1143.409, 5279.717
1144.638, 5123.006
1145.866, 4611.297
1147.095, 3767.591
1148.323, 2944.888
1149.551, 2370.189
1150.779, 1731.491
1152.006, 1360.797
1153.234, 1105.105
1154.461, 854.431
1155.688, 703.771
1156.915, 597.092
1158.141, 468.489
1159.368, 452.858
1160.594, 402.288
1161.820, 390.623
1163.046, 399.055
1164.272, 383.390
1165.498, 433.727
1166.723, 436.066
1167.948, 379.421
1169.173, 313.885
1170.398, 249.231
1171.623, 221.579
1172.847, 183.928
1174.071, 134.336
1175.295, 111.722
1176.519, 91.078
1177.743, 71.872
1178.966, 63.534
1180.190, 59.156
1181.413, 53.525
1182.636, 58.890
1183.858, 57.256
1185.081, 50.755
1186.303, 35.008
1187.526, 41.379
1188.748, 28.751
1189.969, 33.125
1191.191, 31.168
1192.412, 23.306
1193.634, 23.255
1194.855, 16.634
1196.076, 1.985
1197.296, 5.396
1198.517, 16.792
1199.737, 29.199
1200.957, 8.584
1202.177, 5.083
1203.397, 7.507
1204.617, 26.913
1205.836, 11.873
1207.055, 21.762
1208.274, 17.603
1209.493, 13.211
1210.712, 13.143
1211.930, 15.097
1213.148, 26.533
1214.367, 34.926
1215.584, 37.551
1216.802, 53.338
1218.020, 53.054
1219.237, 35.448
1220.454, 23.209
1221.671, 33.575
1222.888, 26.967
1224.105, 20.866
1225.321, 34.258
1226.537, 9.877
1227.753, 47.448
1228.969, 29.887
1230.185, 70.970
1231.400, 41.369
1232.616, 18.759
1233.831, 65.198
1235.046, 45.884
1236.261, 40.546
1237.475, 83.985
1238.689, 60.387
1239.904, 73.773
1241.118, 45.278
1242.332, 14.939
1243.545, 55.717
1244.759, 45.130
1245.972, 41.676
1247.185, 79.079
1248.398, 43.464
1249.611, 14.877
1250.823, 44.260
1252.036, 68.644
1253.248, 67.111
1254.460, 72.907
1255.671, 19.878
1256.883, 49.263
1258.095, 20.706
1259.306, 9.909
1260.517, 0.475
1261.728, 22.860
1262.938, 15.244
1264.149, 46.971
1265.359, 37.361
1266.569, 49.313
1267.779, 48.581
1268.989, 38.081
1270.199, 38.166
1271.408, 46.547
1272.617, 41.935
1273.826, 38.316
1275.035, 34.696
1276.244, 39.075
1277.452, 27.454
1278.661, 17.887
1279.869, 42.265
1281.077, 32.642
1282.285, 35.074
1283.492, 14.450
1284.700, 0.082
1285.907, 0.707
1287.114, 1.668
1288.321, 2.380
1289.527, 0.934
1290.734, 3.297
1291.940, 2.728
1293.146, 2.915
1294.352, 7.449
1295.558, 18.793
1296.763, 20.135
1297.969, 2.469
1299.174, 3.200
1300.379, 24.121
1301.584, 43.436
1302.788, 19.746
1303.993, 0.049
1305.197, 1.349
1306.401, 24.644
1307.605, 10.935
1308.809, 28.224
1310.013, 12.507
1311.216, 6.784
1312.419, 36.057
1313.622, 42.328
1314.825, 48.596
1316.028, 5.862
1317.230, 36.124
1318.432, 15.384
1319.634, 44.641
1320.836, 44.891
1322.038, 19.132
1323.240, 45.370
1324.441, 27.596
1325.642, 16.819
1326.843, 23.024
1328.044, 8.238
1329.245, 6.448
1330.445, 16.654
1331.645, 0.147
1332.845, 5.039
1334.045, 8.220
1335.245, 19.604
1336.445, 16.436
1337.644, 14.275
1338.843, 4.122
1340.042, 17.974
1341.241, 18.834
1342.440, 5.299
1343.638, 13.427
1344.836, 4.451
1346.034, 11.334
1347.232, 8.224
1348.430, 13.879
1349.628, 10.024
1350.825, 35.933
1352.022, 34.148
1353.219, 15.776
1354.416, 23.293
1355.613, 3.643
1356.809, 1.585
1358.005, 6.468
1359.202, 23.484
1360.398, 13.556
1361.593, 47.592
1362.789, 6.624
1363.984, 6.349
1365.179, 5.327
1366.374, 6.690
1367.569, 12.703
1368.764, 17.713
1369.958, 1.790
1371.153, 5.206
1372.347, 10.204
1373.541, 9.779
1374.735, 0.246
1375.928, 11.720
1377.122, 16.039
1378.315, 10.355
1379.508, 28.669
1380.701, 27.980
1381.893, 5.289
1383.086, 26.425
1384.278, 32.728
1385.470, 28.024
1386.662, 8.312
1387.854, 25.594
1389.046, 31.869
1390.237, 20.141
1391.428, 46.410
1392.619, 6.325
1393.810, 18.937
1395.001, 15.822
1396.191, 31.396
1397.382, 24.496
1398.572, 21.398
1399.762, 49.712
1400.952, 19.940
1402.141, 28.996
1403.331, 27.215
1404.520, 26.360
1405.709, 28.827
1406.898, 11.740
1408.087, 23.938
1409.275, 24.142
1410.464, 12.323
1411.652, 39.522
1412.840, 8.719
1414.028, 30.914
1415.215, 34.107
1416.403, 14.722
1417.590, 48.433
1418.777, 59.395
1419.964, 23.679
1421.151, 60.378
1422.338, 19.337
1423.524, 30.500
1424.710, 51.238
1425.896, 38.168
1427.082, 28.643
1428.268, 43.077
1429.453, 34.761
1430.639, 31.587
1431.824, 41.299
1433.009, 34.286
1434.194, 42.649
1435.378, 47.001
1436.563, 51.230
1437.747, 63.178
1438.931, 74.297
1440.115, 91.861
1441.299, 125.710
1442.482, 96.609
1443.666, 109.314
1444.849, 162.178
1446.032, 99.892
1447.215, 149.714
1448.397, 106.726
1449.580, 99.135
1450.762, 184.848
1451.944, 103.807
1453.126, 126.423
1454.308, 124.028
1455.490, 147.458
1456.671, 116.997
1457.852, 151.349
1459.033, 99.548
1460.214, 99.257
1461.395, 145.581
1462.575, 116.906
1463.756, 95.212
1464.936, 107.557
1466.116, 94.920
1467.296, 70.304
1468.475, 103.703
1469.655, 105.093
1470.834, 59.466
1472.013, 59.849
1473.192, 71.200
1474.371, 50.514
1475.550, 60.787
1476.728, 46.080
1477.906, 73.404
1479.084, 52.740
1480.262, 55.059
1481.440, 50.373
1482.617, 44.783
1483.795, 44.486
1484.972, 39.633
1486.149, 35.069
1487.326, 34.511
1488.502, 20.287
1489.679, 11.437
1490.855, 6.943
1492.031, 26.484
1493.207, 29.068
1494.383, 21.690
1495.559, 19.361
1496.734, 1.899
1497.909, 56.926
1499.084, 11.859
1500.259, 24.934
1501.434, 16.220
1502.608, 0.000
##END=



