##NAMES=Baryte
##RRUFFID=R040036
##IDEAL CHEMISTRY=BaS^6+^O_4_
##LOCALITY=Cumbria County, England
##OWNER=RRUFF
##SOURCE=University of Arizona Mineral Museum
##DESCRIPTION=Golden brown tabular crystal
##STATUS=The identification of this mineral has been confirmed by X-ray diffraction and chemical analysis
##URL=rruff.info/R040036
##MEASURED CHEMISTRY=Ba_1.00_S_1.00_O_4_; trace amounts of Pb
##PIN_ID=M00028
##ORIENTATION=Laser parallel to -a* (-1 0 0). Fiducial mark perpendicular to laser is parallel to -b [0 -1 0]
26.288, 0.000
27.694, 43.663
29.099, 40.405
30.504, 31.601
31.909, 35.044
33.313, 51.645
34.717, 32.336
36.121, 70.087
37.525, 29.957
38.929, 23.646
40.332, 40.880
41.735, 39.780
43.138, 50.265
44.541, 67.099
45.943, 61.539
47.345, 66.335
48.747, 59.251
50.149, 65.245
51.551, 51.290
52.952, 64.820
54.353, 32.340
55.754, 61.304
57.155, 37.778
58.555, 50.954
59.955, 54.732
61.355, 47.486
62.755, 25.832
64.154, 21.092
65.553, 12.106
66.952, 10.130
68.351, 1.166
69.750, 5.213
71.148, 10.271
72.546, 5.340
73.944, 1.583
75.342, 2.499
76.739, 3.410
78.136, 4.318
79.533, 2.776
80.930, 1.869
82.327, 2.039
83.723, 12.949
85.119, 5.860
86.515, 16.771
87.910, 13.683
89.306, 18.595
90.701, 16.508
92.096, 4.420
93.490, 7.668
94.885, 8.244
96.279, 8.845
97.673, 8.934
99.067, 40.024
100.461, 49.115
101.854, 43.216
103.247, 72.352
104.640, 79.519
106.032, 118.712
107.425, 101.927
108.817, 143.159
110.209, 188.406
111.601, 144.662
112.992, 278.925
114.384, 315.192
115.775, 335.459
117.166, 299.724
118.556, 341.985
119.947, 369.239
121.337, 414.483
122.727, 500.714
124.116, 459.930
125.506, 568.136
126.895, 621.329
128.284, 746.508
129.673, 824.677
131.062, 705.831
132.450, 623.966
133.838, 467.080
135.226, 463.188
136.614, 365.285
138.001, 351.379
139.388, 359.473
140.775, 342.569
142.162, 442.667
143.549, 434.767
144.935, 542.869
146.321, 594.973
147.707, 709.080
149.093, 728.189
150.478, 696.300
151.863, 698.412
153.248, 569.526
154.633, 590.642
156.018, 446.760
157.402, 384.879
158.786, 355.999
160.170, 281.122
161.554, 309.246
162.937, 240.371
164.320, 300.499
165.703, 245.628
167.086, 240.759
168.469, 292.892
169.851, 224.026
171.233, 278.163
172.615, 230.301
173.996, 270.441
175.378, 232.583
176.759, 238.723
178.140, 252.831
179.521, 185.900
180.901, 238.927
182.281, 173.913
183.662, 218.855
185.041, 224.753
186.421, 200.607
187.800, 251.416
189.180, 216.181
190.558, 289.899
191.937, 221.572
193.316, 256.203
194.694, 210.788
196.072, 195.326
197.450, 206.814
198.827, 147.262
200.205, 215.670
201.582, 144.036
202.959, 159.367
204.336, 192.579
205.712, 148.846
207.088, 195.973
208.465, 127.140
209.840, 177.270
211.216, 140.345
212.591, 143.316
213.967, 157.248
215.341, 116.102
216.716, 169.941
218.091, 102.647
219.465, 151.429
220.839, 147.285
222.213, 129.166
223.586, 146.836
224.960, 100.766
226.333, 175.404
227.706, 99.027
229.079, 150.809
230.451, 136.580
231.823, 138.646
233.195, 159.090
234.567, 102.705
235.939, 146.070
237.310, 106.513
238.682, 134.848
240.052, 116.236
241.423, 102.248
242.794, 133.152
244.164, 73.749
245.534, 142.673
246.904, 75.602
248.274, 112.723
249.643, 124.890
251.012, 73.033
252.381, 128.220
253.750, 79.409
255.118, 113.599
256.487, 70.789
257.855, 105.012
259.223, 125.204
260.590, 80.397
261.958, 127.590
263.325, 74.784
264.692, 134.125
266.059, 110.320
267.425, 103.517
268.791, 143.713
270.158, 72.911
271.523, 107.171
272.889, 85.370
274.255, 99.571
275.620, 99.772
276.985, 65.975
278.350, 112.179
279.714, 52.385
281.078, 124.592
282.443, 71.800
283.806, 89.010
285.170, 120.221
286.534, 40.435
287.897, 116.650
289.260, 43.866
290.623, 75.084
291.985, 82.304
293.348, 67.526
294.710, 104.749
296.072, 36.974
297.433, 98.201
298.795, 50.429
300.156, 48.659
301.517, 95.890
302.878, 41.124
304.239, 102.359
305.599, 34.595
306.959, 75.834
308.319, 57.074
309.679, 39.316
311.038, 82.559
312.398, 11.805
313.757, 85.052
315.116, 44.300
316.474, 41.551
317.833, 59.803
319.191, 35.057
320.549, 85.312
321.907, 16.570
323.264, 54.829
324.622, 30.085
325.979, 50.338
327.336, 61.589
328.692, 31.837
330.049, 94.084
331.405, 25.328
332.761, 81.571
334.117, 55.812
335.473, 18.052
336.828, 80.291
338.183, 28.529
339.538, 75.767
340.893, 31.004
342.247, 65.241
343.602, 78.478
344.956, 22.715
346.310, 85.953
347.663, 11.192
349.017, 58.431
350.370, 35.672
351.723, 24.914
353.076, 70.157
354.428, 3.597
355.780, 67.650
357.133, 13.900
358.484, 25.151
359.836, 54.406
361.188, 2.663
362.539, 52.924
363.890, 2.188
365.241, 33.457
366.591, 29.729
367.942, 7.995
369.292, 57.283
370.642, 17.434
371.992, 61.851
373.341, 29.139
374.691, 44.433
376.040, 74.730
377.388, 21.969
378.737, 50.333
380.086, 12.640
381.434, 31.952
382.782, 64.270
384.130, 22.593
385.477, 73.922
386.825, 20.743
388.172, 80.593
389.519, 12.933
390.865, 47.277
392.212, 68.626
393.558, 8.977
394.904, 77.331
396.250, 15.687
397.596, 44.045
398.941, 38.406
400.286, 14.769
401.631, 58.133
402.976, 4.498
404.321, 60.871
405.665, 21.243
407.009, 31.618
408.353, 62.994
409.697, 12.626
411.040, 62.755
412.384, 9.139
413.727, 28.525
415.070, 55.913
416.412, 7.695
417.755, 66.699
419.097, 3.095
420.439, 60.493
421.781, 43.893
423.122, 30.309
424.464, 75.715
425.805, 20.124
427.146, 65.534
428.486, 59.946
429.827, 84.364
431.167, 100.783
432.507, 71.204
433.847, 162.627
435.187, 113.053
436.526, 227.484
437.865, 253.918
439.204, 271.354
440.543, 391.791
441.882, 400.231
443.220, 665.675
444.558, 780.121
445.896, 1064.569
447.234, 1568.020
448.572, 1985.472
449.909, 2967.929
451.246, 3716.387
452.583, 4748.847
453.919, 5412.310
455.256, 4864.774
456.592, 4196.240
457.928, 3119.709
459.264, 2527.179
460.600, 2105.652
461.935, 1880.127
463.270, 1782.606
464.605, 1306.087
465.940, 1015.570
467.274, 708.056
468.609, 470.544
469.943, 398.035
471.277, 262.528
472.610, 242.022
473.944, 165.521
475.277, 126.021
476.610, 174.525
477.943, 69.031
479.275, 144.539
480.608, 65.049
481.940, 76.561
483.272, 102.077
484.604, 48.594
485.935, 99.114
487.267, 28.635
488.598, 82.158
489.929, 75.684
491.260, 28.211
492.590, 105.740
493.920, 40.270
495.250, 70.802
496.580, 33.339
497.910, 30.876
499.239, 79.382
500.569, 0.925
501.898, 96.469
503.226, 21.018
504.555, 47.568
505.883, 81.120
507.212, 9.677
508.540, 76.236
509.867, 16.796
511.195, 75.358
512.522, 71.834
513.849, 12.400
515.176, 86.692
516.503, 20.260
517.829, 76.831
519.156, 87.403
520.482, 17.977
521.808, 106.177
523.133, 13.753
524.459, 85.331
525.784, 82.909
527.109, 40.489
528.434, 117.071
529.758, 17.654
531.083, 67.900
532.407, 52.652
533.731, 56.239
535.055, 82.841
536.378, 20.430
537.701, 94.021
539.025, 17.693
540.348, 61.288
541.670, 79.883
542.993, 15.480
544.315, 89.079
545.637, 21.992
546.959, 59.563
548.281, 78.181
549.602, 9.785
550.923, 99.392
552.244, 26.477
553.565, 70.939
554.886, 66.679
556.206, 30.288
557.526, 77.900
558.846, 25.978
560.166, 83.529
561.486, 68.219
562.805, 32.833
564.124, 111.446
565.443, 1.526
566.762, 75.089
568.080, 39.709
569.399, 37.324
570.717, 110.938
572.035, 19.127
573.352, 90.742
574.670, 57.386
575.987, 56.001
577.304, 103.616
578.621, 42.175
579.938, 124.790
581.254, 62.405
582.570, 89.047
583.886, 119.662
585.202, 46.825
586.518, 152.439
587.833, 84.053
589.148, 115.769
590.463, 167.383
591.778, 97.476
593.093, 175.089
594.407, 90.703
595.721, 169.318
597.035, 173.931
598.349, 135.693
599.662, 239.307
600.976, 186.921
602.289, 272.749
603.602, 313.361
604.914, 307.427
606.227, 501.038
607.539, 495.830
608.851, 757.636
610.163, 979.246
611.475, 1252.127
612.786, 2002.735
614.097, 2676.342
615.408, 3813.361
616.719, 4773.965
618.030, 5171.106
619.340, 5158.710
620.651, 4233.312
621.961, 3440.928
623.270, 2731.529
624.580, 2068.628
625.889, 1852.225
627.199, 1444.822
628.507, 1384.486
629.816, 1223.081
631.125, 1105.749
632.433, 961.341
633.741, 688.931
635.049, 611.520
636.357, 431.108
637.664, 356.171
638.972, 308.756
640.279, 186.339
641.586, 268.333
642.893, 204.912
644.199, 197.960
645.505, 218.537
646.811, 136.113
648.117, 231.509
649.423, 164.081
650.728, 120.652
652.034, 168.221
653.339, 84.788
654.644, 164.611
655.948, 77.175
657.253, 99.739
658.557, 128.494
659.861, 18.054
661.165, 101.637
662.468, 29.193
663.772, 60.748
665.075, 85.302
666.378, 31.854
667.681, 69.583
668.983, 55.131
670.286, 20.676
671.588, 72.257
672.890, 4.200
674.192, 85.728
675.493, 7.265
676.795, 10.800
678.096, 59.333
679.397, 0.137
680.697, 77.896
681.998, 23.421
683.298, 18.944
684.598, 50.956
685.898, 9.526
687.198, 86.358
688.498, 8.868
689.797, 38.376
691.096, 66.449
692.395, 16.048
693.694, 69.448
694.992, 1.058
696.290, 28.432
697.589, 64.267
698.886, 15.248
700.184, 80.230
701.482, 1.706
702.779, 33.178
704.076, 65.648
705.373, 12.885
706.669, 57.564
707.966, 12.022
709.262, 41.477
710.558, 63.930
711.854, 19.620
713.150, 71.821
714.445, 7.260
715.740, 27.697
717.035, 61.130
718.330, 35.439
719.625, 61.980
720.919, 15.397
722.214, 7.810
723.508, 59.221
724.801, 18.371
726.095, 75.030
727.388, 30.427
728.682, 0.822
729.975, 111.213
731.267, 15.399
732.560, 50.982
733.852, 15.846
735.145, 31.221
736.437, 60.594
737.728, 0.723
739.020, 63.642
740.311, 18.005
741.603, 3.635
742.894, 74.720
744.184, 13.928
745.475, 51.418
746.765, 2.240
748.055, 2.902
749.345, 77.430
750.635, 6.240
751.925, 63.085
753.214, 33.407
754.503, 12.274
755.792, 70.038
757.081, 17.582
758.370, 45.719
759.658, 29.018
760.946, 10.314
762.234, 68.608
763.522, 16.102
764.809, 55.181
766.097, 50.462
767.384, 2.739
768.671, 80.014
769.958, 2.285
771.244, 51.553
772.530, 73.818
773.817, 20.081
775.102, 83.341
776.388, 15.401
777.674, 43.849
778.959, 53.097
780.244, 12.658
781.529, 76.580
782.814, 15.184
784.098, 34.045
785.383, 59.271
786.667, 30.505
787.951, 91.709
789.235, 35.920
790.518, 26.129
791.801, 73.335
793.084, 6.461
794.367, 86.738
795.650, 17.934
796.933, 3.872
798.215, 70.318
799.497, 5.506
800.779, 76.690
802.061, 43.873
803.342, 13.053
804.624, 76.231
805.905, 3.593
807.186, 58.579
808.466, 38.748
809.747, 2.916
811.027, 80.080
812.307, 12.924
813.587, 44.232
814.867, 40.374
816.146, 13.526
817.426, 90.676
818.705, 18.257
819.984, 55.885
821.263, 53.024
822.541, 17.839
823.819, 104.291
825.098, 12.893
826.375, 48.230
827.653, 65.337
828.931, 21.544
830.208, 76.568
831.485, 12.201
832.762, 36.309
834.039, 66.286
835.315, 12.610
836.592, 81.490
837.868, 40.123
839.144, 27.219
840.420, 76.237
841.695, 11.331
842.970, 71.422
844.246, 57.099
845.521, 36.188
846.795, 120.269
848.070, 35.356
849.344, 101.440
850.618, 81.950
851.892, 19.033
853.166, 119.085
854.440, 19.164
855.713, 80.243
856.986, 106.377
858.259, 46.453
859.532, 162.528
860.804, 86.575
862.077, 83.648
863.349, 144.172
864.621, 41.244
865.893, 150.314
867.164, 99.281
868.436, 21.350
869.707, 84.938
870.978, 21.995
872.248, 60.067
873.519, 36.128
874.789, 14.812
876.060, 84.098
877.330, 26.154
878.599, 46.209
879.869, 85.050
881.138, 11.104
882.408, 93.705
883.677, 31.758
884.945, 61.630
886.214, 84.486
887.482, 19.539
888.751, 103.317
890.019, 26.369
891.287, 61.421
892.554, 129.059
893.822, 5.887
895.089, 137.630
896.356, 80.683
897.623, 62.736
898.889, 140.773
900.156, 56.826
901.422, 130.380
902.688, 109.433
903.954, 50.488
905.220, 135.474
906.485, 53.530
907.750, 107.511
909.015, 126.568
910.280, 38.625
911.545, 128.683
912.809, 80.741
914.074, 89.324
915.338, 139.386
916.602, 17.448
917.865, 120.102
919.129, 47.167
920.392, 72.768
921.655, 125.839
922.918, 35.910
924.181, 135.160
925.443, 99.234
926.706, 37.309
927.968, 154.387
929.230, 49.466
930.491, 84.289
931.753, 116.371
933.014, 25.454
934.276, 129.346
935.536, 89.434
936.797, 63.497
938.058, 150.589
939.318, 63.682
940.578, 145.776
941.838, 112.871
943.098, 71.788
944.358, 159.885
945.617, 63.984
946.876, 164.048
948.135, 132.149
949.394, 66.864
950.653, 162.969
951.911, 99.076
953.169, 113.183
954.427, 212.293
955.685, 62.898
956.943, 179.011
958.200, 126.126
959.458, 117.751
960.715, 222.870
961.971, 126.620
963.228, 239.744
964.485, 288.871
965.741, 301.433
966.997, 455.564
968.253, 342.699
969.508, 399.836
970.764, 482.975
972.019, 413.770
973.274, 591.913
974.529, 597.060
975.784, 676.209
977.039, 848.361
978.293, 958.515
979.547, 1358.670
980.801, 1873.830
982.055, 2601.991
983.308, 4355.155
984.562, 7433.320
985.815, 16141.487
987.068, 35160.660
988.321, 51009.836
989.573, 50419.012
990.826, 31128.193
992.078, 16727.373
993.330, 9266.562
994.582, 5153.751
995.833, 3240.943
997.085, 2090.138
998.336, 1444.340
999.587, 1236.546
1000.838, 962.755
1002.088, 864.966
1003.339, 792.181
1004.589, 610.397
1005.839, 616.618
1007.089, 452.355
1008.339, 378.581
1009.588, 413.809
1010.838, 297.726
1012.087, 363.959
1013.336, 293.195
1014.584, 254.434
1015.833, 343.675
1017.081, 222.920
1018.330, 253.169
1019.577, 328.420
1020.825, 198.675
1022.073, 282.933
1023.320, 231.194
1024.567, 223.458
1025.814, 242.726
1027.061, 226.995
1028.308, 242.798
1029.554, 256.005
1030.800, 175.286
1032.046, 209.571
1033.292, 135.857
1034.538, 173.147
1035.783, 169.439
1037.029, 61.736
1038.274, 199.362
1039.519, 102.664
1040.763, 74.969
1042.008, 155.389
1043.252, 58.700
1044.496, 138.012
1045.740, 125.327
1046.984, 46.645
1048.228, 152.556
1049.471, 88.881
1050.714, 99.209
1051.957, 163.958
1053.200, 68.292
1054.442, 190.399
1055.685, 217.741
1056.927, 215.084
1058.169, 292.635
1059.411, 104.987
1060.652, 134.342
1061.894, 160.313
1063.135, 46.672
1064.376, 186.162
1065.617, 97.538
1066.858, 95.906
1068.098, 191.861
1069.339, 78.234
1070.579, 177.609
1071.819, 201.378
1073.058, 151.757
1074.298, 304.139
1075.537, 277.525
1076.776, 316.914
1078.015, 476.362
1079.254, 505.759
1080.493, 832.157
1081.731, 1018.558
1082.969, 1238.961
1084.207, 1272.186
1085.445, 1233.778
1086.683, 1131.189
1087.920, 863.602
1089.157, 557.018
1090.394, 492.439
1091.631, 292.093
1092.868, 259.519
1094.105, 302.950
1095.341, 176.383
1096.577, 247.820
1097.813, 305.735
1099.049, 258.176
1100.284, 499.621
1101.519, 562.078
1102.755, 696.526
1103.990, 936.977
1105.224, 858.429
1106.459, 854.887
1107.693, 701.347
1108.928, 431.808
1110.162, 449.271
1111.395, 247.735
1112.629, 214.203
1113.863, 252.673
1115.096, 85.144
1116.329, 213.621
1117.562, 114.100
1118.795, 31.580
1120.027, 142.062
1121.259, 13.546
1122.492, 78.031
1123.723, 111.518
1124.955, 16.006
1126.187, 82.499
1127.418, 53.993
1128.649, 14.488
1129.880, 95.985
1131.111, 2.543
1132.342, 109.042
1133.572, 79.543
1134.802, 17.046
1136.033, 175.549
1137.262, 88.054
1138.492, 117.561
1139.722, 233.070
1140.951, 133.584
1142.180, 272.099
1143.409, 302.614
1144.638, 214.133
1145.866, 280.653
1147.095, 218.174
1148.323, 188.696
1149.551, 176.222
1150.779, 58.748
1152.006, 98.275
1153.234, 39.806
1154.461, 6.337
1155.688, 88.869
1156.915, 22.404
1158.141, 27.939
1159.368, 107.475
1160.594, 25.987
1161.820, 96.546
1163.046, 77.081
1164.272, 16.616
1165.498, 139.152
1166.723, 46.690
1167.948, 65.227
1169.173, 106.766
1170.398, 16.694
1171.623, 88.843
1172.847, 46.380
1174.071, 7.078
1175.295, 95.459
1176.519, 24.998
1177.743, 64.536
1178.966, 69.076
1180.190, 27.384
1181.413, 74.151
1182.636, 4.686
1183.858, 19.779
1185.081, 81.753
1186.303, 34.715
1187.526, 40.810
1188.748, 84.336
1189.969, 10.138
1191.191, 99.385
1192.412, 43.910
1193.634, 27.566
1194.855, 80.952
1196.076, 6.529
1197.296, 0.011
1198.517, 68.506
1199.737, 25.977
1200.957, 71.555
1202.177, 65.067
1203.397, 17.422
1204.617, 98.086
1205.836, 27.594
1207.055, 30.553
1208.274, 97.060
1209.493, 2.432
1210.712, 100.711
1211.930, 85.217
1213.148, 9.723
1214.367, 149.229
1215.584, 28.734
1216.802, 61.254
1218.020, 125.759
1219.237, 6.263
1220.454, 93.898
1221.671, 68.401
1222.888, 9.095
1224.105, 123.771
1225.321, 3.271
1226.537, 28.771
1227.753, 133.270
1228.969, 19.232
1230.185, 82.262
1231.400, 74.755
1232.616, 1.247
1233.831, 111.738
1235.046, 29.229
1236.261, 52.719
1237.475, 137.564
1238.689, 25.054
1239.904, 104.543
1241.118, 128.031
1242.332, 8.519
1243.545, 168.275
1244.759, 65.761
1245.972, 64.248
1247.185, 119.628
1248.398, 31.114
1249.611, 77.599
1250.823, 103.084
1252.036, 8.568
1253.248, 170.053
1254.460, 61.537
1255.671, 72.015
1256.883, 108.005
1258.095, 38.482
1259.306, 44.959
1260.517, 67.435
1261.728, 42.089
1262.938, 96.381
1264.149, 46.851
1265.359, 15.320
1266.569, 132.789
1267.779, 35.257
1268.989, 75.724
1270.199, 154.630
1271.408, 34.096
1272.617, 137.561
1273.826, 121.025
1275.035, 56.489
1276.244, 137.951
1277.452, 79.413
1278.661, 57.875
1279.869, 162.707
1281.077, 27.166
1282.285, 123.625
1283.492, 114.453
1284.700, 26.910
1285.907, 130.367
1287.114, 55.004
1288.321, 16.459
1289.527, 123.913
1290.734, 26.429
1291.940, 91.353
1293.146, 127.802
1294.352, 9.245
1295.558, 144.688
1296.763, 84.130
1297.969, 37.570
1299.174, 136.009
1300.379, 65.474
1301.584, 82.581
1302.788, 116.014
1303.993, 7.447
1305.197, 86.765
1306.401, 114.196
1307.605, 31.623
1308.809, 137.050
1310.013, 38.475
1311.216, 50.306
1312.419, 134.719
1313.622, 18.131
1314.825, 109.122
1316.028, 134.531
1317.230, 11.165
1318.432, 102.567
1319.634, 77.968
1320.836, 19.164
1322.038, 167.564
1323.240, 65.962
1324.441, 113.739
1325.642, 130.129
1326.843, 12.390
1328.044, 142.767
1329.245, 85.149
1330.445, 3.939
1331.645, 143.312
1332.845, 11.681
1334.045, 61.656
1335.245, 106.020
1336.445, 15.617
1337.644, 65.742
1338.843, 83.098
1340.042, 23.605
1341.241, 105.744
1342.440, 55.092
1343.638, 26.437
1344.836, 109.781
1346.034, 4.123
1347.232, 64.463
1348.430, 119.802
1349.628, 1.862
1350.825, 99.473
1352.022, 64.805
1353.219, 12.095
1354.416, 129.234
1355.613, 43.561
1356.809, 16.888
1358.005, 107.214
1359.202, 28.063
1360.398, 53.389
1361.593, 109.715
1362.789, 20.032
1363.984, 111.359
1365.179, 47.688
1366.374, 11.920
1367.569, 121.411
1368.764, 6.745
1369.958, 42.083
1371.153, 85.427
1372.347, 8.233
1373.541, 88.111
1374.735, 79.461
1375.928, 35.174
1377.122, 136.255
1378.315, 78.683
1379.508, 24.108
1380.701, 122.533
1381.893, 26.950
1383.086, 59.366
1384.278, 96.647
1385.470, 18.952
1386.662, 84.448
1387.854, 55.843
1389.046, 34.234
1390.237, 140.623
1391.428, 26.010
1392.619, 23.392
1393.810, 120.771
1395.001, 14.143
1396.191, 41.511
1397.382, 105.876
1398.572, 15.759
1399.762, 97.607
1400.952, 62.970
1402.141, 19.331
1403.331, 99.692
1404.520, 51.048
1405.709, 38.408
1406.898, 81.766
1408.087, 12.875
1409.275, 86.487
1410.464, 105.852
1411.652, 12.773
1412.840, 125.601
1414.028, 47.977
1415.215, 4.640
1416.403, 108.744
1417.590, 27.103
1418.777, 0.495
1419.964, 92.894
1421.151, 16.595
1422.338, 80.987
1423.524, 107.364
1424.710, 13.742
1425.896, 112.096
1427.082, 68.257
1428.268, 1.633
1429.453, 174.386
1430.639, 54.758
1431.824, 52.135
1433.009, 222.517
1434.194, 38.902
1435.378, 125.623
1436.563, 161.996
1437.747, 55.371
1438.931, 174.215
1440.115, 139.781
1441.299, 84.109
1442.482, 263.432
1443.666, 142.750
1444.849, 167.976
1446.032, 220.288
1447.215, 129.594
1448.397, 224.897
1449.580, 262.196
1450.762, 152.490
1451.944, 296.696
1453.126, 238.956
1454.308, 126.212
1455.490, 277.461
1456.671, 221.692
1457.852, 166.869
1459.033, 304.041
1460.214, 154.667
1461.395, 220.609
1462.575, 229.729
1463.756, 114.873
1464.936, 217.003
1466.116, 159.033
1467.296, 45.154
1468.475, 214.257
1469.655, 92.350
1470.834, 55.434
1472.013, 214.551
1473.192, 61.685
1474.371, 84.825
1475.550, 169.973
1476.728, 7.105
1477.906, 114.246
1479.084, 123.401
1480.262, 37.571
1481.440, 136.821
1482.617, 74.121
1483.795, 60.446
1484.972, 185.798
1486.149, 56.185
1487.326, 74.612
1488.502, 149.085
1489.679, 33.612
1490.855, 90.208
1492.031, 151.890
1493.207, 4.334
1494.383, 122.547
1495.559, 78.561
1496.734, 19.742
1497.909, 159.135
1499.084, 38.926
1500.259, 59.223
1501.434, 149.764
1502.608, 0.000
##END=



