##NAMES=Baryte
##RRUFFID=R040036
##IDEAL CHEMISTRY=BaS^6+^O_4_
##LOCALITY=Cumbria County, England
##OWNER=RRUFF
##SOURCE=University of Arizona Mineral Museum
##DESCRIPTION=Golden brown tabular crystal
##STATUS=The identification of this mineral has been confirmed by X-ray diffraction and chemical analysis
##URL=rruff.info/R040036
##MEASURED CHEMISTRY=Ba_1.00_S_1.00_O_4_; trace amounts of Pb
##PIN_ID=M00019
##ORIENTATION=Laser parallel to b* (0 1 0). Fiducial mark perpendicular to laser is parallel to c [0 0 1]
26.288, 0.000
27.694, 0.201
29.099, 21.227
30.504, 10.862
31.909, 24.926
33.313, 19.013
34.717, 29.338
36.121, 62.711
37.525, 42.708
38.929, 57.763
40.332, 69.227
41.735, 56.413
43.138, 76.044
44.541, 74.647
45.943, 73.816
47.345, 88.884
48.747, 94.709
50.149, 92.528
51.551, 93.170
52.952, 100.350
54.353, 110.089
55.754, 148.234
57.155, 128.578
58.555, 145.892
59.955, 132.708
61.355, 129.724
62.755, 98.058
64.154, 91.460
65.553, 100.862
66.952, 106.518
68.351, 100.433
69.750, 85.143
71.148, 48.865
72.546, 33.597
73.944, 21.340
75.342, 13.090
76.739, 18.847
78.136, 9.614
79.533, 9.618
80.930, 14.846
82.327, 14.077
83.723, 35.311
85.119, 29.549
86.515, 26.797
87.910, 21.053
89.306, 11.317
90.701, 7.412
92.096, 4.133
93.490, 13.151
94.885, 5.444
96.279, 6.252
97.673, 19.938
99.067, 31.615
100.461, 24.279
101.854, 41.952
103.247, 12.680
104.640, 51.456
106.032, 49.270
107.425, 65.117
108.817, 74.991
110.209, 75.886
111.601, 139.795
112.992, 160.714
114.384, 157.636
115.775, 150.559
117.166, 124.476
118.556, 137.432
119.947, 122.323
121.337, 136.303
122.727, 134.171
124.116, 137.030
125.506, 130.886
126.895, 141.944
128.284, 162.906
129.673, 159.747
131.062, 185.498
132.450, 164.405
133.838, 165.264
135.226, 161.087
136.614, 160.831
138.001, 136.443
139.388, 142.231
140.775, 160.976
142.162, 119.579
143.549, 132.418
144.935, 148.901
146.321, 176.390
147.707, 193.015
149.093, 254.617
150.478, 300.174
151.863, 325.831
153.248, 334.372
154.633, 337.899
156.018, 366.555
157.402, 334.020
158.786, 308.781
160.170, 279.296
161.554, 214.787
162.937, 175.286
164.320, 160.706
165.703, 159.121
167.086, 118.639
168.469, 122.047
169.851, 120.580
171.233, 112.952
172.615, 128.362
173.996, 133.646
175.378, 117.136
176.759, 161.477
178.140, 173.715
179.521, 197.853
180.901, 220.910
182.281, 269.917
183.662, 378.821
185.041, 503.655
186.421, 620.453
187.800, 742.185
189.180, 792.864
190.558, 761.450
191.937, 661.974
193.316, 512.465
194.694, 438.775
196.072, 310.021
197.450, 234.257
198.827, 201.408
200.205, 176.442
201.582, 160.490
202.959, 141.423
204.336, 128.291
205.712, 114.077
207.088, 131.684
208.465, 113.273
209.840, 82.759
211.216, 94.229
212.591, 99.610
213.967, 86.905
215.341, 74.264
216.716, 85.577
218.091, 91.859
219.465, 84.057
220.839, 85.078
222.213, 92.295
223.586, 79.053
224.960, 61.747
226.333, 66.428
227.706, 75.035
229.079, 58.231
230.451, 64.371
231.823, 75.435
233.195, 76.020
234.567, 63.692
235.939, 56.456
237.310, 46.386
238.682, 60.483
240.052, 39.048
241.423, 57.483
242.794, 38.533
244.164, 53.762
245.534, 45.266
246.904, 61.930
248.274, 51.702
249.643, 33.405
251.012, 46.271
252.381, 45.868
253.750, 34.796
255.118, 45.695
256.487, 53.685
257.855, 30.696
259.223, 24.707
260.590, 59.931
261.958, 52.094
263.325, 79.270
264.692, 43.468
266.059, 44.614
267.425, 36.754
268.791, 33.913
270.158, 48.040
271.523, 44.207
272.889, 42.323
274.255, 25.433
275.620, 39.536
276.985, 39.632
278.350, 42.723
279.714, 34.808
281.078, 46.887
282.443, 18.961
283.806, 35.028
285.170, 37.090
286.534, 49.147
287.897, 24.199
289.260, 5.245
290.623, 38.287
291.985, 31.322
293.348, 33.353
294.710, 37.380
296.072, 19.403
297.433, 46.420
298.795, 37.433
300.156, 40.441
301.517, 29.445
302.878, 46.445
304.239, 37.439
305.599, 14.430
306.959, 44.414
308.319, 26.395
309.679, 22.371
311.038, 19.343
312.398, 34.310
313.757, 37.274
315.116, 38.233
316.474, 22.188
317.833, 45.139
319.191, 39.086
320.549, 8.030
321.907, 28.970
323.264, 25.905
324.622, 20.828
325.979, 31.737
327.336, 30.635
328.692, 28.521
330.049, 31.396
331.405, 34.260
332.761, 26.114
334.117, 24.957
335.473, 20.790
336.828, 24.613
338.183, 21.427
339.538, 12.231
340.893, 35.026
342.247, 32.813
343.602, 21.592
344.956, 25.378
346.310, 34.142
347.663, 14.900
349.017, 21.650
350.370, 16.394
351.723, 12.131
353.076, 32.863
354.428, 24.590
355.780, 35.312
357.133, 29.000
358.484, 14.714
359.836, 21.424
361.188, 12.126
362.539, 24.766
363.890, 23.458
365.241, 25.193
366.591, 23.876
367.942, 12.437
369.292, 23.249
370.642, 11.907
371.992, 31.487
373.341, 19.090
374.691, 21.737
376.040, 7.312
377.388, 26.921
378.737, 23.590
380.086, 33.273
381.434, 26.909
382.782, 19.521
384.130, 32.095
385.477, 17.741
386.825, 38.291
388.172, 36.930
389.519, 34.489
390.865, 25.124
392.212, 44.725
393.558, 38.404
394.904, 38.060
396.250, 44.610
397.596, 23.221
398.941, 26.833
400.286, 34.395
401.631, 25.007
402.976, 30.657
404.321, 45.220
405.665, 16.735
407.009, 30.414
408.353, 24.055
409.697, 17.760
411.040, 50.360
412.384, 33.970
413.727, 21.537
415.070, 36.108
416.412, 16.727
417.755, 43.328
419.097, 44.919
420.439, 49.437
421.781, 52.015
423.122, 57.593
424.464, 51.190
425.805, 68.746
427.146, 69.357
428.486, 91.839
429.827, 133.396
431.167, 137.970
432.507, 157.595
433.847, 195.136
435.187, 244.591
436.526, 325.165
437.865, 407.759
439.204, 502.310
440.543, 668.879
441.882, 898.365
443.220, 1194.010
444.558, 1617.608
445.896, 2252.194
447.234, 3079.729
448.572, 4081.343
449.909, 5060.915
451.246, 5688.380
452.583, 5712.985
453.919, 4873.507
455.256, 3729.010
456.592, 2734.499
457.928, 1922.060
459.264, 1450.634
460.600, 1093.214
461.935, 844.719
463.270, 673.331
464.605, 516.915
465.940, 369.355
467.274, 296.892
468.609, 225.415
469.943, 193.915
471.277, 153.465
472.610, 133.012
473.944, 99.549
475.277, 82.101
476.610, 70.667
477.943, 84.195
479.275, 77.720
480.608, 76.227
481.940, 47.753
483.272, 65.266
484.604, 49.737
485.935, 27.314
487.267, 40.884
488.598, 13.402
489.929, 20.940
491.260, 17.518
492.590, 23.008
493.920, 40.531
495.250, 28.031
496.580, 18.512
497.910, 33.092
499.239, 28.636
500.569, 25.230
501.898, 15.798
503.226, 26.300
504.555, 25.836
505.883, 33.329
507.212, 37.883
508.540, 6.432
509.867, 30.991
511.195, 38.544
512.522, 40.757
513.849, 45.309
515.176, 34.810
516.503, 24.403
517.829, 28.941
519.156, 30.492
520.482, 28.977
521.808, 37.555
523.133, 15.118
524.459, 24.727
525.784, 27.308
527.109, 18.856
528.434, 34.464
529.758, 35.007
531.083, 21.617
532.407, 36.228
533.731, 32.839
535.055, 12.421
536.378, 19.033
537.701, 7.677
539.025, 19.287
540.348, 31.929
541.670, 18.509
542.993, 12.105
544.315, 13.726
545.637, 30.536
546.959, 8.152
548.281, 16.769
549.602, 26.330
550.923, 26.947
552.244, 10.555
553.565, 20.129
554.886, 10.744
556.206, 27.382
557.526, 7.982
558.846, 19.657
560.166, 12.256
561.486, 22.925
562.805, 10.540
564.124, 42.209
565.443, 23.823
566.762, 10.481
568.080, 16.094
569.399, 24.765
570.717, 17.503
572.035, 18.254
573.352, 10.040
574.670, 15.956
575.987, 4.593
577.304, 1.214
578.621, 19.846
579.938, 0.461
581.254, 25.067
582.570, 11.718
583.886, 16.323
585.202, 3.927
586.518, 5.868
587.833, 32.682
589.148, 20.294
590.463, 32.927
591.778, 44.526
593.093, 21.124
594.407, 27.981
595.721, 40.601
597.035, 31.197
598.349, 51.812
599.662, 43.745
600.976, 49.436
602.289, 42.060
603.602, 67.824
604.914, 83.415
606.227, 81.005
607.539, 109.594
608.851, 175.182
610.163, 220.792
611.475, 375.379
612.786, 521.964
614.097, 800.745
615.408, 978.367
616.719, 1089.153
618.030, 969.755
619.340, 724.357
620.651, 631.162
621.961, 581.004
623.270, 538.652
624.580, 574.546
625.889, 613.121
627.199, 802.701
628.507, 910.475
629.816, 943.264
631.125, 899.852
632.433, 781.421
633.741, 667.012
635.049, 577.578
636.357, 571.440
637.664, 564.003
638.972, 648.732
640.279, 783.662
641.586, 988.221
642.893, 1300.110
644.199, 1575.667
645.505, 1845.470
646.811, 2003.023
648.117, 1742.583
649.423, 1346.385
650.728, 971.913
652.034, 605.461
653.339, 457.006
654.644, 331.556
655.948, 228.157
657.253, 177.699
658.557, 134.353
659.861, 95.952
661.165, 78.490
662.468, 78.026
663.772, 66.579
665.075, 42.111
666.378, 37.641
667.681, 19.472
668.983, 26.999
670.286, 35.523
671.588, 30.046
672.890, 45.729
674.192, 18.248
675.493, 25.892
676.795, 31.666
678.096, 6.178
679.397, 24.665
680.697, 6.279
681.998, 18.931
683.298, 46.434
684.598, 11.071
685.898, 6.764
687.198, 22.349
688.498, 16.063
689.797, 25.552
691.096, 14.040
692.395, 11.658
693.694, 13.425
694.992, 17.905
696.290, 9.414
697.589, 11.889
698.886, 1.687
700.184, 8.221
701.482, 2.688
702.779, 21.298
704.076, 2.755
705.373, 23.213
706.669, 4.668
707.966, 18.116
709.262, 1.567
710.558, 1.987
711.854, 2.543
713.150, 4.104
714.445, 9.676
715.740, 7.753
717.035, 11.147
718.330, 8.523
719.625, 11.944
720.919, 21.310
722.214, 3.726
723.508, 22.138
724.801, 16.548
726.095, 11.079
727.388, 5.704
728.682, 10.693
729.975, 6.087
731.267, 14.479
732.560, 15.867
733.852, 7.747
735.145, 7.634
736.437, 17.012
737.728, 8.387
739.020, 11.240
740.311, 0.873
741.603, 5.490
742.894, 4.150
744.184, 21.206
745.475, 14.559
746.765, 15.910
748.055, 14.258
749.345, 6.603
750.635, 19.946
751.925, 19.286
753.214, 5.377
754.503, 2.956
755.792, 5.714
757.081, 6.612
758.370, 5.934
759.658, 6.746
760.946, 8.431
762.234, 0.122
763.522, 10.815
764.809, 13.486
766.097, 8.784
767.384, 5.921
768.671, 6.630
769.958, 2.657
771.244, 9.940
772.530, 4.221
773.817, 12.499
775.102, 10.225
776.388, 14.045
777.674, 4.687
778.959, 13.424
780.244, 16.834
781.529, 11.911
782.814, 12.338
784.098, 8.415
785.383, 8.827
786.667, 6.067
787.951, 8.696
789.235, 3.536
790.518, 21.766
791.801, 10.993
793.084, 6.218
794.367, 0.560
795.650, 8.660
796.933, 3.123
798.215, 0.910
799.497, 15.301
800.779, 7.509
802.061, 1.715
803.342, 9.918
804.624, 13.119
805.905, 11.682
807.186, 15.512
808.466, 15.703
809.747, 5.892
811.027, 5.921
812.307, 14.262
813.587, 4.557
814.867, 10.380
816.146, 14.792
817.426, 9.931
818.705, 3.901
819.984, 5.767
821.263, 10.394
822.541, 5.446
823.819, 28.300
825.098, 26.369
826.375, 10.229
827.653, 3.906
828.931, 5.039
830.208, 5.829
831.485, 12.713
832.762, 3.406
834.039, 1.472
835.315, 4.624
836.592, 15.269
837.868, 3.216
839.144, 22.865
840.420, 7.082
841.695, 41.023
842.970, 11.072
844.246, 14.174
845.521, 14.229
846.795, 6.327
848.070, 27.365
849.344, 20.334
850.618, 16.288
851.892, 4.204
853.166, 0.989
854.440, 34.050
855.713, 39.125
856.986, 17.188
858.259, 43.265
859.532, 26.350
860.804, 22.387
862.077, 46.469
863.349, 40.549
864.621, 30.292
865.893, 24.158
867.164, 4.224
868.436, 7.267
869.707, 7.343
870.978, 36.417
872.248, 10.231
873.519, 14.280
874.789, 19.351
876.060, 11.402
877.330, 10.132
878.599, 10.104
879.869, 24.140
881.138, 14.034
882.408, 18.100
883.677, 25.166
884.945, 22.230
886.214, 10.294
887.482, 9.334
888.751, 16.397
890.019, 19.459
891.287, 31.324
892.554, 44.346
893.822, 46.203
895.089, 39.243
896.356, 30.280
897.623, 55.113
898.889, 33.908
900.156, 53.896
901.422, 41.636
902.688, 39.695
903.954, 58.747
905.220, 32.602
906.485, 39.442
907.750, 65.467
909.015, 34.525
910.280, 47.559
911.545, 47.617
912.809, 15.378
914.074, 64.436
915.338, 21.327
916.602, 30.017
917.865, 34.076
919.129, 45.804
920.392, 33.863
921.655, 15.675
922.918, 21.735
924.181, 35.787
925.443, 24.597
926.706, 52.640
927.968, 32.702
929.230, 23.765
930.491, 37.824
931.753, 45.831
933.014, 59.895
934.276, 49.848
935.536, 41.853
936.797, 63.920
938.058, 30.987
939.318, 54.036
940.578, 69.105
941.838, 54.184
943.098, 36.952
944.358, 44.024
945.617, 40.097
946.876, 75.171
948.135, 61.084
949.394, 80.160
950.653, 61.109
951.911, 65.927
953.169, 77.006
954.427, 99.088
955.685, 76.064
956.943, 89.000
958.200, 96.085
959.458, 122.035
960.715, 125.457
961.971, 172.929
963.228, 239.780
964.485, 267.874
965.741, 283.969
966.997, 280.933
968.253, 316.741
969.508, 333.842
970.764, 381.908
972.019, 452.013
973.274, 543.776
974.529, 579.820
975.784, 704.931
977.039, 859.898
978.293, 1157.013
979.547, 1667.131
980.801, 2477.250
982.055, 4163.373
983.308, 7694.497
984.562, 17579.623
985.815, 36568.754
987.068, 46807.883
988.321, 38357.020
989.573, 22356.160
990.826, 12045.301
992.078, 6955.445
993.330, 3980.591
994.582, 2466.740
995.833, 1607.890
997.085, 1141.044
998.336, 962.200
999.587, 740.358
1000.838, 665.521
1002.088, 574.687
1003.339, 462.855
1004.589, 411.026
1005.839, 370.200
1007.089, 317.376
1008.339, 267.556
1009.588, 257.739
1010.838, 223.925
1012.087, 195.113
1013.336, 177.305
1014.584, 165.501
1015.833, 146.699
1017.081, 139.901
1018.330, 155.106
1019.577, 167.313
1020.825, 153.523
1022.073, 144.737
1023.320, 134.953
1024.567, 165.172
1025.814, 112.394
1027.061, 126.619
1028.308, 104.849
1029.554, 61.083
1030.800, 88.319
1032.046, 45.559
1033.292, 71.802
1034.538, 59.051
1035.783, 27.303
1037.029, 73.560
1038.274, 27.820
1039.519, 38.083
1040.763, 53.349
1042.008, 50.622
1043.252, 38.898
1044.496, 39.177
1045.740, 35.460
1046.984, 55.745
1048.228, 24.035
1049.471, 28.328
1050.714, 25.625
1051.957, 24.927
1053.200, 44.233
1054.442, 56.543
1055.685, 23.856
1056.927, 62.174
1058.169, 13.494
1059.411, 16.818
1060.652, 44.146
1061.894, 33.478
1063.135, 31.812
1064.376, 12.150
1065.617, 30.491
1066.858, 26.837
1068.098, 18.185
1069.339, 12.538
1070.579, 22.894
1071.819, 34.254
1073.058, 18.619
1074.298, 27.991
1075.537, 0.632
1076.776, 33.749
1078.015, 21.137
1079.254, 40.529
1080.493, 44.923
1081.731, 62.322
1082.969, 60.724
1084.207, 67.129
1085.445, 27.540
1086.683, 51.956
1087.920, 38.375
1089.157, 55.797
1090.394, 54.223
1091.631, 82.655
1092.868, 97.089
1094.105, 139.530
1095.341, 127.976
1096.577, 210.430
1097.813, 305.888
1099.049, 402.352
1100.284, 544.821
1101.519, 726.294
1102.755, 829.772
1103.990, 880.253
1105.224, 711.738
1106.459, 551.227
1107.693, 432.721
1108.928, 281.219
1110.162, 237.721
1111.395, 199.226
1112.629, 150.735
1113.863, 121.247
1115.096, 112.763
1116.329, 126.281
1117.562, 118.803
1118.795, 133.329
1120.027, 131.857
1121.259, 138.389
1122.492, 191.924
1123.723, 211.461
1124.955, 215.002
1126.187, 240.547
1127.418, 318.094
1128.649, 372.644
1129.880, 471.198
1131.111, 653.754
1132.342, 899.314
1133.572, 1327.876
1134.802, 1940.442
1136.033, 2583.010
1137.262, 2981.581
1138.492, 3076.156
1139.722, 2954.733
1140.951, 2898.314
1142.180, 2789.900
1143.409, 2559.489
1144.638, 2357.080
1145.866, 1930.675
1147.095, 1589.272
1148.323, 1267.872
1149.551, 1009.475
1150.779, 838.081
1152.006, 660.689
1153.234, 582.332
1154.461, 538.946
1155.688, 497.589
1156.915, 513.208
1158.141, 492.830
1159.368, 575.455
1160.594, 732.261
1161.820, 906.891
1163.046, 1187.523
1164.272, 1434.158
1165.498, 1587.795
1166.723, 1492.658
1167.948, 1266.300
1169.173, 995.945
1170.398, 778.591
1171.623, 632.240
1172.847, 494.891
1174.071, 413.986
1175.295, 333.642
1176.519, 266.299
1177.743, 257.959
1178.966, 210.621
1180.190, 154.284
1181.413, 137.950
1182.636, 129.708
1183.858, 104.381
1185.081, 94.053
1186.303, 75.726
1187.526, 75.402
1188.748, 44.079
1189.969, 56.758
1191.191, 44.439
1192.412, 46.121
1193.634, 59.805
1194.855, 51.491
1196.076, 46.179
1197.296, 40.868
1198.517, 34.824
1199.737, 39.517
1200.957, 35.218
1202.177, 24.934
1203.397, 17.631
1204.617, 36.833
1205.836, 36.256
1207.055, 42.459
1208.274, 39.153
1209.493, 60.495
1210.712, 40.210
1211.930, 31.934
1213.148, 71.647
1214.367, 74.355
1215.584, 48.107
1216.802, 58.197
1218.020, 29.925
1219.237, 58.648
1220.454, 66.361
1221.671, 39.086
1222.888, 48.074
1224.105, 45.789
1225.321, 30.917
1226.537, 47.634
1227.753, 58.507
1228.969, 36.225
1230.185, 49.588
1231.400, 55.708
1232.616, 48.428
1233.831, 53.174
1235.046, 47.894
1236.261, 77.657
1237.475, 56.698
1238.689, 29.420
1239.904, 50.253
1241.118, 55.034
1242.332, 48.765
1243.545, 70.634
1244.759, 45.381
1245.972, 69.106
1247.185, 27.898
1248.398, 51.622
1249.611, 50.482
1250.823, 50.218
1252.036, 42.945
1253.248, 61.673
1254.460, 18.401
1255.671, 26.289
1256.883, 56.019
1258.095, 17.751
1259.306, 27.520
1260.517, 39.253
1261.728, 31.021
1262.938, 24.768
1264.149, 30.541
1265.359, 38.278
1266.569, 45.014
1267.779, 39.751
1268.989, 40.544
1270.199, 3.416
1271.408, 56.154
1272.617, 51.349
1273.826, 30.095
1275.035, 39.885
1276.244, 43.642
1277.452, 19.424
1278.661, 10.160
1279.869, 43.897
1281.077, 11.634
1282.285, 29.412
1283.492, 2.851
1284.700, 30.887
1285.907, 2.363
1287.114, 4.374
1288.321, 20.112
1289.527, 16.849
1290.734, 9.415
1291.940, 44.320
1293.146, 21.043
1294.352, 25.761
1295.558, 34.504
1296.763, 10.778
1297.969, 14.934
1299.174, 5.647
1300.379, 8.359
1301.584, 12.068
1302.788, 2.774
1303.993, 19.523
1305.197, 8.170
1306.401, 0.862
1307.605, 15.552
1308.809, 11.239
1310.013, 38.924
1311.216, 16.606
1312.419, 3.713
1313.622, 0.966
1314.825, 29.643
1316.028, 47.319
1317.230, 27.992
1318.432, 32.663
1319.634, 31.333
1320.836, 44.002
1322.038, 30.668
1323.240, 4.333
1324.441, 13.994
1325.642, 19.648
1326.843, 17.299
1328.044, 10.052
1329.245, 8.593
1330.445, 3.235
1331.645, 0.875
1332.845, 10.513
1334.045, 19.853
1335.245, 29.223
1336.445, 19.599
1337.644, 39.019
1338.843, 25.365
1340.042, 4.246
1341.241, 2.854
1342.440, 5.460
1343.638, 23.063
1344.836, 0.664
1346.034, 13.738
1347.232, 3.856
1348.430, 5.448
1349.628, 11.037
1350.825, 5.623
1352.022, 8.793
1353.219, 13.788
1354.416, 14.634
1355.613, 15.940
1356.809, 3.488
1358.005, 12.081
1359.202, 24.352
1360.398, 13.790
1361.593, 9.768
1362.789, 4.362
1363.984, 11.916
1365.179, 2.486
1366.374, 9.963
1367.569, 14.585
1368.764, 0.867
1369.958, 1.728
1371.153, 9.269
1372.347, 2.193
1373.541, 6.343
1374.735, 29.041
1375.928, 1.642
1377.122, 23.890
1378.315, 1.385
1379.508, 10.338
1380.701, 41.061
1381.893, 14.781
1383.086, 25.500
1384.278, 1.782
1385.470, 19.934
1386.662, 21.650
1387.854, 6.363
1389.046, 30.074
1390.237, 7.779
1391.428, 12.482
1392.619, 7.183
1393.810, 21.882
1395.001, 64.542
1396.191, 35.207
1397.382, 5.900
1398.572, 0.376
1399.762, 19.063
1400.952, 13.251
1402.141, 15.154
1403.331, 6.834
1404.520, 13.512
1405.709, 7.620
1406.898, 36.288
1408.087, 31.956
1409.275, 40.502
1410.464, 9.161
1411.652, 34.824
1412.840, 24.486
1414.028, 16.147
1415.215, 29.807
1416.403, 30.466
1417.590, 41.736
1418.777, 34.348
1419.964, 18.242
1421.151, 26.015
1422.338, 45.640
1423.524, 12.195
1424.710, 22.782
1425.896, 54.694
1427.082, 33.232
1428.268, 36.796
1429.453, 43.917
1430.639, 30.782
1431.824, 35.071
1433.009, 50.771
1434.194, 69.248
1435.378, 85.693
1436.563, 82.614
1437.747, 87.799
1438.931, 94.996
1440.115, 96.436
1441.299, 111.784
1442.482, 112.961
1443.666, 132.419
1444.849, 110.529
1446.032, 116.957
1447.215, 115.289
1448.397, 124.585
1449.580, 115.879
1450.762, 148.246
1451.944, 152.141
1453.126, 133.343
1454.308, 144.480
1455.490, 151.591
1456.671, 148.848
1457.852, 124.974
1459.033, 118.186
1460.214, 126.338
1461.395, 142.502
1462.575, 137.643
1463.756, 96.848
1464.936, 95.964
1466.116, 84.156
1467.296, 78.330
1468.475, 79.513
1469.655, 44.740
1470.834, 56.960
1472.013, 43.188
1473.192, 58.405
1474.371, 61.616
1475.550, 54.821
1476.728, 60.013
1477.906, 47.193
1479.084, 70.405
1480.262, 45.648
1481.440, 31.895
1482.617, 54.149
1483.795, 45.414
1484.972, 63.689
1486.149, 43.978
1487.326, 40.278
1488.502, 45.588
1489.679, 7.910
1490.855, 41.251
1492.031, 12.618
1493.207, 42.009
1494.383, 39.428
1495.559, 57.879
1496.734, 6.369
1497.909, 25.168
1499.084, 28.192
1500.259, 19.494
1501.434, 1.419
1502.608, 4.573
1503.783, 0.000
##END=



