##NAMES=Baryte
##RRUFFID=R040036
##IDEAL CHEMISTRY=BaS^6+^O_4_
##LOCALITY=Cumbria County, England
##OWNER=RRUFF
##SOURCE=University of Arizona Mineral Museum
##DESCRIPTION=Golden brown tabular crystal
##STATUS=The identification of this mineral has been confirmed by X-ray diffraction and chemical analysis
##URL=rruff.info/R040036
##MEASURED CHEMISTRY=Ba_1.00_S_1.00_O_4_; trace amounts of Pb
##PIN_ID=M00019
##ORIENTATION=Laser parallel to b* (0 1 0). Fiducial mark perpendicular to laser is parallel to c [0 0 1]
26.288, 0.000
27.694, 10.279
29.099, 23.097
30.504, 17.092
31.909, 5.293
33.313, 18.473
34.717, 28.751
36.121, 57.590
37.525, 30.560
38.929, 27.379
40.332, 44.581
41.735, 37.366
43.138, 46.420
44.541, 35.476
45.943, 49.681
47.345, 51.997
48.747, 61.951
50.149, 61.899
51.551, 72.078
52.952, 75.377
54.353, 77.853
55.754, 94.830
57.155, 100.491
58.555, 117.474
59.955, 90.212
61.355, 107.709
62.755, 98.722
64.154, 69.740
65.553, 71.874
66.952, 62.043
68.351, 68.912
69.750, 75.761
71.148, 64.620
72.546, 53.489
73.944, 31.366
75.342, 20.250
76.739, 6.139
78.136, 15.030
79.533, 2.078
80.930, 2.191
82.327, 16.309
83.723, 17.432
85.119, 7.560
86.515, 20.694
87.910, 29.831
89.306, 15.973
90.701, 21.118
92.096, 15.266
93.490, 9.411
94.885, 18.443
96.279, 37.297
97.673, 48.149
99.067, 56.001
100.461, 71.852
101.854, 84.712
103.247, 67.609
104.640, 76.538
106.032, 60.495
107.425, 101.476
108.817, 77.477
110.209, 109.493
111.601, 176.521
112.992, 190.000
114.384, 221.662
115.775, 250.638
117.166, 245.679
118.556, 218.714
119.947, 196.743
121.337, 180.764
122.727, 164.775
124.116, 156.781
125.506, 135.778
126.895, 124.758
128.284, 129.566
129.673, 120.479
131.062, 146.552
132.450, 127.421
133.838, 138.257
135.226, 156.064
136.614, 149.858
138.001, 150.646
139.388, 149.433
140.775, 161.218
142.162, 193.002
143.549, 186.786
144.935, 223.569
146.321, 279.351
147.707, 324.142
149.093, 420.923
150.478, 494.727
151.863, 552.505
153.248, 553.301
154.633, 475.098
156.018, 404.872
157.402, 324.705
158.786, 289.696
160.170, 242.615
161.554, 195.465
162.937, 200.300
164.320, 172.144
165.703, 159.991
167.086, 143.821
168.469, 156.688
169.851, 122.562
171.233, 148.347
172.615, 151.242
173.996, 152.077
175.378, 169.852
176.759, 172.847
178.140, 181.747
179.521, 194.611
180.901, 218.451
182.281, 299.181
183.662, 348.933
185.041, 456.616
186.421, 567.342
187.800, 653.947
189.180, 627.492
190.558, 533.089
191.937, 402.534
193.316, 313.041
194.694, 252.370
196.072, 214.668
197.450, 165.998
198.827, 151.229
200.205, 142.418
201.582, 129.554
202.959, 115.677
204.336, 112.741
205.712, 97.753
207.088, 109.705
208.465, 93.614
209.840, 87.442
211.216, 70.235
212.591, 91.056
213.967, 88.797
215.341, 117.589
216.716, 486.244
218.091, 348.982
219.465, 100.759
220.839, 435.714
222.213, 90.395
223.586, 84.885
224.960, 82.302
226.333, 86.576
227.706, 85.930
229.079, 73.954
230.451, 59.021
231.823, 67.768
233.195, 65.530
234.567, 69.437
235.939, 66.409
237.310, 69.445
238.682, 54.159
240.052, 62.757
241.423, 51.493
242.794, 63.369
244.164, 50.745
245.534, 52.293
246.904, 48.893
248.274, 56.530
249.643, 71.247
251.012, 51.008
252.381, 71.755
253.750, 68.545
255.118, 57.206
256.487, 62.025
257.855, 61.766
259.223, 52.512
260.590, 56.316
261.958, 49.091
263.325, 46.870
264.692, 50.609
266.059, 67.347
267.425, 42.109
268.791, 62.871
270.158, 48.628
271.523, 50.359
272.889, 38.088
274.255, 46.815
275.620, 49.542
276.985, 54.266
278.350, 37.990
279.714, 38.712
281.078, 39.433
282.443, 48.154
283.806, 41.874
285.170, 28.593
286.534, 45.311
287.897, 20.029
289.260, 16.746
290.623, 23.462
291.985, 25.177
293.348, 38.891
294.710, 21.604
296.072, 32.316
297.433, 29.028
298.795, 27.739
300.156, 30.449
301.517, 31.159
302.878, 24.868
304.239, 23.576
305.599, 34.283
306.959, 39.988
308.319, 12.692
309.679, 23.395
311.038, 22.097
312.398, 27.797
313.757, 45.497
315.116, 11.195
316.474, 26.893
317.833, 15.589
319.191, 33.284
320.549, 26.978
321.907, 34.671
323.264, 20.364
324.622, 30.050
325.979, 26.730
327.336, 22.404
328.692, 30.073
330.049, 21.737
331.405, 26.816
332.761, 7.049
334.117, 23.697
335.473, 26.341
336.828, 5.980
338.183, 28.615
339.538, 4.246
340.893, 24.872
342.247, 31.495
343.602, 14.115
344.956, 27.732
346.310, 28.346
347.663, 32.958
349.017, 20.567
350.370, 20.174
351.723, 18.779
353.076, 17.382
354.428, 14.984
355.780, 21.585
357.133, 29.184
358.484, 19.837
359.836, 15.435
361.188, 6.032
362.539, 25.629
363.890, 14.225
365.241, 12.821
366.591, 8.584
367.942, 11.008
369.292, 20.600
370.642, 14.192
371.992, 3.786
373.341, 14.381
374.691, 22.977
376.040, 13.576
377.388, 12.178
378.737, 3.783
380.086, 22.393
381.434, 19.006
382.782, 32.624
384.130, 24.248
385.477, 34.876
386.825, 37.509
388.172, 31.147
389.519, 37.788
390.865, 25.431
392.212, 32.074
393.558, 21.718
394.904, 20.362
396.250, 20.006
397.596, 9.649
398.941, 9.346
400.286, 30.021
401.631, 5.664
402.976, 20.308
404.321, 26.952
405.665, 7.595
407.009, 13.238
408.353, 11.881
409.697, 21.522
411.040, 21.164
412.384, 13.807
413.727, 13.442
415.070, 14.084
416.412, 21.726
417.755, 23.004
419.097, 26.020
420.439, 31.665
421.781, 30.325
423.122, 34.592
424.464, 47.591
425.805, 54.222
427.146, 57.856
428.486, 71.499
429.827, 71.142
431.167, 50.730
432.507, 107.374
433.847, 114.926
435.187, 178.465
436.526, 217.035
437.865, 256.615
439.204, 327.258
440.543, 425.823
441.882, 551.439
443.220, 716.042
444.558, 941.640
445.896, 1335.253
447.234, 1834.869
448.572, 2517.457
449.909, 3270.040
451.246, 3920.673
452.583, 4210.316
453.919, 3716.851
455.256, 2852.437
456.592, 2147.017
457.928, 1619.625
459.264, 1313.266
460.600, 1108.798
461.935, 927.404
463.270, 757.959
464.605, 556.597
465.940, 414.207
467.274, 315.849
468.609, 234.431
469.943, 185.059
471.277, 152.672
472.610, 114.266
473.944, 91.897
475.277, 87.490
476.610, 43.107
477.943, 78.635
479.275, 52.240
480.608, 38.859
481.940, 48.385
483.272, 28.017
484.604, 26.537
485.935, 38.154
487.267, 31.795
488.598, 42.364
489.929, 20.999
491.260, 25.637
492.590, 17.279
493.920, 31.883
495.250, 16.485
496.580, 27.082
497.910, 14.674
499.239, 13.258
500.569, 25.875
501.898, 1.522
503.226, 33.135
504.555, 13.732
505.883, 19.286
507.212, 23.932
508.540, 13.526
509.867, 31.114
511.195, 17.473
512.522, 30.055
513.849, 31.683
515.176, 27.281
516.503, 37.833
517.829, 35.434
519.156, 37.435
520.482, 34.676
521.808, 31.269
523.133, 36.824
524.459, 16.465
525.784, 21.093
527.109, 23.739
528.434, 29.386
529.758, 25.032
531.083, 31.678
532.407, 30.324
533.731, 20.969
535.055, 24.615
536.378, 26.266
537.701, 12.968
539.025, 12.605
540.348, 15.241
541.670, 1.023
542.993, 5.841
544.315, 16.490
545.637, 28.157
546.959, 40.065
548.281, 25.700
549.602, 24.324
550.923, 19.956
552.244, 29.575
553.565, 19.269
554.886, 29.275
556.206, 38.932
557.526, 22.532
558.846, 27.229
560.166, 5.961
561.486, 20.585
562.805, 12.435
564.124, 9.065
565.443, 15.163
566.762, 27.328
568.080, 18.253
569.399, 23.910
570.717, 22.699
572.035, 29.548
573.352, 30.162
574.670, 29.236
575.987, 27.819
577.304, 28.457
578.621, 24.071
579.938, 28.815
581.254, 38.487
582.570, 34.104
583.886, 49.731
585.202, 41.647
586.518, 63.390
587.833, 43.171
589.148, 80.764
590.463, 39.356
591.778, 61.947
593.093, 61.667
594.407, 69.256
595.721, 57.935
597.035, 48.548
598.349, 83.131
599.662, 75.785
600.976, 99.383
602.289, 90.972
603.602, 119.715
604.914, 141.301
606.227, 135.050
607.539, 213.643
608.851, 242.630
610.163, 349.197
611.475, 511.820
612.786, 793.388
614.097, 1197.085
615.408, 1473.655
616.719, 1593.336
618.030, 1404.984
619.340, 1100.671
620.651, 1025.245
621.961, 939.849
623.270, 972.605
624.580, 1127.175
625.889, 1396.822
627.199, 1809.375
628.507, 2108.913
629.816, 2242.653
631.125, 2025.478
632.433, 1568.010
633.741, 1183.538
635.049, 825.064
636.357, 816.588
637.664, 809.165
638.972, 500.827
640.279, 448.667
641.586, 454.733
642.893, 510.768
644.199, 565.438
645.505, 684.505
646.811, 676.099
648.117, 569.756
649.423, 503.255
650.728, 415.752
652.034, 277.246
653.339, 237.109
654.644, 185.599
655.948, 137.086
657.253, 120.742
658.557, 88.274
659.861, 75.823
661.165, 62.388
662.468, 49.862
663.772, 53.334
665.075, 41.835
666.378, 54.536
667.681, 26.999
668.983, 34.780
670.286, 25.135
671.588, 33.785
672.890, 28.312
674.192, 22.760
675.493, 27.507
676.795, 15.016
678.096, 4.454
679.397, 27.889
680.697, 16.355
681.998, 3.217
683.298, 4.783
684.598, 13.604
685.898, 1.022
687.198, 6.564
688.498, 16.842
689.797, 5.345
691.096, 8.744
692.395, 10.193
693.694, 3.586
694.992, 11.025
696.290, 4.399
697.589, 23.778
698.886, 1.154
700.184, 0.525
701.482, 39.861
702.779, 4.775
704.076, 12.581
705.373, 11.918
706.669, 11.283
707.966, 8.368
709.262, 4.975
710.558, 2.686
711.854, 5.352
713.150, 12.977
714.445, 6.697
715.740, 0.623
717.035, 0.061
718.330, 11.250
719.625, 1.441
720.919, 1.862
722.214, 9.162
723.508, 6.459
724.801, 9.248
726.095, 1.961
727.388, 3.679
728.682, 16.599
729.975, 19.873
731.267, 28.144
732.560, 1.588
733.852, 10.676
735.145, 0.064
736.437, 4.193
737.728, 19.446
739.020, 0.696
740.311, 5.942
741.603, 7.185
742.894, 3.575
744.184, 6.659
745.475, 4.109
746.765, 4.187
748.055, 14.589
749.345, 8.628
750.635, 0.841
751.925, 7.051
753.214, 2.742
754.503, 5.461
755.792, 2.340
757.081, 1.144
758.370, 2.953
759.658, 2.234
760.946, 0.298
762.234, 6.402
763.522, 1.774
764.809, 2.054
766.097, 3.114
767.384, 8.279
768.671, 6.558
769.958, 10.400
771.244, 4.752
772.530, 6.901
773.817, 13.047
775.102, 9.930
776.388, 0.668
777.674, 4.531
778.959, 12.397
780.244, 22.269
781.529, 21.150
782.814, 8.037
784.098, 22.930
785.383, 2.830
786.667, 5.734
787.951, 6.358
789.235, 25.448
790.518, 15.535
791.801, 15.381
793.084, 5.697
794.367, 4.773
795.650, 7.153
796.933, 2.083
798.215, 3.017
799.497, 3.954
800.779, 5.106
802.061, 16.164
803.342, 1.781
804.624, 10.728
805.905, 15.320
807.186, 2.634
808.466, 8.590
809.747, 9.551
811.027, 4.516
812.307, 2.516
813.587, 14.454
814.867, 4.429
816.146, 15.588
817.426, 14.550
818.705, 2.432
819.984, 4.585
821.263, 4.597
822.541, 14.183
823.819, 0.182
825.098, 0.091
826.375, 20.824
827.653, 7.171
828.931, 8.784
830.208, 4.247
831.485, 2.727
832.762, 1.661
834.039, 3.719
835.315, 25.220
836.592, 14.212
837.868, 20.007
839.144, 8.990
840.420, 16.978
841.695, 22.737
842.970, 17.714
844.246, 1.313
845.521, 29.657
846.795, 25.330
848.070, 13.269
849.344, 37.074
850.618, 22.818
851.892, 26.793
853.166, 34.505
854.440, 55.385
855.713, 43.251
856.986, 48.218
858.259, 80.053
859.532, 86.957
860.804, 59.914
862.077, 74.859
863.349, 59.514
864.621, 44.339
865.893, 51.124
867.164, 36.095
868.436, 31.065
869.707, 22.035
870.978, 20.407
872.248, 17.915
873.519, 23.715
874.789, 17.654
876.060, 22.622
877.330, 23.517
878.599, 18.466
879.869, 16.422
881.138, 21.224
882.408, 33.179
883.677, 8.029
884.945, 45.916
886.214, 24.465
887.482, 58.433
888.751, 51.343
890.019, 22.306
891.287, 43.139
892.554, 30.098
893.822, 71.944
895.089, 74.821
896.356, 57.657
897.623, 69.606
898.889, 63.523
900.156, 70.287
901.422, 71.236
902.688, 71.106
903.954, 67.069
905.220, 58.046
906.485, 54.820
907.750, 51.507
909.015, 37.486
910.280, 37.467
911.545, 57.449
912.809, 51.433
914.074, 60.362
915.338, 41.205
916.602, 58.868
917.865, 63.305
919.129, 27.772
920.392, 55.548
921.655, 44.981
922.918, 89.885
924.181, 46.726
925.443, 52.724
926.706, 94.724
927.968, 62.725
929.230, 70.359
930.491, 74.364
931.753, 66.371
933.014, 75.128
934.276, 76.171
935.536, 82.115
936.797, 79.042
938.058, 81.059
939.318, 73.506
940.578, 73.066
941.838, 59.858
943.098, 69.884
944.358, 75.871
945.617, 79.725
946.876, 93.562
948.135, 88.522
949.394, 104.561
950.653, 82.300
951.911, 106.278
953.169, 112.324
954.427, 143.374
955.685, 138.393
956.943, 159.449
958.200, 167.446
959.458, 185.509
960.715, 194.574
961.971, 273.642
963.228, 331.717
964.485, 419.694
965.741, 437.775
966.997, 411.807
968.253, 465.895
969.508, 572.987
970.764, 579.041
972.019, 681.141
973.274, 805.245
974.529, 904.352
975.784, 1069.464
977.039, 1332.578
978.293, 1804.698
979.547, 2532.821
980.801, 3691.936
982.055, 6162.066
983.308, 11394.201
984.562, 25873.342
985.815, 55082.484
987.068, 64731.633
988.321, 59070.789
989.573, 33949.941
990.826, 17749.107
992.078, 10008.274
993.330, 5805.444
994.582, 3555.619
995.833, 2449.799
997.085, 1729.982
998.336, 1396.170
999.587, 1154.363
1000.838, 1020.561
1002.088, 882.763
1003.339, 736.970
1004.589, 645.181
1005.839, 557.396
1007.089, 468.616
1008.339, 410.841
1009.588, 384.069
1010.838, 366.303
1012.087, 342.540
1013.336, 289.782
1014.584, 262.029
1015.833, 261.280
1017.081, 253.536
1018.330, 252.796
1019.577, 239.993
1020.825, 231.263
1022.073, 202.540
1023.320, 192.821
1024.567, 180.107
1025.814, 167.398
1027.061, 151.694
1028.308, 146.994
1029.554, 125.300
1030.800, 127.610
1032.046, 97.926
1033.292, 123.247
1034.538, 108.572
1035.783, 88.904
1037.029, 104.240
1038.274, 76.581
1039.519, 61.927
1040.763, 66.278
1042.008, 79.635
1043.252, 60.997
1044.496, 81.365
1045.740, 70.737
1046.984, 58.114
1048.228, 49.496
1049.471, 69.883
1050.714, 42.275
1051.957, 58.674
1053.200, 61.080
1054.442, 51.493
1055.685, 54.898
1056.927, 56.339
1058.169, 47.771
1059.411, 35.209
1060.652, 39.651
1061.894, 33.099
1063.135, 44.551
1064.376, 34.010
1065.617, 53.474
1066.858, 35.942
1068.098, 11.417
1069.339, 38.897
1070.579, 34.382
1071.819, 20.872
1073.058, 32.368
1074.298, 17.868
1075.537, 11.375
1076.776, 13.536
1078.015, 15.411
1079.254, 17.937
1080.493, 37.470
1081.731, 57.011
1082.969, 74.559
1084.207, 68.116
1085.445, 51.681
1086.683, 49.254
1087.920, 15.835
1089.157, 44.423
1090.394, 61.017
1091.631, 39.616
1092.868, 91.225
1094.105, 106.838
1095.341, 100.457
1096.577, 126.081
1097.813, 146.710
1099.049, 235.345
1100.284, 298.988
1101.519, 360.638
1102.755, 399.294
1103.990, 374.956
1105.224, 285.623
1106.459, 235.296
1107.693, 162.974
1108.928, 108.657
1110.162, 112.345
1111.395, 118.038
1112.629, 111.736
1113.863, 119.440
1115.096, 136.149
1116.329, 132.862
1117.562, 136.580
1118.795, 149.302
1120.027, 196.030
1121.259, 232.761
1122.492, 278.497
1123.723, 300.238
1124.955, 376.983
1126.187, 409.733
1127.418, 488.487
1128.649, 570.245
1129.880, 717.008
1131.111, 941.776
1132.342, 1209.547
1133.572, 1611.324
1134.802, 2162.106
1136.033, 2855.892
1137.262, 3679.682
1138.492, 4297.477
1139.722, 4935.277
1140.951, 5412.082
1142.180, 5959.891
1143.409, 5777.704
1144.638, 5423.521
1145.866, 4480.343
1147.095, 3629.168
1148.323, 2892.000
1149.551, 2268.225
1150.779, 1700.675
1152.006, 1359.519
1153.234, 1061.369
1154.461, 916.223
1155.688, 800.081
1156.915, 673.943
1158.141, 663.810
1159.368, 618.680
1160.594, 667.555
1161.820, 715.433
1163.046, 862.315
1164.272, 970.201
1165.498, 1029.091
1166.723, 984.984
1167.948, 885.882
1169.173, 716.782
1170.398, 572.687
1171.623, 473.626
1172.847, 361.537
1174.071, 317.452
1175.295, 274.370
1176.519, 221.291
1177.743, 179.216
1178.966, 150.144
1180.190, 142.075
1181.413, 118.009
1182.636, 106.641
1183.858, 91.666
1185.081, 84.830
1186.303, 70.777
1187.526, 58.726
1188.748, 65.679
1189.969, 34.634
1191.191, 57.592
1192.412, 29.552
1193.634, 38.516
1194.855, 42.482
1196.076, 47.451
1197.296, 16.423
1198.517, 27.439
1199.737, 28.416
1200.957, 47.395
1202.177, 19.407
1203.397, 19.391
1204.617, 41.377
1205.836, 11.365
1207.055, 1.701
1208.274, 21.113
1209.493, 47.182
1210.712, 27.179
1211.930, 55.470
1213.148, 27.954
1214.367, 46.467
1215.584, 36.080
1216.802, 79.513
1218.020, 50.065
1219.237, 67.719
1220.454, 66.265
1221.671, 44.491
1222.888, 56.509
1224.105, 51.307
1225.321, 36.325
1226.537, 49.693
1227.753, 31.712
1228.969, 31.733
1230.185, 56.912
1231.400, 52.586
1232.616, 65.917
1233.831, 66.418
1235.046, 27.553
1236.261, 80.587
1237.475, 77.969
1238.689, 42.997
1239.904, 90.091
1241.118, 76.258
1242.332, 51.289
1243.545, 75.382
1244.759, 55.802
1245.972, 59.835
1247.185, 66.868
1248.398, 49.903
1249.611, 50.939
1250.823, 35.027
1252.036, 53.067
1253.248, 46.126
1254.460, 58.169
1255.671, 71.214
1256.883, 27.261
1258.095, 25.309
1259.306, 19.358
1260.517, 42.411
1261.728, 18.463
1262.938, 9.517
1264.149, 36.819
1265.359, 37.875
1266.569, 41.933
1267.779, 39.064
1268.989, 62.124
1270.199, 37.469
1271.408, 65.536
1272.617, 54.600
1273.826, 51.665
1275.035, 28.730
1276.244, 44.797
1277.452, 50.865
1278.661, 6.236
1279.869, 19.335
1281.077, 34.406
1282.285, 19.477
1283.492, 24.933
1284.700, 31.006
1285.907, 22.688
1287.114, 15.226
1288.321, 16.301
1289.527, 23.377
1290.734, 20.453
1291.940, 12.530
1293.146, 8.601
1294.352, 28.673
1295.558, 38.756
1296.763, 26.821
1297.969, 35.871
1299.174, 21.912
1300.379, 14.952
1301.584, 2.016
1302.788, 16.014
1303.993, 2.042
1305.197, 35.061
1306.401, 15.074
1307.605, 11.084
1308.809, 38.092
1310.013, 11.098
1311.216, 37.099
1312.419, 36.099
1313.622, 31.098
1314.825, 33.095
1316.028, 37.092
1317.230, 27.087
1318.432, 29.081
1319.634, 31.073
1320.836, 38.061
1322.038, 47.047
1323.240, 34.031
1324.441, 26.009
1325.642, 42.985
1326.843, 4.958
1328.044, 1.074
1329.245, 36.890
1330.445, 3.846
1331.645, 0.202
1332.845, 40.746
1334.045, 12.691
1335.245, 11.632
1336.445, 13.432
1337.644, 16.500
1338.843, 1.574
1340.042, 3.348
1341.241, 10.733
1342.440, 18.819
1343.638, 19.910
1344.836, 24.006
1346.034, 16.109
1347.232, 21.059
1348.430, 25.330
1349.628, 20.451
1350.825, 6.577
1352.022, 3.292
1353.219, 30.843
1354.416, 4.016
1355.613, 12.129
1356.809, 23.722
1358.005, 17.570
1359.202, 3.585
1360.398, 24.743
1361.593, 9.907
1362.789, 17.075
1363.984, 1.248
1365.179, 4.576
1366.374, 11.602
1367.569, 8.217
1368.764, 1.132
1369.958, 2.052
1371.153, 26.762
1372.347, 1.577
1373.541, 12.629
1374.735, 31.151
1375.928, 17.922
1377.122, 27.983
1378.315, 20.044
1379.508, 3.104
1380.701, 22.163
1381.893, 6.221
1383.086, 14.279
1384.278, 30.336
1385.470, 50.390
1386.662, 10.442
1387.854, 27.491
1389.046, 10.538
1390.237, 41.583
1391.428, 17.626
1392.619, 4.335
1393.810, 21.702
1395.001, 17.733
1396.191, 4.761
1397.382, 23.786
1398.572, 5.190
1399.762, 12.832
1400.952, 48.851
1402.141, 28.868
1403.331, 44.844
1404.520, 18.858
1405.709, 22.871
1406.898, 5.117
1408.087, 10.894
1409.275, 17.904
1410.464, 17.913
1411.652, 8.079
1412.840, 23.929
1414.028, 7.937
1415.215, 18.943
1416.403, 43.888
1417.590, 31.894
1418.777, 37.855
1419.964, 24.861
1421.151, 33.687
1422.338, 33.561
1423.524, 14.318
1424.710, 15.483
1425.896, 17.837
1427.082, 46.795
1428.268, 40.319
1429.453, 55.858
1430.639, 40.110
1431.824, 49.684
1433.009, 61.800
1434.194, 52.541
1435.378, 76.663
1436.563, 75.322
1437.747, 87.833
1438.931, 93.717
1440.115, 80.468
1441.299, 125.208
1442.482, 151.830
1443.666, 140.503
1444.849, 146.195
1446.032, 144.870
1447.215, 160.525
1448.397, 136.594
1449.580, 129.201
1450.762, 149.615
1451.944, 186.465
1453.126, 161.984
1454.308, 175.479
1455.490, 176.143
1456.671, 165.479
1457.852, 161.789
1459.033, 148.902
1460.214, 129.175
1461.395, 143.406
1462.575, 125.609
1463.756, 123.749
1464.936, 135.973
1466.116, 142.271
1467.296, 90.590
1468.475, 105.923
1469.655, 82.302
1470.834, 72.674
1472.013, 57.055
1473.192, 72.407
1474.371, 77.732
1475.550, 74.026
1476.728, 84.315
1477.906, 51.599
1479.084, 55.876
1480.262, 65.178
1481.440, 36.538
1482.617, 66.914
1483.795, 66.311
1484.972, 67.730
1486.149, 45.161
1487.326, 47.601
1488.502, 37.049
1489.679, 30.796
1490.855, 45.014
1492.031, 20.553
1493.207, 33.132
1494.383, 23.753
1495.559, 2.577
1496.734, 26.159
1497.909, 14.979
1499.084, 4.903
1500.259, 7.745
1501.434, 11.163
1502.608, 0.000
##END=



