##NAMES=Baryte
##RRUFFID=R050342
##IDEAL CHEMISTRY=BaS^6+^O_4_
##LOCALITY=Palos Verdes, Los Angeles County, California, USA
##OWNER=RRUFF
##SOURCE=California Institute of Technology
##DESCRIPTION=Light brown fragment
##STATUS=The identification of this mineral has been confirmed by X-ray diffraction and chemical analysis
##URL=rruff.info/R050342
##MEASURED CHEMISTRY=Ba_1.00_S_1.00_O_4_
##PIN_ID=L00807
##ORIENTATION=Laser parallel to b* (0 1 0). Fiducial mark perpendicular to laser is parallel to c [0 0 1]
93.48000, 0.0000000E+00
94.71400, 54.67969
95.94800, 127.3574
97.18200, 182.3545
98.41600, 237.1245
99.64900, 231.4492
100.8830, 310.9336
102.1160, 157.7612
103.3490, 162.9360
104.5820, 80.84717
105.8150, 114.0371
107.0470, 116.1567
108.2800, 93.93457
109.5120, 44.15527
110.7440, 16.64600
111.9760, 49.26074
113.2080, 16.13330
114.4400, 73.39111
115.6710, 29.71045
116.9030, 74.75635
118.1340, 133.4624
119.3650, 122.7700
120.5960, 178.6328
121.8270, 177.0195
123.0580, 223.8955
124.2880, 163.2227
125.5190, 105.9688
126.7490, 162.1069
127.9790, 92.61035
129.2090, 160.4565
130.4390, 182.6250
131.6680, 235.0874
132.8980, 176.8203
134.1270, 255.8042
135.3560, 217.0220
136.5850, 287.4604
137.8140, 380.1064
139.0430, 327.9502
140.2710, 309.9800
141.5000, 334.1890
142.7280, 324.5669
143.9560, 268.1089
145.1840, 395.8096
146.4120, 310.6646
147.6390, 328.7764
148.8670, 448.1001
150.0940, 439.5850
151.3210, 597.2261
152.5490, 528.9790
153.7750, 498.8413
155.0020, 401.8081
156.2290, 518.9194
157.4550, 467.1484
158.6810, 433.4727
159.9080, 335.8936
161.1340, 318.4097
162.3590, 170.0293
163.5850, 362.7529
164.8110, 291.5615
166.0360, 289.4556
167.2610, 407.4014
168.4860, 209.3457
169.7110, 271.3081
170.9360, 321.2837
172.1610, 313.3115
173.3850, 342.3867
174.6100, 388.4888
175.8340, 384.6221
177.0580, 419.5957
178.2820, 353.0571
179.5050, 455.3535
180.7290, 518.6909
181.9520, 527.6743
183.1760, 399.5059
184.3990, 495.9863
185.6220, 565.5156
186.8450, 474.0938
188.0670, 570.7207
189.2900, 645.3965
190.5120, 599.1221
191.7340, 587.8965
192.9560, 522.7207
194.1780, 410.5938
195.4000, 313.5156
196.6220, 396.6426
197.8430, 284.6611
199.0640, 350.7275
200.2860, 185.3223
201.5070, 220.0713
202.7270, 297.2393
203.9480, 205.5391
205.1690, 293.5889
206.3890, 126.2598
207.6090, 211.5195
208.8290, 252.8369
210.0490, 43.20117
211.2690, 151.6123
212.4890, 142.0674
213.7080, 333.5674
214.9280, 253.1123
216.1470, 301.7002
217.3660, 262.3076
218.5850, 324.8154
219.8030, 276.5059
221.0220, 207.2363
222.2400, 150.0088
223.4590, 269.8223
224.6770, 246.6748
225.8950, 218.8330
227.1120, 217.7617
228.3300, 192.7285
229.5480, 161.7334
230.7650, 118.3076
231.9820, 118.4619
233.1990, 132.1826
234.4160, 168.7871
235.6330, 198.0078
236.8490, 201.2637
238.0660, 230.6201
239.2820, 223.9463
240.4980, 256.8975
241.7140, 183.9922
242.9300, 82.23828
244.1460, 117.9961
245.3610, 175.9883
246.5770, 94.17969
247.7920, 151.7998
249.0070, 203.6074
250.2220, 163.0928
251.4370, 180.0791
252.6510, 217.0000
253.8660, 155.0098
255.0800, 167.1211
256.2940, 89.32520
257.5080, 202.6162
258.7220, 151.9883
259.9360, 163.8906
261.1490, 61.08984
262.3630, 81.72168
263.5760, 194.3799
264.7890, 69.12598
266.0020, 185.9307
267.2150, 105.7939
268.4270, 59.74805
269.6400, 153.7549
270.8520, 180.8164
272.0640, 74.00977
273.2760, 194.1680
274.4880, 103.4795
275.7000, 92.72754
276.9120, 104.0195
278.1230, 92.35449
279.3340, 91.75195
280.5450, 136.1436
281.7560, 101.5977
282.9670, 129.0889
284.1780, 171.6152
285.3880, 158.4307
286.5980, 112.7744
287.8090, 130.4062
289.0190, 181.0713
290.2290, 76.78027
291.4380, 154.5205
292.6480, 40.29199
293.8570, 13.09473
295.0670, 214.9268
296.2760, 11.78906
297.4850, 73.67773
298.6930, 7.406250
299.9020, 1.544922
301.1110, 153.5225
302.3190, 67.52539
303.5270, 149.5557
304.7350, 42.38672
305.9430, 108.6885
307.1510, 38.20215
308.3580, 114.0742
309.5660, 1.941406
310.7730, 126.2217
311.9800, 82.40723
313.1870, 5.383789
314.3940, 241.8477
315.6010, 25.89941
316.8070, 39.62598
318.0130, 92.66309
319.2200, 176.9756
320.4260, 28.68262
321.6310, 93.67676
322.8370, 139.0576
324.0430, 17.46094
325.2480, 44.88477
326.4540, 62.33008
327.6590, 24.38672
328.8640, 31.28418
330.0680, 51.79199
331.2730, 136.3203
332.4780, 216.8682
333.6820, 103.4375
334.8860, 50.02539
336.0900, 99.63281
337.2940, 19.26172
338.4980, 26.09082
339.7010, 8.570313
340.9050, 45.74805
342.1080, 145.9434
343.3110, 82.65430
344.5140, 179.3818
345.7170, 199.3916
346.9200, 102.8525
348.1220, 168.5986
349.3240, 155.3633
350.5270, 52.14062
351.7290, 38.93066
352.9310, 11.73340
354.1320, 5.563477
355.3340, 4.610352
356.5350, 41.24316
357.7370, 89.11230
358.9380, 101.9990
360.1390, 120.3018
361.3400, 16.82129
362.5400, 91.75293
363.7410, 53.33105
364.9410, 35.35254
366.1410, 54.19531
367.3410, 23.17480
368.5410, 3.171875
369.7410, 135.9209
370.9400, 84.58594
372.1400, 91.77734
373.3390, 34.90820
374.5380, 63.97754
375.7370, 36.05469
376.9360, 174.1455
378.1350, 28.25488
379.3330, 112.7666
380.5310, 6.902344
381.7300, 52.05176
382.9280, 37.21582
384.1260, 1.896484
385.3230, 83.30664
386.5210, 78.29004
387.7180, 55.93457
388.9160, 115.1846
390.1130, 30.45996
391.3100, 21.24121
392.5060, 21.71875
393.7030, 10.40039
394.9000, 19.06836
396.0960, 15.27344
397.2920, 45.63379
398.4880, 24.31934
399.6840, 40.71777
400.8800, 101.1357
402.0750, 21.57031
403.2710, 22.97461
404.4660, 27.51660
405.6610, 15.94238
406.8560, 112.4180
408.0510, 43.63770
409.2450, 39.14746
410.4400, 156.6719
411.6340, 72.41406
412.8280, 43.10059
414.0220, 52.48535
415.2160, 22.06836
416.4100, 63.66602
417.6030, 21.28906
418.7970, 48.92480
419.9900, 171.5752
421.1830, 48.24023
422.3760, 114.1328
423.5690, 151.8242
424.7610, 43.52930
425.9540, 138.2471
427.1460, 134.9756
428.3380, 187.7158
429.5300, 93.46973
430.7220, 195.3359
431.9140, 142.1152
433.1050, 57.29980
434.2970, 228.1016
435.4880, 286.9141
436.6790, 368.9004
437.8700, 471.7344
439.0610, 448.7861
440.2510, 581.6416
441.4420, 870.5098
442.6320, 940.0811
443.8220, 1204.973
445.0120, 1562.876
446.2020, 1886.853
447.3910, 2264.043
448.5810, 2535.332
449.7700, 3136.777
450.9600, 3666.765
452.1490, 4276.801
453.3370, 4715.114
454.5260, 5189.094
455.7150, 4960.334
456.9030, 4694.238
458.0910, 4842.250
459.2800, 5342.632
460.4670, 5615.562
461.6550, 5986.604
462.8430, 5815.266
464.0300, 5257.559
465.2180, 3955.638
466.4050, 2611.725
467.5920, 1853.821
468.7790, 1244.926
469.9650, 878.0391
471.1520, 647.1602
472.3380, 535.2891
473.5250, 490.4268
474.7110, 388.5732
475.8970, 403.7275
477.0820, 354.8896
478.2680, 306.0576
479.4540, 265.2354
480.6390, 268.4209
481.8240, 144.7842
483.0090, 162.9844
484.1940, 94.61133
485.3780, 262.8262
486.5630, 163.0498
487.7470, 245.2793
488.9320, 267.5166
490.1160, 116.7607
491.3000, 158.0127
492.4830, 113.2715
493.6670, 79.53711
494.8500, 150.8096
496.0340, 75.08887
497.2170, 195.3760
498.4000, 140.4365
499.5820, 122.7461
500.7650, 148.0625
501.9480, 158.3857
503.1300, 148.7158
504.3120, 267.0586
505.4940, 216.4160
506.6760, 178.7803
507.8580, 18.71094
509.0390, 123.0811
510.2210, 130.4580
511.4020, 25.23828
512.5830, 4.873047
513.7640, 37.48242
514.9450, 42.84375
516.1250, 81.20801
517.3060, 137.5830
518.4860, 91.96387
519.6660, 155.2480
520.8460, 28.65332
522.0260, 119.0605
523.2060, 157.4102
524.3850, 124.8262
525.5650, 40.75195
526.7440, 314.2529
527.9230, 12.34668
529.1020, 99.26367
530.2810, 165.6543
531.4590, 52.04980
532.6380, 137.4482
533.8160, 34.59863
534.9940, 80.71875
536.1720, 201.3037
537.3500, 132.5195
538.5270, 128.9229
539.7050, 28.34570
540.8820, 60.76953
542.0590, 67.19727
543.2360, 58.17969
544.4130, 125.0654
545.5900, 89.05176
546.7660, 139.8184
547.9430, 140.2275
549.1190, 79.31934
550.2950, 178.0879
551.4710, 124.4980
552.6470, 121.0889
553.8220, 37.25879
554.9980, 10.60742
556.1730, 123.9580
557.3480, 114.2305
558.5230, 141.4004
559.6980, 58.82031
560.8730, 109.7295
562.0470, 181.1094
563.2220, 34.47461
564.3960, 179.8418
565.5700, 170.2139
566.7440, 96.58691
567.9170, 130.9707
569.0910, 105.3486
570.2640, 179.7324
571.4380, 43.12012
572.6110, 160.7236
573.7840, 18.88477
574.9570, 258.4863
576.1290, 198.8594
577.3020, 39.23438
578.4740, 115.6084
579.6460, 36.98340
580.8180, 57.35840
581.9900, 152.7344
583.1620, 7.803711
584.3330, 160.5596
585.5040, 104.9307
586.6760, 48.32031
587.8470, 16.71875
589.0180, 118.1201
590.1880, 2.471680
591.3590, 94.92383
592.5290, 88.32324
593.7000, 0.2597660
594.8700, 284.1455
596.0400, 37.49902
597.2090, 147.9033
598.3790, 140.3086
599.5490, 83.71387
600.7180, 79.12305
601.8870, 210.5469
603.0560, 4.027344
604.2250, 134.3838
605.3940, 66.56836
606.5620, 167.9912
607.7300, 185.4473
608.8990, 239.9033
610.0670, 313.3613
611.2350, 328.8242
612.4020, 323.2871
613.5700, 387.2080
614.7370, 661.2100
615.9050, 480.6699
617.0720, 661.1289
618.2390, 735.5879
619.4060, 544.0430
620.5720, 641.5625
621.7390, 498.1123
622.9050, 496.5723
624.0710, 761.0605
625.2370, 704.5439
626.4030, 603.0254
627.5690, 880.5049
628.7340, 1002.060
629.9000, 856.5371
631.0650, 1133.012
632.2300, 808.4854
633.3950, 816.9570
634.5600, 610.4385
635.7240, 566.9170
636.8890, 544.3945
638.0530, 386.9590
639.2170, 298.4385
640.3810, 391.2422
641.5450, 227.7168
642.7080, 338.1885
643.8720, 558.0361
645.0350, 438.5742
646.1980, 406.0391
647.3610, 476.5039
648.5240, 388.3877
649.6870, 514.8525
650.8490, 344.3896
652.0120, 211.1123
653.1740, 225.9297
654.3360, 297.2344
655.4980, 159.6113
656.6600, 120.9736
657.8210, 152.4219
658.9830, 12.86816
660.1440, 119.5566
661.3050, 160.5986
662.4660, 160.0283
663.6270, 207.4561
664.7870, 224.8789
665.9480, 196.4590
667.1080, 198.5879
668.2680, 146.2520
669.4280, 109.6826
670.5880, 106.1260
671.7480, 99.48730
672.9070, 94.96875
674.0670, 155.2373
675.2260, 124.6650
676.3850, 209.0908
677.5440, 158.7002
678.7030, 201.9482
679.8610, 135.0645
681.0200, 187.4844
682.1780, 307.9004
683.3360, 81.31250
684.4940, 96.72168
685.6520, 79.13281
686.8090, 174.1377
687.9670, 106.5508
689.1240, 164.2510
690.2810, 84.65625
691.4380, 139.0566
692.5950, 122.2529
693.7520, 110.5146
694.9080, 64.44238
696.0650, 55.82031
697.2210, 32.78418
698.3770, 34.31250
699.5330, 12.92578
700.6880, 51.26855
701.8440, 147.6104
702.9990, 139.7324
704.1550, 240.6348
705.3100, 191.9639
706.4650, 53.29004
707.6190, 98.61133
708.7740, 190.0391
709.9290, 196.3535
711.0830, 31.89648
712.2370, 185.2021
713.3910, 74.10645
714.5450, 140.4033
715.6980, 132.6963
716.8520, 57.82422
718.0050, 198.1084
719.1580, 148.1826
720.3110, 286.4609
721.4640, 5.267578
722.6170, 170.1924
723.7700, 59.01855
724.9220, 98.37793
726.0740, 125.4404
727.2260, 111.9990
728.3780, 75.23340
729.5300, 121.9717
730.6810, 94.19824
731.8330, 97.41992
732.9840, 117.2588
734.1350, 2.528320
735.2860, 218.4268
736.4370, 61.61914
737.5880, 106.8086
738.7380, 225.2305
739.8880, 74.69043
741.0390, 135.1064
742.1890, 168.6631
743.3380, 31.15332
744.4880, 83.98047
745.6380, 160.0928
746.7870, 109.2158
747.9360, 167.7627
749.0850, 91.21094
750.2340, 129.3174
751.3830, 64.41602
752.5310, 106.5088
753.6800, 201.5957
754.8280, 162.6777
755.9760, 161.7520
757.1240, 137.8213
758.2720, 53.88281
759.4190, 49.93945
760.5670, 159.2988
761.7140, 57.93945
762.8610, 132.8447
764.0080, 214.8730
765.1550, 122.8945
766.3020, 54.91113
767.4480, 134.9189
768.5950, 180.9219
769.7410, 136.9180
770.8870, 126.9062
772.0330, 105.2988
773.1780, 281.2744
774.3240, 134.2422
775.4690, 15.07422
776.6140, 163.2578
777.7590, 33.20605
778.9040, 153.1680
780.0490, 105.1240
781.1940, 3.928711
782.3380, 14.99902
783.4820, 155.9043
784.6260, 89.09277
785.7700, 187.9824
786.9140, 188.8662
788.0580, 55.74316
789.2010, 185.6484
790.3450, 78.90332
791.4880, 209.7773
792.6310, 129.6611
793.7730, 5.537109
794.9160, 255.3975
796.0590, 141.5273
797.2010, 34.52344
798.3430, 123.2881
799.4850, 193.0947
800.6270, 85.90918
801.7690, 293.7451
802.9100, 70.57812
804.0520, 161.4189
805.1930, 87.25391
806.3340, 123.0908
807.4750, 66.92090
808.6160, 208.7432
809.7560, 219.5596
810.8970, 56.51855
812.0370, 175.3203
813.1770, 234.1133
814.3170, 184.9004
815.4570, 246.6797
816.5960, 236.4707
817.7360, 183.2168
818.8750, 226.9766
820.0140, 167.7266
821.1530, 138.4707
822.2920, 78.20703
823.4310, 18.93555
824.5690, 206.6514
825.7070, 66.36035
826.8460, 135.0850
827.9840, 157.8037
829.1220, 71.51367
830.2590, 111.2529
831.3970, 5.016602
832.5340, 182.6982
833.6710, 83.40527
834.8080, 110.2920
835.9450, 119.8174
837.0820, 120.9541
838.2190, 154.6162
839.3550, 130.2871
840.4910, 17.95020
841.6270, 193.6016
842.7630, 83.24609
843.8990, 140.8750
845.0350, 2.496094
846.1700, 145.1182
847.3060, 33.72266
848.4410, 186.1045
849.5760, 225.6924
850.7100, 70.28320
851.8450, 100.8682
852.9800, 150.4453
854.1140, 270.0146
855.2480, 228.5479
856.3820, 218.2051
857.5160, 153.6836
858.6500, 101.1406
859.7830, 10.31543
860.9170, 50.79590
862.0500, 15.31641
863.1830, 17.63086
864.3160, 135.5723
865.4480, 70.99707
866.5810, 135.4219
867.7130, 137.8389
868.8460, 130.2490
869.9780, 206.6582
871.1100, 81.11328
872.2410, 191.5098
873.3730, 223.8994
874.5050, 40.28125
875.6360, 22.34668
876.7670, 39.99902
877.8980, 108.3359
879.0290, 18.32812
880.1590, 109.2227
881.2900, 114.4736
882.4200, 172.7549
883.5500, 21.97656
884.6800, 8.811523
885.8100, 184.3799
886.9400, 121.5654
888.0690, 127.7441
889.1990, 185.9150
890.3280, 219.0811
891.4570, 186.8389
892.5860, 159.3896
893.7140, 93.53613
894.8430, 118.6104
895.9710, 29.64648
897.1000, 8.767578
898.2280, 50.15039
899.3560, 195.9180
900.4830, 120.9805
901.6110, 91.03711
902.7380, 365.0117
903.8660, 194.0840
904.9930, 155.2520
906.1200, 111.2812
907.2460, 27.69531
908.3730, 79.30078
909.5000, 113.2910
910.6260, 3.453125
911.7520, 23.33789
912.8780, 257.3594
914.0040, 91.76172
915.1290, 115.7090
916.2550, 192.6504
917.3800, 125.2070
918.5050, 159.7246
919.6300, 30.98438
920.7550, 153.8965
921.8800, 163.8008
923.0040, 165.7012
924.1290, 68.51953
925.2530, 22.42383
926.3770, 203.3379
927.5010, 198.5918
928.6250, 242.5117
929.7480, 357.5215
930.8720, 33.43945
931.9950, 131.3477
933.1180, 142.0000
934.2410, 140.8984
935.3640, 255.2500
936.4860, 276.7070
937.6090, 133.3574
938.7310, 278.2305
939.8530, 123.0957
940.9750, 178.9570
942.0970, 243.8105
943.2180, 85.63867
944.3400, 248.4785
945.4610, 52.31445
946.5820, 124.0781
947.7030, 127.8945
948.8240, 207.7090
949.9450, 286.5156
951.0650, 242.3164
952.1860, 211.1094
953.3060, 179.8984
954.4260, 173.7695
955.5460, 127.6660
956.6650, 202.2246
957.7850, 114.9883
958.9040, 176.1543
960.0230, 316.9043
961.1420, 258.6289
962.2610, 195.4199
963.3800, 338.1543
964.4990, 423.8867
965.6170, 300.6113
966.7350, 210.9785
967.8530, 470.6895
968.9710, 393.3965
970.0890, 508.1094
971.2070, 563.8184
972.3240, 686.5234
973.4410, 633.2227
974.5580, 640.9141
975.6750, 1036.033
976.7920, 1292.715
977.9090, 1563.408
979.0250, 2501.094
980.1410, 3869.838
981.2580, 6663.514
982.3740, 11462.85
983.4890, 16241.52
984.6050, 19852.17
985.7200, 25740.83
986.8360, 34643.48
987.9510, 43060.14
989.0660, 45631.79
990.1810, 37454.44
991.2950, 23074.09
992.4100, 12320.72
993.5240, 6728.361
994.6390, 3663.422
995.7530, 2435.939
996.8660, 1692.680
997.9800, 1418.273
999.0940, 1120.887
1000.207, 803.4863
1001.320, 845.0918
1002.433, 520.6914
1003.546, 741.2852
1004.659, 383.8750
1005.772, 606.4668
1006.884, 313.0547
1007.996, 562.6367
1009.108, 375.9766
1010.220, 118.2695
1011.332, 340.5977
1012.444, 354.1641
1013.555, 453.7051
1014.666, 312.2754
1015.777, 198.8594
1016.888, 61.41992
1017.999, 198.5488
1019.110, 249.7676
1020.220, 150.3223
1021.331, 262.8711
1022.441, 119.4199
1023.551, 198.9648
1024.661, 223.5059
1025.770, 218.0430
1026.880, 234.8672
1027.989, 77.11133
1029.098, 167.6406
1030.207, 188.8555
1031.316, 71.78516
1032.425, 245.4375
1033.533, 154.9590
1034.642, 132.4785
1035.750, 268.9941
1036.858, 37.50781
1037.966, 13.01953
1039.073, 186.5254
1040.181, 181.0332
1041.288, 63.12695
1042.396, 107.6289
1043.503, 67.87305
1044.610, 193.8867
1045.716, 25.97852
1046.823, 93.55469
1047.929, 79.86133
1049.036, 51.27539
1050.142, 170.6875
1051.248, 58.10547
1052.353, 109.5312
1053.459, 214.6621
1054.564, 104.0840
1055.670, 71.50586
1056.775, 117.9238
1057.880, 44.76172
1058.985, 173.0137
1060.089, 51.57227
1061.194, 52.79883
1062.298, 133.5098
1063.402, 167.8906
1064.506, 229.9980
1065.610, 195.3770
1066.713, 224.7695
1067.817, 50.84180
1068.920, 100.4863
1070.023, 8.187500
1071.126, 231.1016
1072.229, 279.3887
1073.332, 303.5859
1074.435, 52.95898
1075.537, 225.2422
1076.639, 193.5254
1077.741, 91.80273
1078.843, 155.9316
1079.945, 124.2090
1081.046, 89.67773
1082.148, 196.9531
1083.249, 197.2500
1084.350, 199.1680
1085.451, 127.8438
1086.551, 184.1387
1087.652, 195.4316
1088.752, 172.7227
1089.853, 147.0176
1090.953, 75.31055
1092.053, 157.6133
1093.152, 208.9160
1094.252, 29.21680
1095.351, 136.4785
1096.451, 282.7773
1097.550, 170.0742
1098.649, 84.37109
1099.748, 224.6738
1100.846, 473.9766
1101.945, 131.2773
1103.043, 326.5781
1104.141, 226.8770
1105.239, 117.1758
1106.337, 207.4746
1107.434, 61.77344
1108.532, 176.0742
1109.629, 254.2383
1110.726, 92.53711
1111.823, 3.833984
1112.920, 297.1348
1114.017, 73.43555
1115.113, 145.7363
1116.210, 47.03906
1117.306, 183.3379
1118.402, 148.6387
1119.498, 144.3594
1120.593, 127.6562
1121.689, 208.9531
1122.784, 302.2500
1123.879, 312.5488
1124.974, 409.4062
1126.069, 387.1445
1127.164, 547.4453
1128.259, 500.7637
1129.353, 553.0938
1130.447, 536.4316
1131.541, 797.7695
1132.635, 736.1074
1133.729, 1038.445
1134.822, 1359.783
1135.916, 1388.119
1137.009, 1836.457
1138.102, 2041.793
1139.195, 2451.133
1140.288, 2876.469
1141.380, 3000.809
1142.473, 3251.250
1143.565, 3382.602
1144.657, 3031.951
1145.749, 3005.309
1146.841, 2397.668
1147.932, 2021.062
1149.024, 1610.486
1150.115, 1330.912
1151.206, 1228.348
1152.297, 1002.781
1153.388, 761.2129
1154.479, 682.6465
1155.569, 555.5820
1156.659, 436.5156
1157.750, 464.9512
1158.839, 516.3867
1159.929, 532.8672
1161.019, 490.3027
1162.108, 463.7383
1163.198, 679.1758
1164.287, 488.6328
1165.376, 645.0879
1166.465, 623.5430
1167.553, 635.0020
1168.642, 658.4277
1169.730, 377.8594
1170.818, 508.3184
1171.906, 262.7773
1172.994, 276.2441
1174.082, 434.7129
1175.170, 263.0039
1176.257, 263.4766
1177.344, 102.8926
1178.431, 60.59375
1179.518, 211.0703
1180.605, 126.5488
1181.691, 191.0273
1182.778, 249.5059
1183.864, 173.9902
1184.950, 229.4727
1186.036, 124.9570
1187.122, 92.44141
1188.207, 73.07422
1189.292, 69.29297
1190.378, 52.79102
1191.463, 67.14258
1192.548, 40.75977
1193.632, 49.60742
1194.717, 32.04688
1195.801, 107.4180
1196.886, 112.2891
1197.970, 101.1738
1199.054, 133.0996
1200.137, 163.9180
1201.221, 203.5352
1202.305, 200.9277
1203.388, 33.32031
1204.471, 56.71484
1205.554, 100.1113
1206.637, 90.59570
1207.719, 265.0117
1208.802, 56.44141
1209.884, 112.8750
1210.966, 3.675781
1212.048, 111.1660
1213.130, 63.62305
1214.212, 111.0723
1215.293, 154.1113
1216.374, 382.9746
1217.456, 180.4277
1218.536, 266.8828
1219.617, 185.3105
1220.698, 114.7715
1221.778, 131.7344
1222.859, 50.19727
1223.939, 163.6602
1225.019, 18.92578
1226.099, 135.5312
1227.178, 145.9883
1228.258, 116.4473
1229.337, 314.9062
1230.417, 265.3691
1231.496, 45.83203
1232.574, 180.2969
1233.653, 185.7637
1234.732, 166.4238
1235.810, 155.8945
1236.888, 277.3633
1237.966, 90.83594
1239.044, 66.69336
1240.122, 94.74805
1241.199, 214.1895
1242.277, 65.46289
1243.354, 57.90820
1244.431, 361.3535
1245.508, 94.88867
1246.585, 179.4023
1247.661, 95.91602
1248.738, 59.56055
1249.814, 300.8613
1250.890, 345.2988
1251.966, 288.7344
1253.042, 249.1758
1254.117, 103.6152
1255.193, 243.0566
1256.268, 92.49805
1257.343, 118.9453
1258.418, 231.5684
1259.493, 373.0176
1260.567, 328.2734
1261.642, 174.9141
1262.716, 253.3652
1263.790, 231.8164
1264.864, 142.5254
1265.938, 203.9766
1267.011, 86.48828
1268.085, 220.1582
1269.158, 55.61328
1270.231, 272.0703
1271.304, 3.527344
1272.377, 152.9824
1273.450, 56.44141
1274.522, 158.0020
1275.594, 219.4609
