##NAMES=Baryte
##RRUFFID=R040036
##IDEAL CHEMISTRY=BaS^6+^O_4_
##LOCALITY=Cumbria County, England
##OWNER=RRUFF
##SOURCE=University of Arizona Mineral Museum
##DESCRIPTION=Golden brown tabular crystal
##STATUS=The identification of this mineral has been confirmed by X-ray diffraction and chemical analysis
##URL=rruff.info/R040036
##MEASURED CHEMISTRY=Ba_1.00_S_1.00_O_4_; trace amounts of Pb
##PIN_ID=M00019
##ORIENTATION=Laser parallel to b* (0 1 0). Fiducial mark perpendicular to laser is parallel to c [0 0 1]
26.288, 0.000
27.694, 0.241
29.099, 12.395
30.504, 59.499
31.909, 14.287
33.313, 6.065
34.717, 20.212
36.121, 14.471
37.525, 32.583
38.929, 57.297
40.332, 34.777
41.735, 48.437
43.138, 46.912
44.541, 63.441
45.943, 40.425
47.345, 60.853
48.747, 64.088
50.149, 73.730
51.551, 89.966
52.952, 92.424
54.353, 106.011
55.754, 106.950
57.155, 108.309
58.555, 121.268
59.955, 137.077
61.355, 115.365
62.755, 68.761
64.154, 97.366
65.553, 53.802
66.952, 63.306
68.351, 88.131
69.750, 63.908
71.148, 29.096
72.546, 28.334
73.944, 36.593
75.342, 24.351
76.739, 6.813
78.136, 5.935
79.533, 5.778
80.930, 8.503
82.327, 0.181
83.723, 17.982
85.119, 14.993
86.515, 7.463
87.910, 26.002
89.306, 24.564
90.701, 28.149
92.096, 5.758
93.490, 20.387
94.885, 8.141
96.279, 21.163
97.673, 30.292
99.067, 30.245
100.461, 21.154
101.854, 23.041
103.247, 43.441
104.640, 23.762
106.032, 5.125
107.425, 25.521
108.817, 28.946
110.209, 35.393
111.601, 32.852
112.992, 74.317
114.384, 28.886
115.775, 44.608
117.166, 85.286
118.556, 97.984
119.947, 101.723
121.337, 76.566
122.727, 77.199
124.116, 61.864
125.506, 60.643
126.895, 94.261
128.284, 91.902
129.673, 83.409
131.062, 69.001
132.450, 89.550
133.838, 89.847
135.226, 64.237
136.614, 64.630
138.001, 79.878
139.388, 59.266
140.775, 89.390
142.162, 83.432
143.549, 76.380
144.935, 103.517
146.321, 94.704
147.707, 131.815
149.093, 151.812
150.478, 152.789
151.863, 175.746
153.248, 165.656
154.633, 163.509
156.018, 161.359
157.402, 128.304
158.786, 122.278
160.170, 108.104
161.554, 94.013
162.937, 75.891
164.320, 65.658
165.703, 49.426
167.086, 40.172
168.469, 57.008
169.851, 55.807
171.233, 52.645
172.615, 54.427
173.996, 52.065
175.378, 57.289
176.759, 48.108
178.140, 75.130
179.521, 97.177
180.901, 108.971
182.281, 149.834
183.662, 160.148
185.041, 230.627
186.421, 263.981
187.800, 315.323
189.180, 338.550
190.558, 300.747
191.937, 282.840
193.316, 209.792
194.694, 171.748
196.072, 143.369
197.450, 125.068
198.827, 92.671
200.205, 93.255
201.582, 75.757
202.959, 55.167
204.336, 95.507
205.712, 76.762
207.088, 68.933
208.465, 61.039
209.840, 78.064
211.216, 64.978
212.591, 63.643
213.967, 62.389
215.341, 45.953
216.716, 69.527
218.091, 61.193
219.465, 54.697
220.839, 64.945
222.213, 40.156
223.586, 55.453
224.960, 45.645
226.333, 64.576
227.706, 45.506
229.079, 51.156
230.451, 50.764
231.823, 54.548
233.195, 41.884
234.567, 38.256
235.939, 31.818
237.310, 41.932
238.682, 49.062
240.052, 49.106
241.423, 41.682
242.794, 29.910
244.164, 30.743
245.534, 30.734
246.904, 36.843
248.274, 40.904
249.643, 26.873
251.012, 20.854
252.381, 39.005
253.750, 44.983
255.118, 48.835
256.487, 41.711
257.855, 54.723
259.223, 45.789
260.590, 34.827
261.958, 28.079
263.325, 27.047
264.692, 21.166
266.059, 28.446
267.425, 27.776
268.791, 26.115
270.158, 45.329
271.523, 24.538
272.889, 45.668
274.255, 27.785
275.620, 41.050
276.985, 28.297
278.350, 44.497
279.714, 41.994
281.078, 36.839
282.443, 42.050
283.806, 33.137
285.170, 28.219
286.534, 24.367
287.897, 8.412
289.260, 33.593
290.623, 29.742
291.985, 35.853
293.348, 11.068
294.710, 34.255
296.072, 18.455
297.433, 28.649
298.795, 38.837
300.156, 26.018
301.517, 34.193
302.878, 26.363
304.239, 35.527
305.599, 25.685
306.959, 16.836
308.319, 21.982
309.679, 26.121
311.038, 16.173
312.398, 19.173
313.757, 10.095
315.116, 17.970
316.474, 17.920
317.833, 26.860
319.191, 34.782
320.549, 15.710
321.907, 39.623
323.264, 16.558
324.622, 27.432
325.979, 4.415
327.336, 31.450
328.692, 19.469
330.049, 23.474
331.405, 19.466
332.761, 15.445
334.117, 12.410
335.473, 28.363
336.828, 1.303
338.183, 14.231
339.538, 20.147
340.893, 12.052
342.247, 38.946
343.602, 21.831
344.956, 24.707
346.310, 17.573
347.663, 23.430
349.017, 24.218
350.370, 20.904
351.723, 19.735
353.076, 18.508
354.428, 15.240
355.780, 17.929
357.133, 25.692
358.484, 25.391
359.836, 29.081
361.188, 18.762
362.539, 18.364
363.890, 18.073
365.241, 24.741
366.591, 21.476
367.942, 26.059
369.292, 21.627
370.642, 17.265
371.992, 21.857
373.341, 16.805
374.691, 22.134
376.040, 15.759
377.388, 17.387
378.737, 23.036
380.086, 28.632
381.434, 24.218
382.782, 26.778
384.130, 32.395
385.477, 39.052
386.825, 25.719
388.172, 26.356
389.519, 31.946
390.865, 44.542
392.212, 19.139
393.558, 46.764
394.904, 37.409
396.250, 48.990
397.596, 44.544
398.941, 48.182
400.286, 41.848
401.631, 39.536
402.976, 45.191
404.321, 44.908
405.665, 41.549
407.009, 41.208
408.353, 32.819
409.697, 29.408
411.040, 23.969
412.384, 28.564
413.727, 42.155
415.070, 49.737
416.412, 52.408
417.755, 51.982
419.097, 67.654
420.439, 63.243
421.781, 83.893
423.122, 84.487
424.464, 109.152
425.805, 115.806
427.146, 124.435
428.486, 164.088
429.827, 184.700
431.167, 205.290
432.507, 269.862
433.847, 326.359
435.187, 391.974
436.526, 467.571
437.865, 637.197
439.204, 808.708
440.543, 1013.326
441.882, 1329.896
443.220, 1747.488
444.558, 2393.126
445.896, 3317.705
447.234, 4619.320
448.572, 6403.900
449.909, 8218.521
451.246, 9745.097
452.583, 9934.632
453.919, 8529.190
455.256, 6456.768
456.592, 4581.301
457.928, 3197.850
459.264, 2280.358
460.600, 1566.903
461.935, 1126.449
463.270, 866.038
464.605, 672.665
465.940, 504.207
467.274, 418.861
468.609, 345.408
469.943, 267.008
471.277, 213.501
472.610, 186.120
473.944, 168.684
475.277, 169.268
476.610, 156.833
477.943, 129.382
479.275, 94.918
480.608, 97.528
481.940, 90.013
483.272, 90.559
484.604, 70.135
485.935, 69.677
487.267, 62.344
488.598, 68.932
489.929, 66.535
491.260, 52.105
492.590, 52.703
493.920, 58.307
495.250, 35.898
496.580, 67.485
497.910, 54.069
499.239, 52.638
500.569, 46.222
501.898, 38.843
503.226, 39.465
504.555, 53.107
505.883, 23.704
507.212, 51.303
508.540, 35.902
509.867, 47.533
511.195, 51.152
512.522, 53.793
513.849, 58.450
515.176, 59.827
516.503, 55.647
517.829, 63.253
519.156, 48.886
520.482, 49.492
521.808, 54.107
523.133, 45.750
524.459, 51.420
525.784, 29.071
527.109, 54.819
528.434, 36.498
529.758, 30.176
531.083, 35.890
532.407, 30.559
533.731, 35.238
535.055, 35.918
536.378, 35.558
537.701, 26.237
539.025, 22.917
540.348, 9.597
541.670, 24.278
542.993, 38.960
544.315, 29.641
545.637, 11.324
546.959, 32.007
548.281, 17.690
549.602, 29.372
550.923, 5.054
552.244, 20.736
553.565, 15.460
554.886, 40.176
556.206, 40.884
557.526, 19.595
558.846, 25.293
560.166, 24.976
561.486, 30.659
562.805, 25.342
564.124, 16.102
565.443, 7.784
566.762, 14.474
568.080, 8.441
569.399, 16.837
570.717, 10.527
572.035, 8.251
573.352, 13.197
574.670, 19.892
575.987, 18.145
577.304, 19.957
578.621, 21.013
579.938, 16.035
581.254, 20.757
582.570, 15.437
583.886, 3.171
585.202, 13.850
586.518, 22.537
587.833, 21.239
589.148, 26.557
590.463, 23.649
591.778, 24.364
593.093, 23.949
594.407, 15.835
595.721, 27.551
597.035, 14.461
598.349, 18.498
599.662, 26.207
600.976, 24.150
602.289, 40.839
603.602, 33.534
604.914, 72.396
606.227, 97.269
607.539, 113.410
608.851, 152.307
610.163, 286.990
611.475, 428.817
612.786, 681.504
614.097, 1038.238
615.408, 1300.919
616.719, 1341.909
618.030, 1111.578
619.340, 815.615
620.651, 614.297
621.961, 445.990
623.270, 384.670
624.580, 313.617
625.889, 326.530
627.199, 361.641
628.507, 361.323
629.816, 376.987
631.125, 379.671
632.433, 303.389
633.741, 317.048
635.049, 238.707
636.357, 266.602
637.664, 292.603
638.972, 304.257
640.279, 367.911
641.586, 448.564
642.893, 568.250
644.199, 700.220
645.505, 813.894
646.811, 814.982
648.117, 747.014
649.423, 621.659
650.728, 430.303
652.034, 299.982
653.339, 229.634
654.644, 182.273
655.948, 129.033
657.253, 92.913
658.557, 59.385
659.861, 49.253
661.165, 37.885
662.468, 48.571
663.772, 37.207
665.075, 21.834
666.378, 34.460
667.681, 1.915
668.983, 27.706
670.286, 19.326
671.588, 0.944
672.890, 13.734
674.192, 21.348
675.493, 31.961
676.795, 35.183
678.096, 35.264
679.397, 36.849
680.697, 28.454
681.998, 23.266
683.298, 18.021
684.598, 18.620
685.898, 15.634
687.198, 31.229
688.498, 27.877
689.797, 17.467
691.096, 38.056
692.395, 35.623
693.694, 3.509
694.992, 5.090
696.290, 6.670
697.589, 6.248
698.886, 8.831
700.184, 25.404
701.482, 14.974
702.779, 20.542
704.076, 0.892
705.373, 20.745
706.669, 10.302
707.966, 17.861
709.262, 28.538
710.558, 10.124
711.854, 2.676
713.150, 8.776
714.445, 8.768
715.740, 16.310
717.035, 3.850
718.330, 2.387
719.625, 12.078
720.919, 2.451
722.214, 18.044
723.508, 0.568
724.801, 14.064
726.095, 9.610
727.388, 6.126
728.682, 7.640
729.975, 3.152
731.267, 2.975
732.560, 11.167
733.852, 2.329
735.145, 2.171
736.437, 7.331
737.728, 12.838
739.020, 3.777
740.311, 8.739
741.603, 7.741
742.894, 6.219
744.184, 5.307
745.475, 5.836
746.765, 17.370
748.055, 6.910
749.345, 7.545
750.635, 4.002
751.925, 6.446
753.214, 0.108
754.503, 7.336
755.792, 11.224
757.081, 13.212
758.370, 13.355
759.658, 6.072
760.946, 3.496
762.234, 5.918
763.522, 9.662
764.809, 8.247
766.097, 16.838
767.384, 4.566
768.671, 7.966
769.958, 3.365
771.244, 0.240
772.530, 15.153
773.817, 7.544
775.102, 8.068
776.388, 12.684
777.674, 7.694
778.959, 10.070
780.244, 16.444
781.529, 0.815
782.814, 11.816
784.098, 1.547
785.383, 17.092
786.667, 14.737
787.951, 9.611
789.235, 10.957
790.518, 0.302
791.801, 3.643
793.084, 25.983
794.367, 3.680
795.650, 10.653
796.933, 2.015
798.215, 8.686
799.497, 19.638
800.779, 1.040
802.061, 3.279
803.342, 11.596
804.624, 9.911
805.905, 6.225
807.186, 16.453
808.466, 13.762
809.747, 22.069
811.027, 6.676
812.307, 21.626
813.587, 3.925
814.867, 0.778
816.146, 15.518
817.426, 0.189
818.705, 7.102
819.984, 8.609
821.263, 6.324
822.541, 7.957
823.819, 17.763
825.098, 4.511
826.375, 2.217
827.653, 24.053
828.931, 8.321
830.208, 7.587
831.485, 13.148
832.762, 7.072
834.039, 8.297
835.315, 0.529
836.592, 0.244
837.868, 1.128
839.144, 1.246
840.420, 2.496
841.695, 1.744
842.970, 4.086
844.246, 6.158
845.521, 12.394
846.795, 6.364
848.070, 2.126
849.344, 7.103
850.618, 3.297
851.892, 22.266
853.166, 13.485
854.440, 8.716
855.713, 18.911
856.986, 26.097
858.259, 17.982
859.532, 4.833
860.804, 8.391
862.077, 26.561
863.349, 2.217
864.621, 10.996
865.893, 5.192
867.164, 9.395
868.436, 9.576
869.707, 8.455
870.978, 8.970
872.248, 11.068
873.519, 4.241
874.789, 10.221
876.060, 8.929
877.330, 12.249
878.599, 3.190
879.869, 14.386
881.138, 10.573
882.408, 15.593
883.677, 20.445
884.945, 15.339
886.214, 26.320
887.482, 20.513
888.751, 17.562
890.019, 29.750
891.287, 29.133
892.554, 26.081
893.822, 40.962
895.089, 35.164
896.356, 38.996
897.623, 65.183
898.889, 42.358
900.156, 60.544
901.422, 43.463
902.688, 20.416
903.954, 73.169
905.220, 27.351
906.485, 55.550
907.750, 54.728
909.015, 35.870
910.280, 39.071
911.545, 51.270
912.809, 24.233
914.074, 37.090
915.338, 31.291
916.602, 51.493
917.865, 37.696
919.129, 25.864
920.392, 52.746
921.655, 20.925
922.918, 40.688
924.181, 52.507
925.443, 24.712
926.706, 42.917
927.968, 39.086
929.230, 47.282
930.491, 49.489
931.753, 58.576
933.014, 31.784
934.276, 62.914
935.536, 40.889
936.797, 69.100
938.058, 45.258
939.318, 51.464
940.578, 39.678
941.838, 65.892
943.098, 79.108
944.358, 61.325
945.617, 71.543
946.876, 62.762
948.135, 67.808
949.394, 91.029
950.653, 56.252
951.911, 58.437
953.169, 75.662
954.427, 83.863
955.685, 107.091
956.943, 120.110
958.200, 112.186
959.458, 141.417
960.715, 151.233
961.971, 205.467
963.228, 265.648
964.485, 291.885
965.741, 339.124
966.997, 319.365
968.253, 360.306
969.508, 416.550
970.764, 472.796
972.019, 522.043
973.274, 583.283
974.529, 672.535
975.784, 843.788
977.039, 1046.042
978.293, 1377.299
979.547, 1961.484
980.801, 2928.745
982.055, 4967.007
983.308, 9272.149
984.562, 21512.385
985.815, 42801.652
987.068, 51910.926
988.321, 40570.199
989.573, 22889.473
990.826, 12118.752
992.078, 6977.032
993.330, 3904.314
994.582, 2481.601
995.833, 1725.823
997.085, 1238.115
998.336, 971.409
999.587, 769.678
1000.838, 694.977
1002.088, 577.278
1003.339, 530.581
1004.589, 463.887
1005.839, 401.195
1007.089, 358.505
1008.339, 306.819
1009.588, 280.135
1010.838, 278.454
1012.087, 226.651
1013.336, 240.977
1014.584, 194.307
1015.833, 177.639
1017.081, 172.974
1018.330, 195.313
1019.577, 176.655
1020.825, 161.002
1022.073, 122.352
1023.320, 129.705
1024.567, 146.061
1025.814, 124.420
1027.061, 110.782
1028.308, 114.147
1029.554, 108.517
1030.800, 131.889
1032.046, 89.266
1033.292, 98.645
1034.538, 81.029
1035.783, 41.416
1037.029, 64.806
1038.274, 70.202
1039.519, 50.603
1040.763, 59.008
1042.008, 58.416
1043.252, 45.826
1044.496, 36.240
1045.740, 49.657
1046.984, 78.076
1048.228, 61.499
1049.471, 50.927
1050.714, 22.357
1051.957, 44.790
1053.200, 40.226
1054.442, 27.665
1055.685, 37.109
1056.927, 45.555
1058.169, 37.006
1059.411, 27.463
1060.652, 45.922
1061.894, 2.385
1063.135, 4.850
1064.376, 11.319
1065.617, 30.793
1066.858, 21.271
1068.098, 12.753
1069.339, 15.239
1070.579, 19.348
1071.819, 8.221
1073.058, 33.717
1074.298, 42.216
1075.537, 36.719
1076.776, 63.224
1078.015, 51.733
1079.254, 31.245
1080.493, 93.761
1081.731, 68.284
1082.969, 53.811
1084.207, 89.341
1085.445, 75.873
1086.683, 74.409
1087.920, 55.948
1089.157, 76.492
1090.394, 100.039
1091.631, 108.593
1092.868, 150.150
1094.105, 190.710
1095.341, 275.276
1096.577, 392.846
1097.813, 522.419
1099.049, 791.995
1100.284, 1071.574
1101.519, 1398.156
1102.755, 1665.744
1103.990, 1574.335
1105.224, 1308.928
1106.459, 1033.525
1107.693, 732.124
1108.928, 501.726
1110.162, 377.331
1111.395, 292.939
1112.629, 231.550
1113.863, 173.164
1115.096, 146.782
1116.329, 115.902
1117.562, 102.026
1118.795, 95.654
1120.027, 102.285
1121.259, 112.919
1122.492, 125.555
1123.723, 68.195
1124.955, 92.837
1126.187, 90.481
1127.418, 108.129
1128.649, 145.779
1129.880, 154.583
1131.111, 238.238
1132.342, 366.897
1133.572, 555.558
1134.802, 820.222
1136.033, 1146.889
1137.262, 1238.558
1138.492, 1160.231
1139.722, 901.907
1140.951, 725.586
1142.180, 583.268
1143.409, 482.952
1144.638, 433.639
1145.866, 327.331
1147.095, 271.026
1148.323, 205.723
1149.551, 197.422
1150.779, 162.124
1152.006, 157.828
1153.234, 126.534
1154.461, 138.243
1155.688, 168.955
1156.915, 175.668
1158.141, 212.392
1159.368, 283.140
1160.594, 331.860
1161.820, 453.725
1163.046, 646.450
1164.272, 811.177
1165.498, 867.907
1166.723, 800.923
1167.948, 710.657
1169.173, 552.392
1170.398, 429.459
1171.623, 318.198
1172.847, 255.190
1174.071, 225.933
1175.295, 178.679
1176.519, 118.426
1177.743, 106.174
1178.966, 93.925
1180.190, 70.677
1181.413, 81.432
1182.636, 40.188
1183.858, 62.945
1185.081, 25.705
1186.303, 49.466
1187.526, 41.239
1188.748, 22.004
1189.969, 27.769
1191.191, 33.537
1192.412, 8.439
1193.634, 42.210
1194.855, 36.982
1196.076, 18.755
1197.296, 20.135
1198.517, 22.912
1199.737, 33.054
1200.957, 42.833
1202.177, 37.448
1203.397, 42.963
1204.617, 32.190
1205.836, 30.974
1207.055, 39.032
1208.274, 10.817
1209.493, 52.604
1210.712, 37.392
1211.930, 28.556
1213.148, 48.172
1214.367, 24.962
1215.584, 43.758
1216.802, 33.550
1218.020, 35.343
1219.237, 42.137
1220.454, 36.459
1221.671, 11.325
1222.888, 37.596
1224.105, 42.393
1225.321, 18.191
1226.537, 34.280
1227.753, 22.240
1228.969, 9.039
1230.185, 15.839
1231.400, 17.646
1232.616, 42.527
1233.831, 29.625
1235.046, 44.427
1236.261, 35.229
1237.475, 39.032
1238.689, 24.834
1239.904, 38.637
1241.118, 44.441
1242.332, 23.349
1243.545, 48.153
1244.759, 33.957
1245.972, 27.985
1247.185, 37.790
1248.398, 33.596
1249.611, 22.672
1250.823, 10.480
1252.036, 16.289
1253.248, 7.110
1254.460, 10.948
1255.671, 41.760
1256.883, 39.572
1258.095, 17.384
1259.306, 20.197
1260.517, 9.990
1261.728, 12.824
1262.938, 24.638
1264.149, 6.453
1265.359, 20.336
1266.569, 16.152
1267.779, 2.969
1268.989, 46.934
1270.199, 1.955
1271.408, 37.772
1272.617, 23.765
1273.826, 15.582
1275.035, 12.397
1276.244, 17.536
1277.452, 15.350
1278.661, 25.164
1279.869, 33.987
1281.077, 23.802
1282.285, 5.617
1283.492, 8.432
1284.700, 13.248
1285.907, 6.062
1287.114, 7.877
1288.321, 0.312
1289.527, 1.960
1290.734, 8.304
1291.940, 6.888
1293.146, 0.917
1294.352, 0.722
1295.558, 17.518
1296.763, 12.686
1297.969, 22.108
1299.174, 27.898
1300.379, 14.317
1301.584, 9.466
1302.788, 10.755
1303.993, 8.022
1305.197, 29.798
1306.401, 7.570
1307.605, 9.342
1308.809, 32.114
1310.013, 24.884
1311.216, 10.653
1312.419, 27.419
1313.622, 16.182
1314.825, 17.944
1316.028, 17.704
1317.230, 0.464
1318.432, 27.222
1319.634, 15.980
1320.836, 37.736
1322.038, 4.510
1323.240, 24.240
1324.441, 16.987
1325.642, 21.730
1326.843, 24.533
1328.044, 35.200
1329.245, 14.070
1330.445, 21.657
1331.645, 1.382
1332.845, 6.105
1334.045, 8.825
1335.245, 10.544
1336.445, 9.740
1337.644, 19.973
1338.843, 18.684
1340.042, 12.393
1341.241, 13.900
1342.440, 33.196
1343.638, 7.501
1344.836, 4.197
1346.034, 9.890
1347.232, 19.582
1348.430, 9.271
1349.628, 20.042
1350.825, 0.359
1352.022, 17.678
1353.219, 21.998
1354.416, 9.673
1355.613, 9.654
1356.809, 3.984
1358.005, 7.683
1359.202, 17.350
1360.398, 5.014
1361.593, 0.323
1362.789, 9.661
1363.984, 12.998
1365.179, 28.656
1366.374, 7.313
1367.569, 21.970
1368.764, 15.638
1369.958, 15.295
1371.153, 1.049
1372.347, 13.608
1373.541, 25.263
1374.735, 5.986
1375.928, 24.577
1377.122, 15.387
1378.315, 7.806
1379.508, 10.000
1380.701, 20.805
1381.893, 6.610
1383.086, 4.254
1384.278, 9.056
1385.470, 25.857
1386.662, 26.656
1387.854, 12.451
1389.046, 15.244
1390.237, 12.034
1391.428, 17.820
1392.619, 32.604
1393.810, 2.387
1395.001, 16.169
1396.191, 25.950
1397.382, 1.316
1398.572, 3.711
1399.762, 38.063
1400.952, 2.518
1402.141, 22.249
1403.331, 11.597
1404.520, 8.964
1405.709, 25.791
1406.898, 23.546
1408.087, 10.300
1409.275, 24.053
1410.464, 21.805
1411.652, 25.540
1412.840, 27.287
1414.028, 14.849
1415.215, 26.595
1416.403, 17.455
1417.590, 18.646
1418.777, 37.350
1419.964, 35.074
1421.151, 39.410
1422.338, 38.092
1423.524, 33.895
1424.710, 33.560
1425.896, 34.264
1427.082, 27.072
1428.268, 28.820
1429.453, 25.477
1430.639, 43.342
1431.824, 47.983
1433.009, 51.465
1434.194, 46.553
1435.378, 69.177
1436.563, 61.799
1437.747, 70.217
1438.931, 72.831
1440.115, 71.994
1441.299, 41.037
1442.482, 98.613
1443.666, 71.094
1444.849, 64.646
1446.032, 94.192
1447.215, 64.725
1448.397, 80.247
1449.580, 57.594
1450.762, 87.728
1451.944, 78.698
1453.126, 76.707
1454.308, 80.307
1455.490, 89.719
1456.671, 74.087
1457.852, 42.460
1459.033, 57.814
1460.214, 91.162
1461.395, 54.515
1462.575, 74.852
1463.756, 44.201
1464.936, 76.557
1466.116, 30.935
1467.296, 41.323
1468.475, 38.709
1469.655, 41.100
1470.834, 21.476
1472.013, 40.846
1473.192, 23.229
1474.371, 34.600
1475.550, 41.954
1476.728, 14.296
1477.906, 42.657
1479.084, 42.064
1480.262, 56.492
1481.440, 29.926
1482.617, 22.368
1483.795, 37.821
1484.972, 43.284
1486.149, 42.757
1487.326, 48.241
1488.502, 41.085
1489.679, 29.261
1490.855, 24.811
1492.031, 21.389
1493.207, 11.997
1494.383, 15.598
1495.559, 4.328
1496.734, 15.073
1497.909, 35.890
1499.084, 24.799
1500.259, 19.288
1501.434, 0.859
1502.608, 0.000
##END=



