##NAMES=Baryte
##RRUFFID=R040036
##IDEAL CHEMISTRY=BaS^6+^O_4_
##LOCALITY=Cumbria County, England
##OWNER=RRUFF
##SOURCE=University of Arizona Mineral Museum
##DESCRIPTION=Golden brown tabular crystal
##STATUS=The identification of this mineral has been confirmed by X-ray diffraction and chemical analysis
##URL=rruff.info/R040036
##MEASURED CHEMISTRY=Ba_1.00_S_1.00_O_4_; trace amounts of Pb
##PIN_ID=M00028
##ORIENTATION=Laser parallel to -a* (-1 0 0). Fiducial mark perpendicular to laser is parallel to -b [0 -1 0]
26.288, 0.000
27.694, 11.230
29.099, 20.305
30.504, 13.780
31.909, 25.465
33.313, 14.372
34.717, 19.298
36.121, 31.307
37.525, 34.350
38.929, 25.968
40.332, 19.781
41.735, 33.510
43.138, 40.435
44.541, 38.808
45.943, 57.115
47.345, 31.853
48.747, 46.438
50.149, 47.788
51.551, 36.177
52.952, 38.975
54.353, 44.556
55.754, 43.380
57.155, 76.016
58.555, 86.358
59.955, 84.810
61.355, 103.128
62.755, 103.875
64.154, 106.623
65.553, 77.383
66.952, 68.159
68.351, 65.950
69.750, 53.757
71.148, 57.581
72.546, 69.420
73.944, 59.272
75.342, 50.138
76.739, 26.016
78.136, 29.903
79.533, 4.798
80.930, 1.303
82.327, 0.599
83.723, 18.497
85.119, 18.590
86.515, 33.680
87.910, 30.766
89.306, 40.849
90.701, 23.926
92.096, 24.000
93.490, 14.068
94.885, 13.132
96.279, 12.810
97.673, 52.758
99.067, 68.711
100.461, 85.670
101.854, 88.642
103.247, 139.646
104.640, 127.679
106.032, 136.738
107.425, 193.819
108.817, 207.918
110.209, 286.033
111.601, 250.162
112.992, 364.301
114.384, 417.449
115.775, 587.603
117.166, 459.760
118.556, 438.917
119.947, 514.074
121.337, 485.229
122.727, 559.383
124.116, 479.536
125.506, 495.688
126.895, 524.838
128.284, 516.980
129.673, 610.109
131.062, 493.217
132.450, 547.294
133.838, 435.342
135.226, 458.367
136.614, 423.382
138.001, 364.400
139.388, 437.423
140.775, 371.453
142.162, 445.488
143.549, 390.529
144.935, 445.576
146.321, 463.630
147.707, 453.689
149.093, 548.754
150.478, 465.824
151.863, 551.901
153.248, 463.983
154.633, 470.072
156.018, 446.166
157.402, 394.266
158.786, 438.372
160.170, 337.484
161.554, 406.603
162.937, 331.727
164.320, 354.857
165.703, 357.994
167.086, 321.137
168.469, 365.286
169.851, 286.442
171.233, 346.604
172.615, 299.772
173.996, 326.946
175.378, 321.127
176.759, 282.076
178.140, 337.006
179.521, 266.910
180.901, 346.788
182.281, 271.637
183.662, 289.457
185.041, 314.247
186.421, 286.008
187.800, 415.739
189.180, 351.442
190.558, 411.105
191.937, 370.745
193.316, 350.351
194.694, 357.926
196.072, 268.474
197.450, 340.973
198.827, 239.474
200.205, 294.958
201.582, 270.391
202.959, 256.799
204.336, 294.178
205.712, 247.468
207.088, 286.750
208.465, 218.977
209.840, 286.167
211.216, 237.340
212.591, 228.518
213.967, 277.700
215.341, 204.887
216.716, 276.061
218.091, 206.233
219.465, 258.358
220.839, 247.508
222.213, 198.718
223.586, 274.893
224.960, 181.044
226.333, 257.040
227.706, 199.083
229.079, 210.835
230.451, 249.477
231.823, 190.176
233.195, 251.444
234.567, 166.723
235.939, 229.664
237.310, 197.685
238.682, 208.485
240.052, 224.690
241.423, 133.907
242.794, 235.368
244.164, 176.863
245.534, 211.884
246.904, 191.169
248.274, 137.462
249.643, 228.760
251.012, 128.062
252.381, 212.368
253.750, 158.678
255.118, 171.993
256.487, 195.312
257.855, 153.635
259.223, 219.962
260.590, 130.293
261.958, 210.656
263.325, 160.995
264.692, 183.338
266.059, 210.685
267.425, 129.036
268.791, 202.392
270.158, 132.751
271.523, 200.114
272.889, 155.481
274.255, 155.853
275.620, 183.229
276.985, 120.610
278.350, 208.995
279.714, 147.385
281.078, 188.779
282.443, 194.179
283.806, 114.583
285.170, 202.992
286.534, 99.406
287.897, 175.825
289.260, 136.250
290.623, 140.679
291.985, 160.113
293.348, 97.553
294.710, 197.997
296.072, 85.447
297.433, 143.901
298.795, 139.361
300.156, 101.825
301.517, 164.295
302.878, 83.769
304.239, 161.249
305.599, 89.733
306.959, 141.223
308.319, 146.717
309.679, 66.217
311.038, 190.721
312.398, 64.231
313.757, 150.745
315.116, 104.265
316.474, 118.789
317.833, 141.318
319.191, 73.853
320.549, 143.392
321.907, 79.936
323.264, 114.486
324.622, 100.036
325.979, 65.589
327.336, 158.143
328.692, 36.698
330.049, 157.256
331.405, 108.816
332.761, 100.379
334.117, 119.944
335.473, 33.511
336.828, 158.082
338.183, 54.655
339.538, 124.232
340.893, 109.812
342.247, 42.395
343.602, 160.982
344.956, 31.573
346.310, 151.169
347.663, 80.768
349.017, 70.371
350.370, 114.979
351.723, 44.591
353.076, 133.209
354.428, 39.832
355.780, 92.460
357.133, 90.093
358.484, 35.732
359.836, 105.378
361.188, 15.028
362.539, 132.684
363.890, 32.350
365.241, 49.018
366.591, 87.692
367.942, 31.372
369.292, 106.057
370.642, 0.251
371.992, 80.446
373.341, 89.150
374.691, 19.861
376.040, 120.579
377.388, 23.306
378.737, 103.041
380.086, 77.786
381.434, 48.542
382.782, 117.310
384.130, 25.090
385.477, 119.882
386.825, 12.684
388.172, 90.496
389.519, 89.322
390.865, 69.157
392.212, 133.998
393.558, 37.927
394.904, 119.780
396.250, 50.640
397.596, 74.506
398.941, 118.377
400.286, 15.254
401.631, 120.136
402.976, 35.025
404.321, 62.920
405.665, 74.821
407.009, 4.207
408.353, 94.704
409.697, 1.621
411.040, 81.543
412.384, 63.470
413.727, 13.403
415.070, 118.342
416.412, 25.287
417.755, 130.238
419.097, 62.195
420.439, 68.382
421.781, 130.350
423.122, 30.326
424.464, 138.308
425.805, 55.295
427.146, 128.305
428.486, 140.303
429.827, 86.310
431.167, 222.321
432.507, 134.337
433.847, 266.360
435.187, 250.388
436.526, 280.463
437.865, 438.505
439.204, 417.552
440.543, 619.608
441.882, 705.668
443.220, 968.736
444.558, 1303.810
445.896, 1601.888
447.234, 2327.972
448.572, 3063.061
449.909, 4434.154
451.246, 5825.254
452.583, 7523.358
453.919, 8687.469
455.256, 7782.586
456.592, 6359.713
457.928, 4524.844
459.264, 3294.981
460.600, 2343.123
461.935, 1721.270
463.270, 1456.423
464.605, 1065.581
465.940, 806.744
467.274, 645.917
468.609, 435.094
469.943, 481.278
471.277, 267.467
472.610, 299.661
473.944, 248.865
475.277, 147.075
476.610, 237.290
477.943, 126.509
479.275, 180.732
480.608, 102.964
481.940, 97.201
483.272, 163.443
484.604, 41.688
485.935, 133.939
487.267, 66.196
488.598, 52.457
489.929, 105.723
491.260, 34.994
492.590, 139.268
493.920, 28.549
495.250, 73.835
496.580, 102.124
497.910, 7.418
499.239, 114.716
500.569, 4.022
501.898, 86.332
503.226, 71.647
504.555, 32.966
505.883, 101.289
507.212, 0.617
508.540, 100.949
509.867, 43.285
511.195, 57.626
512.522, 112.971
513.849, 24.319
515.176, 118.662
516.503, 52.018
517.829, 57.379
519.156, 100.744
520.482, 9.113
521.808, 144.485
523.133, 41.861
524.459, 54.240
525.784, 77.641
527.109, 1.027
528.434, 124.416
529.758, 16.809
531.083, 77.205
532.407, 85.283
533.731, 2.686
535.055, 114.091
536.378, 10.500
537.701, 77.912
539.025, 58.661
540.348, 23.078
541.670, 109.499
542.993, 13.922
544.315, 116.349
545.637, 33.117
546.959, 39.550
548.281, 96.985
549.602, 8.577
550.923, 93.837
552.244, 30.280
553.565, 53.726
554.886, 88.175
556.206, 4.626
557.526, 82.081
558.846, 6.886
560.166, 42.345
561.486, 45.806
562.805, 20.731
564.124, 138.733
565.443, 5.001
566.762, 51.468
568.080, 89.937
569.399, 2.592
570.717, 82.880
572.035, 0.916
573.352, 101.391
574.670, 48.869
575.987, 18.588
577.304, 118.068
578.621, 4.710
579.938, 96.772
581.254, 71.256
582.570, 4.371
583.886, 125.857
585.202, 3.871
586.518, 144.359
587.833, 69.848
589.148, 24.433
590.463, 133.924
591.778, 6.427
593.093, 132.919
594.407, 58.413
595.721, 81.531
597.035, 148.026
598.349, 43.569
599.662, 159.069
600.976, 66.570
602.289, 120.217
603.602, 190.718
604.914, 106.590
606.227, 231.091
607.539, 192.593
608.851, 308.151
610.163, 427.653
611.475, 460.551
612.786, 819.053
614.097, 989.555
615.408, 1523.534
616.719, 2080.036
618.030, 2166.557
619.340, 2299.058
620.651, 1813.559
621.961, 1459.914
623.270, 1225.414
624.580, 861.914
625.889, 891.413
627.199, 622.911
628.507, 621.876
629.816, 584.372
631.125, 497.868
632.433, 540.363
633.741, 375.858
635.049, 359.735
636.357, 283.227
637.664, 196.719
638.972, 307.209
640.279, 159.699
641.586, 217.954
642.893, 203.441
644.199, 133.005
645.505, 270.490
646.811, 123.973
648.117, 212.769
649.423, 203.246
650.728, 118.726
652.034, 245.290
653.339, 75.766
654.644, 183.255
655.948, 109.728
657.253, 59.200
658.557, 145.900
659.861, 22.368
661.165, 124.930
662.468, 80.395
663.772, 37.858
665.075, 145.319
666.378, 0.778
667.681, 88.235
668.983, 90.689
670.286, 5.142
671.588, 111.811
672.890, 27.740
674.192, 87.701
675.493, 62.139
676.795, 7.576
678.096, 83.267
679.397, 12.301
680.697, 83.126
681.998, 21.550
683.298, 13.972
684.598, 91.778
685.898, 11.804
687.198, 63.607
688.498, 42.034
689.797, 38.441
691.096, 117.121
692.395, 14.523
693.694, 94.923
694.992, 34.523
696.290, 13.917
697.589, 98.558
698.886, 11.052
700.184, 103.331
701.482, 59.748
702.779, 10.126
704.076, 106.367
705.373, 30.261
706.669, 84.101
707.966, 31.461
709.262, 19.817
710.558, 108.153
711.854, 19.496
713.150, 70.846
714.445, 45.214
715.740, 5.449
717.035, 118.882
718.330, 26.789
719.625, 62.491
720.919, 53.807
722.214, 21.880
723.508, 101.423
724.801, 17.276
726.095, 70.016
727.388, 61.306
728.682, 1.593
729.975, 119.875
731.267, 7.155
732.560, 64.431
733.852, 63.704
735.145, 21.026
736.437, 111.235
737.728, 38.640
739.020, 80.605
740.311, 77.847
741.603, 0.085
742.894, 113.319
744.184, 9.450
745.475, 78.774
746.765, 73.994
748.055, 38.788
749.345, 114.416
750.635, 10.365
751.925, 32.829
753.214, 93.020
754.503, 56.792
755.792, 70.379
757.081, 8.546
758.370, 22.710
759.658, 78.871
760.946, 29.971
762.234, 94.176
763.522, 23.319
764.809, 54.459
766.097, 117.597
767.384, 13.269
768.671, 93.857
769.958, 31.980
771.244, 32.100
772.530, 97.217
773.817, 9.669
775.102, 110.438
776.388, 26.542
777.674, 23.643
778.959, 119.741
780.244, 26.164
781.529, 117.921
782.814, 4.002
784.098, 15.079
785.383, 141.154
786.667, 6.775
787.951, 83.291
789.235, 68.353
790.518, 3.413
791.801, 147.468
793.084, 9.521
794.367, 76.570
795.650, 110.617
796.933, 3.340
798.215, 132.699
799.497, 2.734
800.779, 73.766
802.061, 96.794
803.342, 13.820
804.624, 130.843
805.905, 23.846
807.186, 77.863
808.466, 84.878
809.747, 3.110
811.027, 142.897
812.307, 22.224
813.587, 68.225
814.867, 97.224
816.146, 8.779
817.426, 133.212
818.705, 20.866
819.984, 27.852
821.263, 113.835
822.541, 11.184
823.819, 114.790
825.098, 70.425
826.375, 6.394
827.653, 109.361
828.931, 9.675
830.208, 100.284
831.485, 67.241
832.762, 3.805
834.039, 123.145
835.315, 5.907
836.592, 64.035
837.868, 86.627
839.144, 3.566
840.420, 158.501
841.695, 0.435
842.970, 101.366
844.246, 154.492
845.521, 16.419
846.795, 181.345
848.070, 45.268
849.344, 121.189
850.618, 175.547
851.892, 2.464
853.166, 175.379
854.440, 87.052
855.713, 63.964
856.986, 188.133
858.259, 47.041
859.532, 205.948
860.804, 159.223
862.077, 101.128
863.349, 233.504
864.621, 60.405
865.893, 172.305
867.164, 172.109
868.436, 45.006
869.707, 127.890
870.978, 10.784
872.248, 46.677
873.519, 57.945
874.789, 36.165
876.060, 132.672
877.330, 55.552
878.599, 91.430
879.869, 159.161
881.138, 26.038
882.408, 156.543
883.677, 47.418
884.945, 79.292
886.214, 168.111
887.482, 1.005
888.751, 157.482
890.019, 67.364
891.287, 46.245
892.554, 169.648
893.822, 40.531
895.089, 183.394
896.356, 166.276
897.623, 59.158
898.889, 211.184
900.156, 93.065
901.422, 138.945
902.688, 172.825
903.954, 67.705
905.220, 188.118
906.485, 112.997
907.750, 82.879
909.015, 202.761
910.280, 21.643
911.545, 162.141
912.809, 95.023
914.074, 34.905
915.338, 194.787
916.602, 29.669
917.865, 134.790
919.129, 156.678
920.392, 43.488
921.655, 144.376
922.918, 24.265
924.181, 103.840
925.443, 139.729
926.706, 28.619
927.968, 172.423
929.230, 82.315
930.491, 74.193
931.753, 177.086
933.014, 8.979
934.276, 161.644
935.536, 108.538
936.797, 64.339
938.058, 145.237
939.318, 70.136
940.578, 117.036
941.838, 136.936
943.098, 35.837
944.358, 163.739
945.617, 68.642
946.876, 95.328
948.135, 158.234
949.394, 32.145
950.653, 162.056
951.911, 126.968
953.169, 90.543
954.427, 225.457
955.685, 62.374
956.943, 140.291
958.200, 141.211
959.458, 52.745
960.715, 231.667
961.971, 134.592
963.228, 199.500
964.485, 291.427
965.741, 245.013
966.997, 394.943
968.253, 342.875
969.508, 307.607
970.764, 458.542
972.019, 369.229
973.274, 532.167
974.529, 586.108
975.784, 571.013
977.039, 837.957
978.293, 811.810
979.547, 1130.757
980.801, 1628.708
982.055, 2154.662
983.308, 3622.616
984.562, 6062.573
985.815, 12782.530
987.068, 28181.492
988.321, 43280.426
989.573, 43479.398
990.826, 27778.359
992.078, 14927.330
993.330, 8174.305
994.582, 4614.282
995.833, 2845.406
997.085, 1907.389
998.336, 1258.374
999.587, 1171.364
1000.838, 887.356
1002.088, 743.349
1003.339, 808.345
1004.589, 539.342
1005.839, 575.342
1007.089, 467.343
1008.339, 316.345
1009.588, 446.353
1010.838, 256.495
1012.087, 300.511
1013.336, 335.529
1014.584, 178.549
1015.833, 317.572
1017.081, 248.597
1018.330, 223.625
1019.577, 354.770
1020.825, 159.802
1022.073, 294.135
1023.320, 243.158
1024.567, 154.202
1025.814, 304.249
1027.061, 133.297
1028.308, 192.977
1029.554, 212.036
1030.800, 62.097
1032.046, 218.160
1033.292, 125.224
1034.538, 120.295
1035.783, 228.369
1037.029, 82.445
1038.274, 147.523
1039.519, 149.603
1040.763, 17.686
1042.008, 203.301
1043.252, 82.388
1044.496, 112.477
1045.740, 155.591
1046.984, 38.688
1048.228, 185.787
1049.471, 135.889
1050.714, 59.991
1051.957, 202.261
1053.200, 94.371
1054.442, 199.483
1055.685, 256.597
1056.927, 224.712
1058.169, 344.869
1059.411, 149.990
1060.652, 131.112
1061.894, 207.395
1063.135, 58.522
1064.376, 135.650
1065.617, 118.859
1066.858, 25.990
1068.098, 168.196
1069.339, 41.332
1070.579, 100.469
1071.819, 243.067
1073.058, 72.208
1074.298, 235.352
1075.537, 200.496
1076.776, 176.643
1078.015, 333.801
1079.254, 194.950
1080.493, 411.101
1081.731, 513.685
1082.969, 487.840
1084.207, 694.997
1085.445, 599.155
1086.683, 538.314
1087.920, 553.476
1089.157, 292.641
1090.394, 355.806
1091.631, 278.193
1092.868, 176.365
1094.105, 329.539
1095.341, 194.715
1096.577, 272.893
1097.813, 464.101
1099.049, 360.282
1100.284, 696.465
1101.519, 860.046
1102.755, 1070.232
1103.990, 1519.420
1105.224, 1414.610
1106.459, 1334.804
1107.693, 1138.000
1108.928, 725.196
1110.162, 685.398
1111.395, 427.605
1112.629, 294.809
1113.863, 408.015
1115.096, 173.223
1116.329, 220.432
1117.562, 245.642
1118.795, 62.854
1120.027, 210.067
1121.259, 118.280
1122.492, 66.495
1123.723, 201.711
1124.955, 37.928
1126.187, 89.146
1127.418, 100.365
1128.649, 9.416
1129.880, 156.803
1131.111, 26.269
1132.342, 48.490
1133.572, 155.712
1134.802, 13.942
1136.033, 125.166
1137.262, 105.394
1138.492, 36.622
1139.722, 196.851
1140.951, 58.081
1142.180, 73.312
1143.409, 191.546
1144.638, 17.785
1145.866, 171.024
1147.095, 103.265
1148.323, 19.506
1149.551, 153.748
1150.779, 20.990
1152.006, 6.767
1153.234, 50.475
1154.461, 100.282
1155.688, 52.940
1156.915, 18.163
1158.141, 6.435
1159.368, 123.659
1160.594, 28.114
1161.820, 69.107
1163.046, 121.329
1164.272, 7.550
1165.498, 192.772
1166.723, 75.995
1167.948, 21.624
1169.173, 165.847
1170.398, 7.070
1171.623, 59.293
1172.847, 118.517
1174.071, 23.259
1175.295, 116.959
1176.519, 66.178
1177.743, 0.009
1178.966, 141.227
1180.190, 30.445
1181.413, 66.664
1182.636, 112.882
1183.858, 49.899
1185.081, 155.307
1186.303, 62.514
1187.526, 4.778
1188.748, 138.984
1189.969, 0.809
1191.191, 61.431
1192.412, 100.636
1193.634, 6.159
1194.855, 134.044
1196.076, 20.247
1197.296, 2.551
1198.517, 153.650
1199.737, 2.149
1200.957, 75.092
1202.177, 118.290
1203.397, 18.511
1204.617, 142.769
1205.836, 54.961
1207.055, 9.153
1208.274, 162.345
1209.493, 4.536
1210.712, 76.726
1211.930, 109.916
1213.148, 16.895
1214.367, 151.289
1215.584, 97.472
1216.802, 35.655
1218.020, 187.837
1219.237, 26.018
1220.454, 107.238
1221.671, 148.418
1222.888, 7.403
1224.105, 150.422
1225.321, 74.596
1226.537, 28.771
1227.753, 140.996
1228.969, 3.168
1230.185, 94.351
1231.400, 154.521
1232.616, 14.310
1233.831, 153.878
1235.046, 109.041
1236.261, 26.204
1237.475, 217.823
1238.689, 62.984
1239.904, 128.144
1241.118, 246.134
1242.332, 11.292
1243.545, 185.450
1244.759, 153.608
1245.972, 52.765
1247.185, 208.154
1248.398, 68.308
1249.611, 99.461
1250.823, 189.613
1252.036, 14.765
1253.248, 141.916
1254.460, 153.067
1255.671, 21.215
1256.883, 183.363
1258.095, 89.510
1259.306, 75.656
1260.517, 171.693
1261.728, 6.163
1262.938, 76.980
1264.149, 127.330
1265.359, 13.471
1266.569, 179.611
1267.779, 95.237
1268.989, 70.375
1270.199, 213.566
1271.408, 69.703
1272.617, 146.838
1273.826, 181.513
1275.035, 39.644
1276.244, 216.774
1277.452, 99.985
1278.661, 37.110
1279.869, 174.233
1281.077, 41.356
1282.285, 108.477
1283.492, 183.538
1284.700, 49.657
1285.907, 178.482
1287.114, 132.903
1288.321, 6.019
1289.527, 186.134
1290.734, 53.647
1291.940, 81.138
1293.146, 174.249
1294.352, 41.360
1295.558, 122.470
1296.763, 134.579
1297.969, 12.312
1299.174, 183.793
1300.379, 81.943
1301.584, 71.041
1302.788, 221.139
1303.993, 44.235
1305.197, 140.802
1306.401, 139.896
1307.605, 21.014
1308.809, 214.052
1310.013, 117.130
1311.216, 44.206
1312.419, 213.279
1313.622, 68.351
1314.825, 80.257
1316.028, 180.328
1317.230, 5.397
1318.432, 127.465
1319.634, 96.531
1320.836, 10.555
1322.038, 187.617
1323.240, 100.672
1324.441, 77.566
1325.642, 188.612
1326.843, 34.656
1328.044, 133.618
1329.245, 172.658
1330.445, 9.623
1331.645, 190.660
1332.845, 143.690
1334.045, 2.256
1335.245, 203.277
1336.445, 28.296
1337.644, 88.313
1338.843, 151.327
1340.042, 20.329
1341.241, 130.339
1342.440, 145.347
1343.638, 54.922
1344.836, 161.927
1346.034, 80.929
1347.232, 29.929
1348.430, 193.927
1349.628, 10.924
1350.825, 99.918
1352.022, 136.911
1353.219, 22.319
1354.416, 151.668
1355.613, 73.653
1356.809, 8.637
1358.005, 199.621
1359.202, 17.574
1360.398, 56.557
1361.593, 147.538
1362.789, 15.124
1363.984, 108.107
1365.179, 108.090
1366.374, 13.902
1367.569, 202.082
1368.764, 61.069
1369.958, 29.792
1371.153, 159.198
1372.347, 54.187
1373.541, 71.489
1374.735, 198.443
1375.928, 3.953
1377.122, 112.128
1378.315, 140.206
1379.508, 40.283
1380.701, 192.357
1381.893, 78.430
1383.086, 70.502
1384.278, 165.310
1385.470, 33.367
1386.662, 94.427
1387.854, 160.481
1389.046, 14.533
1390.237, 200.577
1391.428, 106.618
1392.619, 2.344
1393.810, 183.692
1395.001, 54.727
1396.191, 14.216
1397.382, 185.780
1398.572, 11.829
1399.762, 132.881
1400.952, 154.930
1402.141, 16.533
1403.331, 151.507
1404.520, 85.544
1405.709, 6.587
1406.898, 195.821
1408.087, 46.851
1409.275, 66.879
1410.464, 174.921
1411.652, 11.883
1412.840, 125.874
1414.028, 166.911
1415.215, 6.049
1416.403, 147.991
1417.590, 98.969
1418.777, 9.991
1419.964, 207.924
1421.151, 32.970
1422.338, 78.016
1423.524, 187.062
1424.710, 33.117
1425.896, 108.172
1427.082, 161.163
1428.268, 16.220
1429.453, 224.165
1430.639, 134.120
1431.824, 32.146
1433.009, 264.194
1434.194, 117.209
1435.378, 126.411
1436.563, 272.455
1437.747, 119.889
1438.931, 202.900
1440.115, 260.441
1441.299, 108.445
1442.482, 353.446
1443.666, 263.443
1444.849, 155.442
1446.032, 369.438
1447.215, 228.348
1448.397, 197.854
1449.580, 377.828
1450.762, 185.622
1451.944, 323.429
1453.126, 371.994
1454.308, 203.899
1455.490, 354.589
1456.671, 304.495
1457.852, 184.237
1459.033, 415.126
1460.214, 252.109
1461.395, 212.745
1462.575, 342.546
1463.756, 199.332
1464.936, 254.099
1466.116, 278.696
1467.296, 111.458
1468.475, 254.202
1469.655, 221.940
1470.834, 75.699
1472.013, 254.478
1473.192, 141.247
1474.371, 73.996
1475.550, 276.723
1476.728, 50.450
1477.906, 160.213
1479.084, 247.030
1480.262, 67.847
1481.440, 195.661
1482.617, 209.556
1483.795, 44.496
1484.972, 221.461
1486.149, 135.457
1487.326, 29.486
1488.502, 270.551
1489.679, 102.665
1490.855, 97.844
1492.031, 218.094
1493.207, 23.428
1494.383, 139.853
1495.559, 163.388
1496.734, 5.060
1497.909, 141.904
1499.084, 104.252
1500.259, 3.130
1501.434, 206.850
1502.608, 0.000
##END=



