##NAMES=Baryte
##RRUFFID=R040036
##IDEAL CHEMISTRY=BaS^6+^O_4_
##LOCALITY=Cumbria County, England
##OWNER=RRUFF
##SOURCE=University of Arizona Mineral Museum
##DESCRIPTION=Golden brown tabular crystal
##STATUS=The identification of this mineral has been confirmed by X-ray diffraction and chemical analysis
##URL=rruff.info/R040036
##MEASURED CHEMISTRY=Ba_1.00_S_1.00_O_4_; trace amounts of Pb
##PIN_ID=M00019
##ORIENTATION=Laser parallel to b* (0 1 0). Fiducial mark perpendicular to laser is parallel to c [0 0 1]
26.288, 0.000
27.694, 38.829
29.099, 37.711
30.504, 36.009
31.909, 48.688
33.313, 33.424
34.717, 25.971
36.121, 58.578
37.525, 30.546
38.929, 37.757
40.332, 29.753
41.735, 34.562
43.138, 28.442
44.541, 38.610
45.943, 17.223
47.345, 22.811
48.747, 48.093
50.149, 21.298
51.551, 27.901
52.952, 35.628
54.353, 33.523
55.754, 48.319
57.155, 53.140
58.555, 40.802
59.955, 53.860
61.355, 45.840
62.755, 29.957
64.154, 22.502
65.553, 21.194
66.952, 28.798
68.351, 29.027
69.750, 30.899
71.148, 39.775
72.546, 34.657
73.944, 19.547
75.342, 11.514
76.739, 19.660
78.136, 17.574
79.533, 15.559
80.930, 5.566
82.327, 15.617
83.723, 23.400
85.119, 9.495
86.515, 23.599
87.910, 22.713
89.306, 14.837
90.701, 2.973
92.096, 23.123
93.490, 9.286
94.885, 11.460
96.279, 26.378
97.673, 23.506
99.067, 39.519
100.461, 41.457
101.854, 46.383
103.247, 19.172
104.640, 13.985
106.032, 10.820
107.425, 20.672
108.817, 39.537
110.209, 52.411
111.601, 86.291
112.992, 97.040
114.384, 105.186
115.775, 117.166
117.166, 109.139
118.556, 90.062
119.947, 84.160
121.337, 67.233
122.727, 62.484
124.116, 50.588
125.506, 41.641
126.895, 50.888
128.284, 65.772
129.673, 58.792
131.062, 55.834
132.450, 48.711
133.838, 57.613
135.226, 47.111
136.614, 43.990
138.001, 52.898
139.388, 66.634
140.775, 47.465
142.162, 54.165
143.549, 57.821
144.935, 58.548
146.321, 80.244
147.707, 117.944
149.093, 120.628
150.478, 154.338
151.863, 177.872
153.248, 165.556
154.633, 147.047
156.018, 134.624
157.402, 122.153
158.786, 85.724
160.170, 74.332
161.554, 64.849
162.937, 53.328
164.320, 58.814
165.703, 46.225
167.086, 32.924
168.469, 30.332
169.851, 41.079
171.233, 31.560
172.615, 32.939
173.996, 44.425
175.378, 32.837
176.759, 44.447
178.140, 56.030
179.521, 49.568
180.901, 74.048
182.281, 79.502
183.662, 110.937
185.041, 147.314
186.421, 198.684
187.800, 226.958
189.180, 236.208
190.558, 209.406
191.937, 179.548
193.316, 135.740
194.694, 112.745
196.072, 80.611
197.450, 73.522
198.827, 57.378
200.205, 51.196
201.582, 40.060
202.959, 34.854
204.336, 37.556
205.712, 42.271
207.088, 38.854
208.465, 47.402
209.840, 37.930
211.216, 29.422
212.591, 29.861
213.967, 31.174
215.341, 27.467
216.716, 21.804
218.091, 11.132
219.465, 19.475
220.839, 26.938
222.213, 15.328
223.586, 34.521
224.960, 14.670
226.333, 7.858
227.706, 35.052
229.079, 30.228
230.451, 20.237
231.823, 20.402
233.195, 16.816
234.567, 12.491
235.939, 20.836
237.310, 24.198
238.682, 17.742
240.052, 15.559
241.423, 1.096
242.794, 7.431
244.164, 6.179
245.534, 17.370
246.904, 9.538
248.274, 5.780
249.643, 14.026
251.012, 23.291
252.381, 6.438
253.750, 13.500
255.118, 20.527
256.487, 15.644
257.855, 25.857
259.223, 15.126
260.590, 6.409
261.958, 20.686
263.325, 8.957
264.692, 20.223
266.059, 6.483
267.425, 19.738
268.791, 6.986
270.158, 19.228
271.523, 13.464
272.889, 5.673
274.255, 33.835
275.620, 15.034
276.985, 2.245
278.350, 19.450
279.714, 19.650
281.078, 31.820
282.443, 11.009
283.806, 22.158
285.170, 22.289
286.534, 17.457
287.897, 20.623
289.260, 8.759
290.623, 7.916
291.985, 12.069
293.348, 18.216
294.710, 16.781
296.072, 22.499
297.433, 17.635
298.795, 17.765
300.156, 18.893
301.517, 6.016
302.878, 9.135
304.239, 7.251
305.599, 16.362
306.959, 17.470
308.319, 32.575
309.679, 6.324
311.038, 6.772
312.398, 18.865
313.757, 6.942
315.116, 25.954
316.474, 18.952
317.833, 5.996
319.191, 13.993
320.549, 19.995
321.907, 13.048
323.264, 13.045
324.622, 11.087
325.979, 12.135
327.336, 15.175
328.692, 11.206
330.049, 5.230
331.405, 8.246
332.761, 0.254
334.117, 9.254
335.473, 4.247
336.828, 6.232
338.183, 9.211
339.538, 2.816
340.893, 18.149
342.247, 24.108
343.602, 9.062
344.956, 23.011
346.310, 8.955
347.663, 1.106
349.017, 9.790
350.370, 18.658
351.723, 11.534
353.076, 24.428
354.428, 13.304
355.780, 13.216
357.133, 6.081
358.484, 0.095
359.836, 10.728
361.188, 9.555
362.539, 12.364
363.890, 13.144
365.241, 10.860
366.591, 2.374
367.942, 2.424
369.292, 21.166
370.642, 10.996
371.992, 19.734
373.341, 13.414
374.691, 12.245
376.040, 22.052
377.388, 12.814
378.737, 6.576
380.086, 22.326
381.434, 32.060
382.782, 22.838
384.130, 28.638
385.477, 19.413
386.825, 30.179
388.172, 36.792
389.519, 38.264
390.865, 47.988
392.212, 46.792
393.558, 22.526
394.904, 42.246
396.250, 22.015
397.596, 9.826
398.941, 29.550
400.286, 35.315
401.631, 33.112
402.976, 29.886
404.321, 40.707
405.665, 31.476
407.009, 34.200
408.353, 29.993
409.697, 43.730
411.040, 41.518
412.384, 42.240
413.727, 43.023
415.070, 50.165
416.412, 51.525
417.755, 69.275
419.097, 75.987
420.439, 87.826
421.781, 100.646
423.122, 101.263
424.464, 119.038
425.805, 147.814
427.146, 147.645
428.486, 172.379
429.827, 217.167
431.167, 251.954
432.507, 304.719
433.847, 356.498
435.187, 439.255
436.526, 574.974
437.865, 731.711
439.204, 912.478
440.543, 1161.237
441.882, 1495.023
443.220, 1986.786
444.558, 2672.549
445.896, 3710.316
447.234, 5084.022
448.572, 7197.744
449.909, 9779.477
451.246, 12009.229
452.583, 13558.988
453.919, 12328.796
455.256, 9848.320
456.592, 7114.029
457.928, 4881.795
459.264, 3428.505
460.600, 2305.302
461.935, 1689.069
463.270, 1245.777
464.605, 931.522
465.940, 728.294
467.274, 586.035
468.609, 454.778
469.943, 379.511
471.277, 320.249
472.610, 274.002
473.944, 232.736
475.277, 193.444
476.610, 184.165
477.943, 150.844
479.275, 152.570
480.608, 137.273
481.940, 129.985
483.272, 124.198
484.604, 118.339
485.935, 104.106
487.267, 101.901
488.598, 80.626
489.929, 75.416
491.260, 88.141
492.590, 61.805
493.920, 74.534
495.250, 82.305
496.580, 44.044
497.910, 60.833
499.239, 54.581
500.569, 59.328
501.898, 57.043
503.226, 59.726
504.555, 65.463
505.883, 56.197
507.212, 76.944
508.540, 67.695
509.867, 69.436
511.195, 43.094
512.522, 67.798
513.849, 65.585
515.176, 83.329
516.503, 62.114
517.829, 67.871
519.156, 61.621
520.482, 67.407
521.808, 70.161
523.133, 61.887
524.459, 48.673
525.784, 49.461
527.109, 51.247
528.434, 52.073
529.758, 63.858
531.083, 39.667
532.407, 68.536
533.731, 47.322
535.055, 56.123
536.378, 44.933
537.701, 34.718
539.025, 27.512
540.348, 23.295
541.670, 27.070
542.993, 27.854
544.315, 38.639
545.637, 27.496
546.959, 37.280
548.281, 20.062
549.602, 20.846
550.923, 24.663
552.244, 29.443
553.565, 29.222
554.886, 28.549
556.206, 32.823
557.526, 23.603
558.846, 24.382
560.166, 24.160
561.486, 20.362
562.805, 16.751
564.124, 19.829
565.443, 18.615
566.762, 22.411
568.080, 26.423
569.399, 22.207
570.717, 27.353
572.035, 18.210
573.352, 30.996
574.670, 27.028
575.987, 24.842
577.304, 3.630
578.621, 24.574
579.938, 18.337
581.254, 21.323
582.570, 24.113
583.886, 29.211
585.202, 30.978
586.518, 20.769
587.833, 24.546
589.148, 21.427
590.463, 32.180
591.778, 6.945
593.093, 32.702
594.407, 18.598
595.721, 28.458
597.035, 22.560
598.349, 45.697
599.662, 45.452
600.976, 48.235
602.289, 60.054
603.602, 70.975
604.914, 88.254
606.227, 112.029
607.539, 135.766
608.851, 212.821
610.163, 301.003
611.475, 492.869
612.786, 711.657
614.097, 1202.568
615.408, 1622.420
616.719, 1843.446
618.030, 1636.366
619.340, 1254.103
620.651, 918.999
621.961, 674.732
623.270, 515.450
624.580, 421.167
625.889, 395.037
627.199, 402.785
628.507, 450.724
629.816, 443.434
631.125, 447.160
632.433, 410.866
633.741, 353.583
635.049, 272.532
636.357, 264.330
637.664, 265.115
638.972, 250.812
640.279, 247.713
641.586, 299.412
642.893, 341.312
644.199, 391.007
645.505, 462.694
646.811, 504.769
648.117, 506.452
649.423, 462.134
650.728, 351.812
652.034, 270.655
653.339, 204.330
654.644, 142.003
655.948, 118.719
657.253, 101.387
658.557, 74.053
659.861, 55.717
661.165, 60.378
662.468, 45.084
663.772, 56.778
665.075, 36.763
666.378, 28.671
667.681, 26.320
668.983, 5.967
670.286, 32.611
671.588, 9.253
672.890, 0.939
674.192, 18.661
675.493, 11.294
676.795, 8.925
678.096, 15.552
679.397, 12.177
680.697, 17.799
681.998, 8.419
683.298, 20.413
684.598, 14.028
685.898, 1.639
687.198, 16.532
688.498, 19.157
689.797, 13.759
691.096, 6.360
692.395, 17.957
693.694, 17.551
694.992, 5.519
696.290, 32.108
697.589, 13.693
698.886, 19.397
700.184, 16.113
701.482, 14.691
702.779, 6.266
704.076, 8.163
705.373, 11.403
706.669, 8.967
707.966, 5.473
709.262, 11.148
710.558, 11.700
711.854, 14.751
713.150, 9.792
714.445, 6.669
715.740, 3.865
717.035, 8.396
718.330, 3.110
719.625, 17.413
720.919, 5.067
722.214, 6.449
723.508, 10.039
724.801, 10.468
726.095, 4.971
727.388, 7.472
728.682, 1.030
729.975, 14.463
731.267, 8.954
732.560, 10.421
733.852, 2.094
735.145, 0.613
736.437, 11.136
737.728, 12.665
739.020, 8.847
740.311, 3.311
741.603, 0.769
742.894, 3.776
744.184, 19.325
745.475, 3.117
746.765, 14.557
748.055, 10.006
749.345, 15.575
750.635, 2.151
751.925, 1.269
753.214, 4.314
754.503, 1.902
755.792, 9.494
757.081, 5.091
758.370, 5.308
759.658, 4.297
760.946, 5.095
762.234, 22.483
763.522, 7.869
764.809, 3.748
766.097, 1.632
767.384, 6.992
768.671, 21.379
769.958, 2.748
771.244, 11.115
772.530, 3.478
773.817, 8.161
775.102, 1.804
776.388, 1.452
777.674, 19.898
778.959, 6.755
780.244, 3.587
781.529, 7.073
782.814, 3.263
784.098, 6.596
785.383, 15.073
786.667, 17.251
787.951, 3.573
789.235, 10.893
790.518, 5.789
791.801, 14.525
793.084, 19.836
794.367, 0.855
795.650, 9.452
796.933, 8.756
798.215, 13.058
799.497, 10.358
800.779, 1.344
802.061, 1.049
803.342, 13.756
804.624, 10.601
805.905, 11.814
807.186, 1.094
808.466, 3.333
809.747, 22.610
811.027, 2.140
812.307, 3.951
813.587, 8.318
814.867, 1.571
816.146, 14.812
817.426, 8.075
818.705, 1.328
819.984, 21.588
821.263, 17.180
822.541, 22.073
823.819, 3.323
825.098, 13.503
826.375, 1.258
827.653, 9.985
828.931, 10.225
830.208, 6.428
831.485, 5.667
832.762, 18.096
834.039, 1.094
835.315, 13.325
836.592, 7.448
837.868, 8.222
839.144, 1.001
840.420, 14.223
841.695, 19.407
842.970, 8.324
844.246, 3.531
845.521, 9.725
846.795, 5.298
848.070, 15.904
849.344, 25.109
850.618, 15.866
851.892, 14.060
853.166, 24.005
854.440, 18.167
855.713, 25.353
856.986, 41.380
858.259, 47.586
859.532, 44.567
860.804, 34.743
862.077, 39.609
863.349, 25.803
864.621, 34.972
865.893, 26.152
867.164, 17.228
868.436, 27.429
869.707, 15.617
870.978, 17.864
872.248, 16.864
873.519, 11.952
874.789, 7.795
876.060, 5.396
877.330, 0.247
878.599, 21.951
879.869, 7.072
881.138, 15.089
882.408, 16.746
883.677, 12.907
884.945, 38.104
886.214, 1.981
887.482, 29.731
888.751, 38.794
890.019, 24.934
891.287, 34.949
892.554, 43.023
893.822, 50.922
895.089, 52.924
896.356, 46.109
897.623, 69.134
898.889, 63.320
900.156, 62.521
901.422, 72.722
902.688, 70.768
903.954, 80.936
905.220, 49.912
906.485, 54.115
907.750, 71.302
909.015, 51.507
910.280, 60.700
911.545, 56.661
912.809, 44.772
914.074, 39.894
915.338, 50.104
916.602, 39.108
917.865, 55.314
919.129, 35.317
920.392, 41.525
921.655, 21.740
922.918, 35.566
924.181, 51.784
925.443, 43.003
926.706, 38.224
927.968, 39.279
929.230, 41.503
930.491, 40.729
931.753, 42.910
933.014, 48.139
934.276, 58.369
935.536, 66.601
936.797, 73.835
938.058, 55.023
939.318, 72.223
940.578, 54.131
941.838, 52.116
943.098, 55.358
944.358, 89.602
945.617, 81.848
946.876, 84.097
948.135, 74.300
949.394, 76.466
950.653, 84.721
951.911, 83.978
953.169, 101.237
954.427, 96.498
955.685, 110.762
956.943, 121.028
958.200, 114.919
959.458, 149.189
960.715, 182.462
961.971, 190.454
963.228, 319.713
964.485, 390.994
965.741, 419.277
966.997, 397.563
968.253, 419.852
969.508, 516.768
970.764, 570.062
972.019, 634.359
973.274, 770.538
974.529, 805.705
975.784, 985.011
977.039, 1182.319
978.293, 1587.630
979.547, 2208.946
980.801, 3159.265
982.055, 5176.586
983.308, 9203.848
984.562, 19631.178
985.815, 44650.508
987.068, 64899.844
988.321, 62849.188
989.573, 38148.531
990.826, 19467.877
992.078, 10837.229
993.330, 6114.586
994.582, 3784.944
995.833, 2486.307
997.085, 1760.674
998.336, 1353.046
999.587, 1115.420
1000.838, 962.799
1002.088, 838.180
1003.339, 718.566
1004.589, 614.955
1005.839, 507.348
1007.089, 497.744
1008.339, 443.144
1009.588, 374.549
1010.838, 321.958
1012.087, 330.326
1013.336, 286.742
1014.584, 273.164
1015.833, 253.591
1017.081, 228.021
1018.330, 206.458
1019.577, 184.899
1020.825, 213.344
1022.073, 170.794
1023.320, 181.249
1024.567, 180.709
1025.814, 147.173
1027.061, 159.642
1028.308, 157.115
1029.554, 130.593
1030.800, 135.076
1032.046, 116.563
1033.292, 90.055
1034.538, 75.550
1035.783, 75.050
1037.029, 65.553
1038.274, 91.061
1039.519, 77.573
1040.763, 84.090
1042.008, 61.611
1043.252, 77.136
1044.496, 77.666
1045.740, 47.200
1046.984, 46.739
1048.228, 66.282
1049.471, 64.830
1050.714, 57.382
1051.957, 38.939
1053.200, 39.500
1054.442, 36.540
1055.685, 42.635
1056.927, 40.209
1058.169, 54.789
1059.411, 55.373
1060.652, 50.961
1061.894, 36.609
1063.135, 47.228
1064.376, 33.894
1065.617, 50.499
1066.858, 51.109
1068.098, 41.722
1069.339, 40.340
1070.579, 52.964
1071.819, 25.590
1073.058, 47.221
1074.298, 37.859
1075.537, 33.504
1076.776, 43.154
1078.015, 58.810
1079.254, 65.471
1080.493, 88.137
1081.731, 59.808
1082.969, 84.484
1084.207, 84.165
1085.445, 68.850
1086.683, 113.540
1087.920, 102.234
1089.157, 91.933
1090.394, 115.637
1091.631, 103.346
1092.868, 199.063
1094.105, 209.798
1095.341, 289.528
1096.577, 425.264
1097.813, 610.004
1099.049, 877.749
1100.284, 1267.500
1101.519, 1665.255
1102.755, 2102.016
1103.990, 2176.783
1105.224, 1942.556
1106.459, 1522.332
1107.693, 1094.113
1108.928, 771.899
1110.162, 537.690
1111.395, 409.484
1112.629, 335.282
1113.863, 237.083
1115.096, 173.889
1116.329, 136.699
1117.562, 113.512
1118.795, 84.330
1120.027, 70.151
1121.259, 82.976
1122.492, 75.806
1123.723, 71.640
1124.955, 51.477
1126.187, 76.318
1127.418, 101.163
1128.649, 82.013
1129.880, 118.866
1131.111, 149.723
1132.342, 272.583
1133.572, 370.447
1134.802, 584.315
1136.033, 850.187
1137.262, 1060.063
1138.492, 1014.942
1139.722, 833.826
1140.951, 637.713
1142.180, 489.606
1143.409, 326.502
1144.638, 255.401
1145.866, 214.305
1147.095, 150.211
1148.323, 155.122
1149.551, 121.036
1150.779, 111.953
1152.006, 117.874
1153.234, 105.798
1154.461, 108.725
1155.688, 113.656
1156.915, 117.591
1158.141, 157.528
1159.368, 190.471
1160.594, 254.416
1161.820, 354.365
1163.046, 475.317
1164.272, 645.272
1165.498, 760.231
1166.723, 754.192
1167.948, 686.157
1169.173, 560.124
1170.398, 450.095
1171.623, 351.068
1172.847, 265.044
1174.071, 219.024
1175.295, 168.006
1176.519, 121.178
1177.743, 111.165
1178.966, 95.155
1180.190, 57.148
1181.413, 98.144
1182.636, 40.142
1183.858, 50.143
1185.081, 52.146
1186.303, 44.152
1187.526, 19.160
1188.748, 27.171
1189.969, 19.184
1191.191, 35.200
1192.412, 16.218
1193.634, 7.761
1194.855, 3.709
1196.076, 8.685
1197.296, 21.340
1198.517, 5.368
1199.737, 14.398
1200.957, 14.430
1202.177, 0.464
1203.397, 18.619
1204.617, 13.847
1205.836, 8.265
1207.055, 26.663
1208.274, 24.785
1209.493, 27.097
1210.712, 34.145
1211.930, 34.942
1213.148, 35.091
1214.367, 41.043
1215.584, 31.097
1216.802, 31.153
1218.020, 27.489
1219.237, 43.597
1220.454, 13.657
1221.671, 20.028
1222.888, 40.263
1224.105, 37.896
1225.321, 1.676
1226.537, 11.011
1227.753, 18.088
1228.969, 24.201
1230.185, 27.503
1231.400, 42.879
1232.616, 12.073
1233.831, 36.526
1235.046, 35.681
1236.261, 60.071
1237.475, 56.155
1238.689, 27.257
1239.904, 58.334
1241.118, 66.460
1242.332, 39.543
1243.545, 52.629
1244.759, 26.709
1245.972, 34.791
1247.185, 38.872
1248.398, 53.956
1249.611, 22.040
1250.823, 26.126
1252.036, 30.218
1253.248, 56.510
1254.460, 9.607
1255.671, 18.698
1256.883, 14.800
1258.095, 34.895
1259.306, 30.171
1260.517, 14.268
1261.728, 31.366
1262.938, 33.466
1264.149, 38.566
1265.359, 30.668
1266.569, 47.771
1267.779, 45.035
1268.989, 46.140
1270.199, 34.407
1271.408, 32.514
1272.617, 31.451
1273.826, 32.009
1275.035, 36.156
1276.244, 24.267
1277.452, 38.377
1278.661, 9.499
1279.869, 24.612
1281.077, 36.725
1282.285, 1.839
1283.492, 13.953
1284.700, 6.068
1285.907, 1.641
1287.114, 1.344
1288.321, 6.461
1289.527, 4.869
1290.734, 9.991
1291.940, 10.227
1293.146, 19.216
1294.352, 11.325
1295.558, 17.431
1296.763, 17.535
1297.969, 9.638
1299.174, 19.740
1300.379, 26.838
1301.584, 3.929
1302.788, 4.015
1303.993, 6.098
1305.197, 22.177
1306.401, 9.748
1307.605, 8.322
1308.809, 35.392
1310.013, 12.461
1311.216, 24.529
1312.419, 8.597
1313.622, 4.664
1314.825, 23.730
1316.028, 23.794
1317.230, 32.857
1318.432, 33.817
1319.634, 6.976
1320.836, 26.034
1322.038, 40.090
1323.240, 29.144
1324.441, 0.862
1325.642, 18.162
1326.843, 5.140
1328.044, 13.181
1329.245, 11.221
1330.445, 21.258
1331.645, 8.293
1332.845, 4.678
1334.045, 7.653
1335.245, 15.631
1336.445, 14.614
1337.644, 2.602
1338.843, 10.592
1340.042, 2.414
1341.241, 18.582
1342.440, 2.582
1343.638, 7.586
1344.836, 2.408
1346.034, 3.851
1347.232, 10.612
1348.430, 0.628
1349.628, 3.354
1350.825, 11.666
1352.022, 5.691
1353.219, 22.719
1354.416, 13.752
1355.613, 24.801
1356.809, 2.157
1358.005, 0.112
1359.202, 7.934
1360.398, 10.985
1361.593, 3.038
1362.789, 14.094
1363.984, 1.154
1365.179, 11.217
1366.374, 2.718
1367.569, 1.651
1368.764, 4.583
1369.958, 0.566
1371.153, 3.496
1372.347, 3.287
1373.541, 9.344
1374.735, 4.257
1375.928, 16.164
1377.122, 17.648
1378.315, 7.394
1379.508, 9.507
1380.701, 4.619
1381.893, 5.270
1383.086, 4.839
1384.278, 8.947
1385.470, 5.055
1386.662, 32.161
1387.854, 3.735
1389.046, 28.366
1390.237, 19.464
1391.428, 20.560
1392.619, 17.655
1393.810, 16.749
1395.001, 25.842
1396.191, 2.067
1397.382, 14.021
1398.572, 1.895
1399.762, 21.188
1400.952, 6.731
1402.141, 17.349
1403.331, 5.428
1404.520, 27.506
1405.709, 24.338
1406.898, 8.411
1408.087, 21.483
1409.275, 12.555
1410.464, 19.625
1411.652, 19.695
1412.840, 21.764
1414.028, 6.833
1415.215, 10.859
1416.403, 25.928
1417.590, 6.002
1418.777, 11.889
1419.964, 22.092
1421.151, 26.476
1422.338, 49.104
1423.524, 30.282
1424.710, 39.380
1425.896, 28.545
1427.082, 37.480
1428.268, 38.681
1429.453, 40.081
1430.639, 52.959
1431.824, 39.426
1433.009, 50.605
1434.194, 73.694
1435.378, 28.009
1436.563, 86.869
1437.747, 81.673
1438.931, 69.561
1440.115, 72.458
1441.299, 99.348
1442.482, 101.220
1443.666, 114.644
1444.849, 111.475
1446.032, 117.912
1447.215, 100.727
1448.397, 75.529
1449.580, 112.316
1450.762, 94.702
1451.944, 102.052
1453.126, 108.069
1454.308, 106.659
1455.490, 97.297
1456.671, 139.941
1457.852, 113.561
1459.033, 81.050
1460.214, 80.597
1461.395, 111.240
1462.575, 97.758
1463.756, 79.280
1464.936, 87.802
1466.116, 71.314
1467.296, 62.879
1468.475, 53.466
1469.655, 58.084
1470.834, 54.695
1472.013, 48.286
1473.192, 51.902
1474.371, 40.412
1475.550, 51.966
1476.728, 46.495
1477.906, 43.030
1479.084, 43.593
1480.262, 42.149
1481.440, 35.700
1482.617, 27.280
1483.795, 14.894
1484.972, 45.519
1486.149, 32.153
1487.326, 33.790
1488.502, 12.433
1489.679, 13.089
1490.855, 32.765
1492.031, 35.466
1493.207, 20.196
1494.383, 14.956
1495.559, 3.748
1496.734, 1.414
1497.909, 12.483
1499.084, 5.454
1500.259, 19.263
1501.434, 17.969
1502.608, 0.000
##END=



