##NAMES=Baryte
##RRUFFID=R040036
##IDEAL CHEMISTRY=BaS^6+^O_4_
##LOCALITY=Cumbria County, England
##OWNER=RRUFF
##SOURCE=University of Arizona Mineral Museum
##DESCRIPTION=Golden brown tabular crystal
##STATUS=The identification of this mineral has been confirmed by X-ray diffraction and chemical analysis
##URL=rruff.info/R040036
##MEASURED CHEMISTRY=Ba_1.00_S_1.00_O_4_; trace amounts of Pb
##PIN_ID=M00028
##ORIENTATION=Laser parallel to -a* (-1 0 0). Fiducial mark perpendicular to laser is parallel to -b [0 -1 0]
26.288, 0.000
27.694, 3.010
29.099, 30.429
30.504, 90.147
31.909, 50.262
33.313, 60.768
34.717, 95.872
36.121, 177.313
37.525, 90.008
38.929, 94.149
40.332, 41.277
41.735, 65.534
43.138, 88.925
44.541, 78.800
45.943, 195.606
47.345, 137.447
48.747, 154.251
50.149, 204.468
51.551, 151.505
52.952, 169.988
54.353, 117.339
55.754, 86.025
57.155, 32.658
58.555, 96.261
59.955, 122.200
61.355, 119.200
62.755, 79.658
64.154, 79.051
65.553, 69.668
66.952, 98.715
68.351, 106.758
69.750, 79.041
71.148, 81.441
72.546, 59.962
73.944, 92.093
75.342, 79.541
76.739, 86.774
78.136, 87.303
79.533, 84.414
80.930, 64.558
82.327, 64.803
83.723, 44.358
85.119, 27.775
86.515, 21.518
87.910, 10.776
89.306, 3.108
90.701, 2.520
92.096, 25.112
93.490, 5.333
94.885, 4.497
96.279, 47.490
97.673, 33.167
99.067, 4.207
100.461, 26.352
101.854, 25.922
103.247, 30.364
104.640, 10.962
106.032, 31.137
107.425, 3.894
108.817, 24.370
110.209, 9.579
111.601, 12.562
112.992, 81.915
114.384, 72.359
115.775, 153.255
117.166, 91.516
118.556, 108.352
119.947, 133.195
121.337, 85.152
122.727, 121.239
124.116, 68.103
125.506, 111.925
126.895, 84.800
128.284, 121.528
129.673, 120.234
131.062, 94.939
132.450, 96.603
133.838, 71.920
135.226, 108.283
136.614, 78.632
138.001, 83.935
139.388, 107.266
140.775, 102.358
142.162, 107.466
143.549, 105.620
144.935, 134.607
146.321, 150.024
147.707, 163.579
149.093, 208.458
150.478, 254.300
151.863, 296.112
153.248, 254.906
154.633, 292.677
156.018, 205.447
157.402, 177.244
158.786, 158.976
160.170, 126.569
161.554, 116.319
162.937, 101.993
164.320, 110.564
165.703, 83.133
167.086, 92.598
168.469, 60.054
169.851, 63.545
171.233, 73.869
172.615, 62.222
173.996, 57.591
175.378, 45.918
176.759, 68.848
178.140, 62.709
179.521, 40.874
180.901, 70.953
182.281, 60.918
183.662, 77.787
185.041, 73.505
186.421, 96.149
187.800, 105.690
189.180, 90.125
190.558, 116.308
191.937, 96.494
193.316, 104.630
194.694, 76.607
196.072, 81.496
197.450, 81.341
198.827, 48.059
200.205, 81.700
201.582, 63.292
202.959, 77.759
204.336, 71.124
205.712, 55.305
207.088, 72.071
208.465, 85.122
209.840, 92.073
211.216, 91.118
212.591, 79.584
213.967, 81.099
215.341, 66.479
216.716, 67.852
218.091, 53.277
219.465, 74.405
220.839, 68.609
222.213, 66.779
223.586, 72.898
224.960, 56.114
226.333, 67.220
227.706, 51.447
229.079, 84.503
230.451, 55.508
231.823, 74.515
233.195, 63.236
234.567, 56.934
235.939, 65.418
237.310, 48.338
238.682, 78.466
240.052, 74.600
241.423, 60.211
242.794, 74.222
244.164, 51.267
245.534, 70.214
246.904, 62.484
248.274, 48.664
249.643, 48.070
251.012, 42.543
252.381, 58.859
253.750, 55.124
255.118, 56.578
256.487, 44.662
257.855, 32.170
259.223, 46.947
260.590, 39.128
261.958, 57.881
263.325, 30.519
264.692, 51.586
266.059, 48.270
267.425, 43.146
268.791, 62.065
270.158, 33.747
271.523, 60.603
272.889, 35.138
274.255, 55.882
275.620, 38.446
276.985, 44.197
278.350, 46.907
279.714, 40.482
281.078, 48.053
282.443, 51.499
283.806, 30.104
285.170, 36.561
286.534, 33.033
287.897, 55.603
289.260, 19.142
290.623, 60.696
291.985, 34.233
293.348, 13.885
294.710, 44.525
296.072, 17.155
297.433, 49.773
298.795, 36.382
300.156, 44.981
301.517, 43.570
302.878, 32.148
304.239, 50.717
305.599, 40.276
306.959, 53.825
308.319, 33.365
309.679, 40.854
311.038, 33.270
312.398, 44.720
313.757, 58.035
315.116, 34.389
316.474, 56.585
317.833, 40.792
319.191, 40.042
320.549, 54.232
321.907, 29.396
323.264, 36.499
324.622, 41.684
325.979, 25.820
327.336, 37.834
328.692, 34.966
330.049, 33.941
331.405, 43.155
332.761, 36.241
334.117, 36.413
335.473, 37.611
336.828, 36.719
338.183, 30.933
339.538, 35.335
340.893, 38.185
342.247, 42.167
343.602, 30.158
344.956, 36.134
346.310, 32.942
347.663, 25.893
349.017, 36.745
350.370, 42.653
351.723, 36.519
353.076, 32.305
354.428, 24.156
355.780, 51.058
357.133, 16.987
358.484, 39.899
359.836, 21.760
361.188, 21.652
362.539, 40.433
363.890, 18.211
365.241, 45.915
366.591, 27.720
367.942, 20.486
369.292, 32.238
370.642, 10.015
371.992, 36.707
373.341, 7.447
374.691, 37.109
376.040, 23.919
377.388, 19.591
378.737, 40.347
380.086, 9.048
381.434, 36.718
382.782, 28.427
384.130, 20.061
385.477, 42.837
386.825, 10.597
388.172, 28.289
389.519, 23.049
390.865, 48.704
392.212, 42.460
393.558, 26.199
394.904, 56.865
396.250, 25.536
397.596, 34.189
398.941, 19.926
400.286, 27.646
401.631, 29.372
402.976, 13.049
404.321, 26.670
405.665, 30.365
407.009, 22.024
408.353, 33.767
409.697, 8.413
411.040, 46.121
412.384, 8.813
413.727, 21.478
415.070, 21.227
416.412, 16.893
417.755, 29.631
419.097, 25.456
420.439, 41.013
421.781, 27.642
423.122, 32.300
424.464, 34.964
425.805, 33.596
427.146, 49.263
428.486, 35.944
429.827, 54.525
431.167, 67.135
432.507, 62.727
433.847, 83.422
435.187, 77.946
436.526, 124.664
437.865, 143.257
439.204, 166.753
440.543, 249.389
441.882, 283.896
443.220, 393.555
444.558, 497.149
445.896, 659.783
447.234, 931.409
448.572, 1276.979
449.909, 1834.635
451.246, 2367.239
452.583, 3085.906
453.919, 3401.475
455.256, 2977.077
456.592, 2464.645
457.928, 1772.266
459.264, 1383.948
460.600, 1022.519
461.935, 863.192
463.270, 750.793
464.605, 594.389
465.940, 442.051
467.274, 334.598
468.609, 222.177
469.943, 183.781
471.277, 131.311
472.610, 133.898
473.944, 87.471
475.277, 89.039
476.610, 80.652
477.943, 67.232
479.275, 62.814
480.608, 37.402
481.940, 60.985
483.272, 48.541
484.604, 18.117
485.935, 45.706
487.267, 37.314
488.598, 40.867
489.929, 30.448
491.260, 40.015
492.590, 28.551
493.920, 31.138
495.250, 57.754
496.580, 19.343
497.910, 26.913
499.239, 43.447
500.569, 19.106
501.898, 56.608
503.226, 17.216
504.555, 10.741
505.883, 18.267
507.212, 22.880
508.540, 41.392
509.867, 17.035
511.195, 45.594
512.522, 27.120
513.849, 18.704
515.176, 47.186
516.503, 33.793
517.829, 44.265
519.156, 59.878
520.482, 35.430
521.808, 40.965
523.133, 25.597
524.459, 44.086
525.784, 35.808
527.109, 24.391
528.434, 41.996
529.758, 23.649
531.083, 58.153
532.407, 17.741
533.731, 41.307
535.055, 40.970
536.378, 13.623
537.701, 39.207
539.025, 31.869
540.348, 45.453
541.670, 28.079
542.993, 25.639
544.315, 29.236
545.637, 13.884
546.959, 21.416
548.281, 19.132
549.602, 24.747
550.923, 31.345
552.244, 8.266
553.565, 42.781
554.886, 20.716
556.206, 42.235
557.526, 23.822
558.846, 3.764
560.166, 41.325
561.486, 3.098
562.805, 20.699
564.124, 29.386
565.443, 13.050
566.762, 30.685
568.080, 21.606
569.399, 16.336
570.717, 26.997
572.035, 14.950
573.352, 36.588
574.670, 14.248
575.987, 52.885
577.304, 43.674
578.621, 37.684
579.938, 42.349
581.254, 39.011
582.570, 42.675
583.886, 42.308
585.202, 35.468
586.518, 65.127
587.833, 46.194
589.148, 76.872
590.463, 101.502
591.778, 100.255
593.093, 136.883
594.407, 132.706
595.721, 128.243
597.035, 133.869
598.349, 156.029
599.662, 157.703
600.976, 115.537
602.289, 154.174
603.602, 182.796
604.914, 207.573
606.227, 253.200
607.539, 280.857
608.851, 386.510
610.163, 504.127
611.475, 705.987
612.786, 1114.603
614.097, 1639.218
615.408, 2519.893
616.719, 3223.505
618.030, 3516.358
619.340, 3196.969
620.651, 2430.916
621.961, 1851.602
623.270, 1453.210
624.580, 1177.827
625.889, 1071.433
627.199, 996.021
628.507, 1077.646
629.816, 1086.250
631.125, 1051.852
632.433, 849.453
633.741, 652.066
635.049, 504.872
636.357, 345.471
637.664, 235.145
638.972, 186.736
640.279, 131.332
641.586, 167.926
642.893, 122.515
644.199, 120.107
645.505, 122.688
646.811, 79.238
648.117, 117.823
649.423, 83.411
650.728, 105.093
652.034, 104.671
653.339, 74.256
654.644, 81.093
655.948, 58.676
657.253, 97.257
658.557, 67.837
659.861, 27.417
661.165, 66.204
662.468, 18.781
663.772, 26.437
665.075, 28.171
666.378, 3.255
667.681, 36.395
668.983, 0.036
670.286, 31.753
671.588, 27.320
672.890, 17.885
674.192, 26.737
675.493, 10.300
676.795, 29.861
678.096, 13.410
679.397, 9.968
680.697, 22.747
681.998, 12.302
683.298, 46.855
684.598, 27.407
685.898, 2.957
687.198, 26.752
688.498, 3.701
689.797, 13.844
691.096, 7.387
692.395, 11.072
693.694, 32.435
694.992, 11.030
696.290, 12.501
697.589, 10.415
698.886, 14.057
700.184, 18.513
701.482, 4.965
702.779, 36.501
704.076, 2.060
705.373, 0.575
706.669, 33.083
707.966, 10.407
709.262, 1.900
710.558, 6.603
711.854, 11.895
713.150, 28.602
714.445, 6.096
715.740, 19.589
717.035, 4.919
718.330, 14.432
719.625, 4.051
720.919, 4.531
722.214, 4.009
723.508, 26.485
724.801, 21.041
726.095, 4.427
727.388, 17.108
728.682, 0.352
729.975, 19.809
731.267, 3.735
732.560, 16.717
733.852, 2.832
735.145, 8.616
736.437, 15.062
737.728, 21.494
739.020, 0.057
740.311, 7.439
741.603, 5.992
742.894, 11.422
744.184, 5.151
745.475, 7.274
746.765, 0.696
748.055, 1.116
749.345, 23.535
750.635, 9.049
751.925, 18.364
753.214, 8.775
754.503, 0.816
755.792, 9.590
757.081, 9.005
758.370, 39.396
759.658, 13.204
760.946, 1.810
762.234, 33.582
763.522, 4.972
764.809, 7.361
766.097, 19.748
767.384, 2.133
768.671, 27.517
769.958, 6.899
771.244, 22.279
772.530, 3.658
773.817, 7.965
775.102, 36.408
776.388, 2.220
777.674, 24.150
778.959, 20.518
780.244, 9.884
781.529, 44.249
782.814, 6.613
784.098, 14.975
785.383, 13.335
786.667, 16.695
787.951, 17.053
789.235, 3.591
790.518, 20.763
791.801, 6.116
793.084, 10.533
794.367, 36.814
795.650, 15.160
796.933, 17.504
798.215, 13.848
799.497, 8.810
800.779, 28.528
802.061, 3.135
803.342, 6.800
804.624, 22.532
805.905, 3.240
807.186, 27.088
808.466, 9.644
809.747, 9.680
811.027, 9.002
812.307, 12.676
813.587, 22.642
814.867, 14.949
816.146, 2.264
817.426, 19.578
818.705, 10.119
819.984, 16.191
821.263, 17.499
822.541, 5.807
823.819, 30.114
825.098, 11.623
826.375, 20.679
827.653, 19.861
828.931, 10.161
830.208, 30.439
831.485, 3.448
832.762, 28.745
834.039, 11.753
835.315, 17.951
836.592, 55.333
837.868, 5.740
839.144, 31.549
840.420, 42.683
841.695, 3.029
842.970, 33.213
844.246, 33.447
845.521, 24.732
846.795, 54.736
848.070, 30.930
849.344, 54.191
850.618, 33.158
851.892, 19.441
853.166, 35.699
854.440, 31.980
855.713, 50.108
856.986, 60.014
858.259, 38.264
859.532, 89.515
860.804, 61.765
862.077, 71.044
863.349, 93.797
864.621, 31.049
865.893, 76.893
867.164, 40.125
868.436, 27.404
869.707, 23.559
870.978, 22.837
872.248, 68.013
873.519, 35.288
874.789, 46.566
876.060, 38.310
877.330, 12.462
878.599, 46.605
879.869, 25.867
881.138, 17.144
882.408, 42.266
883.677, 12.536
884.945, 39.775
886.214, 44.019
887.482, 17.297
888.751, 66.331
890.019, 33.610
891.287, 58.888
892.554, 71.107
893.822, 42.387
895.089, 61.427
896.356, 53.707
897.623, 48.652
898.889, 92.857
900.156, 40.139
901.422, 103.412
902.688, 68.695
903.954, 56.980
905.220, 81.243
906.485, 51.529
907.750, 98.815
909.015, 63.102
910.280, 39.378
911.545, 59.459
912.809, 60.748
914.074, 58.962
915.338, 64.253
916.602, 27.546
917.865, 65.839
919.129, 36.134
920.392, 42.429
921.655, 76.725
922.918, 22.021
924.181, 85.321
925.443, 64.622
926.706, 72.828
927.968, 66.131
929.230, 46.435
930.491, 99.487
931.753, 71.793
933.014, 62.101
934.276, 105.412
935.536, 77.723
936.797, 73.826
938.058, 90.142
939.318, 64.378
940.578, 114.538
941.838, 83.858
943.098, 83.101
944.358, 110.425
945.617, 84.529
946.876, 103.856
948.135, 97.184
949.394, 92.226
950.653, 117.557
951.911, 77.889
953.169, 93.223
954.427, 123.558
955.685, 102.672
956.943, 153.010
958.200, 98.350
959.458, 129.691
960.715, 168.034
961.971, 150.127
963.228, 214.473
964.485, 267.822
965.741, 308.173
966.997, 371.525
968.253, 331.881
969.508, 356.238
970.764, 407.599
972.019, 408.577
973.274, 502.941
974.529, 583.211
975.784, 644.581
977.039, 785.952
978.293, 890.283
979.547, 1300.659
980.801, 1744.037
982.055, 2529.416
983.308, 4215.799
984.562, 7349.185
985.815, 16171.571
987.068, 35270.961
988.321, 49910.355
989.573, 47859.754
990.826, 28459.146
992.078, 14778.601
993.330, 8187.003
994.582, 4587.409
995.833, 2900.840
997.085, 1887.249
998.336, 1387.794
999.587, 1101.210
1000.838, 885.629
1002.088, 786.051
1003.339, 718.475
1004.589, 570.902
1005.839, 544.331
1007.089, 449.762
1008.339, 387.196
1009.588, 368.632
1010.838, 308.070
1012.087, 306.513
1013.336, 280.775
1014.584, 260.223
1015.833, 253.674
1017.081, 233.126
1018.330, 255.582
1019.577, 256.039
1020.825, 192.499
1022.073, 250.961
1023.320, 234.426
1024.567, 224.894
1025.814, 254.364
1027.061, 231.836
1028.308, 239.366
1029.554, 235.787
1030.800, 214.281
1032.046, 205.765
1033.292, 145.251
1034.538, 169.797
1035.783, 137.288
1037.029, 87.781
1038.274, 144.360
1039.519, 112.857
1040.763, 75.357
1042.008, 121.861
1043.252, 59.367
1044.496, 90.896
1045.740, 63.407
1046.984, 71.921
1048.228, 84.589
1049.471, 53.107
1050.714, 91.707
1051.957, 100.230
1053.200, 66.755
1054.442, 153.282
1055.685, 164.812
1056.927, 209.343
1058.169, 195.252
1059.411, 116.840
1060.652, 91.406
1061.894, 84.948
1063.135, 49.493
1064.376, 88.215
1065.617, 72.765
1066.858, 60.317
1068.098, 86.140
1069.339, 37.696
1070.579, 69.255
1071.819, 91.131
1073.058, 76.695
1074.298, 115.522
1075.537, 128.094
1076.776, 121.668
1078.015, 183.350
1079.254, 158.932
1080.493, 260.517
1081.731, 316.103
1082.969, 359.692
1084.207, 388.837
1085.445, 376.880
1086.683, 356.478
1087.920, 290.077
1089.157, 172.679
1090.394, 155.284
1091.631, 102.890
1092.868, 78.499
1094.105, 90.109
1095.341, 55.721
1096.577, 83.337
1097.813, 84.082
1099.049, 102.703
1100.284, 143.327
1101.519, 134.952
1102.755, 232.582
1103.990, 267.214
1105.224, 243.848
1106.459, 224.485
1107.693, 164.125
1108.928, 111.768
1110.162, 111.412
1111.395, 35.059
1112.629, 84.708
1113.863, 67.358
1115.096, 4.010
1116.329, 41.665
1117.562, 29.322
1118.795, 32.980
1120.027, 16.639
1121.259, 12.301
1122.492, 8.758
1123.723, 27.629
1124.955, 5.705
1126.187, 26.963
1127.418, 9.632
1128.649, 2.698
1129.880, 41.974
1131.111, 11.352
1132.342, 29.322
1133.572, 18.998
1134.802, 35.675
1136.033, 98.354
1137.262, 78.034
1138.492, 138.716
1139.722, 156.400
1140.951, 183.085
1142.180, 266.771
1143.409, 286.459
1144.638, 312.149
1145.866, 331.842
1147.095, 312.537
1148.323, 213.234
1149.551, 201.932
1150.779, 127.631
1152.006, 123.332
1153.234, 93.035
1154.461, 47.739
1155.688, 73.444
1156.915, 15.151
1158.141, 66.859
1159.368, 39.568
1160.594, 12.278
1161.820, 48.990
1163.046, 1.297
1164.272, 0.417
1165.498, 63.132
1166.723, 5.152
1167.948, 9.564
1169.173, 27.281
1170.398, 7.000
1171.623, 26.719
1172.847, 4.438
1174.071, 18.540
1175.295, 26.261
1176.519, 2.016
1177.743, 11.707
1178.966, 11.431
1180.190, 10.844
1181.413, 22.881
1182.636, 6.394
1183.858, 20.331
1185.081, 15.057
1186.303, 2.783
1187.526, 8.511
1188.748, 3.239
1189.969, 20.032
1191.191, 4.306
1192.412, 2.580
1193.634, 1.480
1194.855, 18.207
1196.076, 11.065
1197.296, 1.684
1198.517, 8.411
1199.737, 14.861
1200.957, 8.880
1202.177, 14.606
1203.397, 16.668
1204.617, 21.056
1205.836, 14.220
1207.055, 40.198
1208.274, 24.920
1209.493, 6.714
1210.712, 35.008
1211.930, 19.730
1213.148, 7.453
1214.367, 60.176
1215.584, 31.900
1216.802, 44.925
1218.020, 48.649
1219.237, 45.373
1220.454, 42.120
1221.671, 44.844
1222.888, 48.569
1224.105, 45.294
1225.321, 4.019
1226.537, 33.785
1227.753, 27.511
1228.969, 6.763
1230.185, 67.409
1231.400, 12.133
1232.616, 18.910
1233.831, 38.156
1235.046, 16.881
1236.261, 25.643
1237.475, 48.388
1238.689, 20.113
1239.904, 57.102
1241.118, 54.828
1242.332, 35.553
1243.545, 53.340
1244.759, 49.066
1245.972, 51.793
1247.185, 54.922
1248.398, 24.374
1249.611, 47.101
1250.823, 44.829
1252.036, 27.557
1253.248, 60.286
1254.460, 28.015
1255.671, 27.744
1256.883, 36.419
1258.095, 55.148
1259.306, 72.878
1260.517, 51.625
1261.728, 5.355
1262.938, 38.005
1264.149, 40.735
1265.359, 29.465
1266.569, 74.196
1267.779, 13.926
1268.989, 39.657
1270.199, 75.455
1271.408, 24.185
1272.617, 76.936
1273.826, 57.667
1275.035, 28.395
1276.244, 100.539
1277.452, 39.267
1278.661, 70.995
1279.869, 72.724
1281.077, 12.452
1282.285, 65.180
1283.492, 38.023
1284.700, 60.749
1285.907, 58.510
1287.114, 22.235
1288.321, 19.961
1289.527, 43.686
1290.734, 23.411
1291.940, 46.131
1293.146, 20.847
1294.352, 19.549
1295.558, 57.262
1296.763, 45.974
1297.969, 38.629
1299.174, 51.341
1300.379, 23.053
1301.584, 25.680
1302.788, 44.388
1303.993, 13.906
1305.197, 40.793
1306.401, 37.492
1307.605, 23.167
1308.809, 44.862
1310.013, 45.556
1311.216, 60.097
1312.419, 70.789
1313.622, 28.402
1314.825, 73.093
1316.028, 46.783
1317.230, 32.473
1318.432, 64.162
1319.634, 15.849
1320.836, 34.161
1322.038, 44.795
1323.240, 11.548
1324.441, 56.133
1325.642, 64.809
1326.843, 3.308
1328.044, 43.982
1329.245, 26.653
1330.445, 5.054
1331.645, 42.722
1332.845, 14.389
1334.045, 31.741
1335.245, 18.406
1336.445, 27.191
1337.644, 33.469
1338.843, 24.871
1340.042, 25.682
1341.241, 38.336
1342.440, 12.990
1343.638, 13.644
1344.836, 29.296
1346.034, 10.052
1347.232, 26.598
1348.430, 25.248
1349.628, 4.896
1350.825, 31.545
1352.022, 17.194
1353.219, 13.842
1354.416, 60.491
1355.613, 2.140
1356.809, 27.790
1358.005, 43.441
1359.202, 16.034
1360.398, 33.616
1361.593, 1.269
1362.789, 19.077
1363.984, 38.577
1365.179, 3.235
1366.374, 6.896
1367.569, 29.561
1368.764, 7.767
1369.958, 30.910
1371.153, 31.597
1372.347, 1.627
1373.541, 56.012
1374.735, 50.733
1375.928, 1.549
1377.122, 76.170
1378.315, 12.887
1379.508, 32.604
1380.701, 73.322
1381.893, 35.039
1383.086, 36.755
1384.278, 38.472
1385.470, 17.188
1386.662, 23.903
1387.854, 22.616
1389.046, 5.329
1390.237, 61.037
1391.428, 3.744
1392.619, 17.451
1393.810, 55.155
1395.001, 14.858
1396.191, 43.560
1397.382, 47.261
1398.572, 2.962
1399.762, 52.663
1400.952, 11.363
1402.141, 18.064
1403.331, 55.269
1404.520, 13.036
1405.709, 47.658
1406.898, 60.353
1408.087, 25.050
1409.275, 61.747
1410.464, 48.445
1411.652, 0.145
1412.840, 49.368
1414.028, 9.066
1415.215, 22.733
1416.403, 40.413
1417.590, 21.118
1418.777, 48.830
1419.964, 80.456
1421.151, 24.135
1422.338, 47.825
1423.524, 29.515
1424.710, 27.705
1425.896, 40.352
1427.082, 32.037
1428.268, 42.722
1429.453, 71.337
1430.639, 37.216
1431.824, 64.796
1433.009, 86.496
1434.194, 32.046
1435.378, 77.191
1436.563, 86.835
1437.747, 40.356
1438.931, 122.733
1440.115, 89.360
1441.299, 99.982
1442.482, 154.601
1443.666, 141.214
1444.849, 133.824
1446.032, 168.333
1447.215, 100.802
1448.397, 145.390
1449.580, 135.973
1450.762, 127.380
1451.944, 178.895
1453.126, 145.364
1454.308, 155.900
1455.490, 187.428
1456.671, 116.615
1457.852, 159.025
1459.033, 179.525
1460.214, 137.012
1461.395, 168.534
1462.575, 140.061
1463.756, 105.594
1464.936, 157.117
1466.116, 118.645
1467.296, 84.198
1468.475, 101.775
1469.655, 87.359
1470.834, 105.951
1472.013, 119.541
1473.192, 59.128
1474.371, 61.720
1475.550, 99.315
1476.728, 33.922
1477.906, 86.591
1479.084, 70.286
1480.262, 71.017
1481.440, 116.776
1482.617, 84.564
1483.795, 86.386
1484.972, 110.247
1486.149, 48.149
1487.326, 88.103
1488.502, 102.121
1489.679, 38.219
1490.855, 87.403
1492.031, 60.689
1493.207, 40.103
1494.383, 82.678
1495.559, 34.464
1496.734, 50.531
1497.909, 75.001
1499.084, 2.907
1500.259, 0.000
##END=



