##NAMES=Baryte
##RRUFFID=R040036
##IDEAL CHEMISTRY=BaS^6+^O_4_
##LOCALITY=Cumbria County, England
##OWNER=RRUFF
##SOURCE=University of Arizona Mineral Museum
##DESCRIPTION=Golden brown tabular crystal
##STATUS=The identification of this mineral has been confirmed by X-ray diffraction and chemical analysis
##URL=rruff.info/R040036
##MEASURED CHEMISTRY=Ba_1.00_S_1.00_O_4_; trace amounts of Pb
##PIN_ID=M00019
##ORIENTATION=Laser parallel to b* (0 1 0). Fiducial mark perpendicular to laser is parallel to c [0 0 1]
26.288, 0.000
27.694, 5.022
29.099, 35.803
30.504, 1.171
31.909, 6.862
33.313, 28.679
34.717, 46.357
36.121, 9.672
37.525, 19.184
38.929, 32.815
40.332, 56.788
41.735, 48.237
43.138, 56.006
44.541, 51.049
45.943, 60.458
47.345, 100.084
48.747, 71.116
50.149, 101.568
51.551, 91.920
52.952, 110.601
54.353, 116.917
55.754, 130.581
57.155, 105.491
58.555, 133.617
59.955, 121.148
61.355, 125.597
62.755, 90.786
64.154, 98.589
65.553, 92.720
66.952, 83.894
68.351, 84.703
69.750, 80.443
71.148, 54.652
72.546, 39.192
73.944, 41.494
75.342, 11.900
76.739, 6.524
78.136, 5.105
79.533, 10.684
80.930, 9.310
82.327, 2.523
83.723, 8.920
85.119, 2.063
86.515, 18.853
87.910, 15.660
89.306, 13.487
90.701, 8.329
92.096, 3.188
93.490, 24.063
94.885, 4.046
96.279, 0.358
97.673, 33.824
99.067, 53.148
100.461, 10.713
101.854, 20.026
103.247, 17.122
104.640, 50.266
106.032, 18.452
107.425, 33.666
108.817, 35.905
110.209, 57.163
111.601, 76.431
112.992, 67.705
114.384, 76.982
115.775, 94.287
117.166, 97.631
118.556, 115.144
119.947, 130.703
121.337, 122.129
122.727, 128.622
124.116, 105.018
125.506, 96.409
126.895, 106.881
128.284, 102.220
129.673, 129.584
131.062, 128.849
132.450, 100.112
133.838, 102.336
135.226, 116.384
136.614, 97.541
138.001, 76.798
139.388, 91.779
140.775, 92.958
142.162, 76.056
143.549, 83.099
144.935, 114.897
146.321, 111.730
147.707, 117.574
149.093, 145.349
150.478, 188.120
151.863, 190.881
153.248, 203.769
154.633, 188.617
156.018, 206.385
157.402, 195.107
158.786, 174.941
160.170, 170.651
161.554, 127.373
162.937, 128.175
164.320, 93.916
165.703, 79.556
167.086, 75.298
168.469, 78.018
169.851, 92.837
171.233, 70.384
172.615, 71.008
173.996, 61.740
175.378, 68.266
176.759, 89.634
178.140, 97.627
179.521, 116.430
180.901, 143.843
182.281, 183.219
183.662, 216.533
185.041, 278.811
186.421, 381.851
187.800, 431.781
189.180, 470.737
190.558, 459.685
191.937, 411.489
193.316, 371.222
194.694, 283.802
196.072, 235.299
197.450, 147.836
198.827, 159.231
200.205, 118.623
201.582, 100.950
202.959, 115.147
204.336, 88.244
205.712, 102.317
207.088, 81.211
208.465, 82.076
209.840, 64.852
211.216, 69.612
212.591, 66.218
213.967, 81.778
215.341, 66.383
216.716, 74.856
218.091, 58.279
219.465, 75.740
220.839, 65.057
222.213, 78.188
223.586, 56.402
224.960, 64.268
226.333, 49.795
227.706, 62.314
229.079, 59.710
230.451, 67.084
231.823, 39.672
233.195, 61.139
234.567, 49.673
235.939, 60.828
237.310, 38.035
238.682, 51.316
240.052, 41.692
241.423, 61.204
242.794, 48.209
244.164, 53.847
245.534, 28.436
246.904, 30.432
248.274, 28.530
249.643, 55.254
251.012, 41.128
252.381, 23.930
253.750, 33.023
255.118, 41.832
256.487, 21.776
257.855, 37.736
259.223, 28.810
260.590, 45.967
261.958, 57.078
263.325, 44.226
264.692, 48.450
266.059, 46.682
267.425, 39.982
268.791, 50.273
270.158, 44.556
271.523, 55.830
272.889, 36.065
274.255, 41.253
275.620, 48.483
276.985, 41.686
278.350, 20.920
279.714, 42.146
281.078, 23.322
282.443, 32.503
283.806, 43.708
285.170, 37.858
286.534, 42.907
287.897, 29.021
289.260, 26.136
290.623, 36.167
291.985, 38.227
293.348, 45.385
294.710, 22.537
296.072, 25.684
297.433, 22.825
298.795, 27.960
300.156, 28.090
301.517, 40.214
302.878, 32.332
304.239, 27.445
305.599, 20.553
306.959, 23.654
308.319, 24.750
309.679, 18.841
311.038, 4.926
312.398, 41.986
313.757, 33.977
315.116, 25.945
316.474, 29.923
317.833, 11.965
319.191, 16.901
320.549, 38.837
321.907, 29.727
323.264, 21.645
324.622, 26.644
325.979, 16.650
327.336, 18.640
328.692, 12.617
330.049, 26.581
331.405, 25.532
332.761, 8.471
334.117, 27.398
335.473, 14.314
336.828, 18.219
338.183, 18.113
339.538, 18.996
340.893, 24.869
342.247, 31.733
343.602, 25.589
344.956, 26.435
346.310, 25.273
347.663, 17.102
349.017, 26.924
350.370, 30.738
351.723, 19.527
353.076, 27.327
354.428, 32.073
355.780, 29.820
357.133, 25.484
358.484, 18.166
359.836, 27.830
361.188, 6.564
362.539, 20.223
363.890, 27.920
365.241, 12.539
366.591, 15.236
367.942, 28.882
369.292, 14.590
370.642, 21.195
371.992, 17.839
373.341, 25.420
374.691, 23.065
376.040, 41.702
377.388, 20.380
378.737, 12.934
380.086, 31.593
381.434, 28.203
382.782, 43.873
384.130, 26.443
385.477, 31.082
386.825, 26.682
388.172, 33.377
389.519, 40.020
390.865, 25.693
392.212, 25.251
393.558, 40.820
394.904, 36.426
396.250, 20.112
397.596, 41.735
398.941, 22.279
400.286, 27.865
401.631, 42.495
402.976, 43.031
404.321, 29.644
405.665, 43.215
407.009, 29.865
408.353, 32.568
409.697, 34.210
411.040, 40.872
412.384, 42.525
413.727, 46.145
415.070, 53.813
416.412, 50.453
417.755, 45.146
419.097, 65.759
420.439, 50.383
421.781, 62.041
423.122, 86.666
424.464, 80.216
425.805, 88.856
427.146, 114.394
428.486, 122.120
429.827, 150.753
431.167, 166.378
432.507, 230.008
433.847, 269.573
435.187, 361.128
436.526, 400.727
437.865, 535.335
439.204, 693.976
440.543, 871.511
441.882, 1107.060
443.220, 1467.599
444.558, 2075.161
445.896, 2798.723
447.234, 3978.342
448.572, 5311.924
449.909, 6771.483
451.246, 7914.016
452.583, 8092.558
453.919, 6912.116
455.256, 5358.638
456.592, 3850.095
457.928, 2729.724
459.264, 1913.316
460.600, 1326.872
461.935, 1015.447
463.270, 724.938
464.605, 570.454
465.940, 437.073
467.274, 352.650
468.609, 299.191
469.943, 253.755
471.277, 197.274
472.610, 161.803
473.944, 135.304
475.277, 122.871
476.610, 114.434
477.943, 85.919
479.275, 97.494
480.608, 91.008
481.940, 68.543
483.272, 67.078
484.604, 57.618
485.935, 64.186
487.267, 52.787
488.598, 43.361
489.929, 47.942
491.260, 49.519
492.590, 27.058
493.920, 42.644
495.250, 36.250
496.580, 49.804
497.910, 42.395
499.239, 40.010
500.569, 38.615
501.898, 17.205
503.226, 37.762
504.555, 32.366
505.883, 22.872
507.212, 41.444
508.540, 31.054
509.867, 47.595
511.195, 42.150
512.522, 38.770
513.849, 37.326
515.176, 38.913
516.503, 44.487
517.829, 48.098
519.156, 32.700
520.482, 47.354
521.808, 33.947
523.133, 35.508
524.459, 28.157
525.784, 23.792
527.109, 37.446
528.434, 14.076
529.758, 20.729
531.083, 20.364
532.407, 39.019
533.731, 44.674
535.055, 19.308
536.378, 26.963
537.701, 0.624
539.025, 26.280
540.348, 36.893
541.670, 20.549
542.993, 20.178
544.315, 19.834
545.637, 10.493
546.959, 15.204
548.281, 21.863
549.602, 21.572
550.923, 26.255
552.244, 12.915
553.565, 29.582
554.886, 36.241
556.206, 20.901
557.526, 45.560
558.846, 30.247
560.166, 12.121
561.486, 6.780
562.805, 26.440
564.124, 18.129
565.443, 17.788
566.762, 4.466
568.080, 6.125
569.399, 16.784
570.717, 8.400
572.035, 19.299
573.352, 4.976
574.670, 8.633
575.987, 28.310
577.304, 7.998
578.621, 21.656
579.938, 14.319
581.254, 30.037
582.570, 13.784
583.886, 18.448
585.202, 35.635
586.518, 17.317
587.833, 25.015
589.148, 22.670
590.463, 22.413
591.778, 12.093
593.093, 7.778
594.407, 15.433
595.721, 6.268
597.035, 11.320
598.349, 26.010
599.662, 16.666
600.976, 26.324
602.289, 19.997
603.602, 31.800
604.914, 70.457
606.227, 97.352
607.539, 110.009
608.851, 134.697
610.163, 242.441
611.475, 356.097
612.786, 566.027
614.097, 858.682
615.408, 1037.385
616.719, 1089.050
618.030, 936.028
619.340, 732.681
620.651, 567.614
621.961, 454.266
623.270, 398.153
624.580, 363.838
625.889, 343.527
627.199, 401.177
628.507, 415.834
629.816, 454.828
631.125, 438.765
632.433, 395.412
633.741, 370.058
635.049, 333.718
636.357, 367.375
637.664, 381.019
638.972, 453.662
640.279, 542.323
641.586, 720.964
642.893, 890.104
644.199, 1113.764
645.505, 1305.402
646.811, 1371.138
648.117, 1211.804
649.423, 972.635
650.728, 697.386
652.034, 489.036
653.339, 337.678
654.644, 219.338
655.948, 187.973
657.253, 132.602
658.557, 81.336
659.861, 86.970
661.165, 41.640
662.468, 64.412
663.772, 50.049
665.075, 23.672
666.378, 42.292
667.681, 10.912
668.983, 39.631
670.286, 27.265
671.588, 23.880
672.890, 26.527
674.192, 18.185
675.493, 25.852
676.795, 5.461
678.096, 9.076
679.397, 21.635
680.697, 19.308
681.998, 12.910
683.298, 32.075
684.598, 17.674
685.898, 12.352
687.198, 0.052
688.498, 21.541
689.797, 0.376
691.096, 6.062
692.395, 13.649
693.694, 9.235
694.992, 14.819
696.290, 13.401
697.589, 12.981
698.886, 4.559
700.184, 7.639
701.482, 13.934
702.779, 10.492
704.076, 4.061
705.373, 21.802
706.669, 6.368
707.966, 14.909
709.262, 11.455
710.558, 4.986
711.854, 1.424
713.150, 6.109
714.445, 10.641
715.740, 6.398
717.035, 3.944
718.330, 16.485
719.625, 9.027
720.919, 0.432
722.214, 1.895
723.508, 8.640
724.801, 20.827
726.095, 4.699
727.388, 1.222
728.682, 11.743
729.975, 1.738
731.267, 4.779
732.560, 3.323
733.852, 10.830
735.145, 5.661
736.437, 14.803
737.728, 2.697
739.020, 14.213
740.311, 11.103
741.603, 6.597
742.894, 3.741
744.184, 12.747
745.475, 7.768
746.765, 11.714
748.055, 3.193
749.345, 1.318
750.635, 15.155
751.925, 9.374
753.214, 14.093
754.503, 0.557
755.792, 7.019
757.081, 11.522
758.370, 27.932
759.658, 9.616
760.946, 13.832
762.234, 7.723
763.522, 1.717
764.809, 1.156
766.097, 13.591
767.384, 7.025
768.671, 12.544
769.958, 10.118
771.244, 13.303
772.530, 13.722
773.817, 5.138
775.102, 5.553
776.388, 16.965
777.674, 11.375
778.959, 3.783
780.244, 12.189
781.529, 19.407
782.814, 2.989
784.098, 16.384
785.383, 2.224
786.667, 1.166
787.951, 6.447
789.235, 3.064
790.518, 3.315
791.801, 4.693
793.084, 1.068
794.367, 5.441
795.650, 16.812
796.933, 2.819
798.215, 4.547
799.497, 0.089
800.779, 4.728
802.061, 2.629
803.342, 8.985
804.624, 12.339
805.905, 16.690
807.186, 2.960
808.466, 1.387
809.747, 13.731
811.027, 0.074
812.307, 0.586
813.587, 1.248
814.867, 6.088
816.146, 2.399
817.426, 4.726
818.705, 1.944
819.984, 17.383
821.263, 23.291
822.541, 14.027
823.819, 2.656
825.098, 7.658
826.375, 23.918
827.653, 9.771
828.931, 3.513
830.208, 5.769
831.485, 3.071
832.762, 24.365
834.039, 13.663
835.315, 24.960
836.592, 27.255
837.868, 9.479
839.144, 4.596
840.420, 4.885
841.695, 29.171
842.970, 7.574
844.246, 0.708
845.521, 16.968
846.795, 9.247
848.070, 11.525
849.344, 37.643
850.618, 6.123
851.892, 6.129
853.166, 9.600
854.440, 29.649
855.713, 8.885
856.986, 24.150
858.259, 38.407
859.532, 33.608
860.804, 46.779
862.077, 63.032
863.349, 18.759
864.621, 26.992
865.893, 18.206
867.164, 17.462
868.436, 1.628
869.707, 2.143
870.978, 26.078
872.248, 25.329
873.519, 17.601
874.789, 13.248
876.060, 1.541
877.330, 19.298
878.599, 2.940
879.869, 9.839
881.138, 18.251
882.408, 24.486
883.677, 0.481
884.945, 9.713
886.214, 1.086
887.482, 12.056
888.751, 7.287
890.019, 35.241
891.287, 49.470
892.554, 43.650
893.822, 46.866
895.089, 61.769
896.356, 39.996
897.623, 63.943
898.889, 56.169
900.156, 55.159
901.422, 54.350
902.688, 53.537
903.954, 50.762
905.220, 27.978
906.485, 29.857
907.750, 41.792
909.015, 37.015
910.280, 48.239
911.545, 39.448
912.809, 35.659
914.074, 53.882
915.338, 36.105
916.602, 35.309
917.865, 23.532
919.129, 25.255
920.392, 59.457
921.655, 20.680
922.918, 42.805
924.181, 38.998
925.443, 21.027
926.706, 26.135
927.968, 28.343
929.230, 42.558
930.491, 44.754
931.753, 50.974
933.014, 59.199
934.276, 56.319
935.536, 34.538
936.797, 75.721
938.058, 36.801
939.318, 60.014
940.578, 61.242
941.838, 44.471
943.098, 55.700
944.358, 54.828
945.617, 59.041
946.876, 67.273
948.135, 50.470
949.394, 68.657
950.653, 49.833
951.911, 64.068
953.169, 86.294
954.427, 68.530
955.685, 97.698
956.943, 84.936
958.200, 90.611
959.458, 103.851
960.715, 135.010
961.971, 180.252
963.228, 233.495
964.485, 269.496
965.741, 271.645
966.997, 242.891
968.253, 297.139
969.508, 312.388
970.764, 399.639
972.019, 459.890
973.274, 504.143
974.529, 553.172
975.784, 654.428
977.039, 829.686
978.293, 1166.946
979.547, 1615.032
980.801, 2433.293
982.055, 4077.557
983.308, 7607.823
984.562, 17363.090
985.815, 35102.363
987.068, 44081.496
988.321, 36100.770
989.573, 20829.836
990.826, 11169.113
992.078, 6425.391
993.330, 3633.671
994.582, 2255.952
995.833, 1550.235
997.085, 1108.521
998.336, 936.808
999.587, 697.100
1000.838, 630.394
1002.088, 578.690
1003.339, 450.988
1004.589, 429.288
1005.839, 348.560
1007.089, 317.864
1008.339, 286.170
1009.588, 255.115
1010.838, 235.427
1012.087, 204.723
1013.336, 207.645
1014.584, 196.964
1015.833, 175.114
1017.081, 159.437
1018.330, 132.763
1019.577, 143.092
1020.825, 145.423
1022.073, 137.745
1023.320, 118.081
1024.567, 130.420
1025.814, 97.762
1027.061, 90.106
1028.308, 81.453
1029.554, 85.803
1030.800, 95.156
1032.046, 54.511
1033.292, 65.870
1034.538, 53.232
1035.783, 52.597
1037.029, 46.964
1038.274, 67.334
1039.519, 64.707
1040.763, 81.081
1042.008, 68.461
1043.252, 42.844
1044.496, 41.229
1045.740, 50.617
1046.984, 55.008
1048.228, 47.401
1049.471, 20.796
1050.714, 48.194
1051.957, 40.595
1053.200, 24.998
1054.442, 42.406
1055.685, 27.816
1056.927, 22.229
1058.169, 26.645
1059.411, 20.064
1060.652, 9.486
1061.894, 9.912
1063.135, 22.341
1064.376, 11.773
1065.617, 3.207
1066.858, 42.644
1068.098, 5.085
1069.339, 19.529
1070.579, 21.975
1071.819, 34.426
1073.058, 34.881
1074.298, 31.339
1075.537, 29.802
1076.776, 33.267
1078.015, 43.737
1079.254, 21.210
1080.493, 42.701
1081.731, 67.181
1082.969, 79.663
1084.207, 68.149
1085.445, 62.640
1086.683, 66.133
1087.920, 39.629
1089.157, 78.128
1090.394, 90.630
1091.631, 79.134
1092.868, 129.646
1094.105, 118.161
1095.341, 212.679
1096.577, 307.201
1097.813, 405.726
1099.049, 574.255
1100.284, 829.787
1101.519, 1067.322
1102.755, 1311.862
1103.990, 1295.404
1105.224, 1072.949
1106.459, 856.497
1107.693, 601.047
1108.928, 429.602
1110.162, 329.159
1111.395, 267.718
1112.629, 216.281
1113.863, 133.847
1115.096, 115.417
1116.329, 106.988
1117.562, 92.562
1118.795, 89.141
1120.027, 99.722
1121.259, 101.306
1122.492, 110.893
1123.723, 112.483
1124.955, 100.076
1126.187, 151.672
1127.418, 147.270
1128.649, 198.870
1129.880, 252.473
1131.111, 339.079
1132.342, 497.736
1133.572, 766.347
1134.802, 1088.960
1136.033, 1511.577
1137.262, 1691.198
1138.492, 1642.820
1139.722, 1373.445
1140.951, 1128.073
1142.180, 1005.703
1143.409, 826.338
1144.638, 743.975
1145.866, 605.614
1147.095, 517.258
1148.323, 387.904
1149.551, 304.554
1150.779, 283.205
1152.006, 257.859
1153.234, 240.516
1154.461, 262.176
1155.688, 253.838
1156.915, 247.503
1158.141, 283.199
1159.368, 342.868
1160.594, 449.540
1161.820, 614.214
1163.046, 834.890
1164.272, 1008.574
1165.498, 1118.254
1166.723, 1063.937
1167.948, 918.622
1169.173, 694.309
1170.398, 563.005
1171.623, 468.696
1172.847, 351.391
1174.071, 256.121
1175.295, 199.818
1176.519, 176.517
1177.743, 183.275
1178.966, 122.978
1180.190, 89.682
1181.413, 91.388
1182.636, 82.096
1183.858, 81.806
1185.081, 66.517
1186.303, 49.230
1187.526, 67.945
1188.748, 40.661
1189.969, 45.380
1191.191, 58.100
1192.412, 28.821
1193.634, 32.726
1194.855, 48.451
1196.076, 19.177
1197.296, 35.907
1198.517, 40.710
1199.737, 19.639
1200.957, 9.371
1202.177, 20.105
1203.397, 13.202
1204.617, 23.938
1205.836, 0.846
1207.055, 29.089
1208.274, 28.829
1209.493, 31.905
1210.712, 26.759
1211.930, 2.308
1213.148, 39.436
1214.367, 26.181
1215.584, 46.073
1216.802, 47.185
1218.020, 46.933
1219.237, 32.682
1220.454, 25.455
1221.671, 27.280
1222.888, 24.032
1224.105, 45.249
1225.321, 18.003
1226.537, 29.781
1227.753, 18.865
1228.969, 34.621
1230.185, 35.469
1231.400, 39.226
1232.616, 47.117
1233.831, 14.227
1235.046, 34.986
1236.261, 25.745
1237.475, 52.628
1238.689, 39.389
1239.904, 54.151
1241.118, 34.922
1242.332, 26.687
1243.545, 54.666
1244.759, 23.429
1245.972, 57.216
1247.185, 30.979
1248.398, 11.743
1249.611, 20.840
1250.823, 28.607
1252.036, 38.374
1253.248, 24.217
1254.460, 38.986
1255.671, 29.759
1256.883, 14.529
1258.095, 17.301
1259.306, 14.074
1260.517, 18.847
1261.728, 35.622
1262.938, 4.515
1264.149, 32.261
1265.359, 40.162
1266.569, 50.072
1267.779, 36.967
1268.989, 13.746
1270.199, 3.568
1271.408, 30.358
1272.617, 53.169
1273.826, 33.986
1275.035, 54.774
1276.244, 51.556
1277.452, 2.339
1278.661, 33.121
1279.869, 17.904
1281.077, 15.688
1282.285, 22.472
1283.492, 25.363
1284.700, 19.147
1285.907, 7.146
1287.114, 12.931
1288.321, 2.285
1289.527, 17.507
1290.734, 20.288
1291.940, 30.067
1293.146, 12.843
1294.352, 0.299
1295.558, 9.472
1296.763, 5.242
1297.969, 2.010
1299.174, 23.798
1300.379, 0.436
1301.584, 7.327
1302.788, 0.087
1303.993, 2.155
1305.197, 38.602
1306.401, 21.356
1307.605, 2.892
1308.809, 36.859
1310.013, 19.610
1311.216, 17.359
1312.419, 7.107
1313.622, 20.851
1314.825, 50.594
1316.028, 11.337
1317.230, 26.078
1318.432, 19.819
1319.634, 0.559
1320.836, 25.297
1322.038, 4.031
1323.240, 7.238
1324.441, 11.491
1325.642, 19.218
1326.843, 0.943
1328.044, 2.333
1329.245, 7.611
1330.445, 26.107
1331.645, 13.820
1332.845, 14.469
1334.045, 8.239
1335.245, 6.055
1336.445, 20.354
1337.644, 32.344
1338.843, 12.962
1340.042, 3.270
1341.241, 6.581
1342.440, 11.091
1343.638, 21.775
1344.836, 4.542
1346.034, 13.863
1347.232, 17.813
1348.430, 19.487
1349.628, 1.159
1350.825, 1.172
1352.022, 7.495
1353.219, 17.840
1354.416, 11.821
1355.613, 1.480
1356.809, 11.863
1358.005, 10.791
1359.202, 1.558
1360.398, 16.092
1361.593, 3.260
1362.789, 12.615
1363.984, 6.028
1365.179, 18.668
1366.374, 2.556
1367.569, 13.081
1368.764, 14.767
1369.958, 4.402
1371.153, 6.037
1372.347, 6.349
1373.541, 19.246
1374.735, 2.822
1375.928, 14.382
1377.122, 11.165
1378.315, 11.055
1379.508, 18.724
1380.701, 22.503
1381.893, 0.281
1383.086, 9.058
1384.278, 7.783
1385.470, 9.557
1386.662, 13.329
1387.854, 9.098
1389.046, 12.867
1390.237, 33.634
1391.428, 0.399
1392.619, 31.164
1393.810, 1.072
1395.001, 1.310
1396.191, 0.552
1397.382, 15.171
1398.572, 3.926
1399.762, 8.673
1400.952, 5.426
1402.141, 5.177
1403.331, 9.917
1404.520, 21.618
1405.709, 29.365
1406.898, 17.035
1408.087, 14.780
1409.275, 13.524
1410.464, 16.268
1411.652, 1.011
1412.840, 40.753
1414.028, 3.764
1415.215, 22.974
1416.403, 13.600
1417.590, 11.041
1418.777, 26.227
1419.964, 31.692
1421.151, 34.632
1422.338, 1.639
1423.524, 21.036
1424.710, 37.493
1425.896, 37.586
1427.082, 7.228
1428.268, 20.782
1429.453, 35.660
1430.639, 37.707
1431.824, 51.197
1433.009, 70.606
1434.194, 64.605
1435.378, 60.008
1436.563, 73.634
1437.747, 69.236
1438.931, 78.433
1440.115, 68.002
1441.299, 94.933
1442.482, 81.522
1443.666, 87.944
1444.849, 59.509
1446.032, 81.070
1447.215, 76.620
1448.397, 82.957
1449.580, 67.872
1450.762, 101.089
1451.944, 120.440
1453.126, 99.735
1454.308, 90.163
1455.490, 118.594
1456.671, 104.010
1457.852, 70.109
1459.033, 97.866
1460.214, 88.206
1461.395, 98.515
1462.575, 60.853
1463.756, 82.936
1464.936, 94.281
1466.116, 42.547
1467.296, 61.897
1468.475, 58.246
1469.655, 41.606
1470.834, 57.949
1472.013, 39.288
1473.192, 42.633
1474.371, 49.965
1475.550, 40.276
1476.728, 39.590
1477.906, 32.917
1479.084, 55.242
1480.262, 44.556
1481.440, 56.893
1482.617, 61.248
1483.795, 23.613
1484.972, 29.991
1486.149, 24.374
1487.326, 13.761
1488.502, 41.153
1489.679, 10.555
1490.855, 30.972
1492.031, 29.406
1493.207, 3.141
1494.383, 22.332
1495.559, 0.827
1496.734, 19.352
1497.909, 32.912
1499.084, 16.337
1500.259, 10.202
1501.434, 15.010
1502.608, 0.000
##END=



