##NAMES=Baryte
##RRUFFID=R040036
##IDEAL CHEMISTRY=BaS^6+^O_4_
##LOCALITY=Cumbria County, England
##OWNER=RRUFF
##SOURCE=University of Arizona Mineral Museum
##DESCRIPTION=Golden brown tabular crystal
##STATUS=The identification of this mineral has been confirmed by X-ray diffraction and chemical analysis
##URL=rruff.info/R040036
##MEASURED CHEMISTRY=Ba_1.00_S_1.00_O_4_; trace amounts of Pb
##PIN_ID=M00021
##ORIENTATION=Laser parallel to c* (0 0 1). Fiducial mark perpendicular to laser is parallel to -a [-1 0 0]
26.288, 0.000
27.694, 5.564
29.099, 40.402
30.504, 40.605
31.909, 0.080
33.313, 18.415
34.717, 65.535
36.121, 65.562
37.525, 55.960
38.929, 133.812
40.332, 136.934
41.735, 154.737
43.138, 144.639
44.541, 110.923
45.943, 130.089
47.345, 133.249
48.747, 113.099
50.149, 151.640
51.551, 132.011
52.952, 135.114
54.353, 164.851
55.754, 139.736
57.155, 204.537
58.555, 145.173
59.955, 163.046
61.355, 147.827
62.755, 158.945
64.154, 135.897
65.553, 117.182
66.952, 143.717
68.351, 94.434
69.750, 115.521
71.148, 89.576
72.546, 75.339
73.944, 49.955
75.342, 33.004
76.739, 28.067
78.136, 30.274
79.533, 33.184
80.930, 32.863
82.327, 13.258
83.723, 21.358
85.119, 1.994
86.515, 40.649
87.910, 24.327
89.306, 48.026
90.701, 50.750
92.096, 40.493
93.490, 38.258
94.885, 45.046
96.279, 14.853
97.673, 5.446
99.067, 9.737
100.461, 23.957
101.854, 25.112
103.247, 43.402
104.640, 48.709
106.032, 60.782
107.425, 64.700
108.817, 84.259
110.209, 93.861
111.601, 103.492
112.992, 158.139
114.384, 176.791
115.775, 204.438
117.166, 229.074
118.556, 187.810
119.947, 181.774
121.337, 153.710
122.727, 174.478
124.116, 195.257
125.506, 201.144
126.895, 163.796
128.284, 174.522
129.673, 174.929
131.062, 196.494
132.450, 169.732
133.838, 178.990
135.226, 200.383
136.614, 204.682
138.001, 217.754
139.388, 219.273
140.775, 225.258
142.162, 221.247
143.549, 199.313
144.935, 209.248
146.321, 245.169
147.707, 271.066
149.093, 329.988
150.478, 387.844
151.863, 465.603
153.248, 484.324
154.633, 476.229
156.018, 439.125
157.402, 361.881
158.786, 326.658
160.170, 299.419
161.554, 240.057
162.937, 229.733
164.320, 192.577
165.703, 192.316
167.086, 170.967
168.469, 174.391
169.851, 180.987
171.233, 161.493
172.615, 164.982
173.996, 179.451
175.378, 171.996
176.759, 198.029
178.140, 171.629
179.521, 180.017
180.901, 209.262
182.281, 253.022
183.662, 290.732
185.041, 361.433
186.421, 491.898
187.800, 580.138
189.180, 637.297
190.558, 641.365
191.937, 556.218
193.316, 509.928
194.694, 396.469
196.072, 316.803
197.450, 291.012
198.827, 244.914
200.205, 195.762
201.582, 200.463
202.959, 196.993
204.336, 177.440
205.712, 182.665
207.088, 173.901
208.465, 180.715
209.840, 154.352
211.216, 140.731
212.591, 146.138
213.967, 140.187
215.341, 140.468
216.716, 149.659
218.091, 143.558
219.465, 140.535
220.839, 140.403
222.213, 127.089
223.586, 126.582
224.960, 123.857
226.333, 148.962
227.706, 118.242
229.079, 129.415
230.451, 151.613
231.823, 128.598
233.195, 128.893
234.567, 109.484
235.939, 140.151
237.310, 126.223
238.682, 133.777
240.052, 106.245
241.423, 102.016
242.794, 93.734
244.164, 102.416
245.534, 85.676
246.904, 91.384
248.274, 70.171
249.643, 75.264
251.012, 93.374
252.381, 105.587
253.750, 92.926
255.118, 86.292
256.487, 100.732
257.855, 84.277
259.223, 80.857
260.590, 93.511
261.958, 85.399
263.325, 88.441
264.692, 85.984
266.059, 84.692
267.425, 87.779
268.791, 78.722
270.158, 82.648
271.523, 82.495
272.889, 83.552
274.255, 89.616
275.620, 87.412
276.985, 97.251
278.350, 80.082
279.714, 76.035
281.078, 60.828
282.443, 74.657
283.806, 56.574
285.170, 74.482
286.534, 76.378
287.897, 70.264
289.260, 70.142
290.623, 76.010
291.985, 60.869
293.348, 78.719
294.710, 75.560
296.072, 69.393
297.433, 71.218
298.795, 56.034
300.156, 44.842
301.517, 68.642
302.878, 46.432
304.239, 56.214
305.599, 69.987
306.959, 97.753
308.319, 68.511
309.679, 60.261
311.038, 65.004
312.398, 70.738
313.757, 67.084
315.116, 70.535
316.474, 64.834
317.833, 69.539
319.191, 64.164
320.549, 60.802
321.907, 50.487
323.264, 65.151
324.622, 72.800
325.979, 62.406
327.336, 49.004
328.692, 43.578
330.049, 52.130
331.405, 55.659
332.761, 65.167
334.117, 59.654
335.473, 64.424
336.828, 49.569
338.183, 61.998
339.538, 55.409
340.893, 45.803
342.247, 64.180
343.602, 56.542
344.956, 65.889
346.310, 75.223
347.663, 50.544
349.017, 54.853
350.370, 68.149
351.723, 48.435
353.076, 54.721
354.428, 45.986
355.780, 60.242
357.133, 65.440
358.484, 50.547
359.836, 44.675
361.188, 50.774
362.539, 50.885
363.890, 54.025
365.241, 53.987
366.591, 45.232
367.942, 54.340
369.292, 42.375
370.642, 46.410
371.992, 66.436
373.341, 33.584
374.691, 63.593
376.040, 55.658
377.388, 40.832
378.737, 27.904
380.086, 59.989
381.434, 66.032
382.782, 58.196
384.130, 50.308
385.477, 54.518
386.825, 39.585
388.172, 62.666
389.519, 34.696
390.865, 64.784
392.212, 73.804
393.558, 66.859
394.904, 37.823
396.250, 36.815
397.596, 64.896
398.941, 40.095
400.286, 59.237
401.631, 47.360
402.976, 55.504
404.321, 59.556
405.665, 46.710
407.009, 48.807
408.353, 31.912
409.697, 58.986
411.040, 27.052
412.384, 26.110
413.727, 48.245
415.070, 21.268
416.412, 56.373
417.755, 35.415
419.097, 31.545
420.439, 74.620
421.781, 48.685
423.122, 74.798
424.464, 41.941
425.805, 55.956
427.146, 79.900
428.486, 48.911
429.827, 84.838
431.167, 70.849
432.507, 100.870
433.847, 110.862
435.187, 117.853
436.526, 152.872
437.865, 191.858
439.204, 210.899
440.543, 287.953
441.882, 354.991
443.220, 451.990
444.558, 579.923
445.896, 773.802
447.234, 1032.792
448.572, 1461.679
449.909, 2010.611
451.246, 2542.607
452.583, 3043.733
453.919, 2983.723
455.256, 2647.675
456.592, 2167.650
457.928, 1843.653
459.264, 1799.640
460.600, 1837.644
461.935, 1953.621
463.270, 1831.620
464.605, 1505.597
465.940, 1156.558
467.274, 824.471
468.609, 573.454
469.943, 411.472
471.277, 305.442
472.610, 226.351
473.944, 184.236
475.277, 155.161
476.610, 96.104
477.943, 102.093
479.275, 65.058
480.608, 69.047
481.940, 75.968
483.272, 73.949
484.604, 43.901
485.935, 42.810
487.267, 31.807
488.598, 68.769
489.929, 58.777
491.260, 56.831
492.590, 48.771
493.920, 47.735
495.250, 45.133
496.580, 26.705
497.910, 36.680
499.239, 38.617
500.569, 22.623
501.898, 32.655
503.226, 37.624
504.555, 32.567
505.883, 24.542
507.212, 34.521
508.540, 35.517
509.867, 33.517
511.195, 23.478
512.522, 35.484
513.849, 32.412
515.176, 40.413
516.503, 36.485
517.829, 35.407
519.156, 31.473
520.482, 31.435
521.808, 38.469
523.133, 38.376
524.459, 15.435
525.784, 32.516
527.109, 39.571
528.434, 13.591
529.758, 20.635
531.083, 16.612
532.407, 22.693
533.731, 22.135
535.055, 24.574
536.378, 24.815
537.701, 26.926
539.025, 33.911
540.348, 27.913
541.670, 8.995
542.993, 9.047
544.315, 7.155
545.637, 17.192
546.959, 33.271
548.281, 1.598
549.602, 26.499
550.923, 10.620
552.244, 31.642
553.565, 18.718
554.886, 18.676
556.206, 4.670
557.526, 20.751
558.846, 5.881
560.166, 21.244
561.486, 1.261
562.805, 25.635
564.124, 23.847
565.443, 27.308
566.762, 1.579
568.080, 50.537
569.399, 22.605
570.717, 44.149
572.035, 37.486
573.352, 29.654
574.670, 39.904
575.987, 44.021
577.304, 33.138
578.621, 27.245
579.938, 10.328
581.254, 16.616
582.570, 10.816
583.886, 7.902
585.202, 38.223
586.518, 17.329
587.833, 20.936
589.148, 44.034
590.463, 39.089
591.778, 55.195
593.093, 54.286
594.407, 52.339
595.721, 39.390
597.035, 52.440
598.349, 77.820
599.662, 45.156
600.976, 76.204
602.289, 70.349
603.602, 84.393
604.914, 98.459
606.227, 111.745
607.539, 101.823
608.851, 155.863
610.163, 187.953
611.475, 305.991
612.786, 438.028
614.097, 714.064
615.408, 1126.147
616.719, 1339.202
618.030, 1398.364
619.340, 1263.396
620.651, 966.636
621.961, 846.665
623.270, 765.693
624.580, 761.877
625.889, 857.984
627.199, 1095.008
628.507, 1401.062
629.816, 1632.101
631.125, 1712.121
632.433, 1500.140
633.741, 1179.156
635.049, 840.517
636.357, 646.578
637.664, 515.482
638.972, 480.801
640.279, 450.810
641.586, 452.986
642.893, 504.966
644.199, 597.501
645.505, 716.504
646.811, 806.557
648.117, 864.700
649.423, 800.698
650.728, 613.841
652.034, 468.834
653.339, 353.829
654.644, 249.819
655.948, 190.900
657.253, 145.985
658.557, 104.052
659.861, 107.326
661.165, 102.318
662.468, 58.296
663.772, 61.272
665.075, 37.246
666.378, 54.179
667.681, 26.167
668.983, 41.135
670.286, 39.594
671.588, 16.564
672.890, 17.656
674.192, 27.615
675.493, 15.570
676.795, 32.523
678.096, 10.062
679.397, 19.010
680.697, 11.956
681.998, 18.953
683.298, 4.836
684.598, 9.718
685.898, 19.588
687.198, 18.177
688.498, 5.107
689.797, 3.917
691.096, 0.841
692.395, 5.717
693.694, 22.682
694.992, 14.999
696.290, 6.499
697.589, 10.483
698.886, 6.609
700.184, 10.301
701.482, 12.596
702.779, 14.593
704.076, 3.604
705.373, 14.720
706.669, 6.158
707.966, 0.077
709.262, 22.794
710.558, 18.338
711.854, 9.478
713.150, 1.622
714.445, 5.771
715.740, 3.075
717.035, 2.919
718.330, 4.759
719.625, 9.595
720.919, 7.609
722.214, 3.790
723.508, 7.998
724.801, 9.229
726.095, 2.711
727.388, 21.606
728.682, 4.198
729.975, 13.999
731.267, 1.797
732.560, 4.591
733.852, 15.382
735.145, 15.171
736.437, 14.957
737.728, 12.261
739.020, 10.484
740.311, 14.287
741.603, 1.945
742.894, 16.820
744.184, 6.581
745.475, 8.661
746.765, 3.093
748.055, 23.843
749.345, 0.590
750.635, 12.949
751.925, 19.075
753.214, 11.813
754.503, 0.548
755.792, 5.280
757.081, 3.991
758.370, 9.734
759.658, 7.544
760.946, 11.174
762.234, 28.888
763.522, 5.400
764.809, 1.693
766.097, 11.011
767.384, 1.712
768.671, 4.410
769.958, 9.105
771.244, 9.797
772.530, 7.487
773.817, 13.826
775.102, 0.145
776.388, 37.468
777.674, 12.801
778.959, 9.860
780.244, 6.482
781.529, 12.172
782.814, 22.177
784.098, 25.467
785.383, 0.892
786.667, 6.254
787.951, 10.380
789.235, 5.989
790.518, 6.638
791.801, 1.263
793.084, 5.885
794.367, 3.495
795.650, 3.879
796.933, 3.090
798.215, 12.657
799.497, 0.947
800.779, 14.548
802.061, 23.148
803.342, 21.744
804.624, 4.339
805.905, 0.069
807.186, 11.521
808.466, 23.892
809.747, 0.312
811.027, 7.734
812.307, 0.840
813.587, 9.412
814.867, 2.979
816.146, 26.453
817.426, 20.078
818.705, 2.635
819.984, 2.828
821.263, 24.724
822.541, 20.224
823.819, 20.746
825.098, 30.708
826.375, 14.831
827.653, 2.317
828.931, 1.797
830.208, 25.261
831.485, 3.253
832.762, 8.277
834.039, 25.802
835.315, 8.713
836.592, 7.787
837.868, 22.889
839.144, 18.339
840.420, 12.840
841.695, 7.035
842.970, 37.336
844.246, 3.452
845.521, 18.917
846.795, 41.347
848.070, 24.852
849.344, 40.879
850.618, 12.111
851.892, 20.511
853.166, 19.827
854.440, 38.273
855.713, 35.718
856.986, 25.171
858.259, 37.696
859.532, 39.914
860.804, 45.269
862.077, 46.735
863.349, 47.964
864.621, 37.406
865.893, 53.346
867.164, 21.795
868.436, 30.284
869.707, 28.721
870.978, 38.171
872.248, 10.658
873.519, 18.145
874.789, 5.630
876.060, 3.113
877.330, 26.982
878.599, 11.467
879.869, 15.852
881.138, 35.335
882.408, 9.797
883.677, 10.037
884.945, 21.483
886.214, 28.965
887.482, 31.397
888.751, 43.880
890.019, 33.362
891.287, 17.844
892.554, 60.278
893.822, 36.739
895.089, 30.091
896.356, 69.574
897.623, 60.846
898.889, 73.329
900.156, 46.811
901.422, 69.137
902.688, 65.538
903.954, 75.022
905.220, 67.475
906.485, 48.942
907.750, 74.426
909.015, 85.911
910.280, 77.996
911.545, 68.537
912.809, 62.978
914.074, 44.572
915.338, 15.742
916.602, 29.231
917.865, 54.552
919.129, 35.043
920.392, 87.003
921.655, 51.496
922.918, 65.937
924.181, 73.275
925.443, 82.770
926.706, 31.120
927.968, 79.617
929.230, 50.101
930.491, 52.601
931.753, 74.010
933.014, 57.414
934.276, 105.836
935.536, 35.050
936.797, 85.546
938.058, 62.054
939.318, 62.565
940.578, 98.076
941.838, 94.590
943.098, 84.086
944.358, 94.603
945.617, 92.915
946.876, 75.084
948.135, 102.445
949.394, 87.968
950.653, 88.494
951.911, 70.021
953.169, 78.963
954.427, 106.494
955.685, 124.028
956.943, 126.510
958.200, 109.048
959.458, 194.589
960.715, 203.131
961.971, 183.003
963.228, 247.550
964.485, 303.100
965.741, 365.653
966.997, 404.208
968.253, 369.718
969.508, 428.278
970.764, 507.841
972.019, 526.262
973.274, 619.830
974.529, 665.933
975.784, 793.509
977.039, 974.087
978.293, 1211.570
979.547, 1676.156
980.801, 2262.747
982.055, 3451.341
983.308, 5806.938
984.562, 10935.537
985.815, 26814.145
987.068, 52092.750
988.321, 63031.367
989.573, 48619.984
990.826, 26928.598
992.078, 14627.222
993.330, 8026.848
994.582, 4609.477
995.833, 2924.110
997.085, 2024.746
998.336, 1487.386
999.587, 1184.030
1000.838, 998.678
1002.088, 882.331
1003.339, 719.988
1004.589, 639.648
1005.839, 596.311
1007.089, 470.978
1008.339, 417.647
1009.588, 381.320
1010.838, 372.997
1012.087, 325.678
1013.336, 325.364
1014.584, 304.053
1015.833, 295.746
1017.081, 234.443
1018.330, 268.142
1019.577, 211.847
1020.825, 194.555
1022.073, 237.267
1023.320, 203.982
1024.567, 229.702
1025.814, 197.427
1027.061, 183.155
1028.308, 195.887
1029.554, 169.623
1030.800, 138.364
1032.046, 173.107
1033.292, 135.857
1034.538, 133.611
1035.783, 121.369
1037.029, 101.130
1038.274, 85.899
1039.519, 45.672
1040.763, 111.448
1042.008, 112.229
1043.252, 58.014
1044.496, 88.804
1045.740, 75.598
1046.984, 76.397
1048.228, 77.200
1049.471, 73.012
1050.714, 61.830
1051.957, 31.656
1053.200, 44.487
1054.442, 39.872
1055.685, 40.162
1056.927, 53.006
1058.169, 52.854
1059.411, 51.709
1060.652, 85.568
1061.894, 38.431
1063.135, 20.297
1064.376, 55.168
1065.617, 17.046
1066.858, 47.928
1068.098, 36.831
1069.339, 18.722
1070.579, 36.618
1071.819, 50.519
1073.058, 50.423
1074.298, 63.332
1075.537, 36.243
1076.776, 43.159
1078.015, 84.078
1079.254, 16.001
1080.493, 61.931
1081.731, 64.867
1082.969, 52.807
1084.207, 89.751
1085.445, 32.699
1086.683, 70.652
1087.920, 42.611
1089.157, 40.573
1090.394, 62.542
1091.631, 75.514
1092.868, 64.490
1094.105, 97.470
1095.341, 65.453
1096.577, 126.468
1097.813, 122.462
1099.049, 158.461
1100.284, 272.464
1101.519, 304.472
1102.755, 339.487
1103.990, 349.637
1105.224, 319.529
1106.459, 296.557
1107.693, 189.589
1108.928, 122.627
1110.162, 173.668
1111.395, 100.713
1112.629, 87.761
1113.863, 89.813
1115.096, 52.868
1116.329, 77.928
1117.562, 112.991
1118.795, 94.057
1120.027, 149.126
1121.259, 151.199
1122.492, 214.275
1123.723, 224.354
1124.955, 192.436
1126.187, 292.521
1127.418, 285.609
1128.649, 342.701
1129.880, 464.796
1131.111, 535.893
1132.342, 737.994
1133.572, 910.101
1134.802, 1263.211
1136.033, 1772.324
1137.262, 2183.441
1138.492, 2731.561
1139.722, 3325.684
1140.951, 3706.810
1142.180, 4303.939
1143.409, 4465.072
1144.638, 4377.207
1145.866, 3993.344
1147.095, 3306.485
1148.323, 2607.628
1149.551, 2034.774
1150.779, 1546.923
1152.006, 1213.075
1153.234, 956.229
1154.461, 765.453
1155.688, 673.613
1156.915, 561.932
1158.141, 479.390
1159.368, 470.559
1160.594, 397.852
1161.820, 465.025
1163.046, 529.200
1164.272, 580.379
1165.498, 671.857
1166.723, 686.127
1167.948, 603.316
1169.173, 525.504
1170.398, 443.333
1171.623, 355.525
1172.847, 279.719
1174.071, 167.155
1175.295, 213.353
1176.519, 187.838
1177.743, 114.183
1178.966, 125.387
1180.190, 87.592
1181.413, 93.010
1182.636, 45.219
1183.858, 60.523
1185.081, 56.735
1186.303, 29.948
1187.526, 45.163
1188.748, 53.379
1189.969, 8.596
1191.191, 49.278
1192.412, 35.499
1193.634, 41.720
1194.855, 11.942
1196.076, 18.166
1197.296, 17.296
1198.517, 23.522
1199.737, 2.136
1200.957, 15.104
1202.177, 20.332
1203.397, 21.571
1204.617, 47.941
1205.836, 47.428
1207.055, 35.404
1208.274, 54.636
1209.493, 25.870
1210.712, 11.103
1211.930, 27.530
1213.148, 22.051
1214.367, 63.372
1215.584, 81.633
1216.802, 60.136
1218.020, 50.373
1219.237, 27.610
1220.454, 38.899
1221.671, 45.643
1222.888, 11.880
1224.105, 46.148
1225.321, 44.386
1226.537, 21.624
1227.753, 3.138
1228.969, 26.099
1230.185, 49.833
1231.400, 37.071
1232.616, 39.716
1233.831, 68.712
1235.046, 21.959
1236.261, 48.196
1237.475, 73.803
1238.689, 53.041
1239.904, 90.400
1241.118, 86.638
1242.332, 48.874
1243.545, 74.110
1244.759, 56.366
1245.972, 27.602
1247.185, 79.104
1248.398, 46.341
1249.611, 55.579
1250.823, 27.836
1252.036, 19.075
1253.248, 53.315
1254.460, 21.555
1255.671, 22.795
1256.883, 55.036
1258.095, 47.278
1259.306, 16.520
1260.517, 19.762
1261.728, 53.005
1262.938, 1.248
1264.149, 42.205
1265.359, 13.448
1266.569, 39.690
1267.779, 20.140
1268.989, 38.379
1270.199, 46.669
1271.408, 28.906
1272.617, 8.174
1273.826, 28.454
1275.035, 31.686
1276.244, 59.916
1277.452, 1.144
1278.661, 2.371
1279.869, 53.591
1281.077, 12.899
1282.285, 48.117
1283.492, 14.389
1284.700, 2.397
1285.907, 1.817
1287.114, 5.976
1288.321, 11.772
1289.527, 21.693
1290.734, 4.107
1291.940, 19.092
1293.146, 29.290
1294.352, 12.746
1295.558, 11.062
1296.763, 1.875
1297.969, 4.309
1299.174, 10.489
1300.379, 25.312
1301.584, 27.862
1302.788, 10.031
1303.993, 7.805
1305.197, 35.349
1306.401, 9.501
1307.605, 3.356
1308.809, 38.787
1310.013, 18.929
1311.216, 5.934
1312.419, 14.200
1313.622, 43.668
1314.825, 13.456
1316.028, 34.579
1317.230, 13.700
1318.432, 31.818
1319.634, 23.926
1320.836, 15.968
1322.038, 59.130
1323.240, 13.224
1324.441, 27.315
1325.642, 18.403
1326.843, 34.512
1328.044, 24.564
1329.245, 0.363
1330.445, 8.691
1331.645, 30.757
1332.845, 9.816
1334.045, 1.128
1335.245, 16.919
1336.445, 20.963
1337.644, 17.003
1338.843, 31.040
1340.042, 15.073
1341.241, 2.898
1342.440, 6.872
1343.638, 2.148
1344.836, 8.165
1346.034, 5.823
1347.232, 17.185
1348.430, 47.190
1349.628, 5.191
1350.825, 15.812
1352.022, 44.180
1353.219, 8.168
1354.416, 17.153
1355.613, 29.135
1356.809, 30.115
1358.005, 28.067
1359.202, 14.959
1360.398, 21.011
1361.593, 11.021
1362.789, 26.057
1363.984, 13.901
1365.179, 31.859
1366.374, 9.184
1367.569, 18.089
1368.764, 2.045
1369.958, 17.001
1371.153, 46.896
1372.347, 58.753
1373.541, 12.575
1374.735, 55.772
1375.928, 4.035
1377.122, 31.156
1378.315, 23.346
1379.508, 14.534
1380.701, 50.720
1381.893, 20.904
1383.086, 50.087
1384.278, 41.260
1385.470, 38.430
1386.662, 32.596
1387.854, 34.760
1389.046, 40.921
1390.237, 35.079
1391.428, 44.236
1392.619, 21.611
1393.810, 50.460
1395.001, 54.419
1396.191, 0.204
1397.382, 47.188
1398.572, 12.316
1399.762, 30.959
1400.952, 16.072
1402.141, 12.364
1403.331, 28.153
1404.520, 36.875
1405.709, 59.772
1406.898, 53.572
1408.087, 40.154
1409.275, 7.212
1410.464, 53.269
1411.652, 10.663
1412.840, 44.706
1414.028, 22.747
1415.215, 91.445
1416.403, 42.272
1417.590, 2.727
1418.777, 35.068
1419.964, 42.075
1421.151, 69.081
1422.338, 2.689
1423.524, 34.121
1424.710, 28.662
1425.896, 31.553
1427.082, 56.658
1428.268, 16.566
1429.453, 74.524
1430.639, 65.584
1431.824, 54.776
1433.009, 76.264
1434.194, 55.457
1435.378, 53.099
1436.563, 110.968
1437.747, 84.794
1438.931, 91.107
1440.115, 129.940
1441.299, 100.717
1442.482, 141.517
1443.666, 141.301
1444.849, 130.068
1446.032, 160.816
1447.215, 145.859
1448.397, 103.534
1449.580, 156.684
1450.762, 184.198
1451.944, 156.628
1453.126, 148.251
1454.308, 195.863
1455.490, 158.244
1456.671, 155.692
1457.852, 169.280
1459.033, 148.285
1460.214, 139.647
1461.395, 144.185
1462.575, 129.849
1463.756, 145.348
1464.936, 157.771
1466.116, 127.251
1467.296, 132.951
1468.475, 133.309
1469.655, 120.832
1470.834, 60.351
1472.013, 75.846
1473.192, 98.316
1474.371, 38.797
1475.550, 84.312
1476.728, 39.837
1477.906, 113.357
1479.084, 66.884
1480.262, 50.406
1481.440, 109.972
1482.617, 88.600
1483.795, 26.250
1484.972, 87.919
1486.149, 59.609
1487.326, 26.329
1488.502, 82.092
1489.679, 41.900
1490.855, 70.769
1492.031, 92.709
1493.207, 54.726
1494.383, 7.157
1495.559, 87.089
1496.734, 54.500
1497.909, 20.469
1499.084, 32.280
1500.259, 0.000
##END=



