##NAMES=Baryte
##RRUFFID=R040036
##IDEAL CHEMISTRY=BaS^6+^O_4_
##LOCALITY=Cumbria County, England
##OWNER=RRUFF
##SOURCE=University of Arizona Mineral Museum
##DESCRIPTION=Golden brown tabular crystal
##STATUS=The identification of this mineral has been confirmed by X-ray diffraction and chemical analysis
##URL=rruff.info/R040036
##MEASURED CHEMISTRY=Ba_1.00_S_1.00_O_4_; trace amounts of Pb
##PIN_ID=M00019
##ORIENTATION=Laser parallel to b* (0 1 0). Fiducial mark perpendicular to laser is parallel to c [0 0 1]
26.288, 0.000
27.694, 17.100
29.099, 89.579
30.504, 68.177
31.909, 6.600
33.313, 3.665
34.717, 8.634
36.121, 64.453
37.525, 50.210
38.929, 102.408
40.332, 43.003
41.735, 64.879
43.138, 62.635
44.541, 85.028
45.943, 91.728
47.345, 101.957
48.747, 125.354
50.149, 122.364
51.551, 133.977
52.952, 137.264
54.353, 141.430
55.754, 150.995
57.155, 148.427
58.555, 161.091
59.955, 147.961
61.355, 187.950
62.755, 161.934
64.154, 161.147
65.553, 136.301
66.952, 159.577
68.351, 136.475
69.750, 142.774
71.148, 115.107
72.546, 80.771
73.944, 75.694
75.342, 65.981
76.739, 53.820
78.136, 44.139
79.533, 28.227
80.930, 15.645
82.327, 0.279
83.723, 21.970
85.119, 29.928
86.515, 19.517
87.910, 40.217
89.306, 30.953
90.701, 37.719
92.096, 32.523
93.490, 13.367
94.885, 29.253
96.279, 7.559
97.673, 22.337
99.067, 5.140
100.461, 1.146
101.854, 15.523
103.247, 10.388
104.640, 3.729
106.032, 25.918
107.425, 30.171
108.817, 40.473
110.209, 76.805
111.601, 101.157
112.992, 142.518
114.384, 118.883
115.775, 127.392
117.166, 158.169
118.556, 120.070
119.947, 167.915
121.337, 152.123
122.727, 160.893
124.116, 126.661
125.506, 152.602
126.895, 159.410
128.284, 158.074
129.673, 185.668
131.062, 169.009
132.450, 177.487
133.838, 158.940
135.226, 173.199
136.614, 178.409
138.001, 164.422
139.388, 156.439
140.775, 159.122
142.162, 171.003
143.549, 157.802
144.935, 184.488
146.321, 229.159
147.707, 288.895
149.093, 329.502
150.478, 411.983
151.863, 419.543
153.248, 456.200
154.633, 441.660
156.018, 433.988
157.402, 386.357
158.786, 363.577
160.170, 301.731
161.554, 269.914
162.937, 204.140
164.320, 174.353
165.703, 122.448
167.086, 136.591
168.469, 129.646
169.851, 138.497
171.233, 126.444
172.615, 142.276
173.996, 121.182
175.378, 121.147
176.759, 147.964
178.140, 161.470
179.521, 220.721
180.901, 284.607
182.281, 358.059
183.662, 453.323
185.041, 613.331
186.421, 807.578
187.800, 949.423
189.180, 955.230
190.558, 925.662
191.937, 787.942
193.316, 627.038
194.694, 499.947
196.072, 372.774
197.450, 286.403
198.827, 240.088
200.205, 229.566
201.582, 193.917
202.959, 161.077
204.336, 166.069
205.712, 139.869
207.088, 147.442
208.465, 123.865
209.840, 139.069
211.216, 124.289
212.591, 136.366
213.967, 99.337
215.341, 101.021
216.716, 114.740
218.091, 133.383
219.465, 112.938
220.839, 123.374
222.213, 106.540
223.586, 91.691
224.960, 95.809
226.333, 106.758
227.706, 103.576
229.079, 104.177
230.451, 97.606
231.823, 102.680
233.195, 110.273
234.567, 105.555
235.939, 101.106
237.310, 70.125
238.682, 79.400
240.052, 70.541
241.423, 79.789
242.794, 76.471
244.164, 70.642
245.534, 71.365
246.904, 79.628
248.274, 76.602
249.643, 67.454
251.012, 69.975
252.381, 91.579
253.750, 81.523
255.118, 78.763
256.487, 47.106
257.855, 68.561
259.223, 58.243
260.590, 53.057
261.958, 82.013
263.325, 56.846
264.692, 70.702
266.059, 54.685
267.425, 51.522
268.791, 67.542
270.158, 51.514
271.523, 58.450
272.889, 73.198
274.255, 48.050
275.620, 59.916
276.985, 35.759
278.350, 44.715
279.714, 43.577
281.078, 63.464
282.443, 70.249
283.806, 52.088
285.170, 53.936
286.534, 51.707
287.897, 62.428
289.260, 62.150
290.623, 64.114
291.985, 64.609
293.348, 66.416
294.710, 48.240
296.072, 48.048
297.433, 49.842
298.795, 44.622
300.156, 47.346
301.517, 58.137
302.878, 48.874
304.239, 44.596
305.599, 44.305
306.959, 33.001
308.319, 65.684
309.679, 67.355
311.038, 65.013
312.398, 49.632
313.757, 55.001
315.116, 62.427
316.474, 57.813
317.833, 62.232
319.191, 33.588
320.549, 42.009
321.907, 32.324
323.264, 57.630
324.622, 53.025
325.979, 36.448
327.336, 48.899
328.692, 58.320
330.049, 38.713
331.405, 52.078
332.761, 18.418
334.117, 46.730
335.473, 43.016
336.828, 45.278
338.183, 56.516
339.538, 48.731
340.893, 68.924
342.247, 51.098
343.602, 65.250
344.956, 40.433
346.310, 45.612
347.663, 48.753
349.017, 56.837
350.370, 56.771
351.723, 57.587
353.076, 56.721
354.428, 56.632
355.780, 53.410
357.133, 57.278
358.484, 41.050
359.836, 37.856
361.188, 52.480
362.539, 54.106
363.890, 36.788
365.241, 55.550
366.591, 47.211
367.942, 57.914
369.292, 46.535
370.642, 29.083
371.992, 36.646
373.341, 41.256
374.691, 44.870
376.040, 40.466
377.388, 52.031
378.737, 43.624
380.086, 67.260
381.434, 58.884
382.782, 78.495
384.130, 55.974
385.477, 48.506
386.825, 49.008
388.172, 73.564
389.519, 61.129
390.865, 66.661
392.212, 61.245
393.558, 62.880
394.904, 59.469
396.250, 55.999
397.596, 61.591
398.941, 53.300
400.286, 86.914
401.631, 47.517
402.976, 40.973
404.321, 68.529
405.665, 51.035
407.009, 72.520
408.353, 78.211
409.697, 66.467
411.040, 72.659
412.384, 39.788
413.727, 69.246
415.070, 39.812
416.412, 52.264
417.755, 54.745
419.097, 68.315
420.439, 65.742
421.781, 67.271
423.122, 65.636
424.464, 68.041
425.805, 88.437
427.146, 84.924
428.486, 118.442
429.827, 132.873
431.167, 162.312
432.507, 169.740
433.847, 219.216
435.187, 294.688
436.526, 335.195
437.865, 435.683
439.204, 563.213
440.543, 694.644
441.882, 952.041
443.220, 1244.444
444.558, 1677.823
445.896, 2343.212
447.234, 3185.649
448.572, 4192.041
449.909, 5208.411
451.246, 5663.779
452.583, 5683.092
453.919, 4792.590
455.256, 3695.060
456.592, 2731.516
457.928, 2022.899
459.264, 1585.307
460.600, 1219.749
461.935, 999.168
463.270, 788.607
464.605, 599.912
465.940, 464.255
467.274, 371.553
468.609, 279.968
469.943, 204.360
471.277, 166.676
472.610, 143.048
473.944, 132.463
475.277, 102.786
476.610, 96.170
477.943, 97.397
479.275, 68.756
480.608, 68.098
481.940, 60.450
483.272, 52.854
484.604, 47.221
485.935, 39.685
487.267, 40.065
488.598, 23.511
489.929, 19.842
491.260, 23.447
492.590, 31.567
493.920, 40.975
495.250, 34.384
496.580, 36.763
497.910, 29.210
499.239, 31.623
500.569, 25.023
501.898, 28.443
503.226, 32.789
504.555, 34.124
505.883, 36.530
507.212, 35.780
508.540, 55.286
509.867, 32.715
511.195, 34.107
512.522, 33.551
513.849, 52.944
515.176, 49.258
516.503, 44.610
517.829, 23.985
519.156, 46.381
520.482, 47.759
521.808, 33.193
523.133, 40.589
524.459, 28.100
525.784, 31.242
527.109, 55.089
528.434, 38.555
529.758, 29.989
531.083, 37.428
532.407, 21.946
533.731, 25.448
535.055, 15.966
536.378, 13.474
537.701, 20.993
539.025, 29.496
540.348, 15.985
541.670, 13.524
542.993, 34.034
544.315, 35.631
545.637, 29.122
546.959, 24.624
548.281, 33.135
549.602, 22.612
550.923, 6.123
552.244, 29.632
553.565, 34.188
554.886, 10.778
556.206, 29.265
557.526, 14.845
558.846, 22.313
560.166, 22.892
561.486, 17.414
562.805, 34.970
564.124, 11.570
565.443, 35.072
566.762, 36.676
568.080, 41.236
569.399, 56.041
570.717, 46.625
572.035, 37.421
573.352, 36.367
574.670, 26.307
575.987, 25.847
577.304, 22.042
578.621, 15.583
579.938, 19.516
581.254, 12.491
582.570, 14.984
583.886, 28.565
585.202, 49.095
586.518, 37.114
587.833, 64.658
589.148, 42.146
590.463, 46.798
591.778, 27.283
593.093, 43.272
594.407, 54.756
595.721, 13.240
597.035, 47.825
598.349, 49.306
599.662, 56.104
600.976, 55.622
602.289, 82.155
603.602, 121.714
604.914, 118.193
606.227, 117.729
607.539, 179.259
608.851, 211.732
610.163, 310.324
611.475, 464.795
612.786, 678.607
614.097, 1088.106
615.408, 1259.625
616.719, 1350.128
618.030, 1243.609
619.340, 1015.211
620.651, 902.788
621.961, 783.404
623.270, 815.866
624.580, 899.326
625.889, 1087.825
627.199, 1386.726
628.507, 1541.219
629.816, 1616.714
631.125, 1563.117
632.433, 1220.502
633.741, 1047.263
635.049, 867.711
636.357, 808.279
637.664, 787.912
638.972, 874.392
640.279, 1015.915
641.586, 1245.466
642.893, 1622.928
644.199, 1953.550
645.505, 2363.252
646.811, 2419.951
648.117, 2130.401
649.423, 1713.371
650.728, 1213.881
652.034, 839.306
653.339, 588.729
654.644, 380.149
655.948, 308.568
657.253, 262.985
658.557, 183.400
659.861, 135.090
661.165, 106.634
662.468, 89.043
663.772, 74.450
665.075, 64.148
666.378, 59.679
667.681, 50.300
668.983, 52.697
670.286, 44.451
671.588, 44.842
672.890, 43.161
674.192, 43.124
675.493, 36.747
676.795, 29.347
678.096, 18.793
679.397, 34.234
680.697, 30.606
681.998, 13.933
683.298, 12.278
684.598, 0.640
685.898, 11.150
687.198, 2.506
688.498, 37.858
689.797, 28.524
691.096, 37.865
692.395, 23.127
693.694, 8.467
694.992, 0.804
696.290, 6.079
697.589, 2.409
698.886, 10.697
700.184, 0.346
701.482, 14.664
702.779, 7.102
704.076, 0.587
705.373, 27.672
706.669, 1.024
707.966, 5.276
709.262, 10.370
710.558, 5.080
711.854, 5.795
713.150, 16.516
714.445, 16.244
715.740, 8.090
717.035, 5.351
718.330, 0.392
719.625, 8.834
720.919, 17.925
722.214, 16.274
723.508, 0.518
724.801, 7.716
726.095, 20.054
727.388, 4.168
728.682, 16.386
729.975, 4.400
731.267, 18.820
732.560, 18.973
733.852, 23.225
735.145, 27.420
736.437, 1.370
737.728, 14.817
739.020, 10.999
740.311, 6.178
741.603, 2.352
742.894, 0.196
744.184, 14.058
745.475, 1.220
746.765, 2.379
748.055, 17.533
749.345, 2.316
750.635, 22.831
751.925, 12.026
753.214, 7.110
754.503, 2.243
755.792, 5.373
757.081, 9.498
758.370, 3.380
759.658, 2.263
760.946, 4.150
762.234, 11.958
763.522, 14.062
764.809, 3.164
766.097, 16.739
767.384, 3.351
768.671, 2.437
769.958, 14.520
771.244, 13.600
772.530, 13.324
773.817, 8.747
775.102, 3.187
776.388, 6.124
777.674, 1.933
778.959, 2.014
780.244, 2.964
781.529, 0.081
782.814, 6.878
784.098, 9.841
785.383, 9.811
786.667, 4.214
787.951, 21.765
789.235, 1.752
790.518, 9.257
791.801, 8.263
793.084, 25.266
794.367, 11.266
795.650, 29.262
796.933, 19.256
798.215, 11.753
799.497, 4.769
800.779, 6.212
802.061, 10.189
803.342, 11.837
804.624, 4.868
805.905, 8.904
807.186, 14.055
808.466, 14.989
809.747, 5.961
811.027, 22.092
812.307, 2.847
813.587, 10.217
814.867, 11.286
816.146, 5.360
817.426, 3.441
818.705, 6.477
819.984, 5.393
821.263, 0.718
822.541, 28.161
823.819, 7.016
825.098, 20.851
826.375, 19.676
827.653, 14.425
828.931, 10.468
830.208, 10.358
831.485, 17.246
832.762, 9.085
834.039, 7.886
835.315, 14.710
836.592, 18.515
837.868, 15.644
839.144, 2.143
840.420, 8.005
841.695, 13.808
842.970, 8.575
844.246, 6.437
845.521, 34.194
846.795, 4.007
848.070, 16.543
849.344, 10.214
850.618, 30.866
851.892, 44.267
853.166, 5.328
854.440, 29.473
855.713, 39.260
856.986, 25.011
858.259, 73.812
859.532, 39.168
860.804, 25.002
862.077, 44.746
863.349, 25.539
864.621, 29.840
865.893, 17.614
867.164, 31.442
868.436, 0.896
869.707, 12.929
870.978, 10.249
872.248, 13.072
873.519, 5.106
874.789, 2.611
876.060, 11.430
877.330, 21.930
878.599, 9.707
879.869, 18.534
881.138, 7.802
882.408, 1.006
883.677, 8.754
884.945, 12.005
886.214, 17.203
887.482, 14.004
888.751, 26.810
890.019, 26.274
891.287, 39.394
892.554, 42.803
893.822, 47.571
895.089, 54.359
896.356, 40.025
897.623, 49.714
898.889, 61.363
900.156, 47.164
901.422, 74.965
902.688, 67.726
903.954, 70.346
905.220, 54.848
906.485, 68.607
907.750, 50.408
909.015, 40.209
910.280, 44.650
911.545, 56.443
912.809, 36.122
914.074, 54.735
915.338, 40.499
916.602, 46.204
917.865, 34.893
919.129, 36.640
920.392, 73.241
921.655, 19.776
922.918, 16.313
924.181, 53.097
925.443, 31.359
926.706, 62.081
927.968, 52.886
929.230, 27.693
930.491, 42.500
931.753, 47.308
933.014, 52.116
934.276, 71.926
935.536, 57.438
936.797, 65.116
938.058, 79.929
939.318, 87.742
940.578, 69.263
941.838, 70.950
943.098, 71.545
944.358, 94.363
945.617, 66.823
946.876, 71.643
948.135, 105.944
949.394, 91.764
950.653, 114.347
951.911, 81.910
953.169, 108.613
954.427, 102.357
955.685, 109.189
956.943, 152.023
958.200, 117.827
959.458, 149.664
960.715, 185.353
961.971, 232.195
963.228, 296.039
964.485, 347.569
965.741, 374.417
966.997, 347.267
968.253, 414.120
969.508, 481.975
970.764, 486.833
972.019, 597.693
973.274, 701.555
974.529, 778.093
975.784, 975.961
977.039, 1178.686
978.293, 1599.559
979.547, 2292.436
980.801, 3341.315
982.055, 5682.197
983.308, 10465.023
984.562, 24003.912
985.815, 48782.809
987.068, 61111.703
988.321, 50180.602
989.573, 29339.438
990.826, 15978.346
992.078, 9217.258
993.330, 5326.172
994.582, 3181.091
995.833, 2160.014
997.085, 1564.940
998.336, 1293.870
999.587, 958.803
1000.838, 859.741
1002.088, 746.683
1003.339, 619.628
1004.589, 560.566
1005.839, 463.518
1007.089, 421.475
1008.339, 370.436
1009.588, 320.345
1010.838, 312.313
1012.087, 276.658
1013.336, 231.259
1014.584, 239.239
1015.833, 231.938
1017.081, 210.837
1018.330, 197.827
1019.577, 196.821
1020.825, 198.818
1022.073, 174.819
1023.320, 155.825
1024.567, 154.833
1025.814, 125.847
1027.061, 143.866
1028.308, 126.889
1029.554, 93.916
1030.800, 103.946
1032.046, 79.981
1033.292, 95.020
1034.538, 96.063
1035.783, 79.111
1037.029, 76.162
1038.274, 70.217
1039.519, 62.479
1040.763, 64.342
1042.008, 55.411
1043.252, 65.484
1044.496, 68.560
1045.740, 61.936
1046.984, 53.728
1048.228, 51.818
1049.471, 63.914
1050.714, 60.013
1051.957, 68.117
1053.200, 24.225
1054.442, 35.337
1055.685, 14.455
1056.927, 52.577
1058.169, 66.705
1059.411, 34.837
1060.652, 30.975
1061.894, 21.119
1063.135, 51.266
1064.376, 32.417
1065.617, 38.573
1066.858, 9.732
1068.098, 6.896
1069.339, 21.066
1070.579, 38.243
1071.819, 15.424
1073.058, 17.611
1074.298, 27.801
1075.537, 43.999
1076.776, 30.203
1078.015, 35.414
1079.254, 24.629
1080.493, 46.851
1081.731, 57.077
1082.969, 85.310
1084.207, 89.549
1085.445, 62.795
1086.683, 101.045
1087.920, 43.300
1089.157, 72.564
1090.394, 92.832
1091.631, 76.106
1092.868, 104.387
1094.105, 107.673
1095.341, 172.964
1096.577, 222.260
1097.813, 254.560
1099.049, 361.866
1100.284, 518.177
1101.519, 637.492
1102.755, 703.811
1103.990, 739.134
1105.224, 604.461
1106.459, 473.793
1107.693, 346.132
1108.928, 276.481
1110.162, 209.834
1111.395, 180.192
1112.629, 175.553
1113.863, 141.919
1115.096, 158.288
1116.329, 165.662
1117.562, 132.040
1118.795, 170.421
1120.027, 185.807
1121.259, 218.196
1122.492, 301.589
1123.723, 261.987
1124.955, 345.389
1126.187, 361.794
1127.418, 467.203
1128.649, 541.616
1129.880, 724.032
1131.111, 969.453
1132.342, 1357.878
1133.572, 1899.307
1134.802, 2709.740
1136.033, 3588.177
1137.262, 4217.618
1138.492, 4503.064
1139.722, 4491.516
1140.951, 4667.971
1142.180, 4711.429
1143.409, 4398.894
1144.638, 4120.362
1145.866, 3324.834
1147.095, 2675.311
1148.323, 2160.792
1149.551, 1741.277
1150.779, 1385.768
1152.006, 1114.262
1153.234, 966.760
1154.461, 810.261
1155.688, 778.765
1156.915, 728.273
1158.141, 738.784
1159.368, 784.502
1160.594, 960.098
1161.820, 1195.619
1163.046, 1514.144
1164.272, 1772.671
1165.498, 1988.202
1166.723, 1821.736
1167.948, 1581.274
1169.173, 1260.814
1170.398, 1048.357
1171.623, 803.903
1172.847, 591.452
1174.071, 499.014
1175.295, 414.568
1176.519, 316.126
1177.743, 313.686
1178.966, 231.249
1180.190, 240.815
1181.413, 192.384
1182.636, 151.955
1183.858, 134.528
1185.081, 146.104
1186.303, 92.683
1187.526, 82.264
1188.748, 100.848
1189.969, 74.434
1191.191, 107.022
1192.412, 74.613
1193.634, 46.293
1194.855, 66.889
1196.076, 36.486
1197.296, 37.074
1198.517, 60.688
1199.737, 31.442
1200.957, 35.420
1202.177, 40.250
1203.397, 45.859
1204.617, 57.650
1205.836, 55.315
1207.055, 47.298
1208.274, 45.113
1209.493, 58.243
1210.712, 69.862
1211.930, 66.650
1213.148, 68.273
1214.367, 89.903
1215.584, 66.085
1216.802, 64.816
1218.020, 39.444
1219.237, 67.074
1220.454, 34.433
1221.671, 50.295
1222.888, 66.219
1224.105, 62.438
1225.321, 30.346
1226.537, 38.984
1227.753, 57.714
1228.969, 40.383
1230.185, 53.260
1231.400, 57.990
1232.616, 45.635
1233.831, 54.279
1235.046, 56.923
1236.261, 39.565
1237.475, 56.442
1238.689, 61.544
1239.904, 60.266
1241.118, 80.941
1242.332, 76.585
1243.545, 90.229
1244.759, 60.874
1245.972, 53.534
1247.185, 56.244
1248.398, 39.890
1249.611, 29.537
1250.823, 42.186
1252.036, 48.837
1253.248, 36.488
1254.460, 43.808
1255.671, 50.881
1256.883, 32.536
1258.095, 55.193
1259.306, 34.852
1260.517, 23.511
1261.728, 13.172
1262.938, 40.152
1264.149, 38.857
1265.359, 42.521
1266.569, 33.185
1267.779, 31.851
1268.989, 26.967
1270.199, 15.980
1271.408, 28.646
1272.617, 51.313
1273.826, 31.435
1275.035, 44.103
1276.244, 47.797
1277.452, 37.748
1278.661, 42.708
1279.869, 9.270
1281.077, 35.048
1282.285, 10.728
1283.492, 1.421
1284.700, 3.094
1285.907, 36.767
1287.114, 41.443
1288.321, 12.116
1289.527, 11.214
1290.734, 5.546
1291.940, 23.133
1293.146, 7.830
1294.352, 27.488
1295.558, 26.160
1296.763, 25.812
1297.969, 13.464
1299.174, 15.109
1300.379, 5.750
1301.584, 2.384
1302.788, 7.825
1303.993, 0.354
1305.197, 11.274
1306.401, 0.902
1307.605, 7.600
1308.809, 22.137
1310.013, 14.746
1311.216, 20.355
1312.419, 19.961
1313.622, 8.567
1314.825, 40.171
1316.028, 30.774
1317.230, 33.375
1318.432, 22.975
1319.634, 36.574
1320.836, 43.167
1322.038, 15.758
1323.240, 2.657
1324.441, 2.921
1325.642, 36.491
1326.843, 12.058
1328.044, 32.619
1329.245, 4.826
1330.445, 14.275
1331.645, 7.730
1332.845, 11.811
1334.045, 5.651
1335.245, 0.119
1336.445, 13.591
1337.644, 6.199
1338.843, 19.551
1340.042, 11.961
1341.241, 4.530
1342.440, 5.974
1343.638, 4.474
1344.836, 21.028
1346.034, 1.538
1347.232, 17.949
1348.430, 21.431
1349.628, 28.090
1350.825, 6.620
1352.022, 9.153
1353.219, 21.692
1354.416, 8.237
1355.613, 7.213
1356.809, 0.340
1358.005, 3.103
1359.202, 6.458
1360.398, 0.023
1361.593, 7.409
1362.789, 7.837
1363.984, 8.262
1365.179, 25.685
1366.374, 5.895
1367.569, 15.479
1368.764, 42.066
1369.958, 4.446
1371.153, 17.850
1372.347, 22.252
1373.541, 36.632
1374.735, 7.029
1375.928, 2.350
1377.122, 14.010
1378.315, 25.670
1379.508, 43.329
1380.701, 34.987
1381.893, 40.644
1383.086, 2.300
1384.278, 32.953
1385.470, 13.604
1386.662, 19.253
1387.854, 17.895
1389.046, 36.533
1390.237, 18.165
1391.428, 7.206
1392.619, 7.418
1393.810, 19.038
1395.001, 15.656
1396.191, 30.271
1397.382, 12.360
1398.572, 7.845
1399.762, 43.759
1400.952, 29.362
1402.141, 12.038
1403.331, 22.560
1404.520, 12.145
1405.709, 4.260
1406.898, 9.333
1408.087, 2.925
1409.275, 4.758
1410.464, 17.105
1411.652, 14.693
1412.840, 21.862
1414.028, 35.741
1415.215, 19.324
1416.403, 30.907
1417.590, 24.715
1418.777, 44.952
1419.964, 17.166
1421.151, 11.852
1422.338, 41.599
1423.524, 15.872
1424.710, 19.498
1425.896, 18.846
1427.082, 19.896
1428.268, 29.995
1429.453, 46.774
1430.639, 51.068
1431.824, 84.044
1433.009, 95.319
1434.194, 52.752
1435.378, 117.757
1436.563, 74.266
1437.747, 97.589
1438.931, 111.969
1440.115, 126.187
1441.299, 127.554
1442.482, 139.908
1443.666, 123.068
1444.849, 134.391
1446.032, 136.698
1447.215, 163.989
1448.397, 135.429
1449.580, 153.669
1450.762, 139.804
1451.944, 183.131
1453.126, 171.128
1454.308, 148.157
1455.490, 196.347
1456.671, 163.713
1457.852, 170.599
1459.033, 179.529
1460.214, 179.416
1461.395, 161.584
1462.575, 136.018
1463.756, 117.836
1464.936, 112.694
1466.116, 101.566
1467.296, 94.697
1468.475, 95.347
1469.655, 85.201
1470.834, 86.129
1472.013, 83.026
1473.192, 60.888
1474.371, 79.717
1475.550, 63.503
1476.728, 31.283
1477.906, 84.093
1479.084, 47.949
1480.262, 60.847
1481.440, 49.760
1482.617, 58.675
1483.795, 44.604
1484.972, 44.225
1486.149, 39.488
1487.326, 38.440
1488.502, 31.399
1489.679, 30.380
1490.855, 35.395
1492.031, 12.440
1493.207, 13.513
1494.383, 36.618
1495.559, 11.765
1496.734, 2.033
1497.909, 39.235
1499.084, 16.584
1500.259, 10.427
1501.434, 0.067
1502.608, 0.000
##END=



