##NAMES=Baryte
##RRUFFID=R040036
##IDEAL CHEMISTRY=BaS^6+^O_4_
##LOCALITY=Cumbria County, England
##OWNER=RRUFF
##SOURCE=University of Arizona Mineral Museum
##DESCRIPTION=Golden brown tabular crystal
##STATUS=The identification of this mineral has been confirmed by X-ray diffraction and chemical analysis
##URL=rruff.info/R040036
##MEASURED CHEMISTRY=Ba_1.00_S_1.00_O_4_; trace amounts of Pb
##PIN_ID=M00019
##ORIENTATION=Laser parallel to b* (0 1 0). Fiducial mark perpendicular to laser is parallel to c [0 0 1]
26.288, 0.000
27.694, 19.908
29.099, 0.649
30.504, 18.072
31.909, 5.097
33.313, 21.193
34.717, 47.001
36.121, 27.463
37.525, 25.113
38.929, 15.666
40.332, 23.701
41.735, 18.703
43.138, 35.196
44.541, 31.794
45.943, 11.438
47.345, 53.402
48.747, 72.977
50.149, 37.671
51.551, 26.477
52.952, 39.926
54.353, 46.412
55.754, 44.657
57.155, 42.581
58.555, 52.427
59.955, 55.936
61.355, 38.473
62.755, 46.073
64.154, 34.977
65.553, 22.357
66.952, 33.179
68.351, 15.412
69.750, 41.451
71.148, 31.887
72.546, 17.289
73.944, 11.758
75.342, 16.405
76.739, 28.386
78.136, 8.789
79.533, 0.706
80.930, 11.885
82.327, 2.210
83.723, 8.505
85.119, 4.804
86.515, 13.501
87.910, 16.225
89.306, 18.935
90.701, 9.719
92.096, 11.492
93.490, 12.280
94.885, 1.027
96.279, 19.315
97.673, 27.902
99.067, 25.627
100.461, 9.361
101.854, 4.768
103.247, 20.116
104.640, 28.281
106.032, 3.472
107.425, 31.682
108.817, 23.904
110.209, 16.135
111.601, 34.369
112.992, 64.603
114.384, 65.905
115.775, 82.226
117.166, 102.797
118.556, 111.450
119.947, 69.134
121.337, 63.709
122.727, 60.238
124.116, 57.872
125.506, 46.324
126.895, 45.818
128.284, 79.240
129.673, 67.492
131.062, 76.791
132.450, 57.039
133.838, 59.260
135.226, 54.563
136.614, 54.733
138.001, 30.816
139.388, 45.919
140.775, 51.080
142.162, 36.073
143.549, 59.131
144.935, 69.134
146.321, 61.947
147.707, 91.843
149.093, 134.850
150.478, 140.761
151.863, 177.735
153.248, 168.611
154.633, 147.414
156.018, 151.285
157.402, 134.122
158.786, 117.995
160.170, 108.844
161.554, 84.640
162.937, 53.369
164.320, 62.215
165.703, 41.954
167.086, 39.768
168.469, 32.503
169.851, 24.191
171.233, 28.937
172.615, 22.711
173.996, 24.412
175.378, 44.174
176.759, 35.837
178.140, 35.174
179.521, 55.273
180.901, 79.336
182.281, 110.279
183.662, 135.198
185.041, 176.042
186.421, 256.767
187.800, 322.448
189.180, 325.043
190.558, 295.630
191.937, 266.113
193.316, 204.518
194.694, 170.878
196.072, 114.049
197.450, 95.324
198.827, 63.613
200.205, 69.767
201.582, 46.834
202.959, 56.797
204.336, 42.922
205.712, 35.796
207.088, 27.652
208.465, 27.430
209.840, 21.168
211.216, 20.887
212.591, 18.555
213.967, 20.118
215.341, 28.668
216.716, 27.248
218.091, 22.642
219.465, 15.161
220.839, 14.691
222.213, 20.103
223.586, 29.436
224.960, 15.843
226.333, 22.338
227.706, 21.640
229.079, 20.735
230.451, 32.986
231.823, 28.058
233.195, 41.263
234.567, 8.234
235.939, 28.963
237.310, 17.629
238.682, 19.223
240.052, 22.029
241.423, 5.790
242.794, 16.528
244.164, 29.524
245.534, 5.789
246.904, 10.113
248.274, 33.420
249.643, 16.567
251.012, 18.646
252.381, 20.888
253.750, 3.182
255.118, 17.233
256.487, 26.532
257.855, 15.790
259.223, 12.972
260.590, 25.267
261.958, 8.697
263.325, 32.150
264.692, 31.586
266.059, 16.014
267.425, 30.433
268.791, 4.844
270.158, 19.229
271.523, 28.591
272.889, 8.935
274.255, 11.218
275.620, 11.492
276.985, 22.854
278.350, 14.209
279.714, 19.562
281.078, 27.860
282.443, 20.168
283.806, 11.448
285.170, 8.723
286.534, 25.883
287.897, 8.108
289.260, 16.351
290.623, 5.521
291.985, 19.793
293.348, 23.078
294.710, 9.356
296.072, 18.631
297.433, 23.901
298.795, 6.166
300.156, 10.425
301.517, 25.678
302.878, 8.927
304.239, 13.171
305.599, 3.410
306.959, 13.643
308.319, 15.871
309.679, 14.095
311.038, 22.287
312.398, 9.501
313.757, 11.632
315.116, 5.750
316.474, 6.137
317.833, 15.870
319.191, 7.927
320.549, 5.952
321.907, 0.982
323.264, 7.099
324.622, 15.164
325.979, 4.214
327.336, 21.346
328.692, 9.475
330.049, 12.594
331.405, 17.703
332.761, 20.802
334.117, 12.892
335.473, 4.974
336.828, 0.046
338.183, 1.176
339.538, 19.165
340.893, 10.213
342.247, 9.254
343.602, 18.288
344.956, 5.315
346.310, 6.334
347.663, 3.347
349.017, 26.312
350.370, 4.686
351.723, 28.250
353.076, 10.149
354.428, 21.005
355.780, 5.858
357.133, 13.677
358.484, 14.492
359.836, 20.294
361.188, 0.100
362.539, 6.943
363.890, 11.778
365.241, 22.589
366.591, 9.364
367.942, 7.134
369.292, 10.928
370.642, 3.502
371.992, 6.535
373.341, 4.334
374.691, 13.129
376.040, 25.920
377.388, 7.768
378.737, 18.594
380.086, 13.481
381.434, 21.208
382.782, 20.043
384.130, 28.830
385.477, 23.629
386.825, 37.444
388.172, 22.176
389.519, 29.973
390.865, 26.831
392.212, 30.571
393.558, 28.338
394.904, 35.213
396.250, 36.009
397.596, 27.815
398.941, 31.631
400.286, 18.349
401.631, 35.148
402.976, 29.988
404.321, 28.778
405.665, 21.555
407.009, 45.388
408.353, 13.142
409.697, 48.003
411.040, 42.861
412.384, 27.645
413.727, 63.493
415.070, 61.222
416.412, 51.015
417.755, 59.851
419.097, 71.594
420.439, 80.347
421.781, 70.101
423.122, 103.906
424.464, 101.670
425.805, 123.457
427.146, 161.282
428.486, 171.070
429.827, 231.816
431.167, 233.549
432.507, 319.362
433.847, 364.092
435.187, 455.859
436.526, 577.577
437.865, 705.368
439.204, 918.166
440.543, 1153.900
441.882, 1543.677
443.220, 1996.478
444.558, 2705.196
445.896, 3749.934
447.234, 5213.740
448.572, 7294.468
449.909, 9674.214
451.246, 11773.913
452.583, 12953.662
453.919, 11643.420
455.256, 9307.167
456.592, 6644.953
457.928, 4688.679
459.264, 3293.415
460.600, 2276.123
461.935, 1626.834
463.270, 1194.589
464.605, 932.309
465.940, 703.020
467.274, 556.708
468.609, 454.423
469.943, 362.178
471.277, 325.881
472.610, 262.664
473.944, 242.392
475.277, 198.135
476.610, 184.902
477.943, 161.683
479.275, 140.427
480.608, 118.136
481.940, 133.818
483.272, 128.510
484.604, 96.286
485.935, 101.021
487.267, 83.752
488.598, 85.525
489.929, 82.238
491.260, 70.955
492.590, 81.659
493.920, 74.467
495.250, 68.086
496.580, 53.893
497.910, 57.629
499.239, 48.418
500.569, 52.137
501.898, 66.894
503.226, 48.657
504.555, 50.447
505.883, 38.143
507.212, 68.874
508.540, 45.629
509.867, 70.435
511.195, 58.181
512.522, 61.917
513.849, 68.671
515.176, 61.391
516.503, 60.126
517.829, 67.851
519.156, 53.617
520.482, 78.424
521.808, 72.166
523.133, 55.959
524.459, 48.728
525.784, 67.533
527.109, 60.335
528.434, 55.140
529.758, 47.945
531.083, 42.750
532.407, 37.554
533.731, 36.267
535.055, 49.209
536.378, 34.227
537.701, 50.031
539.025, 45.834
540.348, 32.645
541.670, 33.447
542.993, 20.259
544.315, 22.061
545.637, 31.872
546.959, 33.675
548.281, 20.510
549.602, 29.327
550.923, 22.136
552.244, 26.024
553.565, 35.873
554.886, 26.673
556.206, 34.494
557.526, 24.292
558.846, 26.090
560.166, 21.887
561.486, 23.711
562.805, 25.507
564.124, 23.483
565.443, 18.314
566.762, 21.127
568.080, 23.927
569.399, 33.741
570.717, 20.532
572.035, 31.328
573.352, 25.135
574.670, 19.246
575.987, 24.073
577.304, 15.867
578.621, 25.004
579.938, 8.788
581.254, 10.732
582.570, 27.755
583.886, 35.669
585.202, 30.468
586.518, 10.248
587.833, 10.038
589.148, 25.941
590.463, 13.853
591.778, 28.629
593.093, 21.426
594.407, 20.481
595.721, 22.255
597.035, 23.068
598.349, 42.885
599.662, 30.722
600.976, 54.729
602.289, 58.626
603.602, 63.466
604.914, 74.266
606.227, 90.216
607.539, 120.175
608.851, 197.944
610.163, 291.733
611.475, 489.791
612.786, 743.553
614.097, 1201.653
615.408, 1592.412
616.719, 1767.416
618.030, 1533.313
619.340, 1157.174
620.651, 895.090
621.961, 658.994
623.270, 496.837
624.580, 422.924
625.889, 404.928
627.199, 427.733
628.507, 431.780
629.816, 459.542
631.125, 456.401
632.433, 400.141
633.741, 358.886
635.049, 306.623
636.357, 310.500
637.664, 315.235
638.972, 329.968
640.279, 366.109
641.586, 447.028
642.893, 541.769
644.199, 644.895
645.505, 798.627
646.811, 857.495
648.117, 801.352
649.423, 685.311
650.728, 525.096
652.034, 385.834
653.339, 284.547
654.644, 210.258
655.948, 152.967
657.253, 97.675
658.557, 96.380
659.861, 74.084
661.165, 46.786
662.468, 44.485
663.772, 48.183
665.075, 34.878
666.378, 17.608
667.681, 34.396
668.983, 13.125
670.286, 22.888
671.588, 23.572
672.890, 13.254
674.192, 21.933
675.493, 2.611
676.795, 5.715
678.096, 19.186
679.397, 15.145
680.697, 11.859
681.998, 15.522
683.298, 11.282
684.598, 16.100
685.898, 11.960
687.198, 13.451
688.498, 6.302
689.797, 9.950
691.096, 11.595
692.395, 0.763
693.694, 3.207
694.992, 17.843
696.290, 8.476
697.589, 16.146
698.886, 18.774
700.184, 24.400
701.482, 7.022
702.779, 14.643
704.076, 3.740
705.373, 4.874
706.669, 8.484
707.966, 11.092
709.262, 7.697
710.558, 15.299
711.854, 10.898
713.150, 8.496
714.445, 9.910
715.740, 3.678
717.035, 10.264
718.330, 11.153
719.625, 13.424
720.919, 3.008
722.214, 6.438
723.508, 1.873
724.801, 7.689
726.095, 11.248
727.388, 8.802
728.682, 1.646
729.975, 2.097
731.267, 21.449
732.560, 6.107
733.852, 8.326
735.145, 13.209
736.437, 4.742
737.728, 1.272
739.020, 0.798
740.311, 6.600
741.603, 1.778
742.894, 0.736
744.184, 3.247
745.475, 4.244
746.765, 4.740
748.055, 8.759
749.345, 4.256
750.635, 9.250
751.925, 14.239
753.214, 11.275
754.503, 22.205
755.792, 7.317
757.081, 2.844
758.370, 1.375
759.658, 3.910
760.946, 3.449
762.234, 0.992
763.522, 11.538
764.809, 8.090
766.097, 0.353
767.384, 10.207
768.671, 3.228
769.958, 2.341
771.244, 17.088
772.530, 5.513
773.817, 20.937
775.102, 3.642
776.388, 11.775
777.674, 7.190
778.959, 15.398
780.244, 5.992
781.529, 2.410
782.814, 15.191
784.098, 3.203
785.383, 4.406
786.667, 4.019
787.951, 8.636
789.235, 1.257
790.518, 0.608
791.801, 13.492
793.084, 10.863
794.367, 12.232
795.650, 15.598
796.933, 16.963
798.215, 13.979
799.497, 2.685
800.779, 9.043
802.061, 3.399
803.342, 6.753
804.624, 0.895
805.905, 3.546
807.186, 1.199
808.466, 2.856
809.747, 4.484
811.027, 10.823
812.307, 24.160
813.587, 15.496
814.867, 22.780
816.146, 10.104
817.426, 12.777
818.705, 2.454
819.984, 16.859
821.263, 4.823
822.541, 7.517
823.819, 11.205
825.098, 7.096
826.375, 9.402
827.653, 6.674
828.931, 8.961
830.208, 15.254
831.485, 15.556
832.762, 15.691
834.039, 11.984
835.315, 2.746
836.592, 11.544
837.868, 5.833
839.144, 9.120
840.420, 3.378
841.695, 8.662
842.970, 8.763
844.246, 25.008
845.521, 18.269
846.795, 24.541
848.070, 16.796
849.344, 3.073
850.618, 15.342
851.892, 25.599
853.166, 17.549
854.440, 9.782
855.713, 18.045
856.986, 24.965
858.259, 55.235
859.532, 23.343
860.804, 28.371
862.077, 52.505
863.349, 24.754
864.621, 36.019
865.893, 16.272
867.164, 11.411
868.436, 8.539
869.707, 9.198
870.978, 2.960
872.248, 8.020
873.519, 1.279
874.789, 25.511
876.060, 4.711
877.330, 7.098
878.599, 19.078
879.869, 2.047
881.138, 6.230
882.408, 7.451
883.677, 4.521
884.945, 18.580
886.214, 17.549
887.482, 18.055
888.751, 27.012
890.019, 43.264
891.287, 52.017
892.554, 34.427
893.822, 58.433
895.089, 57.545
896.356, 51.691
897.623, 69.781
898.889, 52.882
900.156, 57.042
901.422, 74.959
902.688, 77.957
903.954, 53.153
905.220, 48.106
906.485, 50.343
907.750, 57.482
909.015, 51.739
910.280, 55.991
911.545, 59.249
912.809, 38.366
914.074, 37.626
915.338, 41.886
916.602, 35.737
917.865, 42.809
919.129, 41.673
920.392, 47.922
921.655, 41.178
922.918, 36.298
924.181, 31.429
925.443, 40.456
926.706, 57.658
927.968, 35.905
929.230, 55.176
930.491, 33.450
931.753, 45.724
933.014, 65.000
934.276, 45.277
935.536, 64.555
936.797, 67.835
938.058, 66.117
939.318, 71.400
940.578, 75.684
941.838, 63.933
943.098, 91.124
944.358, 78.374
945.617, 64.588
946.876, 72.881
948.135, 87.175
949.394, 106.471
950.653, 98.769
951.911, 99.069
953.169, 100.141
954.427, 100.154
955.685, 117.412
956.943, 133.721
958.200, 123.932
959.458, 159.085
960.715, 163.157
961.971, 229.474
963.228, 308.794
964.485, 365.116
965.741, 423.440
966.997, 388.767
968.253, 409.766
969.508, 498.099
970.764, 532.433
972.019, 633.732
973.274, 707.071
974.529, 814.414
975.784, 986.759
977.039, 1193.106
978.293, 1565.457
979.547, 2189.811
980.801, 3163.167
982.055, 5176.527
983.308, 9270.890
984.562, 20353.252
985.815, 45362.625
987.068, 64331.996
988.321, 58881.367
989.573, 35360.742
990.826, 18380.125
992.078, 10459.509
993.330, 5967.897
994.582, 3633.288
995.833, 2422.683
997.085, 1679.083
998.336, 1374.486
999.587, 1061.892
1000.838, 937.301
1002.088, 806.713
1003.339, 670.129
1004.589, 575.549
1005.839, 529.858
1007.089, 463.257
1008.339, 426.688
1009.588, 385.566
1010.838, 371.560
1012.087, 319.001
1013.336, 291.367
1014.584, 260.513
1015.833, 236.966
1017.081, 225.423
1018.330, 237.883
1019.577, 197.348
1020.825, 207.817
1022.073, 188.290
1023.320, 184.766
1024.567, 180.247
1025.814, 150.732
1027.061, 152.222
1028.308, 121.717
1029.554, 130.216
1030.800, 102.719
1032.046, 107.227
1033.292, 80.739
1034.538, 91.256
1035.783, 96.777
1037.029, 83.303
1038.274, 66.835
1039.519, 55.370
1040.763, 62.912
1042.008, 54.456
1043.252, 52.006
1044.496, 63.559
1045.740, 41.116
1046.984, 62.678
1048.228, 52.243
1049.471, 48.813
1050.714, 72.386
1051.957, 50.965
1053.200, 61.549
1054.442, 48.137
1055.685, 38.730
1056.927, 43.327
1058.169, 55.929
1059.411, 37.535
1060.652, 35.147
1061.894, 35.762
1063.135, 20.381
1064.376, 44.046
1065.617, 13.673
1066.858, 25.305
1068.098, 39.941
1069.339, 35.581
1070.579, 35.224
1071.819, 28.873
1073.058, 41.526
1074.298, 42.182
1075.537, 58.843
1076.776, 51.509
1078.015, 48.179
1079.254, 54.855
1080.493, 87.535
1081.731, 59.220
1082.969, 82.911
1084.207, 77.607
1085.445, 64.307
1086.683, 87.010
1087.920, 90.719
1089.157, 94.434
1090.394, 116.154
1091.631, 145.878
1092.868, 176.607
1094.105, 237.340
1095.341, 290.081
1096.577, 400.826
1097.813, 595.575
1099.049, 855.330
1100.284, 1216.091
1101.519, 1621.857
1102.755, 2072.631
1103.990, 2116.408
1105.224, 1825.191
1106.459, 1360.978
1107.693, 1027.769
1108.928, 727.564
1110.162, 572.363
1111.395, 384.166
1112.629, 298.972
1113.863, 207.782
1115.096, 197.597
1116.329, 174.414
1117.562, 141.236
1118.795, 96.061
1120.027, 94.890
1121.259, 113.723
1122.492, 127.560
1123.723, 74.400
1124.955, 93.245
1126.187, 96.094
1127.418, 109.946
1128.649, 122.802
1129.880, 161.662
1131.111, 184.526
1132.342, 341.393
1133.572, 487.264
1134.802, 771.138
1136.033, 1132.017
1137.262, 1344.900
1138.492, 1289.786
1139.722, 1046.677
1140.951, 823.571
1142.180, 648.469
1143.409, 486.372
1144.638, 379.280
1145.866, 327.191
1147.095, 262.106
1148.323, 217.026
1149.551, 188.949
1150.779, 183.876
1152.006, 146.807
1153.234, 131.741
1154.461, 180.700
1155.688, 140.641
1156.915, 186.585
1158.141, 224.541
1159.368, 270.491
1160.594, 331.615
1161.820, 486.571
1163.046, 641.531
1164.272, 801.494
1165.498, 944.459
1166.723, 927.520
1167.948, 840.492
1169.173, 642.539
1170.398, 534.517
1171.623, 419.498
1172.847, 294.570
1174.071, 235.557
1175.295, 206.546
1176.519, 137.537
1177.743, 127.722
1178.966, 109.719
1180.190, 86.719
1181.413, 71.722
1182.636, 47.726
1183.858, 31.734
1185.081, 35.744
1186.303, 50.756
1187.526, 33.771
1188.748, 27.789
1189.969, 41.808
1191.191, 39.830
1192.412, 11.855
1193.634, 15.881
1194.855, 10.910
1196.076, 6.058
1197.296, 15.041
1198.517, 6.076
1199.737, 20.291
1200.957, 12.330
1202.177, 5.371
1203.397, 28.642
1204.617, 24.687
1205.836, 12.735
1207.055, 16.015
1208.274, 17.066
1209.493, 17.150
1210.712, 30.486
1211.930, 24.542
1213.148, 38.976
1214.367, 31.344
1215.584, 23.552
1216.802, 48.632
1218.020, 36.714
1219.237, 34.780
1220.454, 27.232
1221.671, 24.231
1222.888, 18.481
1224.105, 17.552
1225.321, 19.625
1226.537, 11.232
1227.753, 11.318
1228.969, 1.513
1230.185, 36.990
1231.400, 23.563
1232.616, 37.813
1233.831, 41.509
1235.046, 30.590
1236.261, 33.896
1237.475, 36.980
1238.689, 46.222
1239.904, 45.307
1241.118, 42.439
1242.332, 30.526
1243.545, 62.613
1244.759, 38.702
1245.972, 37.869
1247.185, 15.959
1248.398, 43.050
1249.611, 46.143
1250.823, 51.237
1252.036, 32.370
1253.248, 24.468
1254.460, 37.646
1255.671, 39.803
1256.883, 27.076
1258.095, 14.179
1259.306, 21.283
1260.517, 24.389
1261.728, 17.596
1262.938, 25.704
1264.149, 25.813
1265.359, 24.924
1266.569, 21.275
1267.779, 33.388
1268.989, 28.501
1270.199, 30.718
1271.408, 21.833
1272.617, 31.013
1273.826, 46.327
1275.035, 38.805
1276.244, 58.922
1277.452, 50.039
1278.661, 19.157
1279.869, 28.317
1281.077, 42.508
1282.285, 20.672
1283.492, 26.793
1284.700, 2.087
1285.907, 13.035
1287.114, 7.157
1288.321, 0.721
1289.527, 29.400
1290.734, 10.479
1291.940, 16.641
1293.146, 18.760
1294.352, 21.876
1295.558, 17.991
1296.763, 5.898
1297.969, 13.212
1299.174, 4.680
1300.379, 9.427
1301.584, 6.534
1302.788, 5.364
1303.993, 9.734
1305.197, 11.825
1306.401, 14.912
1307.605, 10.004
1308.809, 20.077
1310.013, 23.158
1311.216, 2.238
1312.419, 21.317
1313.622, 17.396
1314.825, 9.474
1316.028, 2.550
1317.230, 25.623
1318.432, 34.695
1319.634, 36.766
1320.836, 15.835
1322.038, 23.901
1323.240, 11.966
1324.441, 6.028
1325.642, 8.085
1326.843, 2.904
1328.044, 14.146
1329.245, 7.808
1330.445, 10.235
1331.645, 2.276
1332.845, 9.685
1334.045, 5.350
1335.245, 1.383
1336.445, 9.587
1337.644, 8.440
1338.843, 0.536
1340.042, 11.514
1341.241, 6.504
1342.440, 15.480
1343.638, 12.468
1344.836, 5.459
1346.034, 0.546
1347.232, 0.549
1348.430, 28.549
1349.628, 15.454
1350.825, 16.539
1352.022, 3.470
1353.219, 8.519
1354.416, 8.505
1355.613, 21.512
1356.809, 1.467
1358.005, 3.556
1359.202, 15.581
1360.398, 19.611
1361.593, 5.645
1362.789, 24.681
1363.984, 11.277
1365.179, 7.763
1366.374, 15.192
1367.569, 4.855
1368.764, 7.096
1369.958, 0.046
1371.153, 7.995
1372.347, 4.944
1373.541, 3.893
1374.735, 1.157
1375.928, 14.797
1377.122, 7.245
1378.315, 21.053
1379.508, 6.180
1380.701, 1.307
1381.893, 4.431
1383.086, 0.446
1384.278, 0.677
1385.470, 4.202
1386.662, 15.917
1387.854, 21.034
1389.046, 39.150
1390.237, 0.740
1391.428, 19.368
1392.619, 9.474
1393.810, 16.578
1395.001, 6.346
1396.191, 8.754
1397.382, 25.843
1398.572, 0.266
1399.762, 15.828
1400.952, 1.807
1402.141, 4.194
1403.331, 11.106
1404.520, 17.866
1405.709, 12.951
1406.898, 7.783
1408.087, 3.863
1409.275, 1.942
1410.464, 3.914
1411.652, 14.096
1412.840, 13.173
1414.028, 15.249
1415.215, 23.324
1416.403, 12.302
1417.590, 17.112
1418.777, 14.841
1419.964, 17.904
1421.151, 17.613
1422.338, 16.183
1423.524, 15.637
1424.710, 31.947
1425.896, 38.922
1427.082, 41.078
1428.268, 31.151
1429.453, 47.172
1430.639, 38.241
1431.824, 40.326
1433.009, 76.115
1434.194, 59.955
1435.378, 71.487
1436.563, 64.127
1437.747, 58.971
1438.931, 62.902
1440.115, 82.674
1441.299, 65.593
1442.482, 96.424
1443.666, 89.152
1444.849, 67.539
1446.032, 86.402
1447.215, 94.024
1448.397, 82.856
1449.580, 106.107
1450.762, 98.900
1451.944, 114.428
1453.126, 102.524
1454.308, 93.321
1455.490, 86.015
1456.671, 81.217
1457.852, 86.907
1459.033, 75.528
1460.214, 83.123
1461.395, 80.705
1462.575, 96.267
1463.756, 84.829
1464.936, 76.394
1466.116, 55.953
1467.296, 65.500
1468.475, 70.084
1469.655, 49.709
1470.834, 49.331
1472.013, 57.933
1473.192, 15.514
1474.371, 32.088
1475.550, 20.651
1476.728, 33.208
1477.906, 44.762
1479.084, 35.357
1480.262, 42.974
1481.440, 25.603
1482.617, 48.234
1483.795, 25.873
1484.972, 25.521
1486.149, 20.180
1487.326, 16.846
1488.502, 13.520
1489.679, 16.210
1490.855, 7.925
1492.031, 0.336
1493.207, 4.271
1494.383, 4.841
1495.559, 11.048
1496.734, 14.925
1497.909, 21.802
1499.084, 20.806
1500.259, 6.917
1501.434, 15.242
1502.608, 0.000
##END=



