##NAMES=Baryte
##RRUFFID=R040036
##IDEAL CHEMISTRY=BaS^6+^O_4_
##LOCALITY=Cumbria County, England
##OWNER=RRUFF
##SOURCE=University of Arizona Mineral Museum
##DESCRIPTION=Golden brown tabular crystal
##STATUS=The identification of this mineral has been confirmed by X-ray diffraction and chemical analysis
##URL=rruff.info/R040036
##MEASURED CHEMISTRY=Ba_1.00_S_1.00_O_4_; trace amounts of Pb
##PIN_ID=M00028
##ORIENTATION=Laser parallel to -a* (-1 0 0). Fiducial mark perpendicular to laser is parallel to -b [0 -1 0]
26.288, 0.000
27.694, 6.627
29.099, 23.863
30.504, 51.260
31.909, 20.211
33.313, 4.629
34.717, 35.521
36.121, 14.568
37.525, 35.345
38.929, 57.315
40.332, 40.257
41.735, 55.417
43.138, 63.169
44.541, 60.333
45.943, 52.207
47.345, 58.020
48.747, 66.397
50.149, 94.900
51.551, 82.214
52.952, 95.682
54.353, 104.750
55.754, 93.248
57.155, 127.688
58.555, 146.337
59.955, 150.987
61.355, 153.561
62.755, 152.844
64.154, 124.867
65.553, 136.010
66.952, 104.932
68.351, 99.872
69.750, 85.832
71.148, 77.811
72.546, 70.808
73.944, 69.821
75.342, 63.849
76.739, 46.887
78.136, 38.815
79.533, 24.062
80.930, 9.039
82.327, 0.087
83.723, 17.870
85.119, 17.831
86.515, 40.795
87.910, 37.762
89.306, 47.731
90.701, 32.701
92.096, 39.672
93.490, 28.644
94.885, 17.616
96.279, 3.588
97.673, 13.440
99.067, 21.470
100.461, 46.501
101.854, 67.550
103.247, 109.659
104.640, 96.821
106.032, 154.026
107.425, 206.267
108.817, 219.539
110.209, 282.837
111.601, 280.154
112.992, 392.486
114.384, 451.829
115.775, 419.180
117.166, 478.534
118.556, 439.884
119.947, 555.229
121.337, 499.565
122.727, 541.892
124.116, 513.208
125.506, 613.510
126.895, 695.799
128.284, 760.069
129.673, 869.313
131.062, 758.519
132.450, 696.676
133.838, 560.783
135.226, 544.848
136.614, 492.881
138.001, 430.899
139.388, 488.913
140.775, 443.929
142.162, 536.949
143.549, 533.973
144.935, 621.002
146.321, 693.035
147.707, 714.072
149.093, 836.114
150.478, 765.159
151.863, 842.209
153.248, 754.263
154.633, 716.321
156.018, 644.383
157.402, 591.449
158.786, 585.519
160.170, 469.594
161.554, 469.672
162.937, 405.755
164.320, 431.842
165.703, 423.934
167.086, 379.030
168.469, 411.130
169.851, 376.235
171.233, 400.345
172.615, 390.459
173.996, 394.577
175.378, 402.700
176.759, 362.581
178.140, 386.383
179.521, 320.102
180.901, 365.733
182.281, 339.287
183.662, 338.676
185.041, 364.102
186.421, 353.380
187.800, 417.666
189.180, 351.899
190.558, 414.050
191.937, 364.160
193.316, 377.204
194.694, 379.174
196.072, 296.025
197.450, 343.827
198.827, 300.595
200.205, 319.351
201.582, 298.056
202.959, 294.705
204.336, 317.285
205.712, 256.753
207.088, 316.150
208.465, 252.458
209.840, 273.690
211.216, 301.876
212.591, 269.039
213.967, 297.148
215.341, 261.305
216.716, 278.335
218.091, 252.348
219.465, 267.303
220.839, 264.227
222.213, 236.126
223.586, 285.026
224.960, 214.906
226.333, 279.652
227.706, 253.333
229.079, 261.867
230.451, 264.193
231.823, 232.362
233.195, 277.125
234.567, 216.900
235.939, 248.153
237.310, 238.488
238.682, 221.602
240.052, 257.078
241.423, 193.520
242.794, 225.114
244.164, 183.975
245.534, 220.174
246.904, 209.703
248.274, 164.354
249.643, 225.257
251.012, 161.281
252.381, 224.507
253.750, 180.680
255.118, 225.914
256.487, 215.150
257.855, 182.388
259.223, 247.628
260.590, 152.870
261.958, 214.113
263.325, 217.359
264.692, 182.648
266.059, 219.898
267.425, 157.149
268.791, 193.231
270.158, 176.658
271.523, 216.927
272.889, 203.186
274.255, 164.448
275.620, 210.713
276.985, 159.980
278.350, 191.250
279.714, 135.522
281.078, 176.798
282.443, 156.077
283.806, 113.359
285.170, 209.646
286.534, 117.936
287.897, 177.230
289.260, 145.527
290.623, 126.829
291.985, 174.135
293.348, 95.444
294.710, 156.757
296.072, 118.074
297.433, 178.396
298.795, 131.720
300.156, 78.049
301.517, 178.382
302.878, 90.718
304.239, 140.059
305.599, 99.403
306.959, 114.751
308.319, 148.103
309.679, 111.459
311.038, 170.819
312.398, 107.183
313.757, 131.550
315.116, 114.922
316.474, 113.297
317.833, 175.677
319.191, 82.060
320.549, 135.447
321.907, 73.838
323.264, 121.233
324.622, 121.623
325.979, 65.010
327.336, 133.393
328.692, 65.773
330.049, 100.151
331.405, 81.526
332.761, 100.900
334.117, 103.272
335.473, 72.643
336.828, 126.013
338.183, 60.382
339.538, 113.751
340.893, 100.120
342.247, 63.489
343.602, 97.868
344.956, 98.230
346.310, 109.602
347.663, 101.975
349.017, 90.351
350.370, 127.728
351.723, 63.107
353.076, 155.489
354.428, 56.874
355.780, 87.263
357.133, 78.885
358.484, 24.282
359.836, 99.683
361.188, 11.088
362.539, 105.498
363.890, 46.913
365.241, 44.333
366.591, 91.758
367.942, 18.189
369.292, 92.625
370.642, 30.093
371.992, 92.541
373.341, 56.995
374.691, 36.455
376.040, 89.924
377.388, 31.420
378.737, 73.906
380.086, 43.403
381.434, 43.910
382.782, 76.431
384.130, 51.966
385.477, 81.514
386.825, 14.925
388.172, 81.647
389.519, 73.235
390.865, 43.834
392.212, 88.442
393.558, 27.057
394.904, 102.679
396.250, 68.309
397.596, 41.944
398.941, 77.584
400.286, 24.228
401.631, 93.877
402.976, 19.532
404.321, 48.192
405.665, 70.856
407.009, 9.524
408.353, 71.196
409.697, 7.125
411.040, 67.558
412.384, 45.246
413.727, 8.941
415.070, 81.640
416.412, 0.652
417.755, 101.060
419.097, 30.776
420.439, 33.596
421.781, 83.322
423.122, 26.057
424.464, 79.796
425.805, 33.539
427.146, 88.287
428.486, 86.041
429.827, 62.800
431.167, 129.565
432.507, 56.333
433.847, 140.109
435.187, 161.889
436.526, 153.675
437.865, 227.465
439.204, 227.259
440.543, 374.060
441.882, 369.864
443.220, 550.674
444.558, 700.488
445.896, 881.306
447.234, 1335.129
448.572, 1702.955
449.909, 2481.787
451.246, 3174.622
452.583, 4063.461
453.919, 4678.307
455.256, 4297.157
456.592, 3639.013
457.928, 2750.872
459.264, 2129.735
460.600, 1865.607
461.935, 1644.483
463.270, 1562.363
464.605, 1184.246
465.940, 907.133
467.274, 663.024
468.609, 413.919
469.943, 373.818
471.277, 237.721
472.610, 236.627
473.944, 196.540
475.277, 135.457
476.610, 168.380
477.943, 87.307
479.275, 109.238
480.608, 106.176
481.940, 41.119
483.272, 105.065
484.604, 46.015
485.935, 97.970
487.267, 42.933
488.598, 25.900
489.929, 92.870
491.260, 3.844
492.590, 92.822
493.920, 20.805
495.250, 47.791
496.580, 61.781
497.910, 13.775
499.239, 83.772
500.569, 23.225
501.898, 50.780
503.226, 41.787
504.555, 13.798
505.883, 88.813
507.212, 15.832
508.540, 62.856
509.867, 68.882
511.195, 11.912
512.522, 96.945
513.849, 4.018
515.176, 93.022
516.503, 64.065
517.829, 55.113
519.156, 101.164
520.482, 2.781
521.808, 90.275
523.133, 50.335
524.459, 56.398
525.784, 89.464
527.109, 37.533
528.434, 85.604
529.758, 29.677
531.083, 60.638
532.407, 73.396
533.731, 48.478
535.055, 113.563
536.378, 19.649
537.701, 90.738
539.025, 61.136
540.348, 37.229
541.670, 84.323
542.993, 12.520
544.315, 73.624
545.637, 54.117
546.959, 30.225
548.281, 83.334
549.602, 20.445
550.923, 87.559
552.244, 44.110
553.565, 58.185
554.886, 91.304
556.206, 6.164
557.526, 90.288
558.846, 10.265
560.166, 74.381
561.486, 90.509
562.805, 11.041
564.124, 64.089
565.443, 23.986
566.762, 53.118
568.080, 72.259
569.399, 3.677
570.717, 73.811
572.035, 23.467
573.352, 83.647
574.670, 77.783
575.987, 33.541
577.304, 113.679
578.621, 13.141
579.938, 98.279
581.254, 99.418
582.570, 71.075
583.886, 133.215
585.202, 58.599
586.518, 158.740
587.833, 119.881
589.148, 129.111
590.463, 189.253
591.778, 123.490
593.093, 233.631
594.407, 142.773
595.721, 148.624
597.035, 259.766
598.349, 174.223
599.662, 308.367
600.976, 253.511
602.289, 274.654
603.602, 320.797
604.914, 307.941
606.227, 492.084
607.539, 542.226
608.851, 699.549
610.163, 985.690
611.475, 1263.831
612.786, 2010.972
614.097, 2784.112
615.408, 3965.847
616.719, 5202.986
618.030, 5523.705
619.340, 5433.845
620.651, 4444.981
621.961, 3566.968
623.270, 2854.102
624.580, 2207.235
625.889, 1952.536
627.199, 1630.667
628.507, 1613.835
629.816, 1581.964
631.125, 1369.091
632.433, 1291.216
633.741, 903.341
635.049, 733.762
636.357, 576.884
637.664, 379.004
638.972, 392.123
640.279, 266.240
641.586, 287.844
642.893, 267.728
644.199, 201.841
645.505, 294.952
646.811, 158.061
648.117, 287.592
649.423, 218.698
650.728, 178.802
652.034, 256.903
653.339, 145.003
654.644, 183.277
655.948, 168.347
657.253, 82.441
658.557, 170.914
659.861, 45.004
661.165, 80.092
662.468, 86.158
663.772, 58.242
665.075, 124.457
666.378, 14.537
667.681, 83.614
668.983, 76.689
670.286, 7.762
671.588, 109.092
672.890, 26.839
674.192, 43.222
675.493, 39.279
676.795, 9.335
678.096, 78.388
679.397, 10.562
680.697, 105.483
681.998, 53.526
683.298, 1.434
684.598, 79.784
685.898, 13.182
687.198, 67.845
688.498, 29.918
689.797, 21.940
691.096, 75.113
692.395, 14.871
693.694, 71.139
694.992, 16.235
696.290, 27.760
697.589, 65.675
698.886, 32.333
700.184, 73.647
701.482, 42.625
702.779, 9.400
704.076, 78.472
705.373, 28.562
706.669, 51.394
707.966, 8.347
709.262, 7.703
710.558, 81.241
711.854, 17.818
713.150, 3.116
714.445, 16.045
715.740, 22.028
717.035, 61.890
718.330, 9.196
719.625, 55.713
720.919, 26.619
722.214, 17.479
723.508, 79.416
724.801, 5.692
726.095, 53.194
727.388, 46.077
728.682, 0.958
729.975, 78.834
731.267, 0.707
732.560, 39.576
733.852, 27.443
735.145, 25.694
736.437, 87.159
737.728, 8.367
739.020, 25.477
740.311, 58.318
741.603, 37.843
742.894, 95.983
744.184, 15.871
745.475, 28.691
746.765, 47.507
748.055, 2.679
749.345, 80.130
750.635, 22.937
751.925, 28.740
753.214, 69.540
754.503, 20.663
755.792, 77.126
757.081, 20.089
758.370, 9.688
759.658, 79.462
760.946, 31.767
762.234, 97.993
763.522, 21.751
764.809, 2.495
766.097, 92.255
767.384, 39.999
768.671, 74.736
769.958, 37.467
771.244, 20.196
772.530, 74.922
773.817, 8.355
775.102, 98.362
776.388, 38.076
777.674, 24.788
778.959, 104.498
780.244, 16.796
781.529, 80.903
782.814, 48.601
784.098, 27.297
785.383, 83.989
786.667, 14.321
787.951, 101.363
789.235, 50.044
790.518, 21.722
791.801, 109.398
793.084, 3.928
794.367, 62.742
795.650, 52.409
796.933, 12.927
798.215, 133.732
799.497, 19.389
800.779, 21.043
802.061, 77.695
803.342, 2.655
804.624, 85.991
805.905, 21.635
807.186, 43.276
808.466, 85.916
809.747, 8.446
811.027, 73.186
812.307, 16.139
813.587, 30.767
814.867, 72.394
816.146, 5.019
817.426, 80.642
818.705, 10.955
819.984, 50.574
821.263, 81.192
822.541, 49.293
823.819, 58.310
825.098, 51.523
826.375, 0.878
827.653, 116.719
828.931, 5.686
830.208, 73.906
831.485, 79.062
832.762, 3.350
834.039, 135.237
835.315, 18.918
836.592, 40.661
837.868, 71.387
839.144, 12.964
840.420, 131.539
841.695, 23.791
842.970, 121.365
844.246, 113.170
845.521, 30.741
846.795, 166.303
848.070, 78.588
849.344, 97.157
850.618, 165.204
851.892, 80.728
853.166, 173.295
854.440, 129.240
855.713, 107.806
856.986, 230.048
858.259, 92.613
859.532, 225.177
860.804, 215.225
862.077, 134.791
863.349, 230.112
864.621, 89.676
865.893, 184.240
867.164, 175.716
868.436, 62.280
869.707, 170.749
870.978, 30.314
872.248, 94.878
873.519, 98.732
874.789, 31.703
876.060, 120.542
877.330, 63.100
878.599, 99.659
879.869, 174.219
881.138, 6.222
882.408, 159.336
883.677, 106.895
884.945, 67.454
886.214, 154.833
887.482, 26.394
888.751, 152.954
890.019, 92.516
891.287, 42.077
892.554, 208.043
893.822, 67.608
895.089, 153.592
896.356, 139.155
897.623, 53.726
898.889, 237.446
900.156, 117.018
901.422, 120.593
902.688, 210.999
903.954, 81.576
905.220, 187.114
906.485, 117.693
907.750, 82.273
909.015, 142.854
910.280, 50.437
911.545, 156.725
912.809, 133.313
914.074, 70.904
915.338, 195.495
916.602, 43.088
917.865, 131.198
919.129, 152.797
920.392, 67.399
921.655, 167.004
922.918, 73.612
924.181, 105.799
925.443, 187.411
926.706, 61.026
927.968, 217.648
929.230, 135.272
930.491, 41.722
931.753, 165.350
933.014, 78.980
934.276, 152.232
935.536, 137.866
936.797, 89.503
938.058, 223.144
939.318, 109.787
940.578, 214.299
941.838, 199.947
943.098, 92.597
944.358, 231.249
945.617, 130.904
946.876, 103.301
948.135, 225.960
949.394, 64.625
950.653, 150.292
951.911, 165.962
953.169, 126.634
954.427, 255.308
955.685, 117.986
956.943, 198.667
958.200, 248.350
959.458, 138.854
960.715, 272.543
961.971, 153.237
963.228, 297.885
964.485, 374.583
965.741, 345.131
966.997, 516.836
968.253, 481.545
969.508, 426.169
970.764, 625.884
972.019, 518.165
973.274, 675.890
974.529, 819.622
975.784, 783.357
977.039, 1062.094
978.293, 1159.837
979.547, 1544.582
980.801, 2289.334
982.055, 2972.089
983.308, 5021.848
984.562, 8662.610
985.815, 18321.514
987.068, 40150.285
988.321, 60249.062
989.573, 60467.840
990.826, 39546.629
992.078, 21375.412
993.330, 11654.203
994.582, 6395.999
995.833, 3991.162
997.085, 2710.967
998.336, 1819.777
999.587, 1518.591
1000.838, 1207.409
1002.088, 1061.384
1003.339, 1063.214
1004.589, 781.047
1005.839, 761.883
1007.089, 628.723
1008.339, 465.566
1009.588, 580.416
1010.838, 402.646
1012.087, 383.505
1013.336, 470.366
1014.584, 320.231
1015.833, 416.104
1017.081, 313.915
1018.330, 298.794
1019.577, 369.677
1020.825, 244.564
1022.073, 347.454
1023.320, 375.348
1024.567, 270.246
1025.814, 448.148
1027.061, 333.054
1028.308, 344.371
1029.554, 397.286
1030.800, 263.208
1032.046, 341.764
1033.292, 229.693
1034.538, 173.628
1035.783, 274.701
1037.029, 140.644
1038.274, 159.592
1039.519, 207.543
1040.763, 85.503
1042.008, 201.484
1043.252, 115.450
1044.496, 77.419
1045.740, 141.949
1046.984, 63.926
1048.228, 155.041
1049.471, 142.025
1050.714, 48.012
1051.957, 184.643
1053.200, 103.639
1054.442, 209.658
1055.685, 333.273
1056.927, 284.277
1058.169, 366.639
1059.411, 234.652
1060.652, 116.668
1061.894, 205.897
1063.135, 38.919
1064.376, 131.943
1065.617, 161.023
1066.858, 56.055
1068.098, 203.156
1069.339, 116.195
1070.579, 117.237
1071.819, 263.829
1073.058, 100.877
1074.298, 249.927
1075.537, 330.059
1076.776, 300.115
1078.015, 488.190
1079.254, 424.251
1080.493, 712.315
1081.731, 938.415
1082.969, 960.486
1084.207, 1239.559
1085.445, 1100.635
1086.683, 930.714
1087.920, 847.794
1089.157, 520.880
1090.394, 467.969
1091.631, 358.059
1092.868, 173.158
1094.105, 368.265
1095.341, 180.375
1096.577, 155.489
1097.813, 333.605
1099.049, 191.725
1100.284, 380.848
1101.519, 419.063
1102.755, 421.193
1103.990, 678.326
1105.224, 571.461
1106.459, 532.602
1107.693, 496.746
1108.928, 264.891
1110.162, 326.041
1111.395, 222.193
1112.629, 126.346
1113.863, 259.502
1115.096, 44.659
1116.329, 114.822
1117.562, 104.986
1118.795, 12.848
1120.027, 163.323
1121.259, 68.495
1122.492, 38.669
1123.723, 154.845
1124.955, 24.022
1126.187, 84.201
1127.418, 59.381
1128.649, 22.437
1129.880, 97.743
1131.111, 34.437
1132.342, 49.620
1133.572, 122.805
1134.802, 11.987
1136.033, 166.199
1137.262, 185.389
1138.492, 104.580
1139.722, 304.774
1140.951, 219.969
1142.180, 294.165
1143.409, 446.367
1144.638, 320.573
1145.866, 437.780
1147.095, 433.989
1148.323, 264.199
1149.551, 342.409
1150.779, 134.621
1152.006, 130.834
1153.234, 159.049
1154.461, 5.265
1155.688, 89.481
1156.915, 75.698
1158.141, 2.202
1159.368, 146.420
1160.594, 20.359
1161.820, 57.857
1163.046, 135.074
1164.272, 29.671
1165.498, 132.540
1166.723, 62.752
1167.948, 7.793
1169.173, 166.418
1170.398, 31.630
1171.623, 94.862
1172.847, 122.074
1174.071, 0.681
1175.295, 142.531
1176.519, 92.742
1177.743, 24.982
1178.966, 118.224
1180.190, 6.570
1181.413, 83.634
1182.636, 130.837
1183.858, 27.959
1185.081, 107.237
1186.303, 0.433
1187.526, 26.372
1188.748, 126.817
1189.969, 14.995
1191.191, 43.189
1192.412, 99.372
1193.634, 51.446
1194.855, 115.724
1196.076, 40.894
1197.296, 0.893
1198.517, 131.274
1199.737, 1.561
1200.957, 50.657
1202.177, 124.820
1203.397, 22.018
1204.617, 128.234
1205.836, 76.388
1207.055, 1.460
1208.274, 164.691
1209.493, 5.840
1210.712, 65.987
1211.930, 129.133
1213.148, 3.278
1214.367, 112.598
1215.584, 100.739
1216.802, 33.878
1218.020, 191.016
1219.237, 50.152
1220.454, 97.811
1221.671, 196.943
1222.888, 26.074
1224.105, 164.565
1225.321, 122.692
1226.537, 35.818
1227.753, 156.442
1228.969, 36.563
1230.185, 43.777
1231.400, 160.035
1232.616, 1.150
1233.831, 137.832
1235.046, 116.941
1236.261, 34.048
1237.475, 202.657
1238.689, 85.759
1239.904, 82.859
1241.118, 182.530
1242.332, 42.627
1243.545, 179.722
1244.759, 192.815
1245.972, 39.905
1247.185, 209.752
1248.398, 108.834
1249.611, 90.915
1250.823, 198.875
1252.036, 63.954
1253.248, 153.031
1254.460, 158.153
1255.671, 52.225
1256.883, 149.295
1258.095, 92.359
1259.306, 27.422
1260.517, 167.214
1261.728, 13.727
1262.938, 73.328
1264.149, 100.804
1265.359, 35.144
1266.569, 173.751
1267.779, 111.304
1268.989, 63.343
1270.199, 213.793
1271.408, 96.829
1272.617, 138.862
1273.826, 217.912
1275.035, 55.940
1276.244, 210.965
1277.452, 154.239
1278.661, 49.259
1279.869, 217.307
1281.077, 85.323
1282.285, 129.336
1283.492, 181.625
1284.700, 49.635
1285.907, 185.642
1287.114, 137.778
1288.321, 1.220
1289.527, 213.780
1290.734, 80.026
1291.940, 85.614
1293.146, 174.606
1294.352, 24.596
1295.558, 128.952
1296.763, 166.021
1297.969, 1.003
1299.174, 163.849
1300.379, 118.891
1301.584, 28.850
1302.788, 162.807
1303.993, 26.782
1305.197, 110.709
1306.401, 190.647
1307.605, 20.583
1308.809, 190.955
1310.013, 169.875
1311.216, 61.659
1312.419, 230.574
1313.622, 108.479
1314.825, 95.731
1316.028, 207.621
1317.230, 46.487
1318.432, 139.757
1319.634, 180.636
1320.836, 36.158
1322.038, 201.027
1323.240, 112.886
1324.441, 73.526
1325.642, 253.373
1326.843, 25.205
1328.044, 126.977
1329.245, 174.797
1330.445, 23.545
1331.645, 152.352
1332.845, 127.153
1334.045, 14.400
1335.245, 151.187
1336.445, 51.969
1337.644, 51.665
1338.843, 136.435
1340.042, 45.181
1341.241, 110.938
1342.440, 82.689
1343.638, 6.403
1344.836, 149.142
1346.034, 73.875
1347.232, 42.603
1348.430, 152.325
1349.628, 9.958
1350.825, 47.750
1352.022, 183.453
1353.219, 45.850
1354.416, 142.836
1355.613, 111.517
1356.809, 8.754
1358.005, 153.915
1359.202, 17.580
1360.398, 11.239
1361.593, 153.894
1362.789, 11.546
1363.984, 107.098
1365.179, 136.739
1366.374, 8.623
1367.569, 134.006
1368.764, 84.633
1369.958, 11.224
1371.153, 147.396
1372.347, 42.014
1373.541, 89.799
1374.735, 117.314
1375.928, 19.211
1377.122, 117.973
1378.315, 132.890
1379.508, 30.204
1380.701, 201.698
1381.893, 65.595
1383.086, 30.489
1384.278, 213.838
1385.470, 62.719
1386.662, 83.492
1387.854, 177.349
1389.046, 19.196
1390.237, 148.034
1391.428, 120.862
1392.619, 4.318
1393.810, 178.497
1395.001, 76.305
1396.191, 7.893
1397.382, 144.563
1398.572, 3.652
1399.762, 108.131
1400.952, 170.867
1402.141, 29.655
1403.331, 130.116
1404.520, 109.855
1405.709, 4.573
1406.898, 135.244
1408.087, 36.000
1409.275, 53.754
1410.464, 186.508
1411.652, 3.262
1412.840, 113.020
1414.028, 141.780
1415.215, 16.545
1416.403, 180.251
1417.590, 121.020
1418.777, 5.708
1419.964, 206.332
1421.151, 72.102
1422.338, 59.873
1423.524, 210.644
1424.710, 26.133
1425.896, 100.901
1427.082, 202.668
1428.268, 29.564
1429.453, 220.016
1430.639, 165.737
1431.824, 37.582
1433.009, 269.871
1434.194, 151.543
1435.378, 85.230
1436.563, 285.974
1437.747, 163.555
1438.931, 204.199
1440.115, 280.841
1441.299, 141.962
1442.482, 314.491
1443.666, 337.055
1444.849, 234.512
1446.032, 396.068
1447.215, 310.406
1448.397, 259.942
1449.580, 471.487
1450.762, 255.770
1451.944, 389.226
1453.126, 411.641
1454.308, 218.465
1455.490, 396.142
1456.671, 384.354
1457.852, 211.617
1459.033, 434.081
1460.214, 272.892
1461.395, 277.036
1462.575, 430.393
1463.756, 236.445
1464.936, 288.182
1466.116, 337.142
1467.296, 131.876
1468.475, 269.755
1469.655, 257.714
1470.834, 103.656
1472.013, 264.602
1473.192, 179.523
1474.371, 110.501
1475.550, 281.435
1476.728, 110.323
1477.906, 163.225
1479.084, 245.151
1480.262, 51.174
1481.440, 168.188
1482.617, 207.229
1483.795, 21.290
1484.972, 232.380
1486.149, 133.499
1487.326, 53.651
1488.502, 304.829
1489.679, 100.040
1490.855, 37.295
1492.031, 184.609
1493.207, 45.982
1494.383, 83.747
1495.559, 141.174
1496.734, 10.333
1497.909, 120.232
1499.084, 139.865
1500.259, 8.748
1501.434, 145.551
1502.608, 1.093
1503.783, 0.000
##END=



