##NAMES=Baryte
##RRUFFID=R040036
##IDEAL CHEMISTRY=BaS^6+^O_4_
##LOCALITY=Cumbria County, England
##OWNER=RRUFF
##SOURCE=University of Arizona Mineral Museum
##DESCRIPTION=Golden brown tabular crystal
##STATUS=The identification of this mineral has been confirmed by X-ray diffraction and chemical analysis
##URL=rruff.info/R040036
##MEASURED CHEMISTRY=Ba_1.00_S_1.00_O_4_; trace amounts of Pb
##PIN_ID=M00028
##ORIENTATION=Laser parallel to -a* (-1 0 0). Fiducial mark perpendicular to laser is parallel to -b [0 -1 0]
26.288, 0.000
27.694, 18.364
29.099, 25.160
30.504, 42.403
31.909, 20.008
33.313, 3.529
34.717, 18.569
36.121, 31.190
37.525, 8.549
38.929, 20.400
40.332, 16.996
41.735, 11.902
43.138, 24.720
44.541, 16.280
45.943, 33.717
47.345, 37.473
48.747, 40.132
50.149, 28.562
51.551, 32.102
52.952, 33.366
54.353, 33.889
55.754, 40.166
57.155, 41.434
58.555, 78.430
59.955, 62.189
61.355, 79.422
62.755, 77.149
64.154, 66.407
65.553, 46.455
66.952, 53.360
68.351, 53.274
69.750, 66.195
71.148, 52.124
72.546, 54.061
73.944, 52.004
75.342, 48.952
76.739, 33.904
78.136, 32.859
79.533, 16.817
80.930, 12.775
82.327, 5.200
83.723, 0.686
85.119, 8.365
86.515, 9.419
87.910, 14.476
89.306, 21.536
90.701, 26.599
92.096, 23.663
93.490, 21.729
94.885, 18.797
96.279, 1.134
97.673, 28.063
99.067, 51.991
100.461, 62.918
101.854, 40.852
103.247, 56.814
104.640, 53.802
106.032, 74.812
107.425, 75.839
108.817, 74.882
110.209, 126.935
111.601, 98.995
112.992, 144.060
114.384, 148.128
115.775, 172.197
117.166, 232.264
118.556, 252.034
119.947, 253.646
121.337, 295.443
122.727, 243.492
124.116, 182.535
125.506, 188.575
126.895, 201.609
128.284, 206.634
129.673, 229.656
131.062, 194.704
132.450, 201.678
133.838, 165.623
135.226, 151.672
136.614, 127.592
138.001, 136.481
139.388, 142.393
140.775, 126.283
142.162, 159.166
143.549, 139.047
144.935, 170.929
146.321, 182.809
147.707, 189.721
149.093, 218.618
150.478, 224.496
151.863, 264.372
153.248, 249.247
154.633, 245.160
156.018, 221.081
157.402, 164.015
158.786, 169.963
160.170, 138.831
161.554, 140.702
162.937, 119.653
164.320, 125.531
165.703, 95.462
167.086, 103.351
168.469, 116.219
169.851, 86.130
171.233, 112.063
172.615, 89.961
173.996, 111.872
175.378, 96.827
176.759, 74.581
178.140, 110.297
179.521, 87.999
180.901, 80.629
182.281, 95.556
183.662, 126.078
185.041, 141.594
186.421, 153.144
187.800, 193.553
189.180, 219.181
190.558, 234.588
191.937, 205.941
193.316, 164.250
194.694, 153.474
196.072, 97.765
197.450, 123.993
198.827, 63.238
200.205, 92.378
201.582, 89.541
202.959, 63.641
204.336, 92.701
205.712, 72.787
207.088, 94.756
208.465, 71.756
209.840, 78.665
211.216, 63.593
212.591, 73.490
213.967, 66.370
215.341, 59.279
216.716, 81.100
218.091, 51.955
219.465, 48.917
220.839, 71.735
222.213, 55.722
223.586, 78.540
224.960, 57.398
226.333, 74.196
227.706, 57.930
229.079, 56.591
230.451, 71.133
231.823, 41.965
233.195, 71.327
234.567, 34.479
235.939, 66.603
237.310, 46.612
238.682, 47.479
240.052, 52.211
241.423, 17.095
242.794, 43.945
244.164, 31.865
245.534, 62.247
246.904, 34.959
248.274, 36.786
249.643, 63.651
251.012, 30.428
252.381, 60.279
253.750, 33.117
255.118, 55.096
256.487, 43.957
257.855, 56.824
259.223, 71.683
260.590, 42.541
261.958, 68.415
263.325, 47.271
264.692, 42.125
266.059, 40.978
267.425, 26.830
268.791, 67.681
270.158, 28.531
271.523, 53.380
272.889, 58.227
274.255, 43.074
275.620, 39.919
276.985, 31.764
278.350, 50.607
279.714, 23.450
281.078, 45.291
282.443, 45.132
283.806, 20.972
285.170, 35.811
286.534, 17.650
287.897, 48.489
289.260, 14.327
290.623, 38.164
291.985, 38.001
293.348, 27.838
294.710, 50.675
296.072, 11.511
297.433, 48.347
298.795, 32.182
300.156, 25.017
301.517, 27.852
302.878, 13.687
304.239, 41.520
305.599, 21.354
306.959, 25.186
308.319, 35.019
309.679, 15.851
311.038, 39.683
312.398, 10.514
313.757, 50.345
315.116, 18.175
316.474, 24.005
317.833, 24.835
319.191, 13.664
320.549, 34.492
321.907, 3.321
323.264, 36.148
324.622, 23.971
325.979, 17.790
327.336, 31.604
328.692, 9.585
330.049, 27.220
331.405, 24.021
332.761, 7.819
334.117, 24.613
335.473, 4.595
336.828, 13.192
338.183, 9.976
339.538, 28.758
340.893, 24.537
342.247, 14.315
343.602, 28.090
344.956, 12.864
346.310, 30.635
347.663, 13.405
349.017, 28.174
350.370, 27.941
351.723, 8.708
353.076, 32.473
354.428, 13.237
355.780, 34.001
357.133, 11.764
358.484, 17.527
359.836, 39.289
361.188, 1.948
362.539, 33.813
363.890, 11.575
365.241, 1.336
366.591, 34.097
367.942, 4.143
369.292, 29.617
370.642, 6.376
371.992, 4.135
373.341, 16.894
374.691, 1.654
376.040, 19.414
377.388, 14.825
378.737, 14.930
380.086, 15.692
381.434, 21.423
382.782, 37.192
384.130, 11.965
385.477, 37.742
386.825, 0.475
388.172, 28.215
389.519, 31.009
390.865, 37.786
392.212, 43.586
393.558, 24.384
394.904, 43.185
396.250, 18.987
397.596, 31.769
398.941, 49.571
400.286, 3.632
401.631, 40.170
402.976, 12.974
404.321, 31.777
405.665, 34.581
407.009, 10.385
408.353, 46.188
409.697, 15.992
411.040, 51.796
412.384, 22.600
413.727, 31.378
415.070, 46.182
416.412, 24.971
417.755, 58.776
419.097, 50.580
420.439, 61.387
421.781, 85.192
423.122, 44.998
424.464, 79.804
425.805, 84.578
427.146, 105.385
428.486, 120.192
429.827, 141.960
431.167, 179.769
432.507, 193.523
433.847, 235.335
435.187, 301.079
436.526, 392.892
437.865, 452.705
439.204, 534.516
440.543, 744.332
441.882, 922.070
443.220, 1212.889
444.558, 1589.707
445.896, 2079.514
447.234, 2985.333
448.572, 4034.089
449.909, 5842.909
451.246, 7579.704
452.583, 9623.516
453.919, 10833.337
455.256, 9773.109
456.592, 8035.933
457.928, 5676.684
459.264, 3963.505
460.600, 2809.294
461.935, 1932.111
463.270, 1474.934
464.605, 1097.705
465.940, 860.528
467.274, 667.254
468.609, 501.079
469.943, 422.904
471.277, 308.701
472.610, 296.527
473.944, 243.018
475.277, 182.845
476.610, 209.674
477.943, 163.432
479.275, 151.261
480.608, 124.878
481.940, 121.664
483.272, 122.437
484.604, 89.268
485.935, 98.098
487.267, 87.896
488.598, 83.728
489.929, 89.520
491.260, 70.353
492.590, 91.150
493.920, 55.983
495.250, 65.816
496.580, 64.595
497.910, 64.428
499.239, 84.230
500.569, 38.065
501.898, 69.863
503.226, 58.689
504.555, 51.525
505.883, 65.239
507.212, 39.077
508.540, 73.881
509.867, 64.638
511.195, 57.475
512.522, 79.153
513.849, 39.991
515.176, 72.776
516.503, 48.552
517.829, 78.388
519.156, 77.154
520.482, 59.993
521.808, 85.435
523.133, 45.265
524.459, 66.100
525.784, 60.015
527.109, 39.855
528.434, 67.675
529.758, 45.514
531.083, 58.273
532.407, 38.495
533.731, 34.338
535.055, 55.180
536.378, 29.056
537.701, 49.898
539.025, 42.962
540.348, 27.803
541.670, 50.650
542.993, 25.594
544.315, 48.317
545.637, 20.577
546.959, 30.409
548.281, 39.248
549.602, 13.086
550.923, 41.907
552.244, 26.828
553.565, 33.664
554.886, 47.538
556.206, 27.374
557.526, 48.209
558.846, 18.165
560.166, 44.998
561.486, 35.832
562.805, 8.809
564.124, 57.642
565.443, 13.584
566.762, 28.447
568.080, 17.296
569.399, 22.353
570.717, 31.183
572.035, 23.325
573.352, 59.153
574.670, 41.019
575.987, 16.463
577.304, 48.322
578.621, 17.363
579.938, 47.187
581.254, 27.150
582.570, 29.284
583.886, 46.105
585.202, 21.534
586.518, 47.354
587.833, 43.172
589.148, 24.090
590.463, 55.921
591.778, 15.833
593.093, 46.683
594.407, 39.507
595.721, 58.513
597.035, 63.347
598.349, 40.533
599.662, 70.341
600.976, 70.167
602.289, 80.018
603.602, 94.823
604.914, 79.795
606.227, 159.597
607.539, 136.401
608.851, 211.585
610.163, 304.384
611.475, 335.446
612.786, 611.247
614.097, 868.041
615.408, 1315.177
616.719, 1806.969
618.030, 1950.031
619.340, 1879.820
620.651, 1514.609
621.961, 1155.444
623.270, 938.230
624.580, 696.291
625.889, 619.075
627.199, 509.857
628.507, 467.876
629.816, 462.655
631.125, 414.448
632.433, 442.246
633.741, 343.019
635.049, 323.922
636.357, 261.693
637.664, 188.473
638.972, 201.262
640.279, 129.027
641.586, 175.141
642.893, 147.902
644.199, 122.692
645.505, 160.509
646.811, 136.265
648.117, 158.380
649.423, 139.134
650.728, 110.885
652.034, 130.635
653.339, 89.383
654.644, 110.409
655.948, 81.153
657.253, 60.896
658.557, 83.813
659.861, 36.552
661.165, 70.290
662.468, 35.025
663.772, 32.761
665.075, 56.729
666.378, 0.461
667.681, 29.189
668.983, 28.916
670.286, 15.640
671.588, 35.683
672.890, 12.596
674.192, 38.516
675.493, 15.229
676.795, 6.940
678.096, 32.711
679.397, 5.583
680.697, 22.118
681.998, 12.818
683.298, 0.486
684.598, 40.341
685.898, 13.967
687.198, 27.718
688.498, 20.410
689.797, 23.091
691.096, 52.770
692.395, 0.447
693.694, 38.120
694.992, 5.792
696.290, 13.460
697.589, 18.135
698.886, 1.201
700.184, 30.460
701.482, 19.174
702.779, 2.170
704.076, 24.797
705.373, 0.552
706.669, 7.094
707.966, 9.738
709.262, 5.620
710.558, 43.017
711.854, 9.349
713.150, 25.281
714.445, 4.908
715.740, 22.468
717.035, 6.148
718.330, 5.238
719.625, 23.371
720.919, 2.022
722.214, 9.419
723.508, 14.179
724.801, 22.225
726.095, 14.362
727.388, 12.947
728.682, 0.470
729.975, 9.110
731.267, 0.313
732.560, 4.261
733.852, 9.832
735.145, 4.599
736.437, 6.729
737.728, 12.466
739.020, 13.090
740.311, 7.644
741.603, 2.196
742.894, 22.745
744.184, 3.709
745.475, 29.834
746.765, 10.375
748.055, 13.087
749.345, 22.445
750.635, 8.024
751.925, 9.501
753.214, 18.024
754.503, 11.455
755.792, 22.061
757.081, 8.426
758.370, 12.083
759.658, 22.590
760.946, 1.094
762.234, 46.596
763.522, 8.904
764.809, 12.591
766.097, 22.083
767.384, 7.426
768.671, 35.061
769.958, 5.545
771.244, 4.027
772.530, 16.507
773.817, 3.015
775.102, 20.460
776.388, 5.932
777.674, 3.403
778.959, 33.871
780.244, 12.662
781.529, 26.799
782.814, 1.258
784.098, 0.285
785.383, 44.169
786.667, 13.378
787.951, 15.069
789.235, 14.515
790.518, 9.958
791.801, 33.400
793.084, 10.160
794.367, 20.276
795.650, 26.709
796.933, 5.858
798.215, 41.570
799.497, 5.997
800.779, 34.422
802.061, 32.846
803.342, 8.732
804.624, 55.686
805.905, 5.028
807.186, 23.443
808.466, 31.857
809.747, 12.732
811.027, 45.675
812.307, 16.301
813.587, 7.100
814.867, 27.498
816.146, 2.138
817.426, 48.257
818.705, 15.428
819.984, 7.821
821.263, 41.206
822.541, 5.509
823.819, 21.878
825.098, 14.845
826.375, 0.230
827.653, 28.613
828.931, 3.995
830.208, 35.376
831.485, 13.672
832.762, 5.050
834.039, 33.391
835.315, 0.234
836.592, 29.141
837.868, 8.394
839.144, 3.233
840.420, 29.139
841.695, 14.635
842.970, 42.732
844.246, 42.988
845.521, 11.322
846.795, 59.668
848.070, 19.804
849.344, 44.167
850.618, 41.216
851.892, 42.577
853.166, 59.898
854.440, 40.640
855.713, 47.966
856.986, 69.109
858.259, 38.467
859.532, 108.684
860.804, 62.729
862.077, 70.086
863.349, 103.833
864.621, 50.189
865.893, 77.544
867.164, 55.798
868.436, 14.138
869.707, 76.396
870.978, 5.713
872.248, 33.057
873.519, 34.216
874.789, 0.454
876.060, 40.523
877.330, 22.877
878.599, 36.212
879.869, 60.519
881.138, 17.873
882.408, 47.058
883.677, 46.412
884.945, 13.763
886.214, 37.733
887.482, 34.089
888.751, 75.179
890.019, 27.530
891.287, 29.888
892.554, 96.904
893.822, 19.263
895.089, 74.351
896.356, 102.711
897.623, 54.071
898.889, 105.384
900.156, 74.745
901.422, 73.831
902.688, 89.193
903.954, 49.556
905.220, 82.681
906.485, 72.045
907.750, 60.393
909.015, 85.736
910.280, 56.102
911.545, 62.339
912.809, 65.707
914.074, 27.064
915.338, 126.412
916.602, 32.782
917.865, 73.806
919.129, 43.180
920.392, 39.526
921.655, 80.846
922.918, 43.225
924.181, 47.245
925.443, 74.627
926.706, 38.009
927.968, 91.394
929.230, 51.780
930.491, 57.888
931.753, 84.278
933.014, 25.668
934.276, 80.888
935.536, 63.283
936.797, 50.680
938.058, 94.079
939.318, 45.478
940.578, 79.644
941.838, 78.047
943.098, 45.451
944.358, 111.857
945.617, 69.264
946.876, 88.352
948.135, 82.762
949.394, 69.777
950.653, 98.192
951.911, 89.608
953.169, 87.962
954.427, 129.381
955.685, 89.803
956.943, 111.227
958.200, 110.653
959.458, 84.948
960.715, 170.378
961.971, 143.811
963.228, 204.239
964.485, 279.675
965.741, 303.114
966.997, 359.554
968.253, 363.998
969.508, 357.443
970.764, 455.890
972.019, 447.331
973.274, 561.782
974.529, 642.235
975.784, 687.635
977.039, 856.092
978.293, 966.236
979.547, 1317.697
980.801, 1864.162
982.055, 2613.628
983.308, 4275.097
984.562, 7458.568
985.815, 15977.042
987.068, 35386.516
988.321, 52055.996
989.573, 52165.480
990.826, 32864.965
992.078, 16944.457
993.330, 9305.947
994.582, 5171.441
995.833, 3231.938
997.085, 2101.439
998.336, 1473.941
999.587, 1197.449
1000.838, 974.959
1002.088, 813.471
1003.339, 779.986
1004.589, 647.503
1005.839, 566.023
1007.089, 460.545
1008.339, 378.069
1009.588, 395.597
1010.838, 311.121
1012.087, 334.655
1013.336, 312.191
1014.584, 236.730
1015.833, 285.271
1017.081, 227.815
1018.330, 231.487
1019.577, 231.036
1020.825, 198.587
1022.073, 217.300
1023.320, 200.857
1024.567, 161.511
1025.814, 238.305
1027.061, 172.871
1028.308, 184.441
1029.554, 154.013
1030.800, 131.589
1032.046, 155.286
1033.292, 123.866
1034.538, 105.449
1035.783, 121.035
1037.029, 76.623
1038.274, 120.214
1039.519, 103.808
1040.763, 77.405
1042.008, 119.004
1043.252, 68.605
1044.496, 90.209
1045.740, 109.909
1046.984, 39.519
1048.228, 100.142
1049.471, 79.756
1050.714, 75.372
1051.957, 113.416
1053.200, 94.039
1054.442, 121.769
1055.685, 205.700
1056.927, 196.329
1058.169, 242.009
1059.411, 108.645
1060.652, 85.283
1061.894, 108.140
1063.135, 52.782
1064.376, 91.585
1065.617, 87.341
1066.858, 54.991
1068.098, 97.215
1069.339, 43.870
1070.579, 77.527
1071.819, 115.260
1073.058, 77.922
1074.298, 127.586
1075.537, 133.253
1076.776, 130.922
1078.015, 193.650
1079.254, 210.325
1080.493, 295.002
1081.731, 363.682
1082.969, 392.365
1084.207, 427.017
1085.445, 442.739
1086.683, 403.430
1087.920, 351.122
1089.157, 239.819
1090.394, 256.517
1091.631, 210.313
1092.868, 174.019
1094.105, 215.729
1095.341, 242.440
1096.577, 290.153
1097.813, 394.870
1099.049, 497.588
1100.284, 714.307
1101.519, 1017.172
1102.755, 1308.897
1103.990, 1766.625
1105.224, 1798.354
1106.459, 1638.088
1107.693, 1324.823
1108.928, 900.561
1110.162, 702.301
1111.395, 514.042
1112.629, 376.787
1113.863, 356.533
1115.096, 196.281
1116.329, 191.034
1117.562, 156.788
1118.795, 134.544
1120.027, 151.304
1121.259, 89.065
1122.492, 113.828
1123.723, 144.593
1124.955, 64.359
1126.187, 59.127
1127.418, 68.896
1128.649, 15.667
1129.880, 50.441
1131.111, 33.215
1132.342, 41.992
1133.572, 60.770
1134.802, 3.549
1136.033, 63.330
1137.262, 76.113
1138.492, 56.897
1139.722, 97.686
1140.951, 60.476
1142.180, 53.267
1143.409, 83.060
1144.638, 19.854
1145.866, 54.650
1147.095, 38.446
1148.323, 19.244
1149.551, 52.043
1150.779, 9.156
1152.006, 8.644
1153.234, 3.446
1154.461, 10.751
1155.688, 22.052
1156.915, 7.145
1158.141, 14.341
1159.368, 27.462
1160.594, 4.266
1161.820, 29.070
1163.046, 52.876
1164.272, 8.317
1165.498, 75.490
1166.723, 61.297
1167.948, 20.106
1169.173, 47.916
1170.398, 21.726
1171.623, 41.538
1172.847, 25.350
1174.071, 2.164
1175.295, 41.978
1176.519, 5.793
1177.743, 6.392
1178.966, 34.424
1180.190, 0.760
1181.413, 8.056
1182.636, 29.874
1183.858, 21.308
1185.081, 25.506
1186.303, 6.679
1187.526, 15.864
1188.748, 39.948
1189.969, 3.240
1191.191, 31.572
1192.412, 21.385
1193.634, 11.801
1194.855, 39.010
1196.076, 9.178
1197.296, 6.367
1198.517, 29.443
1199.737, 26.747
1200.957, 43.058
1202.177, 49.863
1203.397, 4.332
1204.617, 37.546
1205.836, 9.351
1207.055, 6.156
1208.274, 34.962
1209.493, 3.233
1210.712, 48.889
1211.930, 51.694
1213.148, 10.500
1214.367, 52.305
1215.584, 32.110
1216.802, 28.919
1218.020, 99.724
1219.237, 25.530
1220.454, 43.685
1221.671, 55.490
1222.888, 4.705
1224.105, 32.076
1225.321, 26.880
1226.537, 12.684
1227.753, 48.489
1228.969, 1.293
1230.185, 39.272
1231.400, 44.075
1232.616, 6.122
1233.831, 80.181
1235.046, 48.981
1236.261, 27.782
1237.475, 99.129
1238.689, 41.929
1239.904, 55.802
1241.118, 90.601
1242.332, 36.400
1243.545, 89.198
1244.759, 79.000
1245.972, 54.798
1247.185, 98.153
1248.398, 52.951
1249.611, 54.750
1250.823, 73.076
1252.036, 40.874
1253.248, 78.672
1254.460, 77.471
1255.671, 29.269
1256.883, 83.066
1258.095, 49.864
1259.306, 24.662
1260.517, 65.641
1261.728, 13.439
1262.938, 41.236
1264.149, 45.054
1265.359, 3.851
1266.569, 82.647
1267.779, 54.640
1268.989, 56.435
1270.199, 107.812
1271.408, 40.608
1272.617, 73.403
1273.826, 110.197
1275.035, 44.992
1276.244, 94.786
1277.452, 74.579
1278.661, 49.373
1279.869, 91.166
1281.077, 42.958
1282.285, 75.625
1283.492, 89.487
1284.700, 30.279
1285.907, 87.913
1287.114, 37.703
1288.321, 26.402
1289.527, 94.961
1290.734, 36.751
1291.940, 38.540
1293.146, 78.329
1294.352, 12.115
1295.558, 56.781
1296.763, 67.567
1297.969, 13.352
1299.174, 60.134
1300.379, 34.916
1301.584, 16.689
1302.788, 63.462
1303.993, 5.233
1305.197, 44.004
1306.401, 66.769
1307.605, 14.530
1308.809, 90.195
1310.013, 43.953
1311.216, 43.698
1312.419, 74.450
1313.622, 23.200
1314.825, 33.520
1316.028, 57.264
1317.230, 14.901
1318.432, 65.340
1319.634, 68.079
1320.836, 29.769
1322.038, 68.505
1323.240, 28.239
1324.441, 34.748
1325.642, 63.472
1326.843, 18.035
1328.044, 52.649
1329.245, 56.369
1330.445, 12.514
1331.645, 66.230
1332.845, 19.944
1334.045, 0.418
1335.245, 49.292
1336.445, 16.000
1337.644, 24.706
1338.843, 23.409
1340.042, 10.945
1341.241, 35.753
1342.440, 23.450
1343.638, 25.145
1344.836, 40.839
1346.034, 3.530
1347.232, 5.221
1348.430, 56.910
1349.628, 12.403
1350.825, 12.281
1352.022, 43.964
1353.219, 39.449
1354.416, 74.227
1355.613, 24.903
1356.809, 3.578
1358.005, 47.252
1359.202, 5.077
1360.398, 13.596
1361.593, 35.268
1362.789, 19.202
1363.984, 26.469
1365.179, 34.141
1366.374, 21.187
1367.569, 41.485
1368.764, 0.841
1369.958, 5.836
1371.153, 56.517
1372.347, 9.203
1373.541, 2.896
1374.735, 56.601
1375.928, 21.677
1377.122, 16.091
1378.315, 28.855
1379.508, 20.384
1380.701, 49.376
1381.893, 27.134
1383.086, 23.891
1384.278, 50.645
1385.470, 11.398
1386.662, 38.149
1387.854, 53.894
1389.046, 5.365
1390.237, 42.374
1391.428, 49.112
1392.619, 1.848
1393.810, 67.583
1395.001, 13.317
1396.191, 5.949
1397.382, 37.786
1398.572, 22.479
1399.762, 26.255
1400.952, 37.988
1402.141, 4.720
1403.331, 16.450
1404.520, 18.179
1405.709, 15.906
1406.898, 42.634
1408.087, 19.360
1409.275, 21.086
1410.464, 37.817
1411.652, 0.449
1412.840, 63.287
1414.028, 54.023
1415.215, 17.762
1416.403, 66.504
1417.590, 42.252
1418.777, 8.005
1419.964, 39.649
1421.151, 6.403
1422.338, 19.662
1423.524, 62.413
1424.710, 7.164
1425.896, 45.913
1427.082, 59.085
1428.268, 10.832
1429.453, 76.903
1430.639, 46.626
1431.824, 56.040
1433.009, 101.764
1434.194, 72.569
1435.378, 92.258
1436.563, 121.815
1437.747, 54.508
1438.931, 120.195
1440.115, 130.768
1441.299, 81.436
1442.482, 168.996
1443.666, 145.634
1444.849, 100.266
1446.032, 147.893
1447.215, 111.103
1448.397, 139.660
1449.580, 162.260
1450.762, 104.378
1451.944, 175.517
1453.126, 184.051
1454.308, 123.574
1455.490, 195.087
1456.671, 156.588
1457.852, 108.882
1459.033, 186.351
1460.214, 113.806
1461.395, 125.243
1462.575, 153.664
1463.756, 87.081
1464.936, 125.476
1466.116, 110.868
1467.296, 80.291
1468.475, 133.704
1469.655, 100.147
1470.834, 65.595
1472.013, 120.046
1473.192, 56.523
1474.371, 43.009
1475.550, 88.492
1476.728, 43.975
1477.906, 62.505
1479.084, 96.069
1480.262, 47.638
1481.440, 85.227
1482.617, 66.831
1483.795, 19.455
1484.972, 87.109
1486.149, 29.794
1487.326, 44.515
1488.502, 83.277
1489.679, 7.086
1490.855, 41.951
1492.031, 77.877
1493.207, 20.876
1494.383, 29.968
1495.559, 57.172
1496.734, 12.520
1497.909, 48.056
1499.084, 26.852
1500.259, 4.030
1501.434, 59.838
1502.608, 0.000
##END=



