##NAMES=Baryte
##RRUFFID=R040036
##IDEAL CHEMISTRY=BaS^6+^O_4_
##LOCALITY=Cumbria County, England
##OWNER=RRUFF
##SOURCE=University of Arizona Mineral Museum
##DESCRIPTION=Golden brown tabular crystal
##STATUS=The identification of this mineral has been confirmed by X-ray diffraction and chemical analysis
##URL=rruff.info/R040036
##MEASURED CHEMISTRY=Ba_1.00_S_1.00_O_4_; trace amounts of Pb
##PIN_ID=M00019
##ORIENTATION=Laser parallel to b* (0 1 0). Fiducial mark perpendicular to laser is parallel to c [0 0 1]
26.288, 0.000
27.694, 1.875
29.099, 21.807
30.504, 11.753
31.909, 7.602
33.313, 13.313
34.717, 20.504
36.121, 46.755
37.525, 48.486
38.929, 49.869
40.332, 44.309
41.735, 38.632
43.138, 32.924
44.541, 47.013
45.943, 34.976
47.345, 45.646
48.747, 38.794
50.149, 40.615
51.551, 45.253
52.952, 47.630
54.353, 49.670
55.754, 62.792
57.155, 79.210
58.555, 57.382
59.955, 82.602
61.355, 94.293
62.755, 67.046
64.154, 84.567
65.553, 76.820
66.952, 74.188
68.351, 95.414
69.750, 102.939
71.148, 101.474
72.546, 75.018
73.944, 56.567
75.342, 34.122
76.739, 23.680
78.136, 27.240
79.533, 4.801
80.930, 3.362
82.327, 13.078
83.723, 22.520
85.119, 24.965
86.515, 21.418
87.910, 14.876
89.306, 6.337
90.701, 19.800
92.096, 13.263
93.490, 12.731
94.885, 11.205
96.279, 20.314
97.673, 15.830
99.067, 29.342
100.461, 10.849
101.854, 35.364
103.247, 33.922
104.640, 41.515
106.032, 58.136
107.425, 59.780
108.817, 62.441
110.209, 60.116
111.601, 98.801
112.992, 137.491
114.384, 158.184
115.775, 165.875
117.166, 157.561
118.556, 143.239
119.947, 126.907
121.337, 124.566
122.727, 117.212
124.116, 117.760
125.506, 119.109
126.895, 128.125
128.284, 130.734
129.673, 142.326
131.062, 157.922
132.450, 150.516
133.838, 166.092
135.226, 153.663
136.614, 145.209
138.001, 130.768
139.388, 160.218
140.775, 148.844
142.162, 134.382
143.549, 169.770
144.935, 185.212
146.321, 202.566
147.707, 273.001
149.093, 331.490
150.478, 391.962
151.863, 443.521
153.248, 469.975
154.633, 436.526
156.018, 410.113
157.402, 363.608
158.786, 330.012
160.170, 281.413
161.554, 201.815
162.937, 187.153
164.320, 157.523
165.703, 132.966
167.086, 154.428
168.469, 150.857
169.851, 126.312
171.233, 126.695
172.615, 107.037
173.996, 121.444
175.378, 130.898
176.759, 154.646
178.140, 191.377
179.521, 202.949
180.901, 242.557
182.281, 333.045
183.662, 397.475
185.041, 513.825
186.421, 688.081
187.800, 844.294
189.180, 875.510
190.558, 774.647
191.937, 692.745
193.316, 551.744
194.694, 447.782
196.072, 336.688
197.450, 241.548
198.827, 208.404
200.205, 151.156
201.582, 146.848
202.959, 131.496
204.336, 124.140
205.712, 123.706
207.088, 109.185
208.465, 103.569
209.840, 89.930
211.216, 75.370
212.591, 90.634
213.967, 76.007
215.341, 69.330
216.716, 76.561
218.091, 69.851
219.465, 60.123
220.839, 61.425
222.213, 69.635
223.586, 68.822
224.960, 63.801
226.333, 63.822
227.706, 67.693
229.079, 58.369
230.451, 56.036
231.823, 60.248
233.195, 52.324
234.567, 53.259
235.939, 49.278
237.310, 46.449
238.682, 51.842
240.052, 37.900
241.423, 38.109
242.794, 43.331
244.164, 41.589
245.534, 36.405
246.904, 33.175
248.274, 38.074
249.643, 46.774
251.012, 37.728
252.381, 19.667
253.750, 32.647
255.118, 27.703
256.487, 35.763
257.855, 41.837
259.223, 43.893
260.590, 38.098
261.958, 36.248
263.325, 53.393
264.692, 39.564
266.059, 54.763
267.425, 23.950
268.791, 13.095
270.158, 47.278
271.523, 28.411
272.889, 31.540
274.255, 11.674
275.620, 29.781
276.985, 31.884
278.350, 25.983
279.714, 22.078
281.078, 15.168
282.443, 25.254
283.806, 5.336
285.170, 16.414
286.534, 25.488
287.897, 22.558
289.260, 33.624
290.623, 28.686
291.985, 25.745
293.348, 22.801
294.710, 28.853
296.072, 28.903
297.433, 32.948
298.795, 20.991
300.156, 32.029
301.517, 17.064
302.878, 19.095
304.239, 12.122
305.599, 17.145
306.959, 21.164
308.319, 12.180
309.679, 11.193
311.038, 14.202
312.398, 17.208
313.757, 20.211
315.116, 20.210
316.474, 23.205
317.833, 14.197
319.191, 13.186
320.549, 2.171
321.907, 14.153
323.264, 12.131
324.622, 3.099
325.979, 24.057
327.336, 4.007
328.692, 13.947
330.049, 16.879
331.405, 22.803
332.761, 30.719
334.117, 27.628
335.473, 15.530
336.828, 20.425
338.183, 17.313
339.538, 19.195
340.893, 6.070
342.247, 11.939
343.602, 20.803
344.956, 4.661
346.310, 18.513
347.663, 23.360
349.017, 21.203
350.370, 5.042
351.723, 9.920
353.076, 24.750
354.428, 6.576
355.780, 21.399
357.133, 5.219
358.484, 13.035
359.836, 2.849
361.188, 3.659
362.539, 19.466
363.890, 23.271
365.241, 26.073
366.591, 18.853
367.942, 21.639
369.292, 7.434
370.642, 22.226
371.992, 10.017
373.341, 12.807
374.691, 11.596
376.040, 7.370
377.388, 36.135
378.737, 7.927
380.086, 26.689
381.434, 39.465
382.782, 29.230
384.130, 19.989
385.477, 28.777
386.825, 30.509
388.172, 28.248
389.519, 32.017
390.865, 44.785
392.212, 60.529
393.558, 35.261
394.904, 36.016
396.250, 25.814
397.596, 33.570
398.941, 40.245
400.286, 40.979
401.631, 27.694
402.976, 21.442
404.321, 23.217
405.665, 11.003
407.009, 24.760
408.353, 29.508
409.697, 15.309
411.040, 8.072
412.384, 9.468
413.727, 17.556
415.070, 8.192
416.412, 17.983
417.755, 17.689
419.097, 15.409
420.439, 44.037
421.781, 36.749
423.122, 60.480
424.464, 56.174
425.805, 59.850
427.146, 85.495
428.486, 74.186
429.827, 93.771
431.167, 115.422
432.507, 147.114
433.847, 170.794
435.187, 211.525
436.526, 267.233
437.865, 354.930
439.204, 414.612
440.543, 558.324
441.882, 736.035
443.220, 997.766
444.558, 1347.441
445.896, 1869.168
447.234, 2558.825
448.572, 3499.492
449.909, 4324.126
451.246, 4830.782
452.583, 4948.458
453.919, 4286.092
455.256, 3385.722
456.592, 2469.366
457.928, 1894.024
459.264, 1531.697
460.600, 1194.370
461.935, 970.058
463.270, 730.704
464.605, 569.346
465.940, 411.928
467.274, 313.574
468.609, 247.211
469.943, 177.803
471.277, 166.495
472.610, 110.094
473.944, 118.739
475.277, 80.399
476.610, 80.088
477.943, 72.815
479.275, 81.531
480.608, 61.191
481.940, 39.875
483.272, 38.546
484.604, 29.552
485.935, 36.849
487.267, 23.499
488.598, 45.190
489.929, 32.808
491.260, 35.492
492.590, 24.201
493.920, 33.903
495.250, 4.530
496.580, 29.180
497.910, 28.899
499.239, 20.537
500.569, 47.243
501.898, 30.875
503.226, 21.544
504.555, 23.165
505.883, 34.791
507.212, 37.494
508.540, 27.215
509.867, 30.951
511.195, 29.949
512.522, 31.373
513.849, 34.026
515.176, 25.748
516.503, 31.416
517.829, 23.097
519.156, 25.191
520.482, 28.428
521.808, 29.171
523.133, 27.493
524.459, 24.572
525.784, 21.614
527.109, 22.113
528.434, 18.768
529.758, 28.507
531.083, 23.245
532.407, 31.981
533.731, 42.718
535.055, 19.453
536.378, 36.188
537.701, 25.943
539.025, 21.676
540.348, 18.409
541.670, 12.141
542.993, 34.874
544.315, 11.607
545.637, 29.339
546.959, 20.066
548.281, 26.797
549.602, 40.476
550.923, 37.205
552.244, 25.936
553.565, 23.633
554.886, 35.297
556.206, 40.967
557.526, 19.675
558.846, 39.346
560.166, 33.074
561.486, 16.825
562.805, 22.587
564.124, 23.408
565.443, 10.127
566.762, 17.913
568.080, 26.660
569.399, 37.729
570.717, 26.465
572.035, 16.392
573.352, 17.130
574.670, 25.844
575.987, 23.780
577.304, 29.535
578.621, 31.333
579.938, 29.441
581.254, 29.237
582.570, 16.157
583.886, 46.888
585.202, 57.690
586.518, 35.446
587.833, 53.294
589.148, 48.036
590.463, 36.762
591.778, 46.460
593.093, 56.158
594.407, 56.863
595.721, 60.610
597.035, 64.536
598.349, 69.262
599.662, 58.119
600.976, 75.877
602.289, 89.584
603.602, 90.660
604.914, 140.445
606.227, 129.151
607.539, 164.916
608.851, 207.602
610.163, 279.292
611.475, 441.993
612.786, 668.676
614.097, 993.378
615.408, 1238.058
616.719, 1342.905
618.030, 1245.881
619.340, 1001.939
620.651, 913.975
621.961, 824.917
623.270, 814.826
624.580, 940.724
625.889, 1137.564
627.199, 1474.394
628.507, 1674.283
629.816, 1783.001
631.125, 1586.846
632.433, 1332.738
633.741, 1070.050
635.049, 871.933
636.357, 742.806
637.664, 723.412
638.972, 782.078
640.279, 870.130
641.586, 1040.774
642.893, 1337.416
644.199, 1646.136
645.505, 1930.774
646.811, 2067.415
648.117, 1918.616
649.423, 1540.366
650.728, 1124.246
652.034, 798.046
653.339, 578.068
654.644, 372.691
655.948, 289.314
657.253, 232.284
658.557, 175.900
659.861, 131.513
661.165, 99.124
662.468, 100.733
663.772, 80.339
665.075, 70.943
666.378, 67.545
667.681, 59.143
668.983, 36.739
670.286, 42.332
671.588, 36.923
672.890, 49.511
674.192, 36.096
675.493, 24.678
676.795, 23.320
678.096, 11.897
679.397, 37.471
680.697, 43.067
681.998, 43.835
683.298, 47.569
684.598, 17.161
685.898, 45.827
687.198, 21.512
688.498, 27.085
689.797, 25.640
691.096, 23.189
692.395, 15.734
693.694, 20.277
694.992, 17.247
696.290, 16.597
697.589, 16.889
698.886, 14.434
700.184, 12.030
701.482, 6.556
702.779, 3.079
704.076, 0.645
705.373, 27.160
706.669, 2.663
707.966, 9.171
709.262, 10.323
710.558, 11.176
711.854, 4.328
713.150, 10.163
714.445, 20.651
715.740, 4.865
717.035, 5.615
718.330, 1.091
719.625, 12.437
720.919, 1.029
722.214, 4.510
723.508, 8.947
724.801, 0.400
726.095, 3.264
727.388, 1.705
728.682, 4.737
729.975, 8.175
731.267, 13.609
732.560, 14.041
733.852, 11.470
735.145, 2.895
736.437, 5.682
737.728, 5.734
739.020, 2.852
740.311, 1.606
741.603, 9.236
742.894, 12.216
744.184, 0.180
745.475, 8.571
746.765, 1.062
748.055, 17.446
749.345, 10.864
750.635, 8.242
751.925, 13.004
753.214, 6.990
754.503, 11.359
755.792, 3.275
757.081, 8.914
758.370, 12.559
759.658, 11.748
760.946, 7.867
762.234, 6.530
763.522, 6.250
764.809, 3.872
766.097, 3.550
767.384, 6.233
768.671, 1.079
769.958, 4.612
771.244, 6.768
772.530, 25.009
773.817, 6.719
775.102, 6.435
776.388, 14.845
777.674, 4.122
778.959, 14.604
780.244, 11.664
781.529, 10.928
782.814, 0.810
784.098, 17.448
785.383, 5.704
786.667, 22.043
787.951, 2.799
789.235, 8.558
790.518, 5.322
791.801, 15.091
793.084, 12.134
794.367, 4.356
795.650, 13.424
796.933, 11.789
798.215, 13.000
799.497, 12.209
800.779, 4.415
802.061, 8.618
803.342, 5.867
804.624, 6.088
805.905, 6.214
807.186, 8.407
808.466, 9.539
809.747, 10.774
811.027, 9.974
812.307, 2.158
813.587, 8.340
814.867, 2.480
816.146, 10.696
817.426, 5.849
818.705, 0.979
819.984, 8.809
821.263, 7.643
822.541, 1.482
823.819, 5.323
825.098, 6.167
826.375, 1.015
827.653, 0.135
828.931, 1.716
830.208, 16.429
831.485, 6.570
832.762, 0.713
834.039, 5.853
835.315, 21.991
836.592, 0.873
837.868, 4.745
839.144, 17.368
840.420, 1.455
841.695, 3.481
842.970, 4.545
844.246, 14.669
845.521, 10.725
846.795, 9.817
848.070, 22.583
849.344, 25.682
850.618, 25.586
851.892, 32.679
853.166, 32.792
854.440, 20.681
855.713, 15.749
856.986, 39.771
858.259, 63.481
859.532, 51.501
860.804, 46.394
862.077, 54.475
863.349, 40.481
864.621, 39.531
865.893, 26.487
867.164, 24.546
868.436, 9.621
869.707, 7.720
870.978, 4.818
872.248, 21.907
873.519, 17.952
874.789, 26.815
876.060, 3.877
877.330, 5.193
878.599, 16.167
879.869, 12.092
881.138, 4.610
882.408, 17.601
883.677, 9.329
884.945, 5.678
886.214, 4.237
887.482, 18.842
888.751, 3.909
890.019, 0.993
891.287, 42.055
892.554, 40.138
893.822, 45.052
895.089, 68.836
896.356, 43.536
897.623, 76.257
898.889, 49.069
900.156, 73.914
901.422, 45.767
902.688, 58.676
903.954, 60.595
905.220, 56.453
906.485, 60.035
907.750, 36.380
909.015, 56.232
910.280, 32.661
911.545, 30.518
912.809, 33.384
914.074, 50.472
915.338, 43.542
916.602, 34.226
917.865, 55.315
919.129, 34.406
920.392, 48.418
921.655, 60.510
922.918, 71.599
924.181, 27.127
925.443, 43.104
926.706, 27.951
927.968, 41.877
929.230, 41.578
930.491, 54.678
931.753, 39.777
933.014, 46.528
934.276, 62.632
935.536, 46.737
936.797, 57.844
938.058, 58.953
939.318, 47.063
940.578, 87.174
941.838, 63.288
943.098, 82.403
944.358, 75.519
945.617, 77.638
946.876, 74.758
948.135, 66.880
949.394, 86.004
950.653, 76.129
951.911, 100.194
953.169, 100.324
954.427, 89.456
955.685, 118.564
956.943, 133.500
958.200, 116.468
959.458, 172.579
960.715, 159.610
961.971, 205.627
963.228, 271.755
964.485, 338.900
965.741, 394.052
966.997, 346.206
968.253, 385.363
969.508, 456.522
970.764, 523.684
972.019, 617.848
973.274, 711.003
974.529, 766.105
975.784, 920.278
977.039, 1153.453
978.293, 1544.585
979.547, 2151.768
980.801, 3187.952
982.055, 5343.140
983.308, 9762.331
984.562, 21801.529
985.815, 46310.727
987.068, 61139.926
988.321, 51709.133
989.573, 30728.344
990.826, 16437.557
992.078, 9506.773
993.330, 5419.993
994.582, 3293.219
995.833, 2174.448
997.085, 1593.681
998.336, 1262.917
999.587, 988.158
1000.838, 856.402
1002.088, 750.650
1003.339, 619.901
1004.589, 535.156
1005.839, 476.415
1007.089, 401.677
1008.339, 362.943
1009.588, 327.212
1010.838, 327.486
1012.087, 279.763
1013.336, 278.996
1014.584, 251.058
1015.833, 220.202
1017.081, 212.497
1018.330, 235.796
1019.577, 217.997
1020.825, 198.305
1022.073, 192.580
1023.320, 169.896
1024.567, 188.215
1025.814, 164.538
1027.061, 143.865
1028.308, 163.196
1029.554, 131.532
1030.800, 118.873
1032.046, 102.220
1033.292, 91.572
1034.538, 91.930
1035.783, 64.294
1037.029, 79.662
1038.274, 70.035
1039.519, 59.413
1040.763, 41.797
1042.008, 64.184
1043.252, 43.577
1044.496, 54.975
1045.740, 32.380
1046.984, 49.791
1048.228, 71.207
1049.471, 45.627
1050.714, 63.051
1051.957, 48.482
1053.200, 50.916
1054.442, 56.355
1055.685, 20.799
1056.927, 51.247
1058.169, 22.699
1059.411, 16.158
1060.652, 24.622
1061.894, 40.091
1063.135, 30.566
1064.376, 37.047
1065.617, 26.532
1066.858, 38.022
1068.098, 42.518
1069.339, 17.020
1070.579, 45.526
1071.819, 21.036
1073.058, 29.551
1074.298, 30.070
1075.537, 11.593
1076.776, 36.122
1078.015, 46.656
1079.254, 25.195
1080.493, 52.739
1081.731, 74.288
1082.969, 64.842
1084.207, 91.400
1085.445, 29.967
1086.683, 61.538
1087.920, 38.116
1089.157, 56.698
1090.394, 49.287
1091.631, 47.883
1092.868, 98.484
1094.105, 89.090
1095.341, 115.705
1096.577, 175.326
1097.813, 207.952
1099.049, 293.583
1100.284, 395.220
1101.519, 493.864
1102.755, 571.512
1103.990, 568.165
1105.224, 467.823
1106.459, 365.485
1107.693, 262.151
1108.928, 183.824
1110.162, 182.503
1111.395, 147.185
1112.629, 136.873
1113.863, 119.564
1115.096, 133.262
1116.329, 147.966
1117.562, 149.674
1118.795, 160.388
1120.027, 178.106
1121.259, 207.723
1122.492, 245.555
1123.723, 283.286
1124.955, 335.021
1126.187, 374.760
1127.418, 454.504
1128.649, 575.251
1129.880, 731.003
1131.111, 917.759
1132.342, 1267.519
1133.572, 1729.284
1134.802, 2521.053
1136.033, 3352.828
1137.262, 4007.606
1138.492, 4404.390
1139.722, 4610.178
1140.951, 4774.971
1142.180, 5009.769
1143.409, 4714.570
1144.638, 4398.375
1145.866, 3705.185
1147.095, 2966.999
1148.323, 2338.818
1149.551, 1872.641
1150.779, 1448.469
1152.006, 1219.300
1153.234, 980.137
1154.461, 837.977
1155.688, 772.822
1156.915, 698.674
1158.141, 703.527
1159.368, 755.384
1160.594, 852.247
1161.820, 1070.111
1163.046, 1363.980
1164.272, 1586.852
1165.498, 1780.728
1166.723, 1652.608
1167.948, 1448.491
1169.173, 1177.378
1170.398, 911.268
1171.623, 734.162
1172.847, 571.060
1174.071, 470.960
1175.295, 373.864
1176.519, 309.771
1177.743, 260.682
1178.966, 224.596
1180.190, 196.513
1181.413, 170.433
1182.636, 141.356
1183.858, 125.283
1185.081, 121.212
1186.303, 101.144
1187.526, 97.080
1188.748, 110.018
1189.969, 68.959
1191.191, 83.903
1192.412, 53.850
1193.634, 53.800
1194.855, 58.753
1196.076, 34.708
1197.296, 52.666
1198.517, 47.679
1199.737, 42.698
1200.957, 43.816
1202.177, 37.784
1203.397, 38.755
1204.617, 30.728
1205.836, 32.677
1207.055, 31.973
1208.274, 34.788
1209.493, 36.038
1210.712, 37.271
1211.930, 43.257
1213.148, 53.246
1214.367, 51.473
1215.584, 64.519
1216.802, 47.221
1218.020, 69.325
1219.237, 54.667
1220.454, 38.668
1221.671, 49.045
1222.888, 41.405
1224.105, 55.411
1225.321, 43.689
1226.537, 76.369
1227.753, 49.496
1228.969, 54.722
1230.185, 44.736
1231.400, 42.229
1232.616, 59.659
1233.831, 72.792
1235.046, 74.885
1236.261, 61.906
1237.475, 81.930
1238.689, 63.962
1239.904, 92.334
1241.118, 65.619
1242.332, 40.646
1243.545, 54.702
1244.759, 45.731
1245.972, 56.083
1247.185, 44.557
1248.398, 55.589
1249.611, 65.983
1250.823, 43.018
1252.036, 40.055
1253.248, 49.094
1254.460, 23.135
1255.671, 22.178
1256.883, 54.222
1258.095, 19.268
1259.306, 43.316
1260.517, 34.365
1261.728, 29.417
1262.938, 31.469
1264.149, 25.220
1265.359, 33.798
1266.569, 29.054
1267.779, 35.207
1268.989, 57.400
1270.199, 17.620
1271.408, 54.769
1272.617, 33.955
1273.826, 56.021
1275.035, 41.088
1276.244, 69.156
1277.452, 49.226
1278.661, 24.296
1279.869, 20.368
1281.077, 32.441
1282.285, 33.534
1283.492, 29.651
1284.700, 20.767
1285.907, 18.993
1287.114, 0.099
1288.321, 20.204
1289.527, 35.357
1290.734, 0.437
1291.940, 9.532
1293.146, 18.613
1294.352, 26.691
1295.558, 11.769
1296.763, 43.845
1297.969, 4.917
1299.174, 15.985
1300.379, 10.051
1301.584, 13.114
1302.788, 9.170
1303.993, 20.223
1305.197, 10.273
1306.401, 14.318
1307.605, 35.362
1308.809, 13.406
1310.013, 26.445
1311.216, 19.483
1312.419, 27.518
1313.622, 15.549
1314.825, 19.576
1316.028, 34.602
1317.230, 41.627
1318.432, 43.652
1319.634, 36.677
1320.836, 43.700
1322.038, 26.720
1323.240, 35.736
1324.441, 9.747
1325.642, 3.754
1326.843, 0.759
1328.044, 3.237
1329.245, 3.235
1330.445, 7.236
1331.645, 1.759
1332.845, 4.750
1334.045, 3.736
1335.245, 2.280
1336.445, 0.700
1337.644, 3.322
1338.843, 11.348
1340.042, 10.378
1341.241, 10.588
1342.440, 4.551
1343.638, 9.488
1344.836, 1.531
1346.034, 29.576
1347.232, 3.628
1348.430, 13.683
1349.628, 3.258
1350.825, 14.804
1352.022, 13.871
1353.219, 17.058
1354.416, 10.016
1355.613, 27.094
1356.809, 3.177
1358.005, 7.264
1359.202, 12.646
1360.398, 18.446
1361.593, 15.543
1362.789, 2.644
1363.984, 0.748
1365.179, 9.146
1366.374, 6.050
1367.569, 4.940
1368.764, 12.172
1369.958, 8.272
1371.153, 10.784
1372.347, 2.664
1373.541, 19.544
1374.735, 10.483
1375.928, 15.670
1377.122, 27.983
1378.315, 11.931
1379.508, 15.153
1380.701, 40.237
1381.893, 35.322
1383.086, 23.406
1384.278, 32.490
1385.470, 20.573
1386.662, 34.653
1387.854, 19.730
1389.046, 15.804
1390.237, 15.875
1391.428, 34.945
1392.619, 3.985
1393.810, 47.083
1395.001, 2.850
1396.191, 2.214
1397.382, 0.272
1398.572, 0.671
1399.762, 3.387
1400.952, 1.443
1402.141, 36.498
1403.331, 30.551
1404.520, 37.603
1405.709, 17.654
1406.898, 44.704
1408.087, 33.754
1409.275, 26.802
1410.464, 14.850
1411.652, 10.145
1412.840, 10.977
1414.028, 1.992
1415.215, 14.038
1416.403, 15.084
1417.590, 7.971
1418.777, 43.790
1419.964, 17.832
1421.151, 29.801
1422.338, 22.308
1423.524, 50.954
1424.710, 44.610
1425.896, 33.406
1427.082, 45.676
1428.268, 43.050
1429.453, 54.438
1430.639, 60.036
1431.824, 58.180
1433.009, 67.276
1434.194, 70.254
1435.378, 56.034
1436.563, 72.927
1437.747, 76.683
1438.931, 91.518
1440.115, 99.770
1441.299, 80.754
1442.482, 118.866
1443.666, 142.693
1444.849, 124.507
1446.032, 130.308
1447.215, 125.097
1448.397, 158.871
1449.580, 150.126
1450.762, 172.168
1451.944, 168.165
1453.126, 164.318
1454.308, 143.953
1455.490, 140.866
1456.671, 174.153
1457.852, 131.667
1459.033, 128.974
1460.214, 144.966
1461.395, 111.129
1462.575, 122.503
1463.756, 126.897
1464.936, 105.277
1466.116, 89.673
1467.296, 91.072
1468.475, 102.506
1469.655, 73.960
1470.834, 74.404
1472.013, 67.857
1473.192, 51.318
1474.371, 55.795
1475.550, 42.242
1476.728, 34.657
1477.906, 41.995
1479.084, 68.539
1480.262, 57.993
1481.440, 51.432
1482.617, 65.889
1483.795, 54.378
1484.972, 51.879
1486.149, 40.393
1487.326, 43.917
1488.502, 50.450
1489.679, 28.993
1490.855, 41.549
1492.031, 34.128
1493.207, 14.730
1494.383, 27.361
1495.559, 30.020
1496.734, 14.713
1497.909, 1.551
1499.084, 25.947
1500.259, 39.717
1501.434, 0.582
1502.608, 25.918
1503.783, 0.000
##END=



