##NAMES=Baryte
##RRUFFID=R050335
##IDEAL CHEMISTRY=BaS^6+^O_4_
##LOCALITY=Bullion Mountains, San Bernardino County, California, USA
##OWNER=RRUFF
##SOURCE=California Institute of Technology
##DESCRIPTION=Colorless cleavage fragment
##STATUS=The identification of this mineral has been confirmed by X-ray diffraction and chemical analysis
##URL=rruff.info/R050335
##MEASURED CHEMISTRY=(Ba_0.95_Sr_0.05_)_Î£=1_S_1.00_O_4_
##PIN_ID=L01894
##ORIENTATION=Laser parallel to -a* (-1 0 0). Fiducial mark perpendicular to laser is parallel to b [0 1 0]
93.48000, 0.0000000E+00
94.71400, 2.811035
95.94800, 68.78076
97.18200, 105.0520
98.41600, 53.31055
99.64900, 96.49146
100.8830, 148.3174
102.1160, 122.9604
103.3490, 123.8506
104.5820, 205.5703
105.8150, 416.7974
107.0470, 858.2761
108.2800, 1352.824
109.5120, 1283.332
110.7440, 1379.676
111.9760, 2040.740
113.2080, 2347.436
114.4400, 1343.701
115.6710, 572.4546
116.9030, 257.6245
118.1340, 264.1565
119.3650, 176.0049
120.5960, 144.1499
121.8270, 196.5767
123.0580, 195.5085
124.2880, 230.8257
125.5190, 296.3081
126.7490, 322.0962
127.9790, 346.9861
129.2090, 491.0181
130.4390, 411.1646
131.6680, 501.4912
132.8980, 489.0295
134.1270, 474.9819
135.3560, 824.5342
136.5850, 494.3105
137.8140, 550.0869
139.0430, 643.8638
140.2710, 952.7188
141.5000, 1015.571
142.7280, 1153.422
143.9560, 1146.310
145.1840, 1027.290
146.4120, 844.4272
147.6390, 789.6555
148.8670, 738.0908
150.0940, 635.5063
151.3210, 641.8569
152.5490, 590.9465
153.7750, 531.3501
155.0020, 515.2834
156.2290, 431.8110
157.4550, 365.9805
158.6810, 346.5608
159.9080, 241.8174
161.1340, 265.8435
162.3590, 263.9216
163.5850, 185.2917
164.8110, 283.2412
166.0360, 218.3677
167.2610, 217.3767
168.4860, 181.3372
169.7110, 188.7466
170.9360, 209.5442
172.1610, 203.7708
173.3850, 156.4011
174.6100, 137.2639
175.8340, 148.9336
177.0580, 170.6116
178.2820, 196.2983
179.5050, 176.9944
180.7290, 226.7012
181.9520, 193.4175
183.1760, 192.1440
184.3990, 200.8804
185.6220, 212.3855
186.8450, 262.1045
188.0670, 253.1670
189.2900, 306.5708
190.5120, 263.3179
191.7340, 328.0728
192.9560, 342.8354
194.1780, 362.5234
195.4000, 274.2651
196.6220, 336.6274
197.8430, 273.8335
199.0640, 273.4863
200.2860, 268.0483
201.5070, 273.9858
202.7270, 247.4819
203.9480, 234.4604
205.1690, 161.9780
206.3890, 129.8906
207.6090, 60.40234
208.8290, 14.30225
210.0490, 94.19873
211.2690, 81.29639
212.4890, 116.3145
213.7080, 41.81494
214.9280, 30.31787
216.1470, 55.82422
217.3660, 7.137695
218.5850, 70.87354
219.8030, 27.36572
221.0220, 82.87500
222.2400, 45.61621
223.4590, 25.89209
224.6770, 46.39648
225.8950, 4.120605
227.1120, 13.37793
228.3300, 7.975586
229.5480, 24.43506
230.7650, 1.098633
231.9820, 8.348633
233.1990, 6.781250
234.4160, 10.33105
235.6330, 17.55273
236.8490, 2.134766
238.0660, 31.94971
239.2820, 60.42969
240.4980, 77.35938
241.7140, 39.66016
242.9300, 30.63037
244.1460, 86.76660
245.3610, 71.96631
246.5770, 55.39160
247.7920, 116.8389
249.0070, 37.63721
250.2220, 65.94336
251.4370, 22.41992
252.6510, 63.26123
253.8660, 31.83496
255.0800, 3.081055
256.2940, 39.70557
257.5080, 41.60107
258.7220, 146.4424
259.9360, 70.30566
261.1490, 192.1890
262.3630, 110.0898
263.5760, 90.00586
264.7890, 71.93555
266.0020, 35.04541
267.2150, 69.83057
268.4270, 23.79248
269.6400, 33.76221
270.8520, 81.73730
272.0640, 57.71680
273.2760, 119.6987
274.4880, 70.68311
275.7000, 27.33105
276.9120, 68.64844
278.1230, 169.6274
279.3340, 161.6060
280.5450, 70.58252
281.7560, 89.55664
282.9670, 57.52930
284.1780, 61.49951
285.3880, 26.46729
286.5980, 30.43262
287.8090, 26.39502
289.0190, 132.3560
290.2290, 109.3135
291.4380, 36.26807
292.6480, 58.21826
293.8570, 25.83545
295.0670, 68.09619
296.2760, 22.02295
297.4850, 6.060059
298.6930, 30.19531
299.9020, 43.34570
301.1110, 28.48584
302.3190, 18.31201
303.5270, 20.77197
304.7350, 34.93018
305.9430, 0.2778320
307.1510, 22.49219
308.3580, 43.50781
309.5660, 24.96924
310.7730, 30.24170
311.9800, 24.47070
313.1870, 60.17920
314.3940, 55.88477
315.6010, 101.5547
316.8070, 71.22119
318.0130, 5.129883
319.2200, 24.50293
320.4260, 92.11816
321.6310, 133.7319
322.8370, 9.657227
324.0430, 94.94531
325.2480, 44.54541
326.4540, 72.14404
327.6590, 104.7402
328.8640, 0.6665040
330.0680, 113.9199
331.2730, 85.49170
332.4780, 34.06201
333.6820, 91.62842
334.8860, 69.19336
336.0900, 63.75537
337.2940, 127.3149
338.4980, 71.87207
339.7010, 9.413086
340.9050, 9.949707
342.1080, 80.46045
343.3110, 12.03027
344.5140, 41.44873
345.7170, 102.4380
346.9200, 97.87646
348.1220, 115.9771
349.3240, 59.69141
350.5270, 105.0972
351.7290, 38.49365
352.9310, 41.88965
354.1320, 98.90479
355.3340, 42.28955
356.5350, 68.73291
357.7370, 60.10889
358.9380, 23.48340
360.1390, 18.85693
361.3400, 68.22803
362.5400, 115.4331
363.7410, 51.79639
364.9410, 58.95996
366.1410, 62.31152
367.3410, 109.7979
368.5410, 53.14648
369.7410, 48.49414
370.9400, 150.7437
372.1400, 45.08789
373.3390, 95.43066
374.5380, 86.77246
375.7370, 27.91943
376.9360, 44.40820
378.1350, 108.5527
379.3330, 59.56836
380.5310, 43.76660
381.7300, 19.46631
382.9280, 22.74463
384.1260, 115.0215
385.3230, 104.3013
386.5210, 128.5854
387.7180, 95.87158
388.9160, 73.15869
390.1130, 53.53516
391.3100, 51.82178
392.5060, 120.1074
393.7030, 90.53662
394.9000, 175.8203
396.0960, 100.0630
397.2920, 10.34229
398.4880, 210.0356
399.6840, 78.15967
400.8800, 12.44189
402.0750, 99.72119
403.2710, 28.99756
404.4660, 110.2837
405.6610, 51.56689
406.8560, 56.84766
408.0510, 160.1260
409.2450, 63.43018
410.4400, 174.7021
411.6340, 69.97217
412.8280, 88.37549
414.0220, 92.63965
415.2160, 79.89941
416.4100, 50.15820
417.6030, 139.4146
418.7970, 163.6670
419.9900, 127.1733
421.1830, 147.4199
422.3760, 138.4526
423.5690, 136.9043
424.7610, 133.1431
425.9540, 125.3784
427.1460, 132.6133
428.3380, 178.8457
429.5300, 151.0752
430.7220, 260.3027
431.9140, 235.5269
433.1050, 232.7485
434.2970, 394.9673
435.4880, 539.1836
436.6790, 584.3970
437.8700, 738.5933
439.0610, 928.8013
440.2510, 1156.007
441.4420, 1567.326
442.6320, 2002.148
443.8220, 2403.139
445.0120, 3095.352
446.2020, 3685.562
447.3910, 4442.772
448.5810, 5034.979
449.7700, 6034.522
450.9600, 7128.697
452.1490, 7804.533
453.3370, 7876.516
454.5260, 7277.150
455.7150, 6290.350
456.9030, 5383.545
458.0910, 4542.742
459.2800, 4044.938
460.4670, 3847.132
461.6550, 3560.250
462.8430, 3015.443
464.0300, 2423.642
465.2180, 1816.840
466.4050, 1206.631
467.5920, 970.8276
468.7790, 761.0239
469.9650, 636.2207
471.1520, 421.4160
472.3380, 322.7124
473.5250, 357.9077
474.7110, 246.1025
475.8970, 246.2988
477.0820, 302.4946
478.2680, 223.6899
479.4540, 207.8867
480.6390, 128.0830
481.8240, 24.27881
483.0090, 184.0249
484.1940, 215.7861
485.3780, 1.010742
486.5630, 191.4683
487.7470, 47.32568
488.9320, 153.8589
490.1160, 183.0430
491.3000, 141.2275
492.4830, 18.41260
493.6670, 21.59814
494.8500, 72.78467
496.0340, 81.97119
497.2170, 47.16064
498.4000, 64.34961
499.5820, 31.55811
500.7650, 80.77441
501.9480, 40.95898
503.1300, 58.05225
504.3120, 9.271484
505.4940, 54.49609
506.6760, 21.27344
507.8580, 98.95020
509.0390, 6.825195
510.2210, 161.4072
511.4020, 89.64014
512.5830, 78.87451
513.7640, 122.1089
514.9450, 162.3452
516.1250, 144.5820
517.3060, 176.8188
518.4860, 145.8438
519.6660, 76.60400
520.8460, 91.84961
522.0260, 91.09717
523.2060, 77.70557
524.3850, 79.88184
525.5650, 105.1118
526.7440, 16.55127
527.9230, 77.80957
529.1020, 115.0693
530.2810, 102.3301
531.4590, 37.59131
532.6380, 74.87061
533.8160, 240.1509
534.9940, 70.43213
536.1720, 97.72266
537.3500, 5.014160
538.5270, 138.3115
539.7050, 133.7378
540.8820, 77.04395
542.0590, 78.44971
543.2360, 111.7080
544.4130, 6.046875
545.5900, 63.13867
546.7660, 99.47900
547.9430, 69.82031
549.1190, 116.1953
550.2950, 2.462402
551.4710, 49.88037
552.6470, 59.22314
553.8220, 8.432617
554.9980, 64.91113
556.1730, 5.254883
557.3480, 9.780273
558.5230, 55.12695
559.6980, 78.48535
560.8730, 112.8442
562.0470, 45.23047
563.2220, 84.60449
564.3960, 49.97998
565.5700, 76.45605
566.7440, 89.83984
567.9170, 36.66113
569.0910, 35.05469
570.2640, 120.5649
571.4380, 152.9600
572.6110, 94.35547
573.7840, 47.77100
574.9570, 64.16797
576.1290, 62.56543
577.3020, 137.9634
578.4740, 141.3633
579.6460, 14.77246
580.8180, 109.1826
581.9900, 118.7007
583.1620, 2.116211
584.3330, 40.17822
585.5040, 81.61914
586.6760, 75.06738
587.8470, 117.5151
589.0180, 64.96777
590.1880, 90.43945
591.3590, 184.9155
592.5290, 140.2754
593.7000, 113.9292
594.8700, 151.4424
596.0400, 121.9668
597.2090, 157.4912
598.3790, 220.0161
599.5490, 186.5420
600.7180, 292.0674
601.8870, 201.5928
603.0560, 406.1245
604.2250, 550.1128
605.3940, 546.6455
606.5620, 759.1768
607.7300, 947.7148
608.8990, 1290.253
610.0670, 1617.843
611.2350, 2009.438
612.4020, 2446.975
613.5700, 3162.518
614.7370, 3758.061
615.9050, 4448.970
617.0720, 4745.512
618.2390, 4637.138
619.4060, 3970.952
620.5720, 3440.512
621.7390, 2703.074
622.9050, 2178.615
624.0710, 1744.159
625.2370, 1411.386
626.4030, 1355.910
627.5690, 1155.247
628.7340, 1283.283
629.9000, 1046.834
631.0650, 1149.386
632.2300, 956.9360
633.3950, 786.4863
634.5600, 666.0371
635.7240, 612.8848
636.8890, 550.4146
638.0530, 628.6973
639.2170, 538.4321
640.3810, 628.7695
641.5450, 663.3311
642.7080, 661.0186
643.8720, 792.5801
645.0350, 751.0850
646.1980, 761.8350
647.3610, 663.5830
648.5240, 678.1411
649.6870, 597.5776
650.8490, 547.1338
652.0120, 423.6904
653.1740, 280.2451
654.3360, 193.7993
655.4980, 244.3521
656.6600, 37.90430
657.8210, 194.4556
658.9830, 134.0171
660.1440, 74.60303
661.3050, 63.16309
662.4660, 91.72119
663.6270, 33.70068
664.7870, 69.27246
665.9480, 6.156250
667.1080, 129.4111
668.2680, 23.97803
669.4280, 105.5430
670.5880, 95.10693
671.7480, 103.6685
672.9070, 5.229980
674.0670, 69.78906
675.2260, 116.3467
676.3850, 155.9023
677.5440, 7.456543
678.7030, 38.99121
679.8610, 84.56787
681.0200, 1.869629
682.1780, 38.39746
683.3360, 65.92236
684.4940, 42.55469
685.6520, 121.9429
686.8090, 132.4375
687.9670, 6.929688
689.1240, 17.41943
690.2810, 96.87793
691.4380, 24.36279
692.5950, 25.86914
693.7520, 62.21240
694.9080, 48.69043
696.0650, 0.5966800
697.2210, 94.87451
698.3770, 93.93359
699.5330, 60.39893
700.6880, 15.86182
701.8440, 60.68799
702.9990, 138.2236
704.1550, 6.677734
705.3100, 48.65869
706.4650, 1.894531
707.6190, 58.37061
708.7740, 8.807129
709.9290, 58.28223
711.0830, 98.75342
712.2370, 22.17920
713.3910, 36.61963
714.5450, 98.03857
715.6980, 41.45410
716.8520, 72.03955
718.0050, 63.44873
719.1580, 169.8545
720.3110, 11.25635
721.4640, 127.6816
722.6170, 50.92383
723.7700, 54.43555
724.9220, 103.1597
726.0740, 109.5117
727.2260, 145.6333
728.3780, 158.5342
729.5300, 74.87451
730.6810, 79.72461
731.8330, 31.05664
732.9840, 96.38477
734.1350, 91.70752
735.2860, 61.02588
736.4370, 49.34033
737.5880, 81.65039
738.7380, 96.95605
739.8880, 44.25684
741.0390, 78.55371
742.1890, 12.15430
743.3380, 38.12012
744.4880, 111.3901
745.6380, 60.65527
746.7870, 88.91602
747.9360, 26.17236
749.0850, 25.42334
750.2340, 142.6694
751.3830, 98.91113
752.5310, 80.14746
753.6800, 7.378906
754.8280, 49.60303
755.9760, 22.53662
757.1240, 11.00195
758.2720, 35.24170
759.4190, 34.44287
760.5670, 53.63916
761.7140, 141.8311
762.8610, 14.98047
764.0080, 90.18945
765.1550, 0.6459960
766.3020, 58.50684
767.4480, 59.66553
768.5950, 111.8477
769.7410, 214.0278
770.8870, 63.22266
772.0330, 82.41113
773.1780, 139.5952
774.3240, 142.8628
775.4690, 89.03711
776.6140, 17.20605
777.7590, 15.63086
778.9040, 86.28125
780.0490, 22.41846
781.1940, 181.5493
782.3380, 1.325195
783.4820, 5.212891
784.6260, 191.8828
785.7700, 67.97803
786.9140, 45.06787
788.0580, 83.15283
789.2010, 80.23291
790.3450, 128.3110
791.4880, 127.7788
792.6310, 136.1890
793.7730, 113.5269
794.9160, 118.5889
796.0590, 59.64600
797.2010, 2.301758
798.3430, 73.73535
799.4850, 87.76709
800.6270, 9.794434
801.7690, 184.8125
802.9100, 140.8257
804.0520, 250.6519
805.1930, 80.65430
806.3340, 101.6514
807.4750, 145.6436
808.6160, 160.6304
809.7560, 162.5015
810.8970, 130.5894
812.0370, 155.5610
813.1770, 46.52783
814.3170, 47.48975
815.4570, 64.44629
816.5960, 34.08984
817.7360, 94.96387
818.8750, 155.8511
820.0140, 67.72998
821.1530, 161.6040
822.2920, 60.72168
823.4310, 89.58691
824.5690, 66.44678
825.7070, 47.26904
826.8460, 49.05273
827.9840, 58.33838
829.1220, 30.80859
830.2590, 70.64551
831.3970, 73.47900
832.5340, 10.30762
833.6710, 135.9497
834.8080, 30.23242
835.9450, 168.5581
837.0820, 53.34375
838.2190, 10.89258
839.3550, 17.87207
840.4910, 118.6323
841.6270, 13.71143
842.7630, 108.0259
843.8990, 18.67871
845.0350, 39.03369
846.1700, 22.62598
847.3060, 22.32959
848.4410, 63.02881
849.5760, 27.70459
850.7100, 32.39502
851.8450, 67.08154
852.9800, 9.764648
854.1140, 83.44141
855.2480, 133.1143
856.3820, 113.7827
857.5160, 23.34082
858.6500, 54.00146
859.7830, 153.0229
860.9170, 14.32373
862.0500, 80.31396
863.1830, 5.052734
864.3160, 65.42969
865.4480, 83.15039
866.5810, 1.271973
867.7130, 74.29590
868.8460, 93.83691
869.9780, 42.39844
871.1100, 103.9561
872.2410, 79.46826
873.3730, 65.06250
874.5050, 79.61084
875.6360, 84.15576
876.7670, 97.69775
877.8980, 149.2368
879.0290, 120.3159
880.1590, 108.8491
881.2900, 34.37891
882.4200, 32.90674
883.5500, 24.95459
884.6800, 45.90088
885.8100, 52.36426
886.9400, 65.88037
888.0690, 111.3945
889.1990, 85.90576
890.3280, 95.04785
891.4570, 136.5547
892.5860, 18.97412
893.7140, 86.20459
894.8430, 92.68555
895.9710, 25.16113
897.1000, 44.65625
898.2280, 151.5493
899.3560, 21.35889
900.4830, 109.8472
901.6110, 157.5493
902.7380, 50.03467
903.8660, 106.0938
904.9930, 34.32471
906.1200, 110.9009
907.2460, 53.37695
908.3730, 80.85059
909.5000, 10.67725
910.6260, 78.78223
911.7520, 16.23877
912.8780, 79.51367
914.0040, 22.81738
915.1290, 69.61816
916.2550, 31.92578
917.3800, 143.3564
918.5050, 167.8418
919.6300, 37.07910
920.7550, 20.50488
921.8800, 41.92969
923.0040, 129.3535
924.1290, 122.7754
925.2530, 131.7109
926.3770, 23.15430
927.5010, 135.5723
928.6250, 81.98828
929.7480, 73.40332
930.8720, 137.8184
931.9950, 115.2354
933.1180, 81.62695
934.2410, 161.0420
935.3640, 122.4551
936.4860, 45.46289
937.6090, 114.8779
938.7310, 158.2920
939.8530, 205.7051
940.9750, 110.1221
942.0970, 189.5391
943.2180, 160.8789
944.3400, 89.37012
945.4610, 145.7852
946.5820, 131.2002
947.7030, 103.6143
948.8240, 162.0283
949.9450, 103.4502
951.0650, 173.8711
952.1860, 191.2764
953.3060, 86.93750
954.4260, 25.37012
955.5460, 108.8037
956.6650, 129.2383
957.7850, 168.6846
958.9040, 157.1328
960.0230, 164.5801
961.1420, 249.0303
962.2610, 88.48047
963.3800, 174.9326
964.4990, 464.3613
965.6170, 418.8154
966.7350, 329.2686
967.8530, 436.4863
968.9710, 431.9434
970.0890, 542.8096
971.2070, 638.2686
972.3240, 776.7295
973.4410, 757.8242
974.5580, 832.2119
975.6750, 973.6777
976.7920, 1593.617
977.9090, 1994.088
979.0250, 2570.737
980.1410, 4109.213
981.2580, 6559.648
982.3740, 10490.09
983.4890, 15978.57
984.6050, 20528.04
985.7200, 26770.54
986.8360, 37518.02
987.9510, 50813.35
989.0660, 56809.87
990.1810, 48188.36
991.2950, 31609.86
992.4100, 17512.35
993.5240, 9371.861
994.6390, 5252.391
995.7530, 3425.555
996.8660, 2171.090
997.9800, 1738.854
999.0940, 1438.838
1000.207, 1019.383
1001.320, 862.4160
1002.433, 722.9658
1003.546, 525.5186
1004.659, 392.0771
1005.772, 525.6367
1006.884, 428.2012
1007.996, 489.7686
1009.108, 358.3457
1010.220, 321.9287
1011.332, 397.5137
1012.444, 345.1104
1013.555, 235.7178
1014.666, 220.3281
1015.777, 106.9414
1016.888, 244.5596
1017.999, 178.1797
1019.110, 187.8057
1020.220, 252.4355
1021.331, 189.0684
1022.441, 130.7070
1023.551, 127.3477
1024.661, 112.9932
1025.770, 37.64453
1026.880, 96.29883
1027.989, 194.9600
1029.098, 207.6240
1030.207, 50.29199
1031.316, 15.02539
1032.425, 123.6592
1033.533, 261.3535
1034.642, 75.05273
1035.750, 23.75879
1036.858, 122.5312
1037.966, 23.87207
1039.073, 83.21582
1040.181, 71.40820
1041.288, 79.03711
1042.396, 92.67090
1043.503, 33.22070
1044.610, 4.862305
1045.716, 14.50879
1046.823, 75.16016
1047.929, 181.0547
1049.036, 116.7236
1050.142, 130.3994
1051.248, 40.07910
1052.353, 104.7676
1053.459, 54.48340
1054.564, 145.2041
1055.670, 171.9287
1056.775, 43.66992
1057.880, 19.58496
1058.985, 31.83887
1060.089, 8.902344
1061.194, 108.6592
1062.298, 136.4219
1063.402, 98.28711
1064.506, 82.72266
1065.610, 100.4990
1066.713, 181.2861
1067.817, 19.08008
1068.920, 143.8779
1070.023, 44.02637
1071.126, 106.8359
1072.229, 99.65234
1073.332, 127.2246
1074.435, 237.0488
1075.537, 340.8809
1076.639, 365.7168
1077.741, 399.5586
1078.843, 616.4033
1079.945, 769.2549
1081.046, 903.1104
1082.148, 1152.589
1083.249, 1255.454
1084.350, 1353.709
1085.451, 1323.583
1086.551, 1191.494
1087.652, 913.4102
1088.752, 769.3350
1089.853, 503.2637
1090.953, 432.1973
1092.053, 427.1367
1093.152, 367.5039
1094.252, 292.4541
1095.351, 413.4082
1096.451, 481.3672
1097.550, 466.3311
1098.649, 541.2998
1099.748, 639.2734
1100.846, 943.2520
1101.945, 993.2393
1103.043, 1111.244
1104.141, 1215.255
1105.239, 1062.270
1106.337, 1042.803
1107.434, 816.8330
1108.532, 714.8682
1109.629, 445.9170
1110.726, 408.9688
1111.823, 196.0342
1112.920, 267.1045
1114.017, 348.1787
1115.113, 76.46582
1116.210, 212.5498
1117.306, 184.3799
1118.402, 125.4736
1119.498, 100.5732
1120.593, 131.6777
1121.689, 95.78711
1122.784, 213.9023
1123.879, 160.0830
1124.974, 114.2686
1126.069, 63.45801
1127.164, 177.6523
1128.259, 185.8574
1129.353, 98.06934
1130.447, 391.2930
1131.541, 273.5410
1132.635, 380.7930
1133.729, 405.0508
1134.822, 535.3135
1135.916, 797.5811
1137.009, 832.8545
1138.102, 926.1318
1139.195, 942.4141
1140.288, 958.2812
1141.380, 923.5703
1142.473, 903.8652
1143.565, 843.4600
1144.657, 833.1816
1145.749, 712.4873
1146.841, 567.7969
1147.932, 543.1104
1149.024, 469.4268
1150.115, 395.7471
1151.206, 376.5303
1152.297, 271.3965
1153.388, 318.7275
1154.479, 223.0615
1155.569, 187.3994
1156.659, 322.7402
1157.750, 258.0859
1158.839, 158.4336
1159.929, 301.7861
1161.019, 220.1406
1162.108, 446.8682
1163.198, 400.8281
1164.287, 474.1934
1165.376, 504.5596
1166.465, 561.9336
1167.553, 463.3145
1168.642, 561.1230
1169.730, 621.7617
1170.818, 418.0557
1171.906, 394.4482
1172.994, 261.8467
1174.082, 319.2480
1175.170, 158.6582
1176.257, 87.07031
1177.344, 159.4873
1178.431, 47.06152
1179.518, 84.49121
1180.605, 128.9258
1181.691, 133.3623
1182.778, 135.8027
1183.864, 133.0479
1184.950, 144.6943
1186.036, 105.1426
1187.122, 84.01270
1188.207, 105.4648
1189.292, 89.35352
1190.378, 128.8984
1191.463, 81.95508
1192.548, 54.41699
1193.632, 4.121094
1194.717, 18.64355
1195.801, 63.81641
1196.886, 58.56738
1197.970, 139.0361
1199.054, 109.5996
1200.137, 10.82910
1201.221, 22.64160
1202.305, 74.21191
1203.388, 19.31445
1204.471, 48.15332
1205.554, 145.6543
1206.637, 149.1270
1207.719, 39.60059
1208.802, 108.0762
1209.884, 65.55176
1210.966, 81.03027
1212.048, 33.48926
1213.130, 112.9756
1214.212, 10.55762
1215.293, 110.9072
1216.374, 28.86328
1217.456, 87.32910
1218.536, 36.53223
1219.617, 98.00000
1220.698, 184.5381
1221.778, 169.0088
1222.859, 10.37109
1223.939, 143.2021
1225.019, 79.67285
1226.099, 128.1455
1227.178, 154.6162
1228.258, 159.0879
1229.337, 49.55957
1230.417, 102.0322
1231.496, 83.05273
1232.574, 269.0469
1233.653, 85.53223
1234.732, 9.125977
1235.810, 10.38867
1236.888, 176.0898
1237.966, 89.56738
1239.044, 115.0459
1240.122, 145.5234
1241.199, 9.000000
1242.277, 74.47656
1243.354, 21.95020
1244.431, 3.145508
1245.508, 84.90723
1246.585, 29.57227
1247.661, 90.98145
1248.738, 87.70117
1249.814, 26.15332
1250.890, 96.60352
1251.966, 106.3398
1253.042, 85.20801
1254.117, 181.6543
1255.193, 100.3584
1256.268, 186.8018
1257.343, 103.2559
1258.418, 86.28320
1259.493, 52.53906
1260.567, 50.08887
1261.642, 59.81250
1262.716, 51.25195
1263.790, 65.86914
1264.864, 57.80273
1265.938, 103.7910
1267.011, 99.21387
1268.085, 142.6729
1269.158, 16.78027
1270.231, 54.61719
1271.304, 175.0107
1272.377, 18.42969
1273.450, 186.9424
