##NAMES=Baryte
##RRUFFID=R040036
##IDEAL CHEMISTRY=BaS^6+^O_4_
##LOCALITY=Cumbria County, England
##OWNER=RRUFF
##SOURCE=University of Arizona Mineral Museum
##DESCRIPTION=Golden brown tabular crystal
##STATUS=The identification of this mineral has been confirmed by X-ray diffraction and chemical analysis
##URL=rruff.info/R040036
##MEASURED CHEMISTRY=Ba_1.00_S_1.00_O_4_; trace amounts of Pb
##PIN_ID=M00021
##ORIENTATION=Laser parallel to c* (0 0 1). Fiducial mark perpendicular to laser is parallel to -a [-1 0 0]
26.288, 0.000
27.694, 19.886
29.099, 5.280
30.504, 23.857
31.909, 33.690
33.313, 33.422
34.717, 43.292
36.121, 34.491
37.525, 49.732
38.929, 47.130
40.332, 46.386
41.735, 54.334
43.138, 47.757
44.541, 57.787
45.943, 54.984
47.345, 57.330
48.747, 34.115
50.149, 40.645
51.551, 20.199
52.952, 6.775
54.353, 33.372
55.754, 4.989
57.155, 3.626
58.555, 16.283
59.955, 9.041
61.355, 18.347
62.755, 20.635
64.154, 2.095
65.553, 20.156
66.952, 1.613
68.351, 10.599
69.750, 2.792
71.148, 41.032
72.546, 104.871
73.944, 162.722
75.342, 214.585
76.739, 211.457
78.136, 168.339
79.533, 161.232
80.930, 164.134
82.327, 203.047
83.723, 225.970
85.119, 273.903
86.515, 318.847
87.910, 355.801
89.306, 422.766
90.701, 459.741
92.096, 494.726
93.490, 548.723
94.885, 547.729
96.279, 624.747
97.673, 635.775
99.067, 687.815
100.461, 663.865
101.854, 662.930
103.247, 656.019
104.640, 653.130
106.032, 607.258
107.425, 620.399
108.817, 616.552
110.209, 617.712
111.601, 649.877
112.992, 635.625
114.384, 636.396
115.775, 637.374
117.166, 615.535
118.556, 631.691
119.947, 621.830
121.337, 632.959
122.727, 589.080
124.116, 583.199
125.506, 595.325
126.895, 590.458
128.284, 617.598
129.673, 581.746
131.062, 585.900
132.450, 537.061
133.838, 495.230
135.226, 487.406
136.614, 474.589
138.001, 437.779
139.388, 455.977
140.775, 455.182
142.162, 466.395
143.549, 460.615
144.935, 496.843
146.321, 515.079
147.707, 548.322
149.093, 586.574
150.478, 613.832
151.863, 639.099
153.248, 641.372
154.633, 625.654
156.018, 554.943
157.402, 510.240
158.786, 479.545
160.170, 442.858
161.554, 382.178
162.937, 393.506
164.320, 366.842
165.703, 337.186
167.086, 385.538
168.469, 327.898
169.851, 362.265
171.233, 343.641
172.615, 341.024
173.996, 321.416
175.378, 301.815
176.759, 305.474
178.140, 321.482
179.521, 308.264
180.901, 297.011
182.281, 299.722
183.662, 295.395
185.041, 295.033
186.421, 315.630
187.800, 324.189
189.180, 322.713
190.558, 321.203
191.937, 330.656
193.316, 317.073
194.694, 270.429
196.072, 276.751
197.450, 270.052
198.827, 264.282
200.205, 281.554
201.582, 267.732
202.959, 241.783
204.336, 261.058
205.712, 263.118
207.088, 236.174
208.465, 250.392
209.840, 245.202
211.216, 208.814
212.591, 221.388
213.967, 202.500
215.341, 233.119
216.716, 214.255
218.091, 235.127
219.465, 198.197
220.839, 193.602
222.213, 224.013
223.586, 223.431
224.960, 203.854
226.333, 192.284
227.706, 177.764
229.079, 182.206
230.451, 182.654
231.823, 197.108
233.195, 167.568
234.567, 193.034
235.939, 210.506
237.310, 155.984
238.682, 164.468
240.052, 166.957
241.423, 164.453
242.794, 168.990
244.164, 168.462
245.534, 168.975
246.904, 177.494
248.274, 174.019
249.643, 177.550
251.012, 172.086
252.381, 174.629
253.750, 162.177
255.118, 176.730
256.487, 188.288
257.855, 168.858
259.223, 162.427
260.590, 152.002
261.958, 185.583
263.325, 166.241
264.692, 189.833
266.059, 151.430
267.425, 156.033
268.791, 153.642
270.158, 146.256
271.523, 120.877
272.889, 154.503
274.255, 162.135
275.620, 123.773
276.985, 131.417
278.350, 129.068
279.714, 151.725
281.078, 128.388
282.443, 130.057
283.806, 118.733
285.170, 113.414
286.534, 127.101
287.897, 133.794
289.260, 118.492
290.623, 98.197
291.985, 105.908
293.348, 64.624
294.710, 105.347
296.072, 103.075
297.433, 110.809
298.795, 67.549
300.156, 76.295
301.517, 78.047
302.878, 86.805
304.239, 64.568
305.599, 87.337
306.959, 85.112
308.319, 72.893
309.679, 107.680
311.038, 96.472
312.398, 78.270
313.757, 75.073
315.116, 70.883
316.474, 76.698
317.833, 67.518
319.191, 82.345
320.549, 60.177
321.907, 65.014
323.264, 93.857
324.622, 80.704
325.979, 49.554
327.336, 59.408
328.692, 95.267
330.049, 54.130
331.405, 56.997
332.761, 36.869
334.117, 66.746
335.473, 60.628
336.828, 68.515
338.183, 74.408
339.538, 69.425
340.893, 62.210
342.247, 65.121
343.602, 72.038
344.956, 72.961
346.310, 48.891
347.663, 83.828
349.017, 62.771
350.370, 66.722
351.723, 30.680
353.076, 48.646
354.428, 63.619
355.780, 26.600
357.133, 24.589
358.484, 41.588
359.836, 27.597
361.188, 41.613
362.539, 50.639
363.890, 45.269
365.241, 46.319
366.591, 40.766
367.942, 34.822
369.292, 23.884
370.642, 22.953
371.992, 29.027
373.341, 7.892
374.691, 27.194
376.040, 23.286
377.388, 20.385
378.737, 45.489
380.086, 28.599
381.434, 11.715
382.782, 34.837
384.130, 32.965
385.477, 45.099
386.825, 3.238
388.172, 34.384
389.519, 20.542
390.865, 52.701
392.212, 40.867
393.558, 33.089
394.904, 48.300
396.250, 39.485
397.596, 47.676
398.941, 36.877
400.286, 41.083
401.631, 29.295
402.976, 0.537
404.321, 35.761
405.665, 15.994
407.009, 26.233
408.353, 11.520
409.697, 27.734
411.040, 11.994
412.384, 14.261
413.727, 11.534
415.070, 24.815
416.412, 13.102
417.755, 30.394
419.097, 15.696
420.439, 39.003
421.781, 15.317
423.122, 21.766
424.464, 48.090
425.805, 53.570
427.146, 54.909
428.486, 34.257
429.827, 71.612
431.167, 84.973
432.507, 112.345
433.847, 124.728
435.187, 118.111
436.526, 146.506
437.865, 159.906
439.204, 177.312
440.543, 263.723
441.882, 307.142
443.220, 383.568
444.558, 479.000
445.896, 636.437
447.234, 880.878
448.572, 1139.323
449.909, 1605.774
451.246, 2044.229
452.583, 2313.155
453.919, 2965.153
455.256, 2940.621
456.592, 3129.097
457.928, 3479.576
459.264, 4634.061
460.600, 6192.549
461.935, 7589.042
463.270, 7453.542
464.605, 5772.047
465.940, 3868.555
467.274, 2459.069
468.609, 1583.586
469.943, 1065.110
471.277, 763.637
472.610, 574.168
473.944, 471.704
475.277, 332.245
476.610, 295.792
477.943, 245.344
479.275, 213.899
480.608, 174.460
481.940, 145.026
483.272, 123.596
484.604, 146.169
485.935, 88.745
487.267, 78.325
488.598, 44.908
489.929, 87.495
491.260, 73.085
492.590, 71.678
493.920, 36.274
495.250, 28.873
496.580, 25.364
497.910, 40.081
499.239, 28.690
500.569, 39.301
501.898, 50.915
503.226, 10.532
504.555, 42.152
505.883, 32.774
507.212, 46.400
508.540, 9.028
509.867, 19.658
511.195, 13.291
512.522, 36.926
513.849, 24.563
515.176, 62.203
516.503, 49.844
517.829, 47.444
519.156, 32.090
520.482, 32.739
521.808, 62.389
523.133, 19.041
524.459, 48.696
525.784, 20.352
527.109, 10.009
528.434, 17.670
529.758, 7.333
531.083, 44.998
532.407, 0.136
533.731, 54.804
535.055, 34.492
536.378, 6.837
537.701, 4.845
539.025, 5.093
540.348, 27.795
541.670, 21.254
542.993, 11.930
544.315, 17.606
545.637, 3.716
546.959, 24.042
548.281, 9.650
549.602, 4.335
550.923, 14.650
552.244, 6.654
553.565, 11.336
554.886, 48.561
556.206, 41.292
557.526, 26.411
558.846, 13.336
560.166, 42.020
561.486, 46.536
562.805, 23.220
564.124, 34.212
565.443, 12.053
566.762, 13.629
568.080, 13.027
569.399, 6.758
570.717, 32.508
572.035, 23.506
573.352, 49.615
574.670, 13.346
575.987, 44.442
577.304, 14.812
578.621, 38.199
579.938, 62.875
581.254, 35.831
582.570, 44.623
583.886, 41.940
585.202, 55.995
586.518, 66.021
587.833, 79.696
589.148, 100.364
590.463, 115.048
591.778, 97.788
593.093, 111.459
594.407, 98.120
595.721, 120.795
597.035, 141.454
598.349, 120.710
599.662, 147.368
600.976, 147.021
602.289, 206.673
603.602, 193.675
604.914, 231.672
606.227, 275.415
607.539, 305.059
608.851, 369.924
610.163, 481.653
611.475, 675.579
612.786, 1022.224
614.097, 1518.856
615.408, 2249.836
616.719, 2904.464
618.030, 3004.713
619.340, 2648.586
620.651, 1998.223
621.961, 1555.156
623.270, 1220.038
624.580, 1109.665
625.889, 1052.278
627.199, 1055.893
628.507, 1154.496
629.816, 1182.097
631.125, 1127.694
632.433, 962.288
633.741, 675.879
635.049, 497.483
636.357, 362.068
637.664, 263.650
638.972, 266.229
640.279, 235.804
641.586, 264.385
642.893, 246.954
644.199, 286.520
645.505, 319.082
646.811, 343.724
648.117, 320.280
649.423, 331.832
650.728, 294.381
652.034, 242.927
653.339, 251.468
654.644, 183.007
655.948, 182.542
657.253, 157.092
658.557, 120.619
659.861, 71.143
661.165, 58.070
662.468, 45.181
663.772, 39.694
665.075, 35.338
666.378, 44.708
667.681, 36.210
668.983, 25.974
670.286, 29.468
671.588, 18.958
672.890, 15.556
674.192, 34.917
675.493, 5.391
676.795, 35.868
678.096, 8.717
679.397, 6.292
680.697, 5.160
681.998, 28.393
683.298, 38.042
684.598, 32.473
685.898, 22.901
687.198, 2.299
688.498, 34.283
689.797, 9.122
691.096, 21.477
692.395, 11.086
693.694, 12.297
694.992, 17.325
696.290, 5.045
697.589, 12.591
698.886, 4.235
700.184, 16.114
701.482, 29.541
702.779, 31.792
704.076, 6.879
705.373, 5.442
706.669, 14.628
707.966, 22.060
709.262, 2.093
710.558, 39.611
711.854, 7.329
713.150, 12.055
714.445, 38.789
715.740, 11.538
717.035, 23.295
718.330, 24.063
719.625, 13.158
720.919, 5.625
722.214, 1.584
723.508, 21.212
724.801, 10.018
726.095, 8.833
727.388, 11.345
728.682, 26.518
729.975, 8.687
731.267, 3.852
732.560, 11.011
733.852, 57.166
735.145, 9.317
736.437, 29.464
737.728, 19.394
739.020, 11.738
740.311, 35.866
741.603, 22.990
742.894, 8.890
744.184, 8.778
745.475, 2.326
746.765, 24.425
748.055, 3.480
749.345, 2.609
750.635, 6.307
751.925, 9.769
753.214, 16.841
754.503, 9.090
755.792, 20.970
757.081, 20.973
758.370, 4.926
759.658, 8.114
760.946, 7.850
762.234, 5.821
763.522, 8.201
764.809, 10.219
766.097, 9.233
767.384, 16.243
768.671, 40.249
769.958, 16.251
771.244, 29.250
772.530, 27.685
773.817, 7.235
775.102, 29.222
776.388, 10.205
777.674, 17.185
778.959, 37.161
780.244, 8.133
781.529, 62.101
782.814, 10.066
784.098, 26.028
785.383, 0.985
786.667, 9.939
787.951, 15.888
789.235, 28.835
790.518, 32.835
791.801, 30.717
793.084, 35.653
794.367, 21.586
795.650, 4.516
796.933, 24.442
798.215, 29.364
799.497, 27.284
800.779, 56.200
802.061, 59.114
803.342, 35.024
804.624, 51.931
805.905, 43.835
807.186, 8.263
808.466, 19.632
809.747, 6.525
811.027, 23.414
812.307, 18.829
813.587, 39.713
814.867, 3.575
816.146, 54.453
817.426, 68.009
818.705, 39.617
819.984, 31.459
821.263, 39.544
822.541, 28.410
823.819, 61.274
825.098, 71.136
826.375, 65.911
827.653, 33.839
828.931, 58.690
830.208, 71.908
831.485, 38.364
832.762, 63.213
834.039, 53.517
835.315, 57.313
836.592, 46.722
837.868, 49.321
839.144, 54.161
840.420, 47.847
841.695, 69.002
842.970, 59.529
844.246, 92.312
845.521, 133.144
846.795, 95.313
848.070, 133.040
849.344, 83.802
850.618, 109.312
851.892, 93.710
853.166, 113.485
854.440, 92.893
855.713, 143.026
856.986, 182.139
858.259, 186.963
859.532, 184.503
860.804, 212.208
862.077, 213.385
863.349, 170.822
864.621, 191.285
865.893, 145.100
867.164, 124.919
868.436, 102.720
869.707, 104.463
870.978, 71.274
872.248, 121.093
873.519, 77.896
874.789, 98.714
876.060, 87.932
877.330, 60.747
878.599, 84.565
879.869, 84.383
881.138, 43.848
882.408, 77.316
883.677, 39.037
884.945, 73.856
886.214, 42.450
887.482, 103.180
888.751, 121.711
890.019, 80.520
891.287, 97.341
892.554, 120.811
893.822, 77.633
895.089, 127.830
896.356, 134.402
897.623, 168.210
898.889, 120.718
900.156, 146.275
901.422, 136.087
902.688, 112.909
903.954, 133.729
905.220, 116.558
906.485, 91.388
907.750, 110.219
909.015, 131.052
910.280, 72.885
911.545, 78.705
912.809, 90.541
914.074, 75.377
915.338, 80.218
916.602, 79.411
917.865, 97.900
919.129, 80.747
920.392, 77.597
921.655, 83.448
922.918, 65.218
924.181, 76.697
925.443, 83.928
926.706, 82.789
927.968, 98.652
929.230, 88.518
930.491, 133.387
931.753, 109.258
933.014, 75.114
934.276, 102.991
935.536, 56.873
936.797, 118.757
938.058, 92.643
939.318, 94.531
940.578, 92.422
941.838, 104.318
943.098, 114.218
944.358, 131.856
945.617, 87.762
946.876, 110.671
948.135, 131.583
949.394, 101.500
950.653, 130.419
951.911, 122.332
953.169, 120.256
954.427, 112.183
955.685, 139.114
956.943, 137.048
958.200, 187.990
959.458, 155.933
960.715, 202.881
961.971, 184.830
963.228, 259.783
964.485, 339.743
965.741, 358.705
966.997, 366.672
968.253, 393.644
969.508, 382.619
970.764, 469.598
972.019, 474.581
973.274, 567.568
974.529, 638.559
975.784, 733.553
977.039, 884.553
978.293, 1059.556
979.547, 1442.563
980.801, 2074.572
982.055, 2975.585
983.308, 4907.809
984.562, 8730.831
985.815, 19828.861
987.068, 43496.898
988.321, 58684.930
989.573, 47312.980
990.826, 23791.029
992.078, 11079.086
993.330, 5762.150
994.582, 3419.216
995.833, 2345.286
997.085, 1686.360
998.336, 1340.439
999.587, 1119.523
1000.838, 985.612
1002.088, 992.704
1003.339, 930.798
1004.589, 726.896
1005.839, 672.996
1007.089, 496.100
1008.339, 437.206
1009.588, 482.315
1010.838, 369.427
1012.087, 419.545
1013.336, 420.666
1014.584, 403.790
1015.833, 432.916
1017.081, 440.047
1018.330, 506.183
1019.577, 526.322
1020.825, 546.464
1022.073, 605.610
1023.320, 692.759
1024.567, 767.913
1025.814, 918.072
1027.061, 1054.234
1028.308, 1275.401
1029.554, 1299.570
1030.800, 1130.745
1032.046, 908.925
1033.292, 665.107
1034.538, 512.294
1035.783, 405.485
1037.029, 342.679
1038.274, 242.876
1039.519, 188.076
1040.763, 158.279
1042.008, 174.484
1043.252, 106.692
1044.496, 91.903
1045.740, 101.117
1046.984, 89.334
1048.228, 40.553
1049.471, 92.237
1050.714, 109.730
1051.957, 96.266
1053.200, 43.497
1054.442, 95.730
1055.685, 80.115
1056.927, 54.354
1058.169, 58.595
1059.411, 36.839
1060.652, 49.675
1061.894, 58.089
1063.135, 29.693
1064.376, 69.123
1065.617, 52.385
1066.858, 67.203
1068.098, 31.465
1069.339, 40.462
1070.579, 40.728
1071.819, 57.996
1073.058, 78.267
1074.298, 99.750
1075.537, 127.926
1076.776, 145.239
1078.015, 164.105
1079.254, 177.394
1080.493, 257.967
1081.731, 321.265
1082.969, 392.663
1084.207, 393.966
1085.445, 320.271
1086.683, 272.578
1087.920, 212.887
1089.157, 136.198
1090.394, 85.691
1091.631, 66.179
1092.868, 35.497
1094.105, 86.041
1095.341, 13.366
1096.577, 60.718
1097.813, 51.045
1099.049, 72.374
1100.284, 125.706
1101.519, 141.039
1102.755, 142.373
1103.990, 167.709
1105.224, 113.047
1106.459, 135.386
1107.693, 113.727
1108.928, 40.069
1110.162, 95.413
1111.395, 34.758
1112.629, 45.104
1113.863, 59.452
1115.096, 18.801
1116.329, 15.848
1117.562, 33.502
1118.795, 24.857
1120.027, 18.213
1121.259, 30.570
1122.492, 21.929
1123.723, 27.288
1124.955, 29.648
1126.187, 19.017
1127.418, 15.379
1128.649, 36.863
1129.880, 63.107
1131.111, 75.473
1132.342, 138.839
1133.572, 142.206
1134.802, 141.574
1136.033, 260.943
1137.262, 343.313
1138.492, 367.683
1139.722, 461.054
1140.951, 495.426
1142.180, 597.799
1143.409, 613.172
1144.638, 594.546
1145.866, 550.920
1147.095, 466.296
1148.323, 342.672
1149.551, 310.049
1150.779, 233.427
1152.006, 202.806
1153.234, 116.185
1154.461, 86.564
1155.688, 90.944
1156.915, 39.324
1158.141, 51.238
1159.368, 68.619
1160.594, 46.000
1161.820, 116.382
1163.046, 91.763
1164.272, 92.145
1165.498, 131.527
1166.723, 127.910
1167.948, 69.292
1169.173, 123.674
1170.398, 104.056
1171.623, 125.438
1172.847, 75.823
1174.071, 82.836
1175.295, 32.586
1176.519, 60.968
1177.743, 46.349
1178.966, 19.730
1180.190, 11.111
1181.413, 21.508
1182.636, 13.132
1183.858, 14.760
1185.081, 22.610
1186.303, 1.978
1187.526, 7.653
1188.748, 37.713
1189.969, 14.079
1191.191, 19.444
1192.412, 26.191
1193.634, 7.833
1194.855, 15.839
1196.076, 8.125
1197.296, 0.225
1198.517, 24.426
1199.737, 0.917
1200.957, 31.742
1202.177, 44.593
1203.397, 5.934
1204.617, 9.267
1205.836, 8.299
1207.055, 37.970
1208.274, 0.650
1209.493, 24.303
1210.712, 20.008
1211.930, 10.870
1213.148, 3.600
1214.367, 2.726
1215.584, 52.578
1216.802, 26.881
1218.020, 27.183
1219.237, 52.483
1220.454, 25.783
1221.671, 5.910
1222.888, 5.490
1224.105, 5.859
1225.321, 7.261
1226.537, 4.026
1227.753, 1.313
1228.969, 34.598
1230.185, 13.890
1231.400, 43.358
1232.616, 41.639
1233.831, 46.920
1235.046, 62.257
1236.261, 95.478
1237.475, 74.755
1238.689, 61.031
1239.904, 50.307
1241.118, 79.581
1242.332, 55.884
1243.545, 102.157
1244.759, 41.430
1245.972, 51.701
1247.185, 57.972
1248.398, 54.204
1249.611, 89.126
1250.823, 85.393
1252.036, 47.659
1253.248, 59.924
1254.460, 24.188
1255.671, 63.451
1256.883, 6.713
1258.095, 81.974
1259.306, 42.234
1260.517, 35.492
1261.728, 61.750
1262.938, 34.006
1264.149, 48.261
1265.359, 64.515
1266.569, 68.767
1267.779, 102.019
1268.989, 91.265
1270.199, 89.511
1271.408, 96.755
1272.617, 75.998
1273.826, 99.240
1275.035, 67.480
1276.244, 88.769
1277.452, 81.006
1278.661, 66.242
1279.869, 56.675
1281.077, 46.162
1282.285, 86.140
1283.492, 43.370
1284.700, 30.599
1285.907, 67.827
1287.114, 34.053
1288.321, 17.723
1289.527, 15.498
1290.734, 47.718
1291.940, 85.954
1293.146, 58.163
1294.352, 42.370
1295.558, 69.569
1296.763, 51.763
1297.969, 75.957
1299.174, 61.148
1300.379, 28.338
1301.584, 47.520
1302.788, 11.701
1303.993, 20.880
1305.197, 59.057
1306.401, 58.232
1307.605, 76.405
1308.809, 125.577
1310.013, 79.748
1311.216, 87.916
1312.419, 123.623
1313.622, 104.512
1314.825, 80.360
1316.028, 49.514
1317.230, 109.666
1318.432, 113.668
1319.634, 105.817
1320.836, 94.965
1322.038, 91.110
1323.240, 100.665
1324.441, 114.643
1325.642, 116.431
1326.843, 16.394
1328.044, 79.525
1329.245, 37.099
1330.445, 47.229
1331.645, 52.625
1332.845, 8.751
1334.045, 22.876
1335.245, 43.001
1336.445, 27.910
1337.644, 47.129
1338.843, 4.213
1340.042, 18.743
1341.241, 31.146
1342.440, 3.320
1343.638, 12.216
1344.836, 19.788
1346.034, 28.889
1347.232, 46.989
1348.430, 35.781
1349.628, 24.188
1350.825, 7.286
1352.022, 1.795
1353.219, 1.130
1354.416, 21.772
1355.613, 9.102
1356.809, 22.197
1358.005, 44.267
1359.202, 7.366
1360.398, 4.533
1361.593, 23.569
1362.789, 18.673
1363.984, 24.780
1365.179, 37.866
1366.374, 30.045
1367.569, 40.126
1368.764, 28.253
1369.958, 28.076
1371.153, 3.531
1372.347, 23.980
1373.541, 11.148
1374.735, 14.235
1375.928, 20.245
1377.122, 3.585
1378.315, 24.424
1379.508, 52.735
1380.701, 60.892
1381.893, 51.038
1383.086, 15.190
1384.278, 47.340
1385.470, 30.486
1386.662, 51.631
1387.854, 22.773
1389.046, 63.912
1390.237, 55.049
1391.428, 40.183
1392.619, 88.313
1393.810, 31.440
1395.001, 32.564
1396.191, 17.685
1397.382, 28.163
1398.572, 17.272
1399.762, 17.378
1400.952, 18.481
1402.141, 26.583
1403.331, 45.682
1404.520, 1.775
1405.709, 49.869
1406.898, 40.961
1408.087, 4.949
1409.275, 51.147
1410.464, 21.248
1411.652, 31.347
1412.840, 51.447
1414.028, 35.549
1415.215, 50.660
1416.403, 21.774
1417.590, 74.897
1418.777, 78.018
1419.964, 3.469
1421.151, 60.588
1422.338, 66.675
1423.524, 13.261
1424.710, 31.783
1425.896, 55.894
1427.082, 25.004
1428.268, 71.891
1429.453, 93.898
1430.639, 49.999
1431.824, 102.088
1433.009, 123.854
1434.194, 124.948
1435.378, 150.042
1436.563, 103.135
1437.747, 195.169
1438.931, 213.250
1440.115, 202.329
1441.299, 264.722
1442.482, 346.763
1443.666, 338.800
1444.849, 346.831
1446.032, 341.858
1447.215, 375.880
1448.397, 377.896
1449.580, 360.908
1450.762, 455.921
1451.944, 439.938
1453.126, 431.950
1454.308, 472.827
1455.490, 451.827
1456.671, 402.281
1457.852, 429.256
1459.033, 474.225
1460.214, 413.186
1461.395, 429.137
1462.575, 410.047
1463.756, 354.052
1464.936, 368.093
1466.116, 296.134
1467.296, 234.212
1468.475, 259.296
1469.655, 188.385
1470.834, 244.473
1472.013, 228.563
1473.192, 168.723
1474.371, 190.893
1475.550, 180.074
1476.728, 111.269
1477.906, 185.481
1479.084, 183.714
1480.262, 183.991
1481.440, 166.315
1482.617, 185.679
1483.795, 156.094
1484.972, 130.557
1486.149, 135.072
1487.326, 133.647
1488.502, 173.292
1489.679, 59.014
1490.855, 94.830
1492.031, 54.757
1493.207, 79.813
1494.383, 102.021
1495.559, 61.413
1496.734, 81.037
1497.909, 86.955
1499.084, 5.742
1500.259, 104.088
1501.434, 20.542
1502.608, 0.000
##END=



