##NAMES=Baryte
##RRUFFID=R040036
##IDEAL CHEMISTRY=BaS^6+^O_4_
##LOCALITY=Cumbria County, England
##OWNER=RRUFF
##SOURCE=University of Arizona Mineral Museum
##DESCRIPTION=Golden brown tabular crystal
##STATUS=The identification of this mineral has been confirmed by X-ray diffraction and chemical analysis
##URL=rruff.info/R040036
##MEASURED CHEMISTRY=Ba_1.00_S_1.00_O_4_; trace amounts of Pb
##PIN_ID=M00021
##ORIENTATION=Laser parallel to c* (0 0 1). Fiducial mark perpendicular to laser is parallel to -a [-1 0 0]
26.288, 0.000
27.694, 6.510
29.099, 43.777
30.504, 3.473
31.909, 50.860
33.313, 49.727
34.717, 54.719
36.121, 71.368
37.525, 38.316
38.929, 46.614
40.332, 52.790
41.735, 61.981
43.138, 55.942
44.541, 38.642
45.943, 38.566
47.345, 53.145
48.747, 44.335
50.149, 48.235
51.551, 46.563
52.952, 38.354
54.353, 63.781
55.754, 45.718
57.155, 69.011
58.555, 55.479
59.955, 64.034
61.355, 34.377
62.755, 62.438
64.154, 66.125
65.553, 84.407
66.952, 83.346
68.351, 45.634
69.750, 66.163
71.148, 60.250
72.546, 83.216
73.944, 56.625
75.342, 77.297
76.739, 52.442
78.136, 58.568
79.533, 59.668
80.930, 61.132
82.327, 41.117
83.723, 71.679
85.119, 9.603
86.515, 21.487
87.910, 35.329
89.306, 4.869
90.701, 0.892
92.096, 20.385
93.490, 26.703
94.885, 29.807
96.279, 50.599
97.673, 31.721
99.067, 29.681
100.461, 15.930
101.854, 4.915
103.247, 7.944
104.640, 16.622
106.032, 4.004
107.425, 36.767
108.817, 44.374
110.209, 53.221
111.601, 63.385
112.992, 60.775
114.384, 62.951
115.775, 79.075
117.166, 68.239
118.556, 72.276
119.947, 76.542
121.337, 93.779
122.727, 105.038
124.116, 111.209
125.506, 163.281
126.895, 165.239
128.284, 227.055
129.673, 200.755
131.062, 165.328
132.450, 141.052
133.838, 97.612
135.226, 117.377
136.614, 75.875
138.001, 91.248
139.388, 100.509
140.775, 92.644
142.162, 132.902
143.549, 131.936
144.935, 184.022
146.321, 233.049
147.707, 285.013
149.093, 312.990
150.478, 334.946
151.863, 362.888
153.248, 379.715
154.633, 357.526
156.018, 288.482
157.402, 233.372
158.786, 156.065
160.170, 169.750
161.554, 123.592
162.937, 87.194
164.320, 97.775
165.703, 63.371
167.086, 57.956
168.469, 31.497
169.851, 32.151
171.233, 32.388
172.615, 46.873
173.996, 41.292
175.378, 65.728
176.759, 65.705
178.140, 21.345
179.521, 40.780
180.901, 46.622
182.281, 46.681
183.662, 57.599
185.041, 58.450
186.421, 81.032
187.800, 109.439
189.180, 101.785
190.558, 114.982
191.937, 94.134
193.316, 88.140
194.694, 72.948
196.072, 64.892
197.450, 56.212
198.827, 59.640
200.205, 59.024
201.582, 74.273
202.959, 59.410
204.336, 75.597
205.712, 67.585
207.088, 56.662
208.465, 68.548
209.840, 66.347
211.216, 43.738
212.591, 52.229
213.967, 48.670
215.341, 42.099
216.716, 38.534
218.091, 39.714
219.465, 40.033
220.839, 40.325
222.213, 42.418
223.586, 42.756
224.960, 45.972
226.333, 46.040
227.706, 47.229
229.079, 56.356
230.451, 55.444
231.823, 56.329
233.195, 67.465
234.567, 54.036
235.939, 42.768
237.310, 45.635
238.682, 53.785
240.052, 47.139
241.423, 43.978
242.794, 16.597
244.164, 37.207
245.534, 39.356
246.904, 31.921
248.274, 46.421
249.643, 31.908
251.012, 52.038
252.381, 58.018
253.750, 34.497
255.118, 37.755
256.487, 24.458
257.855, 44.273
259.223, 48.041
260.590, 43.865
261.958, 32.672
263.325, 34.507
264.692, 45.306
266.059, 39.058
267.425, 44.793
268.791, 34.570
270.158, 40.455
271.523, 36.300
272.889, 36.195
274.255, 37.108
275.620, 32.007
276.985, 37.186
278.350, 46.762
279.714, 41.620
281.078, 39.464
282.443, 34.178
283.806, 13.971
285.170, 28.561
286.534, 25.008
287.897, 48.897
289.260, 35.537
290.623, 40.295
291.985, 40.043
293.348, 18.780
294.710, 25.506
296.072, 47.222
297.433, 37.928
298.795, 33.624
300.156, 50.309
301.517, 37.985
302.878, 37.652
304.239, 31.308
305.599, 40.955
306.959, 33.592
308.319, 42.220
309.679, 39.839
311.038, 31.333
312.398, 38.914
313.757, 52.240
315.116, 40.579
316.474, 41.762
317.833, 33.946
319.191, 43.128
320.549, 33.393
321.907, 33.627
323.264, 43.969
324.622, 29.285
325.979, 26.304
327.336, 37.458
328.692, 41.621
330.049, 39.765
331.405, 24.939
332.761, 51.099
334.117, 39.346
335.473, 29.702
336.828, 39.012
338.183, 31.335
339.538, 29.578
340.893, 23.779
342.247, 29.895
343.602, 27.961
344.956, 34.974
346.310, 27.991
347.663, 35.994
349.017, 32.057
350.370, 32.041
351.723, 38.090
353.076, 25.093
354.428, 29.035
355.780, 27.024
357.133, 29.995
358.484, 30.855
359.836, 30.749
361.188, 37.620
362.539, 24.455
363.890, 19.268
365.241, 32.082
366.591, 19.893
367.942, 27.700
369.292, 19.511
370.642, 35.319
371.992, 32.138
373.341, 19.953
374.691, 22.770
376.040, 33.624
377.388, 36.470
378.737, 26.318
380.086, 19.213
381.434, 18.046
382.782, 17.824
384.130, 44.614
385.477, 22.444
386.825, 25.244
388.172, 43.035
389.519, 22.673
390.865, 15.447
392.212, 17.243
393.558, 38.012
394.904, 27.858
396.250, 20.636
397.596, 34.510
398.941, 22.416
400.286, 25.213
401.631, 15.027
402.976, 3.776
404.321, 26.615
405.665, 21.469
407.009, 19.300
408.353, 12.077
409.697, 32.860
411.040, 28.691
412.384, 34.491
413.727, 25.316
415.070, 16.091
416.412, 32.890
417.755, 24.668
419.097, 38.442
420.439, 44.217
421.781, 31.967
423.122, 32.737
424.464, 39.548
425.805, 41.334
427.146, 62.107
428.486, 48.854
429.827, 67.504
431.167, 63.220
432.507, 72.919
433.847, 101.727
435.187, 83.473
436.526, 121.240
437.865, 152.004
439.204, 197.666
440.543, 240.357
441.882, 302.147
443.220, 386.892
444.558, 465.614
445.896, 636.413
447.234, 892.152
448.572, 1229.888
449.909, 1743.593
451.246, 2260.340
452.583, 2862.051
453.919, 2930.802
455.256, 2614.539
456.592, 2323.238
457.928, 2119.970
459.264, 2400.764
460.600, 2724.503
461.935, 2990.249
463.270, 2810.958
464.605, 2232.711
465.940, 1606.419
467.274, 1104.127
468.609, 755.882
469.943, 541.570
471.277, 390.246
472.610, 269.975
473.944, 213.724
475.277, 158.465
476.610, 133.137
477.943, 139.930
479.275, 114.669
480.608, 103.362
481.940, 77.099
483.272, 61.799
484.604, 65.490
485.935, 67.155
487.267, 63.848
488.598, 56.533
489.929, 39.252
491.260, 44.939
492.590, 25.665
493.920, 45.372
495.250, 36.080
496.580, 33.817
497.910, 36.494
499.239, 32.376
500.569, 33.881
501.898, 31.584
503.226, 32.294
504.555, 31.004
505.883, 37.747
507.212, 34.431
508.540, 31.093
509.867, 17.816
511.195, 27.484
512.522, 33.190
513.849, 45.860
515.176, 37.605
516.503, 31.337
517.829, 37.013
519.156, 28.704
520.482, 20.449
521.808, 28.218
523.133, 24.930
524.459, 19.730
525.784, 29.408
527.109, 42.087
528.434, 41.870
529.758, 33.573
531.083, 24.289
532.407, 29.099
533.731, 24.808
535.055, 33.631
536.378, 33.317
537.701, 47.352
539.025, 20.091
540.348, 29.838
541.670, 22.646
542.993, 37.477
544.315, 21.232
545.637, 17.917
546.959, 36.558
548.281, 30.339
549.602, 22.057
550.923, 30.810
552.244, 21.673
553.565, 38.465
554.886, 18.470
556.206, 22.248
557.526, 21.989
558.846, 26.720
560.166, 13.497
561.486, 22.338
562.805, 23.114
564.124, 12.913
565.443, 25.699
566.762, 26.559
568.080, 20.542
569.399, 20.349
570.717, 29.122
572.035, 43.940
573.352, 45.730
574.670, 31.683
575.987, 37.485
577.304, 25.686
578.621, 36.709
579.938, 37.518
581.254, 32.287
582.570, 44.079
583.886, 41.853
585.202, 69.621
586.518, 43.401
587.833, 71.319
589.148, 87.119
590.463, 68.920
591.778, 94.728
593.093, 99.528
594.407, 108.318
595.721, 119.240
597.035, 126.124
598.349, 128.249
599.662, 136.018
600.976, 144.788
602.289, 160.684
603.602, 199.518
604.914, 238.431
606.227, 289.187
607.539, 340.986
608.851, 474.740
610.163, 616.535
611.475, 898.469
612.786, 1403.552
614.097, 2167.348
615.408, 3131.310
616.719, 3659.060
618.030, 3588.815
619.340, 3007.604
620.651, 2242.350
621.961, 1812.096
623.270, 1354.950
624.580, 1193.718
625.889, 1092.461
627.199, 1137.237
628.507, 1197.978
629.816, 1188.768
631.125, 1085.633
632.433, 909.383
633.741, 643.120
635.049, 471.857
636.357, 310.593
637.664, 248.346
638.972, 179.079
640.279, 144.011
641.586, 144.742
642.893, 111.473
644.199, 137.253
645.505, 136.982
646.811, 127.716
648.117, 117.612
649.423, 115.338
650.728, 105.162
652.034, 75.885
653.339, 66.608
654.644, 61.531
655.948, 44.251
657.253, 43.970
658.557, 42.688
659.861, 45.405
661.165, 37.448
662.468, 9.162
663.772, 11.874
665.075, 4.414
666.378, 23.577
667.681, 21.329
668.983, 23.036
670.286, 15.741
671.588, 13.445
672.890, 5.148
674.192, 14.849
675.493, 5.368
676.795, 14.367
678.096, 9.741
679.397, 17.076
680.697, 3.019
681.998, 3.707
683.298, 3.607
684.598, 6.077
685.898, 23.776
687.198, 9.484
688.498, 2.163
689.797, 15.973
691.096, 1.669
692.395, 6.657
693.694, 7.024
694.992, 9.307
696.290, 21.466
697.589, 11.130
698.886, 3.857
700.184, 13.709
701.482, 2.634
702.779, 17.022
704.076, 5.788
705.373, 8.438
706.669, 1.860
707.966, 7.213
709.262, 3.430
710.558, 23.071
711.854, 0.710
713.150, 6.347
714.445, 6.018
715.740, 3.613
717.035, 16.758
718.330, 9.135
719.625, 1.484
720.919, 17.100
722.214, 4.715
723.508, 8.327
724.801, 22.938
726.095, 6.547
727.388, 4.846
728.682, 1.757
729.975, 1.359
731.267, 0.196
732.560, 1.169
733.852, 3.182
735.145, 5.226
736.437, 3.636
737.728, 14.050
739.020, 6.530
740.311, 6.109
741.603, 4.314
742.894, 1.740
744.184, 5.169
745.475, 8.399
746.765, 0.035
748.055, 20.528
749.345, 0.090
750.635, 6.351
751.925, 12.795
753.214, 0.244
754.503, 7.695
755.792, 9.850
757.081, 5.393
758.370, 0.066
759.658, 12.473
760.946, 9.010
762.234, 3.454
763.522, 1.079
764.809, 11.609
766.097, 0.138
767.384, 7.665
768.671, 0.810
769.958, 4.287
771.244, 3.233
772.530, 13.751
773.817, 13.267
775.102, 10.781
776.388, 1.294
777.674, 9.805
778.959, 7.685
780.244, 5.821
781.529, 13.325
782.814, 1.173
784.098, 14.328
785.383, 2.826
786.667, 6.677
787.951, 5.817
789.235, 3.691
790.518, 17.799
791.801, 17.287
793.084, 8.227
794.367, 19.256
795.650, 9.738
796.933, 14.218
798.215, 6.696
799.497, 13.827
800.779, 21.645
802.061, 3.105
803.342, 15.575
804.624, 12.077
805.905, 1.613
807.186, 3.849
808.466, 16.309
809.747, 5.768
811.027, 14.226
812.307, 3.654
813.587, 3.891
814.867, 1.585
816.146, 8.869
817.426, 5.938
818.705, 11.492
819.984, 6.911
821.263, 13.316
822.541, 3.641
823.819, 0.944
825.098, 1.508
826.375, 12.920
827.653, 6.687
828.931, 1.255
830.208, 7.131
831.485, 0.628
832.762, 0.782
834.039, 6.041
835.315, 0.384
836.592, 4.192
837.868, 9.802
839.144, 11.617
840.420, 4.936
841.695, 6.647
842.970, 13.745
844.246, 3.851
845.521, 12.478
846.795, 20.682
848.070, 12.061
849.344, 38.471
850.618, 6.837
851.892, 24.228
853.166, 15.456
854.440, 29.834
855.713, 26.811
856.986, 29.965
858.259, 11.332
859.532, 13.738
860.804, 18.120
862.077, 42.518
863.349, 19.922
864.621, 26.313
865.893, 28.564
867.164, 11.932
868.436, 0.298
869.707, 17.657
870.978, 2.978
872.248, 33.397
873.519, 6.638
874.789, 3.916
876.060, 11.952
877.330, 12.343
878.599, 26.732
879.869, 4.995
881.138, 14.318
882.408, 35.561
883.677, 0.960
884.945, 24.316
886.214, 11.715
887.482, 17.074
888.751, 43.292
890.019, 51.361
891.287, 41.715
892.554, 19.904
893.822, 38.304
895.089, 65.697
896.356, 35.057
897.623, 58.457
898.889, 70.858
900.156, 57.150
901.422, 81.527
902.688, 57.928
903.954, 41.297
905.220, 63.700
906.485, 51.053
907.750, 81.331
909.015, 49.724
910.280, 65.129
911.545, 47.534
912.809, 39.939
914.074, 59.328
915.338, 51.734
916.602, 62.943
917.865, 66.351
919.129, 73.759
920.392, 73.119
921.655, 69.530
922.918, 69.935
924.181, 77.177
925.443, 62.590
926.706, 54.905
927.968, 58.320
929.230, 60.737
930.491, 60.109
931.753, 77.374
933.014, 64.795
934.276, 70.217
935.536, 72.640
936.797, 102.737
938.058, 91.164
939.318, 61.592
940.578, 102.022
941.838, 91.172
943.098, 108.561
944.358, 99.995
945.617, 79.431
946.876, 94.867
948.135, 112.305
949.394, 105.744
950.653, 123.100
951.911, 108.505
953.169, 128.752
954.427, 150.073
955.685, 142.164
956.943, 160.108
958.200, 143.167
959.458, 183.619
960.715, 186.056
961.971, 217.485
963.228, 314.942
964.485, 381.268
965.741, 434.709
966.997, 437.172
968.253, 408.626
969.508, 475.093
970.764, 542.454
972.019, 605.925
973.274, 714.331
974.529, 747.614
975.784, 890.091
977.039, 1052.569
978.293, 1331.936
979.547, 1885.418
980.801, 2506.849
982.055, 3887.335
983.308, 6392.824
984.562, 12417.314
985.815, 31126.809
987.068, 57936.301
988.321, 64925.793
989.573, 47635.301
990.826, 25194.803
992.078, 13774.307
993.330, 7613.816
994.582, 4418.327
995.833, 2851.840
997.085, 1961.355
998.336, 1503.872
999.587, 1189.392
1000.838, 987.913
1002.088, 868.437
1003.339, 765.963
1004.589, 646.491
1005.839, 564.021
1007.089, 460.524
1008.339, 451.059
1009.588, 428.598
1010.838, 387.139
1012.087, 361.684
1013.336, 352.231
1014.584, 339.781
1015.833, 292.333
1017.081, 297.888
1018.330, 285.446
1019.577, 298.006
1020.825, 286.569
1022.073, 325.134
1023.320, 276.701
1024.567, 361.271
1025.814, 337.846
1027.061, 372.422
1028.308, 395.003
1029.554, 375.585
1030.800, 356.170
1032.046, 308.757
1033.292, 222.347
1034.538, 188.939
1035.783, 162.533
1037.029, 162.131
1038.274, 122.730
1039.519, 106.332
1040.763, 104.937
1042.008, 91.544
1043.252, 96.154
1044.496, 99.842
1045.740, 85.458
1046.984, 60.076
1048.228, 92.696
1049.471, 85.319
1050.714, 66.944
1051.957, 74.573
1053.200, 68.204
1054.442, 81.960
1055.685, 95.596
1056.927, 95.254
1058.169, 89.896
1059.411, 66.540
1060.652, 72.186
1061.894, 47.958
1063.135, 62.881
1064.376, 83.682
1065.617, 46.368
1066.858, 71.028
1068.098, 67.690
1069.339, 59.386
1070.579, 61.054
1071.819, 70.163
1073.058, 63.837
1074.298, 79.173
1075.537, 94.384
1076.776, 113.067
1078.015, 146.753
1079.254, 183.441
1080.493, 313.131
1081.731, 327.824
1082.969, 393.519
1084.207, 389.216
1085.445, 315.917
1086.683, 260.621
1087.920, 181.328
1089.157, 114.040
1090.394, 118.754
1091.631, 78.472
1092.868, 73.193
1094.105, 59.917
1095.341, 64.644
1096.577, 73.374
1097.813, 67.107
1099.049, 84.842
1100.284, 114.580
1101.519, 120.320
1102.755, 138.062
1103.990, 141.950
1105.224, 132.864
1106.459, 134.311
1107.693, 103.066
1108.928, 79.824
1110.162, 58.585
1111.395, 25.347
1112.629, 29.113
1113.863, 25.880
1115.096, 17.650
1116.329, 32.421
1117.562, 16.195
1118.795, 18.971
1120.027, 35.749
1121.259, 6.529
1122.492, 37.311
1123.723, 22.095
1124.955, 23.882
1126.187, 4.670
1127.418, 5.461
1128.649, 14.255
1129.880, 42.052
1131.111, 37.850
1132.342, 41.653
1133.572, 70.457
1134.802, 120.263
1136.033, 164.073
1137.262, 225.885
1138.492, 263.698
1139.722, 329.513
1140.951, 328.331
1142.180, 400.150
1143.409, 435.971
1144.638, 407.794
1145.866, 394.620
1147.095, 298.448
1148.323, 250.279
1149.551, 235.111
1150.779, 167.944
1152.006, 135.780
1153.234, 123.617
1154.461, 96.455
1155.688, 73.295
1156.915, 54.137
1158.141, 45.843
1159.368, 63.827
1160.594, 42.674
1161.820, 60.522
1163.046, 69.373
1164.272, 80.225
1165.498, 82.760
1166.723, 93.934
1167.948, 71.790
1169.173, 70.648
1170.398, 43.863
1171.623, 61.368
1172.847, 20.230
1174.071, 10.093
1175.295, 30.958
1176.519, 6.982
1177.743, 27.884
1178.966, 17.752
1180.190, 5.620
1181.413, 10.490
1182.636, 11.361
1183.858, 24.259
1185.081, 6.132
1186.303, 9.994
1187.526, 10.880
1188.748, 2.246
1189.969, 1.660
1191.191, 7.537
1192.412, 18.414
1193.634, 9.708
1194.855, 16.830
1196.076, 10.954
1197.296, 3.079
1198.517, 12.807
1199.737, 0.703
1200.957, 3.159
1202.177, 9.718
1203.397, 23.404
1204.617, 33.471
1205.836, 12.654
1207.055, 1.378
1208.274, 21.252
1209.493, 21.127
1210.712, 37.002
1211.930, 16.877
1213.148, 16.753
1214.367, 36.629
1215.584, 24.662
1216.802, 31.631
1218.020, 31.508
1219.237, 24.630
1220.454, 31.643
1221.671, 28.521
1222.888, 24.664
1224.105, 20.627
1225.321, 5.667
1226.537, 2.784
1227.753, 24.769
1228.969, 8.756
1230.185, 11.634
1231.400, 32.513
1232.616, 15.417
1233.831, 48.296
1235.046, 19.392
1236.261, 39.658
1237.475, 32.722
1238.689, 16.615
1239.904, 32.493
1241.118, 28.379
1242.332, 31.257
1243.545, 47.134
1244.759, 38.040
1245.972, 40.918
1247.185, 31.811
1248.398, 39.740
1249.611, 36.617
1250.823, 25.495
1252.036, 31.373
1253.248, 35.317
1254.460, 14.196
1255.671, 25.075
1256.883, 12.052
1258.095, 24.998
1259.306, 18.264
1260.517, 31.236
1261.728, 40.116
1262.938, 35.469
1264.149, 34.350
1265.359, 15.230
1266.569, 38.459
1267.779, 22.340
1268.989, 49.221
1270.199, 22.102
1271.408, 22.060
1272.617, 35.941
1273.826, 26.836
1275.035, 37.717
1276.244, 27.874
1277.452, 40.945
1278.661, 26.846
1279.869, 11.725
1281.077, 30.623
1282.285, 30.501
1283.492, 33.379
1284.700, 41.257
1285.907, 25.135
1287.114, 13.012
1288.321, 6.042
1289.527, 20.920
1290.734, 29.794
1291.940, 29.668
1293.146, 26.625
1294.352, 20.546
1295.558, 13.418
1296.763, 14.341
1297.969, 20.159
1299.174, 15.025
1300.379, 14.888
1301.584, 14.749
1302.788, 36.607
1303.993, 12.463
1305.197, 20.318
1306.401, 5.829
1307.605, 23.943
1308.809, 19.789
1310.013, 27.633
1311.216, 8.477
1312.419, 18.320
1313.622, 2.161
1314.825, 30.002
1316.028, 13.841
1317.230, 21.556
1318.432, 17.388
1319.634, 2.198
1320.836, 13.021
1322.038, 30.839
1323.240, 25.655
1324.441, 29.347
1325.642, 24.088
1326.843, 24.549
1328.044, 4.324
1329.245, 3.124
1330.445, 8.077
1331.645, 21.689
1332.845, 9.480
1334.045, 14.832
1335.245, 6.618
1336.445, 3.790
1337.644, 19.988
1338.843, 9.765
1340.042, 13.539
1341.241, 12.310
1342.440, 12.078
1343.638, 14.845
1344.836, 3.392
1346.034, 0.632
1347.232, 29.124
1348.430, 7.122
1349.628, 2.373
1350.825, 10.373
1352.022, 7.883
1353.219, 0.144
1354.416, 3.407
1355.613, 6.674
1356.809, 0.945
1358.005, 1.030
1359.202, 16.504
1360.398, 9.225
1361.593, 3.943
1362.789, 14.659
1363.984, 5.628
1365.179, 12.919
1366.374, 4.210
1367.569, 5.493
1368.764, 13.193
1369.958, 6.943
1371.153, 10.356
1372.347, 14.334
1373.541, 4.016
1374.735, 8.695
1375.928, 5.355
1377.122, 2.216
1378.315, 12.076
1379.508, 11.935
1380.701, 15.793
1381.893, 1.649
1383.086, 16.499
1384.278, 22.345
1385.470, 0.188
1386.662, 2.025
1387.854, 12.138
1389.046, 0.695
1390.237, 24.528
1391.428, 15.645
1392.619, 14.179
1393.810, 18.001
1395.001, 10.179
1396.191, 16.639
1397.382, 15.454
1398.572, 28.267
1399.762, 2.076
1400.952, 15.884
1402.141, 8.689
1403.331, 14.492
1404.520, 6.706
1405.709, 3.160
1406.898, 7.636
1408.087, 35.430
1409.275, 8.186
1410.464, 13.976
1411.652, 19.767
1412.840, 14.513
1414.028, 18.300
1415.215, 13.089
1416.403, 1.132
1417.590, 12.244
1418.777, 26.030
1419.964, 13.822
1421.151, 2.372
1422.338, 5.163
1423.524, 18.954
1424.710, 14.494
1425.896, 23.131
1427.082, 16.285
1428.268, 17.615
1429.453, 23.961
1430.639, 28.124
1431.824, 33.687
1433.009, 37.393
1434.194, 18.745
1435.378, 37.418
1436.563, 41.117
1437.747, 37.827
1438.931, 54.497
1440.115, 47.187
1441.299, 67.801
1442.482, 69.514
1443.666, 62.080
1444.849, 92.565
1446.032, 67.247
1447.215, 62.697
1448.397, 95.251
1449.580, 60.041
1450.762, 88.625
1451.944, 107.007
1453.126, 84.525
1454.308, 108.352
1455.490, 99.302
1456.671, 84.737
1457.852, 91.208
1459.033, 89.663
1460.214, 86.289
1461.395, 93.051
1462.575, 85.184
1463.756, 75.392
1464.936, 72.736
1466.116, 46.082
1467.296, 32.431
1468.475, 69.770
1469.655, 25.113
1470.834, 45.449
1472.013, 30.757
1473.192, 20.037
1474.371, 18.292
1475.550, 36.562
1476.728, 11.871
1477.906, 19.176
1479.084, 25.480
1480.262, 4.812
1481.440, 23.128
1482.617, 19.457
1483.795, 23.799
1484.972, 43.145
1486.149, 28.489
1487.326, 17.833
1488.502, 16.182
1489.679, 23.544
1490.855, 6.916
1492.031, 17.295
1493.207, 2.690
1494.383, 5.097
1495.559, 15.520
1496.734, 1.036
1497.909, 6.432
1499.084, 12.823
1500.259, 4.090
1501.434, 0.127
1502.608, 0.000
##END=



