##NAMES=Baryte
##RRUFFID=R040036
##IDEAL CHEMISTRY=BaS^6+^O_4_
##LOCALITY=Cumbria County, England
##OWNER=RRUFF
##SOURCE=University of Arizona Mineral Museum
##DESCRIPTION=Golden brown tabular crystal
##STATUS=The identification of this mineral has been confirmed by X-ray diffraction and chemical analysis
##URL=rruff.info/R040036
##MEASURED CHEMISTRY=Ba_1.00_S_1.00_O_4_; trace amounts of Pb
##PIN_ID=M00028
##ORIENTATION=Laser parallel to -a* (-1 0 0). Fiducial mark perpendicular to laser is parallel to -b [0 -1 0]
26.288, 0.000
27.694, 11.794
29.099, 41.001
30.504, 49.839
31.909, 30.113
33.313, 41.446
34.717, 39.254
36.121, 36.305
37.525, 43.440
38.929, 34.282
40.332, 51.959
41.735, 49.990
43.138, 60.833
44.541, 60.755
45.943, 72.979
47.345, 70.093
48.747, 85.307
50.149, 71.925
51.551, 71.848
52.952, 78.656
54.353, 82.820
55.754, 111.087
57.155, 131.929
58.555, 143.718
59.955, 159.439
61.355, 172.034
62.755, 178.616
64.154, 149.103
65.553, 129.608
66.952, 126.135
68.351, 103.687
69.750, 85.263
71.148, 84.864
72.546, 81.489
73.944, 65.135
75.342, 41.801
76.739, 40.484
78.136, 16.182
79.533, 14.890
80.930, 1.604
82.327, 17.679
83.723, 16.960
85.119, 49.238
86.515, 44.511
87.910, 44.780
89.306, 47.044
90.701, 41.302
92.096, 37.554
93.490, 17.799
94.885, 11.038
96.279, 6.731
97.673, 45.508
99.067, 68.292
100.461, 113.084
101.854, 116.897
103.247, 157.761
104.640, 180.671
106.032, 243.621
107.425, 289.607
108.817, 337.623
110.209, 390.664
111.601, 421.727
112.992, 513.807
114.384, 541.797
115.775, 593.123
117.166, 617.113
118.556, 656.222
119.947, 671.329
121.337, 652.433
122.727, 789.535
124.116, 730.633
125.506, 900.726
126.895, 944.811
128.284, 1089.880
129.673, 1141.926
131.062, 1054.936
132.450, 939.899
133.838, 780.818
135.226, 784.704
136.614, 667.573
138.001, 682.443
139.388, 656.322
140.775, 650.208
142.162, 734.103
143.549, 686.007
144.935, 856.919
146.321, 864.840
147.707, 951.769
149.093, 999.706
150.478, 954.652
151.863, 958.608
153.248, 853.572
154.633, 851.544
156.018, 704.526
157.402, 713.515
158.786, 626.514
160.170, 600.521
161.554, 591.537
162.937, 519.562
164.320, 568.596
165.703, 508.639
167.086, 527.691
168.469, 553.752
169.851, 541.823
171.233, 575.902
172.615, 478.991
173.996, 543.089
175.378, 491.196
176.759, 535.556
178.140, 488.886
179.521, 421.177
180.901, 506.427
182.281, 433.632
183.662, 508.792
185.041, 450.906
186.421, 473.972
187.800, 534.991
189.180, 483.966
190.558, 587.894
191.937, 484.769
193.316, 505.588
194.694, 445.354
196.072, 446.076
197.450, 456.758
198.827, 387.402
200.205, 472.008
201.582, 377.572
202.959, 416.084
204.336, 411.528
205.712, 393.886
207.088, 446.154
208.465, 348.343
209.840, 426.475
211.216, 350.581
212.591, 389.687
213.967, 408.801
215.341, 355.920
216.716, 393.047
218.091, 300.139
219.465, 386.159
220.839, 351.189
222.213, 380.217
223.586, 359.180
224.960, 294.989
226.333, 413.802
227.706, 307.357
229.079, 381.912
230.451, 314.259
231.823, 319.180
233.195, 364.137
234.567, 312.362
235.939, 367.716
237.310, 279.082
238.682, 353.415
240.052, 285.901
241.423, 294.492
242.794, 316.562
244.164, 245.807
245.534, 319.458
246.904, 257.538
248.274, 295.735
249.643, 282.015
251.012, 253.301
252.381, 298.594
253.750, 229.892
255.118, 308.197
256.487, 263.508
257.855, 292.824
259.223, 307.146
260.590, 253.474
261.958, 315.808
263.325, 256.147
264.692, 335.491
266.059, 263.842
267.425, 288.198
268.791, 293.559
270.158, 200.927
271.523, 322.301
272.889, 226.681
274.255, 279.140
275.620, 256.532
276.985, 225.931
278.350, 263.335
279.714, 179.746
281.078, 251.164
282.443, 192.589
283.806, 233.021
285.170, 225.461
286.534, 174.908
287.897, 249.362
289.260, 153.823
290.623, 240.292
291.985, 191.769
293.348, 178.252
294.710, 232.744
296.072, 142.242
297.433, 219.748
298.795, 162.262
300.156, 193.782
301.517, 188.311
302.878, 176.846
304.239, 219.389
305.599, 117.939
306.959, 225.497
308.319, 134.061
309.679, 174.634
311.038, 187.213
312.398, 124.800
313.757, 230.394
315.116, 141.996
316.474, 218.605
317.833, 180.221
319.191, 166.845
320.549, 191.476
321.907, 108.114
323.264, 201.759
324.622, 102.407
325.979, 178.055
327.336, 150.706
328.692, 116.359
330.049, 163.014
331.405, 97.672
332.761, 203.333
334.117, 141.997
335.473, 135.664
336.828, 160.336
338.183, 116.010
339.538, 179.690
340.893, 107.373
342.247, 110.062
343.602, 162.755
344.956, 97.454
346.310, 174.158
347.663, 79.868
349.017, 146.583
350.370, 93.305
351.723, 120.034
353.076, 134.769
354.428, 55.512
355.780, 147.263
357.133, 49.022
358.484, 113.789
359.836, 116.583
361.188, 27.367
362.539, 158.159
363.890, 53.172
365.241, 127.981
366.591, 66.818
367.942, 82.644
369.292, 133.479
370.642, 30.324
371.992, 117.179
373.341, 40.043
374.691, 113.919
376.040, 111.806
377.388, 40.705
378.737, 133.619
380.086, 52.546
381.434, 167.492
382.782, 65.454
384.130, 49.433
385.477, 140.430
386.825, 27.443
388.172, 129.472
389.519, 63.516
390.865, 109.574
392.212, 104.642
393.558, 78.720
394.904, 142.806
396.250, 46.901
397.596, 146.004
398.941, 116.116
400.286, 78.236
401.631, 146.364
402.976, 8.508
404.321, 116.655
405.665, 37.810
407.009, 68.973
408.353, 75.144
409.697, 11.329
411.040, 135.522
412.384, 17.723
413.727, 89.932
415.070, 87.149
416.412, 9.620
417.755, 108.856
419.097, 12.896
420.439, 86.359
421.781, 62.622
423.122, 103.896
424.464, 121.178
425.805, 39.474
427.146, 154.778
428.486, 49.090
429.827, 121.413
431.167, 140.743
432.507, 142.084
433.847, 229.433
435.187, 143.790
436.526, 272.158
437.865, 339.534
439.204, 342.935
440.543, 532.327
441.882, 538.727
443.220, 832.138
444.558, 981.557
445.896, 1337.984
447.234, 1893.418
448.572, 2459.860
449.909, 3614.312
451.246, 4669.773
452.583, 6060.244
453.919, 6878.721
455.256, 6310.206
456.592, 5356.705
457.928, 3901.210
459.264, 3065.723
460.600, 2475.244
461.935, 2061.772
463.270, 1866.312
464.605, 1388.859
465.940, 1108.414
467.274, 765.975
468.609, 542.544
469.943, 469.125
471.277, 281.712
472.610, 336.307
473.944, 221.908
475.277, 182.517
476.610, 198.135
477.943, 94.761
479.275, 166.393
480.608, 54.032
481.940, 134.678
483.272, 90.335
484.604, 63.998
485.935, 154.668
487.267, 40.345
488.598, 125.029
489.929, 71.725
491.260, 34.427
492.590, 116.135
493.920, 20.853
495.250, 128.578
496.580, 40.311
497.910, 34.051
499.239, 121.797
500.569, 6.550
501.898, 112.308
503.226, 1.927
504.555, 51.845
505.883, 58.622
507.212, 26.593
508.540, 129.197
509.867, 2.008
511.195, 88.794
512.522, 62.601
513.849, 36.418
515.176, 112.241
516.503, 21.069
517.829, 106.904
519.156, 37.744
520.482, 19.591
521.808, 106.443
523.133, 5.301
524.459, 93.165
525.784, 24.033
527.109, 61.911
528.434, 99.795
529.758, 14.683
531.083, 142.576
532.407, 32.783
533.731, 96.689
535.055, 114.599
536.378, 32.513
537.701, 98.433
539.025, 10.438
540.348, 103.368
541.670, 98.347
542.993, 15.285
544.315, 123.232
545.637, 0.550
546.959, 107.504
548.281, 62.564
549.602, 17.526
550.923, 115.492
552.244, 8.571
553.565, 87.545
554.886, 70.522
556.206, 14.503
557.526, 120.492
558.846, 24.839
560.166, 121.154
561.486, 42.816
562.805, 50.743
564.124, 94.745
565.443, 10.455
566.762, 83.463
568.080, 11.677
569.399, 62.690
570.717, 138.707
572.035, 23.364
573.352, 94.385
574.670, 34.966
575.987, 108.992
577.304, 126.021
578.621, 22.835
579.938, 158.868
581.254, 1.953
582.570, 105.084
583.886, 124.123
585.202, 41.978
586.518, 156.021
587.833, 90.096
589.148, 179.142
590.463, 153.189
591.778, 81.015
593.093, 210.066
594.407, 73.715
595.721, 223.772
597.035, 181.831
598.349, 142.063
599.662, 250.124
600.976, 149.327
602.289, 301.389
603.602, 291.452
604.914, 315.611
606.227, 495.675
607.539, 451.740
608.851, 691.806
610.163, 887.873
611.475, 1203.050
612.786, 1752.117
614.097, 2275.184
615.408, 3408.251
616.719, 4312.320
618.030, 4757.981
619.340, 4750.048
620.651, 3947.116
621.961, 3292.213
623.270, 2598.280
624.580, 2036.077
625.889, 1790.144
627.199, 1344.211
628.507, 1312.370
629.816, 1101.436
631.125, 1058.462
632.433, 936.527
633.741, 662.591
635.049, 659.154
636.357, 454.217
637.664, 378.798
638.972, 387.858
640.279, 224.917
641.586, 365.975
642.893, 249.032
644.199, 240.088
645.505, 317.124
646.811, 170.177
648.117, 311.642
649.423, 229.480
650.728, 249.572
652.034, 283.600
653.339, 119.646
654.644, 251.504
655.948, 141.547
657.253, 185.588
658.557, 177.627
659.861, 65.664
661.165, 217.009
662.468, 18.042
663.772, 98.074
665.075, 128.103
666.378, 17.131
667.681, 115.101
668.983, 17.124
670.286, 89.145
671.588, 75.164
672.890, 13.820
674.192, 112.754
675.493, 7.762
676.795, 61.768
678.096, 56.881
679.397, 2.118
680.697, 146.153
681.998, 0.147
683.298, 78.137
684.598, 67.948
685.898, 14.068
687.198, 115.905
688.498, 2.120
689.797, 120.851
691.096, 64.829
692.395, 45.206
693.694, 149.745
694.992, 7.693
696.290, 68.638
697.589, 76.385
698.886, 25.677
700.184, 122.010
701.482, 25.065
702.779, 50.851
704.076, 77.763
705.373, 26.328
706.669, 99.571
707.966, 47.533
709.262, 27.347
710.558, 77.224
711.854, 22.902
713.150, 104.961
714.445, 19.178
715.740, 76.673
717.035, 59.520
718.330, 28.636
719.625, 119.197
720.919, 0.974
722.214, 38.833
723.508, 86.653
724.801, 29.530
726.095, 130.275
727.388, 5.076
728.682, 46.873
729.975, 73.666
731.267, 27.545
732.560, 108.233
733.852, 19.189
735.145, 59.576
736.437, 108.337
737.728, 43.906
739.020, 153.836
740.311, 0.574
741.603, 74.306
742.894, 117.035
744.184, 40.240
745.475, 84.470
746.765, 25.177
748.055, 19.880
749.345, 114.578
750.635, 40.727
751.925, 94.954
753.214, 23.630
754.503, 24.303
755.792, 97.972
757.081, 18.363
758.370, 52.292
759.658, 40.944
760.946, 7.591
762.234, 154.234
763.522, 24.126
764.809, 111.502
766.097, 59.127
767.384, 3.747
768.671, 143.363
769.958, 34.025
771.244, 124.574
772.530, 77.169
773.817, 14.240
775.102, 142.343
776.388, 15.079
777.674, 128.491
778.959, 110.057
780.244, 18.619
781.529, 155.178
782.814, 16.733
784.098, 73.284
785.383, 108.832
786.667, 10.624
787.951, 148.912
789.235, 6.446
790.518, 83.976
791.801, 105.502
793.084, 27.975
794.367, 147.536
795.650, 50.044
796.933, 58.549
798.215, 143.049
799.497, 6.453
800.779, 146.038
802.061, 53.525
803.342, 72.009
804.624, 121.490
805.905, 34.032
807.186, 156.432
808.466, 27.894
809.747, 51.352
811.027, 164.808
812.307, 18.050
813.587, 142.393
814.867, 56.833
816.146, 1.270
817.426, 134.703
818.705, 5.950
819.984, 81.473
821.263, 91.849
822.541, 29.734
823.819, 146.672
825.098, 17.708
826.375, 106.109
827.653, 120.406
828.931, 5.801
830.208, 178.193
831.485, 34.473
832.762, 81.859
834.039, 103.243
835.315, 30.375
836.592, 168.996
837.868, 6.686
839.144, 89.053
840.420, 182.751
841.695, 32.114
842.970, 202.474
844.246, 117.128
845.521, 141.484
846.795, 200.634
848.070, 45.986
849.344, 200.335
850.618, 144.045
851.892, 87.391
853.166, 213.178
854.440, 39.521
855.713, 163.861
856.986, 211.417
858.259, 75.754
859.532, 254.945
860.804, 149.279
862.077, 258.612
863.349, 244.132
864.621, 84.466
865.893, 251.767
867.164, 119.098
868.436, 93.428
869.707, 163.979
870.978, 35.694
872.248, 159.031
873.519, 58.348
874.789, 83.665
876.060, 205.807
877.330, 22.122
878.599, 183.294
879.869, 124.607
881.138, 53.920
882.408, 230.138
883.677, 18.452
884.945, 128.766
886.214, 116.080
887.482, 10.398
888.751, 201.604
890.019, 59.923
891.287, 147.241
892.554, 195.559
893.822, 35.877
895.089, 283.601
896.356, 134.919
897.623, 147.237
898.889, 239.526
900.156, 87.843
901.422, 209.431
902.688, 127.749
903.954, 121.070
905.220, 253.297
906.485, 43.618
907.750, 190.978
909.015, 186.299
910.280, 61.623
911.545, 263.447
912.809, 51.772
914.074, 152.585
915.338, 184.919
916.602, 56.254
917.865, 247.589
919.129, 91.925
920.392, 99.268
921.655, 204.612
922.918, 17.957
924.181, 198.892
925.443, 117.243
926.706, 31.551
927.968, 219.903
929.230, 27.256
930.491, 198.800
931.753, 131.160
933.014, 67.520
934.276, 244.885
935.536, 87.251
936.797, 151.309
938.058, 178.677
939.318, 54.047
940.578, 234.419
941.838, 99.791
943.098, 75.220
944.358, 190.599
945.617, 36.980
946.876, 181.362
948.135, 143.746
949.394, 75.570
950.653, 289.959
951.911, 95.350
953.169, 203.633
954.427, 230.030
955.685, 42.154
956.943, 266.555
958.200, 119.958
959.458, 171.541
960.715, 286.949
961.971, 110.360
963.228, 352.774
964.485, 277.195
965.741, 301.607
966.997, 520.033
968.253, 279.466
969.508, 492.901
970.764, 495.338
972.019, 403.974
973.274, 707.416
974.529, 619.865
975.784, 751.315
977.039, 912.772
978.293, 894.231
979.547, 1428.693
980.801, 1782.161
982.055, 2524.631
983.308, 4257.110
984.562, 7098.594
985.815, 14878.081
987.068, 32616.576
988.321, 49985.066
989.573, 50733.570
990.826, 33372.074
992.078, 18360.582
993.330, 10029.095
994.582, 5522.610
995.833, 3527.130
997.085, 2258.653
998.336, 1540.895
999.587, 1369.432
1000.838, 976.973
1002.088, 1020.516
1003.339, 944.062
1004.589, 649.611
1005.839, 743.167
1007.089, 498.922
1008.339, 458.486
1009.588, 510.053
1010.838, 250.624
1012.087, 476.202
1013.336, 334.784
1014.584, 272.370
1015.833, 412.958
1017.081, 215.549
1018.330, 363.805
1019.577, 354.408
1020.825, 222.014
1022.073, 403.481
1023.320, 281.093
1024.567, 307.000
1025.814, 377.623
1027.061, 178.249
1028.308, 362.891
1029.554, 243.523
1030.800, 205.161
1032.046, 363.803
1033.292, 111.447
1034.538, 228.094
1035.783, 222.744
1037.029, 77.401
1038.274, 262.474
1039.519, 110.136
1040.763, 104.802
1042.008, 216.471
1043.252, 30.148
1044.496, 184.175
1045.740, 156.857
1046.984, 57.545
1048.228, 245.833
1049.471, 65.529
1050.714, 165.227
1051.957, 205.927
1053.200, 87.631
1054.442, 320.617
1055.685, 259.326
1056.927, 303.038
1058.169, 392.445
1059.411, 73.164
1060.652, 234.885
1061.894, 206.629
1063.135, 26.356
1064.376, 219.877
1065.617, 66.614
1066.858, 96.353
1068.098, 236.648
1069.339, 59.392
1070.579, 242.138
1071.819, 200.888
1073.058, 143.640
1074.298, 343.394
1075.537, 214.152
1076.776, 317.912
1078.015, 480.331
1079.254, 411.106
1080.493, 868.884
1081.731, 973.663
1082.969, 1167.445
1084.207, 1477.309
1085.445, 1188.099
1086.683, 1123.891
1087.920, 901.975
1089.157, 554.774
1090.394, 664.577
1091.631, 366.406
1092.868, 308.213
1094.105, 464.025
1095.341, 213.839
1096.577, 430.656
1097.813, 403.352
1099.049, 373.175
1100.284, 670.001
1101.519, 679.828
1102.755, 995.660
1103.990, 1322.493
1105.224, 1137.327
1106.459, 1246.168
1107.693, 977.080
1108.928, 633.926
1110.162, 688.774
1111.395, 324.623
1112.629, 346.475
1113.863, 369.328
1115.096, 124.183
1116.329, 327.044
1117.562, 136.514
1118.795, 139.378
1120.027, 238.242
1121.259, 52.110
1122.492, 190.978
1123.723, 184.846
1124.955, 20.715
1126.187, 200.588
1127.418, 58.569
1128.649, 55.443
1129.880, 167.319
1131.111, 35.755
1132.342, 158.115
1133.572, 128.986
1134.802, 24.857
1136.033, 274.731
1137.262, 100.634
1138.492, 148.509
1139.722, 277.388
1140.951, 82.272
1142.180, 319.156
1143.409, 247.042
1144.638, 151.927
1145.866, 367.814
1147.095, 140.701
1148.323, 129.588
1149.551, 163.479
1150.779, 31.571
1152.006, 119.313
1153.234, 28.199
1154.461, 39.914
1155.688, 207.964
1156.915, 15.156
1158.141, 62.720
1159.368, 156.597
1160.594, 2.642
1161.820, 192.518
1163.046, 78.396
1164.272, 17.316
1165.498, 254.194
1166.723, 38.072
1167.948, 114.951
1169.173, 209.829
1170.398, 19.292
1171.623, 185.581
1172.847, 72.455
1174.071, 35.370
1175.295, 226.243
1176.519, 15.884
1177.743, 99.985
1178.966, 155.853
1180.190, 69.279
1181.413, 186.573
1182.636, 70.424
1183.858, 14.275
1185.081, 182.125
1186.303, 55.025
1187.526, 110.899
1188.748, 137.735
1189.969, 29.430
1191.191, 164.397
1192.412, 83.224
1193.634, 10.226
1194.855, 173.051
1196.076, 33.125
1197.296, 107.753
1198.517, 132.567
1199.737, 22.621
1200.957, 221.185
1202.177, 79.990
1203.397, 44.794
1204.617, 213.596
1205.836, 47.397
1207.055, 136.421
1208.274, 195.220
1209.493, 25.983
1210.712, 208.151
1211.930, 92.938
1213.148, 31.725
1214.367, 250.509
1215.584, 4.292
1216.802, 152.346
1218.020, 210.125
1219.237, 9.098
1220.454, 211.127
1221.671, 115.898
1222.888, 17.667
1224.105, 227.445
1225.321, 40.210
1226.537, 127.011
1227.753, 201.772
1228.969, 33.468
1230.185, 231.063
1231.400, 143.810
1232.616, 50.555
1233.831, 281.780
1235.046, 38.521
1236.261, 100.261
1237.475, 276.225
1238.689, 12.963
1239.904, 263.995
1241.118, 197.730
1242.332, 74.464
1243.545, 252.537
1244.759, 98.266
1245.972, 114.993
1247.185, 259.616
1248.398, 19.664
1249.611, 234.049
1250.823, 183.760
1252.036, 31.469
1253.248, 287.258
1254.460, 71.964
1255.671, 89.663
1256.883, 226.692
1258.095, 10.388
1259.306, 118.082
1260.517, 161.837
1261.728, 37.473
1262.938, 237.499
1264.149, 95.181
1265.359, 55.860
1266.569, 289.719
1267.779, 29.395
1268.989, 211.068
1270.199, 244.476
1271.408, 96.145
1272.617, 303.812
1273.826, 174.521
1275.035, 120.183
1276.244, 325.864
1277.452, 102.522
1278.661, 146.179
1279.869, 290.321
1281.077, 26.974
1282.285, 306.969
1283.492, 191.942
1284.700, 73.588
1285.907, 262.375
1287.114, 71.144
1288.321, 98.496
1289.527, 250.133
1290.734, 4.769
1291.940, 249.390
1293.146, 168.204
1294.352, 32.831
1295.558, 267.447
1296.763, 110.280
1297.969, 55.890
1299.174, 249.499
1300.379, 46.160
1301.584, 187.348
1302.788, 230.946
1303.993, 35.542
1305.197, 254.130
1306.401, 154.712
1307.605, 76.943
1308.809, 322.519
1310.013, 61.090
1311.216, 157.057
1312.419, 262.621
1313.622, 78.173
1314.825, 238.724
1316.028, 211.271
1317.230, 26.537
1318.432, 295.076
1319.634, 128.613
1320.836, 110.455
1322.038, 299.987
1323.240, 8.515
1324.441, 210.012
1325.642, 251.526
1326.843, 33.246
1328.044, 239.754
1329.245, 172.253
1330.445, 66.194
1331.645, 310.683
1332.845, 79.167
1334.045, 142.648
1335.245, 254.126
1336.445, 3.598
1337.644, 201.063
1338.843, 141.524
1340.042, 46.671
1341.241, 235.777
1342.440, 51.221
1343.638, 116.662
1344.836, 295.100
1346.034, 0.458
1347.232, 164.889
1348.430, 241.317
1349.628, 7.547
1350.825, 186.874
1352.022, 127.292
1353.219, 50.683
1354.416, 296.096
1355.613, 45.509
1356.809, 108.919
1358.005, 230.329
1359.202, 21.140
1360.398, 194.265
1361.593, 185.669
1362.789, 7.847
1363.984, 221.557
1365.179, 127.963
1366.374, 9.004
1367.569, 248.415
1368.764, 1.760
1369.958, 89.414
1371.153, 210.832
1372.347, 0.735
1373.541, 233.606
1374.735, 174.873
1375.928, 23.812
1377.122, 299.189
1378.315, 67.140
1379.508, 87.694
1380.701, 279.246
1381.893, 43.793
1383.086, 185.221
1384.278, 257.646
1385.470, 1.176
1386.662, 291.701
1387.854, 138.190
1389.046, 48.698
1390.237, 332.203
1391.428, 78.704
1392.619, 92.200
1393.810, 267.619
1395.001, 25.107
1396.191, 196.594
1397.382, 230.083
1398.572, 15.633
1399.762, 239.847
1400.952, 149.269
1402.141, 56.737
1403.331, 288.201
1404.520, 62.666
1405.709, 113.074
1406.898, 310.534
1408.087, 4.007
1409.275, 263.469
1410.464, 212.942
1411.652, 7.301
1412.840, 303.785
1414.028, 174.278
1415.215, 42.517
1416.403, 280.917
1417.590, 81.412
1418.777, 129.916
1419.964, 268.419
1421.151, 32.580
1422.338, 267.079
1423.524, 208.479
1424.710, 24.959
1425.896, 329.999
1427.082, 216.474
1428.268, 60.203
1429.453, 376.656
1430.639, 111.063
1431.824, 177.536
1433.009, 392.636
1434.194, 75.235
1435.378, 306.688
1436.563, 338.714
1437.747, 158.585
1438.931, 429.344
1440.115, 337.754
1441.299, 224.363
1442.482, 539.755
1443.666, 287.973
1444.849, 347.362
1446.032, 572.035
1447.215, 260.267
1448.397, 469.631
1449.580, 504.989
1450.762, 277.913
1451.944, 553.471
1453.126, 491.763
1454.308, 333.936
1455.490, 611.157
1456.671, 413.124
1457.852, 380.338
1459.033, 603.634
1460.214, 335.431
1461.395, 461.572
1462.575, 500.692
1463.756, 215.224
1464.936, 484.649
1466.116, 431.747
1467.296, 189.642
1468.475, 521.708
1469.655, 271.810
1470.834, 187.908
1472.013, 412.022
1473.192, 182.161
1474.371, 283.316
1475.550, 395.470
1476.728, 99.624
1477.906, 387.766
1479.084, 300.984
1480.262, 159.200
1481.440, 384.481
1482.617, 231.828
1483.795, 174.206
1484.972, 452.667
1486.149, 167.200
1487.326, 221.796
1488.502, 412.459
1489.679, 81.198
1490.855, 282.027
1492.031, 278.971
1493.207, 5.048
1494.383, 344.275
1495.559, 188.679
1496.734, 57.290
1497.909, 354.633
