##NAMES=Baryte
##RRUFFID=R040036
##IDEAL CHEMISTRY=BaS^6+^O_4_
##LOCALITY=Cumbria County, England
##OWNER=RRUFF
##SOURCE=University of Arizona Mineral Museum
##DESCRIPTION=Golden brown tabular crystal
##STATUS=The identification of this mineral has been confirmed by X-ray diffraction and chemical analysis
##URL=rruff.info/R040036
##MEASURED CHEMISTRY=Ba_1.00_S_1.00_O_4_; trace amounts of Pb
##PIN_ID=M00019
##ORIENTATION=Laser parallel to b* (0 1 0). Fiducial mark perpendicular to laser is parallel to c [0 0 1]
26.288, 0.000
27.694, 6.023
29.099, 1.537
30.504, 33.143
31.909, 22.039
33.313, 21.387
34.717, 25.624
36.121, 36.129
37.525, 44.986
38.929, 37.768
40.332, 36.300
41.735, 34.741
43.138, 29.056
44.541, 30.089
45.943, 27.984
47.345, 20.791
48.747, 32.539
50.149, 44.439
51.551, 30.295
52.952, 54.384
54.353, 38.184
55.754, 44.518
57.155, 86.733
58.555, 83.654
59.955, 66.995
61.355, 69.717
62.755, 46.234
64.154, 73.399
65.553, 79.778
66.952, 62.227
68.351, 77.548
69.750, 65.676
71.148, 90.812
72.546, 74.957
73.944, 67.109
75.342, 47.266
76.739, 34.435
78.136, 30.612
79.533, 23.798
80.930, 2.018
82.327, 3.833
83.723, 17.607
85.119, 22.487
86.515, 29.332
87.910, 33.187
89.306, 22.053
90.701, 5.927
92.096, 10.810
93.490, 12.696
94.885, 19.589
96.279, 3.508
97.673, 9.593
99.067, 17.665
100.461, 39.731
101.854, 33.812
103.247, 28.956
104.640, 31.149
106.032, 40.383
107.425, 39.648
108.817, 48.937
110.209, 85.241
111.601, 120.550
112.992, 143.877
114.384, 171.432
115.775, 196.458
117.166, 193.744
118.556, 200.036
119.947, 164.300
121.337, 172.582
122.727, 140.800
124.116, 154.164
125.506, 137.627
126.895, 152.955
128.284, 184.214
129.673, 191.668
131.062, 212.050
132.450, 235.271
133.838, 209.381
135.226, 169.675
136.614, 194.862
138.001, 155.074
139.388, 144.153
140.775, 155.105
142.162, 147.020
143.549, 144.921
144.935, 152.881
146.321, 208.781
147.707, 241.733
149.093, 284.705
150.478, 320.626
151.863, 351.529
153.248, 415.531
154.633, 395.492
156.018, 420.409
157.402, 409.310
158.786, 393.403
160.170, 348.486
161.554, 272.450
162.937, 225.347
164.320, 193.188
165.703, 151.061
167.086, 140.876
168.469, 117.634
169.851, 115.390
171.233, 128.155
172.615, 140.036
173.996, 146.132
175.378, 166.323
176.759, 163.013
178.140, 207.888
179.521, 242.514
180.901, 265.111
182.281, 355.610
183.662, 471.976
185.041, 599.223
186.421, 805.415
187.800, 953.444
189.180, 1092.402
190.558, 1083.333
191.937, 991.122
193.316, 821.748
194.694, 615.186
196.072, 484.534
197.450, 335.794
198.827, 289.025
200.205, 234.312
201.582, 188.375
202.959, 165.548
204.336, 178.501
205.712, 119.463
207.088, 125.378
208.465, 118.231
209.840, 81.986
211.216, 82.622
212.591, 105.051
213.967, 95.685
215.341, 76.285
216.716, 81.792
218.091, 82.421
219.465, 69.878
220.839, 69.550
222.213, 69.023
223.586, 51.513
224.960, 69.877
226.333, 64.113
227.706, 61.277
229.079, 76.374
230.451, 45.053
231.823, 54.678
233.195, 42.994
234.567, 55.204
235.939, 55.219
237.310, 53.166
238.682, 64.338
240.052, 48.884
241.423, 38.317
242.794, 35.701
244.164, 48.940
245.534, 30.681
246.904, 40.523
248.274, 27.475
249.643, 32.638
251.012, 50.743
252.381, 40.799
253.750, 57.877
255.118, 50.046
256.487, 50.195
257.855, 50.388
259.223, 47.764
260.590, 42.213
261.958, 42.635
263.325, 35.049
264.692, 56.456
266.059, 17.856
267.425, 68.248
268.791, 30.634
270.158, 41.012
271.523, 45.383
272.889, 31.746
274.255, 38.101
275.620, 38.449
276.985, 27.789
278.350, 27.121
279.714, 30.445
281.078, 27.761
282.443, 32.071
283.806, 30.373
285.170, 36.668
286.534, 24.956
287.897, 12.237
289.260, 9.512
290.623, 9.780
291.985, 9.081
293.348, 21.298
294.710, 15.547
296.072, 22.790
297.433, 23.027
298.795, 28.258
300.156, 24.483
301.517, 16.701
302.878, 25.913
304.239, 31.119
305.599, 19.319
306.959, 35.512
308.319, 22.699
309.679, 44.879
311.038, 10.054
312.398, 23.223
313.757, 26.385
315.116, 8.543
316.474, 12.694
317.833, 13.840
319.191, 8.019
320.549, 4.886
321.907, 16.239
323.264, 20.357
324.622, 0.460
325.979, 19.547
327.336, 11.620
328.692, 10.679
330.049, 17.724
331.405, 20.756
332.761, 9.775
334.117, 22.783
335.473, 18.779
336.828, 2.765
338.183, 8.739
339.538, 15.702
340.893, 33.656
342.247, 31.602
343.602, 19.540
344.956, 28.471
346.310, 14.394
347.663, 33.309
349.017, 18.217
350.370, 27.118
351.723, 4.013
353.076, 26.902
354.428, 16.784
355.780, 3.661
357.133, 16.519
358.484, 24.378
359.836, 8.240
361.188, 17.098
362.539, 15.919
363.890, 2.763
365.241, 26.606
366.591, 4.389
367.942, 23.167
369.292, 23.941
370.642, 21.631
371.992, 22.404
373.341, 29.150
374.691, 28.883
376.040, 29.685
377.388, 31.346
378.737, 28.056
380.086, 25.718
381.434, 32.443
382.782, 27.178
384.130, 40.913
385.477, 41.708
386.825, 32.435
388.172, 43.119
389.519, 28.796
390.865, 33.542
392.212, 39.205
393.558, 51.917
394.904, 41.568
396.250, 40.244
397.596, 42.003
398.941, 29.717
400.286, 27.510
401.631, 29.266
402.976, 45.023
404.321, 25.779
405.665, 25.522
407.009, 44.237
408.353, 39.952
409.697, 35.630
411.040, 38.406
412.384, 43.026
413.727, 46.821
415.070, 52.939
416.412, 58.171
417.755, 58.889
419.097, 59.543
420.439, 65.427
421.781, 76.907
423.122, 82.538
424.464, 98.168
425.805, 122.810
427.146, 141.438
428.486, 168.003
429.827, 196.725
431.167, 226.393
432.507, 261.005
433.847, 297.558
435.187, 402.094
436.526, 505.634
437.865, 631.166
439.204, 787.758
440.543, 1049.321
441.882, 1381.918
443.220, 1808.515
444.558, 2459.136
445.896, 3444.739
447.234, 4692.305
448.572, 6368.914
449.909, 8109.544
451.246, 9343.121
452.583, 9654.771
453.919, 8287.363
455.256, 6446.055
456.592, 4690.586
457.928, 3288.176
459.264, 2485.783
460.600, 1803.306
461.935, 1403.847
463.270, 1009.393
464.605, 814.676
465.940, 581.034
467.274, 484.590
468.609, 370.166
469.943, 285.626
471.277, 256.201
472.610, 213.739
473.944, 186.273
475.277, 174.841
476.610, 132.424
477.943, 108.956
479.275, 118.551
480.608, 88.129
481.940, 87.629
483.272, 89.161
484.604, 68.726
485.935, 68.375
487.267, 58.014
488.598, 57.597
489.929, 44.222
491.260, 42.782
492.590, 34.430
493.920, 49.008
495.250, 58.629
496.580, 52.145
497.910, 56.023
499.239, 56.344
500.569, 49.860
501.898, 39.437
503.226, 42.052
504.555, 39.592
505.883, 52.176
507.212, 42.754
508.540, 61.273
509.867, 47.903
511.195, 41.430
512.522, 49.046
513.849, 48.666
515.176, 37.278
516.503, 54.894
517.829, 55.544
519.156, 58.193
520.482, 37.846
521.808, 70.508
523.133, 57.156
524.459, 28.793
525.784, 47.462
527.109, 51.108
528.434, 54.784
529.758, 39.460
531.083, 44.132
532.407, 38.809
533.731, 33.471
535.055, 41.149
536.378, 37.829
537.701, 46.508
539.025, 41.187
540.348, 25.866
541.670, 28.545
542.993, 33.217
544.315, 43.879
545.637, 48.548
546.959, 46.223
548.281, 20.876
549.602, 50.530
550.923, 25.216
552.244, 17.895
553.565, 35.594
554.886, 9.270
556.206, 35.941
557.526, 31.658
558.846, 39.328
560.166, 46.285
561.486, 32.014
562.805, 20.731
564.124, 42.397
565.443, 39.079
566.762, 13.906
568.080, 32.654
569.399, 36.317
570.717, 40.248
572.035, 45.946
573.352, 32.738
574.670, 21.456
575.987, 26.225
577.304, 28.979
578.621, 36.700
579.938, 40.411
581.254, 27.119
582.570, 26.819
583.886, 27.525
585.202, 26.249
586.518, 41.188
587.833, 31.861
589.148, 41.562
590.463, 38.238
591.778, 57.973
593.093, 31.765
594.407, 49.430
595.721, 49.083
597.035, 44.764
598.349, 55.456
599.662, 53.134
600.976, 67.167
602.289, 59.811
603.602, 95.485
604.914, 87.128
606.227, 118.935
607.539, 161.757
608.851, 228.395
610.163, 286.268
611.475, 451.903
612.786, 723.246
614.097, 1083.137
615.408, 1413.794
616.719, 1524.969
618.030, 1401.599
619.340, 1107.500
620.651, 930.578
621.961, 802.437
623.270, 731.264
624.580, 746.989
625.889, 789.651
627.199, 1000.405
628.507, 1098.023
629.816, 1176.640
631.125, 1125.254
632.433, 1019.887
633.741, 897.498
635.049, 811.133
636.357, 825.011
637.664, 893.044
638.972, 1007.742
640.279, 1174.389
641.586, 1507.093
642.893, 1933.837
644.199, 2475.564
645.505, 2967.291
646.811, 3207.103
648.117, 2961.846
649.423, 2380.548
650.728, 1736.162
652.034, 1218.782
653.339, 793.365
654.644, 552.083
655.948, 398.932
657.253, 305.680
658.557, 230.420
659.861, 196.992
661.165, 132.561
662.468, 107.136
663.772, 107.700
665.075, 86.262
666.378, 79.821
667.681, 69.378
668.983, 65.936
670.286, 61.768
671.588, 41.316
672.890, 39.343
674.192, 32.454
675.493, 48.046
676.795, 31.910
678.096, 28.444
679.397, 52.976
680.697, 22.887
681.998, 42.413
683.298, 40.935
684.598, 27.455
685.898, 24.972
687.198, 32.486
688.498, 36.997
689.797, 25.788
691.096, 14.362
692.395, 15.953
693.694, 11.292
694.992, 15.947
696.290, 18.679
697.589, 7.312
698.886, 20.798
700.184, 7.720
701.482, 3.757
702.779, 6.320
704.076, 22.789
705.373, 13.255
706.669, 2.282
707.966, 1.174
709.262, 25.628
710.558, 6.919
711.854, 8.526
713.150, 1.032
714.445, 3.405
715.740, 0.157
717.035, 0.495
718.330, 2.511
719.625, 4.118
720.919, 4.535
722.214, 5.949
723.508, 4.359
724.801, 1.765
726.095, 7.833
727.388, 10.563
728.682, 3.956
729.975, 9.345
731.267, 0.731
732.560, 1.887
733.852, 10.489
735.145, 12.893
736.437, 6.333
737.728, 3.699
739.020, 6.351
740.311, 12.579
741.603, 12.773
742.894, 6.147
744.184, 12.492
745.475, 3.051
746.765, 3.625
748.055, 16.707
749.345, 5.965
750.635, 17.358
751.925, 26.322
753.214, 7.012
754.503, 7.292
755.792, 19.407
757.081, 17.885
758.370, 7.826
759.658, 15.543
760.946, 6.268
762.234, 4.998
763.522, 0.733
764.809, 2.528
766.097, 2.216
767.384, 19.037
768.671, 11.286
769.958, 21.531
771.244, 5.774
772.530, 13.013
773.817, 4.250
775.102, 8.518
776.388, 15.291
777.674, 1.071
778.959, 1.145
780.244, 1.643
781.529, 3.435
782.814, 2.908
784.098, 3.033
785.383, 6.839
786.667, 4.037
787.951, 2.465
789.235, 1.716
790.518, 0.893
791.801, 9.066
793.084, 3.763
794.367, 9.596
795.650, 5.435
796.933, 5.279
798.215, 5.872
799.497, 10.021
800.779, 3.167
802.061, 22.310
803.342, 10.450
804.624, 13.587
805.905, 19.721
807.186, 2.853
808.466, 11.018
809.747, 14.105
811.027, 19.775
812.307, 23.661
813.587, 1.556
814.867, 13.454
816.146, 16.642
817.426, 4.735
818.705, 16.174
819.984, 13.911
821.263, 0.993
822.541, 10.073
823.819, 12.150
825.098, 7.224
826.375, 6.297
827.653, 12.633
828.931, 3.569
830.208, 4.521
831.485, 9.531
832.762, 2.559
834.039, 12.393
835.315, 7.344
836.592, 29.655
837.868, 9.698
839.144, 19.451
840.420, 5.573
841.695, 3.413
842.970, 26.447
844.246, 1.461
845.521, 11.329
846.795, 25.272
848.070, 0.298
849.344, 29.052
850.618, 16.038
851.892, 20.926
853.166, 0.115
854.440, 37.791
855.713, 57.710
856.986, 36.659
858.259, 60.617
859.532, 65.575
860.804, 45.539
862.077, 67.495
863.349, 39.430
864.621, 42.148
865.893, 21.130
867.164, 27.081
868.436, 24.056
869.707, 13.969
870.978, 24.821
872.248, 3.200
873.519, 6.212
874.789, 19.745
876.060, 10.688
877.330, 18.644
878.599, 16.243
879.869, 2.772
881.138, 8.181
882.408, 9.836
883.677, 8.019
884.945, 31.782
886.214, 15.765
887.482, 35.512
888.751, 3.495
890.019, 22.769
891.287, 36.492
892.554, 40.449
893.822, 58.885
895.089, 73.865
896.356, 62.573
897.623, 68.102
898.889, 64.940
900.156, 74.625
901.422, 61.501
902.688, 44.441
903.954, 53.286
905.220, 60.265
906.485, 69.245
907.750, 54.224
909.015, 58.184
910.280, 76.164
911.545, 77.118
912.809, 43.828
914.074, 57.382
915.338, 39.269
916.602, 19.207
917.865, 49.084
919.129, 40.923
920.392, 36.775
921.655, 12.628
922.918, 19.551
924.181, 12.431
925.443, 25.100
926.706, 19.062
927.968, 23.015
929.230, 41.004
930.491, 58.858
931.753, 71.579
933.014, 41.400
934.276, 49.227
935.536, 42.222
936.797, 68.218
938.058, 66.207
939.318, 78.205
940.578, 66.205
941.838, 49.207
943.098, 78.209
944.358, 59.209
945.617, 69.934
946.876, 83.941
948.135, 58.470
949.394, 79.912
950.653, 80.872
951.911, 90.560
953.169, 104.576
954.427, 88.594
955.685, 110.231
956.943, 136.253
958.200, 123.277
959.458, 148.302
960.715, 186.331
961.971, 205.361
963.228, 280.393
964.485, 295.865
965.741, 406.113
966.997, 378.064
968.253, 382.106
969.508, 470.151
970.764, 533.935
972.019, 596.841
973.274, 707.893
974.529, 832.949
975.784, 974.008
977.039, 1153.981
978.293, 1591.046
979.547, 2208.115
980.801, 3239.186
982.055, 5389.261
983.308, 9836.340
984.562, 21685.420
985.815, 47324.504
987.068, 64733.594
988.321, 57152.684
989.573, 33771.777
990.826, 17730.877
992.078, 10079.980
993.330, 5729.086
994.582, 3543.197
995.833, 2373.311
997.085, 1667.427
998.336, 1331.548
999.587, 1068.672
1000.838, 921.802
1002.088, 796.934
1003.339, 664.071
1004.589, 574.210
1005.839, 499.354
1007.089, 431.502
1008.339, 409.624
1009.588, 375.709
1010.838, 316.868
1012.087, 284.031
1013.336, 263.198
1014.584, 237.370
1015.833, 229.521
1017.081, 218.701
1018.330, 206.503
1019.577, 202.457
1020.825, 192.063
1022.073, 196.260
1023.320, 192.462
1024.567, 195.668
1025.814, 134.881
1027.061, 167.100
1028.308, 114.323
1029.554, 118.553
1030.800, 93.786
1032.046, 110.025
1033.292, 105.270
1034.538, 73.521
1035.783, 92.776
1037.029, 74.036
1038.274, 66.301
1039.519, 61.570
1040.763, 56.844
1042.008, 37.122
1043.252, 55.405
1044.496, 49.693
1045.740, 30.984
1046.984, 27.281
1048.228, 25.651
1049.471, 66.891
1050.714, 36.204
1051.957, 37.521
1053.200, 57.844
1054.442, 28.171
1055.685, 11.503
1056.927, 33.841
1058.169, 35.184
1059.411, 12.532
1060.652, 49.885
1061.894, 32.243
1063.135, 12.605
1064.376, 4.972
1065.617, 7.343
1066.858, 39.721
1068.098, 8.105
1069.339, 42.495
1070.579, 28.889
1071.819, 34.288
1073.058, 24.692
1074.298, 20.100
1075.537, 44.513
1076.776, 59.931
1078.015, 37.353
1079.254, 49.780
1080.493, 102.213
1081.731, 62.651
1082.969, 96.096
1084.207, 96.550
1085.445, 56.009
1086.683, 101.475
1087.920, 81.948
1089.157, 58.427
1090.394, 123.913
1091.631, 95.405
1092.868, 141.901
1094.105, 169.405
1095.341, 238.915
1096.577, 340.432
1097.813, 456.957
1099.049, 638.488
1100.284, 855.027
1101.519, 1159.571
1102.755, 1401.121
1103.990, 1444.677
1105.224, 1178.240
1106.459, 914.809
1107.693, 662.383
1108.928, 487.964
1110.162, 389.551
1111.395, 275.143
1112.629, 243.739
1113.863, 204.340
1115.096, 197.948
1116.329, 176.561
1117.562, 179.177
1118.795, 180.798
1120.027, 194.423
1121.259, 197.053
1122.492, 235.687
1123.723, 227.325
1124.955, 263.967
1126.187, 305.615
1127.418, 420.267
1128.649, 475.923
1129.880, 619.583
1131.111, 852.248
1132.342, 1156.917
1133.572, 1695.591
1134.802, 2539.269
1136.033, 3465.951
1137.262, 4084.638
1138.492, 4135.329
1139.722, 3812.025
1140.951, 3534.726
1142.180, 3410.431
1143.409, 3068.141
1144.638, 2811.854
1145.866, 2323.573
1147.095, 1863.295
1148.323, 1508.021
1149.551, 1252.752
1150.779, 1012.487
1152.006, 892.227
1153.234, 752.972
1154.461, 716.721
1155.688, 667.474
1156.915, 637.232
1158.141, 706.067
1159.368, 810.835
1160.594, 972.607
1161.820, 1308.382
1163.046, 1689.161
1164.272, 2144.945
1165.498, 2295.731
1166.723, 2225.521
1167.948, 1975.316
1169.173, 1529.113
1170.398, 1208.914
1171.623, 971.719
1172.847, 744.571
1174.071, 596.382
1175.295, 512.411
1176.519, 423.229
1177.743, 327.050
1178.966, 285.874
1180.190, 245.702
1181.413, 220.532
1182.636, 205.366
1183.858, 136.202
1185.081, 161.042
1186.303, 119.884
1187.526, 116.730
1188.748, 117.578
1189.969, 96.429
1191.191, 83.283
1192.412, 84.139
1193.634, 74.998
1194.855, 73.860
1196.076, 67.725
1197.296, 61.592
1198.517, 63.378
1199.737, 73.584
1200.957, 69.459
1202.177, 74.953
1203.397, 59.414
1204.617, 74.300
1205.836, 60.184
1207.055, 46.089
1208.274, 67.977
1209.493, 49.868
1210.712, 67.904
1211.930, 64.798
1213.148, 48.694
1214.367, 46.733
1215.584, 68.850
1216.802, 79.859
1218.020, 70.016
1219.237, 74.392
1220.454, 73.659
1221.671, 71.568
1222.888, 47.807
1224.105, 50.798
1225.321, 41.148
1226.537, 36.240
1227.753, 36.082
1228.969, 43.585
1230.185, 43.645
1231.400, 69.992
1232.616, 87.092
1233.831, 52.272
1235.046, 95.529
1236.261, 65.703
1237.475, 76.910
1238.689, 100.834
1239.904, 79.337
1241.118, 58.571
1242.332, 57.497
1243.545, 67.424
1244.759, 60.451
1245.972, 80.907
1247.185, 71.835
1248.398, 80.766
1249.611, 75.698
1250.823, 82.453
1252.036, 77.754
1253.248, 87.505
1254.460, 69.443
1255.671, 49.397
1256.883, 47.537
1258.095, 54.481
1259.306, 54.426
1260.517, 16.373
1261.728, 51.332
1262.938, 37.388
1264.149, 59.349
1265.359, 46.328
1266.569, 39.303
1267.779, 41.382
1268.989, 51.341
1270.199, 30.501
1271.408, 77.492
1272.617, 42.539
1273.826, 51.499
1275.035, 54.477
1276.244, 44.458
1277.452, 38.419
1278.661, 43.382
1279.869, 29.571
1281.077, 41.551
1282.285, 29.551
1283.492, 33.554
1284.700, 26.534
1285.907, 16.683
1287.114, 28.838
1288.321, 5.861
1289.527, 11.151
1290.734, 8.167
1291.940, 26.134
1293.146, 15.102
1294.352, 21.035
1295.558, 22.036
1296.763, 23.001
1297.969, 7.964
1299.174, 8.920
1300.379, 13.874
1301.584, 35.824
1302.788, 3.236
1303.993, 27.698
1305.197, 11.373
1306.401, 4.549
1307.605, 18.465
1308.809, 46.376
1310.013, 33.284
1311.216, 44.189
1312.419, 13.089
1313.622, 43.989
1314.825, 48.887
1316.028, 45.784
1317.230, 57.678
1318.432, 45.571
1319.634, 37.462
1320.836, 34.350
1322.038, 24.261
1323.240, 22.120
1324.441, 14.998
1325.642, 15.873
1326.843, 22.745
1328.044, 18.157
1329.245, 10.520
1330.445, 12.340
1331.645, 6.194
1332.845, 7.963
1334.045, 0.875
1335.245, 4.708
1336.445, 0.091
1337.644, 4.364
1338.843, 5.185
1340.042, 4.997
1341.241, 9.816
1342.440, 9.626
1343.638, 4.568
1344.836, 7.766
1346.034, 2.969
1347.232, 9.176
1348.430, 18.388
1349.628, 13.606
1350.825, 4.169
1352.022, 12.059
1353.219, 1.293
1354.416, 16.531
1355.613, 17.776
1356.809, 25.026
1358.005, 22.755
1359.202, 3.545
1360.398, 15.812
1361.593, 5.084
1362.789, 8.361
1363.984, 11.642
1365.179, 7.927
1366.374, 9.217
1367.569, 19.490
1368.764, 21.806
1369.958, 10.106
1371.153, 22.590
1372.347, 10.286
1373.541, 1.002
1374.735, 19.300
1375.928, 19.371
1377.122, 24.333
1378.315, 14.293
1379.508, 10.254
1380.701, 34.214
1381.893, 19.171
1383.086, 31.128
1384.278, 6.084
1385.470, 3.963
1386.662, 12.989
1387.854, 12.938
1389.046, 15.884
1390.237, 7.828
1391.428, 0.770
1392.619, 8.710
1393.810, 6.646
1395.001, 7.580
1396.191, 0.510
1397.382, 11.346
1398.572, 2.736
1399.762, 7.180
1400.952, 3.094
1402.141, 20.006
1403.331, 9.916
1404.520, 9.766
1405.709, 37.393
1406.898, 27.294
1408.087, 2.807
1409.275, 11.091
1410.464, 8.989
1411.652, 8.885
1412.840, 12.780
1414.028, 0.326
1415.215, 0.432
1416.403, 6.539
1417.590, 8.982
1418.777, 8.571
1419.964, 26.448
1421.151, 38.302
1422.338, 48.961
1423.524, 49.842
1424.710, 32.147
1425.896, 39.429
1427.082, 31.912
1428.268, 40.203
1429.453, 60.153
1430.639, 59.049
1431.824, 45.552
1433.009, 56.227
1434.194, 96.892
1435.378, 61.633
1436.563, 127.253
1437.747, 126.358
1438.931, 142.849
1440.115, 113.473
1441.299, 130.126
1442.482, 144.766
1443.666, 166.392
1444.849, 158.544
1446.032, 167.128
1447.215, 187.671
1448.397, 169.952
1449.580, 147.363
1450.762, 185.559
1451.944, 187.449
1453.126, 167.666
1454.308, 175.986
1455.490, 185.374
1456.671, 177.078
1457.852, 178.192
1459.033, 170.910
1460.214, 153.607
1461.395, 156.479
1462.575, 149.587
1463.756, 127.655
1464.936, 117.700
1466.116, 110.756
1467.296, 97.363
1468.475, 99.954
1469.655, 84.108
1470.834, 76.290
1472.013, 78.473
1473.192, 77.636
1474.371, 75.770
1475.550, 63.874
1476.728, 64.953
1477.906, 64.024
1479.084, 60.086
1480.262, 37.133
1481.440, 54.195
1482.617, 81.353
1483.795, 51.525
1484.972, 40.712
1486.149, 54.913
1487.326, 25.120
1488.502, 46.329
1489.679, 20.551
1490.855, 9.797
1492.031, 10.081
1493.207, 11.409
1494.383, 18.773
1495.559, 19.182
1496.734, 16.201
1497.909, 24.203
1499.084, 8.857
1500.259, 0.348
1501.434, 0.640
1502.608, 0.000
##END=



