##NAMES=Baryte
##RRUFFID=R050342
##IDEAL CHEMISTRY=BaS^6+^O_4_
##LOCALITY=Palos Verdes, Los Angeles County, California, USA
##OWNER=RRUFF
##SOURCE=California Institute of Technology
##DESCRIPTION=Light brown fragment
##STATUS=The identification of this mineral has been confirmed by X-ray diffraction and chemical analysis
##URL=rruff.info/R050342
##MEASURED CHEMISTRY=Ba_1.00_S_1.00_O_4_
##PIN_ID=L00875
##ORIENTATION=Laser parallel to c* (0 0 1). Fiducial mark perpendicular to laser is parallel to a [1 0 0]
93.48000, 0.0000000E+00
94.71400, 18.02734
95.94800, 80.45068
97.18200, 119.2871
98.41600, 143.7104
99.64900, 186.4043
100.8830, 161.9946
102.1160, 127.2632
103.3490, 114.4600
104.5820, 119.0469
105.8150, 179.6250
107.0470, 106.8896
108.2800, 167.6011
109.5120, 113.5684
110.7440, 166.6382
111.9760, 134.6831
113.2080, 94.59717
114.4400, 172.2900
115.6710, 162.6831
116.9030, 155.7095
118.1340, 191.3120
119.3650, 106.4429
120.5960, 74.05859
121.8270, 149.1211
123.0580, 146.5957
124.2880, 210.4536
125.5190, 38.66797
126.7490, 107.2139
127.9790, 107.0703
129.2090, 103.2207
130.4390, 208.6489
131.6680, 157.3335
132.8980, 125.2534
134.1270, 173.3960
135.3560, 205.7461
136.5850, 159.2935
137.8140, 249.0264
139.0430, 193.9365
140.2710, 165.0122
141.5000, 200.2471
142.7280, 227.6460
143.9560, 220.2012
145.1840, 207.8926
146.4120, 259.7153
147.6390, 252.6738
148.8670, 218.7622
150.0940, 300.9648
151.3210, 314.2773
152.5490, 365.6963
153.7750, 403.2168
155.0020, 456.8564
156.2290, 365.5898
157.4550, 251.4146
158.6810, 341.3291
159.9080, 178.3286
161.1340, 167.4238
162.3590, 163.6167
163.5850, 265.8950
164.8110, 225.2651
166.0360, 173.7505
167.2610, 238.2979
168.4860, 164.8389
169.7110, 213.3872
170.9360, 170.9746
172.1610, 147.6108
173.3850, 194.3008
174.6100, 217.0791
175.8340, 155.8403
177.0580, 238.6362
178.2820, 100.5508
179.5050, 133.4985
180.7290, 123.4917
181.9520, 183.5249
183.1760, 157.5967
184.3990, 92.70215
185.6220, 169.8423
186.8450, 177.0181
188.0670, 295.2515
189.2900, 219.5293
190.5120, 178.8521
191.7340, 267.1289
192.9560, 312.5112
194.1780, 259.9287
195.4000, 206.3809
196.6220, 183.8691
197.8430, 189.3916
199.0640, 249.9487
200.2860, 163.5400
201.5070, 192.0454
202.7270, 81.69482
203.9480, 205.3774
205.1690, 156.0933
206.3890, 61.84131
207.6090, 107.6221
208.8290, 114.4346
210.0490, 120.2788
211.2690, 167.1538
212.4890, 20.06006
213.7080, 82.99658
214.9280, 110.8608
216.1470, 56.84717
217.3660, 137.8628
218.5850, 72.90771
219.8030, 111.9805
221.0220, 61.08398
222.2400, 80.21777
223.4590, 118.3799
224.6770, 136.5684
225.8950, 162.0420
227.1120, 180.0244
228.3300, 176.4175
229.5480, 140.6992
230.7650, 73.75293
231.9820, 147.1167
233.1990, 72.51562
234.4160, 176.7393
235.6330, 113.1655
236.8490, 35.41016
238.0660, 184.9502
239.2820, 213.7275
240.4980, 70.79492
241.7140, 173.6470
242.9300, 98.69971
244.1460, 51.18604
245.3610, 32.68701
246.5770, 26.98340
247.7920, 32.57080
249.0070, 87.73535
250.2220, 69.80615
251.4370, 140.3813
252.6510, 153.6562
253.8660, 77.02148
255.0800, 5.284180
256.2940, 18.25488
257.5080, 207.8677
258.7220, 26.54590
259.9360, 41.28760
261.1490, 146.1016
262.3630, 52.96191
263.5760, 24.02295
264.7890, 127.9878
266.0020, 83.80420
267.2150, 93.16113
268.4270, 66.26514
269.6400, 37.06104
270.8520, 110.2485
272.0640, 134.4746
273.2760, 75.73926
274.4880, 140.0464
275.7000, 30.38770
276.9120, 109.7627
278.1230, 75.17090
279.3340, 90.61084
280.5450, 132.6709
281.7560, 139.1704
282.9670, 55.69824
284.1780, 136.6172
285.3880, 40.19971
286.5980, 83.80762
287.8090, 35.55908
289.0190, 154.0986
290.2290, 71.78467
291.4380, 170.4941
292.6480, 100.2266
293.8570, 121.9814
295.0670, 157.7578
296.2760, 61.55518
297.4850, 17.37305
298.6930, 29.21094
299.9020, 60.06885
301.1110, 66.94580
302.3190, 62.84131
303.5270, 65.29053
304.7350, 39.68701
305.9430, 31.63672
307.1510, 13.60352
308.3580, 32.41309
309.5660, 24.58350
310.7730, 74.59619
311.9800, 179.6245
313.1870, 93.66699
314.3940, 189.7256
315.6010, 32.79883
316.8070, 63.88721
318.0130, 77.99072
319.2200, 51.10840
320.4260, 80.24023
321.6310, 43.38623
322.8370, 46.39844
324.0430, 27.34375
325.2480, 33.90723
326.4540, 20.10742
327.6590, 12.32129
328.8640, 97.54785
330.0680, 131.7871
331.2730, 158.0386
332.4780, 32.30322
333.6820, 42.57959
334.8860, 29.13232
336.0900, 51.16455
337.2940, 60.46924
338.4980, 6.784668
339.7010, 166.1118
340.9050, 175.4502
342.1080, 93.80029
343.3110, 76.16016
344.5140, 56.53223
345.7170, 44.91406
346.9200, 131.7520
348.1220, 92.15137
349.3240, 103.5605
350.5270, 111.0835
351.7290, 80.52197
352.9310, 129.9609
354.1320, 89.41016
355.3340, 94.41553
356.5350, 106.5947
357.7370, 68.81348
358.9380, 86.29980
360.1390, 51.79102
361.3400, 29.70215
362.5400, 81.80859
363.7410, 53.32861
364.9410, 19.52930
366.1410, 9.599609
367.3410, 118.0361
368.5410, 74.58594
369.7410, 82.14258
370.9400, 2.708496
372.1400, 65.28076
373.3390, 19.14355
374.5380, 116.4360
375.7370, 52.01904
376.9360, 40.39062
378.1350, 94.19873
379.3330, 80.79248
380.5310, 22.60840
381.7300, 13.99121
382.9280, 1.298828
384.1260, 14.23291
385.3230, 21.07666
386.5210, 33.54980
387.7180, 21.80371
388.9160, 71.84766
390.1130, 15.48535
391.3100, 49.81201
392.5060, 18.09863
393.7030, 77.56934
394.9000, 44.75049
396.0960, 37.92139
397.2920, 73.60547
398.4880, 19.62012
399.6840, 100.9907
400.8800, 13.30371
402.0750, 35.40283
403.2710, 103.1187
404.4660, 108.9106
405.6610, 111.0513
406.8560, 8.758301
408.0510, 41.47559
409.2450, 6.798828
410.4400, 4.927246
411.6340, 104.6582
412.8280, 2.603027
414.0220, 90.13770
415.2160, 50.88525
416.4100, 20.83545
417.6030, 106.9077
418.7970, 182.6763
419.9900, 161.4526
421.1830, 61.43994
422.3760, 170.2300
423.5690, 18.96436
424.7610, 66.84082
425.9540, 69.65137
427.1460, 13.53223
428.3380, 107.2773
429.5300, 165.0933
430.7220, 113.9160
431.9140, 111.5781
433.1050, 112.5020
434.2970, 36.35547
435.4880, 186.2144
436.6790, 126.0781
437.8700, 186.9561
439.0610, 277.8291
440.2510, 322.7070
441.4420, 374.5889
442.6320, 310.4756
443.8220, 442.3662
445.0120, 501.2617
446.2020, 776.1611
447.3910, 985.0645
448.5810, 1232.972
449.7700, 1745.883
450.9600, 2241.798
452.1490, 2791.064
453.3370, 3260.987
454.5260, 3296.913
455.7150, 2732.842
456.9030, 2079.775
458.0910, 1639.710
459.2800, 1175.650
460.4670, 1056.592
461.6550, 1124.538
462.8430, 1069.487
464.0300, 858.4385
465.2180, 751.3926
466.4050, 436.3496
467.5920, 439.3096
468.7790, 328.2725
469.9650, 332.2378
471.1520, 293.2056
472.3380, 125.1758
473.5250, 78.14795
474.7110, 67.12354
475.8970, 74.10010
477.0820, 110.0791
478.2680, 121.4736
479.4540, 121.5728
480.6390, 130.0786
481.8240, 111.2690
483.0090, 129.2598
484.1940, 119.2515
485.3780, 135.2593
486.5630, 144.2686
487.7470, 92.27979
488.9320, 20.29248
490.1160, 98.30273
491.3000, 59.31396
492.4830, 36.32666
493.6670, 44.34131
494.8500, 58.35791
496.0340, 70.37549
497.2170, 79.98730
498.4000, 91.84277
499.5820, 97.43506
500.7650, 97.45654
501.9480, 98.47949
503.1300, 70.09082
504.3120, 104.0742
505.4940, 104.1001
506.6760, 19.12598
507.8580, 21.53906
509.0390, 11.46045
510.2210, 64.46973
511.4020, 133.4639
512.5830, 132.7617
513.7640, 166.4849
514.9450, 108.5815
516.1250, 156.7920
517.3060, 74.78857
518.4860, 71.78809
519.6660, 109.0215
520.8460, 27.97852
522.0260, 170.9951
523.2060, 78.35303
524.3850, 63.66943
525.5650, 52.00732
526.7440, 127.1440
527.9230, 97.96387
529.1020, 238.3286
530.2810, 75.08203
531.4590, 115.0220
532.6380, 59.03125
533.8160, 40.38379
534.9940, 98.23877
536.1720, 129.1777
537.3500, 48.87598
538.5270, 182.8154
539.7050, 1.757324
540.8820, 14.55176
542.0590, 52.36475
543.2360, 63.27832
544.4130, 66.19434
545.5900, 25.11084
546.7660, 19.01318
547.9430, 73.27588
549.1190, 96.70312
550.2950, 51.61523
551.4710, 180.7241
552.6470, 98.33838
553.8220, 50.24951
554.9980, 146.5132
556.1730, 141.4331
557.3480, 24.35205
558.5230, 5.729980
559.6980, 65.17529
560.8730, 89.20166
562.0470, 24.33594
563.2220, 59.23682
564.3960, 39.54785
565.5700, 70.24316
566.7440, 81.15430
567.9170, 90.06494
569.0910, 222.6094
570.2640, 55.51709
571.4380, 144.8613
572.6110, 16.09229
573.7840, 1.5137000E-02
574.9570, 190.0435
576.1290, 44.95312
577.3020, 78.86133
578.4740, 42.76953
579.6460, 67.67432
580.8180, 49.57861
581.9900, 101.5005
583.1620, 139.4199
584.3330, 198.3374
585.5040, 196.0952
586.6760, 118.1675
587.8470, 167.0791
589.0180, 132.9888
590.1880, 71.89648
591.3590, 103.8027
592.5290, 58.70703
593.7000, 162.6123
594.8700, 263.5156
596.0400, 153.4160
597.2090, 123.3140
598.3790, 186.2095
599.5490, 188.1021
600.7180, 212.9922
601.8870, 145.8799
603.0560, 165.8462
604.2250, 169.6509
605.3940, 180.5322
606.5620, 303.4150
607.7300, 383.2959
608.8990, 445.1738
610.0670, 572.0488
611.2350, 519.9219
612.4020, 832.7910
613.5700, 1158.659
614.7370, 1870.522
615.9050, 2265.384
617.0720, 2990.242
618.2390, 2926.097
619.4060, 2440.952
620.5720, 1702.805
621.7390, 1351.654
622.9050, 1004.715
624.0710, 872.5586
625.2370, 779.6553
626.4030, 806.4922
627.5690, 783.3252
628.7340, 961.1543
629.9000, 926.5293
631.0650, 918.3516
632.2300, 876.1885
633.3950, 660.3467
634.5600, 416.1660
635.7240, 444.9912
636.8890, 198.8135
638.0530, 109.6309
639.2170, 292.4453
640.3810, 267.2568
641.5450, 168.0645
642.7080, 8.109375
643.8720, 141.6982
645.0350, 61.50781
646.1980, 282.3135
647.3610, 83.50098
648.5240, 53.70605
649.6870, 46.02930
650.8490, 213.8232
652.0120, 41.61230
653.1740, 122.4053
654.3360, 36.19434
655.4980, 134.9785
656.6600, 138.7676
657.8210, 110.8994
658.9830, 139.6807
660.1440, 245.4668
661.3050, 77.24512
662.4660, 8.978516
663.6270, 46.78711
664.7870, 61.65625
665.9480, 45.41406
667.1080, 141.3984
668.2680, 11.52051
669.4280, 83.27148
670.5880, 104.0293
671.7480, 153.7842
672.9070, 117.5400
674.0670, 187.2520
675.2260, 124.0156
676.3850, 26.77441
677.5440, 77.53906
678.7030, 96.00195
679.8610, 126.6787
681.0200, 75.84961
682.1780, 118.6016
683.3360, 78.35645
684.4940, 60.20605
685.6520, 145.7764
686.8090, 42.68164
687.9670, 0.3554690
689.1240, 91.19336
690.2810, 168.9141
691.4380, 74.63379
692.5950, 100.3516
693.7520, 107.7285
694.9080, 105.0859
696.0650, 106.7920
697.2210, 69.43457
698.3770, 172.1143
699.5330, 27.80664
700.6880, 19.49414
701.8440, 100.9697
702.9990, 38.83594
704.1550, 48.01758
705.3100, 188.1240
706.4650, 69.75879
707.6190, 77.38867
708.7740, 127.0205
709.9290, 14.28125
711.0830, 39.04004
712.2370, 114.2930
713.3910, 31.79492
714.5450, 159.3672
715.6980, 104.9346
716.8520, 225.7715
718.0050, 106.3193
719.1580, 86.05176
720.3110, 124.9844
721.4640, 143.5254
722.6170, 126.0605
723.7700, 119.6973
724.9220, 68.22168
726.0740, 91.48340
727.2260, 59.26270
728.3780, 97.77051
729.5300, 100.5742
730.6810, 56.07129
731.8330, 69.60156
732.9840, 202.0859
734.1350, 65.56738
735.2860, 149.0420
736.4370, 112.5107
737.5880, 102.9736
738.7380, 209.4307
739.8880, 73.88379
741.0390, 52.32910
742.1890, 112.0547
743.3380, 136.5098
744.4880, 119.9355
745.6380, 184.4043
746.7870, 108.8213
747.9360, 126.3975
749.0850, 62.80273
750.2340, 164.2012
751.3830, 154.6826
752.5310, 55.07129
753.6800, 209.4521
754.8280, 115.8281
755.9760, 208.1973
757.1240, 160.5605
758.2720, 93.91895
759.4190, 168.2705
760.5670, 31.61523
761.7140, 123.0801
762.8610, 37.58789
764.0080, 146.7100
765.1550, 129.0020
766.3020, 117.2881
767.4480, 98.56836
768.5950, 54.93848
769.7410, 136.3125
770.8870, 21.57715
772.0330, 107.8301
773.1780, 72.08008
774.3240, 111.4141
775.4690, 77.65137
776.6140, 72.88184
777.7590, 155.3516
778.9040, 97.57031
780.0490, 143.1963
781.1940, 127.8145
782.3380, 190.0137
783.4820, 84.20703
784.6260, 83.39355
785.7700, 155.8311
786.9140, 25.01855
788.0580, 65.18945
789.2010, 97.36914
790.3450, 273.2832
791.4880, 91.44922
792.6310, 110.5146
793.7730, 146.8818
794.9160, 31.02832
796.0590, 105.1855
797.2010, 104.3369
798.3430, 129.5234
799.4850, 119.6729
800.6270, 96.38477
801.7690, 2.481445
802.9100, 177.6602
804.0520, 39.85449
805.1930, 28.98145
806.3340, 182.6973
807.4750, 118.8604
808.6160, 160.9629
809.7560, 99.05762
810.8970, 252.1465
812.0370, 169.3447
813.1770, 180.4199
814.3170, 78.33105
815.4570, 10.39258
816.5960, 181.4395
817.7360, 29.48535
818.8750, 86.52930
820.0140, 87.56641
821.1530, 54.59668
822.2920, 58.31738
823.4310, 62.66113
824.5690, 31.42188
825.7070, 49.87988
826.8460, 107.8955
827.9840, 114.8789
829.1220, 192.8574
830.2590, 8.827148
831.3970, 11.21582
832.5340, 200.7197
833.6710, 21.64746
834.8080, 80.56641
835.9450, 97.48438
837.0820, 118.2744
838.2190, 139.9473
839.3550, 20.15332
840.4910, 17.69043
841.6270, 13.80273
842.7630, 265.6543
843.8990, 163.4980
845.0350, 95.33398
846.1700, 60.83691
847.3060, 56.52832
848.4410, 35.02246
849.5760, 147.8145
850.7100, 76.48926
851.8450, 126.2891
852.9800, 26.08203
854.1140, 71.86914
855.2480, 35.64844
856.3820, 58.58008
857.5160, 152.1475
858.6500, 192.8682
859.7830, 44.58301
860.9170, 98.29004
862.0500, 73.99219
863.1830, 67.68945
864.3160, 118.3799
865.4480, 23.06348
866.5810, 126.7373
867.7130, 60.40430
868.8460, 106.0654
869.9780, 105.7197
871.1100, 135.3691
872.2410, 174.0117
873.3730, 166.1572
874.5050, 170.2783
875.6360, 135.9014
876.7670, 108.5186
877.8980, 23.12695
879.0290, 64.72949
880.1590, 5.674805
881.2900, 58.90527
882.4200, 116.4795
883.5500, 36.04688
884.6800, 147.6074
885.8100, 94.16211
886.9400, 48.70996
888.0690, 104.2510
889.1990, 129.7852
890.3280, 92.31348
891.4570, 140.7363
892.5860, 108.3525
893.7140, 173.8633
894.8430, 122.3672
895.9710, 126.8770
897.1000, 39.28027
898.2280, 198.7910
899.3560, 95.03809
900.4830, 183.5371
901.6110, 117.0352
902.7380, 98.52637
903.8660, 44.01172
904.9930, 57.50781
906.1200, 116.9912
907.2460, 101.9980
908.3730, 159.4287
909.5000, 43.85449
910.6260, 108.2783
911.7520, 98.71680
912.8780, 20.12500
914.0040, 131.7021
915.1290, 78.90234
916.2550, 118.4404
917.3800, 172.7861
918.5050, 120.2061
919.6300, 97.54004
920.7550, 17.87012
921.8800, 123.1904
923.0040, 200.9385
924.1290, 166.3574
925.2530, 21.33691
926.3770, 118.9463
927.5010, 63.22559
928.6250, 12.50000
929.7480, 76.80469
930.8720, 119.6064
931.9950, 163.8535
933.1180, 58.09473
934.2410, 68.38477
935.3640, 123.6143
936.4860, 80.84668
937.6090, 193.8564
938.7310, 52.07715
939.8530, 218.0664
940.9750, 59.91406
942.0970, 8.880859
943.2180, 147.3096
944.3400, 155.4941
945.4610, 133.6758
946.5820, 36.85156
947.7030, 90.02148
948.8240, 78.18652
949.9450, 72.34766
951.0650, 183.7988
952.1860, 129.9492
953.3060, 294.7324
954.4260, 265.8730
955.5460, 102.0088
956.6650, 56.03711
957.7850, 100.0928
958.9040, 37.13086
960.0230, 32.98633
961.1420, 55.99805
962.2610, 107.1201
963.3800, 129.2363
964.4990, 214.3486
965.6170, 223.7920
966.7350, 364.2510
967.8530, 182.3516
968.9710, 249.0215
970.0890, 388.1123
971.2070, 282.1992
972.3240, 487.2822
973.4410, 497.3662
974.5580, 508.2529
975.6750, 578.8418
976.7920, 635.4277
977.9090, 682.5107
979.0250, 936.5898
980.1410, 1402.664
981.2580, 2028.101
982.3740, 2942.478
983.4890, 4416.368
984.6050, 6966.444
985.7200, 12126.96
986.8360, 23047.03
987.9510, 40825.12
989.0660, 50441.19
990.1810, 38351.06
991.2950, 20141.73
992.4100, 9649.776
993.5240, 5093.822
994.6390, 3026.757
995.7530, 2103.152
996.8660, 1542.186
997.9800, 1121.209
999.0940, 790.2344
1000.207, 619.9580
1001.320, 430.8164
1002.433, 622.9541
1003.546, 330.9668
1004.659, 380.9746
1005.772, 477.9805
1006.884, 300.9824
1007.996, 276.9824
1009.108, 284.9775
1010.220, 323.9697
1011.332, 181.9600
1012.444, 144.6611
1013.555, 270.6230
1014.666, 180.6074
1015.777, 221.5400
1016.888, 165.5146
1017.999, 202.3223
1019.110, 53.29297
1020.220, 74.25977
1021.331, 122.1348
1022.441, 191.0957
1023.551, 209.0547
1024.661, 158.0117
1025.770, 151.9648
1026.880, 80.92285
1027.989, 185.8721
1029.098, 168.4434
1030.207, 19.45801
1031.316, 182.3613
1032.425, 85.29883
1033.533, 226.2705
1034.642, 120.1729
1035.750, 160.1162
1036.858, 131.0576
1037.966, 111.9004
1039.073, 32.46777
1040.181, 124.3994
1041.288, 116.3662
1042.396, 111.2949
1043.503, 44.12891
1044.610, 39.05469
1045.716, 91.97949
1046.823, 3.654297
1047.929, 122.5723
1049.036, 41.07324
1050.142, 99.98730
1051.248, 19.89746
1052.353, 164.9941
1053.459, 150.9004
1054.564, 118.6299
1055.670, 12.46680
1056.775, 12.55859
1057.880, 250.3213
1058.985, 44.46875
1060.089, 52.35840
1061.194, 187.2402
1062.298, 23.91895
1063.402, 78.19043
1064.506, 71.65723
1065.610, 55.50391
1066.713, 21.30762
1067.817, 102.1514
1068.920, 87.99316
1070.023, 123.8350
1071.126, 61.68066
1072.229, 106.4639
1073.332, 73.30859
1074.435, 159.1279
1075.537, 101.9180
1076.639, 186.7656
1077.741, 84.11230
1078.843, 116.9570
1079.945, 132.6836
1081.046, 107.5283
1082.148, 75.37109
1083.249, 84.21289
1084.350, 43.05762
1085.451, 75.90039
1086.551, 126.7441
1087.652, 107.5889
1088.752, 168.4316
1089.853, 93.24707
1090.953, 36.09082
1092.053, 119.8301
1093.152, 75.55273
1094.252, 139.3730
1095.351, 128.2178
1096.451, 239.0605
1097.550, 168.3740
1098.649, 215.2197
1099.748, 194.0752
1100.846, 44.93066
1101.945, 174.7881
1103.043, 150.6445
1104.141, 139.5000
1105.239, 334.0596
1106.337, 226.9150
1107.434, 178.7793
1108.532, 180.6455
1109.629, 55.51465
1110.726, 128.3828
1111.823, 52.25098
1112.920, 66.11816
1114.017, 86.99414
1115.113, 99.84766
1116.210, 69.69043
1117.306, 56.46680
1118.402, 175.3438
1119.498, 3.844727
1120.593, 68.96484
1121.689, 184.7725
1122.784, 34.58301
1123.879, 141.4111
1124.974, 189.2412
1126.069, 156.0703
1127.164, 5.101563
1128.259, 106.7236
1129.353, 53.54883
1130.447, 103.3740
1131.541, 185.1982
1132.635, 158.0244
1133.729, 99.85059
1134.822, 93.67676
1135.916, 82.50195
1137.009, 112.3184
1138.102, 205.1543
1139.195, 238.9805
1140.288, 262.8066
1141.380, 381.6338
1142.473, 428.4717
1143.565, 400.2812
1144.657, 557.1523
1145.749, 326.2754
1146.841, 334.1250
1147.932, 320.9736
1149.024, 292.8232
1150.115, 221.6729
1151.206, 305.5225
1152.297, 265.3721
1153.388, 104.2227
1154.479, 170.1738
1155.569, 116.0840
1156.659, 102.9355
1157.750, 21.78711
1158.839, 187.6387
1159.929, 44.50977
1161.019, 6.319336
1162.108, 51.95898
1163.198, 135.8516
1164.287, 17.66211
1165.376, 17.52734
1166.465, 121.2822
1167.553, 128.0938
1168.642, 141.9062
1169.730, 13.28223
1170.818, 73.48535
1171.906, 14.30859
1172.994, 97.13184
1174.082, 123.9561
1175.170, 60.26465
1176.257, 157.0684
1177.344, 35.89648
1178.431, 60.55176
1179.518, 61.38281
1180.605, 76.23730
1181.691, 145.0938
1182.778, 1.132813
1183.864, 202.7520
1184.950, 3.605469
1186.036, 46.45898
1187.122, 69.46094
1188.207, 132.2090
1189.292, 12.12598
1190.378, 107.9883
1191.463, 35.85156
1192.548, 62.05273
1193.632, 51.87500
1194.717, 51.34766
1195.801, 139.7178
1196.886, 112.5879
1197.970, 142.4033
1199.054, 214.2900
1200.137, 219.2041
1201.221, 40.11719
1202.305, 136.0312
1203.388, 180.9473
1204.471, 57.86328
1205.554, 133.7803
1206.637, 58.57129
1207.719, 9.394531
1208.802, 96.55078
1209.884, 21.47070
1210.966, 99.39160
1212.048, 115.3135
1213.130, 138.2480
1214.212, 101.1836
1215.293, 149.1270
1216.374, 65.06934
1217.456, 86.01172
1218.536, 77.96973
1219.617, 115.9131
1220.698, 94.05664
1221.778, 70.74219
1222.859, 191.9482
1223.939, 48.89746
1225.019, 60.84570
1226.099, 169.7939
1227.178, 8.256836
1228.258, 52.68750
1229.337, 219.6875
1230.417, 213.6318
1231.496, 150.5781
1232.574, 112.5234
1233.653, 167.4697
1234.732, 12.58594
1235.810, 154.3535
1236.888, 172.2930
1237.966, 158.2305
1239.044, 100.1699
1240.122, 71.10840
1241.199, 155.2910
1242.277, 177.2305
1243.354, 107.1709
1244.431, 63.74219
1245.508, 94.89355
1246.585, 94.83398
1247.661, 113.3271
1248.738, 105.0283
1249.814, 50.98730
1250.890, 90.92773
1251.966, 105.8682
1253.042, 121.0596
1254.117, 195.0010
1255.193, 224.9844
1256.268, 122.9268
1257.343, 19.50977
1258.418, 211.4512
1259.493, 64.39355
1260.567, 155.3359
1261.642, 148.2773
1262.716, 206.4541
1263.790, 116.3965
1264.864, 209.3379
1265.938, 144.2803
1267.011, 78.22168
1268.085, 104.1621
1269.158, 41.10352
1270.231, 33.13477
1271.304, 108.0449
1272.377, 31.98438
1273.450, 148.1484
1274.522, 4.299805
1275.594, 84.63379
