##NAMES=Baryte
##RRUFFID=R040036
##IDEAL CHEMISTRY=BaS^6+^O_4_
##LOCALITY=Cumbria County, England
##OWNER=RRUFF
##SOURCE=University of Arizona Mineral Museum
##DESCRIPTION=Golden brown tabular crystal
##STATUS=The identification of this mineral has been confirmed by X-ray diffraction and chemical analysis
##URL=rruff.info/R040036
##MEASURED CHEMISTRY=Ba_1.00_S_1.00_O_4_; trace amounts of Pb
##PIN_ID=M00021
##ORIENTATION=Laser parallel to c* (0 0 1). Fiducial mark perpendicular to laser is parallel to -a [-1 0 0]
26.288, 0.000
27.694, 30.466
29.099, 84.009
30.504, 40.868
31.909, 2.425
33.313, 31.979
34.717, 6.635
36.121, 35.027
37.525, 59.712
38.929, 25.405
40.332, 17.986
41.735, 97.024
43.138, 86.201
44.541, 58.306
45.943, 62.215
47.345, 61.478
48.747, 98.547
50.149, 60.953
51.551, 46.462
52.952, 72.845
54.353, 108.447
55.754, 81.703
57.155, 67.460
58.555, 48.333
59.955, 34.134
61.355, 28.595
62.755, 55.416
64.154, 64.378
65.553, 47.967
66.952, 56.241
68.351, 33.218
69.750, 52.878
71.148, 32.774
72.546, 29.674
73.944, 42.594
75.342, 55.849
76.739, 49.792
78.136, 85.742
79.533, 64.694
80.930, 97.106
82.327, 79.618
83.723, 111.270
85.119, 84.151
86.515, 73.004
87.910, 63.834
89.306, 54.644
90.701, 25.432
92.096, 8.809
93.490, 22.073
94.885, 40.353
96.279, 32.359
97.673, 32.447
99.067, 18.346
100.461, 4.532
101.854, 17.624
103.247, 12.664
104.640, 15.918
106.032, 24.127
107.425, 0.699
108.817, 3.547
110.209, 26.413
111.601, 47.293
112.992, 72.176
114.384, 145.066
115.775, 366.149
117.166, 274.674
118.556, 496.115
119.947, 197.424
121.337, 144.781
122.727, 116.045
124.116, 160.239
125.506, 154.500
126.895, 154.688
128.284, 169.807
129.673, 153.821
131.062, 178.833
132.450, 135.829
133.838, 114.920
135.226, 117.828
136.614, 123.878
138.001, 96.674
139.388, 105.434
140.775, 98.158
142.162, 133.679
143.549, 136.068
144.935, 172.340
146.321, 220.686
147.707, 248.057
149.093, 305.380
150.478, 320.790
151.863, 348.235
153.248, 360.581
154.633, 348.682
156.018, 303.844
157.402, 239.040
158.786, 199.335
160.170, 169.469
161.554, 149.569
162.937, 121.392
164.320, 120.798
165.703, 90.952
167.086, 101.019
168.469, 113.002
169.851, 99.999
171.233, 88.089
172.615, 106.106
173.996, 105.996
175.378, 101.746
176.759, 98.402
178.140, 95.757
179.521, 108.675
180.901, 119.088
182.281, 137.389
183.662, 159.543
185.041, 172.437
186.421, 202.305
187.800, 237.118
189.180, 262.545
190.558, 282.797
191.937, 234.325
193.316, 208.798
194.694, 194.058
196.072, 182.194
197.450, 140.181
198.827, 127.165
200.205, 113.813
201.582, 117.269
202.959, 120.768
204.336, 86.410
205.712, 127.832
207.088, 113.123
208.465, 105.241
209.840, 83.202
211.216, 81.821
212.591, 72.636
213.967, 80.375
215.341, 58.812
216.716, 67.272
218.091, 74.427
219.465, 86.779
220.839, 53.906
222.213, 67.996
223.586, 52.226
224.960, 60.626
226.333, 59.927
227.706, 68.429
229.079, 52.788
230.451, 66.286
231.823, 61.749
233.195, 58.290
234.567, 61.696
235.939, 58.049
237.310, 55.349
238.682, 50.585
240.052, 38.538
241.423, 58.968
242.794, 43.997
244.164, 20.597
245.534, 41.376
246.904, 42.170
248.274, 41.296
249.643, 38.705
251.012, 35.872
252.381, 27.081
253.750, 38.237
255.118, 48.213
256.487, 35.736
257.855, 53.344
259.223, 42.208
260.590, 47.259
261.958, 60.434
263.325, 37.923
264.692, 51.399
266.059, 33.865
267.425, 45.317
268.791, 43.757
270.158, 38.183
271.523, 29.491
272.889, 30.891
274.255, 32.278
275.620, 15.651
276.985, 34.012
278.350, 25.360
279.714, 50.697
281.078, 48.021
282.443, 47.242
283.806, 34.467
285.170, 31.710
286.534, 37.818
287.897, 18.959
289.260, 25.058
290.623, 36.304
291.985, 32.540
293.348, 32.768
294.710, 36.987
296.072, 24.196
297.433, 27.397
298.795, 28.588
300.156, 36.769
301.517, 15.941
302.878, 26.105
304.239, 18.261
305.599, 35.408
306.959, 23.546
308.319, 41.676
309.679, 33.798
311.038, 22.908
312.398, 17.009
313.757, 14.824
315.116, 17.964
316.474, 23.014
317.833, 19.997
319.191, 41.920
320.549, 45.922
321.907, 27.919
323.264, 40.893
324.622, 13.826
325.979, 28.722
327.336, 25.657
328.692, 35.613
330.049, 38.552
331.405, 22.474
332.761, 36.380
334.117, 40.269
335.473, 54.143
336.828, 48.003
338.183, 30.850
339.538, 16.683
340.893, 5.501
342.247, 6.779
343.602, 7.655
344.956, 17.874
346.310, 26.641
347.663, 33.388
349.017, 33.979
350.370, 24.870
351.723, 32.465
353.076, 33.181
354.428, 36.885
355.780, 16.546
357.133, 27.099
358.484, 35.642
359.836, 29.139
361.188, 44.668
362.539, 37.095
363.890, 53.559
365.241, 39.057
366.591, 45.610
367.942, 54.011
369.292, 39.479
370.642, 26.872
371.992, 34.302
373.341, 35.728
374.691, 43.192
376.040, 69.581
377.388, 30.030
378.737, 63.457
380.086, 44.865
381.434, 39.287
382.782, 39.691
384.130, 39.081
385.477, 46.448
386.825, 20.762
388.172, 44.175
389.519, 42.527
390.865, 59.780
392.212, 33.143
393.558, 30.520
394.904, 39.901
396.250, 22.276
397.596, 37.645
398.941, 29.979
400.286, 26.130
401.631, 30.822
402.976, 22.220
404.321, 37.702
405.665, 45.135
407.009, 39.592
408.353, 44.110
409.697, 49.522
411.040, 47.842
412.384, 61.385
413.727, 53.826
415.070, 63.258
416.412, 74.663
417.755, 72.026
419.097, 71.394
420.439, 74.767
421.781, 82.061
423.122, 98.439
424.464, 80.813
425.805, 91.266
427.146, 118.704
428.486, 105.169
429.827, 132.543
431.167, 136.903
432.507, 174.315
433.847, 187.616
435.187, 199.945
436.526, 248.325
437.865, 297.688
439.204, 335.052
440.543, 432.435
441.882, 501.759
443.220, 617.097
444.558, 740.440
445.896, 940.821
447.234, 1246.106
448.572, 1618.439
449.909, 2163.735
451.246, 2727.110
452.583, 3388.429
453.919, 3804.832
455.256, 4029.198
456.592, 4570.514
457.928, 5742.801
459.264, 8398.080
460.600, 11150.372
461.935, 13089.689
463.270, 12318.990
464.605, 9708.396
465.940, 6825.819
467.274, 4649.161
468.609, 3120.564
469.943, 2160.843
471.277, 1448.192
472.610, 1084.526
473.944, 807.907
475.277, 678.301
476.610, 533.623
477.943, 444.010
479.275, 380.416
480.608, 334.887
481.940, 318.330
483.272, 280.693
484.604, 238.990
485.935, 228.237
487.267, 211.490
488.598, 192.748
489.929, 166.056
491.260, 167.405
492.590, 141.787
493.920, 120.173
495.250, 116.517
496.580, 105.505
497.910, 122.283
499.239, 106.687
500.569, 94.998
501.898, 104.360
503.226, 87.765
504.555, 74.143
505.883, 67.595
507.212, 89.016
508.540, 78.484
509.867, 69.918
511.195, 72.384
512.522, 56.851
513.849, 59.293
515.176, 74.679
516.503, 57.101
517.829, 57.532
519.156, 76.999
520.482, 60.467
521.808, 55.877
523.133, 45.344
524.459, 50.812
525.784, 54.271
527.109, 50.059
528.434, 40.372
529.758, 45.930
531.083, 46.311
532.407, 38.779
533.731, 55.247
535.055, 32.716
536.378, 48.163
537.701, 39.804
539.025, 15.281
540.348, 50.683
541.670, 45.203
542.993, 33.644
544.315, 45.069
545.637, 40.045
546.959, 30.454
548.281, 53.110
549.602, 43.591
550.923, 44.371
552.244, 50.870
553.565, 59.386
554.886, 16.071
556.206, 43.573
557.526, 21.069
558.846, 32.535
560.166, 36.001
561.486, 29.598
562.805, 24.106
564.124, 18.591
565.443, 40.120
566.762, 5.598
568.080, 34.069
569.399, 31.540
570.717, 7.058
572.035, 20.528
573.352, 40.997
574.670, 8.771
575.987, 31.249
577.304, 17.748
578.621, 26.300
579.938, 34.802
581.254, 38.681
582.570, 42.233
583.886, 59.029
585.202, 30.496
586.518, 38.141
587.833, 32.654
589.148, 46.379
590.463, 65.332
591.778, 65.835
593.093, 73.814
594.407, 85.865
595.721, 70.367
597.035, 78.840
598.349, 63.547
599.662, 71.802
600.976, 96.656
602.289, 96.158
603.602, 127.619
604.914, 162.113
606.227, 166.600
607.539, 236.410
608.851, 292.236
610.163, 397.895
611.475, 623.758
612.786, 895.213
614.097, 1404.668
615.408, 2037.122
616.719, 2453.575
618.030, 2459.529
619.340, 2104.000
620.651, 1664.572
621.961, 1310.020
623.270, 1092.466
624.580, 931.911
625.889, 879.355
627.199, 903.843
628.507, 1058.311
629.816, 1112.782
631.125, 1097.597
632.433, 895.082
633.741, 707.537
635.049, 521.990
636.357, 402.426
637.664, 304.869
638.972, 288.302
640.279, 273.901
641.586, 286.369
642.893, 293.914
644.199, 357.594
645.505, 470.247
646.811, 493.965
648.117, 523.569
649.423, 429.060
650.728, 329.524
652.034, 254.940
653.339, 189.057
654.644, 119.782
655.948, 97.286
657.253, 61.694
658.557, 52.101
659.861, 79.505
661.165, 52.908
662.468, 23.308
663.772, 48.706
665.075, 16.119
666.378, 35.513
667.681, 4.904
668.983, 3.707
670.286, 1.322
671.588, 30.060
672.890, 15.445
674.192, 28.850
675.493, 20.226
676.795, 26.599
678.096, 7.020
679.397, 13.347
680.697, 27.712
681.998, 4.074
683.298, 16.492
684.598, 21.857
685.898, 20.788
687.198, 28.575
688.498, 6.079
689.797, 12.262
691.096, 11.400
692.395, 8.204
693.694, 4.534
694.992, 7.130
696.290, 7.192
697.589, 8.512
698.886, 18.865
700.184, 15.181
701.482, 3.139
702.779, 6.376
704.076, 11.912
705.373, 2.450
706.669, 13.929
707.966, 27.301
709.262, 17.711
710.558, 5.001
711.854, 21.258
713.150, 17.543
714.445, 10.115
715.740, 13.139
717.035, 8.412
718.330, 0.318
719.625, 8.308
720.919, 14.429
722.214, 0.172
723.508, 10.860
724.801, 24.386
726.095, 4.369
727.388, 4.870
728.682, 7.894
729.975, 17.663
731.267, 6.745
732.560, 1.966
733.852, 6.182
735.145, 6.418
736.437, 12.628
737.728, 7.150
739.020, 10.052
740.311, 3.749
741.603, 5.446
742.894, 26.637
744.184, 6.825
745.475, 8.009
746.765, 11.809
748.055, 12.577
749.345, 5.464
750.635, 14.121
751.925, 20.036
753.214, 26.190
754.503, 23.342
755.792, 24.490
757.081, 18.364
758.370, 8.774
759.658, 2.091
760.946, 17.040
762.234, 13.167
763.522, 18.292
764.809, 13.414
766.097, 2.534
767.384, 6.649
768.671, 5.762
769.958, 13.128
771.244, 1.975
772.530, 8.075
773.817, 8.172
775.102, 27.265
776.388, 9.356
777.674, 27.444
778.959, 4.470
780.244, 2.610
781.529, 2.312
782.814, 8.239
784.098, 7.171
785.383, 10.107
786.667, 5.280
787.951, 0.428
789.235, 1.052
790.518, 15.099
791.801, 6.142
793.084, 14.183
794.367, 1.779
795.650, 21.255
796.933, 13.286
798.215, 17.315
799.497, 9.341
800.779, 19.365
802.061, 23.014
803.342, 4.404
804.624, 30.420
805.905, 35.433
807.186, 21.394
808.466, 20.273
809.747, 33.189
811.027, 6.192
812.307, 1.192
813.587, 24.189
814.867, 8.184
816.146, 4.177
817.426, 11.962
818.705, 12.942
819.984, 14.927
821.263, 1.141
822.541, 3.839
823.819, 11.816
825.098, 1.263
826.375, 9.236
827.653, 14.018
828.931, 30.975
830.208, 11.371
831.485, 12.559
832.762, 1.469
834.039, 8.210
835.315, 18.129
836.592, 0.947
837.868, 2.003
839.144, 16.048
840.420, 9.235
841.695, 10.336
842.970, 10.614
844.246, 8.281
845.521, 5.518
846.795, 5.703
848.070, 7.218
849.344, 13.089
850.618, 28.006
851.892, 3.078
853.166, 4.529
854.440, 10.431
855.713, 25.310
856.986, 16.867
858.259, 16.004
859.532, 36.495
860.804, 3.689
862.077, 18.880
863.349, 16.777
864.621, 13.494
865.893, 18.341
867.164, 12.974
868.436, 10.622
869.707, 1.228
870.978, 8.055
872.248, 2.099
873.519, 14.747
874.789, 1.379
876.060, 30.258
877.330, 10.118
878.599, 5.833
879.869, 33.670
881.138, 5.548
882.408, 43.391
883.677, 23.239
884.945, 34.763
886.214, 8.268
887.482, 12.062
888.751, 12.403
890.019, 16.273
891.287, 38.142
892.554, 30.011
893.822, 35.879
895.089, 40.244
896.356, 60.091
897.623, 37.835
898.889, 66.701
900.156, 25.567
901.422, 51.432
902.688, 33.297
903.954, 58.116
905.220, 33.955
906.485, 62.790
907.750, 50.279
909.015, 56.097
910.280, 45.944
911.545, 42.792
912.809, 29.655
914.074, 37.510
915.338, 55.373
916.602, 36.069
917.865, 64.894
919.129, 77.642
920.392, 52.252
921.655, 68.889
922.918, 49.459
924.181, 80.142
925.443, 70.936
926.706, 67.756
927.968, 72.622
929.230, 70.472
930.491, 50.340
931.753, 73.114
933.014, 61.982
934.276, 77.851
935.536, 52.721
936.797, 69.592
938.058, 45.463
939.318, 59.334
940.578, 59.189
941.838, 91.063
943.098, 68.937
944.358, 105.812
945.617, 84.688
946.876, 87.566
948.135, 92.441
949.394, 100.293
950.653, 105.174
951.911, 98.055
953.169, 114.927
954.427, 116.812
955.685, 91.698
956.943, 148.584
958.200, 124.414
959.458, 156.295
960.715, 176.186
961.971, 200.064
963.228, 226.960
964.485, 311.858
965.741, 341.757
966.997, 373.387
968.253, 355.291
969.508, 429.187
970.764, 452.095
972.019, 512.004
973.274, 617.879
974.529, 662.789
975.784, 748.335
977.039, 927.044
978.293, 1171.730
979.547, 1570.414
980.801, 2171.155
982.055, 3310.964
983.308, 5566.773
984.562, 10561.699
985.815, 26390.631
987.068, 49289.559
988.321, 56498.438
989.573, 43197.367
990.826, 24516.305
992.078, 14055.248
993.330, 8087.832
994.582, 4577.776
995.833, 2846.725
997.085, 1883.618
998.336, 1391.574
999.587, 1097.531
1000.838, 907.491
1002.088, 772.454
1003.339, 676.420
1004.589, 567.206
1005.839, 520.179
1007.089, 433.155
1008.339, 387.111
1009.588, 378.091
1010.838, 355.059
1012.087, 347.046
1013.336, 327.035
1014.584, 294.027
1015.833, 263.023
1017.081, 229.021
1018.330, 235.022
1019.577, 264.026
1020.825, 221.033
1022.073, 231.045
1023.320, 206.882
1024.567, 237.902
1025.814, 265.924
1027.061, 225.949
1028.308, 273.976
1029.554, 247.006
1030.800, 225.042
1032.046, 235.079
1033.292, 153.120
1034.538, 136.164
1035.783, 116.211
1037.029, 121.262
1038.274, 81.316
1039.519, 84.373
1040.763, 93.434
1042.008, 89.498
1043.252, 62.568
1044.496, 72.640
1045.740, 59.716
1046.984, 62.794
1048.228, 83.875
1049.471, 64.960
1050.714, 76.047
1051.957, 54.138
1053.200, 89.235
1054.442, 91.335
1055.685, 72.456
1056.927, 46.565
1058.169, 88.679
1059.411, 25.796
1060.652, 57.917
1061.894, 57.041
1063.135, 59.168
1064.376, 49.412
1065.617, 50.338
1066.858, 56.680
1068.098, 51.849
1069.339, 46.998
1070.579, 62.143
1071.819, 61.584
1073.058, 66.445
1074.298, 76.602
1075.537, 85.769
1076.776, 93.932
1078.015, 122.099
1079.254, 141.268
1080.493, 212.439
1081.731, 263.614
1082.969, 267.792
1084.207, 278.974
1085.445, 235.159
1086.683, 225.347
1087.920, 174.538
1089.157, 101.735
1090.394, 97.934
1091.631, 67.137
1092.868, 55.342
1094.105, 67.552
1095.341, 62.765
1096.577, 78.980
1097.813, 80.198
1099.049, 110.091
1100.284, 182.648
1101.519, 184.881
1102.755, 222.116
1103.990, 278.355
1105.224, 212.596
1106.459, 209.841
1107.693, 146.088
1108.928, 71.339
1110.162, 90.593
1111.395, 16.852
1112.629, 48.115
1113.863, 43.381
1115.096, 4.651
1116.329, 39.923
1117.562, 76.202
1118.795, 52.483
1120.027, 57.769
1121.259, 58.057
1122.492, 78.348
1123.723, 78.641
1124.955, 108.937
1126.187, 82.235
1127.418, 144.537
1128.649, 138.842
1129.880, 203.149
1131.111, 219.459
1132.342, 311.771
1133.572, 405.086
1134.802, 560.404
1136.033, 768.726
1137.262, 1060.051
1138.492, 1228.378
1139.722, 1414.710
1140.951, 1537.045
1142.180, 1747.383
1143.409, 1815.723
1144.638, 1788.066
1145.866, 1594.411
1147.095, 1361.759
1148.323, 1057.347
1149.551, 900.698
1150.779, 673.052
1152.006, 537.407
1153.234, 424.764
1154.461, 366.124
1155.688, 312.485
1156.915, 251.849
1158.141, 192.215
1159.368, 213.583
1160.594, 214.953
1161.820, 238.325
1163.046, 318.698
1164.272, 343.074
1165.498, 351.614
1166.723, 402.839
1167.948, 333.419
1169.173, 310.065
1170.398, 269.449
1171.623, 204.016
1172.847, 161.533
1174.071, 126.922
1175.295, 109.593
1176.519, 77.014
1177.743, 56.432
1178.966, 68.826
1180.190, 43.231
1181.413, 44.719
1182.636, 47.116
1183.858, 8.515
1185.081, 38.665
1186.303, 20.066
1187.526, 2.497
1188.748, 30.906
1189.969, 5.575
1191.191, 27.004
1192.412, 29.410
1193.634, 13.816
1194.855, 24.223
1196.076, 11.370
1197.296, 8.037
1198.517, 14.445
1199.737, 4.147
1200.957, 0.509
1202.177, 8.921
1203.397, 1.506
1204.617, 2.296
1205.836, 7.938
1207.055, 0.651
1208.274, 10.945
1209.493, 23.370
1210.712, 37.791
1211.930, 23.202
1213.148, 40.614
1214.367, 65.195
1215.584, 47.844
1216.802, 61.287
1218.020, 42.730
1219.237, 32.160
1220.454, 68.263
1221.671, 18.674
1222.888, 15.162
1224.105, 43.573
1225.321, 16.365
1226.537, 12.775
1227.753, 33.198
1228.969, 25.607
1230.185, 47.483
1231.400, 31.310
1232.616, 13.879
1233.831, 28.515
1235.046, 50.923
1236.261, 47.330
1237.475, 48.961
1238.689, 48.366
1239.904, 58.833
1241.118, 78.277
1242.332, 45.809
1243.545, 52.212
1244.759, 21.614
1245.972, 47.016
1247.185, 76.442
1248.398, 40.403
1249.611, 50.804
1250.823, 29.708
1252.036, 26.110
1253.248, 77.512
1254.460, 15.914
1255.671, 42.316
1256.883, 17.719
1258.095, 48.122
1259.306, 44.582
1260.517, 45.985
1261.728, 19.388
1262.938, 36.825
1264.149, 35.420
1265.359, 4.828
1266.569, 45.646
1267.779, 20.089
1268.989, 38.490
1270.199, 25.295
1271.408, 28.978
1272.617, 33.378
1273.826, 49.945
1275.035, 11.382
1276.244, 5.818
1277.452, 45.210
1278.661, 9.399
1279.869, 47.013
1281.077, 29.401
1282.285, 18.784
1283.492, 56.185
1284.700, 25.564
1285.907, 13.943
1287.114, 32.321
1288.321, 28.698
1289.527, 9.072
1290.734, 25.445
1291.940, 33.842
1293.146, 22.382
1294.352, 11.740
1295.558, 6.147
1296.763, 10.528
1297.969, 6.115
1299.174, 8.766
1300.379, 16.579
1301.584, 5.079
1302.788, 2.740
1303.993, 23.593
1305.197, 9.080
1306.401, 3.242
1307.605, 4.560
1308.809, 21.876
1310.013, 8.188
1311.216, 0.501
1312.419, 15.808
1313.622, 16.109
1314.825, 28.596
1316.028, 44.693
1317.230, 3.980
1318.432, 32.248
1319.634, 7.471
1320.836, 6.805
1322.038, 12.073
1323.240, 15.337
1324.441, 21.363
1325.642, 24.840
1326.843, 20.969
1328.044, 25.211
1329.245, 14.448
1330.445, 5.349
1331.645, 8.874
1332.845, 2.901
1334.045, 11.680
1335.245, 5.160
1336.445, 13.740
1337.644, 3.065
1338.843, 11.132
1340.042, 12.325
1341.241, 23.514
1342.440, 28.699
1343.638, 2.120
1344.836, 4.944
1346.034, 8.226
1347.232, 8.392
1348.430, 11.554
1349.628, 24.289
1350.825, 33.860
1352.022, 3.006
1353.219, 26.148
1354.416, 10.714
1355.613, 53.417
1356.809, 13.545
1358.005, 25.669
1359.202, 14.210
1360.398, 12.085
1361.593, 0.976
1362.789, 3.867
1363.984, 39.233
1365.179, 25.330
1366.374, 3.577
1367.569, 46.542
1368.764, 5.635
1369.958, 8.720
1371.153, 0.801
1372.347, 40.875
1373.541, 23.966
1374.735, 22.169
1375.928, 12.069
1377.122, 17.585
1378.315, 27.754
1379.508, 14.911
1380.701, 54.422
1381.893, 19.753
1383.086, 23.081
1384.278, 30.407
1385.470, 38.729
1386.662, 22.045
1387.854, 8.355
1389.046, 42.658
1390.237, 35.956
1391.428, 13.250
1392.619, 0.732
1393.810, 19.554
1395.001, 10.162
1396.191, 12.118
1397.382, 26.396
1398.572, 9.330
1399.762, 4.059
1400.952, 30.198
1402.141, 0.880
1403.331, 12.903
1404.520, 12.985
1405.709, 35.823
1406.898, 55.026
1408.087, 17.124
1409.275, 48.354
1410.464, 47.552
1411.652, 17.715
1412.840, 50.516
1414.028, 24.715
1415.215, 23.914
1416.403, 33.113
1417.590, 43.969
1418.777, 26.865
1419.964, 15.117
1421.151, 8.999
1422.338, 4.927
1423.524, 12.500
1424.710, 16.794
1425.896, 28.840
1427.082, 58.807
1428.268, 55.806
1429.453, 41.277
1430.639, 21.370
1431.824, 62.654
1433.009, 34.708
1434.194, 56.367
1435.378, 46.018
1436.563, 68.962
1437.747, 63.693
1438.931, 51.743
1440.115, 83.736
1441.299, 60.626
1442.482, 87.580
1443.666, 88.547
1444.849, 88.499
1446.032, 100.307
1447.215, 155.223
1448.397, 102.599
1449.580, 132.476
1450.762, 133.207
1451.944, 108.322
1453.126, 107.646
1454.308, 116.167
1455.490, 124.883
1456.671, 117.513
1457.852, 116.150
1459.033, 100.823
1460.214, 98.584
1461.395, 78.090
1462.575, 88.421
1463.756, 81.533
1464.936, 79.020
1466.116, 55.585
1467.296, 61.138
1468.475, 42.552
1469.655, 64.263
1470.834, 28.809
1472.013, 36.323
1473.192, 62.863
1474.371, 63.388
1475.550, 49.883
1476.728, 50.387
1477.906, 45.824
1479.084, 27.516
1480.262, 47.097
1481.440, 54.670
1482.617, 71.234
1483.795, 30.824
1484.972, 54.436
1486.149, 21.055
1487.326, 9.681
1488.502, 43.321
1489.679, 10.980
1490.855, 42.665
1492.031, 20.372
1493.207, 20.106
1494.383, 5.874
1495.559, 10.537
1496.734, 11.770
1497.909, 20.107
1499.084, 17.142
1500.259, 8.426
1501.434, 1.160
1502.608, 0.000
##END=



