##NAMES=Baryte
##RRUFFID=R040036
##IDEAL CHEMISTRY=BaS^6+^O_4_
##LOCALITY=Cumbria County, England
##OWNER=RRUFF
##SOURCE=University of Arizona Mineral Museum
##DESCRIPTION=Golden brown tabular crystal
##STATUS=The identification of this mineral has been confirmed by X-ray diffraction and chemical analysis
##URL=rruff.info/R040036
##MEASURED CHEMISTRY=Ba_1.00_S_1.00_O_4_; trace amounts of Pb
##PIN_ID=M00028
##ORIENTATION=Laser parallel to -a* (-1 0 0). Fiducial mark perpendicular to laser is parallel to -b [0 -1 0]
26.288, 0.000
27.694, 7.371
29.099, 22.990
30.504, 27.752
31.909, 19.419
33.313, 0.136
34.717, 43.085
36.121, 24.214
37.525, 42.450
38.929, 31.861
40.332, 29.697
41.735, 36.676
43.138, 19.349
44.541, 27.067
45.943, 47.739
47.345, 50.586
48.747, 45.357
50.149, 62.927
51.551, 42.990
52.952, 54.485
54.353, 30.112
55.754, 55.725
57.155, 45.780
58.555, 43.971
59.955, 54.427
61.355, 60.768
62.755, 57.763
64.154, 52.035
65.553, 26.239
66.952, 22.848
68.351, 21.253
69.750, 45.600
71.148, 23.898
72.546, 23.205
73.944, 41.519
75.342, 28.843
76.739, 43.171
78.136, 21.500
79.533, 19.830
80.930, 10.158
82.327, 0.477
83.723, 0.212
85.119, 0.908
86.515, 4.613
87.910, 0.326
89.306, 16.048
90.701, 26.776
92.096, 17.508
93.490, 19.244
94.885, 6.983
96.279, 17.727
97.673, 4.475
99.067, 3.231
100.461, 5.994
101.854, 0.253
103.247, 16.556
104.640, 2.904
106.032, 17.288
107.425, 38.703
108.817, 45.142
110.209, 60.597
111.601, 82.064
112.992, 99.537
114.384, 213.013
115.775, 193.097
117.166, 203.536
118.556, 213.419
119.947, 182.877
121.337, 192.338
122.727, 225.893
124.116, 204.292
125.506, 262.727
126.895, 332.094
128.284, 344.441
129.673, 367.879
131.062, 345.242
132.450, 322.526
133.838, 268.870
135.226, 234.076
136.614, 201.252
138.001, 199.408
139.388, 183.543
140.775, 222.767
142.162, 222.962
143.549, 247.053
144.935, 271.227
146.321, 338.320
147.707, 352.435
149.093, 446.561
150.478, 418.637
151.863, 467.787
153.248, 482.964
154.633, 451.065
156.018, 393.221
157.402, 333.602
158.786, 299.707
160.170, 235.867
161.554, 209.115
162.937, 157.241
164.320, 141.449
165.703, 161.608
167.086, 121.774
168.469, 141.824
169.851, 128.921
171.233, 128.949
172.615, 110.999
173.996, 106.101
175.378, 113.218
176.759, 115.106
178.140, 123.890
179.521, 100.575
180.901, 104.159
182.281, 97.674
183.662, 123.005
185.041, 123.422
186.421, 138.742
187.800, 144.936
189.180, 153.116
190.558, 152.095
191.937, 148.054
193.316, 145.939
194.694, 105.732
196.072, 120.520
197.450, 101.228
198.827, 76.806
200.205, 116.406
201.582, 97.914
202.959, 89.400
204.336, 87.689
205.712, 93.121
207.088, 106.381
208.465, 80.536
209.840, 91.594
211.216, 79.757
212.591, 69.807
213.967, 83.852
215.341, 66.642
216.716, 74.399
218.091, 50.173
219.465, 81.174
220.839, 71.926
222.213, 60.631
223.586, 68.486
224.960, 70.266
226.333, 67.084
227.706, 74.939
229.079, 80.635
230.451, 58.119
231.823, 57.574
233.195, 68.047
234.567, 55.436
235.939, 62.675
237.310, 71.112
238.682, 47.184
240.052, 77.930
241.423, 66.878
242.794, 82.749
244.164, 76.907
245.534, 76.872
246.904, 57.085
248.274, 63.327
249.643, 55.505
251.012, 73.885
252.381, 37.542
253.750, 71.972
255.118, 40.551
256.487, 53.298
257.855, 59.120
259.223, 64.989
260.590, 38.975
261.958, 68.942
263.325, 51.993
264.692, 67.991
266.059, 46.992
267.425, 60.989
268.791, 43.928
270.158, 51.924
271.523, 65.880
272.889, 52.848
274.255, 57.734
275.620, 36.724
276.985, 36.623
278.350, 44.516
279.714, 43.386
281.078, 49.252
282.443, 31.115
283.806, 59.975
285.170, 15.831
286.534, 19.684
287.897, 38.533
289.260, 46.380
290.623, 45.223
291.985, 27.063
293.348, 26.900
294.710, 25.734
296.072, 29.565
297.433, 44.393
298.795, 32.218
300.156, 23.040
301.517, 37.859
302.878, 24.675
304.239, 30.487
305.599, 28.295
306.959, 44.101
308.319, 35.903
309.679, 29.701
311.038, 38.497
312.398, 37.289
313.757, 43.078
315.116, 38.990
316.474, 34.648
317.833, 31.428
319.191, 29.073
320.549, 28.263
321.907, 26.753
323.264, 28.522
324.622, 30.280
325.979, 30.275
327.336, 28.763
328.692, 26.490
330.049, 18.207
331.405, 12.915
332.761, 14.641
334.117, 28.303
335.473, 14.984
336.828, 37.657
338.183, 31.323
339.538, 10.982
340.893, 20.634
342.247, 23.279
343.602, 23.919
344.956, 31.552
346.310, 27.180
347.663, 18.802
349.017, 22.420
350.370, 26.032
351.723, 5.640
353.076, 18.244
354.428, 18.843
355.780, 32.439
357.133, 2.032
358.484, 13.622
359.836, 0.233
361.188, 11.815
362.539, 9.380
363.890, 0.959
365.241, 2.555
366.591, 10.021
367.942, 18.593
369.292, 17.126
370.642, 12.694
371.992, 25.260
373.341, 5.177
374.691, 11.384
376.040, 39.944
377.388, 4.464
378.737, 1.016
380.086, 11.543
381.434, 25.057
382.782, 3.609
384.130, 3.168
385.477, 19.655
386.825, 22.218
388.172, 29.783
389.519, 29.350
390.865, 16.920
392.212, 49.491
393.558, 40.060
394.904, 43.634
396.250, 17.204
397.596, 6.779
398.941, 16.268
400.286, 23.843
401.631, 22.350
402.976, 11.916
404.321, 16.488
405.665, 12.058
407.009, 18.555
408.353, 0.119
409.697, 9.673
411.040, 8.231
412.384, 7.758
413.727, 19.310
415.070, 5.822
416.412, 13.370
417.755, 9.916
419.097, 28.459
420.439, 3.000
421.781, 21.472
423.122, 21.943
424.464, 31.451
425.805, 30.953
427.146, 57.483
428.486, 33.928
429.827, 37.461
431.167, 60.839
432.507, 73.238
433.847, 82.723
435.187, 101.243
436.526, 143.759
437.865, 181.191
439.204, 210.621
440.543, 286.045
441.882, 356.488
443.220, 481.000
444.558, 654.455
445.896, 859.868
447.234, 1212.350
448.572, 1596.770
449.909, 2356.217
451.246, 3056.653
452.583, 3913.162
453.919, 4341.631
455.256, 3924.072
456.592, 3226.552
457.928, 2412.028
459.264, 1830.529
460.600, 1524.014
461.935, 1304.478
463.270, 1146.927
464.605, 911.366
465.940, 659.800
467.274, 482.228
468.609, 397.663
469.943, 263.106
471.277, 218.549
472.610, 163.984
473.944, 133.409
475.277, 113.796
476.610, 107.157
477.943, 88.525
479.275, 82.956
480.608, 79.325
481.940, 75.799
483.272, 66.242
484.604, 55.590
485.935, 51.983
487.267, 48.136
488.598, 41.795
489.929, 51.239
491.260, 40.665
492.590, 51.051
493.920, 46.453
495.250, 25.876
496.580, 25.203
497.910, 34.589
499.239, 59.978
500.569, 24.432
501.898, 30.744
503.226, 13.109
504.555, 30.411
505.883, 37.768
507.212, 33.115
508.540, 32.423
509.867, 18.687
511.195, 22.979
512.522, 29.425
513.849, 19.806
515.176, 34.166
516.503, 20.585
517.829, 46.797
519.156, 54.150
520.482, 38.599
521.808, 68.919
523.133, 58.205
524.459, 28.557
525.784, 54.971
527.109, 65.285
528.434, 48.596
529.758, 37.983
531.083, 55.382
532.407, 61.815
533.731, 41.245
535.055, 52.682
536.378, 46.222
537.701, 35.685
539.025, 31.112
540.348, 31.742
541.670, 29.863
542.993, 30.303
544.315, 30.911
545.637, 32.356
546.959, 34.794
548.281, 34.909
549.602, 29.559
550.923, 38.927
552.244, 33.273
553.565, 30.598
554.886, 46.937
556.206, 19.410
557.526, 42.002
558.846, 22.305
560.166, 35.882
561.486, 33.223
562.805, 20.646
564.124, 57.930
565.443, 42.503
566.762, 62.028
568.080, 37.467
569.399, 30.348
570.717, 54.731
572.035, 43.857
573.352, 31.793
574.670, 43.748
575.987, 32.123
577.304, 70.497
578.621, 51.205
579.938, 62.770
581.254, 64.175
582.570, 65.582
583.886, 94.251
585.202, 75.938
586.518, 82.482
587.833, 112.929
589.148, 88.628
590.463, 137.981
591.778, 109.579
593.093, 136.971
594.407, 158.318
595.721, 158.663
597.035, 187.005
598.349, 199.445
599.662, 223.044
600.976, 239.404
602.289, 254.414
603.602, 275.745
604.914, 310.376
606.227, 381.982
607.539, 471.305
608.851, 603.927
610.163, 785.245
611.475, 1126.676
612.786, 1683.219
614.097, 2468.531
615.408, 3581.139
616.719, 4746.479
618.030, 5049.783
619.340, 4622.085
620.651, 3724.385
621.961, 2886.683
623.270, 2246.978
624.580, 1843.270
625.889, 1627.560
627.199, 1474.848
628.507, 1472.133
629.816, 1478.417
631.125, 1388.135
632.433, 1184.828
633.741, 910.103
635.049, 636.376
636.357, 480.341
637.664, 326.609
638.972, 314.176
640.279, 233.439
641.586, 232.002
642.893, 217.353
644.199, 184.609
645.505, 192.067
646.811, 163.328
648.117, 157.837
649.423, 164.083
650.728, 158.327
652.034, 146.566
653.339, 144.805
654.644, 132.042
655.948, 103.275
657.253, 89.506
658.557, 76.431
659.861, 67.961
661.165, 61.186
662.468, 49.407
663.772, 55.625
665.075, 46.001
666.378, 40.055
667.681, 35.266
668.983, 41.474
670.286, 32.680
671.588, 33.883
672.890, 27.084
674.192, 29.281
675.493, 5.475
676.795, 0.667
678.096, 11.853
679.397, 30.074
680.697, 10.254
681.998, 14.510
683.298, 0.315
684.598, 1.329
685.898, 7.021
687.198, 1.184
688.498, 6.343
689.797, 16.499
691.096, 38.652
692.395, 3.802
693.694, 26.000
694.992, 13.144
696.290, 1.714
697.589, 4.576
698.886, 17.556
700.184, 5.314
701.482, 12.812
702.779, 10.934
704.076, 20.053
705.373, 3.831
706.669, 1.719
707.966, 5.388
709.262, 16.508
710.558, 23.589
711.854, 27.318
713.150, 19.235
714.445, 20.159
715.740, 24.907
717.035, 18.971
718.330, 9.968
719.625, 3.913
720.919, 7.137
722.214, 6.184
723.508, 8.772
724.801, 9.735
726.095, 3.703
727.388, 0.324
728.682, 10.652
729.975, 14.365
731.267, 6.620
732.560, 4.389
733.852, 40.395
735.145, 24.399
736.437, 16.400
737.728, 0.602
739.020, 7.608
740.311, 7.381
741.603, 25.633
742.894, 12.344
744.184, 9.681
745.475, 8.713
746.765, 13.251
748.055, 9.788
749.345, 16.167
750.635, 1.880
751.925, 6.931
753.214, 11.013
754.503, 10.045
755.792, 2.892
757.081, 21.825
758.370, 10.756
759.658, 14.685
760.946, 10.611
762.234, 16.535
763.522, 29.457
764.809, 15.376
766.097, 39.293
767.384, 9.208
768.671, 19.120
769.958, 16.970
771.244, 16.066
772.530, 9.831
773.817, 17.727
775.102, 28.380
776.388, 13.504
777.674, 11.614
778.959, 19.263
780.244, 11.862
781.529, 2.993
782.814, 13.874
784.098, 9.261
785.383, 2.599
786.667, 10.543
787.951, 24.311
789.235, 4.163
790.518, 17.013
791.801, 15.861
793.084, 40.707
794.367, 5.551
795.650, 24.394
796.933, 14.234
798.215, 29.073
799.497, 1.911
800.779, 9.746
802.061, 23.581
803.342, 10.413
804.624, 32.244
805.905, 2.073
807.186, 21.901
808.466, 15.727
809.747, 1.552
811.027, 29.376
812.307, 28.198
813.587, 33.018
814.867, 30.773
816.146, 7.481
817.426, 2.737
818.705, 19.078
819.984, 5.149
821.263, 21.641
822.541, 25.320
823.819, 37.974
825.098, 32.728
826.375, 24.437
827.653, 11.186
828.931, 2.983
830.208, 14.787
831.485, 4.477
832.762, 25.324
834.039, 33.102
835.315, 13.743
836.592, 32.317
837.868, 51.114
839.144, 15.671
840.420, 25.446
841.695, 13.213
842.970, 48.008
844.246, 13.600
845.521, 60.240
846.795, 65.981
848.070, 52.278
849.344, 49.071
850.618, 75.118
851.892, 30.353
853.166, 91.568
854.440, 96.360
855.713, 51.152
856.986, 102.607
858.259, 91.203
859.532, 102.957
860.804, 103.707
862.077, 113.194
863.349, 107.448
864.621, 113.267
865.893, 91.970
867.164, 72.419
868.436, 59.212
869.707, 53.758
870.978, 58.508
872.248, 45.302
873.519, 62.097
874.789, 31.892
876.060, 78.587
877.330, 47.121
878.599, 37.893
879.869, 47.013
881.138, 43.811
882.408, 40.597
883.677, 37.826
884.945, 30.626
886.214, 34.126
887.482, 21.928
888.751, 31.913
890.019, 63.192
891.287, 39.997
892.554, 58.504
893.822, 44.278
895.089, 71.087
896.356, 76.896
897.623, 74.708
898.889, 105.520
900.156, 114.333
901.422, 74.148
902.688, 81.965
903.954, 70.782
905.220, 76.602
906.485, 98.424
907.750, 54.809
909.015, 79.218
910.280, 66.044
911.545, 85.872
912.809, 105.006
914.074, 44.836
915.338, 92.368
916.602, 68.202
917.865, 78.736
919.129, 87.481
920.392, 55.322
921.655, 73.929
922.918, 69.764
924.181, 83.350
925.443, 78.200
926.706, 53.053
927.968, 80.909
929.230, 63.770
930.491, 61.634
931.753, 96.501
933.014, 77.372
934.276, 114.244
935.536, 83.121
936.797, 100.000
938.058, 131.883
939.318, 104.770
940.578, 101.660
941.838, 126.552
943.098, 108.447
944.358, 144.344
945.617, 116.245
946.876, 83.147
948.135, 147.052
949.394, 107.960
950.653, 140.870
951.911, 120.783
953.169, 141.700
954.427, 155.582
955.685, 129.504
956.943, 157.350
958.200, 144.277
959.458, 138.208
960.715, 185.142
961.971, 182.080
963.228, 262.020
964.485, 324.964
965.741, 386.911
966.997, 417.860
968.253, 413.763
969.508, 410.718
970.764, 511.677
972.019, 581.639
973.274, 636.606
974.529, 767.576
975.784, 830.549
977.039, 967.526
978.293, 1222.506
979.547, 1634.490
980.801, 2319.477
982.055, 3365.469
983.308, 5511.463
984.562, 9809.463
985.815, 21258.475
987.068, 45567.484
988.321, 64486.508
989.573, 60205.520
990.826, 35644.547
992.078, 18783.576
993.330, 10342.609
994.582, 5996.646
995.833, 3647.687
997.085, 2488.732
998.336, 1778.781
999.587, 1399.834
1000.838, 1170.893
1002.088, 995.955
1003.339, 927.021
1004.589, 743.092
1005.839, 679.167
1007.089, 567.245
1008.339, 489.326
1009.588, 439.411
1010.838, 393.500
1012.087, 366.592
1013.336, 334.913
1014.584, 327.789
1015.833, 305.897
1017.081, 280.007
1018.330, 295.122
1019.577, 325.243
1020.825, 313.366
1022.073, 282.495
1023.320, 309.626
1024.567, 270.762
1025.814, 310.903
1027.061, 319.047
1028.308, 355.195
1029.554, 360.348
1030.800, 273.503
1032.046, 262.663
1033.292, 219.825
1034.538, 183.991
1035.783, 187.161
1037.029, 151.334
1038.274, 130.510
1039.519, 125.868
1040.763, 129.051
1042.008, 101.238
1043.252, 88.431
1044.496, 73.628
1045.740, 67.131
1046.984, 78.034
1048.228, 66.245
1049.471, 81.460
1050.714, 86.679
1051.957, 99.902
1053.200, 117.297
1054.442, 170.528
1055.685, 319.763
1056.927, 365.064
1058.169, 299.307
1059.411, 167.682
1060.652, 129.146
1061.894, 103.672
1063.135, 83.465
1064.376, 107.749
1065.617, 67.422
1066.858, 69.742
1068.098, 83.011
1069.339, 60.713
1070.579, 82.989
1071.819, 120.748
1073.058, 111.185
1074.298, 135.561
1075.537, 195.872
1076.776, 214.166
1078.015, 307.596
1079.254, 337.895
1080.493, 460.199
1081.731, 606.509
1082.969, 683.824
1084.207, 707.804
1085.445, 727.463
1086.683, 629.787
1087.920, 546.113
1089.157, 372.445
1090.394, 286.779
1091.631, 202.118
1092.868, 165.461
1094.105, 153.810
1095.341, 114.161
1096.577, 141.516
1097.813, 158.874
1099.049, 148.236
1100.284, 159.600
1101.519, 269.967
1102.755, 331.337
1103.990, 395.713
1105.224, 416.090
1106.459, 346.476
1107.693, 263.865
1108.928, 185.256
1110.162, 165.650
1111.395, 144.047
1112.629, 62.446
1113.863, 81.849
1115.096, 64.255
1116.329, 36.662
1117.562, 55.073
1118.795, 0.514
1120.027, 30.901
1121.259, 31.318
1122.492, 20.738
1123.723, 34.159
1124.955, 21.583
1126.187, 2.009
1127.418, 6.436
1128.649, 2.809
1129.880, 51.298
1131.111, 19.732
1132.342, 47.168
1133.572, 72.605
1134.802, 78.045
1136.033, 53.487
1137.262, 117.932
1138.492, 139.379
1139.722, 195.830
1140.951, 258.282
1142.180, 295.735
1143.409, 353.191
1144.638, 404.648
1145.866, 373.107
1147.095, 336.570
1148.323, 267.034
1149.551, 186.500
1150.779, 159.968
1152.006, 131.438
1153.234, 128.908
1154.461, 88.380
1155.688, 49.854
1156.915, 53.329
1158.141, 34.806
1159.368, 35.284
1160.594, 33.763
1161.820, 40.244
1163.046, 42.726
1164.272, 12.210
1165.498, 16.694
1166.723, 77.180
1167.948, 9.667
1169.173, 49.154
1170.398, 28.643
1171.623, 12.867
1172.847, 32.622
1174.071, 10.194
1175.295, 5.685
1176.519, 13.176
1177.743, 20.669
1178.966, 24.162
1180.190, 22.391
1181.413, 31.150
1182.636, 10.645
1183.858, 1.141
1185.081, 11.363
1186.303, 9.132
1187.526, 5.627
1188.748, 4.877
1189.969, 24.618
1191.191, 8.886
1192.412, 13.391
1193.634, 15.899
1194.855, 27.081
1196.076, 1.923
1197.296, 21.439
1198.517, 3.958
1199.737, 19.523
1200.957, 21.997
1202.177, 25.479
1203.397, 24.045
1204.617, 9.561
1205.836, 6.092
1207.055, 1.461
1208.274, 33.490
1209.493, 8.042
1210.712, 3.424
1211.930, 47.217
1213.148, 19.353
1214.367, 42.330
1215.584, 41.794
1216.802, 17.302
1218.020, 58.766
1219.237, 76.229
1220.454, 28.144
1221.671, 32.607
1222.888, 9.231
1224.105, 21.176
1225.321, 29.185
1226.537, 32.645
1227.753, 32.340
1228.969, 37.398
1230.185, 32.505
1231.400, 39.961
1232.616, 28.437
1233.831, 23.104
1235.046, 60.975
1236.261, 51.428
1237.475, 59.939
1238.689, 60.700
1239.904, 82.150
1241.118, 111.598
1242.332, 47.046
1243.545, 60.598
1244.759, 34.376
1245.972, 65.822
1247.185, 67.267
1248.398, 82.860
1249.611, 34.305
1250.823, 72.741
1252.036, 44.185
1253.248, 59.629
1254.460, 51.072
1255.671, 22.515
1256.883, 32.958
1258.095, 51.400
1259.306, 24.841
1260.517, 29.282
1261.728, 37.722
1262.938, 19.162
1264.149, 33.601
1265.359, 23.099
1266.569, 32.614
1267.779, 64.096
1268.989, 50.887
1270.199, 68.410
1271.408, 70.856
1272.617, 54.290
1273.826, 90.722
1275.035, 87.153
1276.244, 90.672
1277.452, 72.391
1278.661, 74.094
1279.869, 49.317
1281.077, 63.743
1282.285, 58.169
1283.492, 49.593
1284.700, 43.016
1285.907, 22.439
1287.114, 31.860
1288.321, 37.291
1289.527, 71.711
1290.734, 30.129
1291.940, 46.542
1293.146, 41.953
1294.352, 32.356
1295.558, 47.754
1296.763, 49.150
1297.969, 43.542
1299.174, 59.931
1300.379, 75.310
1301.584, 16.685
1302.788, 26.879
1303.993, 2.249
1305.197, 26.612
1306.401, 47.964
1307.605, 30.311
1308.809, 41.656
1310.013, 85.995
1311.216, 50.332
1312.419, 79.665
1313.622, 62.997
1314.825, 67.326
1316.028, 78.486
1317.230, 65.811
1318.432, 68.134
1319.634, 49.392
1320.836, 63.708
1322.038, 70.889
1323.240, 61.981
1324.441, 41.009
1325.642, 47.771
1326.843, 35.037
1328.044, 49.914
1329.245, 43.143
1330.445, 26.423
1331.645, 37.270
1332.845, 37.542
1334.045, 6.329
1335.245, 29.439
1336.445, 2.392
1337.644, 16.158
1338.843, 25.093
1340.042, 11.207
1341.241, 9.549
1342.440, 24.309
1343.638, 17.446
1344.836, 14.152
1346.034, 3.377
1347.232, 14.599
1348.430, 25.817
1349.628, 14.967
1350.825, 8.244
1352.022, 2.549
1353.219, 16.344
1354.416, 19.144
1355.613, 24.052
1356.809, 5.755
1358.005, 15.436
1359.202, 6.375
1360.398, 18.811
1361.593, 4.997
1362.789, 4.818
1363.984, 13.634
1365.179, 19.548
1366.374, 41.268
1367.569, 9.087
1368.764, 22.096
1369.958, 10.284
1371.153, 13.480
1372.347, 0.312
1373.541, 10.084
1374.735, 20.273
1375.928, 22.627
1377.122, 2.022
1378.315, 20.327
1379.508, 25.673
1380.701, 9.017
1381.893, 20.358
1383.086, 37.697
1384.278, 13.033
1385.470, 31.365
1386.662, 37.689
1387.854, 16.010
1389.046, 11.329
1390.237, 10.641
1391.428, 22.948
1392.619, 16.252
1393.810, 2.552
1395.001, 2.850
1396.191, 2.144
1397.382, 10.566
1398.572, 1.057
1399.762, 7.005
1400.952, 17.286
1402.141, 30.563
1403.331, 37.734
1404.520, 1.008
1405.709, 7.721
1406.898, 1.961
1408.087, 36.815
1409.275, 14.081
1410.464, 30.346
1411.652, 14.610
1412.840, 38.876
1414.028, 14.150
1415.215, 25.431
1416.403, 7.716
1417.590, 24.006
1418.777, 12.287
1419.964, 12.578
1421.151, 9.868
1422.338, 17.547
1423.524, 26.977
1424.710, 15.162
1425.896, 23.198
1427.082, 27.414
1428.268, 24.054
1429.453, 34.846
1430.639, 39.601
1431.824, 35.762
1433.009, 56.781
1434.194, 103.943
1435.378, 57.482
1436.563, 89.609
1437.747, 110.853
1438.931, 93.951
1440.115, 127.730
1441.299, 146.800
1442.482, 179.858
1443.666, 194.905
1444.849, 154.938
1446.032, 210.959
1447.215, 191.966
1448.397, 204.679
1449.580, 207.610
1450.762, 219.291
1451.944, 237.199
1453.126, 214.857
1454.308, 218.744
1455.490, 236.563
1456.671, 259.359
1457.852, 215.127
1459.033, 240.833
1460.214, 218.539
1461.395, 193.240
1462.575, 188.968
1463.756, 158.691
1464.936, 153.432
1466.116, 165.193
1467.296, 141.955
1468.475, 119.795
1469.655, 98.640
1470.834, 117.490
1472.013, 86.328
1473.192, 87.148
1474.371, 66.949
1475.550, 58.906
1476.728, 48.623
1477.906, 58.511
1479.084, 55.434
1480.262, 81.376
1481.440, 52.347
1482.617, 108.351
1483.795, 75.392
1484.972, 73.472
1486.149, 100.588
1487.326, 25.753
1488.502, 48.985
1489.679, 21.295
1490.855, 36.693
1492.031, 35.198
1493.207, 21.836
1494.383, 28.802
1495.559, 22.687
1496.734, 27.045
1497.909, 7.877
1499.084, 10.497
1500.259, 0.000
##END=



