##NAMES=Baryte
##RRUFFID=R040036
##IDEAL CHEMISTRY=BaS^6+^O_4_
##LOCALITY=Cumbria County, England
##OWNER=RRUFF
##SOURCE=University of Arizona Mineral Museum
##DESCRIPTION=Golden brown tabular crystal
##STATUS=The identification of this mineral has been confirmed by X-ray diffraction and chemical analysis
##URL=rruff.info/R040036
##MEASURED CHEMISTRY=Ba_1.00_S_1.00_O_4_; trace amounts of Pb
##PIN_ID=M00021
##ORIENTATION=Laser parallel to c* (0 0 1). Fiducial mark perpendicular to laser is parallel to -a [-1 0 0]
26.288, 0.000
27.694, 1.423
29.099, 41.078
30.504, 34.146
31.909, 6.243
33.313, 27.988
34.717, 8.757
36.121, 5.898
37.525, 19.944
38.929, 92.606
40.332, 100.155
41.735, 140.874
43.138, 180.232
44.541, 212.475
45.943, 253.305
47.345, 249.821
48.747, 241.922
50.149, 191.985
51.551, 145.693
52.952, 161.137
54.353, 204.891
55.754, 169.660
57.155, 194.425
58.555, 183.556
59.955, 182.287
61.355, 211.271
62.755, 160.750
64.154, 150.115
65.553, 162.389
66.952, 175.623
68.351, 148.416
69.750, 153.712
71.148, 148.675
72.546, 125.953
73.944, 107.414
75.342, 84.188
76.739, 63.655
78.136, 43.101
79.533, 46.525
80.930, 38.057
82.327, 26.924
83.723, 18.413
85.119, 4.294
86.515, 6.957
87.910, 23.827
89.306, 24.647
90.701, 44.505
92.096, 31.397
93.490, 36.321
94.885, 27.016
96.279, 32.742
97.673, 32.885
99.067, 17.739
100.461, 8.725
101.854, 11.893
103.247, 2.144
104.640, 5.796
106.032, 31.717
107.425, 60.290
108.817, 57.415
110.209, 64.624
111.601, 59.325
112.992, 70.062
114.384, 91.680
115.775, 100.300
117.166, 115.920
118.556, 110.432
119.947, 127.207
121.337, 146.809
122.727, 148.374
124.116, 197.876
125.506, 191.275
126.895, 233.520
128.284, 224.801
129.673, 218.729
131.062, 202.654
132.450, 187.822
133.838, 169.688
135.226, 153.790
136.614, 143.694
138.001, 142.570
139.388, 149.420
140.775, 161.112
142.162, 180.695
143.549, 197.201
144.935, 219.586
146.321, 251.034
147.707, 310.577
149.093, 343.947
150.478, 381.439
151.863, 393.852
153.248, 401.175
154.633, 349.473
156.018, 310.816
157.402, 255.270
158.786, 204.628
160.170, 212.847
161.554, 150.126
162.937, 124.362
164.320, 148.651
165.703, 121.774
167.086, 106.857
168.469, 95.991
169.851, 86.010
171.233, 76.453
172.615, 96.103
173.996, 69.111
175.378, 80.090
176.759, 98.827
178.140, 95.313
179.521, 100.608
180.901, 87.654
182.281, 92.440
183.662, 99.147
185.041, 86.515
186.421, 93.672
187.800, 133.906
189.180, 138.168
190.558, 150.304
191.937, 134.443
193.316, 142.377
194.694, 107.303
196.072, 111.009
197.450, 112.691
198.827, 100.244
200.205, 109.599
201.582, 116.003
202.959, 110.180
204.336, 112.314
205.712, 100.302
207.088, 118.139
208.465, 113.907
209.840, 113.577
211.216, 93.136
212.591, 92.458
213.967, 97.637
215.341, 102.752
216.716, 88.870
218.091, 107.885
219.465, 95.854
220.839, 100.791
222.213, 102.575
223.586, 99.328
224.960, 105.270
226.333, 109.133
227.706, 111.670
229.079, 112.917
230.451, 115.101
231.823, 97.107
233.195, 110.007
234.567, 116.452
235.939, 88.133
237.310, 86.118
238.682, 97.176
240.052, 103.703
241.423, 78.553
242.794, 65.274
244.164, 73.151
245.534, 81.900
246.904, 72.582
248.274, 67.642
249.643, 64.931
251.012, 57.152
252.381, 70.537
253.750, 75.128
255.118, 80.037
256.487, 67.222
257.855, 69.410
259.223, 82.629
260.590, 72.859
261.958, 92.026
263.325, 71.384
264.692, 75.686
266.059, 62.032
267.425, 61.447
268.791, 69.821
270.158, 77.276
271.523, 63.740
272.889, 55.273
274.255, 54.793
275.620, 72.300
276.985, 67.795
278.350, 69.279
279.714, 65.773
281.078, 70.234
282.443, 62.685
283.806, 59.075
285.170, 50.410
286.534, 43.733
287.897, 43.079
289.260, 62.472
290.623, 68.858
291.985, 57.234
293.348, 49.602
294.710, 58.961
296.072, 58.311
297.433, 52.651
298.795, 41.983
300.156, 52.305
301.517, 67.619
302.878, 53.925
304.239, 60.223
305.599, 63.511
306.959, 53.791
308.319, 54.063
309.679, 69.324
311.038, 56.461
312.398, 59.706
313.757, 57.822
315.116, 49.864
316.474, 54.851
317.833, 52.788
319.191, 56.677
320.549, 49.653
321.907, 59.499
323.264, 33.393
324.622, 26.348
325.979, 27.298
327.336, 42.176
328.692, 33.008
330.049, 44.841
331.405, 63.685
332.761, 69.452
334.117, 48.236
335.473, 56.189
336.828, 60.145
338.183, 36.117
339.538, 56.022
340.893, 32.948
342.247, 54.696
343.602, 36.447
344.956, 42.191
346.310, 62.865
347.663, 29.570
349.017, 55.292
350.370, 41.976
351.723, 48.659
353.076, 55.277
354.428, 40.969
355.780, 35.633
357.133, 35.288
358.484, 39.840
359.836, 37.384
361.188, 45.968
362.539, 49.550
363.890, 37.064
365.241, 45.661
366.591, 42.200
367.942, 47.757
369.292, 32.336
370.642, 31.882
371.992, 35.452
373.341, 30.040
374.691, 38.639
376.040, 33.245
377.388, 39.861
378.737, 35.396
380.086, 41.993
381.434, 39.627
382.782, 40.134
384.130, 18.641
385.477, 32.210
386.825, 26.823
388.172, 28.330
389.519, 39.795
390.865, 36.990
392.212, 48.859
393.558, 40.387
394.904, 33.901
396.250, 30.410
397.596, 41.890
398.941, 29.440
400.286, 38.015
401.631, 33.616
402.976, 25.158
404.321, 30.709
405.665, 15.335
407.009, 57.905
408.353, 21.565
409.697, 39.128
411.040, 42.711
412.384, 19.281
413.727, 45.825
415.070, 46.380
416.412, 37.969
417.755, 40.494
419.097, 61.978
420.439, 52.459
421.781, 42.022
423.122, 62.563
424.464, 34.157
425.805, 56.687
427.146, 62.236
428.486, 67.749
429.827, 59.245
431.167, 71.700
432.507, 75.125
433.847, 96.547
435.187, 110.058
436.526, 145.599
437.865, 145.084
439.204, 201.535
440.543, 228.028
441.882, 285.518
443.220, 376.981
444.558, 455.393
445.896, 670.853
447.234, 947.628
448.572, 1231.851
449.909, 1720.347
451.246, 2229.858
452.583, 2793.323
453.919, 2799.789
455.256, 2535.326
456.592, 2316.803
457.928, 2210.294
459.264, 2627.777
460.600, 2979.225
461.935, 3261.699
463.270, 2899.166
464.605, 2185.651
465.940, 1563.105
467.274, 1097.606
468.609, 765.988
469.943, 516.338
471.277, 362.695
472.610, 293.122
473.944, 208.508
475.277, 174.951
476.610, 150.482
477.943, 133.043
479.275, 104.507
480.608, 117.009
481.940, 108.530
483.272, 78.940
484.604, 81.444
485.935, 64.842
487.267, 71.343
488.598, 83.760
489.929, 70.207
491.260, 45.752
492.590, 64.144
493.920, 42.659
495.250, 41.113
496.580, 50.601
497.910, 43.122
499.239, 51.579
500.569, 24.013
501.898, 26.771
503.226, 22.909
504.555, 16.362
505.883, 40.856
507.212, 41.369
508.540, 49.828
509.867, 31.329
511.195, 40.817
512.522, 16.334
513.849, 42.781
515.176, 52.229
516.503, 41.696
517.829, 54.140
519.156, 48.626
520.482, 51.090
521.808, 49.162
523.133, 40.066
524.459, 34.578
525.784, 38.080
527.109, 19.602
528.434, 36.012
529.758, 26.529
531.083, 51.016
532.407, 15.479
533.731, 55.007
535.055, 39.600
536.378, 29.164
537.701, 35.692
539.025, 26.617
540.348, 40.682
541.670, 27.329
542.993, 25.817
544.315, 31.432
545.637, 24.961
546.959, 36.462
548.281, 13.558
549.602, 37.023
550.923, 21.718
552.244, 32.181
553.565, 22.767
554.886, 4.682
556.206, 9.168
557.526, 18.749
558.846, 29.516
560.166, 26.064
561.486, 30.669
562.805, 29.257
564.124, 16.328
565.443, 14.911
566.762, 4.501
568.080, 22.080
569.399, 23.654
570.717, 24.371
572.035, 17.967
573.352, 33.566
574.670, 15.485
575.987, 17.064
577.304, 34.696
578.621, 27.304
579.938, 37.885
581.254, 53.753
582.570, 58.333
583.886, 55.888
585.202, 50.493
586.518, 71.047
587.833, 67.635
589.148, 89.220
590.463, 73.927
591.778, 89.855
593.093, 83.133
594.407, 106.721
595.721, 115.273
597.035, 117.827
598.349, 122.385
599.662, 125.935
600.976, 145.544
602.289, 174.400
603.602, 197.335
604.914, 237.192
606.227, 280.740
607.539, 380.314
608.851, 468.860
610.163, 612.586
611.475, 911.164
612.786, 1367.989
614.097, 2181.586
615.408, 3055.132
616.719, 3587.771
618.030, 3559.315
619.340, 2901.865
620.651, 2220.566
621.961, 1750.111
623.270, 1356.651
624.580, 1167.213
625.889, 1075.763
627.199, 1099.301
628.507, 1185.840
629.816, 1174.377
631.125, 1139.053
632.433, 853.589
633.741, 644.124
635.049, 435.820
636.357, 301.354
637.664, 248.886
638.972, 181.474
640.279, 122.004
641.586, 174.634
642.893, 151.219
644.199, 150.134
645.505, 152.661
646.811, 167.166
648.117, 152.691
649.423, 130.297
650.728, 108.877
652.034, 105.508
653.339, 92.074
654.644, 64.578
655.948, 44.097
657.253, 61.615
658.557, 36.132
659.861, 47.782
661.165, 24.297
662.468, 36.871
663.772, 14.475
665.075, 15.987
666.378, 21.497
667.681, 8.006
668.983, 13.513
670.286, 2.144
671.588, 3.837
672.890, 19.375
674.192, 8.871
675.493, 2.414
676.795, 22.085
678.096, 13.582
679.397, 23.274
680.697, 16.887
681.998, 3.620
683.298, 18.871
684.598, 2.640
685.898, 6.848
687.198, 4.333
688.498, 25.183
689.797, 3.555
691.096, 4.970
692.395, 10.502
693.694, 2.111
694.992, 14.420
696.290, 3.995
697.589, 6.429
698.886, 8.110
700.184, 28.532
701.482, 0.987
702.779, 4.440
704.076, 21.074
705.373, 5.370
706.669, 3.812
707.966, 1.205
709.262, 6.643
710.558, 5.921
711.854, 1.512
713.150, 0.671
714.445, 14.629
715.740, 4.794
717.035, 1.784
718.330, 0.366
719.625, 4.051
720.919, 12.535
722.214, 3.875
723.508, 9.282
724.801, 0.312
726.095, 12.092
727.388, 1.493
728.682, 1.893
729.975, 5.709
731.267, 2.762
732.560, 6.077
733.852, 0.466
735.145, 14.854
736.437, 7.240
737.728, 6.222
739.020, 19.011
740.311, 2.609
741.603, 11.231
742.894, 15.858
744.184, 12.490
745.475, 13.873
746.765, 1.234
748.055, 12.594
749.345, 7.049
750.635, 0.305
751.925, 11.343
753.214, 0.995
754.503, 18.350
755.792, 3.307
757.081, 13.034
758.370, 4.373
759.658, 6.290
760.946, 5.044
762.234, 9.377
763.522, 0.707
764.809, 3.036
766.097, 10.363
767.384, 4.688
768.671, 6.011
769.958, 5.667
771.244, 15.652
772.530, 8.969
773.817, 6.716
775.102, 11.596
776.388, 18.907
777.674, 1.784
778.959, 7.522
780.244, 4.173
781.529, 1.870
782.814, 16.570
784.098, 17.725
785.383, 7.019
786.667, 13.311
787.951, 3.399
789.235, 2.111
790.518, 4.825
791.801, 1.541
793.084, 2.317
794.367, 2.020
795.650, 6.298
796.933, 7.576
798.215, 6.149
799.497, 6.124
800.779, 2.604
802.061, 4.335
803.342, 22.932
804.624, 21.198
805.905, 4.462
807.186, 20.711
808.466, 6.027
809.747, 8.809
811.027, 1.587
812.307, 10.667
813.587, 10.090
814.867, 8.076
816.146, 7.325
817.426, 9.428
818.705, 6.184
819.984, 23.058
821.263, 5.194
822.541, 10.434
823.819, 0.585
825.098, 8.804
826.375, 3.010
827.653, 13.351
828.931, 3.846
830.208, 19.945
831.485, 7.826
832.762, 16.361
834.039, 1.235
835.315, 2.431
836.592, 0.637
837.868, 10.345
839.144, 4.876
840.420, 8.053
841.695, 2.755
842.970, 31.953
844.246, 17.149
845.521, 27.337
846.795, 10.513
848.070, 17.713
849.344, 28.770
850.618, 13.947
851.892, 16.120
853.166, 20.972
854.440, 14.164
855.713, 48.302
856.986, 20.463
858.259, 51.651
859.532, 60.551
860.804, 63.739
862.077, 56.950
863.349, 55.734
864.621, 49.323
865.893, 33.500
867.164, 38.680
868.436, 12.737
869.707, 13.856
870.978, 23.056
872.248, 24.229
873.519, 8.439
874.789, 0.355
876.060, 10.847
877.330, 8.055
878.599, 23.178
879.869, 12.108
881.138, 10.929
882.408, 34.830
883.677, 29.039
884.945, 36.221
886.214, 25.430
887.482, 40.459
888.751, 58.637
890.019, 36.567
891.287, 34.725
892.554, 46.936
893.822, 40.795
895.089, 73.264
896.356, 59.468
897.623, 57.521
898.889, 83.730
900.156, 64.943
901.422, 64.134
902.688, 48.337
903.954, 85.551
905.220, 72.765
906.485, 70.980
907.750, 81.056
909.015, 57.272
910.280, 69.489
911.545, 67.544
912.809, 56.763
914.074, 63.982
915.338, 44.145
916.602, 75.367
917.865, 88.491
919.129, 61.659
920.392, 83.498
921.655, 45.725
922.918, 64.953
924.181, 85.182
925.443, 57.332
926.706, 75.506
927.968, 67.631
929.230, 62.822
930.491, 63.060
931.753, 77.298
933.014, 61.538
934.276, 94.778
935.536, 59.886
936.797, 90.129
938.058, 109.313
939.318, 119.468
940.578, 124.789
941.838, 75.962
943.098, 114.213
944.358, 104.465
945.617, 90.594
946.876, 118.662
948.135, 97.884
949.394, 137.142
950.653, 123.187
951.911, 116.449
953.169, 125.711
954.427, 138.781
955.685, 133.928
956.943, 121.195
958.200, 153.465
959.458, 162.736
960.715, 203.008
961.971, 216.283
963.228, 305.560
964.485, 367.570
965.741, 428.853
966.997, 439.138
968.253, 417.287
969.508, 451.576
970.764, 533.868
972.019, 577.163
973.274, 682.459
974.529, 736.572
975.784, 895.873
977.039, 1070.176
978.293, 1313.446
979.547, 1849.756
980.801, 2548.067
982.055, 3890.381
983.308, 6552.697
984.562, 12885.014
985.815, 31914.334
987.068, 57213.656
988.321, 64262.980
989.573, 45142.316
990.826, 23501.643
992.078, 12900.976
993.330, 7172.416
994.582, 4170.753
995.833, 2728.095
997.085, 1906.438
998.336, 1426.784
999.587, 1176.132
1000.838, 993.482
1002.088, 859.834
1003.339, 715.188
1004.589, 630.546
1005.839, 574.906
1007.089, 493.268
1008.339, 456.633
1009.588, 420.000
1010.838, 371.364
1012.087, 383.735
1013.336, 356.109
1014.584, 337.485
1015.833, 334.865
1017.081, 304.248
1018.330, 318.636
1019.577, 307.026
1020.825, 316.418
1022.073, 331.505
1023.320, 333.211
1024.567, 365.611
1025.814, 390.015
1027.061, 405.421
1028.308, 462.830
1029.554, 434.241
1030.800, 402.655
1032.046, 355.071
1033.292, 276.491
1034.538, 191.912
1035.783, 181.336
1037.029, 147.763
1038.274, 118.192
1039.519, 124.624
1040.763, 128.059
1042.008, 92.496
1043.252, 87.936
1044.496, 83.378
1045.740, 78.823
1046.984, 78.271
1048.228, 78.722
1049.471, 69.174
1050.714, 70.069
1051.957, 58.553
1053.200, 75.013
1054.442, 75.625
1055.685, 77.092
1056.927, 102.667
1058.169, 100.139
1059.411, 54.771
1060.652, 93.247
1061.894, 55.807
1063.135, 45.703
1064.376, 88.190
1065.617, 47.679
1066.858, 55.175
1068.098, 101.668
1069.339, 44.164
1070.579, 87.663
1071.819, 62.165
1073.058, 88.678
1074.298, 128.185
1075.537, 101.694
1076.776, 157.360
1078.015, 193.038
1079.254, 194.555
1080.493, 292.076
1081.731, 340.601
1082.969, 394.128
1084.207, 384.658
1085.445, 352.191
1086.683, 273.726
1087.920, 181.263
1089.157, 107.804
1090.394, 108.350
1091.631, 63.897
1092.868, 74.449
1094.105, 70.004
1095.341, 63.561
1096.577, 83.121
1097.813, 57.682
1099.049, 66.247
1100.284, 99.814
1101.519, 120.384
1102.755, 151.958
1103.990, 152.024
1105.224, 148.113
1106.459, 137.693
1107.693, 93.276
1108.928, 63.861
1110.162, 56.449
1111.395, 37.038
1112.629, 17.630
1113.863, 21.226
1115.096, 9.824
1116.329, 31.424
1117.562, 3.027
1118.795, 26.632
1120.027, 41.238
1121.259, 41.846
1122.492, 47.456
1123.723, 25.067
1124.955, 18.680
1126.187, 9.704
1127.418, 2.114
1128.649, 1.909
1129.880, 30.152
1131.111, 23.776
1132.342, 47.869
1133.572, 60.028
1134.802, 119.657
1136.033, 154.287
1137.262, 213.919
1138.492, 280.552
1139.722, 304.187
1140.951, 321.823
1142.180, 407.462
1143.409, 411.102
1144.638, 429.745
1145.866, 391.390
1147.095, 296.037
1148.323, 248.685
1149.551, 233.335
1150.779, 134.986
1152.006, 144.639
1153.234, 100.293
1154.461, 85.948
1155.688, 59.606
1156.915, 56.265
1158.141, 66.925
1159.368, 50.141
1160.594, 62.249
1161.820, 40.913
1163.046, 69.578
1164.272, 72.245
1165.498, 105.912
1166.723, 102.581
1167.948, 66.251
1169.173, 48.922
1170.398, 63.594
1171.623, 45.522
1172.847, 32.196
1174.071, 21.871
1175.295, 37.547
1176.519, 23.224
1177.743, 26.901
1178.966, 29.580
1180.190, 1.259
1181.413, 4.939
1182.636, 23.380
1183.858, 2.703
1185.081, 19.975
1186.303, 10.347
1187.526, 7.331
1188.748, 7.991
1189.969, 14.686
1191.191, 10.635
1192.412, 16.042
1193.634, 6.270
1194.855, 21.593
1196.076, 23.491
1197.296, 8.165
1198.517, 0.161
1199.737, 4.553
1200.957, 1.274
1202.177, 0.949
1203.397, 14.625
1204.617, 0.700
1205.836, 16.976
1207.055, 9.724
1208.274, 9.426
1209.493, 9.734
1210.712, 41.181
1211.930, 5.861
1213.148, 36.851
1214.367, 46.543
1215.584, 30.226
1216.802, 58.898
1218.020, 56.571
1219.237, 42.364
1220.454, 44.123
1221.671, 25.113
1222.888, 20.928
1224.105, 29.075
1225.321, 13.835
1226.537, 14.586
1227.753, 26.256
1228.969, 36.927
1230.185, 33.634
1231.400, 7.477
1232.616, 26.146
1233.831, 34.247
1235.046, 22.915
1236.261, 35.650
1237.475, 50.341
1238.689, 27.007
1239.904, 24.720
1241.118, 39.386
1242.332, 46.052
1243.545, 40.926
1244.759, 44.975
1245.972, 36.637
1247.185, 47.571
1248.398, 33.233
1249.611, 60.933
1250.823, 36.595
1252.036, 46.270
1253.248, 35.932
1254.460, 21.594
1255.671, 48.266
1256.883, 31.008
1258.095, 50.564
1259.306, 26.531
1260.517, 35.508
1261.728, 46.169
1262.938, 30.831
1264.149, 34.491
1265.359, 37.152
1266.569, 58.812
1267.779, 60.480
1268.989, 49.139
1270.199, 57.113
1271.408, 37.472
1272.617, 46.322
1273.826, 45.055
1275.035, 27.754
1276.244, 40.710
1277.452, 42.408
1278.661, 40.083
1279.869, 46.899
1281.077, 33.391
1282.285, 43.045
1283.492, 42.718
1284.700, 22.370
1285.907, 27.203
1287.114, 12.862
1288.321, 12.509
1289.527, 9.203
1290.734, 10.849
1291.940, 61.495
1293.146, 20.137
1294.352, 25.777
1295.558, 47.414
1296.763, 9.050
1297.969, 48.708
1299.174, 47.341
1300.379, 6.971
1301.584, 7.407
1302.788, 15.213
1303.993, 26.832
1305.197, 16.449
1306.401, 22.060
1307.605, 19.670
1308.809, 18.276
1310.013, 31.885
1311.216, 20.486
1312.419, 34.082
1313.622, 40.239
1314.825, 61.806
1316.028, 42.398
1317.230, 38.840
1318.432, 47.425
1319.634, 22.899
1320.836, 33.478
1322.038, 21.898
1323.240, 5.473
1324.441, 39.966
1325.642, 13.880
1326.843, 16.679
1328.044, 29.236
1329.245, 2.786
1330.445, 2.337
1331.645, 21.884
1332.845, 22.427
1334.045, 20.968
1335.245, 21.495
1336.445, 1.030
1337.644, 3.439
1338.843, 4.934
1340.042, 6.495
1341.241, 6.815
1342.440, 9.668
1343.638, 4.846
1344.836, 6.356
1346.034, 15.863
1347.232, 12.367
1348.430, 1.131
1349.628, 0.367
1350.825, 9.581
1352.022, 7.351
1353.219, 22.162
1354.416, 0.320
1355.613, 0.799
1356.809, 18.274
1358.005, 14.285
1359.202, 6.218
1360.398, 4.314
1361.593, 9.151
1362.789, 14.387
1363.984, 11.071
1365.179, 1.527
1366.374, 4.981
1367.569, 18.433
1368.764, 2.890
1369.958, 16.339
1371.153, 8.786
1372.347, 4.767
1373.541, 12.324
1374.735, 19.117
1375.928, 7.441
1377.122, 18.170
1378.315, 3.781
1379.508, 17.389
1380.701, 6.996
1381.893, 18.601
1383.086, 14.201
1384.278, 7.797
1385.470, 1.391
1386.662, 23.984
1387.854, 8.425
1389.046, 8.838
1390.237, 10.746
1391.428, 29.324
1392.619, 18.899
1393.810, 29.472
1395.001, 11.042
1396.191, 9.609
1397.382, 32.172
1398.572, 19.733
1399.762, 8.291
1400.952, 3.153
1402.141, 2.401
1403.331, 4.627
1404.520, 7.828
1405.709, 4.715
1406.898, 7.256
1408.087, 16.794
1409.275, 21.334
1410.464, 11.875
1411.652, 7.416
1412.840, 21.958
1414.028, 2.516
1415.215, 9.437
1416.403, 18.976
1417.590, 4.387
1418.777, 13.923
1419.964, 15.458
1421.151, 25.613
1422.338, 19.737
1423.524, 16.749
1424.710, 22.222
1425.896, 6.741
1427.082, 17.916
1428.268, 45.881
1429.453, 42.183
1430.639, 41.530
1431.824, 37.991
1433.009, 38.888
1434.194, 39.108
1435.378, 38.095
1436.563, 55.465
1437.747, 52.920
1438.931, 85.205
1440.115, 95.095
1441.299, 97.437
1442.482, 91.821
1443.666, 94.223
1444.849, 122.419
1446.032, 120.123
1447.215, 106.765
1448.397, 144.096
1449.580, 117.415
1450.762, 154.705
1451.944, 143.964
1453.126, 157.572
1454.308, 150.944
1455.490, 123.997
1456.671, 138.197
1457.852, 126.321
1459.033, 99.963
1460.214, 105.073
1461.395, 107.049
1462.575, 103.146
1463.756, 101.243
1464.936, 88.247
1466.116, 67.317
1467.296, 62.409
1468.475, 55.483
1469.655, 46.566
1470.834, 69.628
1472.013, 25.715
1473.192, 71.789
1474.371, 50.841
1475.550, 69.914
1476.728, 54.978
1477.906, 48.021
1479.084, 60.096
1480.262, 44.188
1481.440, 54.287
1482.617, 53.751
1483.795, 20.523
1484.972, 56.654
1486.149, 31.790
1487.326, 29.935
1488.502, 20.089
1489.679, 6.258
1490.855, 15.446
1492.031, 5.656
1493.207, 6.890
1494.383, 17.149
1495.559, 0.559
1496.734, 16.774
1497.909, 21.160
1499.084, 7.611
1500.259, 13.818
1501.434, 3.246
1502.608, 0.000
##END=



