##NAMES=Baryte
##RRUFFID=R040036
##IDEAL CHEMISTRY=BaS^6+^O_4_
##LOCALITY=Cumbria County, England
##OWNER=RRUFF
##SOURCE=University of Arizona Mineral Museum
##DESCRIPTION=Golden brown tabular crystal
##STATUS=The identification of this mineral has been confirmed by X-ray diffraction and chemical analysis
##URL=rruff.info/R040036
##MEASURED CHEMISTRY=Ba_1.00_S_1.00_O_4_; trace amounts of Pb
##PIN_ID=M00021
##ORIENTATION=Laser parallel to c* (0 0 1). Fiducial mark perpendicular to laser is parallel to -a [-1 0 0]
26.288, 0.000
27.694, 22.245
29.099, 11.821
30.504, 1.925
31.909, 37.907
33.313, 34.144
34.717, 18.049
36.121, 56.624
37.525, 29.894
38.929, 67.799
40.332, 56.809
41.735, 68.201
43.138, 67.761
44.541, 53.975
45.943, 53.387
47.345, 50.068
48.747, 55.679
50.149, 51.060
51.551, 74.309
52.952, 85.868
54.353, 99.051
55.754, 71.035
57.155, 78.457
58.555, 77.818
59.955, 74.001
61.355, 100.353
62.755, 99.189
64.154, 89.144
65.553, 78.820
66.952, 80.820
68.351, 56.597
69.750, 67.818
71.148, 75.828
72.546, 76.847
73.944, 58.889
75.342, 62.949
76.739, 52.026
78.136, 52.114
79.533, 45.913
80.930, 23.303
82.327, 35.398
83.723, 26.485
85.119, 26.456
86.515, 0.383
87.910, 3.655
89.306, 18.326
90.701, 48.326
92.096, 30.343
93.490, 23.378
94.885, 40.429
96.279, 20.497
97.673, 18.574
99.067, 9.518
100.461, 14.543
101.854, 8.356
103.247, 8.467
104.640, 27.681
106.032, 24.747
107.425, 57.850
108.817, 89.984
110.209, 80.141
111.601, 123.309
112.992, 137.481
114.384, 201.730
115.775, 314.892
117.166, 265.930
118.556, 414.347
119.947, 216.803
121.337, 190.368
122.727, 181.742
124.116, 202.031
125.506, 227.472
126.895, 256.843
128.284, 253.105
129.673, 231.495
131.062, 218.597
132.450, 192.712
133.838, 170.071
135.226, 164.221
136.614, 164.290
138.001, 150.237
139.388, 159.233
140.775, 148.205
142.162, 177.990
143.549, 194.713
144.935, 255.582
146.321, 261.314
147.707, 335.829
149.093, 375.485
150.478, 407.086
151.863, 411.745
153.248, 413.699
154.633, 373.949
156.018, 366.539
157.402, 292.227
158.786, 224.754
160.170, 211.358
161.554, 184.934
162.937, 168.499
164.320, 145.002
165.703, 124.619
167.086, 123.033
168.469, 113.419
169.851, 125.875
171.233, 96.271
172.615, 109.688
173.996, 104.163
175.378, 109.607
176.759, 118.064
178.140, 93.266
179.521, 107.093
180.901, 121.614
182.281, 97.306
183.662, 128.828
185.041, 155.101
186.421, 183.346
187.800, 199.393
189.180, 204.061
190.558, 211.398
191.937, 194.241
193.316, 174.010
194.694, 155.537
196.072, 133.904
197.450, 143.203
198.827, 119.336
200.205, 100.401
201.582, 119.495
202.959, 115.479
204.336, 116.567
205.712, 111.344
207.088, 111.147
208.465, 97.716
209.840, 97.106
211.216, 86.542
212.591, 81.880
213.967, 71.074
215.341, 75.135
216.716, 75.191
218.091, 89.094
219.465, 90.091
220.839, 78.140
222.213, 76.139
223.586, 63.005
224.960, 69.902
226.333, 70.751
227.706, 65.548
229.079, 82.311
230.451, 51.797
231.823, 67.450
233.195, 87.003
234.567, 65.526
235.939, 75.692
237.310, 63.884
238.682, 50.581
240.052, 35.649
241.423, 57.041
242.794, 43.593
244.164, 47.748
245.534, 48.365
246.904, 46.094
248.274, 54.992
249.643, 36.750
251.012, 44.016
252.381, 26.991
253.750, 46.526
255.118, 46.050
256.487, 50.880
257.855, 53.818
259.223, 47.729
260.590, 38.770
261.958, 32.866
263.325, 48.953
264.692, 41.031
266.059, 65.102
267.425, 58.164
268.791, 35.216
270.158, 59.259
271.523, 51.292
272.889, 48.317
274.255, 42.332
275.620, 42.337
276.985, 34.334
278.350, 49.321
279.714, 38.300
281.078, 54.271
282.443, 40.233
283.806, 43.187
285.170, 26.133
286.534, 34.071
287.897, 46.001
289.260, 39.924
290.623, 32.840
291.985, 33.750
293.348, 37.653
294.710, 29.549
296.072, 23.439
297.433, 41.324
298.795, 26.202
300.156, 46.074
301.517, 9.941
302.878, 34.801
304.239, 36.655
305.599, 44.503
306.959, 28.346
308.319, 54.183
309.679, 32.014
311.038, 31.840
312.398, 29.660
313.757, 42.475
315.116, 23.284
316.474, 40.083
317.833, 31.883
319.191, 14.598
320.549, 41.372
321.907, 7.119
323.264, 46.888
324.622, 32.647
325.979, 44.302
327.336, 29.004
328.692, 25.715
330.049, 29.341
331.405, 37.021
332.761, 43.688
334.117, 34.342
335.473, 37.983
336.828, 22.612
338.183, 35.229
339.538, 22.834
340.893, 33.428
342.247, 40.011
343.602, 24.586
344.956, 43.152
346.310, 32.709
347.663, 30.211
349.017, 55.753
350.370, 17.287
351.723, 37.813
353.076, 16.333
354.428, 31.846
355.780, 37.302
357.133, 25.753
358.484, 25.152
359.836, 30.527
361.188, 36.850
362.539, 34.192
363.890, 29.534
365.241, 28.941
366.591, 24.353
367.942, 34.708
369.292, 38.053
370.642, 38.339
371.992, 25.657
373.341, 35.979
374.691, 29.688
376.040, 59.657
377.388, 29.897
378.737, 31.212
380.086, 37.620
381.434, 20.932
382.782, 31.297
384.130, 30.612
385.477, 14.875
386.825, 38.083
388.172, 48.403
389.519, 44.671
390.865, 40.973
392.212, 18.288
393.558, 26.602
394.904, 30.965
396.250, 9.252
397.596, 32.577
398.941, 22.831
400.286, 18.178
401.631, 14.526
402.976, 21.898
404.321, 16.283
405.665, 36.640
407.009, 31.955
408.353, 51.248
409.697, 45.610
411.040, 35.935
412.384, 29.450
413.727, 29.633
415.070, 28.623
416.412, 38.561
417.755, 35.934
419.097, 54.293
420.439, 60.625
421.781, 60.958
423.122, 76.254
424.464, 54.620
425.805, 66.936
427.146, 79.326
428.486, 103.651
429.827, 119.991
431.167, 130.254
432.507, 140.553
433.847, 160.909
435.187, 176.237
436.526, 226.533
437.865, 267.833
439.204, 336.153
440.543, 371.435
441.882, 464.691
443.220, 540.031
444.558, 647.301
445.896, 885.664
447.234, 1176.859
448.572, 1562.171
449.909, 2183.491
451.246, 2752.849
452.583, 3466.132
453.919, 3700.536
455.256, 3776.836
456.592, 4142.137
457.928, 4901.428
459.264, 6823.779
460.600, 9154.042
461.935, 10449.386
463.270, 9518.693
464.605, 7544.922
465.940, 5345.276
467.274, 3723.472
468.609, 2444.853
469.943, 1709.171
471.277, 1186.545
472.610, 867.852
473.944, 645.146
475.277, 544.458
476.610, 413.806
477.943, 330.187
479.275, 306.526
480.608, 276.883
481.940, 251.171
483.272, 211.519
484.604, 191.812
485.935, 168.054
487.267, 145.531
488.598, 130.837
489.929, 126.230
491.260, 110.577
492.590, 118.914
493.920, 104.330
495.250, 95.612
496.580, 107.991
497.910, 84.273
499.239, 84.630
500.569, 83.014
501.898, 84.346
503.226, 78.343
504.555, 74.038
505.883, 66.429
507.212, 58.811
508.540, 53.174
509.867, 51.536
511.195, 64.879
512.522, 45.273
513.849, 43.684
515.176, 74.099
516.503, 41.458
517.829, 45.868
519.156, 40.250
520.482, 43.673
521.808, 38.061
523.133, 32.458
524.459, 49.882
525.784, 46.235
527.109, 37.638
528.434, 45.044
529.758, 38.378
531.083, 39.809
532.407, 31.269
533.731, 26.702
535.055, 31.161
536.378, 36.529
537.701, 34.945
539.025, 37.390
540.348, 40.776
541.670, 18.220
542.993, 32.647
544.315, 23.169
545.637, 16.552
546.959, 48.988
548.281, 62.363
549.602, 29.840
550.923, 8.281
552.244, 29.727
553.565, 33.217
554.886, 3.305
556.206, 35.231
557.526, 24.745
558.846, 32.377
560.166, 19.821
561.486, 23.192
562.805, 40.986
564.124, 29.698
565.443, 24.144
566.762, 33.604
568.080, 29.296
569.399, 18.742
570.717, 15.301
572.035, 12.232
573.352, 22.700
574.670, 12.184
575.987, 19.423
577.304, 26.139
578.621, 19.705
579.938, 20.152
581.254, 21.914
582.570, 40.365
583.886, 52.976
585.202, 53.627
586.518, 52.073
587.833, 42.581
589.148, 56.027
590.463, 81.472
591.778, 74.918
593.093, 90.363
594.407, 77.808
595.721, 109.253
597.035, 94.698
598.349, 116.144
599.662, 115.588
600.976, 144.064
602.289, 123.573
603.602, 133.281
604.914, 218.286
606.227, 232.768
607.539, 315.209
608.851, 420.650
610.163, 543.104
611.475, 840.036
612.786, 1244.547
614.097, 1972.677
615.408, 2696.314
616.719, 3298.751
618.030, 3183.187
619.340, 2727.622
620.651, 2166.079
621.961, 1705.598
623.270, 1361.031
624.580, 1155.750
625.889, 1037.180
627.199, 1106.610
628.507, 1182.151
629.816, 1243.579
631.125, 1125.006
632.433, 914.431
633.741, 691.855
635.049, 521.583
636.357, 389.004
637.664, 291.442
638.972, 214.202
640.279, 215.659
641.586, 199.077
642.893, 237.493
644.199, 271.026
645.505, 310.440
646.811, 312.252
648.117, 294.749
649.423, 288.705
650.728, 224.157
652.034, 163.564
653.339, 131.969
654.644, 96.373
655.948, 58.783
657.253, 35.204
658.557, 43.603
659.861, 20.001
661.165, 27.396
662.468, 29.798
663.772, 27.191
665.075, 26.581
666.378, 28.970
667.681, 25.358
668.983, 10.747
670.286, 25.384
671.588, 10.854
672.890, 5.646
674.192, 21.501
675.493, 7.193
676.795, 28.811
678.096, 11.286
679.397, 9.656
680.697, 1.025
681.998, 11.391
683.298, 6.755
684.598, 4.884
685.898, 8.474
687.198, 4.830
688.498, 35.184
689.797, 4.818
691.096, 33.168
692.395, 11.509
693.694, 3.552
694.992, 5.930
696.290, 1.810
697.589, 0.418
698.886, 6.085
700.184, 22.527
701.482, 0.089
702.779, 6.765
704.076, 9.091
705.373, 25.224
706.669, 10.580
707.966, 8.108
709.262, 16.281
710.558, 2.195
711.854, 2.897
713.150, 13.588
714.445, 5.700
715.740, 3.985
717.035, 10.267
718.330, 2.453
719.625, 24.919
720.919, 10.808
722.214, 12.460
723.508, 4.275
724.801, 6.015
726.095, 27.242
727.388, 0.495
728.682, 16.746
729.975, 43.002
731.267, 20.247
732.560, 16.489
733.852, 21.836
735.145, 13.203
736.437, 21.437
737.728, 12.669
739.020, 12.899
740.311, 6.126
741.603, 0.349
742.894, 8.430
744.184, 21.215
745.475, 3.992
746.765, 24.197
748.055, 18.398
749.345, 9.597
750.635, 18.207
751.925, 0.018
753.214, 26.833
754.503, 5.657
755.792, 31.515
757.081, 18.684
758.370, 19.850
759.658, 7.013
760.946, 0.826
762.234, 11.331
763.522, 9.514
764.809, 11.635
766.097, 24.781
767.384, 2.075
768.671, 23.065
769.958, 30.202
771.244, 14.337
772.530, 17.469
773.817, 10.402
775.102, 19.722
776.388, 6.843
777.674, 12.038
778.959, 2.075
780.244, 13.184
781.529, 10.292
782.814, 2.604
784.098, 18.497
785.383, 22.595
786.667, 2.691
787.951, 19.784
789.235, 0.874
790.518, 17.962
791.801, 10.047
793.084, 20.129
794.367, 7.209
795.650, 4.286
796.933, 14.361
798.215, 9.433
799.497, 11.503
800.779, 6.571
802.061, 10.636
803.342, 10.698
804.624, 9.759
805.905, 11.817
807.186, 6.683
808.466, 9.078
809.747, 2.030
811.027, 15.988
812.307, 18.849
813.587, 11.958
814.867, 8.945
816.146, 2.923
817.426, 10.089
818.705, 6.091
819.984, 22.051
821.263, 16.056
822.541, 17.297
823.819, 29.903
825.098, 6.889
826.375, 6.856
827.653, 11.143
828.931, 11.817
830.208, 10.811
831.485, 29.203
832.762, 0.264
834.039, 8.683
835.315, 1.430
836.592, 9.476
837.868, 11.737
839.144, 1.766
840.420, 18.134
841.695, 15.108
842.970, 19.587
844.246, 1.454
845.521, 1.489
846.795, 3.801
848.070, 9.849
849.344, 7.989
850.618, 0.192
851.892, 6.376
853.166, 6.282
854.440, 18.179
855.713, 17.104
856.986, 5.076
858.259, 16.860
859.532, 40.480
860.804, 9.409
862.077, 21.177
863.349, 17.904
864.621, 8.834
865.893, 9.700
867.164, 0.372
868.436, 12.554
869.707, 14.479
870.978, 6.598
872.248, 7.676
873.519, 15.243
874.789, 14.161
876.060, 16.075
877.330, 23.616
878.599, 4.874
879.869, 24.721
881.138, 40.369
882.408, 36.718
883.677, 21.589
884.945, 41.499
886.214, 23.409
887.482, 43.304
888.751, 29.720
890.019, 16.556
891.287, 37.770
892.554, 25.476
893.822, 39.382
895.089, 89.287
896.356, 49.192
897.623, 59.074
898.889, 53.892
900.156, 34.795
901.422, 59.411
902.688, 45.314
903.954, 60.216
905.220, 80.006
906.485, 43.908
907.750, 64.810
909.015, 49.712
910.280, 52.614
911.545, 106.212
912.809, 37.113
914.074, 59.998
915.338, 38.559
916.602, 72.423
917.865, 72.325
919.129, 67.228
920.392, 81.012
921.655, 76.915
922.918, 81.818
924.181, 80.690
925.443, 96.593
926.706, 102.453
927.968, 94.357
929.230, 79.262
930.491, 100.168
931.753, 63.069
933.014, 89.957
934.276, 98.866
935.536, 82.776
936.797, 61.686
938.058, 96.590
939.318, 86.503
940.578, 133.417
941.838, 107.331
943.098, 102.246
944.358, 124.158
945.617, 100.822
946.876, 112.652
948.135, 110.159
949.394, 86.601
950.653, 107.206
951.911, 118.883
953.169, 120.702
954.427, 144.625
955.685, 151.367
956.943, 148.475
958.200, 173.402
959.458, 183.331
960.715, 189.261
961.971, 234.192
963.228, 275.125
964.485, 372.777
965.741, 403.713
966.997, 450.649
968.253, 435.890
969.508, 463.793
970.764, 536.735
972.019, 644.622
973.274, 723.568
974.529, 805.232
975.784, 859.124
977.039, 1067.075
978.293, 1325.673
979.547, 1813.630
980.801, 2546.543
982.055, 3872.500
983.308, 6532.378
984.562, 12784.122
985.815, 31593.088
987.068, 57982.043
988.321, 63801.020
989.573, 47079.992
990.826, 26948.969
992.078, 15327.948
993.330, 8735.835
994.582, 5016.819
995.833, 3195.807
997.085, 2122.796
998.336, 1585.788
999.587, 1256.784
1000.838, 1022.781
1002.088, 884.781
1003.339, 764.775
1004.589, 647.779
1005.839, 564.786
1007.089, 495.687
1008.339, 435.763
1009.588, 446.582
1010.838, 368.597
1012.087, 359.614
1013.336, 357.634
1014.584, 321.656
1015.833, 319.681
1017.081, 279.709
1018.330, 294.743
1019.577, 281.780
1020.825, 270.819
1022.073, 267.861
1023.320, 297.905
1024.567, 312.953
1025.814, 316.005
1027.061, 326.062
1028.308, 342.123
1029.554, 321.186
1030.800, 307.252
1032.046, 264.321
1033.292, 210.392
1034.538, 175.466
1035.783, 168.543
1037.029, 99.624
1038.274, 120.708
1039.519, 102.794
1040.763, 90.883
1042.008, 92.975
1043.252, 56.070
1044.496, 83.168
1045.740, 56.268
1046.984, 56.372
1048.228, 104.479
1049.471, 87.588
1050.714, 92.824
1051.957, 83.940
1053.200, 74.060
1054.442, 71.207
1055.685, 78.332
1056.927, 77.460
1058.169, 78.590
1059.411, 45.723
1060.652, 61.859
1061.894, 79.997
1063.135, 25.139
1064.376, 57.589
1065.617, 79.010
1066.858, 32.159
1068.098, 109.351
1069.339, 46.506
1070.579, 88.664
1071.819, 69.012
1073.058, 80.176
1074.298, 113.512
1075.537, 112.685
1076.776, 120.858
1078.015, 179.065
1079.254, 209.245
1080.493, 310.428
1081.731, 373.615
1082.969, 364.806
1084.207, 418.002
1085.445, 311.202
1086.683, 245.409
1087.920, 154.686
1089.157, 172.901
1090.394, 124.120
1091.631, 93.342
1092.868, 79.566
1094.105, 69.794
1095.341, 81.024
1096.577, 86.258
1097.813, 106.496
1099.049, 80.738
1100.284, 133.983
1101.519, 157.230
1102.755, 195.483
1103.990, 250.739
1105.224, 182.997
1106.459, 137.259
1107.693, 159.524
1108.928, 88.794
1110.162, 63.067
1111.395, 63.342
1112.629, 2.622
1113.863, 63.905
1115.096, 15.190
1116.329, 41.480
1117.562, 63.773
1118.795, 38.070
1120.027, 63.369
1121.259, 61.671
1122.492, 62.974
1123.723, 46.281
1124.955, 68.590
1126.187, 57.903
1127.418, 104.220
1128.649, 86.540
1129.880, 139.863
1131.111, 128.188
1132.342, 203.514
1133.572, 283.844
1134.802, 359.196
1136.033, 526.530
1137.262, 712.868
1138.492, 790.207
1139.722, 888.549
1140.951, 984.893
1142.180, 1078.240
1143.409, 1089.592
1144.638, 1095.945
1145.866, 963.301
1147.095, 830.662
1148.323, 684.025
1149.551, 547.391
1150.779, 425.873
1152.006, 336.243
1153.234, 269.635
1154.461, 213.023
1155.688, 169.506
1156.915, 185.777
1158.141, 125.157
1159.368, 159.538
1160.594, 172.922
1161.820, 187.339
1163.046, 225.729
1164.272, 244.190
1165.498, 253.073
1166.723, 260.977
1167.948, 245.373
1169.173, 219.770
1170.398, 172.205
1171.623, 125.605
1172.847, 89.047
1174.071, 106.489
1175.295, 52.909
1176.519, 70.315
1177.743, 37.722
1178.966, 57.131
1180.190, 20.541
1181.413, 20.953
1182.636, 11.635
1183.858, 16.778
1185.081, 50.191
1186.303, 3.394
1187.526, 21.022
1188.748, 8.439
1189.969, 21.856
1191.191, 22.275
1192.412, 18.695
1193.634, 2.117
1194.855, 20.540
1196.076, 20.038
1197.296, 18.618
1198.517, 37.801
1199.737, 4.748
1200.957, 31.723
1202.177, 34.160
1203.397, 14.419
1204.617, 10.190
1205.836, 13.379
1207.055, 0.340
1208.274, 40.823
1209.493, 3.583
1210.712, 19.856
1211.930, 61.313
1213.148, 22.733
1214.367, 74.153
1215.584, 23.573
1216.802, 57.994
1218.020, 26.121
1219.237, 6.401
1220.454, 34.255
1221.671, 35.210
1222.888, 24.630
1224.105, 54.049
1225.321, 22.565
1226.537, 37.038
1227.753, 37.722
1228.969, 10.403
1230.185, 44.965
1231.400, 4.394
1232.616, 48.812
1233.831, 57.229
1235.046, 50.648
1236.261, 21.065
1237.475, 59.657
1238.689, 19.339
1239.904, 31.838
1241.118, 64.361
1242.332, 54.776
1243.545, 72.223
1244.759, 53.817
1245.972, 47.230
1247.185, 53.101
1248.398, 35.549
1249.611, 39.029
1250.823, 30.488
1252.036, 36.898
1253.248, 42.309
1254.460, 43.296
1255.671, 41.431
1256.883, 32.903
1258.095, 31.917
1259.306, 15.328
1260.517, 9.797
1261.728, 28.209
1262.938, 26.648
1264.149, 46.152
1265.359, 0.437
1266.569, 68.033
1267.779, 48.702
1268.989, 33.113
1270.199, 62.523
1271.408, 46.981
1272.617, 34.397
1273.826, 27.298
1275.035, 23.706
1276.244, 32.115
1277.452, 45.283
1278.661, 12.713
1279.869, 45.237
1281.077, 3.357
1282.285, 19.048
1283.492, 2.488
1284.700, 3.932
1285.907, 28.447
1287.114, 44.849
1288.321, 27.251
1289.527, 24.652
1290.734, 9.052
1291.940, 1.453
1293.146, 12.337
1294.352, 0.253
1295.558, 23.138
1296.763, 11.529
1297.969, 10.918
1299.174, 41.301
1300.379, 2.677
1301.584, 29.052
1302.788, 2.425
1303.993, 2.792
1305.197, 8.156
1306.401, 15.520
1307.605, 21.564
1308.809, 26.239
1310.013, 37.594
1311.216, 28.946
1312.419, 33.296
1313.622, 17.518
1314.825, 16.859
1316.028, 22.677
1317.230, 27.509
1318.432, 31.836
1319.634, 25.161
1320.836, 16.484
1322.038, 32.803
1323.240, 14.118
1324.441, 14.430
1325.642, 33.739
1326.843, 16.734
1328.044, 24.748
1329.245, 8.033
1330.445, 4.275
1331.645, 11.552
1332.845, 25.824
1334.045, 3.095
1335.245, 13.169
1336.445, 7.746
1337.644, 3.499
1338.843, 2.258
1340.042, 11.951
1341.241, 8.186
1342.440, 36.416
1343.638, 24.642
1344.836, 22.864
1346.034, 17.081
1347.232, 24.706
1348.430, 5.499
1349.628, 4.367
1350.825, 17.173
1352.022, 38.014
1353.219, 24.196
1354.416, 2.374
1355.613, 6.547
1356.809, 5.284
1358.005, 5.122
1359.202, 0.036
1360.398, 16.188
1361.593, 25.336
1362.789, 24.565
1363.984, 18.483
1365.179, 20.755
1366.374, 1.113
1367.569, 4.855
1368.764, 4.297
1369.958, 2.506
1371.153, 26.733
1372.347, 12.878
1373.541, 0.976
1374.735, 31.089
1375.928, 12.872
1377.122, 11.878
1378.315, 2.248
1379.508, 35.616
1380.701, 30.983
1381.893, 23.345
1383.086, 35.699
1384.278, 7.949
1385.470, 21.400
1386.662, 18.276
1387.854, 51.065
1389.046, 10.405
1390.237, 22.739
1391.428, 17.069
1392.619, 6.388
1393.810, 44.571
1395.001, 10.858
1396.191, 2.852
1397.382, 70.451
1398.572, 26.751
1399.762, 14.006
1400.952, 23.207
1402.141, 12.508
1403.331, 35.727
1404.520, 45.955
1405.709, 23.840
1406.898, 20.431
1408.087, 5.699
1409.275, 44.964
1410.464, 47.229
1411.652, 18.491
1412.840, 17.750
1414.028, 7.008
1415.215, 38.260
1416.403, 52.515
1417.590, 32.729
1418.777, 30.885
1419.964, 26.856
1421.151, 11.363
1422.338, 23.516
1423.524, 56.672
1424.710, 28.915
1425.896, 43.158
1427.082, 64.148
1428.268, 57.089
1429.453, 66.295
1430.639, 70.268
1431.824, 67.525
1433.009, 72.439
1434.194, 57.623
1435.378, 57.804
1436.563, 55.788
1437.747, 73.966
1438.931, 60.063
1440.115, 72.868
1441.299, 88.028
1442.482, 77.920
1443.666, 84.043
1444.849, 86.393
1446.032, 98.168
1447.215, 108.092
1448.397, 140.063
1449.580, 75.870
1450.762, 116.123
1451.944, 91.095
1453.126, 121.921
1454.308, 111.616
1455.490, 112.540
1456.671, 91.995
1457.852, 88.791
1459.033, 86.349
1460.214, 108.766
1461.395, 83.465
1462.575, 83.133
1463.756, 97.217
1464.936, 71.807
1466.116, 70.375
1467.296, 81.962
1468.475, 46.531
1469.655, 74.083
1470.834, 76.604
1472.013, 51.108
1473.192, 64.595
1474.371, 24.059
1475.550, 53.528
1476.728, 32.981
1477.906, 49.411
1479.084, 53.809
1480.262, 22.267
1481.440, 36.756
1482.617, 57.233
1483.795, 50.693
1484.972, 50.225
1486.149, 27.751
1487.326, 29.269
1488.502, 41.785
1489.679, 47.305
1490.855, 40.831
1492.031, 36.375
1493.207, 29.935
1494.383, 0.489
1495.559, 11.100
1496.734, 1.705
1497.909, 0.229
1499.084, 9.986
1500.259, 3.723
1501.434, 5.626
1502.608, 0.487
1503.783, 0.000
##END=



