##NAMES=Baryte
##RRUFFID=R040036
##IDEAL CHEMISTRY=BaS^6+^O_4_
##LOCALITY=Cumbria County, England
##OWNER=RRUFF
##SOURCE=University of Arizona Mineral Museum
##DESCRIPTION=Golden brown tabular crystal
##STATUS=The identification of this mineral has been confirmed by X-ray diffraction and chemical analysis
##URL=rruff.info/R040036
##MEASURED CHEMISTRY=Ba_1.00_S_1.00_O_4_; trace amounts of Pb
##PIN_ID=M00021
##ORIENTATION=Laser parallel to c* (0 0 1). Fiducial mark perpendicular to laser is parallel to -a [-1 0 0]
26.288, 0.000
27.694, 5.503
29.099, 56.286
30.504, 38.701
31.909, 50.220
33.313, 42.082
34.717, 74.709
36.121, 79.295
37.525, 70.237
38.929, 78.428
40.332, 86.011
41.735, 60.112
43.138, 53.603
44.541, 74.929
45.943, 94.732
47.345, 112.271
48.747, 97.768
50.149, 75.894
51.551, 69.948
52.952, 46.242
54.353, 64.164
55.754, 92.849
57.155, 110.618
58.555, 116.629
59.955, 120.299
61.355, 97.058
62.755, 130.016
64.154, 105.198
65.553, 108.582
66.952, 113.504
68.351, 79.665
69.750, 80.930
71.148, 53.954
72.546, 51.398
73.944, 43.039
75.342, 39.488
76.739, 38.997
78.136, 19.027
79.533, 6.048
80.930, 2.675
82.327, 8.358
83.723, 7.780
85.119, 4.174
86.515, 26.860
87.910, 28.562
89.306, 44.278
90.701, 41.072
92.096, 27.759
93.490, 24.522
94.885, 23.305
96.279, 4.107
97.673, 24.072
99.067, 25.381
100.461, 36.741
101.854, 20.285
103.247, 21.513
104.640, 17.790
106.032, 28.123
107.425, 37.500
108.817, 53.913
110.209, 60.350
111.601, 79.804
112.992, 78.268
114.384, 96.734
115.775, 171.192
117.166, 145.368
118.556, 182.240
119.947, 131.974
121.337, 118.740
122.727, 99.472
124.116, 92.119
125.506, 83.906
126.895, 98.627
128.284, 105.954
129.673, 106.384
131.062, 105.919
132.450, 110.352
133.838, 121.685
135.226, 106.035
136.614, 105.420
138.001, 98.652
139.388, 113.894
140.775, 117.041
142.162, 101.170
143.549, 132.248
144.935, 134.166
146.321, 140.063
147.707, 162.026
149.093, 222.074
150.478, 260.093
151.863, 307.013
153.248, 341.924
154.633, 319.842
156.018, 307.811
157.402, 245.683
158.786, 201.598
160.170, 193.515
161.554, 163.213
162.937, 159.990
164.320, 124.716
165.703, 115.449
167.086, 122.164
168.469, 121.938
169.851, 117.564
171.233, 96.178
172.615, 108.868
173.996, 89.516
175.378, 76.234
176.759, 100.697
178.140, 108.986
179.521, 135.186
180.901, 119.323
182.281, 153.340
183.662, 195.226
185.041, 259.949
186.421, 346.644
187.800, 418.197
189.180, 468.590
190.558, 447.955
191.937, 377.126
193.316, 327.177
194.694, 259.163
196.072, 230.991
197.450, 166.809
198.827, 171.511
200.205, 150.040
201.582, 123.398
202.959, 116.613
204.336, 135.834
205.712, 119.968
207.088, 101.015
208.465, 117.967
209.840, 94.809
211.216, 94.425
212.591, 77.124
213.967, 84.698
215.341, 75.766
216.716, 85.667
218.091, 71.993
219.465, 76.344
220.839, 85.497
222.213, 60.619
223.586, 72.636
224.960, 74.599
226.333, 58.548
227.706, 79.267
229.079, 100.592
230.451, 68.100
231.823, 84.376
233.195, 60.663
234.567, 63.003
235.939, 71.818
237.310, 51.559
238.682, 57.943
240.052, 62.413
241.423, 42.142
242.794, 58.944
244.164, 47.773
245.534, 33.046
246.904, 48.791
248.274, 46.542
249.643, 41.441
251.012, 44.231
252.381, 38.975
253.750, 53.665
255.118, 37.421
256.487, 50.313
257.855, 43.353
259.223, 46.385
260.590, 43.506
261.958, 67.573
263.325, 41.721
264.692, 68.029
266.059, 40.408
267.425, 53.699
268.791, 36.979
270.158, 37.191
271.523, 29.305
272.889, 44.376
274.255, 43.401
275.620, 42.486
276.985, 39.599
278.350, 42.707
279.714, 29.805
281.078, 45.918
282.443, 32.077
283.806, 29.157
285.170, 30.726
286.534, 43.263
287.897, 29.362
289.260, 31.471
290.623, 38.502
291.985, 16.630
293.348, 38.751
294.710, 53.866
296.072, 33.975
297.433, 39.076
298.795, 31.170
300.156, 47.258
301.517, 38.339
302.878, 34.413
304.239, 33.480
305.599, 38.541
306.959, 23.596
308.319, 31.644
309.679, 44.686
311.038, 36.722
312.398, 34.753
313.757, 44.778
315.116, 30.797
316.474, 28.810
317.833, 27.096
319.191, 36.746
320.549, 18.731
321.907, 25.623
323.264, 20.449
324.622, 37.369
325.979, 34.309
327.336, 25.240
328.692, 28.154
330.049, 33.051
331.405, 43.933
332.761, 26.800
334.117, 34.651
335.473, 45.488
336.828, 25.312
338.183, 44.123
339.538, 37.921
340.893, 37.707
342.247, 50.482
343.602, 32.246
344.956, 37.000
346.310, 41.743
347.663, 54.477
349.017, 27.203
350.370, 14.920
351.723, 34.629
353.076, 37.331
354.428, 26.986
355.780, 26.674
357.133, 31.291
358.484, 36.903
359.836, 30.432
361.188, 42.994
362.539, 43.512
363.890, 38.075
365.241, 30.572
366.591, 35.502
367.942, 35.647
369.292, 40.089
370.642, 47.589
371.992, 45.098
373.341, 43.534
374.691, 27.069
376.040, 27.707
377.388, 23.200
378.737, 22.733
380.086, 28.246
381.434, 26.733
382.782, 33.271
384.130, 30.726
385.477, 27.224
386.825, 41.755
388.172, 38.203
389.519, 39.740
390.865, 44.011
392.212, 35.665
393.558, 41.172
394.904, 25.674
396.250, 12.162
397.596, 24.653
398.941, 24.125
400.286, 41.666
401.631, 22.133
402.976, 19.692
404.321, 26.188
405.665, 24.700
407.009, 33.210
408.353, 32.819
409.697, 37.338
411.040, 14.947
412.384, 36.457
413.727, 36.998
415.070, 32.507
416.412, 55.971
417.755, 41.398
419.097, 33.937
420.439, 49.431
421.781, 39.920
423.122, 55.409
424.464, 45.899
425.805, 52.328
427.146, 71.833
428.486, 54.272
429.827, 95.702
431.167, 79.136
432.507, 112.628
433.847, 114.056
435.187, 123.494
436.526, 169.968
437.865, 164.425
439.204, 228.898
440.543, 270.440
441.882, 349.889
443.220, 405.362
444.558, 514.797
445.896, 676.307
447.234, 937.775
448.572, 1290.225
449.909, 1727.671
451.246, 2219.140
452.583, 2639.635
453.919, 2741.073
455.256, 2556.570
456.592, 2383.031
457.928, 2569.482
459.264, 3294.980
460.600, 4212.415
461.935, 4831.838
463.270, 4511.255
464.605, 3577.717
465.940, 2507.096
467.274, 1665.506
468.609, 1120.894
469.943, 764.361
471.277, 555.814
472.610, 397.226
473.944, 323.651
475.277, 265.100
476.610, 203.600
477.943, 168.021
479.275, 147.479
480.608, 122.989
481.940, 120.407
483.272, 111.914
484.604, 104.394
485.935, 88.875
487.267, 80.417
488.598, 98.875
489.929, 82.356
491.260, 78.860
492.590, 65.401
493.920, 50.841
495.250, 56.226
496.580, 29.703
497.910, 36.194
499.239, 40.639
500.569, 35.084
501.898, 39.554
503.226, 31.051
504.555, 35.520
505.883, 20.050
507.212, 23.584
508.540, 43.096
509.867, 23.575
511.195, 38.078
512.522, 39.585
513.849, 42.115
515.176, 36.657
516.503, 35.198
517.829, 34.159
519.156, 18.218
520.482, 29.700
521.808, 26.163
523.133, 21.626
524.459, 33.117
525.784, 28.604
527.109, 29.122
528.434, 29.631
529.758, 27.148
531.083, 31.736
532.407, 23.280
533.731, 23.712
535.055, 35.408
536.378, 18.949
537.701, 12.561
539.025, 10.506
540.348, 33.536
541.670, 12.280
542.993, 13.777
544.315, 26.342
545.637, 5.934
546.959, 25.415
548.281, 11.928
549.602, 9.565
550.923, 15.157
552.244, 5.856
553.565, 22.403
554.886, 6.096
556.206, 31.642
557.526, 2.195
558.846, 19.025
560.166, 13.572
561.486, 3.183
562.805, 21.730
564.124, 20.343
565.443, 8.889
566.762, 21.523
568.080, 23.093
569.399, 19.638
570.717, 13.183
572.035, 10.727
573.352, 20.473
574.670, 16.141
575.987, 15.684
577.304, 15.426
578.621, 10.969
579.938, 3.331
581.254, 11.224
582.570, 12.799
583.886, 32.349
585.202, 11.900
586.518, 22.468
587.833, 13.043
589.148, 12.596
590.463, 45.175
591.778, 25.713
593.093, 22.437
594.407, 4.026
595.721, 46.554
597.035, 37.102
598.349, 27.660
599.662, 25.212
600.976, 31.905
602.289, 53.439
603.602, 60.974
604.914, 48.754
606.227, 82.314
607.539, 79.848
608.851, 109.382
610.163, 153.916
611.475, 240.561
612.786, 375.114
614.097, 593.701
615.408, 897.299
616.719, 1145.830
618.030, 1157.364
619.340, 968.909
620.651, 810.564
621.961, 658.129
623.270, 584.838
624.580, 586.538
625.889, 656.439
627.199, 862.099
628.507, 1044.634
629.816, 1204.166
631.125, 1268.704
632.433, 1049.224
633.741, 834.890
635.049, 602.524
636.357, 489.041
637.664, 355.636
638.972, 344.162
640.279, 304.690
641.586, 347.401
642.893, 367.127
644.199, 452.639
645.505, 572.212
646.811, 629.721
648.117, 674.246
649.423, 565.979
650.728, 466.484
652.034, 324.009
653.339, 221.511
654.644, 169.191
655.948, 108.697
657.253, 108.208
658.557, 66.705
659.861, 54.225
661.165, 54.740
662.468, 38.232
663.772, 30.020
665.075, 25.251
666.378, 25.097
667.681, 12.585
668.983, 13.070
670.286, 5.554
671.588, 1.036
672.890, 24.516
674.192, 14.994
675.493, 1.470
676.795, 18.968
678.096, 1.347
679.397, 6.135
680.697, 6.620
681.998, 9.913
683.298, 14.767
684.598, 6.228
685.898, 3.298
687.198, 20.496
688.498, 20.951
689.797, 4.360
691.096, 1.077
692.395, 5.241
693.694, 19.188
694.992, 8.369
696.290, 14.041
697.589, 10.000
698.886, 10.607
700.184, 19.881
701.482, 0.691
702.779, 20.693
704.076, 0.883
705.373, 22.538
706.669, 2.058
707.966, 5.358
709.262, 10.772
710.558, 11.183
711.854, 10.593
713.150, 7.004
714.445, 3.601
715.740, 17.799
717.035, 6.803
718.330, 16.591
719.625, 5.019
720.919, 7.281
722.214, 2.666
723.508, 8.050
724.801, 7.594
726.095, 3.810
727.388, 2.187
728.682, 6.562
729.975, 0.934
731.267, 13.304
732.560, 6.328
733.852, 13.036
735.145, 0.311
736.437, 6.700
737.728, 4.057
739.020, 5.412
740.311, 4.978
741.603, 13.395
742.894, 10.741
744.184, 8.598
745.475, 3.742
746.765, 10.080
748.055, 13.416
749.345, 12.638
750.635, 2.849
751.925, 4.479
753.214, 0.193
754.503, 0.870
755.792, 12.450
757.081, 7.767
758.370, 5.083
759.658, 3.604
760.946, 0.706
762.234, 5.986
763.522, 5.683
764.809, 14.383
766.097, 4.089
767.384, 5.202
768.671, 5.490
769.958, 3.776
771.244, 14.060
772.530, 4.659
773.817, 3.380
775.102, 10.894
776.388, 1.833
777.674, 4.437
778.959, 3.705
780.244, 7.030
781.529, 7.768
782.814, 16.489
784.098, 1.255
785.383, 11.997
786.667, 2.248
787.951, 8.504
789.235, 5.740
790.518, 0.982
791.801, 14.222
793.084, 6.540
794.367, 3.695
795.650, 1.927
796.933, 7.157
798.215, 0.385
799.497, 0.611
800.779, 16.834
802.061, 11.944
803.342, 8.273
804.624, 3.512
805.905, 3.701
807.186, 8.911
808.466, 5.119
809.747, 15.302
811.027, 3.462
812.307, 3.665
813.587, 6.866
814.867, 0.104
816.146, 8.779
817.426, 0.347
818.705, 0.482
819.984, 12.689
821.263, 9.371
822.541, 9.813
823.819, 0.025
825.098, 15.946
826.375, 3.230
827.653, 10.458
828.931, 7.445
830.208, 10.432
831.485, 0.420
832.762, 11.743
834.039, 9.679
835.315, 23.161
836.592, 0.013
837.868, 3.144
839.144, 19.006
840.420, 25.091
841.695, 17.981
842.970, 43.318
844.246, 2.463
845.521, 5.518
846.795, 1.635
848.070, 17.776
849.344, 15.916
850.618, 16.055
851.892, 9.991
853.166, 18.004
854.440, 18.139
855.713, 32.075
856.986, 30.605
858.259, 14.184
859.532, 40.302
860.804, 13.399
862.077, 33.519
863.349, 14.637
864.621, 31.737
865.893, 34.829
867.164, 18.940
868.436, 17.025
869.707, 2.149
870.978, 5.086
872.248, 0.792
873.519, 2.713
874.789, 12.396
876.060, 21.493
877.330, 14.405
878.599, 2.446
879.869, 24.669
881.138, 17.216
882.408, 10.651
883.677, 5.736
884.945, 8.846
886.214, 6.045
887.482, 24.064
888.751, 21.060
890.019, 0.148
891.287, 31.201
892.554, 34.241
893.822, 18.347
895.089, 43.450
896.356, 39.540
897.623, 27.519
898.889, 53.587
900.156, 45.511
901.422, 52.442
902.688, 62.171
903.954, 50.140
905.220, 15.233
906.485, 41.328
907.750, 38.416
909.015, 9.520
910.280, 24.479
911.545, 33.468
912.809, 37.572
914.074, 42.456
915.338, 39.693
916.602, 40.785
917.865, 52.693
919.129, 46.584
920.392, 49.690
921.655, 20.734
922.918, 55.840
924.181, 39.930
925.443, 51.810
926.706, 56.918
927.968, 46.005
929.230, 49.113
930.491, 58.044
931.753, 39.148
933.014, 32.244
934.276, 60.355
935.536, 28.441
936.797, 35.532
938.058, 49.645
939.318, 48.461
940.578, 56.575
941.838, 64.591
943.098, 56.706
944.358, 48.823
945.617, 63.940
946.876, 64.059
948.135, 73.179
949.394, 70.300
950.653, 89.421
951.911, 79.520
953.169, 91.432
954.427, 80.543
955.685, 88.641
956.943, 113.769
958.200, 97.679
959.458, 107.810
960.715, 116.928
961.971, 176.694
963.228, 162.829
964.485, 266.728
965.741, 279.866
966.997, 333.772
968.253, 287.900
969.508, 365.044
970.764, 375.190
972.019, 418.816
973.274, 514.960
974.529, 568.055
975.784, 624.209
977.039, 765.365
978.293, 964.522
979.547, 1308.682
980.801, 1785.843
982.055, 2736.006
983.308, 4529.171
984.562, 8647.339
985.815, 21437.504
987.068, 41326.680
988.321, 49965.855
989.573, 37485.027
990.826, 20584.205
992.078, 11403.384
993.330, 6364.567
994.582, 3616.751
995.833, 2321.938
997.085, 1560.127
998.336, 1140.318
999.587, 943.511
1000.838, 778.706
1002.088, 658.903
1003.339, 557.103
1004.589, 473.304
1005.839, 437.508
1007.089, 352.714
1008.339, 345.913
1009.588, 293.095
1010.838, 292.308
1012.087, 302.523
1013.336, 244.483
1014.584, 237.679
1015.833, 230.902
1017.081, 184.810
1018.330, 162.039
1019.577, 169.269
1020.825, 177.502
1022.073, 157.667
1023.320, 154.905
1024.567, 163.146
1025.814, 145.387
1027.061, 148.634
1028.308, 120.883
1029.554, 123.135
1030.800, 131.390
1032.046, 86.648
1033.292, 100.910
1034.538, 86.173
1035.783, 81.441
1037.029, 60.712
1038.274, 78.988
1039.519, 80.268
1040.763, 43.549
1042.008, 76.834
1043.252, 71.120
1044.496, 62.410
1045.740, 61.702
1046.984, 80.998
1048.228, 75.296
1049.471, 63.597
1050.714, 72.901
1051.957, 57.207
1053.200, 29.517
1054.442, 47.831
1055.685, 31.147
1056.927, 63.466
1058.169, 64.787
1059.411, 20.111
1060.652, 50.439
1061.894, 23.769
1063.135, 39.104
1064.376, 56.441
1065.617, 6.781
1066.858, 24.124
1068.098, 51.470
1069.339, 44.818
1070.579, 26.169
1071.819, 25.524
1073.058, 30.882
1074.298, 37.251
1075.537, 11.617
1076.776, 59.986
1078.015, 23.359
1079.254, 66.734
1080.493, 65.126
1081.731, 71.508
1082.969, 62.893
1084.207, 105.282
1085.445, 59.674
1086.683, 77.069
1087.920, 69.468
1089.157, 49.868
1090.394, 66.275
1091.631, 21.683
1092.868, 68.097
1094.105, 64.513
1095.341, 51.932
1096.577, 125.356
1097.813, 129.783
1099.049, 132.215
1100.284, 229.650
1101.519, 233.090
1102.755, 268.532
1103.990, 305.978
1105.224, 281.428
1106.459, 234.884
1107.693, 175.344
1108.928, 144.808
1110.162, 104.276
1111.395, 76.746
1112.629, 78.219
1113.863, 55.695
1115.096, 67.174
1116.329, 75.655
1117.562, 84.139
1118.795, 91.626
1120.027, 125.116
1121.259, 126.607
1122.492, 156.101
1123.723, 183.597
1124.955, 187.096
1126.187, 198.596
1127.418, 235.099
1128.649, 260.605
1129.880, 333.114
1131.111, 425.625
1132.342, 553.140
1133.572, 727.657
1134.802, 960.176
1136.033, 1352.697
1137.262, 1735.220
1138.492, 2114.746
1139.722, 2496.274
1140.951, 2797.804
1142.180, 3230.336
1143.409, 3400.870
1144.638, 3357.407
1145.866, 2995.945
1147.095, 2465.507
1148.323, 1927.051
1149.551, 1562.597
1150.779, 1132.147
1152.006, 941.698
1153.234, 746.252
1154.461, 577.914
1155.688, 512.472
1156.915, 393.031
1158.141, 392.593
1159.368, 337.285
1160.594, 325.858
1161.820, 359.426
1163.046, 450.318
1164.272, 453.900
1165.498, 548.473
1166.723, 573.048
1167.948, 513.737
1169.173, 420.319
1170.398, 327.105
1171.623, 286.686
1172.847, 213.269
1174.071, 168.853
1175.295, 173.439
1176.519, 103.026
1177.743, 100.615
1178.966, 84.213
1180.190, 51.804
1181.413, 71.396
1182.636, 35.085
1183.858, 66.680
1185.081, 28.285
1186.303, 19.881
1187.526, 25.480
1188.748, 38.079
1189.969, 24.680
1191.191, 34.281
1192.412, 33.883
1193.634, 27.486
1194.855, 9.431
1196.076, 21.036
1197.296, 26.641
1198.517, 42.248
1199.737, 23.855
1200.957, 27.479
1202.177, 40.096
1203.397, 5.070
1204.617, 17.736
1205.836, 0.653
1207.055, 19.201
1208.274, 25.825
1209.493, 10.708
1210.712, 12.332
1211.930, 1.986
1213.148, 25.917
1214.367, 39.604
1215.584, 37.559
1216.802, 33.233
1218.020, 18.847
1219.237, 21.462
1220.454, 21.077
1221.671, 39.245
1222.888, 34.860
1224.105, 40.687
1225.321, 26.341
1226.537, 62.081
1227.753, 25.952
1228.969, 57.567
1230.185, 46.261
1231.400, 32.363
1232.616, 43.000
1233.831, 35.652
1235.046, 46.520
1236.261, 31.426
1237.475, 63.346
1238.689, 32.317
1239.904, 21.193
1241.118, 44.136
1242.332, 39.794
1243.545, 22.460
1244.759, 41.071
1245.972, 23.910
1247.185, 75.646
1248.398, 40.258
1249.611, 51.995
1250.823, 34.627
1252.036, 3.241
1253.248, 38.855
1254.460, 30.469
1255.671, 11.084
1256.883, 8.699
1258.095, 28.332
1259.306, 4.217
1260.517, 34.871
1261.728, 8.490
1262.938, 27.413
1264.149, 15.057
1265.359, 16.673
1266.569, 26.289
1267.779, 26.033
1268.989, 30.750
1270.199, 37.200
1271.408, 29.841
1272.617, 27.453
1273.826, 11.064
1275.035, 20.675
1276.244, 22.293
1277.452, 1.096
1278.661, 15.513
1279.869, 17.122
1281.077, 3.731
1282.285, 16.339
1283.492, 28.948
1284.700, 4.445
1285.907, 10.160
1287.114, 19.764
1288.321, 24.368
1289.527, 5.011
1290.734, 0.843
1291.940, 7.439
1293.146, 12.963
1294.352, 0.625
1295.558, 10.210
1296.763, 27.794
1297.969, 3.623
1299.174, 2.954
1300.379, 7.472
1301.584, 13.097
1302.788, 14.665
1303.993, 9.227
1305.197, 15.785
1306.401, 22.337
1307.605, 18.475
1308.809, 3.422
1310.013, 13.961
1311.216, 5.494
1312.419, 1.976
1313.622, 10.553
1314.825, 4.079
1316.028, 10.604
1317.230, 6.123
1318.432, 10.640
1319.634, 9.151
1320.836, 27.660
1322.038, 11.167
1323.240, 11.669
1324.441, 11.830
1325.642, 28.666
1326.843, 11.159
1328.044, 29.650
1329.245, 28.137
1330.445, 4.622
1331.645, 6.103
1332.845, 12.423
1334.045, 1.046
1335.245, 10.511
1336.445, 7.035
1337.644, 6.068
1338.843, 8.125
1340.042, 6.323
1341.241, 0.768
1342.440, 8.803
1343.638, 0.634
1344.836, 10.933
1346.034, 1.496
1347.232, 11.921
1348.430, 23.343
1349.628, 11.761
1350.825, 19.823
1352.022, 10.586
1353.219, 5.008
1354.416, 3.394
1355.613, 1.207
1356.809, 6.811
1358.005, 25.580
1359.202, 0.968
1360.398, 16.647
1361.593, 5.734
1362.789, 4.111
1363.984, 6.514
1365.179, 8.049
1366.374, 8.681
1367.569, 10.830
1368.764, 6.759
1369.958, 9.609
1371.153, 3.729
1372.347, 3.060
1373.541, 11.384
1374.735, 5.042
1375.928, 0.472
1377.122, 14.095
1378.315, 0.339
1379.508, 8.225
1380.701, 34.788
1381.893, 33.346
1383.086, 38.117
1384.278, 17.451
1385.470, 29.000
1386.662, 9.546
1387.854, 5.910
1389.046, 6.632
1390.237, 13.149
1391.428, 7.313
1392.619, 8.222
1393.810, 31.628
1395.001, 23.158
1396.191, 12.529
1397.382, 31.040
1398.572, 5.145
1399.762, 8.655
1400.952, 35.016
1402.141, 27.255
1403.331, 39.754
1404.520, 13.251
1405.709, 25.735
1406.898, 18.228
1408.087, 16.589
1409.275, 18.065
1410.464, 22.551
1411.652, 16.036
1412.840, 20.722
1414.028, 35.505
1415.215, 17.980
1416.403, 24.432
1417.590, 11.335
1418.777, 4.286
1419.964, 24.776
1421.151, 14.782
1422.338, 28.653
1423.524, 57.413
1424.710, 28.744
1425.896, 38.172
1427.082, 30.647
1428.268, 26.622
1429.453, 25.836
1430.639, 34.600
1431.824, 19.054
1433.009, 42.883
1434.194, 44.108
1435.378, 43.246
1436.563, 36.823
1437.747, 44.014
1438.931, 43.587
1440.115, 95.593
1441.299, 52.800
1442.482, 93.033
1443.666, 61.252
1444.849, 73.807
1446.032, 108.886
1447.215, 78.250
1448.397, 80.373
1449.580, 77.458
1450.762, 75.336
1451.944, 79.975
1453.126, 78.453
1454.308, 89.490
1455.490, 83.506
1456.671, 89.496
1457.852, 91.464
1459.033, 113.411
1460.214, 57.486
1461.395, 66.370
1462.575, 99.267
1463.756, 43.144
1464.936, 52.024
1466.116, 74.901
1467.296, 35.787
1468.475, 55.712
1469.655, 30.662
1470.834, 20.620
1472.013, 33.562
1473.192, 32.493
1474.371, 15.438
1475.550, 32.386
1476.728, 23.330
1477.906, 26.262
1479.084, 24.185
1480.262, 22.103
1481.440, 22.072
1482.617, 16.957
1483.795, 23.045
1484.972, 16.052
1486.149, 12.068
1487.326, 30.095
1488.502, 19.137
1489.679, 18.198
1490.855, 14.289
1492.031, 2.589
1493.207, 20.568
1494.383, 5.768
1495.559, 27.027
1496.734, 8.510
1497.909, 17.808
1499.084, 20.714
1500.259, 0.000
##END=



