##NAMES=Baryte
##RRUFFID=R040036
##IDEAL CHEMISTRY=BaS^6+^O_4_
##LOCALITY=Cumbria County, England
##OWNER=RRUFF
##SOURCE=University of Arizona Mineral Museum
##DESCRIPTION=Golden brown tabular crystal
##STATUS=The identification of this mineral has been confirmed by X-ray diffraction and chemical analysis
##URL=rruff.info/R040036
##MEASURED CHEMISTRY=Ba_1.00_S_1.00_O_4_; trace amounts of Pb
##PIN_ID=M00028
##ORIENTATION=Laser parallel to -a* (-1 0 0). Fiducial mark perpendicular to laser is parallel to -b [0 -1 0]
26.288, 0.000
27.694, 10.966
29.099, 2.841
30.504, 22.778
31.909, 25.209
33.313, 17.069
34.717, 27.996
36.121, 11.884
37.525, 37.752
38.929, 26.289
40.332, 30.552
41.735, 29.402
43.138, 25.718
44.541, 31.440
45.943, 13.456
47.345, 27.914
48.747, 28.509
50.149, 35.162
51.551, 21.826
52.952, 34.379
54.353, 35.685
55.754, 23.415
57.155, 45.106
58.555, 39.338
59.955, 44.314
61.355, 60.975
62.755, 51.867
64.154, 55.304
65.553, 47.745
66.952, 27.192
68.351, 37.648
69.750, 31.113
71.148, 29.586
72.546, 31.067
73.944, 36.554
75.342, 47.046
76.739, 13.544
78.136, 9.044
79.533, 5.455
80.930, 11.046
82.327, 3.456
83.723, 3.961
85.119, 1.469
86.515, 8.978
87.910, 11.489
89.306, 24.002
90.701, 27.517
92.096, 25.033
93.490, 13.550
94.885, 4.068
96.279, 22.413
97.673, 32.892
99.067, 72.372
100.461, 71.850
101.854, 91.337
103.247, 71.853
104.640, 85.396
106.032, 94.961
107.425, 104.544
108.817, 136.141
110.209, 139.749
111.601, 154.365
112.992, 161.986
114.384, 206.609
115.775, 250.501
117.166, 353.856
118.556, 390.473
119.947, 618.086
121.337, 745.696
122.727, 525.302
124.116, 320.902
125.506, 268.496
126.895, 227.083
128.284, 255.657
129.673, 277.218
131.062, 255.762
132.450, 259.287
133.838, 198.786
135.226, 207.261
136.614, 200.723
138.001, 197.184
139.388, 187.645
140.775, 182.107
142.162, 197.569
143.549, 178.034
144.935, 201.498
146.321, 236.964
147.707, 222.430
149.093, 242.897
150.478, 250.364
151.863, 271.832
153.248, 258.300
154.633, 270.769
156.018, 250.238
157.402, 225.708
158.786, 204.179
160.170, 170.650
161.554, 171.122
162.937, 151.595
164.320, 170.068
165.703, 149.542
167.086, 138.016
168.469, 150.491
169.851, 124.967
171.233, 149.444
172.615, 137.922
173.996, 135.400
175.378, 136.893
176.759, 113.278
178.140, 148.624
179.521, 127.929
180.901, 151.198
182.281, 121.425
183.662, 154.614
185.041, 165.763
186.421, 172.857
187.800, 203.924
189.180, 209.954
190.558, 258.948
191.937, 216.903
193.316, 208.812
194.694, 163.693
196.072, 167.465
197.450, 136.255
198.827, 120.012
200.205, 127.768
201.582, 103.431
202.959, 124.099
204.336, 120.728
205.712, 107.251
207.088, 125.817
208.465, 104.312
209.840, 110.733
211.216, 82.212
212.591, 114.680
213.967, 119.176
215.341, 93.925
216.716, 113.238
218.091, 73.731
219.465, 94.102
220.839, 85.454
222.213, 92.872
223.586, 78.253
224.960, 89.706
226.333, 93.912
227.706, 80.078
229.079, 94.039
230.451, 83.220
231.823, 74.208
233.195, 91.124
234.567, 75.121
235.939, 78.928
237.310, 67.680
238.682, 84.145
240.052, 69.531
241.423, 77.144
242.794, 71.864
244.164, 55.807
245.534, 60.135
246.904, 66.529
248.274, 72.031
249.643, 60.534
251.012, 64.038
252.381, 70.542
253.750, 57.046
255.118, 87.550
256.487, 58.055
257.855, 85.616
259.223, 80.120
260.590, 59.624
261.958, 75.128
263.325, 68.632
264.692, 85.141
266.059, 70.645
267.425, 73.149
268.791, 87.653
270.158, 75.156
271.523, 61.660
272.889, 57.164
274.255, 66.668
275.620, 62.172
276.985, 62.676
278.350, 74.180
279.714, 62.685
281.078, 61.190
282.443, 40.695
283.806, 56.202
285.170, 49.709
286.534, 47.217
287.897, 56.725
289.260, 39.235
290.623, 38.745
291.985, 44.256
293.348, 37.767
294.710, 27.280
296.072, 30.793
297.433, 46.307
298.795, 30.822
300.156, 45.338
301.517, 25.855
302.878, 32.372
304.239, 55.890
305.599, 40.410
306.959, 30.929
308.319, 23.450
309.679, 31.972
311.038, 61.494
312.398, 29.018
313.757, 41.542
315.116, 21.067
316.474, 52.593
317.833, 43.120
319.191, 35.648
320.549, 48.176
321.907, 13.706
323.264, 48.236
324.622, 20.763
325.979, 32.286
327.336, 20.807
328.692, 28.325
330.049, 29.840
331.405, 20.353
332.761, 42.864
334.117, 38.372
335.473, 18.879
336.828, 27.385
338.183, 25.889
339.538, 43.391
340.893, 31.893
342.247, 11.393
343.602, 33.893
344.956, 20.393
346.310, 44.892
347.663, 38.391
349.017, 37.184
350.370, 37.881
351.723, 18.888
353.076, 37.388
354.428, 4.889
355.780, 30.390
357.133, 15.893
358.484, 5.397
359.836, 2.901
361.188, 13.594
362.539, 27.909
363.890, 4.586
365.241, 6.919
366.591, 9.426
367.942, 1.066
369.292, 17.443
370.642, 5.954
371.992, 21.465
373.341, 5.979
374.691, 3.505
376.040, 12.014
377.388, 1.464
378.737, 24.060
380.086, 5.588
381.434, 23.120
382.782, 17.655
384.130, 11.195
385.477, 34.741
386.825, 7.707
388.172, 28.849
389.519, 21.409
390.865, 21.973
392.212, 53.539
393.558, 9.107
394.904, 27.676
396.250, 17.248
397.596, 22.821
398.941, 28.395
400.286, 10.970
401.631, 32.546
402.976, 1.875
404.321, 33.703
405.665, 9.283
407.009, 7.864
408.353, 23.446
409.697, 6.029
411.040, 40.613
412.384, 18.198
413.727, 35.784
415.070, 39.371
416.412, 22.961
417.755, 36.552
419.097, 22.143
420.439, 29.093
421.781, 57.334
423.122, 42.931
424.464, 56.528
425.805, 69.128
427.146, 114.729
428.486, 85.330
429.827, 138.933
431.167, 155.537
432.507, 157.145
433.847, 211.755
435.187, 250.366
436.526, 317.983
437.865, 388.601
439.204, 502.221
440.543, 630.842
441.882, 778.465
443.220, 1046.091
444.558, 1363.717
445.896, 1903.346
447.234, 2567.977
448.572, 3433.607
449.909, 4873.241
451.246, 6483.877
452.583, 8402.514
453.919, 9448.152
455.256, 8880.791
456.592, 7264.434
457.928, 5321.075
459.264, 3719.719
460.600, 2623.362
461.935, 1848.007
463.270, 1375.652
464.605, 1013.298
465.940, 769.945
467.274, 582.578
468.609, 436.226
469.943, 383.876
471.277, 279.527
472.610, 260.178
473.944, 190.832
475.277, 203.488
476.610, 170.144
477.943, 126.802
479.275, 136.460
480.608, 102.120
481.940, 110.781
483.272, 71.442
484.604, 81.104
485.935, 80.767
487.267, 66.417
488.598, 77.081
489.929, 76.745
491.260, 52.410
492.590, 59.075
493.920, 55.741
495.250, 40.407
496.580, 52.073
497.910, 39.740
499.239, 56.372
500.569, 36.042
501.898, 52.712
503.226, 31.352
504.555, 30.981
505.883, 43.326
507.212, 37.000
508.540, 75.559
509.867, 36.213
511.195, 57.880
512.522, 66.490
513.849, 29.168
515.176, 64.824
516.503, 54.502
517.829, 62.160
519.156, 58.749
520.482, 41.427
521.808, 46.043
523.133, 34.721
524.459, 47.382
525.784, 51.075
527.109, 39.754
528.434, 51.433
529.758, 22.112
531.083, 48.626
532.407, 36.306
533.731, 54.984
535.055, 41.767
536.378, 19.481
537.701, 68.165
539.025, 26.282
540.348, 44.963
541.670, 23.728
542.993, 27.436
544.315, 46.116
545.637, 25.144
546.959, 26.767
548.281, 41.453
549.602, 7.132
550.923, 53.810
552.244, 17.639
553.565, 29.310
554.886, 36.029
556.206, 29.705
557.526, 31.380
558.846, 18.523
560.166, 39.197
561.486, 41.882
562.805, 20.014
564.124, 33.686
565.443, 14.406
566.762, 30.076
568.080, 25.999
569.399, 21.668
570.717, 27.396
572.035, 16.168
573.352, 16.648
574.670, 29.120
575.987, 13.161
577.304, 22.850
578.621, 26.544
579.938, 48.217
581.254, 19.307
582.570, 15.026
583.886, 58.684
585.202, 32.951
586.518, 41.607
587.833, 44.667
589.148, 60.349
590.463, 47.023
591.778, 45.144
593.093, 58.045
594.407, 28.718
595.721, 86.714
597.035, 60.359
598.349, 62.312
599.662, 81.954
600.976, 45.641
602.289, 88.336
603.602, 100.973
604.914, 91.631
606.227, 126.265
607.539, 115.053
608.851, 210.684
610.163, 225.313
611.475, 315.257
612.786, 504.883
614.097, 716.507
615.408, 1069.701
616.719, 1508.334
618.030, 1682.206
619.340, 1661.823
620.651, 1302.454
621.961, 1083.459
623.270, 810.070
624.580, 620.679
625.889, 582.295
627.199, 478.900
628.507, 463.531
629.816, 429.133
631.125, 435.732
632.433, 416.330
633.741, 340.925
635.049, 315.527
636.357, 234.118
637.664, 214.708
638.972, 193.295
640.279, 171.880
641.586, 189.860
642.893, 169.441
644.199, 172.147
645.505, 208.724
646.811, 141.299
648.117, 194.142
649.423, 173.715
650.728, 158.298
652.034, 167.888
653.339, 104.454
654.644, 130.486
655.948, 102.048
657.253, 89.607
658.557, 85.165
659.861, 45.720
661.165, 67.273
662.468, 32.824
663.772, 37.373
665.075, 49.920
666.378, 11.464
667.681, 47.006
668.983, 27.545
670.286, 22.082
671.588, 21.654
672.890, 19.187
674.192, 39.718
675.493, 0.246
676.795, 6.771
678.096, 13.439
679.397, 14.041
680.697, 26.939
681.998, 1.449
683.298, 8.955
684.598, 28.459
685.898, 10.039
687.198, 33.456
688.498, 12.949
689.797, 33.440
691.096, 38.928
692.395, 1.587
693.694, 43.895
694.992, 5.374
696.290, 16.850
697.589, 28.323
698.886, 15.206
700.184, 19.258
701.482, 11.719
702.779, 14.822
704.076, 25.629
705.373, 4.078
706.669, 17.524
707.966, 6.032
709.262, 14.406
710.558, 2.842
711.854, 0.275
713.150, 18.704
714.445, 21.870
715.740, 11.452
717.035, 7.960
718.330, 39.631
719.625, 10.766
720.919, 13.840
722.214, 2.548
723.508, 26.932
724.801, 21.686
726.095, 18.687
727.388, 12.942
728.682, 6.423
729.975, 7.784
731.267, 15.857
732.560, 6.504
733.852, 6.843
735.145, 10.813
736.437, 28.526
737.728, 9.138
739.020, 20.192
740.311, 2.521
741.603, 1.846
742.894, 17.168
744.184, 6.488
745.475, 37.805
746.765, 2.880
748.055, 14.431
749.345, 22.740
750.635, 9.954
751.925, 21.347
753.214, 25.645
754.503, 21.059
755.792, 7.230
757.081, 7.484
758.370, 11.797
759.658, 6.076
760.946, 13.647
762.234, 44.624
763.522, 16.892
764.809, 7.159
766.097, 14.423
767.384, 2.685
768.671, 30.944
769.958, 15.202
771.244, 28.457
772.530, 25.710
773.817, 5.962
775.102, 25.211
776.388, 12.458
777.674, 22.703
778.959, 38.946
780.244, 14.813
781.529, 41.422
782.814, 3.344
784.098, 14.886
785.383, 30.114
786.667, 9.660
787.951, 29.562
789.235, 2.782
790.518, 1.000
791.801, 35.215
793.084, 18.571
794.367, 25.637
795.650, 14.843
796.933, 8.047
798.215, 34.250
799.497, 13.451
800.779, 36.650
802.061, 32.847
803.342, 12.043
804.624, 29.238
805.905, 17.416
807.186, 38.607
808.466, 31.797
809.747, 1.015
811.027, 23.171
812.307, 6.356
813.587, 16.539
814.867, 24.618
816.146, 6.237
817.426, 50.935
818.705, 20.326
819.984, 13.844
821.263, 15.928
822.541, 5.069
823.819, 38.235
825.098, 29.052
826.375, 18.216
827.653, 24.372
828.931, 18.534
830.208, 38.695
831.485, 14.703
832.762, 7.862
834.039, 52.978
835.315, 11.135
836.592, 38.292
837.868, 52.979
839.144, 18.134
840.420, 60.275
841.695, 24.970
842.970, 64.122
844.246, 46.225
845.521, 24.376
846.795, 69.274
848.070, 44.423
849.344, 70.513
850.618, 62.556
851.892, 44.704
853.166, 74.233
854.440, 49.004
855.713, 112.125
856.986, 73.240
858.259, 86.375
859.532, 109.091
860.804, 90.178
862.077, 110.323
863.349, 132.859
864.621, 84.005
865.893, 86.745
867.164, 62.862
868.436, 59.985
869.707, 84.661
870.978, 43.555
872.248, 50.676
873.519, 62.473
874.789, 24.619
876.060, 70.457
877.330, 13.604
878.599, 69.704
879.869, 74.797
881.138, 29.945
882.408, 73.072
883.677, 39.222
884.945, 48.217
886.214, 66.368
887.482, 27.522
888.751, 83.359
890.019, 46.515
891.287, 50.671
892.554, 89.257
893.822, 45.403
895.089, 86.309
896.356, 88.468
897.623, 72.613
898.889, 121.382
900.156, 82.544
901.422, 91.708
902.688, 101.864
903.954, 67.029
905.220, 90.169
906.485, 77.336
907.750, 79.504
909.015, 111.674
910.280, 48.845
911.545, 97.009
912.809, 53.182
914.074, 80.357
915.338, 76.533
916.602, 45.711
917.865, 78.495
919.129, 46.677
920.392, 47.734
921.655, 73.920
922.918, 26.107
924.181, 44.028
925.443, 77.218
926.706, 33.397
927.968, 82.572
929.230, 45.768
930.491, 49.499
931.753, 65.699
933.014, 35.901
934.276, 77.106
935.536, 58.313
936.797, 39.521
938.058, 86.732
939.318, 59.944
940.578, 83.158
941.838, 51.375
943.098, 31.593
944.358, 76.815
945.617, 65.038
946.876, 84.226
948.135, 73.453
949.394, 68.682
950.653, 103.913
951.911, 72.146
953.169, 84.235
954.427, 116.472
955.685, 80.246
956.943, 96.490
958.200, 82.738
959.458, 106.988
960.715, 161.240
961.971, 126.495
963.228, 165.753
964.485, 218.014
965.741, 288.276
966.997, 312.541
968.253, 313.810
969.508, 344.080
970.764, 409.353
972.019, 403.629
973.274, 508.907
974.529, 540.189
975.784, 606.474
977.039, 752.761
978.293, 919.053
979.547, 1176.347
980.801, 1606.644
982.055, 2321.943
983.308, 3772.246
984.562, 6449.551
985.815, 13648.861
987.068, 29368.170
988.321, 45367.484
989.573, 46146.805
990.826, 30476.127
992.078, 16555.455
993.330, 9021.787
994.582, 4987.124
995.833, 3069.465
997.085, 1998.809
998.336, 1369.156
999.587, 1110.507
1000.838, 915.862
1002.088, 783.221
1003.339, 759.583
1004.589, 615.948
1005.839, 539.317
1007.089, 423.691
1008.339, 375.067
1009.588, 336.448
1010.838, 304.831
1012.087, 267.218
1013.336, 279.608
1014.584, 236.001
1015.833, 261.398
1017.081, 181.796
1018.330, 206.277
1019.577, 224.751
1020.825, 172.159
1022.073, 203.867
1023.320, 206.280
1024.567, 192.925
1025.814, 195.365
1027.061, 152.788
1028.308, 170.216
1029.554, 141.647
1030.800, 99.082
1032.046, 139.520
1033.292, 107.960
1034.538, 90.405
1035.783, 98.853
1037.029, 64.303
1038.274, 97.757
1039.519, 101.213
1040.763, 76.671
1042.008, 83.133
1043.252, 58.597
1044.496, 61.064
1045.740, 63.577
1046.984, 47.050
1048.228, 97.591
1049.471, 66.069
1050.714, 71.625
1051.957, 88.502
1053.200, 57.990
1054.442, 151.480
1055.685, 192.106
1056.927, 239.602
1058.169, 224.246
1059.411, 125.749
1060.652, 84.254
1061.894, 81.016
1063.135, 54.526
1064.376, 72.068
1065.617, 58.586
1066.858, 30.107
1068.098, 54.973
1069.339, 61.499
1070.579, 78.027
1071.819, 109.599
1073.058, 75.132
1074.298, 114.668
1075.537, 106.435
1076.776, 120.977
1078.015, 170.696
1079.254, 167.242
1080.493, 236.791
1081.731, 296.344
1082.969, 385.898
1084.207, 431.455
1085.445, 375.016
1086.683, 343.578
1087.920, 310.144
1089.157, 178.713
1090.394, 236.287
1091.631, 180.124
1092.868, 162.706
1094.105, 206.292
1095.341, 203.879
1096.577, 235.468
1097.813, 317.064
1099.049, 418.660
1100.284, 630.257
1101.519, 870.937
1102.755, 1131.540
1103.990, 1513.146
1105.224, 1558.756
1106.459, 1434.369
1107.693, 1214.984
1108.928, 845.603
1110.162, 669.223
1111.395, 464.846
1112.629, 318.470
1113.863, 293.097
1115.096, 211.726
1116.329, 160.357
1117.562, 159.989
1118.795, 98.624
1120.027, 134.260
1121.259, 82.899
1122.492, 92.539
1123.723, 125.182
1124.955, 44.826
1126.187, 61.472
1127.418, 52.120
1128.649, 41.770
1129.880, 36.422
1131.111, 17.076
1132.342, 47.731
1133.572, 56.388
1134.802, 5.047
1136.033, 39.708
1137.262, 69.370
1138.492, 49.034
1139.722, 71.700
1140.951, 35.368
1142.180, 21.038
1143.409, 31.709
1144.638, 20.382
1145.866, 42.057
1147.095, 24.736
1148.323, 10.417
1149.551, 19.099
1150.779, 7.217
1152.006, 6.533
1153.234, 15.152
1154.461, 19.162
1155.688, 12.523
1156.915, 15.791
1158.141, 2.105
1159.368, 7.582
1160.594, 5.270
1161.820, 19.960
1163.046, 16.651
1164.272, 16.343
1165.498, 37.037
1166.723, 28.732
1167.948, 10.429
1169.173, 67.126
1170.398, 3.825
1171.623, 21.525
1172.847, 28.226
1174.071, 2.928
1175.295, 33.631
1176.519, 23.335
1177.743, 3.960
1178.966, 29.745
1180.190, 5.549
1181.413, 43.158
1182.636, 6.135
1183.858, 21.427
1185.081, 27.277
1186.303, 3.983
1187.526, 9.311
1188.748, 22.394
1189.969, 9.900
1191.191, 15.806
1192.412, 11.512
1193.634, 14.781
1194.855, 10.924
1196.076, 2.370
1197.296, 1.336
1198.517, 15.042
1199.737, 18.250
1200.957, 7.454
1202.177, 7.158
1203.397, 3.136
1204.617, 44.615
1205.836, 8.321
1207.055, 12.772
1208.274, 2.932
1209.493, 10.363
1210.712, 21.340
1211.930, 49.043
1213.148, 22.837
1214.367, 28.541
1215.584, 40.246
1216.802, 30.163
1218.020, 44.868
1219.237, 27.573
1220.454, 21.474
1221.671, 39.179
1222.888, 13.116
1224.105, 38.514
1225.321, 5.216
1226.537, 17.919
1227.753, 18.622
1228.969, 0.325
1230.185, 15.284
1231.400, 29.067
1232.616, 4.230
1233.831, 45.829
1235.046, 49.530
1236.261, 49.541
1237.475, 80.514
1238.689, 39.215
1239.904, 70.139
1241.118, 64.839
1242.332, 36.540
1243.545, 108.277
1244.759, 59.977
1245.972, 49.677
1247.185, 76.377
1248.398, 45.076
1249.611, 56.774
1250.823, 81.473
1252.036, 15.173
1253.248, 85.872
1254.460, 52.571
1255.671, 17.271
1256.883, 35.033
1258.095, 45.732
1259.306, 40.432
1260.517, 60.141
1261.728, 58.874
1262.938, 69.079
1264.149, 70.240
1265.359, 75.939
1266.569, 77.553
1267.779, 70.367
1268.989, 79.066
1270.199, 68.919
1271.408, 70.618
1272.617, 108.317
1273.826, 92.025
1275.035, 40.724
1276.244, 74.669
1277.452, 75.809
1278.661, 72.507
1279.869, 84.204
1281.077, 41.901
1282.285, 82.519
1283.492, 62.179
1284.700, 37.875
1285.907, 81.275
1287.114, 49.026
1288.321, 35.494
1289.527, 50.235
1290.734, 16.962
1291.940, 68.691
1293.146, 44.384
1294.352, 38.076
1295.558, 85.796
1296.763, 65.512
1297.969, 63.201
1299.174, 79.890
1300.379, 48.577
1301.584, 44.257
1302.788, 70.936
1303.993, 29.614
1305.197, 86.289
1306.401, 64.961
1307.605, 35.629
1308.809, 58.250
1310.013, 61.913
1311.216, 39.507
1312.419, 103.168
1313.622, 67.752
1314.825, 77.018
1316.028, 66.677
1317.230, 33.335
1318.432, 64.859
1319.634, 72.514
1320.836, 60.024
1322.038, 78.677
1323.240, 53.330
1324.441, 61.727
1325.642, 71.375
1326.843, 45.995
1328.044, 65.634
1329.245, 27.271
1330.445, 35.563
1331.645, 39.197
1332.845, 43.828
1334.045, 1.416
1335.245, 40.042
1336.445, 5.333
1337.644, 26.060
1338.843, 24.679
1340.042, 17.121
1341.241, 40.737
1342.440, 0.650
1343.638, 13.962
1344.836, 20.572
1346.034, 5.819
1347.232, 18.787
1348.430, 27.391
1349.628, 5.006
1350.825, 13.593
1352.022, 13.191
1353.219, 36.473
1354.416, 42.117
1355.613, 21.706
1356.809, 8.293
1358.005, 21.879
1359.202, 7.540
1360.398, 0.042
1361.593, 18.623
1362.789, 11.877
1363.984, 20.701
1365.179, 9.723
1366.374, 8.149
1367.569, 42.424
1368.764, 5.971
1369.958, 10.635
1371.153, 14.207
1372.347, 2.862
1373.541, 40.441
1374.735, 41.001
1375.928, 12.622
1377.122, 42.010
1378.315, 43.681
1379.508, 21.350
1380.701, 46.018
1381.893, 27.685
1383.086, 26.351
1384.278, 60.015
1385.470, 1.678
1386.662, 37.340
1387.854, 49.001
1389.046, 8.658
1390.237, 35.314
1391.428, 31.968
1392.619, 35.613
1393.810, 54.258
1395.001, 7.902
1396.191, 8.546
1397.382, 24.191
1398.572, 2.164
1399.762, 26.478
1400.952, 27.118
1402.141, 9.757
1403.331, 33.393
1404.520, 5.971
1405.709, 14.338
1406.898, 23.294
1408.087, 18.926
1409.275, 38.557
1410.464, 37.191
1411.652, 5.827
1412.840, 24.463
1414.028, 17.101
1415.215, 3.740
1416.403, 28.379
1417.590, 3.019
1418.777, 6.663
1419.964, 6.238
1421.151, 15.576
1422.338, 42.219
1423.524, 7.866
1424.710, 8.368
1425.896, 39.669
1427.082, 42.310
1428.268, 33.625
1429.453, 46.322
1430.639, 45.312
1431.824, 46.930
1433.009, 65.949
1434.194, 59.912
1435.378, 87.945
1436.563, 111.025
1437.747, 120.182
1438.931, 143.682
1440.115, 151.251
1441.299, 136.821
1442.482, 162.388
1443.666, 183.951
1444.849, 154.509
1446.032, 210.926
1447.215, 159.450
1448.397, 168.990
1449.580, 220.523
1450.762, 169.983
1451.944, 221.130
1453.126, 217.636
1454.308, 193.108
1455.490, 226.813
1456.671, 201.252
1457.852, 194.680
1459.033, 245.002
1460.214, 204.244
1461.395, 196.433
1462.575, 210.593
1463.756, 154.943
1464.936, 138.108
1466.116, 161.430
1467.296, 138.767
1468.475, 140.110
1469.655, 104.466
1470.834, 105.845
1472.013, 99.236
1473.192, 80.614
1474.371, 63.976
1475.550, 115.323
1476.728, 79.656
1477.906, 100.972
1479.084, 103.287
1480.262, 65.629
1481.440, 98.006
1482.617, 90.388
1483.795, 69.790
1484.972, 93.210
1486.149, 77.645
1487.326, 36.091
1488.502, 64.546
1489.679, 42.010
1490.855, 41.492
1492.031, 36.002
1493.207, 14.543
1494.383, 49.115
1495.559, 3.721
1496.734, 3.366
1497.909, 41.063
1499.084, 0.177
1500.259, 9.664
1501.434, 28.663
1502.608, 0.662
1503.783, 0.000
##END=



