##NAMES=Baryte
##RRUFFID=R040036
##IDEAL CHEMISTRY=BaS^6+^O_4_
##LOCALITY=Cumbria County, England
##OWNER=RRUFF
##SOURCE=University of Arizona Mineral Museum
##DESCRIPTION=Golden brown tabular crystal
##STATUS=The identification of this mineral has been confirmed by X-ray diffraction and chemical analysis
##URL=rruff.info/R040036
##MEASURED CHEMISTRY=Ba_1.00_S_1.00_O_4_; trace amounts of Pb
##PIN_ID=M00021
##ORIENTATION=Laser parallel to c* (0 0 1). Fiducial mark perpendicular to laser is parallel to -a [-1 0 0]
26.288, 0.000
27.694, 1.286
29.099, 22.096
30.504, 41.499
31.909, 32.579
33.313, 31.064
34.717, 58.762
36.121, 37.138
37.525, 72.870
38.929, 52.206
40.332, 60.118
41.735, 71.027
43.138, 85.133
44.541, 91.697
45.943, 87.596
47.345, 100.810
48.747, 76.626
50.149, 68.379
51.551, 66.917
52.952, 84.675
54.353, 98.034
55.754, 89.172
57.155, 81.225
58.555, 91.216
59.955, 109.062
61.355, 99.390
62.755, 100.167
64.154, 99.657
65.553, 73.369
66.952, 82.564
68.351, 66.220
69.750, 51.660
71.148, 77.168
72.546, 48.683
73.944, 35.274
75.342, 25.893
76.739, 12.835
78.136, 3.389
79.533, 8.263
80.930, 16.042
82.327, 2.790
83.723, 3.402
85.119, 18.087
86.515, 19.594
87.910, 19.121
89.306, 22.667
90.701, 3.228
92.096, 50.803
93.490, 26.394
94.885, 31.002
96.279, 6.523
97.673, 12.269
99.067, 15.852
100.461, 25.364
101.854, 16.862
103.247, 20.293
104.640, 28.726
106.032, 60.211
107.425, 64.737
108.817, 77.293
110.209, 67.872
111.601, 102.466
112.992, 109.068
114.384, 142.667
115.775, 290.276
117.166, 426.909
118.556, 237.639
119.947, 144.531
121.337, 127.534
122.727, 127.399
124.116, 129.082
125.506, 119.840
126.895, 111.758
128.284, 148.349
129.673, 130.009
131.062, 154.731
132.450, 103.329
133.838, 151.022
135.226, 108.600
136.614, 116.136
138.001, 118.564
139.388, 117.941
140.775, 127.275
142.162, 136.432
143.549, 139.478
144.935, 139.592
146.321, 166.791
147.707, 221.855
149.093, 243.894
150.478, 318.932
151.863, 365.096
153.248, 366.229
154.633, 370.349
156.018, 314.445
157.402, 265.555
158.786, 230.647
160.170, 192.200
161.554, 161.673
162.937, 142.681
164.320, 110.579
165.703, 106.525
167.086, 118.516
168.469, 67.338
169.851, 101.111
171.233, 94.885
172.615, 100.673
173.996, 97.382
175.378, 100.088
176.759, 97.886
178.140, 103.111
179.521, 128.434
180.901, 134.691
182.281, 156.796
183.662, 205.706
185.041, 230.547
186.421, 336.235
187.800, 404.812
189.180, 450.229
190.558, 444.609
191.937, 392.888
193.316, 329.999
194.694, 270.099
196.072, 224.069
197.450, 171.934
198.827, 149.659
200.205, 142.192
201.582, 118.541
202.959, 119.810
204.336, 105.125
205.712, 121.189
207.088, 99.109
208.465, 97.011
209.840, 91.833
211.216, 76.487
212.591, 84.157
213.967, 70.757
215.341, 67.168
216.716, 68.608
218.091, 79.924
219.465, 88.211
220.839, 77.561
222.213, 72.799
223.586, 73.921
224.960, 54.868
226.333, 58.635
227.706, 82.365
229.079, 67.060
230.451, 62.884
231.823, 65.498
233.195, 55.090
234.567, 51.289
235.939, 55.354
237.310, 54.427
238.682, 42.415
240.052, 37.852
241.423, 36.252
242.794, 44.175
244.164, 30.980
245.534, 40.329
246.904, 51.032
248.274, 26.783
249.643, 23.635
251.012, 53.391
252.381, 34.210
253.750, 41.155
255.118, 52.325
256.487, 45.532
257.855, 58.703
259.223, 51.914
260.590, 50.485
261.958, 43.485
263.325, 36.889
264.692, 37.298
266.059, 34.455
267.425, 58.057
268.791, 40.421
270.158, 51.756
271.523, 67.081
272.889, 20.407
274.255, 26.682
275.620, 32.910
276.985, 37.210
278.350, 22.501
279.714, 26.781
281.078, 29.939
282.443, 21.199
283.806, 34.367
285.170, 24.562
286.534, 22.763
287.897, 13.955
289.260, 31.169
290.623, 25.375
291.985, 23.574
293.348, 28.766
294.710, 26.949
296.072, 18.125
297.433, 27.294
298.795, 37.455
300.156, 24.609
301.517, 20.755
302.878, 26.893
304.239, 14.024
305.599, 19.146
306.959, 40.261
308.319, 22.370
309.679, 26.470
311.038, 41.564
312.398, 34.635
313.757, 28.683
315.116, 9.757
316.474, 45.614
317.833, 37.625
319.191, 29.604
320.549, 36.606
321.907, 26.590
323.264, 34.584
324.622, 30.546
325.979, 20.515
327.336, 13.499
328.692, 14.464
330.049, 24.412
331.405, 26.345
332.761, 20.261
334.117, 35.163
335.473, 34.050
336.828, 21.924
338.183, 24.784
339.538, 37.631
340.893, 16.467
342.247, 22.290
343.602, 24.101
344.956, 15.901
346.310, 25.691
347.663, 38.471
349.017, 55.242
350.370, 28.006
351.723, 53.749
353.076, 40.497
354.428, 30.203
355.780, 33.894
357.133, 38.558
358.484, 25.148
359.836, 30.770
361.188, 37.327
362.539, 35.867
363.890, 46.411
365.241, 24.007
366.591, 43.641
367.942, 26.224
369.292, 22.784
370.642, 46.350
371.992, 43.828
373.341, 13.327
374.691, 38.939
376.040, 33.484
377.388, 32.011
378.737, 49.554
380.086, 17.053
381.434, 38.541
382.782, 59.057
384.130, 43.577
385.477, 38.050
386.825, 20.507
388.172, 28.970
389.519, 30.480
390.865, 49.939
392.212, 46.457
393.558, 34.018
394.904, 43.470
396.250, 38.909
397.596, 28.489
398.941, 16.983
400.286, 18.510
401.631, 13.473
402.976, 34.634
404.321, 12.241
405.665, 34.817
407.009, 32.385
408.353, 35.919
409.697, 27.422
411.040, 53.925
412.384, 52.414
413.727, 48.011
415.070, 68.525
416.412, 61.091
417.755, 63.728
419.097, 72.150
420.439, 65.608
421.781, 63.083
423.122, 83.579
424.464, 91.006
425.805, 90.453
427.146, 106.916
428.486, 120.343
429.827, 127.826
431.167, 127.262
432.507, 162.724
433.847, 177.112
435.187, 198.578
436.526, 242.047
437.865, 280.477
439.204, 329.932
440.543, 384.379
441.882, 456.784
443.220, 571.233
444.558, 719.728
445.896, 941.164
447.234, 1214.581
448.572, 1655.028
449.909, 2198.414
451.246, 2744.824
452.583, 3353.331
453.919, 3551.756
455.256, 3634.199
456.592, 3916.712
457.928, 4574.194
459.264, 6425.649
460.600, 8465.017
461.935, 10108.554
463.270, 9498.053
464.605, 7338.515
465.940, 5150.010
467.274, 3490.459
468.609, 2344.946
469.943, 1600.413
471.277, 1088.835
472.610, 828.223
473.944, 639.617
475.277, 510.058
476.610, 421.508
477.943, 337.931
479.275, 308.423
480.608, 243.911
481.940, 255.342
483.272, 195.788
484.604, 193.295
485.935, 176.704
487.267, 158.141
488.598, 159.587
489.929, 123.997
491.260, 139.452
492.590, 127.970
493.920, 101.529
495.250, 99.001
496.580, 71.561
497.910, 84.097
499.239, 90.586
500.569, 60.096
501.898, 57.628
503.226, 67.100
504.555, 73.602
505.883, 53.135
507.212, 64.666
508.540, 73.229
509.867, 40.708
511.195, 70.270
512.522, 50.763
513.849, 54.240
515.176, 58.802
516.503, 60.367
517.829, 63.809
519.156, 43.371
520.482, 46.910
521.808, 47.444
523.133, 20.008
524.459, 48.476
525.784, 19.040
527.109, 42.604
528.434, 42.168
529.758, 29.733
531.083, 24.256
532.407, 51.790
533.731, 32.333
535.055, 10.899
536.378, 39.465
537.701, 45.343
539.025, 24.909
540.348, 33.629
541.670, 22.220
542.993, 28.777
544.315, 36.336
545.637, 18.875
546.959, 46.470
548.281, 20.079
549.602, 41.687
550.923, 32.298
552.244, 23.863
553.565, 16.454
554.886, 13.221
556.206, 25.662
557.526, 12.260
558.846, 23.947
560.166, 30.512
561.486, 11.118
562.805, 9.733
564.124, 20.299
565.443, 15.326
566.762, 19.910
568.080, 14.687
569.399, 36.595
570.717, 11.195
572.035, 29.759
573.352, 35.391
574.670, 5.147
575.987, 47.803
577.304, 20.392
578.621, 6.017
579.938, 26.578
581.254, 19.339
582.570, 20.979
583.886, 14.724
585.202, 15.688
586.518, 30.023
587.833, 22.674
589.148, 33.287
590.463, 49.108
591.778, 27.664
593.093, 38.219
594.407, 37.774
595.721, 44.371
597.035, 29.951
598.349, 53.608
599.662, 49.303
600.976, 60.059
602.289, 67.822
603.602, 78.588
604.914, 112.322
606.227, 100.889
607.539, 115.473
608.851, 173.044
610.163, 222.592
611.475, 331.162
612.786, 480.705
614.097, 774.247
615.408, 1195.796
616.719, 1462.581
618.030, 1525.121
619.340, 1308.699
620.651, 1061.237
621.961, 900.800
623.270, 716.351
624.580, 723.918
625.889, 762.464
627.199, 927.017
628.507, 1183.562
629.816, 1292.208
631.125, 1369.739
632.433, 1209.266
633.741, 917.125
635.049, 685.661
636.357, 539.183
637.664, 431.418
638.972, 378.181
640.279, 348.698
641.586, 379.587
642.893, 424.101
644.199, 517.791
645.505, 618.522
646.811, 766.030
648.117, 743.911
649.423, 655.416
650.728, 526.936
652.034, 370.437
653.339, 263.947
654.644, 173.444
655.948, 104.965
657.253, 104.989
658.557, 78.480
659.861, 56.012
661.165, 51.499
662.468, 25.040
663.772, 37.546
665.075, 60.026
666.378, 52.505
667.681, 33.996
668.983, 30.470
670.286, 16.133
671.588, 7.602
672.890, 16.069
674.192, 25.534
675.493, 20.245
676.795, 18.701
678.096, 11.841
679.397, 22.624
680.697, 4.926
681.998, 3.784
683.298, 0.535
684.598, 1.975
685.898, 1.138
687.198, 7.847
688.498, 3.722
689.797, 4.706
691.096, 4.316
692.395, 16.738
693.694, 5.158
694.992, 6.574
696.290, 4.072
697.589, 6.548
698.886, 2.824
700.184, 15.056
701.482, 5.457
702.779, 4.184
704.076, 18.568
705.373, 17.041
706.669, 10.344
707.966, 6.275
709.262, 11.898
710.558, 6.473
711.854, 14.849
713.150, 0.214
714.445, 5.425
715.740, 1.054
717.035, 8.298
718.330, 0.648
719.625, 14.965
720.919, 5.692
722.214, 0.354
723.508, 5.019
724.801, 2.689
726.095, 2.636
727.388, 1.042
728.682, 1.277
729.975, 8.408
731.267, 15.901
732.560, 31.208
733.852, 16.556
735.145, 3.857
736.437, 7.185
737.728, 1.434
739.020, 3.037
740.311, 5.677
741.603, 6.031
742.894, 6.171
744.184, 4.900
745.475, 8.367
746.765, 4.630
748.055, 6.890
749.345, 11.664
750.635, 6.400
751.925, 14.651
753.214, 12.899
754.503, 10.143
755.792, 7.615
757.081, 26.622
758.370, 2.855
759.658, 13.086
760.946, 5.313
762.234, 7.537
763.522, 3.758
764.809, 7.976
766.097, 6.191
767.384, 7.403
768.671, 2.388
769.958, 9.816
771.244, 18.018
772.530, 11.783
773.817, 7.410
775.102, 12.600
776.388, 28.213
777.674, 8.036
778.959, 12.136
780.244, 13.695
781.529, 20.468
782.814, 5.371
784.098, 7.216
785.383, 21.935
786.667, 13.917
787.951, 12.224
789.235, 4.363
790.518, 21.498
791.801, 5.631
793.084, 16.762
794.367, 1.889
795.650, 20.986
796.933, 20.131
798.215, 0.245
799.497, 17.356
800.779, 0.536
802.061, 1.569
803.342, 31.672
804.624, 6.771
805.905, 2.868
807.186, 6.963
808.466, 6.945
809.747, 27.142
811.027, 8.197
812.307, 14.280
813.587, 9.640
814.867, 3.435
816.146, 16.507
817.426, 1.263
818.705, 10.331
819.984, 10.758
821.263, 12.745
822.541, 5.246
823.819, 4.242
825.098, 12.231
826.375, 9.250
827.653, 7.480
828.931, 7.838
830.208, 2.156
831.485, 10.193
832.762, 14.187
834.039, 3.814
835.315, 2.830
836.592, 9.838
837.868, 20.937
839.144, 18.080
840.420, 14.947
841.695, 18.013
842.970, 16.021
844.246, 2.564
845.521, 17.549
846.795, 2.338
848.070, 19.995
849.344, 1.043
850.618, 20.953
851.892, 14.879
853.166, 3.322
854.440, 1.576
855.713, 22.538
856.986, 32.463
858.259, 6.450
859.532, 22.233
860.804, 1.137
862.077, 7.404
863.349, 12.783
864.621, 10.711
865.893, 22.596
867.164, 8.516
868.436, 5.227
869.707, 8.202
870.978, 3.825
872.248, 1.146
873.519, 2.926
874.789, 6.985
876.060, 8.122
877.330, 2.299
878.599, 21.460
879.869, 20.210
881.138, 26.957
882.408, 18.732
883.677, 22.506
884.945, 23.066
886.214, 27.528
887.482, 24.483
888.751, 35.413
890.019, 35.490
891.287, 37.607
892.554, 26.271
893.822, 35.980
895.089, 32.933
896.356, 21.846
897.623, 63.798
898.889, 41.723
900.156, 70.658
901.422, 30.575
902.688, 38.513
903.954, 39.442
905.220, 29.377
906.485, 12.209
907.750, 37.156
909.015, 63.106
910.280, 24.721
911.545, 49.658
912.809, 38.607
914.074, 49.842
915.338, 38.547
916.602, 26.495
917.865, 50.071
919.129, 49.020
920.392, 47.791
921.655, 46.520
922.918, 45.394
924.181, 67.047
925.443, 42.997
926.706, 46.930
927.968, 46.882
929.230, 23.824
930.491, 74.776
931.753, 42.704
933.014, 30.127
934.276, 73.082
935.536, 40.994
936.797, 61.950
938.058, 49.851
939.318, 59.786
940.578, 84.744
941.838, 98.703
943.098, 84.648
944.358, 80.609
945.617, 50.379
946.876, 74.342
948.135, 74.306
949.394, 70.271
950.653, 109.988
951.911, 79.948
953.169, 93.917
954.427, 103.874
955.685, 80.846
956.943, 102.555
958.200, 91.222
959.458, 131.199
960.715, 143.178
961.971, 160.158
963.228, 202.140
964.485, 287.124
965.741, 310.925
966.997, 337.913
968.253, 358.902
969.508, 408.893
970.764, 438.801
972.019, 510.730
973.274, 593.506
974.529, 640.028
975.784, 741.029
977.039, 851.697
978.293, 1082.702
979.547, 1477.708
980.801, 2026.719
982.055, 3057.732
983.308, 5277.748
984.562, 9985.768
985.815, 24724.773
987.068, 47933.793
988.321, 56472.828
989.573, 42901.805
990.826, 24140.836
992.078, 13379.870
993.330, 7442.907
994.582, 4201.946
995.833, 2700.987
997.085, 1805.032
998.336, 1334.080
999.587, 1019.130
1000.838, 851.183
1002.088, 768.239
1003.339, 653.298
1004.589, 549.360
1005.839, 474.425
1007.089, 408.448
1008.339, 377.517
1009.588, 365.559
1010.838, 315.546
1012.087, 292.518
1013.336, 256.576
1014.584, 251.660
1015.833, 249.748
1017.081, 209.840
1018.330, 212.935
1019.577, 198.033
1020.825, 194.135
1022.073, 203.239
1023.320, 177.345
1024.567, 183.455
1025.814, 192.567
1027.061, 160.682
1028.308, 170.800
1029.554, 149.922
1030.800, 165.048
1032.046, 168.176
1033.292, 135.307
1034.538, 86.441
1035.783, 102.578
1037.029, 80.718
1038.274, 93.861
1039.519, 82.008
1040.763, 57.158
1042.008, 94.314
1043.252, 82.474
1044.496, 68.636
1045.740, 74.805
1046.984, 65.978
1048.228, 67.153
1049.471, 50.334
1050.714, 66.520
1051.957, 70.709
1053.200, 51.902
1054.442, 54.099
1055.685, 42.299
1056.927, 23.503
1058.169, 61.711
1059.411, 27.923
1060.652, 57.138
1061.894, 32.356
1063.135, 32.578
1064.376, 19.902
1065.617, 30.129
1066.858, 28.311
1068.098, 47.599
1069.339, 36.839
1070.579, 38.083
1071.819, 44.330
1073.058, 29.581
1074.298, 61.834
1075.537, 56.093
1076.776, 55.354
1078.015, 45.619
1079.254, 68.889
1080.493, 109.163
1081.731, 113.441
1082.969, 115.724
1084.207, 141.010
1085.445, 101.301
1086.683, 99.595
1087.920, 103.892
1089.157, 66.193
1090.394, 82.496
1091.631, 31.805
1092.868, 64.121
1094.105, 41.443
1095.341, 63.769
1096.577, 99.100
1097.813, 125.434
1099.049, 162.403
1100.284, 221.113
1101.519, 243.457
1102.755, 302.806
1103.990, 355.159
1105.224, 303.515
1106.459, 255.876
1107.693, 167.241
1108.928, 91.611
1110.162, 87.988
1111.395, 97.369
1112.629, 77.754
1113.863, 88.142
1115.096, 84.585
1116.329, 87.926
1117.562, 87.323
1118.795, 96.722
1120.027, 105.125
1121.259, 117.530
1122.492, 166.938
1123.723, 174.349
1124.955, 203.835
1126.187, 208.180
1127.418, 261.600
1128.649, 316.023
1129.880, 369.448
1131.111, 447.876
1132.342, 574.306
1133.572, 745.740
1134.802, 1006.176
1136.033, 1442.615
1137.262, 1822.056
1138.492, 2291.500
1139.722, 2714.948
1140.951, 2959.399
1142.180, 3423.853
1143.409, 3525.309
1144.638, 3460.770
1145.866, 3169.232
1147.095, 2582.698
1148.323, 2094.166
1149.551, 1625.636
1150.779, 1231.110
1152.006, 992.674
1153.234, 762.153
1154.461, 640.637
1155.688, 561.121
1156.915, 410.608
1158.141, 401.097
1159.368, 364.589
1160.594, 365.082
1161.820, 427.740
1163.046, 454.238
1164.272, 524.739
1165.498, 588.242
1166.723, 577.774
1167.948, 548.282
1169.173, 472.818
1170.398, 369.332
1171.623, 303.986
1172.847, 252.503
1174.071, 158.723
1175.295, 151.244
1176.519, 121.767
1177.743, 117.799
1178.966, 116.325
1180.190, 91.854
1181.413, 77.384
1182.636, 33.916
1183.858, 52.450
1185.081, 78.985
1186.303, 38.521
1187.526, 22.063
1188.748, 24.602
1189.969, 9.881
1191.191, 29.687
1192.412, 11.231
1193.634, 14.777
1194.855, 16.324
1196.076, 11.127
1197.296, 21.473
1198.517, 22.023
1199.737, 0.574
1200.957, 15.290
1202.177, 26.951
1203.397, 9.510
1204.617, 40.066
1205.836, 4.662
1207.055, 26.454
1208.274, 48.076
1209.493, 16.637
1210.712, 35.685
1211.930, 18.247
1213.148, 11.002
1214.367, 49.958
1215.584, 20.528
1216.802, 38.283
1218.020, 47.849
1219.237, 43.416
1220.454, 34.983
1221.671, 54.551
1222.888, 55.338
1224.105, 27.537
1225.321, 8.642
1226.537, 28.500
1227.753, 22.444
1228.969, 12.015
1230.185, 51.586
1231.400, 23.216
1232.616, 30.788
1233.831, 36.859
1235.046, 13.430
1236.261, 68.002
1237.475, 46.959
1238.689, 61.531
1239.904, 58.163
1241.118, 74.401
1242.332, 29.973
1243.545, 76.682
1244.759, 43.326
1245.972, 83.899
1247.185, 18.499
1248.398, 28.072
1249.611, 6.683
1250.823, 40.258
1252.036, 28.834
1253.248, 17.410
1254.460, 41.011
1255.671, 41.589
1256.883, 44.168
1258.095, 46.149
1259.306, 40.432
1260.517, 35.937
1261.728, 31.518
1262.938, 25.100
1264.149, 28.683
1265.359, 27.546
1266.569, 32.860
1267.779, 35.443
1268.989, 35.062
1270.199, 44.766
1271.408, 6.523
1272.617, 40.107
1273.826, 12.691
1275.035, 33.274
1276.244, 31.853
1277.452, 9.451
1278.661, 26.027
1279.869, 42.603
1281.077, 17.244
1282.285, 5.019
1283.492, 13.557
1284.700, 0.150
1285.907, 6.749
1287.114, 14.325
1288.321, 21.986
1289.527, 7.560
1290.734, 31.133
1291.940, 7.294
1293.146, 23.276
1294.352, 17.842
1295.558, 20.418
1296.763, 1.021
1297.969, 7.663
1299.174, 0.779
1300.379, 5.954
1301.584, 5.500
1302.788, 25.039
1303.993, 29.423
1305.197, 14.111
1306.401, 3.639
1307.605, 20.837
1308.809, 10.684
1310.013, 15.197
1311.216, 3.707
1312.419, 31.216
1313.622, 28.723
1314.825, 24.228
1316.028, 13.733
1317.230, 4.235
1318.432, 23.736
1319.634, 5.236
1320.836, 39.733
1322.038, 23.229
1323.240, 43.723
1324.441, 30.211
1325.642, 37.697
1326.843, 0.082
1328.044, 12.563
1329.245, 11.041
1330.445, 4.487
1331.645, 2.016
1332.845, 6.449
1334.045, 11.912
1335.245, 1.372
1336.445, 7.171
1337.644, 0.281
1338.843, 34.725
1340.042, 17.833
1341.241, 18.604
1342.440, 4.961
1343.638, 13.530
1344.836, 7.896
1346.034, 4.680
1347.232, 15.740
1348.430, 15.158
1349.628, 21.572
1350.825, 13.984
1352.022, 5.607
1353.219, 23.201
1354.416, 19.082
1355.613, 8.408
1356.809, 12.017
1358.005, 18.369
1359.202, 22.753
1360.398, 2.135
1361.593, 17.515
1362.789, 17.107
1363.984, 14.266
1365.179, 43.638
1366.374, 11.991
1367.569, 16.377
1368.764, 2.744
1369.958, 23.889
1371.153, 41.475
1372.347, 0.936
1373.541, 2.430
1374.735, 23.724
1375.928, 6.949
1377.122, 22.506
1378.315, 6.062
1379.508, 27.616
1380.701, 40.170
1381.893, 18.722
1383.086, 9.273
1384.278, 45.823
1385.470, 16.371
1386.662, 9.919
1387.854, 14.463
1389.046, 32.004
1390.237, 21.543
1391.428, 17.081
1392.619, 18.617
1393.810, 17.048
1395.001, 14.297
1396.191, 27.101
1397.382, 9.625
1398.572, 1.953
1399.762, 0.529
1400.952, 18.954
1402.141, 21.434
1403.331, 38.766
1404.520, 31.370
1405.709, 13.863
1406.898, 32.685
1408.087, 20.167
1409.275, 6.647
1410.464, 0.126
1411.652, 24.600
1412.840, 15.077
1414.028, 13.552
1415.215, 33.027
1416.403, 5.427
1417.590, 31.659
1418.777, 25.960
1419.964, 21.368
1421.151, 36.373
1422.338, 32.067
1423.524, 16.209
1424.710, 46.007
1425.896, 2.128
1427.082, 45.555
1428.268, 0.389
1429.453, 65.028
1430.639, 36.259
1431.824, 40.628
1433.009, 46.888
1434.194, 52.335
1435.378, 40.965
1436.563, 62.185
1437.747, 61.226
1438.931, 77.120
1440.115, 74.354
1441.299, 78.562
1442.482, 120.830
1443.666, 74.035
1444.849, 107.277
1446.032, 96.441
1447.215, 132.653
1448.397, 118.850
1449.580, 122.007
1450.762, 108.088
1451.944, 118.514
1453.126, 138.632
1454.308, 99.746
1455.490, 99.813
1456.671, 140.741
1457.852, 110.368
1459.033, 137.296
1460.214, 106.062
1461.395, 87.054
1462.575, 119.030
1463.756, 95.971
1464.936, 70.536
1466.116, 84.882
1467.296, 69.873
1468.475, 63.860
1469.655, 42.868
1470.834, 70.891
1472.013, 51.935
1473.192, 80.963
1474.371, 32.974
1475.550, 71.968
1476.728, 40.943
1477.906, 49.923
1479.084, 69.905
1480.262, 62.880
1481.440, 72.878
1482.617, 41.891
1483.795, 30.907
1484.972, 45.979
1486.149, 17.083
1487.326, 48.201
1488.502, 69.329
1489.679, 49.477
1490.855, 42.653
1492.031, 40.868
1493.207, 39.131
1494.383, 27.449
1495.559, 43.825
1496.734, 36.277
1497.909, 35.829
1499.084, 3.490
1500.259, 68.365
1501.434, 31.413
1502.608, 0.000
##END=



