##NAMES=Bertrandite
##RRUFFID=R060800
##IDEAL CHEMISTRY=Be_4_Si_2_O_7_(OH)_2_
##LOCALITY=Golconda mine, Governador Valadares, Minas Gerais, Brazil
##OWNER=RRUFF
##SOURCE=Bob Jenkins
##DESCRIPTION=Colorless pseudohexagonal prisms
##STATUS=The identification of this mineral is confirmed by single-crystal X-ray diffraction and chemical analysis.
##URL=rruff.info/R060800
##MEASURED CHEMISTRY=Be_4.00_Si_2.00_O_7_(OH)_2_
##PIN_ID=M00454
##ORIENTATION=Laser parallel to a* (1 0 0). Fiducial mark perpendicular to laser is parallel to b [0 1 0]
123.0580, 0.0000000E+00
124.2880, 0.4355470
125.5190, 75.17090
126.7490, 151.7568
127.9790, 111.7119
129.2090, 28.51660
130.4390, 294.6758
131.6680, 260.2646
132.8980, 295.4824
134.1270, 492.7656
135.3560, 608.6670
136.5850, 825.8252
137.8140, 1450.943
139.0430, 1694.775
140.2710, 2066.117
141.5000, 2059.807
142.7280, 1911.746
143.9560, 1574.849
145.1840, 1188.971
146.4120, 884.9941
147.6390, 541.8486
148.8670, 436.4805
150.0940, 297.8096
151.3210, 361.7686
152.5490, 178.3037
153.7750, 173.3672
155.0020, 253.9180
156.2290, 131.9209
157.4550, 121.3418
158.6810, 95.24902
159.9080, 159.6016
161.1340, 320.4854
162.3590, 298.1631
163.5850, 426.1143
164.8110, 481.2461
166.0360, 481.5439
167.2610, 515.0000
168.4860, 723.6084
169.7110, 1073.364
170.9360, 1890.496
172.1610, 3093.172
173.3850, 4466.949
174.6100, 5499.820
175.8340, 6568.799
177.0580, 8925.900
178.2820, 13111.13
179.5050, 17978.49
180.7290, 21320.96
181.9520, 21546.55
183.1760, 19097.24
184.3990, 16247.05
185.6220, 13135.95
186.8450, 10340.97
188.0670, 7827.096
189.2900, 6138.320
190.5120, 5345.639
191.7340, 5730.051
192.9560, 7875.554
194.1780, 11233.22
195.4000, 15152.80
196.6220, 17453.43
197.8430, 20293.38
199.0640, 28109.38
200.2860, 39456.44
201.5070, 49580.19
202.7270, 54215.41
203.9480, 50446.91
205.1690, 42854.21
206.3890, 34472.55
207.6090, 27348.93
208.8290, 19826.37
210.0490, 13040.87
211.2690, 7932.422
212.4890, 4811.034
213.7080, 3819.705
214.9280, 3155.432
216.1470, 3233.218
217.3660, 3925.985
218.5850, 5618.619
219.8030, 7034.305
221.0220, 8028.688
222.2400, 9585.462
223.4590, 14530.30
224.6770, 19575.39
225.8950, 25365.59
227.1120, 28029.00
228.3300, 26399.65
229.5480, 22338.57
230.7650, 18735.66
231.9820, 14974.84
233.1990, 11078.05
234.4160, 8211.284
235.6330, 6210.545
236.8490, 5404.834
238.0660, 5293.145
239.2820, 5145.480
240.4980, 4434.839
241.7140, 3940.224
242.9300, 3321.630
244.1460, 2627.081
245.3610, 2045.627
246.5770, 1370.238
247.7920, 910.9121
249.0070, 653.7100
250.2220, 455.5586
251.4370, 277.5713
252.6510, 203.3682
253.8660, 193.1885
255.0800, 202.0928
256.2940, 324.0107
257.5080, 467.9424
258.7220, 519.8848
259.9360, 344.8389
261.1490, 237.8047
262.3630, 130.7812
263.5760, 199.7686
264.7890, 84.23340
266.0020, 166.7744
267.2150, 148.7812
268.4270, 204.7871
269.6400, 118.9844
270.8520, 18.65332
272.0640, 10.13672
273.2760, 120.9111
274.4880, 67.44336
275.7000, 69.08301
276.9120, 75.20801
278.1230, 82.12988
279.3340, 9.101563
280.5450, 52.48047
281.7560, 17.99121
282.9670, 7.375000
284.1780, 16.36816
285.3880, 157.2168
286.5980, 199.1621
287.8090, 231.1973
289.0190, 564.3164
290.2290, 585.5146
291.4380, 872.7871
292.6480, 1090.129
293.8570, 1693.534
295.0670, 2389.003
296.2760, 3063.527
297.4850, 3078.107
298.6930, 2492.742
299.9020, 2053.425
301.1110, 1446.156
302.3190, 963.9297
303.5270, 611.7490
304.7350, 437.6084
305.9430, 188.5068
307.1510, 105.4414
308.3580, 101.4072
309.5660, 43.08594
310.7730, 128.4248
311.9800, 176.5234
313.1870, 34.47754
314.3940, 79.40918
315.6010, 89.44629
316.8070, 15.76660
318.0130, 16.11719
319.2200, 92.01758
320.4260, 74.17383
321.6310, 108.3516
322.8370, 166.3301
324.0430, 73.74902
325.2480, 266.9834
326.4540, 256.2383
327.6590, 287.4346
328.8640, 455.2412
330.0680, 417.2412
331.2730, 533.5039
332.4780, 491.7969
333.6820, 521.4883
334.8860, 630.8350
336.0900, 552.4922
337.2940, 511.0957
338.4980, 556.4863
339.7010, 413.8623
340.9050, 616.2480
342.1080, 521.6426
343.3110, 929.0449
344.5140, 959.4033
345.7170, 1224.736
346.9200, 1830.060
348.1220, 2505.393
349.3240, 2843.825
350.5270, 3289.159
351.7290, 3770.452
352.9310, 3857.825
354.1320, 4374.209
355.3340, 4544.602
356.5350, 4542.005
357.7370, 4105.416
358.9380, 3792.834
360.1390, 3619.262
361.3400, 3293.698
362.5400, 3170.925
363.7410, 2351.309
364.9410, 1872.891
366.1410, 1372.243
367.3410, 1181.296
368.5410, 915.5391
369.7410, 455.9307
370.9400, 262.7129
372.1400, 230.5049
373.3390, 281.3184
374.5380, 153.8086
375.7370, 226.2744
376.9360, 235.7578
378.1350, 360.2500
379.3330, 399.7422
380.5310, 516.2393
381.7300, 651.7354
382.9280, 783.2314
384.1260, 783.7334
385.3230, 803.2314
386.5210, 865.7295
387.7180, 812.1846
388.9160, 674.7188
390.1130, 662.2090
391.3100, 562.6963
392.5060, 335.1816
393.7030, 470.6621
394.9000, 343.1387
396.0960, 340.6104
397.2920, 381.0781
398.4880, 325.5410
399.6840, 398.9980
400.8800, 430.4502
402.0750, 319.8975
403.2710, 435.3398
404.4660, 429.7764
405.6610, 571.2090
406.8560, 663.6953
408.0510, 657.1152
409.2450, 686.0439
410.4400, 934.6484
411.6340, 1075.053
412.8280, 1038.449
414.0220, 1173.854
415.2160, 1229.919
416.4100, 1173.728
417.6030, 1075.621
418.7970, 1185.237
419.9900, 1083.754
421.1830, 969.8223
422.3760, 724.0732
423.5690, 628.5283
424.7610, 634.9854
425.9540, 577.4424
427.1460, 584.2910
428.3380, 436.2178
429.5300, 594.6719
430.7220, 594.1260
431.9140, 545.5771
433.1050, 686.0254
434.2970, 711.4717
435.4880, 741.9141
436.6790, 799.3535
437.8700, 894.7881
439.0610, 700.2207
440.2510, 666.6465
441.4420, 636.0684
442.6320, 661.4854
443.8220, 680.8975
445.0120, 710.3057
446.2020, 775.7070
447.3910, 709.7949
448.5810, 741.4961
449.7700, 530.8818
450.9600, 544.2617
452.1490, 340.6357
453.3370, 392.7568
454.5260, 442.1191
455.7150, 288.0859
456.9030, 463.4453
458.0910, 392.0498
459.2800, 401.1992
460.4670, 321.5322
461.6550, 153.4111
462.8430, 313.7314
464.0300, 74.04395
465.2180, 104.3506
466.4050, 230.3506
467.5920, 78.79492
468.7790, 138.9346
469.9650, 68.93457
471.1520, 109.8721
472.3380, 41.09961
473.5250, 131.9443
474.7110, 100.0898
475.8970, 105.3232
477.0820, 116.6465
478.2680, 6.935547
479.4540, 103.5146
480.6390, 84.94727
481.8240, 88.40039
483.0090, 278.8438
484.1940, 441.2803
485.3780, 639.7070
486.5630, 720.1260
487.7470, 777.5371
488.9320, 767.9395
490.1160, 867.3330
491.3000, 684.7188
492.4830, 571.0967
493.6670, 555.4658
494.8500, 555.8271
496.0340, 539.1797
497.2170, 474.5244
498.4000, 336.8594
499.5820, 422.1846
500.7650, 210.5029
501.9480, 124.8105
503.1300, 216.1113
504.3120, 18.40234
505.4940, 162.6670
506.6760, 70.07324
507.8580, 214.1084
509.0390, 2.283203
510.2210, 1.402344
511.4020, 149.5039
512.5830, 37.29297
513.7640, 48.87695
514.9450, 16.53223
516.1250, 23.37500
517.3060, 160.6719
518.4860, 230.5479
519.6660, 369.2363
520.8460, 491.1113
522.0260, 435.3340
523.2060, 336.1875
524.3850, 347.0322
525.5650, 377.1104
526.7440, 446.9316
527.9230, 451.7422
529.1020, 730.5439
530.2810, 909.3330
531.4590, 1117.113
532.6380, 1582.881
533.8160, 2246.638
534.9940, 2278.385
536.1720, 2404.120
537.3500, 2155.846
538.5270, 1752.560
539.7050, 1336.263
540.8820, 962.9551
542.0590, 669.6387
543.2360, 380.3105
544.4130, 420.9707
545.5900, 390.6211
546.7660, 277.2598
547.9430, 109.8887
549.1190, 182.5068
550.2950, 177.1143
551.4710, 93.72168
552.6470, 190.3164
553.8220, 144.9014
554.9980, 186.4736
556.1730, 32.03809
557.3480, 70.57520
558.5230, 71.09668
559.6980, 107.6211
560.8730, 253.1445
562.0470, 73.33301
563.2220, 43.12012
564.3960, 377.5625
565.5700, 204.9941
566.7440, 498.4141
567.9170, 596.8232
569.0910, 841.2246
570.2640, 1175.625
571.4380, 1442.014
572.6110, 1775.424
573.7840, 2109.822
574.9570, 2445.211
576.1290, 2934.598
577.3020, 2953.980
578.4740, 3085.379
579.6460, 2472.785
580.8180, 2079.189
581.9900, 1728.625
583.1620, 1130.057
584.3330, 831.5488
585.5040, 426.0742
586.6760, 478.6172
587.8470, 452.1484
589.0180, 125.6895
590.1880, 360.2656
591.3590, 356.8320
592.5290, 144.4219
593.7000, 251.0215
594.8700, 275.6289
596.0400, 122.2383
597.2090, 299.8730
598.3790, 208.5039
599.5490, 253.8652
600.7180, 298.7715
601.8870, 369.3965
603.0560, 341.0156
604.2250, 471.6230
605.3940, 185.2227
606.5620, 316.8105
607.7300, 102.4062
608.8990, 246.9746
610.0670, 194.5332
611.2350, 205.1582
612.4020, 244.1816
613.5700, 189.0156
614.7370, 222.5977
615.9050, 310.1523
617.0720, 225.3574
618.2390, 369.8320
619.4060, 497.0430
620.5720, 448.3105
621.7390, 266.7988
622.9050, 382.2812
624.0710, 422.7598
625.2370, 290.2324
626.4030, 305.7012
627.5690, 128.1641
628.7340, 313.6230
629.9000, 188.0762
631.0650, 244.5273
632.2300, 278.9707
633.3950, 266.4102
634.5600, 319.8477
635.7240, 330.3477
636.8890, 431.7031
638.0530, 377.1270
639.2170, 397.5449
640.3810, 425.9551
641.5450, 303.3633
642.7080, 90.76758
643.8720, 181.1680
645.0350, 243.7676
646.1980, 35.16016
647.3610, 283.3164
648.5240, 60.69922
649.6870, 61.61133
650.8490, 81.87109
652.0120, 48.79102
653.1740, 134.8594
654.3360, 25.96875
655.4980, 5.109375
656.6600, 33.06641
657.8210, 68.73047
658.9830, 33.50781
660.1440, 28.57422
661.3050, 26.28320
662.4660, 25.83984
663.6270, 102.9629
664.7870, 24.91211
665.9480, 98.19727
667.1080, 94.30469
668.2680, 178.4102
669.4280, 264.5156
670.5880, 451.6172
671.7480, 523.7207
672.9070, 717.8223
674.0670, 845.9238
675.2260, 1085.383
676.3850, 1331.121
677.5440, 1646.219
678.7030, 1936.314
679.8610, 2300.410
681.0200, 2689.508
682.1780, 3071.604
683.3360, 3770.701
684.4940, 4434.797
685.6520, 5278.891
686.8090, 6566.988
687.9670, 7257.020
689.1240, 7587.115
690.2810, 7715.211
691.4380, 7442.113
692.5950, 6881.207
693.7520, 6043.303
694.9080, 5320.398
696.0650, 4534.848
697.2210, 4216.379
698.3770, 3967.926
699.5330, 4090.225
700.6880, 4593.326
701.8440, 5075.646
702.9990, 5819.520
704.1550, 7231.625
705.3100, 8581.730
706.4650, 10124.84
707.6190, 12223.94
708.7740, 13355.49
709.9290, 14396.61
711.0830, 14520.55
712.2370, 13864.67
713.3910, 12365.79
714.5450, 10440.61
715.6980, 8766.984
716.8520, 7158.693
718.0050, 5420.068
719.1580, 4587.645
720.3110, 3486.293
721.4640, 2897.830
722.6170, 2597.658
723.7700, 2113.348
724.9220, 1838.736
726.0740, 1652.859
727.2260, 1567.469
728.3780, 1422.346
729.5300, 1353.576
730.6810, 1276.012
731.8330, 1261.154
732.9840, 1222.787
734.1350, 1200.557
735.2860, 1123.105
736.4370, 1123.215
737.5880, 1095.320
738.7380, 1070.424
739.8880, 1223.525
741.0390, 949.6230
742.1890, 982.7188
743.3380, 1115.814
744.4880, 1247.906
745.6380, 1444.818
746.7870, 1538.160
747.9360, 1898.320
749.0850, 2204.480
750.2340, 2388.668
751.3830, 2822.896
752.5310, 3133.129
753.6800, 3228.408
754.8280, 3100.727
755.9760, 2909.082
757.1240, 2607.479
758.2720, 2284.891
759.4190, 1995.336
760.5670, 1980.787
761.7140, 1816.234
762.8610, 1906.682
764.0080, 2030.127
765.1550, 2616.572
766.3020, 2831.020
767.4480, 3172.465
768.5950, 3667.910
769.7410, 4034.355
770.8870, 4274.801
772.0330, 4122.246
773.1780, 3560.691
774.3240, 3067.135
775.4690, 2322.578
776.6140, 1876.025
777.7590, 1317.469
778.9040, 1279.914
780.0490, 889.3613
781.1940, 750.8066
782.3380, 549.2520
783.4820, 432.7070
784.6260, 490.1602
785.7700, 497.6504
786.9140, 515.1406
788.0580, 403.6621
789.2010, 344.1816
790.3450, 323.8418
791.4880, 469.7539
792.6310, 261.8906
793.7730, 341.1855
794.9160, 339.7852
796.0590, 284.4102
797.2010, 323.2148
798.3430, 280.8262
799.4850, 303.7676
800.6270, 366.6953
801.7690, 362.3145
802.9100, 289.6895
804.0520, 341.3164
805.1930, 313.9473
806.3340, 358.6406
807.4750, 495.2188
808.6160, 518.8574
809.7560, 569.5039
810.8970, 754.1504
812.0370, 1023.805
813.1770, 1273.461
814.3170, 1559.123
815.4570, 1757.789
816.5960, 2215.461
817.7360, 2611.135
818.8750, 2916.814
820.0140, 2989.498
821.1530, 2926.613
822.2920, 2885.875
823.4310, 2403.570
824.5690, 1899.270
825.7070, 1460.977
826.8460, 1356.686
827.9840, 1051.402
829.1220, 813.1230
830.2590, 357.8496
831.3970, 587.5879
832.5340, 303.3477
833.6710, 255.1211
834.8080, 248.9023
835.9450, 7.693359
837.0820, 148.4844
838.2190, 232.2793
839.3550, 275.1133
840.4910, 248.9609
841.6270, 191.6328
842.7630, 358.6836
843.8990, 148.5605
845.0350, 30.55859
846.1700, 317.3047
847.3060, 104.8223
848.4410, 180.9922
849.5760, 144.8125
850.7100, 18.36133
851.8450, 10.54492
852.9800, 84.73828
854.1140, 61.97461
855.2480, 14.24219
856.3820, 148.5215
857.5160, 13.87695
858.6500, 263.2422
859.7830, 149.7441
860.9170, 97.32422
862.0500, 134.0469
863.1830, 67.57617
864.3160, 163.2324
865.4480, 74.02930
866.5810, 124.7051
867.7130, 66.50000
868.8460, 26.32617
869.9780, 40.15039
871.1100, 1.607422
872.2410, 17.21094
873.3730, 45.41406
874.5050, 59.62500
875.6360, 130.8457
876.7670, 362.0762
877.8980, 254.3145
879.0290, 348.5586
880.1590, 328.8125
881.2900, 275.0742
882.4200, 524.3516
883.5500, 525.6387
884.6800, 540.9336
885.8100, 436.2363
886.9400, 538.5508
888.0690, 457.8711
889.1990, 328.2012
890.3280, 416.5371
891.4570, 320.8828
892.5860, 314.2383
893.7140, 476.5996
894.8430, 372.9727
895.9710, 346.3496
897.1000, 481.7383
898.2280, 504.1348
899.3560, 470.5391
900.4830, 323.9512
901.6110, 464.3730
902.7380, 379.8047
903.8660, 519.2422
904.9930, 364.6914
906.1200, 445.1504
907.2460, 430.6172
908.3730, 675.0957
909.5000, 681.5801
910.6260, 748.0781
911.7520, 902.5820
912.8780, 1259.098
914.0040, 1241.623
915.1290, 1773.160
916.2550, 2316.705
917.3800, 3014.262
918.5050, 4212.828
919.6300, 5791.402
920.7550, 7872.990
921.8800, 10531.59
923.0040, 13541.20
924.1290, 16767.84
925.2530, 18979.48
926.3770, 18905.15
927.5010, 17106.87
928.6250, 14333.61
929.7480, 11506.36
930.8720, 9122.121
931.9950, 7290.910
933.1180, 5634.719
934.2410, 4760.541
935.3640, 4011.379
936.4860, 3581.262
937.6090, 2717.162
938.7310, 2534.086
939.8530, 2179.018
940.9750, 1873.963
942.0970, 1986.918
943.2180, 2106.883
944.3400, 2039.861
945.4610, 2193.850
946.5820, 2304.850
947.7030, 2550.861
948.8240, 2270.883
949.9450, 2223.918
951.0650, 1825.965
952.1860, 1721.021
953.3060, 1608.088
954.4260, 1497.170
955.5460, 1399.260
956.6650, 1343.014
957.7850, 1403.479
958.9040, 1250.605
960.0230, 1319.744
961.1420, 1272.895
962.2610, 1372.057
963.3800, 1314.232
964.4990, 1271.418
965.6170, 1123.939
966.7350, 1527.834
967.8530, 1228.055
968.9710, 1607.420
970.0890, 1313.666
971.2070, 1651.656
972.3240, 1749.926
973.4410, 1939.207
974.5580, 2209.500
975.6750, 2630.805
976.7920, 3174.115
977.9090, 4006.445
979.0250, 4668.809
980.1410, 6039.748
981.2580, 7390.133
982.3740, 9075.695
983.4890, 11151.11
984.6050, 13052.53
985.7200, 15091.26
986.8360, 16203.46
987.9510, 16528.34
989.0660, 15615.58
990.1810, 14018.63
991.2950, 12034.61
992.4100, 10005.75
993.5240, 7890.629
994.6390, 6429.668
995.7530, 5081.020
996.8660, 4287.652
997.9800, 3766.816
999.0940, 2995.170
1000.207, 2367.867
1001.320, 2190.738
1002.433, 1965.588
1003.546, 1798.949
1004.659, 1502.025
1005.772, 1251.334
1006.884, 1086.148
1007.996, 1081.045
1009.108, 1045.896
1010.220, 941.7656
1011.332, 764.6582
1012.444, 643.5684
1013.555, 823.4961
1014.666, 780.4590
1015.777, 545.7773
1016.888, 704.7793
1017.999, 656.8145
1019.110, 534.8672
1020.220, 765.9375
1021.331, 662.0273
1022.441, 727.1328
1023.551, 783.2598
1024.661, 756.4004
1025.770, 619.5625
1026.880, 586.7461
1027.989, 336.9414
1029.098, 512.1562
1030.207, 381.3906
1031.316, 459.6445
1032.425, 292.9277
1033.533, 214.2285
1034.642, 308.5859
1035.750, 241.9629
1036.858, 228.3574
1037.966, 94.76758
1039.073, 289.1973
1040.181, 108.6953
1041.288, 86.21094
1042.396, 235.7441
1043.503, 289.2930
1044.610, 349.8652
1045.716, 335.4434
1046.823, 389.0605
1047.929, 211.6836
1049.036, 219.3242
1050.142, 121.9824
1051.248, 114.1484
1052.353, 87.35352
1053.459, 189.0645
1054.564, 198.7969
1055.670, 340.5469
1056.775, 463.3164
1057.880, 418.0996
1058.985, 391.9023
1060.089, 399.7227
1061.194, 442.5586
1062.298, 731.4141
1063.402, 695.2832
1064.506, 924.1719
1065.610, 863.0781
1066.713, 1078.996
1067.817, 1166.934
1068.920, 1167.301
1070.023, 1255.582
1071.126, 1188.006
1072.229, 1250.670
1073.332, 1027.770
1074.435, 961.8027
1075.537, 849.3926
1076.639, 787.7695
1077.741, 739.0000
1078.843, 711.0996
1079.945, 705.2129
1081.046, 615.3418
1082.148, 631.4844
1083.249, 664.6426
1084.350, 632.8164
1085.451, 677.0059
1086.551, 584.2109
1087.652, 329.4316
1088.752, 433.6641
1089.853, 349.9141
1090.953, 162.1797
1092.053, 383.4590
1093.152, 183.7559
1094.252, 157.0664
1095.351, 104.3926
1096.451, 127.7305
1097.550, 51.91406
1098.649, 105.5566
1099.748, 9.781250
1100.846, 8.865234
1101.945, 143.4980
1103.043, 179.8770
1104.141, 242.2734
1105.239, 194.6836
1106.337, 10.10938
1107.434, 96.54492
1108.532, 90.00195
1109.629, 16.43750
1110.726, 65.81055
1111.823, 11.27734
1112.920, 289.7695
1114.017, 23.27344
1115.113, 241.8242
1116.210, 389.9863
1117.306, 559.9629
1118.402, 710.5625
1119.498, 886.5430
1120.593, 881.2012
1121.689, 1048.891
1122.784, 1034.602
1123.879, 933.1719
1124.974, 793.2051
1126.069, 711.3750
1127.164, 590.2969
1128.259, 293.2617
1129.353, 147.9082
1130.447, 9.447266
1131.541, 65.50977
1132.635, 43.12891
1133.729, 18.75195
1134.822, 69.60938
1135.916, 35.47070
1137.009, 168.3164
1138.102, 62.83594
1139.195, 1.998047
1140.288, 16.17578
1141.380, 214.3613
1142.473, 165.3203
1143.565, 12.52344
1144.657, 165.7383
1145.749, 188.9102
1146.841, 38.85742
1147.932, 340.1387
1149.024, 191.3887
1150.115, 118.6348
1151.206, 116.8887
1152.297, 326.1797
1153.388, 348.4766
1154.479, 388.9258
1155.569, 424.2402
1156.659, 428.5645
1157.750, 509.8965
1158.839, 728.2363
1159.929, 574.5840
1161.019, 741.9375
1162.108, 838.3164
1163.198, 789.5449
1164.287, 732.9199
1165.376, 773.5508
1166.465, 715.9395
1167.553, 724.3574
1168.642, 660.7578
1169.730, 702.1641
1170.818, 531.8984
1171.906, 489.3340
1172.994, 359.7773
1174.082, 418.6289
1175.170, 359.0859
1176.257, 411.5430
1177.344, 135.0059
1178.431, 262.4707
1179.518, 165.9453
1180.605, 288.4180
1181.691, 142.8984
1182.778, 437.3789
1183.864, 117.8652
1184.950, 346.1230
1186.036, 172.6133
1187.122, 285.1074
1188.207, 157.6055
1189.292, 114.1035
1190.378, 166.6055
1191.463, 54.11133
1192.548, 80.61719
1193.632, 51.12891
1194.717, 109.6426
1195.801, 320.1562
1196.886, 177.6738
1197.970, 104.1914
1199.054, 115.2871
1200.137, 33.83008
1201.221, 15.60352
1202.305, 223.2031
1203.388, 12.64062
1204.471, 84.07812
1205.554, 25.56250
1206.637, 174.0000
1207.719, 52.43750
1208.802, 82.89062
1209.884, 99.34180
1210.966, 86.06445
1212.048, 110.1387
1213.130, 128.7031
1214.212, 92.15820
1215.293, 85.10352
1216.374, 79.23633
1217.456, 108.5215
1218.536, 56.97461
1219.617, 93.42969
1220.698, 78.88086
1221.778, 47.36914
1222.859, 193.1270
1223.939, 144.5762
1225.019, 230.0273
1226.099, 180.4746
1227.178, 236.9219
1228.258, 105.0449
1229.337, 371.0117
1230.417, 236.4551
1231.496, 207.7754
1232.574, 359.2129
1233.653, 226.6523
1234.732, 171.0879
1235.810, 86.52148
1236.888, 213.0742
1237.966, 149.5020
1239.044, 61.93750
1240.122, 62.63867
1241.199, 257.7422
1242.277, 447.1172
1243.354, 208.7812
1244.431, 84.15430
1245.508, 100.5215
1246.585, 68.88672
1247.661, 53.19922
1248.738, 18.39062
1249.814, 70.94336
1250.890, 70.73242
1251.966, 76.05469
1253.042, 55.62305
1254.117, 46.34766
1255.193, 20.89062
1256.268, 173.2402
1257.343, 41.45508
1258.418, 13.66602
1259.493, 17.13477
1260.567, 105.1914
1261.642, 16.64648
1262.716, 88.48828
1263.790, 178.1641
1264.864, 112.7168
1265.938, 58.77734
1267.011, 107.9336
1268.085, 132.0371
1269.158, 172.9609
1270.231, 113.0508
1271.304, 15.12891
1272.377, 223.1973
1273.450, 181.2539
1274.522, 36.69336
1275.594, 77.31445
1276.666, 15.97852
1277.738, 21.77344
1278.810, 79.54297
1279.882, 77.48438
1280.953, 160.4648
1282.025, 193.3867
1283.096, 45.30469
1284.167, 80.90820
1285.238, 195.8066
1286.308, 84.69531
1287.379, 158.5137
1288.449, 141.4453
1289.519, 146.4004
1290.589, 75.37305
1291.659, 13.59375
1292.729, 155.2461
1293.798, 114.9512
1294.868, 119.7617
1295.937, 79.46680
1297.006, 141.3027
1298.075, 340.0098
1299.143, 146.5137
