##NAMES=Bertrandite
##RRUFFID=R060800
##IDEAL CHEMISTRY=Be_4_Si_2_O_7_(OH)_2_
##LOCALITY=Golconda mine, Governador Valadares, Minas Gerais, Brazil
##OWNER=RRUFF
##SOURCE=Bob Jenkins
##DESCRIPTION=Colorless pseudohexagonal prisms
##STATUS=The identification of this mineral is confirmed by single-crystal X-ray diffraction and chemical analysis.
##URL=rruff.info/R060800
##MEASURED CHEMISTRY=Be_4.00_Si_2.00_O_7_(OH)_2_
##PIN_ID=M00454
##ORIENTATION=Laser parallel to a* (1 0 0). Fiducial mark perpendicular to laser is parallel to b [0 1 0]
123.0580, 0.0000000E+00
124.2880, 139.6885
125.5190, 2.608398
126.7490, 4.147949
127.9790, 65.32422
129.2090, 3.368164
130.4390, 133.0000
131.6680, 43.66064
132.8980, 110.0493
134.1270, 111.7407
135.3560, 180.3999
136.5850, 227.7612
137.8140, 271.6118
139.0430, 419.7773
140.2710, 382.1128
141.5000, 485.4971
142.7280, 467.8350
143.9560, 324.0391
145.1840, 235.0220
146.4120, 190.7090
147.6390, 92.03955
148.8670, 18.97900
150.0940, 71.47852
151.3210, 130.4946
152.5490, 129.9922
153.7750, 35.93652
155.0020, 131.2979
156.2290, 36.05176
157.4550, 161.1753
158.6810, 110.6470
159.9080, 191.4487
161.1340, 168.6279
162.3590, 203.1489
163.5850, 191.9087
164.8110, 239.1938
166.0360, 418.0820
167.2610, 410.4707
168.4860, 638.0479
169.7110, 886.8057
170.9360, 1735.735
172.1610, 2679.994
173.3850, 3730.514
174.6100, 4905.175
175.8340, 5635.986
177.0580, 7320.955
178.2820, 10438.07
179.5050, 13916.34
180.7290, 16432.74
181.9520, 16385.28
183.1760, 14647.95
184.3990, 12685.74
185.6220, 10346.66
186.8450, 8444.701
188.0670, 6806.867
189.2900, 5678.155
190.5120, 5339.560
191.7340, 6278.075
192.9560, 8948.701
194.1780, 13601.43
195.4000, 18259.26
196.6220, 21078.17
197.8430, 23298.20
199.0640, 30448.03
200.2860, 41281.02
201.5070, 50478.83
202.7270, 53452.68
203.9480, 49030.56
205.1690, 41763.47
206.3890, 33661.43
207.6090, 25556.44
208.8290, 17971.49
210.0490, 11664.59
211.2690, 6794.746
212.4890, 4072.953
213.7080, 2627.214
214.9280, 2020.529
216.1470, 1790.899
217.3660, 1931.326
218.5850, 2436.807
219.8030, 3120.748
221.0220, 3566.514
222.2400, 4045.655
223.4590, 5324.257
224.6770, 7466.960
225.8950, 9398.866
227.1120, 10643.02
228.3300, 10286.33
229.5480, 9373.795
230.7650, 8417.313
231.9820, 7241.871
233.1990, 6093.465
234.4160, 5251.099
235.6330, 4928.770
236.8490, 5530.477
238.0660, 6165.220
239.2820, 6163.000
240.4980, 5714.818
241.7140, 5107.670
242.9300, 4042.558
244.1460, 3147.494
245.3610, 2317.486
246.5770, 1620.514
247.7920, 1079.657
249.0070, 822.8955
250.2220, 564.2246
251.4370, 471.6855
252.6510, 321.1719
253.8660, 254.6846
255.0800, 391.2227
256.2940, 183.7842
257.5080, 344.3711
258.7220, 370.9814
259.9360, 275.6152
261.1490, 227.2715
262.3630, 207.6143
263.5760, 251.6533
264.7890, 177.3770
266.0020, 119.1221
267.2150, 179.9043
268.4270, 115.7148
269.6400, 15.68457
270.8520, 64.14941
272.0640, 58.88965
273.2760, 9.077148
274.4880, 98.25195
275.7000, 19.41699
276.9120, 50.89648
278.1230, 14.76758
279.3340, 19.56934
280.5450, 83.49414
281.7560, 46.53516
282.9670, 130.6826
284.1780, 8.930664
285.3880, 122.2725
286.5980, 158.7031
287.8090, 155.2178
289.0190, 394.8105
290.2290, 630.4795
291.4380, 694.2188
292.6480, 814.0254
293.8570, 1749.898
295.0670, 1872.834
296.2760, 2110.828
297.4850, 2049.880
298.6930, 1942.986
299.9020, 1640.145
301.1110, 1120.355
302.3190, 807.6143
303.5270, 534.9199
304.7350, 278.2734
305.9430, 252.6689
307.1510, 286.1074
308.3580, 107.5859
309.5660, 91.10449
310.7730, 150.6621
311.9800, 29.25781
313.1870, 51.88965
314.3940, 44.44238
315.6010, 100.7344
316.8070, 43.00293
318.0130, 35.77246
319.2200, 81.43555
320.4260, 23.34473
321.6310, 49.52637
322.8370, 12.69238
324.0430, 62.53711
325.2480, 51.98730
326.4540, 221.0645
327.6590, 215.1055
328.8640, 202.6055
330.0680, 153.0400
331.2730, 113.4180
332.4780, 192.9395
333.6820, 68.11328
334.8860, 32.80859
336.0900, 139.9521
337.2940, 104.1152
338.4980, 54.29785
339.7010, 113.5010
340.9050, 81.42969
342.1080, 132.9629
343.3110, 128.2109
344.5140, 226.4795
345.7170, 332.7549
346.9200, 464.0508
348.1220, 502.3662
349.3240, 905.6992
350.5270, 982.0498
351.7290, 1016.423
352.9310, 1528.812
354.1320, 2068.225
355.3340, 2607.654
356.5350, 2906.102
357.7370, 3248.556
358.9380, 3198.047
360.1390, 3599.545
361.3400, 4011.061
362.5400, 3975.592
363.7410, 3346.534
364.9410, 2838.525
366.1410, 2257.398
367.3410, 1646.945
368.5410, 1011.508
369.7410, 672.9277
370.9400, 499.2637
372.1400, 422.8662
373.3390, 192.4834
374.5380, 231.8857
375.7370, 198.3184
376.9360, 120.0410
378.1350, 145.7275
379.3330, 136.4258
380.5310, 67.25879
381.7300, 267.9746
382.9280, 210.6982
384.1260, 189.4316
385.3230, 138.1729
386.5210, 181.6016
387.7180, 323.6807
388.9160, 289.4463
390.1130, 364.2188
391.3100, 426.0000
392.5060, 357.7881
393.7030, 477.5820
394.9000, 412.3828
396.0960, 508.1875
397.2920, 484.9990
398.4880, 544.8154
399.6840, 446.6367
400.8800, 363.4629
402.0750, 400.2939
403.2710, 461.1309
404.4660, 485.9707
405.6610, 706.8164
406.8560, 699.7002
408.0510, 940.1582
409.2450, 1145.693
410.4400, 1184.556
411.6340, 1364.428
412.8280, 1564.303
414.0220, 1797.188
415.2160, 1737.096
416.4100, 1663.912
417.6030, 1696.857
418.7970, 1505.818
419.9900, 1271.562
421.1830, 1022.643
422.3760, 802.6475
423.5690, 582.6660
424.7610, 477.6963
425.9540, 441.7393
427.1460, 329.7930
428.3380, 308.8564
429.5300, 385.9316
430.7220, 93.01758
431.9140, 316.1123
433.1050, 234.2178
434.2970, 342.3301
435.4880, 238.4531
436.6790, 323.5830
437.8700, 422.7227
439.0610, 464.8701
440.2510, 534.0244
441.4420, 760.1855
442.6320, 775.3545
443.8220, 917.5312
445.0120, 1231.714
446.2020, 1245.903
447.3910, 1401.100
448.5810, 1206.300
449.7700, 1119.508
450.9600, 697.7217
452.1490, 553.9414
453.3370, 354.1660
454.5260, 289.3965
455.7150, 254.6934
456.9030, 126.9336
458.0910, 103.2715
459.2800, 142.8037
460.4670, 35.33105
461.6550, 59.59863
462.8430, 1.3672000E-02
464.0300, 33.86133
465.2180, 23.11816
466.4050, 7.375977
467.5920, 55.37402
468.7790, 65.15723
469.9650, 131.8818
471.1520, 121.7832
472.3380, 85.75391
473.5250, 16.77832
474.7110, 118.8213
475.8970, 27.93359
477.0820, 19.07129
478.2680, 51.77051
479.4540, 239.6143
480.6390, 251.4619
481.8240, 326.3115
483.0090, 321.1641
484.1940, 463.0195
485.3780, 802.8779
486.5630, 940.7393
487.7470, 1066.604
488.9320, 1186.470
490.1160, 942.3398
491.3000, 955.2109
492.4830, 828.1299
493.6670, 805.3721
494.8500, 834.2500
496.0340, 780.6699
497.2170, 606.5527
498.4000, 615.4365
499.5820, 627.3213
500.7650, 502.3281
501.9480, 193.2168
503.1300, 240.1064
504.3120, 182.9980
505.4940, 10.10840
506.6760, 30.76465
507.8580, 35.63379
509.0390, 105.5000
510.2210, 65.36816
511.4020, 0.2382810
512.5830, 181.9082
513.7640, 97.83594
514.9450, 65.08008
516.1250, 66.17285
517.3060, 22.52441
518.4860, 137.7734
519.6660, 105.4502
520.8460, 116.0547
522.0260, 52.65918
523.2060, 151.2637
524.3850, 231.8691
525.5650, 112.4736
526.7440, 364.0791
527.9230, 353.6855
529.1020, 538.2920
530.2810, 680.8984
531.4590, 900.5049
532.6380, 1284.113
533.8160, 1425.722
534.9940, 1796.328
536.1720, 1700.937
537.3500, 1541.544
538.5270, 1170.154
539.7050, 979.7627
540.8820, 490.3730
542.0590, 483.9824
543.2360, 246.5918
544.4130, 215.2021
545.5900, 98.81250
546.7660, 138.4248
547.9430, 62.03516
549.1190, 33.64551
550.2950, 7.250000
551.4710, 85.83887
552.6470, 65.79688
553.8220, 66.01562
554.9980, 101.6045
556.1730, 85.19336
557.3480, 89.78125
558.5230, 77.37598
559.6980, 100.9697
560.8730, 150.8545
562.0470, 190.9990
563.2220, 286.7588
564.3960, 326.3584
565.5700, 402.9561
566.7440, 487.5547
567.9170, 687.1533
569.0910, 1012.754
570.2640, 1346.354
571.4380, 1861.960
572.6110, 2303.566
573.7840, 2788.172
574.9570, 3817.785
576.1290, 4473.398
577.3020, 4665.027
578.4740, 4667.656
579.6460, 4001.309
580.8180, 3272.962
581.9900, 2631.614
583.1620, 1768.269
584.3330, 1183.923
585.5040, 920.5908
586.6760, 567.2715
587.8470, 490.9512
589.0180, 416.6719
590.1880, 390.3994
591.3590, 229.1250
592.5290, 73.85059
593.7000, 349.5762
594.8700, 356.3008
596.0400, 59.03320
597.2090, 82.76367
598.3790, 1.505859
599.5490, 64.23828
600.7180, 53.99414
601.8870, 96.73633
603.0560, 48.51758
604.2250, 143.0273
605.3940, 146.7881
606.5620, 212.2822
607.7300, 73.12500
608.8990, 69.41211
610.0670, 44.09863
611.2350, 257.8477
612.4020, 179.1641
613.5700, 265.5703
614.7370, 319.9980
615.9050, 393.4297
617.0720, 338.1689
618.2390, 678.4121
619.4060, 525.2305
620.5720, 756.0703
621.7390, 677.9121
622.9050, 830.7793
624.0710, 596.6484
625.2370, 649.5215
626.4030, 534.3955
627.5690, 244.2725
628.7340, 198.1514
629.9000, 52.03320
631.0650, 32.91797
632.2300, 14.77051
633.3950, 0.2548830
634.5600, 82.65625
635.7240, 3.430664
636.8890, 117.4795
638.0530, 202.3916
639.2170, 81.30566
640.3810, 8.222656
641.5450, 126.1406
642.7080, 150.0605
643.8720, 64.98438
645.0350, 51.91211
646.1980, 157.4463
647.3610, 63.92578
648.5240, 68.53613
649.6870, 104.4736
650.8490, 52.41504
652.0120, 31.51562
653.1740, 127.7158
654.3360, 11.33398
655.4980, 81.61230
656.6600, 14.78906
657.8210, 23.04980
658.9830, 106.1699
660.1440, 61.73340
661.3050, 146.6416
662.4660, 318.4277
663.6270, 120.3447
664.7870, 216.2656
665.9480, 305.1924
667.1080, 214.1221
668.2680, 316.0576
669.4280, 387.9971
670.5880, 705.9434
671.7480, 756.8916
672.9070, 1103.848
674.0670, 1251.806
675.2260, 1584.770
676.3850, 1875.738
677.5440, 2267.712
678.7030, 2526.689
679.8610, 2772.673
681.0200, 3258.661
682.1780, 3745.653
683.3360, 4496.650
684.4940, 5334.654
685.6520, 6085.661
686.8090, 7238.675
687.9670, 7998.656
689.1240, 8597.072
690.2810, 8619.427
691.4380, 7883.459
692.5950, 7080.490
693.7520, 6165.529
694.9080, 5514.578
696.0650, 4574.631
697.2210, 3994.689
698.3770, 3418.753
699.5330, 3282.822
700.6880, 3097.896
701.8440, 3379.977
702.9990, 3603.062
704.1550, 4267.152
705.3100, 4892.249
706.4650, 5869.350
707.6190, 6465.850
708.7740, 7334.961
709.9290, 7634.479
711.0830, 7816.601
712.2370, 7320.729
713.3910, 6681.686
714.5450, 5904.824
715.6980, 4724.617
716.8520, 3785.767
718.0050, 3139.806
719.1580, 2442.965
720.3110, 2115.161
721.4640, 1581.787
722.6170, 1454.961
723.7700, 965.3613
724.9220, 1194.538
726.0740, 1237.727
727.2260, 1178.728
728.3780, 1063.127
729.5300, 1050.328
730.6810, 1173.531
731.8330, 1219.740
732.9840, 1208.002
734.1350, 1230.111
735.2860, 1197.271
736.4370, 1225.496
737.5880, 1005.523
738.7380, 962.7402
739.8880, 1013.869
741.0390, 859.6240
742.1890, 962.6807
743.3380, 913.9375
744.4880, 1060.197
745.6380, 1355.463
746.7870, 1633.824
747.9360, 1972.123
749.0850, 2167.345
750.2340, 2457.713
751.3830, 2953.121
752.5310, 3193.562
753.6800, 3301.016
754.8280, 3265.510
755.9760, 2975.021
757.1240, 2728.550
758.2720, 2618.366
759.4190, 2448.902
760.5670, 2465.795
761.7140, 2605.338
762.8610, 2657.883
764.0080, 3018.431
765.1550, 3749.982
766.3020, 4173.537
767.4480, 4829.096
768.5950, 5623.657
769.7410, 6124.282
770.8870, 6159.803
772.0330, 6003.008
773.1780, 5540.582
774.3240, 4688.620
775.4690, 3671.199
776.6140, 3042.782
777.7590, 2322.368
778.9040, 1926.838
780.0490, 1325.430
781.1940, 1107.024
782.3380, 952.0762
783.4820, 930.6787
784.6260, 763.2959
785.7700, 588.9180
786.9140, 670.5449
788.0580, 613.1758
789.2010, 429.8096
790.3450, 450.4551
791.4880, 438.1592
792.6310, 510.3691
793.7730, 365.0791
794.9160, 283.8184
796.0590, 210.5527
797.2010, 413.7275
798.3430, 337.5254
799.4850, 257.3271
800.6270, 21.13281
801.7690, 89.94238
802.9100, 131.7559
804.0520, 150.5723
805.1930, 245.3926
806.3340, 278.2168
807.4750, 187.0449
808.6160, 132.8779
809.7560, 192.7129
810.8970, 196.5527
812.0370, 178.3975
813.1770, 203.9756
814.3170, 135.0977
815.4570, 227.9512
816.5960, 230.8105
817.7360, 287.6729
818.8750, 380.5400
820.0140, 374.4111
821.1530, 340.2852
822.2920, 276.1650
823.4310, 283.0469
824.5690, 275.9326
825.7070, 299.8232
826.8460, 309.7207
827.9840, 271.5420
829.1220, 186.5439
830.2590, 172.4619
831.3970, 114.3848
832.5340, 100.0508
833.6710, 95.55176
834.8080, 104.1768
835.9450, 121.1143
837.0820, 164.0576
838.2190, 218.5352
839.3550, 238.9551
840.4910, 236.9102
841.6270, 160.8701
842.7630, 31.83203
843.8990, 0.7988280
845.0350, 162.7656
846.1700, 16.26367
847.3060, 102.6963
848.4410, 37.66211
849.5760, 23.36914
850.7100, 110.5859
851.8450, 54.45312
852.9800, 72.47949
854.1140, 92.58594
855.2480, 103.3027
856.3820, 13.19531
857.5160, 9.1797002E-02
858.6500, 157.9863
859.7830, 47.11621
860.9170, 43.24121
862.0500, 24.60938
863.1830, 155.5352
864.3160, 12.75879
865.4480, 127.0117
866.5810, 49.78711
867.7130, 280.5664
868.8460, 10.35645
869.9780, 24.83789
871.1100, 218.9707
872.2410, 129.7969
873.3730, 107.3721
874.5050, 60.41504
875.6360, 145.2070
876.7670, 86.99609
877.8980, 184.7627
879.0290, 67.53320
880.1590, 280.3086
881.2900, 78.08887
882.4200, 80.12793
883.5500, 180.6182
884.6800, 198.3672
885.8100, 116.1230
886.9400, 195.8818
888.0690, 249.6465
889.1990, 132.4150
890.3280, 71.18848
891.4570, 103.9648
892.5860, 198.7461
893.7140, 67.46875
894.8430, 60.28320
895.9710, 85.96191
897.1000, 33.75098
898.2280, 77.46875
899.3560, 180.1895
900.4830, 151.9160
901.6110, 53.64551
902.7380, 26.37891
903.8660, 161.1182
904.9930, 99.13867
906.1200, 126.5557
907.2460, 94.25488
908.3730, 275.9600
909.5000, 128.6719
910.6260, 90.38965
911.7520, 41.11328
912.8780, 114.8408
914.0040, 57.57324
915.1290, 279.3115
916.2550, 158.0537
917.3800, 5.199219
918.5050, 423.5469
919.6300, 459.2979
920.7550, 521.0537
921.8800, 578.8145
923.0040, 616.5801
924.1290, 707.3506
925.2530, 942.1260
926.3770, 818.9053
927.5010, 920.6895
928.6250, 917.4824
929.7480, 702.2793
930.8720, 834.0811
931.9950, 776.8926
933.1180, 611.7344
934.2410, 790.5791
935.3640, 821.4287
936.4860, 778.2842
937.6090, 694.1436
938.7310, 833.0078
939.8530, 1010.875
940.9750, 961.7480
942.0970, 1090.627
943.2180, 1369.513
944.3400, 1768.402
945.4610, 1916.298
946.5820, 2107.197
947.7030, 2317.103
948.8240, 2283.012
949.9450, 2173.926
951.0650, 1718.847
952.1860, 1493.771
953.3060, 1463.700
954.4260, 1188.634
955.5460, 1131.583
956.6650, 964.5381
957.7850, 865.4980
958.9040, 874.4629
960.0230, 840.4336
961.1420, 720.4092
962.2610, 606.4199
963.3800, 720.4355
964.4990, 787.4561
965.6170, 697.4824
966.7350, 819.5137
967.8530, 845.5508
968.9710, 827.5918
970.0890, 944.6396
971.2070, 1020.692
972.3240, 1187.750
973.4410, 1389.025
974.5580, 1628.892
975.6750, 1884.956
976.7920, 2309.036
977.9090, 2619.121
979.0250, 3165.819
980.1410, 4051.915
981.2580, 5152.619
982.3740, 6378.728
983.4890, 7768.842
984.6050, 9064.137
985.7200, 10101.26
986.8360, 10884.75
987.9510, 10832.88
989.0660, 10133.14
990.1810, 9115.294
991.2950, 7913.419
992.4100, 6279.127
993.5240, 5034.297
994.6390, 4228.252
995.7530, 3427.439
996.8660, 2621.675
997.9800, 2434.237
999.0940, 1904.619
1000.207, 1516.876
1001.320, 1291.141
1002.433, 1242.476
1003.546, 1212.707
1004.659, 988.4336
1005.772, 896.8359
1006.884, 649.1377
1007.996, 513.6943
1009.108, 623.1758
1010.220, 546.5010
1011.332, 579.3584
1012.444, 395.8535
1013.555, 357.2354
1014.666, 318.6240
1015.777, 333.0205
1016.888, 283.7793
1017.999, 308.8418
1019.110, 237.1719
1020.220, 312.6006
1021.331, 306.0371
1022.441, 217.4834
1023.551, 421.9355
1024.661, 307.3975
1025.770, 336.8672
1026.880, 210.3447
1027.989, 374.5459
1029.098, 409.0400
1030.207, 219.1885
1031.316, 173.7002
1032.425, 266.2207
1033.533, 317.7529
1034.642, 287.2930
1035.750, 268.8438
1036.858, 358.4014
1037.966, 159.9795
1039.073, 258.5059
1040.181, 163.1045
1041.288, 131.7139
1042.396, 126.3320
1043.503, 196.9580
1044.610, 189.5947
1045.716, 224.2402
1046.823, 179.8945
1047.929, 214.5586
1049.036, 268.2314
1050.142, 290.9131
1051.248, 130.1543
1052.353, 284.8555
1053.459, 147.5654
1054.564, 456.2852
1055.670, 335.0146
1056.775, 349.7529
1057.880, 538.5010
1058.985, 406.2578
1060.089, 677.0244
1061.194, 710.8018
1062.298, 935.5869
1063.402, 1099.381
1064.506, 1265.375
1065.610, 1415.998
1066.713, 1631.822
1067.817, 1760.653
1068.920, 1867.494
1070.023, 1939.345
1071.126, 1824.204
1072.229, 1778.071
1073.332, 1730.950
1074.435, 1460.836
1075.537, 1196.315
1076.639, 1161.222
1077.741, 1066.152
1078.843, 1044.093
1079.945, 979.0420
1081.046, 943.1309
1082.148, 895.9678
1083.249, 864.9443
1084.350, 898.9307
1085.451, 822.9258
1086.551, 695.9297
1087.652, 426.2100
1088.752, 493.2314
1089.853, 449.2637
1090.953, 304.3027
1092.053, 382.3506
1093.152, 288.4277
1094.252, 297.5205
1095.351, 170.6143
1096.451, 142.7178
1097.550, 112.0078
1098.649, 125.9473
1099.748, 94.07520
1100.846, 9.210938
1101.945, 63.35547
1103.043, 131.5088
1104.141, 134.6699
1105.239, 35.83984
1106.337, 62.01758
1107.434, 38.20508
1108.532, 94.40039
1109.629, 25.60352
1110.726, 52.81445
1111.823, 17.04102
1112.920, 54.27148
1114.017, 139.5176
1115.113, 204.7734
1116.210, 212.0371
1117.306, 299.3184
1118.402, 190.6055
1119.498, 348.9180
1120.593, 144.2402
1121.689, 494.5957
1122.784, 382.9570
1123.879, 394.3301
1124.974, 281.7109
1126.069, 192.1035
1127.164, 7.515625
1128.259, 106.1367
1129.353, 6.421875
1130.447, 13.93164
1131.541, 140.5684
1132.635, 64.07617
1133.729, 32.40625
1134.822, 68.89648
1135.916, 74.40234
1137.009, 70.45117
1138.102, 98.53516
1139.195, 18.22070
1140.288, 7.277344
1141.380, 47.22852
1142.473, 27.83008
1143.565, 30.29688
1144.657, 165.2363
1145.749, 88.77344
1146.841, 130.3164
1147.932, 47.86914
1149.024, 199.4473
1150.115, 48.04492
1151.206, 50.63672
1152.297, 157.2363
1153.388, 35.84180
1154.479, 112.4531
1155.569, 263.0703
1156.659, 103.6934
1157.750, 150.3242
1158.839, 315.9590
1159.929, 204.6211
1161.019, 200.2852
1162.108, 503.9824
1163.198, 109.6836
1164.287, 223.8477
1165.376, 243.5625
1166.465, 378.2812
1167.553, 148.0059
1168.642, 91.13281
1169.730, 324.8711
1170.818, 102.2598
1171.906, 180.0332
1172.994, 222.8125
1174.082, 118.5996
1175.170, 110.4062
1176.257, 83.22070
1177.344, 185.0508
1178.431, 217.8848
1179.518, 203.7227
1180.605, 165.5664
1181.691, 150.4160
1182.778, 280.2734
1183.864, 208.1367
1184.950, 176.0039
1186.036, 259.8750
1187.122, 160.7500
1188.207, 97.63086
1189.292, 18.51367
1190.378, 85.40234
1191.463, 24.56641
1192.548, 34.19336
1193.632, 5.095703
1194.717, 34.00195
1195.801, 27.91211
1196.886, 3.828125
1197.970, 46.74609
1199.054, 84.66602
1200.137, 209.5918
1201.221, 51.52148
1202.305, 55.45312
1203.388, 246.3906
1204.471, 173.3301
1205.554, 9.712891
1206.637, 153.2539
1207.719, 59.12891
1208.802, 32.08984
1209.884, 66.05469
1210.966, 61.02344
1212.048, 133.9941
1213.130, 173.9688
1214.212, 185.9473
1215.293, 120.9297
1216.374, 20.91211
1217.456, 35.09961
1218.536, 70.86914
1219.617, 41.83789
1220.698, 293.8145
1221.778, 112.7930
1222.859, 153.2383
1223.939, 107.7773
1225.019, 224.1660
1226.099, 129.1133
1227.178, 110.0605
1228.258, 101.0098
1229.337, 96.96289
1230.417, 85.64648
1231.496, 210.8730
1232.574, 89.83203
1233.653, 124.8066
1234.732, 166.7852
1235.810, 60.76367
1236.888, 185.7441
1237.966, 120.7285
1239.044, 87.71094
1240.122, 70.69727
1241.199, 13.68555
1242.277, 88.67383
1243.354, 123.6660
1244.431, 67.65820
1245.508, 92.65234
1246.585, 53.64648
1247.661, 254.6445
1248.738, 331.6406
1249.814, 142.6406
1250.890, 82.64258
1251.966, 258.6445
1253.042, 235.6465
1254.117, 100.6504
1255.193, 96.65430
1256.268, 44.65820
1257.343, 150.3379
1258.418, 35.58789
1259.493, 141.3770
1260.567, 36.95898
1261.642, 21.04688
1262.716, 88.96484
1263.790, 34.81836
1264.864, 225.7324
1265.938, 153.3203
1267.011, 254.1289
1268.085, 5.054688
1269.158, 166.9746
1270.231, 140.7363
1271.304, 110.3438
1272.377, 72.50977
1273.450, 162.2441
1274.522, 150.1738
1275.594, 216.2285
1276.666, 97.08398
1277.738, 92.93750
1278.810, 14.79102
1279.882, 81.64648
1280.953, 85.50000
1282.025, 30.34961
1283.096, 67.19922
1284.167, 101.0488
1285.238, 37.90430
1286.308, 213.7598
1287.379, 183.6113
1288.449, 142.4629
1289.519, 122.3125
1290.589, 99.16016
1291.659, 73.00781
1292.729, 2.851563
1293.798, 83.68945
1294.868, 150.5234
1295.937, 108.3594
1297.006, 27.33398
1298.075, 242.4727
1299.143, 1.279297
