##NAMES=Bertrandite
##RRUFFID=R060800
##IDEAL CHEMISTRY=Be_4_Si_2_O_7_(OH)_2_
##LOCALITY=Golconda mine, Governador Valadares, Minas Gerais, Brazil
##OWNER=RRUFF
##SOURCE=Bob Jenkins
##DESCRIPTION=Colorless pseudohexagonal prisms
##STATUS=The identification of this mineral is confirmed by single-crystal X-ray diffraction and chemical analysis.
##URL=rruff.info/R060800
##MEASURED CHEMISTRY=Be_4.00_Si_2.00_O_7_(OH)_2_
##PIN_ID=M00212
##ORIENTATION=Laser parallel to c* (0 0 1). Fiducial mark perpendicular to laser is parallel to a [1 0 0]
123.0580, 0.0000000E+00
124.2880, 66.68359
125.5190, 362.8750
126.7490, 7.767578
127.9790, 114.9746
129.2090, 143.0469
130.4390, 225.7285
131.6680, 181.5098
132.8980, 35.00586
134.1270, 156.9355
135.3560, 113.0859
136.5850, 128.2910
137.8140, 214.4160
139.0430, 235.3477
140.2710, 102.9844
141.5000, 108.2363
142.7280, 44.03516
143.9560, 41.65039
145.1840, 54.49023
146.4120, 106.3184
147.6390, 121.9160
148.8670, 220.8926
150.0940, 205.3438
151.3210, 275.8047
152.5490, 194.7031
153.7750, 190.8496
155.0020, 165.7090
156.2290, 152.7793
157.4550, 180.5117
158.6810, 141.3965
159.9080, 199.4180
161.1340, 177.5723
162.3590, 106.8438
163.5850, 123.4727
164.8110, 274.3555
166.0360, 266.4199
167.2610, 375.5059
168.4860, 255.6113
169.7110, 369.7480
170.9360, 627.3633
172.1610, 506.2383
173.3850, 852.1172
174.6100, 798.9668
175.8340, 719.7988
177.0580, 1394.693
178.2820, 1573.840
179.5050, 2230.082
180.7290, 3339.342
181.9520, 4919.607
183.1760, 5745.832
184.3990, 5299.016
185.6220, 3680.191
186.8450, 2392.369
188.0670, 1431.529
189.2900, 1406.658
190.5120, 1340.758
191.7340, 1121.854
192.9560, 1460.922
194.1780, 1747.973
195.4000, 2532.029
196.6220, 3265.076
197.8430, 4416.082
199.0640, 5556.947
200.2860, 6779.834
201.5070, 8439.711
202.7270, 11892.32
203.9480, 15524.71
205.1690, 17990.05
206.3890, 17817.48
207.6090, 14609.30
208.8290, 9026.838
210.0490, 5304.379
211.2690, 3103.918
212.4890, 2109.473
213.7080, 1360.127
214.9280, 1111.684
216.1470, 773.9414
217.3660, 765.1055
218.5850, 625.2051
219.8030, 565.4297
221.0220, 552.5293
222.2400, 760.1836
223.4590, 799.5801
224.6770, 879.9824
225.8950, 1446.400
227.1120, 1830.830
228.3300, 2121.268
229.5480, 1905.725
230.7650, 1329.572
231.9820, 1050.682
233.1990, 973.8926
234.4160, 684.6973
235.6330, 796.9570
236.8490, 695.9004
238.0660, 813.1699
239.2820, 1156.711
240.4980, 1094.941
241.7140, 915.2266
242.9300, 718.5117
244.1460, 532.7812
245.3610, 549.0312
246.5770, 296.1875
247.7920, 400.6934
249.0070, 361.7070
250.2220, 311.9355
251.4370, 199.5156
252.6510, 212.2246
253.8660, 245.4863
255.0800, 154.7285
256.2940, 217.9590
257.5080, 450.5117
258.7220, 192.8379
259.9360, 310.2988
261.1490, 165.6660
262.3630, 153.1738
263.5760, 324.9570
264.7890, 174.2773
266.0020, 111.4355
267.2150, 367.2012
268.4270, 256.6270
269.6400, 95.08398
270.8520, 233.1445
272.0640, 174.7988
273.2760, 17.93945
274.4880, 42.90820
275.7000, 141.8711
276.9120, 154.9023
278.1230, 304.0059
279.3340, 212.4707
280.5450, 206.9219
281.7560, 80.83203
282.9670, 16.66406
284.1780, 79.72656
285.3880, 11.33789
286.5980, 137.6738
287.8090, 233.0215
289.0190, 100.3555
290.2290, 101.0762
291.4380, 67.50977
292.6480, 232.4863
293.8570, 267.7910
295.0670, 302.2344
296.2760, 321.2070
297.4850, 378.6680
298.6930, 312.0273
299.9020, 356.8340
301.1110, 452.6504
302.3190, 211.4180
303.5270, 107.9883
304.7350, 152.3086
305.9430, 137.9062
307.1510, 259.2012
308.3580, 20.80469
309.5660, 318.9785
310.7730, 154.7246
311.9800, 59.50586
313.1870, 79.72461
314.3940, 75.78125
315.6010, 141.0156
316.8070, 0.7167970
318.0130, 5.072266
319.2200, 210.6016
320.4260, 89.68750
321.6310, 310.7090
322.8370, 240.3281
324.0430, 328.5781
325.2480, 190.4707
326.4540, 597.8359
327.6590, 631.5898
328.8640, 1051.287
330.0680, 835.9180
331.2730, 630.0449
332.4780, 398.5527
333.6820, 307.7363
334.8860, 322.6582
336.0900, 277.6836
337.2940, 74.14844
338.4980, 113.2773
339.7010, 37.79883
340.9050, 67.24805
342.1080, 176.2363
343.3110, 7.199219
344.5140, 103.5488
345.7170, 360.0469
346.9200, 209.5195
348.1220, 263.5137
349.3240, 75.73047
350.5270, 418.7422
351.7290, 31.08789
352.9310, 453.5488
354.1320, 145.7715
355.3340, 348.6465
356.5350, 306.2988
357.7370, 654.7402
358.9380, 574.0938
360.1390, 575.4629
361.3400, 919.3926
362.5400, 1053.994
363.7410, 1123.070
364.9410, 894.6309
366.1410, 602.4297
367.3410, 333.2598
368.5410, 79.84766
369.7410, 281.3672
370.9400, 34.83789
372.1400, 242.2383
373.3390, 117.7969
374.5380, 272.8398
375.7370, 62.26367
376.9360, 194.8672
378.1350, 430.5215
379.3330, 221.7754
380.5310, 206.1426
381.7300, 397.8008
382.9280, 452.0098
384.1260, 340.8867
385.3230, 505.4375
386.5210, 307.2246
387.7180, 459.4375
388.9160, 193.0293
390.1130, 399.2793
391.3100, 259.3457
392.5060, 48.99805
393.7030, 224.9375
394.9000, 258.5195
396.0960, 223.2324
397.2920, 385.1602
398.4880, 197.8594
399.6840, 267.7148
400.8800, 239.1426
402.0750, 159.6250
403.2710, 226.9746
404.4660, 274.9023
405.6610, 44.03711
406.8560, 293.7812
408.0510, 308.7070
409.2450, 14.02344
410.4400, 182.1895
411.6340, 483.9141
412.8280, 293.3027
414.0220, 408.3496
415.2160, 356.2031
416.4100, 382.6328
417.6030, 282.2871
418.7970, 403.7832
419.9900, 356.2109
421.1830, 76.86328
422.3760, 232.7520
423.5690, 249.0098
424.7610, 355.6133
425.9540, 327.9004
427.1460, 549.4219
428.3380, 242.3203
429.5300, 450.7656
430.7220, 364.5312
431.9140, 254.2539
433.1050, 292.3359
434.2970, 294.9531
435.4880, 167.3770
436.6790, 90.91406
437.8700, 128.3984
439.0610, 383.8320
440.2510, 399.2188
441.4420, 471.5605
442.6320, 35.85742
443.8220, 210.0957
445.0120, 220.2832
446.2020, 266.5137
447.3910, 528.5430
448.5810, 257.5859
449.7700, 438.5801
450.9600, 265.7852
452.1490, 125.9043
453.3370, 402.6113
454.5260, 95.82031
455.7150, 322.6855
456.9030, 257.1504
458.0910, 174.1016
459.2800, 296.6914
460.4670, 63.32617
461.6550, 225.6797
462.8430, 344.3379
464.0300, 115.2500
465.2180, 193.6680
466.4050, 278.2070
467.5920, 120.3105
468.7790, 47.41016
469.9650, 145.4062
471.1520, 153.6953
472.3380, 163.7715
473.5250, 66.84766
474.7110, 182.6895
475.8970, 254.3906
477.0820, 20.95898
478.2680, 280.7324
479.4540, 241.2539
480.6390, 163.6309
481.8240, 277.8516
483.0090, 116.1523
484.1940, 54.41797
485.3780, 412.7852
486.5630, 277.7656
487.7470, 491.7637
488.9320, 361.3320
490.1160, 192.3262
491.3000, 131.7715
492.4830, 20.27539
493.6670, 119.9844
494.8500, 236.5508
496.0340, 330.3789
497.2170, 168.1621
498.4000, 96.75977
499.5820, 1.722656
500.7650, 60.88281
501.9480, 55.23828
503.1300, 123.1387
504.3120, 179.3828
505.4940, 292.5742
506.6760, 161.7148
507.8580, 390.9297
509.0390, 105.8750
510.2210, 35.75391
511.4020, 18.37109
512.5830, 19.30664
513.7640, 167.0078
514.9450, 121.7578
516.1250, 44.77539
517.3060, 130.2949
518.4860, 82.95117
519.6660, 69.68750
520.8460, 13.84180
522.0260, 105.4277
523.2060, 61.40234
524.3850, 124.3203
525.5650, 198.2500
526.7440, 62.24609
527.9230, 34.66406
529.1020, 95.99414
530.2810, 237.7227
531.4590, 83.43945
532.6380, 346.1934
533.8160, 51.53711
534.9940, 28.29102
536.1720, 225.6543
537.3500, 186.1445
538.5270, 370.4707
539.7050, 170.8770
540.8820, 471.8848
542.0590, 217.1250
543.2360, 195.1875
544.4130, 215.8535
545.5900, 306.7422
546.7660, 248.7754
547.9430, 99.64648
549.1190, 277.6074
550.2950, 174.5137
551.4710, 43.43555
552.6470, 290.8379
553.8220, 438.5352
554.9980, 194.1602
556.1730, 50.75391
557.3480, 15.28516
558.5230, 191.7520
559.6980, 244.1113
560.8730, 297.5332
562.0470, 50.90625
563.2220, 165.2070
564.3960, 86.14258
565.5700, 11.92188
566.7440, 45.18945
567.9170, 248.2559
569.0910, 98.27344
570.2640, 522.9336
571.4380, 599.8457
572.6110, 612.7051
573.7840, 858.2539
574.9570, 1169.953
576.1290, 1261.609
577.3020, 1339.398
578.4740, 1481.373
579.6460, 1283.170
580.8180, 1025.709
581.9900, 906.1973
583.1620, 720.6328
584.3330, 358.5664
585.5040, 403.4395
586.6760, 333.3008
587.8470, 379.3047
589.0180, 521.4980
590.1880, 427.3555
591.3590, 72.54883
592.5290, 192.1543
593.7000, 22.21484
594.8700, 139.0859
596.0400, 195.9688
597.2090, 110.7676
598.3790, 132.2344
599.5490, 451.4551
600.7180, 96.01172
601.8870, 306.9785
603.0560, 68.13867
604.2250, 61.15625
605.3940, 165.6777
606.5620, 45.95703
607.7300, 95.79297
608.8990, 85.28125
610.0670, 92.22070
611.2350, 247.6973
612.4020, 285.1582
613.5700, 271.6094
614.7370, 312.5195
615.9050, 343.9746
617.0720, 350.6816
618.2390, 298.5820
619.4060, 326.3027
620.5720, 236.8125
621.7390, 298.9902
622.9050, 283.1797
624.0710, 268.0098
625.2370, 301.4336
626.4030, 237.6504
627.5690, 250.2012
628.7340, 195.9336
629.9000, 405.6211
631.0650, 199.6797
632.2300, 282.4375
633.3950, 107.3281
634.5600, 84.93945
635.7240, 65.01172
636.8890, 224.4238
638.0530, 205.1074
639.2170, 354.2324
640.3810, 131.6641
641.5450, 326.6875
642.7080, 164.7422
643.8720, 335.6113
645.0350, 660.4453
646.1980, 326.4434
647.3610, 275.8145
648.5240, 268.8730
649.6870, 91.69922
650.8490, 306.3906
652.0120, 251.4824
653.1740, 295.2559
654.3360, 257.3711
655.4980, 424.2363
656.6600, 315.2148
657.8210, 494.0156
658.9830, 153.1016
660.1440, 98.47656
661.3050, 49.71289
662.4660, 58.94727
663.6270, 109.0605
664.7870, 7.466797
665.9480, 62.25977
667.1080, 8.115234
668.2680, 189.8945
669.4280, 80.05664
670.5880, 26.76562
671.7480, 356.7402
672.9070, 261.1777
674.0670, 251.1660
675.2260, 525.1484
676.3850, 269.4082
677.5440, 258.4668
678.7030, 575.2344
679.8610, 746.1602
681.0200, 613.8594
682.1780, 897.9102
683.3360, 708.8359
684.4940, 931.8145
685.6520, 745.1445
686.8090, 1124.195
687.9670, 1393.561
689.1240, 1620.689
690.2810, 1832.354
691.4380, 2105.090
692.5950, 2038.191
693.7520, 2166.555
694.9080, 1758.496
696.0650, 1832.891
697.2210, 1381.965
698.3770, 1223.340
699.5330, 1368.477
700.6880, 1127.641
701.8440, 828.4961
702.9990, 925.7891
704.1550, 713.6406
705.3100, 674.1289
706.4650, 515.8438
707.6190, 824.4688
708.7740, 838.3008
709.9290, 889.2266
711.0830, 623.1211
712.2370, 730.9844
713.3910, 939.8672
714.5450, 519.6719
715.6980, 639.4414
716.8520, 695.1875
718.0050, 475.9102
719.1580, 788.5977
720.3110, 516.2617
721.4640, 551.8945
722.6170, 630.4961
723.7700, 554.9570
724.9220, 676.6289
726.0740, 570.0938
727.2260, 781.5898
728.3780, 713.0586
729.5300, 788.4961
730.6810, 376.6523
731.8330, 489.3633
732.9840, 555.8594
734.1350, 312.3008
735.2860, 426.9531
736.4370, 564.2266
737.5880, 10.56641
738.7380, 376.1172
739.8880, 275.0625
741.0390, 266.6875
742.1890, 119.1094
743.3380, 280.9219
744.4880, 352.0391
745.6380, 583.7930
746.7870, 665.9102
747.9360, 647.9531
749.0850, 827.0664
750.2340, 1096.922
751.3830, 972.7539
752.5310, 1137.547
753.6800, 1006.660
754.8280, 1011.625
755.9760, 875.5664
757.1240, 899.4727
758.2720, 685.3711
759.4190, 930.8789
760.5670, 309.6211
761.7140, 601.9531
762.8610, 718.7930
764.0080, 149.6016
765.1550, 364.4414
766.3020, 537.9805
767.4480, 382.1992
768.5950, 430.9219
769.7410, 611.1172
770.8870, 396.9492
772.0330, 582.8906
773.1780, 580.6367
774.3240, 385.1367
775.4690, 589.3359
776.6140, 172.7422
777.7590, 131.3594
778.9040, 383.9492
780.0490, 33.95703
781.1940, 111.8711
782.3380, 173.8984
783.4820, 237.3828
784.6260, 307.0000
785.7700, 362.5469
786.9140, 130.8008
788.0580, 255.0234
789.2010, 357.6172
790.3450, 69.85547
791.4880, 223.2500
792.6310, 229.0195
793.7730, 69.39062
794.9160, 334.7383
796.0590, 8.066406
797.2010, 425.7930
798.3430, 200.2773
799.4850, 184.0898
800.6270, 289.3750
801.7690, 607.8594
802.9100, 623.2617
804.0520, 786.5234
805.1930, 805.2891
806.3340, 811.0586
807.4750, 885.3594
808.6160, 885.2773
809.7560, 747.4062
810.8970, 651.8242
812.0370, 581.7891
813.1770, 541.3398
814.3170, 421.8945
815.4570, 542.8555
816.5960, 507.8945
817.7360, 564.9102
818.8750, 378.9141
820.0140, 352.9023
821.1530, 279.8750
822.2920, 244.9102
823.4310, 218.8516
824.5690, 248.7734
825.7070, 266.8242
826.8460, 424.7227
827.9840, 252.6055
829.1220, 516.4961
830.2590, 263.3711
831.3970, 113.2266
832.5340, 43.07031
833.6710, 16.89453
834.8080, 117.2969
835.9450, 78.57812
837.0820, 120.0703
838.2190, 121.7031
839.3550, 189.3203
840.4910, 240.9258
841.6270, 163.5234
842.7630, 107.1172
843.8990, 149.5000
845.0350, 374.2656
846.1700, 189.8242
847.3060, 255.3672
848.4410, 269.8945
849.5760, 158.4062
850.7100, 417.9062
851.8450, 234.3828
852.9800, 261.8477
854.1140, 611.2969
855.2480, 301.7344
856.3820, 532.1523
857.5160, 603.5625
858.6500, 391.9531
859.7830, 474.3320
860.9170, 262.6953
862.0500, 151.0430
863.1830, 211.3789
864.3160, 170.6992
865.4480, 309.0039
866.5810, 457.2969
867.7130, 219.6055
868.8460, 382.9023
869.9780, 419.1953
871.1100, 345.4805
872.2410, 202.7578
873.3730, 215.0234
874.5050, 66.15625
875.6360, 13.40234
876.7670, 25.63281
877.8980, 29.88281
879.0290, 190.6328
880.1590, 210.9062
881.2900, 342.1875
882.4200, 429.2773
883.5500, 414.3594
884.6800, 124.4297
885.8100, 96.56250
886.9400, 290.6719
888.0690, 58.19922
889.1990, 81.87109
890.3280, 245.9297
891.4570, 170.9805
892.5860, 105.0117
893.7140, 206.0312
894.8430, 147.0430
895.9710, 356.0469
897.1000, 20.96094
898.2280, 58.99609
899.3560, 139.0586
900.4830, 30.37891
901.6110, 11.78906
902.7380, 228.0156
903.8660, 276.8203
904.9930, 240.6133
906.1200, 38.39844
907.2460, 72.16797
908.3730, 89.93359
909.5000, 258.6875
910.6260, 178.4375
911.7520, 0.8242190
912.8780, 98.62109
914.0040, 72.12109
915.1290, 35.46875
916.2550, 122.0391
917.3800, 52.91406
918.5050, 200.1016
919.6300, 61.60938
920.7550, 41.14453
921.8800, 328.6680
923.0040, 530.7070
924.1290, 53.24219
925.2530, 173.7266
926.3770, 165.5391
927.5010, 14.99219
928.6250, 343.1289
929.7480, 335.9102
930.8720, 96.39453
931.9950, 107.7734
933.1180, 453.2383
934.2410, 217.5703
935.3640, 269.8633
936.4860, 406.3281
937.6090, 298.7852
938.7310, 251.2422
939.8530, 339.6992
940.9750, 350.1484
942.0970, 246.5977
943.2180, 354.5938
944.3400, 208.4727
945.4610, 466.9023
946.5820, 569.3945
947.7030, 646.8828
948.8240, 630.3672
949.9450, 898.8477
951.0650, 451.3203
952.1860, 225.7852
953.3060, 205.2422
954.4260, 552.6875
955.5460, 322.1289
956.6650, 35.57031
957.7850, 316.9961
958.9040, 150.4180
960.0230, 49.16406
961.1420, 352.2031
962.2610, 164.5703
963.3800, 215.9297
964.4990, 450.2773
965.6170, 368.6250
966.7350, 232.6484
967.8530, 396.3359
968.9710, 180.6953
970.0890, 465.1602
971.2070, 418.0547
972.3240, 630.1016
973.4410, 556.1523
974.5580, 992.4453
975.6750, 469.7422
976.7920, 545.9648
977.9090, 779.9531
979.0250, 1159.121
980.1410, 1135.395
981.2580, 1679.664
982.3740, 2144.930
983.4890, 2311.188
984.6050, 2956.391
985.7200, 2915.645
986.8360, 3016.891
987.9510, 3011.133
989.0660, 2684.379
990.1810, 2525.613
991.2950, 1945.848
992.4100, 1680.074
993.5240, 1286.301
994.6390, 1152.527
995.7530, 833.7500
996.8660, 1103.930
997.9800, 798.1445
999.0940, 822.3594
1000.207, 627.5664
1001.320, 641.7773
1002.433, 504.9766
1003.546, 333.1797
1004.659, 373.3789
1005.772, 405.5781
1006.884, 195.7656
1007.996, 162.9414
1009.108, 179.8047
1010.220, 189.1758
1011.332, 249.4570
1012.444, 288.7188
1013.555, 29.67188
1014.666, 394.8438
1015.777, 418.0234
1016.888, 491.2344
1017.999, 187.4531
1019.110, 31.58594
1020.220, 347.6406
1021.331, 124.9453
1022.441, 450.1211
1023.551, 140.1250
1024.661, 228.3633
1025.770, 337.5742
1026.880, 440.6836
1027.989, 406.1836
1029.098, 28.23828
1030.207, 278.4414
1031.316, 190.9766
1032.425, 55.91797
1033.533, 192.0508
1034.642, 285.8594
1035.750, 26.00000
1036.858, 184.1328
1037.966, 27.34375
1039.073, 163.5508
1040.181, 166.4492
1041.288, 221.4961
1042.396, 122.6250
1043.503, 155.2070
1044.610, 87.05078
1045.716, 119.9609
1046.823, 115.1562
1047.929, 62.61328
1049.036, 267.3789
1050.142, 232.6133
1051.248, 48.68359
1052.353, 87.53516
1053.459, 385.6016
1054.564, 445.5859
1055.670, 63.81641
1056.775, 242.0430
1057.880, 14.88672
1058.985, 461.3477
1060.089, 139.5859
1061.194, 47.72266
1062.298, 384.4961
1063.402, 125.9102
1064.506, 24.86328
1065.610, 339.3672
1066.713, 581.5977
1067.817, 562.8320
1068.920, 626.0703
1070.023, 696.3164
1071.126, 616.5625
1072.229, 596.8164
1073.332, 620.0742
1074.435, 638.3359
1075.537, 505.6055
1076.639, 565.8789
1077.741, 452.1523
1078.843, 788.4336
1079.945, 709.7188
1081.046, 491.0117
1082.148, 1008.707
1083.249, 912.0039
1084.350, 605.3125
1085.451, 752.6211
1086.551, 1025.934
1087.652, 617.2578
1088.752, 645.5820
1089.853, 455.8359
1090.953, 707.1758
1092.053, 723.5156
1093.152, 697.7266
1094.252, 638.0781
1095.351, 855.4414
1096.451, 595.8125
1097.550, 603.1836
1098.649, 609.5625
1099.748, 231.9531
1100.846, 360.3516
1101.945, 514.7617
1103.043, 280.2148
1104.141, 317.7031
1105.239, 499.2031
1106.337, 195.7109
1107.434, 221.2227
1108.532, 205.7461
1109.629, 418.2773
1110.726, 131.8164
1111.823, 266.3594
1112.920, 213.9180
1114.017, 338.4805
1115.113, 457.0508
1116.210, 391.4219
1117.306, 166.2227
1118.402, 320.8203
1119.498, 278.4258
1120.593, 232.0430
1121.689, 313.6680
1122.784, 727.3008
1123.879, 273.9414
1124.974, 474.5938
1126.069, 111.2500
1127.164, 185.9258
1128.259, 132.6055
1129.353, 322.2891
1130.447, 56.99219
1131.541, 113.6953
1132.635, 93.41797
1133.729, 280.1484
1134.822, 314.8867
1135.916, 349.6328
1137.009, 87.39453
1138.102, 412.1641
1139.195, 22.05469
1140.288, 115.7266
1141.380, 55.65234
1142.473, 165.5352
1143.565, 94.43359
1144.657, 159.1914
1145.749, 91.75781
1146.841, 106.6055
1147.932, 88.52734
1149.024, 340.3945
1150.115, 265.4453
1151.206, 139.3164
1152.297, 97.91016
1153.388, 115.8281
1154.479, 51.59766
1155.569, 5.382813
1156.659, 25.17578
1157.750, 134.9805
1158.839, 1.800781
1159.929, 78.62891
1161.019, 245.4688
1162.108, 251.3203
1163.198, 336.1953
1164.287, 249.0781
1165.376, 225.0156
1166.465, 252.9727
1167.553, 40.05078
1168.642, 389.9219
1169.730, 11.90625
1170.818, 64.90234
1171.906, 223.9297
1172.994, 339.9805
1174.082, 422.0352
1175.170, 492.5039
1176.257, 404.1914
1177.344, 444.2969
1178.431, 250.4141
1179.518, 318.1328
1180.605, 302.7461
1181.691, 350.9414
1182.778, 224.3984
1183.864, 180.6445
1184.950, 54.89844
1186.036, 218.1680
1187.122, 154.4492
1188.207, 265.7461
1189.292, 154.0977
1190.378, 568.4219
1191.463, 83.76172
1192.548, 317.4570
1193.632, 30.17578
1194.717, 93.19531
1195.801, 76.11328
1196.886, 157.5195
1197.970, 248.9336
1199.054, 150.3633
1200.137, 317.8047
1201.221, 204.2656
1202.305, 220.6875
1203.388, 264.2266
1204.471, 204.7266
1205.554, 147.2422
1206.637, 178.7734
1207.719, 319.3242
1208.802, 160.8828
1209.884, 348.4648
1210.966, 260.8750
1212.048, 37.34375
1213.130, 240.2656
1214.212, 260.8906
1215.293, 427.5273
1216.374, 90.18359
1217.456, 129.8555
1218.536, 193.5391
1219.617, 356.2383
1220.698, 27.95312
1221.778, 92.69141
1222.859, 53.45703
1223.939, 190.2539
1225.019, 332.0781
1226.099, 451.9180
1227.178, 439.0625
1228.258, 370.6445
1229.337, 372.5312
1230.417, 229.4336
1231.496, 211.3555
1232.574, 194.5195
1233.653, 139.7656
1234.732, 152.2188
1235.810, 177.2070
1236.888, 80.21484
1237.966, 246.2617
1239.044, 448.3320
1240.122, 86.41406
1241.199, 397.5078
1242.277, 435.6211
1243.354, 412.7539
1244.431, 390.9180
1245.508, 176.0938
1246.585, 10.29297
1247.661, 191.5000
1248.738, 349.7305
1249.814, 60.98828
1250.890, 381.2539
1251.966, 531.5430
1253.042, 144.8438
1254.117, 268.1641
1255.193, 247.5000
1256.268, 207.8672
1257.343, 34.25000
1258.418, 88.64453
1259.493, 207.0664
1260.567, 133.5000
1261.642, 202.9453
1262.716, 125.4258
1263.790, 480.9180
1264.864, 432.4492
1265.938, 156.0117
1267.011, 524.5859
1268.085, 571.1797
1269.158, 129.8164
1270.231, 57.55078
1271.304, 151.0742
1272.377, 10.94531
1273.450, 181.7148
1274.522, 0.6015630
1275.594, 332.1016
1276.666, 212.1719
1277.738, 70.48438
1278.810, 41.83984
1279.882, 194.8750
1280.953, 354.5703
1282.025, 275.1953
1283.096, 489.9336
1284.167, 673.6914
1285.238, 358.4414
1286.308, 155.2305
1287.379, 522.0391
1288.449, 142.7500
1289.519, 168.6055
1290.589, 505.4766
1291.659, 198.3633
1292.729, 141.2773
1293.798, 217.2031
1294.868, 673.1445
1295.937, 179.1055
1297.006, 703.1602
1298.075, 673.1523
1299.143, 408.1680
