##NAMES=Bertrandite
##RRUFFID=R060800
##IDEAL CHEMISTRY=Be_4_Si_2_O_7_(OH)_2_
##LOCALITY=Golconda mine, Governador Valadares, Minas Gerais, Brazil
##OWNER=RRUFF
##SOURCE=Bob Jenkins
##DESCRIPTION=Colorless pseudohexagonal prisms
##STATUS=The identification of this mineral is confirmed by single-crystal X-ray diffraction and chemical analysis.
##URL=rruff.info/R060800
##MEASURED CHEMISTRY=Be_4.00_Si_2.00_O_7_(OH)_2_
##PIN_ID=M00406
##ORIENTATION=Laser parallel to b* (0 1 0). Fiducial mark perpendicular to laser is parallel to c [0 0 1]
123.0580, 0.0000000E+00
124.2880, 196.5933
125.5190, 1.021484
126.7490, 2.703613
127.9790, 33.46045
129.2090, 115.0469
130.4390, 130.4580
131.6680, 71.90137
132.8980, 1.735352
134.1270, 34.82422
135.3560, 8.042480
136.5850, 35.76807
137.8140, 88.29541
139.0430, 144.1909
140.2710, 79.83887
141.5000, 88.17236
142.7280, 68.13672
143.9560, 167.7036
145.1840, 122.8135
146.4120, 93.41260
147.6390, 72.46484
148.8670, 9.058105
150.0940, 93.80811
151.3210, 232.0366
152.5490, 139.6040
153.7750, 125.4888
155.0020, 243.6714
156.2290, 137.1343
157.4550, 193.8628
158.6810, 249.8413
159.9080, 107.0566
161.1340, 257.4888
162.3590, 311.3267
163.5850, 512.4316
164.8110, 723.6797
166.0360, 591.0601
167.2610, 806.5664
168.4860, 1085.193
169.7110, 1569.936
170.9360, 2359.860
172.1610, 3609.043
173.3850, 5306.312
174.6100, 6495.676
175.8340, 7385.146
177.0580, 8724.741
178.2820, 11828.46
179.5050, 16116.29
180.7290, 20441.22
181.9520, 22072.27
183.1760, 19182.41
184.3990, 15512.65
185.6220, 13173.98
186.8450, 11005.41
188.0670, 9065.928
189.2900, 7685.535
190.5120, 7034.223
191.7340, 7856.993
192.9560, 11271.84
194.1780, 15429.75
195.4000, 18479.74
196.6220, 20637.78
197.8430, 22265.82
199.0640, 27791.85
200.2860, 36594.54
201.5070, 47068.96
202.7270, 52569.55
203.9480, 48057.52
205.1690, 37619.46
206.3890, 29840.43
207.6090, 24239.43
208.8290, 18696.46
210.0490, 13036.52
211.2690, 8152.619
212.4890, 5413.752
213.7080, 4188.920
214.9280, 3607.128
216.1470, 3747.373
217.3660, 4682.146
218.5850, 6446.436
219.8030, 8101.585
221.0220, 9003.878
222.2400, 9903.208
223.4590, 12685.60
224.6770, 17155.12
225.8950, 22729.84
227.1120, 26684.84
228.3300, 25746.13
229.5480, 21960.57
230.7650, 18420.11
231.9820, 15077.69
233.1990, 12131.28
234.4160, 9000.881
235.6330, 6721.495
236.8490, 5221.120
238.0660, 5173.758
239.2820, 5113.402
240.4980, 4864.060
241.7140, 4020.729
242.9300, 3476.409
244.1460, 2756.108
245.3610, 2348.849
246.5770, 1680.690
247.7920, 1189.611
249.0070, 919.5898
250.2220, 596.5801
251.4370, 675.5801
252.6510, 457.5859
253.8660, 408.5957
255.0800, 420.6123
256.2940, 420.6328
257.5080, 570.6582
258.7220, 448.0537
259.9360, 514.7197
261.1490, 220.7568
262.3630, 305.7949
263.5760, 90.83789
264.7890, 195.8828
266.0020, 70.93457
267.2150, 205.0117
268.4270, 227.0967
269.6400, 102.7510
270.8520, 15.12207
272.0640, 66.21094
273.2760, 62.39746
274.4880, 36.83496
275.7000, 47.63281
276.9120, 45.15625
278.1230, 47.84375
279.3340, 59.66602
280.5450, 7.427734
281.7560, 18.62109
282.9670, 2.335938
284.1780, 47.60352
285.3880, 17.60840
286.5980, 199.6738
287.8090, 298.7969
289.0190, 564.9736
290.2290, 741.2021
291.4380, 1028.480
292.6480, 1101.803
293.8570, 1450.171
295.0670, 2088.487
296.2760, 2759.936
297.4850, 2779.423
298.6930, 2322.946
299.9020, 1879.504
301.1110, 1699.095
302.3190, 1065.718
303.5270, 889.3711
304.7350, 342.0547
305.9430, 334.7666
307.1510, 54.50391
308.3580, 157.2686
309.5660, 64.94238
310.7730, 8.861328
311.9800, 128.7314
313.1870, 86.58008
314.3940, 117.5498
315.6010, 54.32129
316.8070, 4.211914
318.0130, 23.12207
319.2200, 24.04980
320.4260, 172.0166
321.6310, 227.5254
322.8370, 175.1084
324.0430, 174.6035
325.2480, 346.8584
326.4540, 421.8955
327.6590, 461.7334
328.8640, 577.7988
330.0680, 492.5723
331.2730, 657.1914
332.4780, 624.4209
333.6820, 677.6650
334.8860, 665.1338
336.0900, 538.9639
337.2940, 529.4697
338.4980, 525.5957
339.7010, 456.7266
340.9050, 548.8633
342.1080, 597.0049
343.3110, 834.1514
344.5140, 978.3027
345.7170, 1397.441
346.9200, 1879.563
348.1220, 2520.688
349.3240, 3780.816
350.5270, 4878.949
351.7290, 4745.086
352.9310, 4385.229
354.1320, 4778.375
355.3340, 5050.525
356.5350, 4904.681
357.7370, 4538.838
358.9380, 3865.000
360.1390, 3615.165
361.3400, 3356.898
362.5400, 3023.207
363.7410, 2305.494
364.9410, 1706.257
366.1410, 1180.138
367.3410, 940.4971
368.5410, 605.9160
369.7410, 372.2891
370.9400, 300.6445
372.1400, 183.3438
373.3390, 119.4375
374.5380, 340.9248
375.7370, 192.3154
376.9360, 284.7324
378.1350, 344.9580
379.3330, 318.1963
380.5310, 372.4297
381.7300, 561.6680
382.9280, 499.9014
384.1260, 871.1299
385.3230, 689.3525
386.5210, 779.5674
387.7180, 737.7764
388.9160, 619.9775
390.1130, 527.1738
391.3100, 412.3613
392.5060, 328.5410
393.7030, 290.7832
394.9000, 324.8770
396.0960, 289.0312
397.2920, 236.1787
398.4880, 331.3174
399.6840, 225.4463
400.8800, 250.5664
402.0750, 321.6777
403.2710, 297.7803
404.4660, 389.8730
405.6610, 444.9570
406.8560, 630.9893
408.0510, 528.4824
409.2450, 655.9141
410.4400, 869.9600
411.6340, 1035.095
412.8280, 923.2930
414.0220, 1067.315
415.2160, 1007.279
416.4100, 1095.493
417.6030, 972.5107
418.7970, 945.2607
419.9900, 770.2656
421.1830, 723.7744
422.3760, 701.7695
423.5690, 527.3789
424.7610, 474.2852
425.9540, 430.0078
427.1460, 468.9648
428.3380, 461.9531
429.5300, 432.9355
430.7220, 441.9111
431.9140, 495.8789
433.1050, 537.8408
434.2970, 659.7939
435.4880, 729.7402
436.6790, 768.6797
437.8700, 612.6094
439.0610, 653.5332
440.2510, 644.4473
441.4420, 485.3516
442.6320, 563.2480
443.8220, 526.1348
445.0120, 465.0127
446.2020, 586.8818
447.3910, 600.7393
448.5810, 468.5879
449.7700, 380.4258
450.9600, 287.3691
452.1490, 204.6865
453.3370, 177.4766
454.5260, 94.38477
455.7150, 181.1689
456.9030, 202.9434
458.0910, 274.8301
459.2800, 251.5820
460.4670, 180.3203
461.6550, 206.0488
462.8430, 104.7666
464.0300, 38.47168
465.2180, 7.840820
466.4050, 43.82324
467.5920, 128.5195
468.7790, 3.012695
469.9650, 152.4863
471.1520, 107.3398
472.3380, 134.0449
473.5250, 194.8555
474.7110, 60.80469
475.8970, 28.82031
477.0820, 79.88770
478.2680, 10.96777
479.4540, 16.20703
480.6390, 192.5723
481.8240, 155.3398
483.0090, 198.0918
484.1940, 260.8311
485.3780, 463.5547
486.5630, 608.2666
487.7470, 795.9639
488.9320, 725.6465
490.1160, 560.3154
491.3000, 715.9707
492.4830, 438.6123
493.6670, 415.2373
494.8500, 397.8496
496.0340, 283.0771
497.2170, 434.0322
498.4000, 226.6006
499.5820, 267.1553
500.7650, 293.6963
501.9480, 177.2217
503.1300, 55.73242
504.3120, 97.22266
505.4940, 103.7090
506.6760, 56.04980
507.8580, 33.51172
509.0390, 38.92188
510.2210, 11.02441
511.4020, 20.69336
512.5830, 4.464844
513.7640, 10.85352
514.9450, 56.99805
516.1250, 107.2676
517.3060, 119.7080
518.4860, 114.4521
519.6660, 177.5166
520.8460, 238.7148
522.0260, 303.7471
523.2060, 403.3926
524.3850, 311.3906
525.5650, 367.3721
526.7440, 360.3359
527.9230, 515.2842
529.1020, 603.2148
530.2810, 952.1279
531.4590, 832.0254
532.6380, 1328.904
533.8160, 1784.768
534.9940, 2104.613
536.1720, 2176.441
537.3500, 1914.254
538.5270, 1617.050
539.7050, 1152.828
540.8820, 959.5898
542.0590, 582.3340
543.2360, 440.0625
544.4130, 451.7734
545.5900, 279.4678
546.7660, 245.1455
547.9430, 60.80664
549.1190, 42.44238
550.2950, 44.12793
551.4710, 184.6240
552.6470, 134.1826
553.8220, 118.7246
554.9980, 195.2480
556.1730, 26.75586
557.3480, 115.2285
558.5230, 222.6826
559.6980, 6.878906
560.8730, 208.5068
562.0470, 89.88281
563.2220, 210.2412
564.3960, 390.5898
565.5700, 536.9277
566.7440, 624.2500
567.9170, 701.5586
569.0910, 894.8506
570.2640, 1217.125
571.4380, 1580.389
572.6110, 1899.634
573.7840, 2100.871
574.9570, 2369.116
576.1290, 2444.347
577.3020, 2495.608
578.4740, 2313.854
579.6460, 2108.092
580.8180, 1475.334
581.9900, 1099.573
583.1620, 905.7959
584.3330, 675.0029
585.5040, 392.1924
586.6760, 369.3701
587.8470, 327.5410
589.0180, 306.7139
590.1880, 228.8730
591.3590, 113.0176
592.5290, 220.1592
593.7000, 190.2871
594.8700, 99.42871
596.0400, 305.5225
597.2090, 330.6484
598.3790, 231.7754
599.5490, 174.9053
600.7180, 290.0195
601.8870, 220.1172
603.0560, 271.2002
604.2250, 165.2451
605.3940, 296.7500
606.5620, 46.18066
607.7300, 123.6943
608.8990, 206.4482
610.0670, 135.4170
611.2350, 9.585938
612.4020, 218.5166
613.5700, 106.7383
614.7370, 187.1133
615.9050, 246.8740
617.0720, 173.6182
618.2390, 297.1338
619.4060, 253.2881
620.5720, 422.7617
621.7390, 392.6104
622.9050, 321.4512
624.0710, 141.2812
625.2370, 239.1025
626.4030, 304.9150
627.5690, 229.7178
628.7340, 232.5117
629.9000, 150.2959
631.0650, 133.0713
632.2300, 138.8379
633.3950, 97.59473
634.5600, 111.3438
635.7240, 197.0830
636.8890, 180.0645
638.0530, 254.5361
639.2170, 194.2510
640.3810, 173.9561
641.5450, 104.6533
642.7080, 61.34082
643.8720, 130.4551
645.0350, 28.97656
646.1980, 35.48535
647.3610, 61.53223
648.5240, 58.57422
649.6870, 67.18359
650.8490, 49.12012
652.0120, 129.4639
653.1740, 126.1807
654.3360, 86.78418
655.4980, 63.65137
656.6600, 15.48926
657.8210, 50.71582
658.9830, 8.906250
660.1440, 64.72266
661.3050, 35.60547
662.4660, 41.07031
663.6270, 68.22266
664.7870, 28.51172
665.9480, 20.79492
667.1080, 149.0742
668.2680, 132.3496
669.4280, 205.6191
670.5880, 331.8857
671.7480, 474.1465
672.9070, 649.4043
674.0670, 790.6562
675.2260, 1035.906
676.3850, 1357.152
677.5440, 1755.394
678.7030, 2054.631
679.8610, 2430.866
681.0200, 2734.097
682.1780, 3271.325
683.3360, 3720.551
684.4940, 4610.771
685.6520, 5346.990
686.8090, 6051.207
687.9670, 6720.461
689.1240, 6864.242
690.2810, 6686.075
691.4380, 6214.281
692.5950, 5555.385
693.7520, 5165.414
694.9080, 4636.615
696.0650, 4203.869
697.2210, 4212.873
698.3770, 3876.069
699.5330, 4133.533
700.6880, 4623.728
701.8440, 5291.490
702.9990, 6232.686
704.1550, 7275.879
705.3100, 8411.071
706.4650, 9890.301
707.6190, 11342.49
708.7740, 12537.69
709.9290, 13403.61
711.0830, 13279.80
712.2370, 12602.60
713.3910, 11070.13
714.5450, 9498.358
715.6980, 7987.822
716.8520, 6412.018
718.0050, 5196.041
719.1580, 4392.057
720.3110, 3486.927
721.4640, 2777.123
722.6170, 2520.318
723.7700, 1953.515
724.9220, 1725.252
726.0740, 1609.316
727.2260, 1386.597
728.3780, 1353.090
729.5300, 1241.570
730.6810, 1159.754
731.8330, 1078.952
732.9840, 1063.405
734.1350, 1141.648
735.2860, 973.5693
736.4370, 889.3643
737.5880, 1017.563
738.7380, 1074.762
739.8880, 931.9600
741.0390, 948.1602
742.1890, 1075.360
743.3380, 1110.561
744.4880, 1239.765
745.6380, 1414.971
746.7870, 1692.168
747.9360, 1913.435
749.0850, 2144.712
750.2340, 2494.281
751.3830, 2679.652
752.5310, 2907.071
753.6800, 2833.556
754.8280, 2854.067
755.9760, 2543.600
757.1240, 2340.169
758.2720, 1939.747
759.4190, 1942.344
760.5670, 1824.943
761.7140, 1846.545
762.8610, 1806.149
764.0080, 1971.758
765.1550, 2070.368
766.3020, 2607.981
767.4480, 2806.598
768.5950, 3217.217
769.7410, 3526.841
770.8870, 3446.469
772.0330, 3235.100
773.1780, 3048.736
774.3240, 2419.374
775.4690, 1894.017
776.6140, 1673.662
777.7590, 1180.312
778.9040, 914.9678
780.0490, 689.6260
781.1940, 659.2900
782.3380, 633.9600
783.4820, 364.6240
784.6260, 353.4219
785.7700, 362.1113
786.9140, 306.6162
788.0580, 328.7354
789.2010, 154.4971
790.3450, 236.2822
791.4880, 196.9541
792.6310, 254.7764
793.7730, 241.4639
794.9160, 190.3057
796.0590, 327.1562
797.2010, 395.0127
798.3430, 360.2578
799.4850, 411.6299
800.6270, 297.8496
801.7690, 330.7373
802.9100, 239.6328
804.0520, 69.53418
805.1930, 294.4453
806.3340, 408.3662
807.4750, 271.2930
808.6160, 714.2295
809.7560, 627.1729
810.8970, 869.1250
812.0370, 1028.088
813.1770, 1260.059
814.3170, 1545.038
815.4570, 1829.025
816.5960, 2347.021
817.7360, 2510.027
818.8750, 2911.043
820.0140, 3004.068
821.1530, 2919.104
822.2920, 2659.146
823.4310, 2124.199
824.5690, 1840.263
825.7070, 1361.340
826.8460, 1206.434
827.9840, 817.5439
829.1220, 610.6709
830.2590, 472.8086
831.3970, 258.9570
832.5340, 183.1338
833.6710, 224.3311
834.8080, 202.5400
835.9450, 205.7607
837.0820, 278.0078
838.2190, 157.2656
839.3550, 5.537109
840.4910, 230.8184
841.6270, 181.1221
842.7630, 3.445313
843.8990, 154.7793
845.0350, 163.1240
846.1700, 13.51855
847.3060, 158.8418
848.4410, 31.78613
849.5760, 100.4189
850.7100, 3.916992
851.8450, 198.7373
852.9800, 76.52148
854.1140, 36.20801
855.2480, 91.94238
856.3820, 52.70898
857.5160, 50.51172
858.6500, 42.74512
859.7830, 16.99023
860.9170, 9.754883
862.0500, 37.49219
863.1830, 79.23633
864.3160, 4.003906
865.4480, 3.764648
866.5810, 61.51660
867.7130, 4.715820
868.8460, 101.0371
869.9780, 64.82422
871.1100, 14.62500
872.2410, 71.41992
873.3730, 56.76465
874.5050, 66.96191
875.6360, 50.17285
876.7670, 209.3965
877.8980, 279.6338
879.0290, 265.8818
880.1590, 328.1436
881.2900, 426.4180
882.4200, 264.7119
883.5500, 280.0186
884.6800, 241.3369
885.8100, 388.6699
886.9400, 337.0244
888.0690, 312.3906
889.1990, 414.7705
890.3280, 241.1621
891.4570, 403.5654
892.5860, 226.9814
893.7140, 381.4082
894.8430, 297.8486
895.9710, 346.3018
897.1000, 407.7656
898.2280, 231.2432
899.3560, 301.7314
900.4830, 403.2334
901.6110, 332.7471
902.7380, 422.2734
903.8660, 510.8125
904.9930, 404.6514
906.1200, 369.2158
907.2460, 611.7920
908.3730, 550.3809
909.5000, 690.9824
910.6260, 791.5977
911.7520, 994.2236
912.8780, 1295.864
914.0040, 1679.517
915.1290, 1893.309
916.2550, 2529.986
917.3800, 3597.677
918.5050, 5098.381
919.6300, 6932.098
920.7550, 9147.842
921.8800, 11614.59
923.0040, 14518.67
924.1290, 17208.50
925.2530, 18821.33
926.3770, 18536.17
927.5010, 16627.07
928.6250, 13780.97
929.7480, 11159.91
930.8720, 8911.861
931.9950, 7174.832
933.1180, 5410.800
934.2410, 4686.817
935.3640, 3929.848
936.4860, 3460.901
937.6090, 2928.971
938.7310, 2505.051
939.8530, 2269.156
940.9750, 2119.274
942.0970, 1997.405
943.2180, 1844.572
944.3400, 2109.750
945.4610, 2017.964
946.5820, 2249.193
947.7030, 1917.437
948.8240, 1946.692
949.9450, 1843.960
951.0650, 1591.241
952.1860, 1671.534
953.3060, 1329.867
954.4260, 1331.214
955.5460, 1394.573
956.6650, 1180.944
957.7850, 1216.327
958.9040, 1209.759
960.0230, 1297.204
961.1420, 1174.679
962.2610, 1148.167
963.3800, 1179.099
964.4990, 1295.618
965.6170, 1289.154
966.7350, 1372.179
967.8530, 1282.387
968.9710, 1440.973
970.0890, 1534.568
971.2070, 1470.190
972.3240, 1943.824
973.4410, 1948.470
974.5580, 2325.127
975.6750, 3024.369
976.7920, 3372.048
977.9090, 4104.711
979.0250, 5076.605
980.1410, 6199.323
981.2580, 7551.408
982.3740, 9318.148
983.4890, 11251.29
984.6050, 12656.45
985.7200, 14160.20
986.8360, 14875.72
987.9510, 14845.52
989.0660, 13828.51
990.1810, 12000.52
991.2950, 10452.69
992.4100, 8615.537
993.5240, 7014.400
994.6390, 5695.276
995.7530, 4516.638
996.8660, 3791.690
997.9800, 3277.535
999.0940, 2752.200
1000.207, 2240.889
1001.320, 1968.793
1002.433, 1628.212
1003.546, 1625.987
1004.659, 1305.335
1005.772, 1266.668
1006.884, 1056.142
1007.996, 886.2236
1009.108, 855.3193
1010.220, 622.4277
1011.332, 652.5498
1012.444, 549.6855
1013.555, 323.8330
1014.666, 348.9951
1015.777, 441.1719
1016.888, 594.3613
1017.999, 456.5625
1019.110, 484.7773
1020.220, 441.0049
1021.331, 302.2441
1022.441, 542.4980
1023.551, 488.7646
1024.661, 488.0439
1025.770, 418.3359
1026.880, 339.6426
1027.989, 345.9600
1029.098, 296.2900
1030.207, 183.6338
1031.316, 131.9893
1032.425, 108.3564
1033.533, 119.7354
1034.642, 220.1279
1035.750, 45.53125
1036.858, 46.94629
1037.966, 17.62500
1039.073, 123.8115
1040.181, 154.2598
1041.288, 194.7197
1042.396, 176.1914
1043.503, 85.67480
1044.610, 23.16992
1045.716, 89.67578
1046.823, 171.1934
1047.929, 9.277344
1049.036, 52.26074
1050.142, 134.8096
1051.248, 12.37109
1052.353, 146.9414
1053.459, 196.5244
1054.564, 182.1182
1055.670, 17.27734
1056.775, 119.3350
1057.880, 152.9561
1058.985, 301.5879
1060.089, 668.2305
1061.194, 552.5430
1062.298, 678.4355
1063.402, 559.2168
1064.506, 659.8994
1065.610, 818.0176
1066.713, 829.2881
1067.817, 849.9980
1068.920, 791.7178
1070.023, 834.9580
1071.126, 788.3652
1072.229, 858.8301
1073.332, 843.5850
1074.435, 809.3496
1075.537, 670.2793
1076.639, 532.0596
1077.741, 600.0469
1078.843, 412.5293
1079.945, 501.3320
1081.046, 447.1455
1082.148, 477.9863
1083.249, 517.8145
1084.350, 518.6973
1085.451, 331.8750
1086.551, 234.7246
1087.652, 266.5801
1088.752, 241.4434
1089.853, 105.3145
1090.953, 58.65430
1092.053, 228.5352
1093.152, 51.54102
1094.252, 191.4355
1095.351, 36.65430
1096.451, 47.82031
1097.550, 45.62305
1098.649, 78.69336
1099.748, 9.820313
1100.846, 81.05469
1101.945, 154.9336
1103.043, 148.1543
1104.141, 24.73242
1105.239, 67.62500
1106.337, 64.52148
1107.434, 54.57617
1108.532, 43.63867
1109.629, 48.22852
1110.726, 5.900391
1111.823, 176.9707
1112.920, 2.154297
1114.017, 55.82422
1115.113, 177.7109
1116.210, 18.39258
1117.306, 17.52344
1118.402, 332.2266
1119.498, 184.1973
1120.593, 272.1719
1121.689, 426.2324
1122.784, 280.2500
1123.879, 254.2871
1124.974, 361.3223
1126.069, 75.36133
1127.164, 265.2051
1128.259, 17.25000
1129.353, 90.30859
1130.447, 77.33203
1131.541, 85.41406
1132.635, 208.7734
1133.729, 6.123047
1134.822, 26.99609
1135.916, 8.859375
1137.009, 125.2949
1138.102, 52.45312
1139.195, 77.62891
1140.288, 210.8027
1141.380, 66.98047
1142.473, 17.15625
1143.565, 227.3340
1144.657, 145.5312
1145.749, 334.0449
1146.841, 289.2500
1147.932, 389.4570
1149.024, 261.6992
1150.115, 268.9141
1151.206, 377.1309
1152.297, 93.35742
1153.388, 452.5703
1154.479, 459.8574
1155.569, 340.3887
1156.659, 392.6074
1157.750, 518.0449
1158.839, 321.2637
1159.929, 296.4824
1161.019, 604.6973
1162.108, 465.9141
1163.198, 468.1289
1164.287, 638.3418
1165.376, 548.6211
1166.465, 480.8320
1167.553, 490.0391
1168.642, 633.2422
1169.730, 539.2109
1170.818, 570.4258
1171.906, 555.6387
1172.994, 304.8496
1174.082, 236.0586
1175.170, 222.2617
1176.257, 295.4668
1177.344, 377.6660
1178.431, 222.8633
1179.518, 301.9297
1180.605, 304.1230
1181.691, 252.3086
1182.778, 223.4941
1183.864, 213.2949
1184.950, 180.3242
1186.036, 193.0273
1187.122, 153.9082
1188.207, 160.0742
1189.292, 174.2383
1190.378, 131.7559
1191.463, 200.5527
1192.548, 101.7051
1193.632, 60.85156
1194.717, 111.9941
1195.801, 12.13281
1196.886, 7.738281
1197.970, 169.3711
1199.054, 90.47656
1200.137, 22.57617
1201.221, 169.6719
1202.305, 24.24023
1203.388, 258.8164
1204.471, 94.87109
1205.554, 62.07812
1206.637, 94.91992
1207.719, 62.08789
1208.802, 11.85742
1209.884, 91.78711
1210.966, 153.2480
1212.048, 47.16797
1213.130, 112.0820
1214.212, 42.98828
1215.293, 78.10742
1216.374, 56.84766
1217.456, 65.68164
1218.536, 96.65820
1219.617, 150.4805
1220.698, 110.6719
1221.778, 80.06445
1222.859, 40.95703
1223.939, 148.7324
1225.019, 63.92188
1226.099, 0.8320310
1227.178, 11.82617
1228.258, 19.53320
1229.337, 113.2656
1230.417, 101.5820
1231.496, 173.4004
1232.574, 25.00977
1233.653, 116.5469
1234.732, 102.0977
1235.810, 146.6426
1236.888, 269.1777
1237.966, 6.134766
1239.044, 118.6562
1240.122, 105.2676
1241.199, 139.6250
1242.277, 96.12109
1243.354, 48.93164
1244.431, 80.41406
1245.508, 79.88477
1246.585, 204.6250
1247.661, 12.08398
1248.738, 136.5234
1249.814, 169.9609
1250.890, 59.39062
1251.966, 278.7402
1253.042, 79.15430
1254.117, 126.5625
1255.193, 290.9629
1256.268, 36.64453
1257.343, 156.7051
1258.418, 252.1094
1259.493, 38.55664
1260.567, 131.8652
1261.642, 43.52148
1262.716, 208.7168
1263.790, 187.9355
1264.864, 280.1562
1265.938, 111.8047
1267.011, 166.0078
1268.085, 198.2266
1269.158, 122.4102
1270.231, 281.5859
1271.304, 111.7520
1272.377, 402.0547
1273.450, 243.0840
1274.522, 49.96094
1275.594, 313.0957
1276.666, 360.2715
1277.738, 96.38672
1278.810, 187.7227
1279.882, 220.8184
1280.953, 106.1133
1282.025, 121.2090
1283.096, 92.28711
1284.167, 53.47656
1285.238, 129.5410
1286.308, 66.58984
1287.379, 271.6211
1288.449, 188.6465
1289.519, 233.1270
1290.589, 141.1309
1291.659, 176.1250
1292.729, 192.1094
1293.798, 101.0859
1294.868, 166.0527
1295.937, 205.0078
1297.006, 248.9551
1298.075, 106.8906
1299.143, 137.6973
