##NAMES=Bertrandite
##RRUFFID=R060800
##IDEAL CHEMISTRY=Be_4_Si_2_O_7_(OH)_2_
##LOCALITY=Golconda mine, Governador Valadares, Minas Gerais, Brazil
##OWNER=RRUFF
##SOURCE=Bob Jenkins
##DESCRIPTION=Colorless pseudohexagonal prisms
##STATUS=The identification of this mineral is confirmed by single-crystal X-ray diffraction and chemical analysis.
##URL=rruff.info/R060800
##MEASURED CHEMISTRY=Be_4.00_Si_2.00_O_7_(OH)_2_
##PIN_ID=M00212
##ORIENTATION=Laser parallel to c* (0 0 1). Fiducial mark perpendicular to laser is parallel to a [1 0 0]
123.0580, 0.0000000E+00
124.2880, 3.800781
125.5190, 124.6543
126.7490, 195.4355
127.9790, 26.50000
129.2090, 10.74414
130.4390, 22.28125
131.6680, 143.5098
132.8980, 193.4922
134.1270, 117.9902
135.3560, 236.8203
136.5850, 19.18555
137.8140, 235.8477
139.0430, 337.8105
140.2710, 164.6113
141.5000, 24.17773
142.7280, 231.4414
143.9560, 197.3359
145.1840, 277.8105
146.4120, 198.8164
147.6390, 277.3105
148.8670, 100.2578
150.0940, 214.6270
151.3210, 449.3945
152.5490, 287.5371
153.7750, 251.0312
155.0020, 342.8594
156.2290, 25.00195
157.4550, 140.4453
158.6810, 307.1699
159.9080, 106.1680
161.1340, 233.4219
162.3590, 172.9043
163.5850, 262.5977
164.8110, 176.4883
166.0360, 103.5664
167.2610, 431.8223
168.4860, 448.2480
169.7110, 403.8340
170.9360, 396.5781
172.1610, 492.4746
173.3850, 769.5234
174.6100, 869.7266
175.8340, 984.0801
177.0580, 1256.584
178.2820, 1294.234
179.5050, 1959.027
180.7290, 2822.955
181.9520, 4027.016
183.1760, 3818.699
184.3990, 4873.506
185.6220, 3425.930
186.8450, 2243.469
188.0670, 1769.117
189.2900, 1412.875
190.5120, 1363.740
191.7340, 1491.703
192.9560, 1517.770
194.1780, 2139.936
195.4000, 2509.215
196.6220, 3299.580
197.8430, 4005.951
199.0640, 5027.324
200.2860, 5979.691
201.5070, 7595.086
202.7270, 9869.500
203.9480, 12979.94
205.1690, 16570.41
206.3890, 18648.92
207.6090, 15412.47
208.8290, 9468.078
210.0490, 5540.730
211.2690, 3274.461
212.4890, 2304.238
213.7080, 1806.061
214.9280, 1117.928
216.1470, 1033.846
217.3660, 971.8262
218.5850, 1007.877
219.8030, 1139.973
221.0220, 1074.121
222.2400, 1229.422
223.4590, 1632.986
224.6770, 2364.598
225.8950, 3690.250
227.1120, 5366.945
228.3300, 6428.717
229.5480, 5459.602
230.7650, 3993.578
231.9820, 2774.635
233.1990, 2167.727
234.4160, 1974.854
235.6330, 1756.016
236.8490, 2094.209
238.0660, 2773.439
239.2820, 3517.703
240.4980, 3743.998
241.7140, 3228.328
242.9300, 2734.691
244.1460, 1951.086
245.3610, 1418.516
246.5770, 1015.977
247.7920, 884.4707
249.0070, 676.9980
250.2220, 606.5625
251.4370, 702.1816
252.6510, 370.8320
253.8660, 492.5176
255.0800, 613.2559
256.2940, 225.0488
257.5080, 614.8711
258.7220, 495.7246
259.9360, 366.6035
261.1490, 260.5117
262.3630, 281.4453
263.5760, 358.4062
264.7890, 218.4004
266.0020, 320.4160
267.2150, 148.6660
268.4270, 338.7383
269.6400, 456.5586
270.8520, 397.3438
272.0640, 213.1895
273.2760, 69.94922
274.4880, 355.8496
275.7000, 88.77344
276.9120, 247.2559
278.1230, 190.5000
279.3340, 175.8711
280.5450, 211.3184
281.7560, 92.85938
282.9670, 334.0820
284.1780, 183.7949
285.3880, 119.5859
286.5980, 230.4531
287.8090, 7.392578
289.0190, 76.39648
290.2290, 351.4648
291.4380, 298.5996
292.6480, 407.9004
293.8570, 463.1465
295.0670, 703.4492
296.2760, 998.8027
297.4850, 1117.381
298.6930, 1411.834
299.9020, 1659.338
301.1110, 1498.881
302.3190, 808.4746
303.5270, 513.1094
304.7350, 470.7852
305.9430, 249.5020
307.1510, 268.2559
308.3580, 448.0508
309.5660, 420.8867
310.7730, 232.3770
311.9800, 104.3027
313.1870, 251.2656
314.3940, 13.26172
315.6010, 117.3184
316.8070, 38.40820
318.0130, 156.5293
319.2200, 191.4121
320.4260, 67.61328
321.6310, 351.7520
322.8370, 230.9883
324.0430, 322.5840
325.2480, 435.9082
326.4540, 671.2578
327.6590, 424.6328
328.8640, 813.0371
330.0680, 938.9922
331.2730, 765.4453
332.4780, 590.1797
333.6820, 561.6445
334.8860, 261.8008
336.0900, 350.3359
337.2940, 197.8906
338.4980, 97.12891
339.7010, 348.7168
340.9050, 118.3242
342.1080, 342.0273
343.3110, 311.6680
344.5140, 361.3242
345.7170, 432.9980
346.9200, 404.6895
348.1220, 625.4004
349.3240, 615.1289
350.5270, 837.8711
351.7290, 811.6367
352.9310, 763.4180
354.1320, 848.2168
355.3340, 1308.047
356.5350, 1781.893
357.7370, 2229.752
358.9380, 2593.627
360.1390, 2010.514
361.3400, 1792.416
362.5400, 1730.336
363.7410, 1439.926
364.9410, 1205.572
366.1410, 1129.172
367.3410, 704.1445
368.5410, 372.1484
369.7410, 280.2891
370.9400, 317.3438
372.1400, 227.3965
373.3390, 160.4297
374.5380, 128.7988
375.7370, 239.8867
376.9360, 297.5605
378.1350, 364.8984
379.3330, 135.1055
380.5310, 129.3203
381.7300, 415.5449
382.9280, 149.7773
384.1260, 513.0254
385.3230, 560.0859
386.5210, 501.3418
387.7180, 716.8164
388.9160, 595.0898
390.1130, 496.3691
391.3100, 399.6562
392.5060, 348.9570
393.7030, 441.2637
394.9000, 283.5742
396.0960, 308.8887
397.2920, 409.2051
398.4880, 254.5254
399.6840, 179.8477
400.8800, 133.1719
402.0750, 121.4980
403.2710, 267.2852
404.4660, 131.8965
405.6610, 185.2266
406.8560, 25.55664
408.0510, 187.8906
409.2450, 71.40430
410.4400, 339.9648
411.6340, 38.27344
412.8280, 186.6855
414.0220, 534.3887
415.2160, 381.3770
416.4100, 196.1367
417.6030, 173.1719
418.7970, 160.5879
419.9900, 16.42578
421.1830, 24.64844
422.3760, 0.4472660
423.5690, 30.83984
424.7610, 157.2402
425.9540, 222.6465
427.1460, 281.1074
428.3380, 219.5254
429.5300, 287.4180
430.7220, 57.84180
431.9140, 80.26953
433.1050, 149.6992
434.2970, 273.1309
435.4880, 34.43359
436.6790, 263.9902
437.8700, 61.41602
439.0610, 307.8418
440.2510, 56.73242
441.4420, 136.6719
442.6320, 168.0781
443.8220, 112.4805
445.0120, 61.11523
446.2020, 275.5156
447.3910, 294.9160
448.5810, 570.3164
449.7700, 475.8770
450.9600, 256.9258
452.1490, 190.6836
453.3370, 58.38281
454.5260, 137.3242
455.7150, 279.2031
456.9030, 105.2988
458.0910, 35.35938
459.2800, 34.23828
460.4670, 123.0156
461.6550, 53.08203
462.8430, 186.7715
464.0300, 200.4512
465.2180, 206.8398
466.4050, 3.785156
467.5920, 162.4141
468.7790, 90.27930
469.9650, 112.7812
471.1520, 88.54297
472.3380, 3.867188
473.5250, 83.36719
474.7110, 69.58789
475.8970, 72.39648
477.0820, 137.6289
478.2680, 126.2598
479.4540, 252.1406
480.6390, 56.99023
481.8240, 113.8340
483.0090, 120.6504
484.1940, 17.45703
485.3780, 135.2500
486.5630, 172.0352
487.7470, 290.9824
488.9320, 357.7422
490.1160, 291.0879
491.3000, 484.6504
492.4830, 460.3730
493.6670, 334.8789
494.8500, 533.2383
496.0340, 545.3027
497.2170, 720.2812
498.4000, 681.6582
499.5820, 634.3105
500.7650, 476.2324
501.9480, 359.8594
503.1300, 459.7891
504.3120, 255.9355
505.4940, 239.5254
506.6760, 273.8770
507.8580, 89.83984
509.0390, 247.5527
510.2210, 83.06836
511.4020, 55.62891
512.5830, 80.73242
513.7640, 85.93945
514.9450, 129.1230
516.1250, 34.57031
517.3060, 134.9570
518.4860, 16.71289
519.6660, 91.62109
520.8460, 289.6621
522.0260, 204.0996
523.2060, 188.8301
524.3850, 302.7637
525.5650, 330.9004
526.7440, 41.73438
527.9230, 211.5723
529.1020, 97.08789
530.2810, 295.7812
531.4590, 186.0312
532.6380, 473.8809
533.8160, 609.1387
534.9940, 580.9688
536.1720, 839.1387
537.3500, 787.2930
538.5270, 668.4219
539.7050, 948.5332
540.8820, 904.6230
542.0590, 506.6914
543.2360, 433.7363
544.4130, 64.76562
545.5900, 109.7637
546.7660, 328.7422
547.9430, 208.6992
549.1190, 193.6445
550.2950, 95.56641
551.4710, 174.2734
552.6470, 35.85156
553.8220, 33.95703
554.9980, 25.26758
556.1730, 21.44727
557.3480, 95.12695
558.5230, 21.78516
559.6980, 2.591797
560.8730, 57.00586
562.0470, 176.2246
563.2220, 277.7793
564.3960, 258.2832
565.5700, 292.7305
566.7440, 445.2695
567.9170, 198.7285
569.0910, 237.1582
570.2640, 100.5664
571.4380, 267.9453
572.6110, 782.2949
573.7840, 761.6230
574.9570, 1069.920
576.1290, 1002.191
577.3020, 1653.326
578.4740, 1352.545
579.6460, 1282.736
580.8180, 592.8965
581.9900, 851.8555
583.1620, 640.9629
584.3330, 401.0430
585.5040, 178.0977
586.6760, 416.1250
587.8470, 259.1250
589.0180, 292.1016
590.1880, 200.0508
591.3590, 83.96875
592.5290, 154.8555
593.7000, 113.9922
594.8700, 18.08398
596.0400, 119.6738
597.2090, 72.80859
598.3790, 39.05078
599.5490, 122.4297
600.7180, 147.7344
601.8870, 118.7949
603.0560, 434.0781
604.2250, 217.1523
605.3940, 188.2715
606.5620, 169.0488
607.7300, 72.85352
608.8990, 54.48047
610.0670, 135.7832
611.2350, 73.05273
612.4020, 113.2910
613.5700, 195.9668
614.7370, 239.1719
615.9050, 284.0898
617.0720, 326.2754
618.2390, 339.9707
619.4060, 349.9570
620.5720, 398.0645
621.7390, 424.4805
622.9050, 500.5352
624.0710, 383.5625
625.2370, 253.4805
626.4030, 531.4531
627.5690, 201.3984
628.7340, 393.3145
629.9000, 103.2168
631.0650, 53.12305
632.2300, 254.0039
633.3950, 60.85742
634.5600, 93.67578
635.7240, 163.4746
636.8890, 16.75781
638.0530, 84.95117
639.2170, 286.6250
640.3810, 189.4199
641.5450, 499.1484
642.7080, 184.0176
643.8720, 131.1738
645.0350, 310.6406
646.1980, 80.11523
647.3610, 171.0254
648.5240, 229.0020
649.6870, 49.41211
650.8490, 261.7129
652.0120, 129.0469
653.1740, 106.1484
654.3360, 109.3789
655.4980, 88.66992
656.6600, 79.23242
657.8210, 17.36719
658.9830, 210.1152
660.1440, 1.435547
661.3050, 63.76758
662.4660, 216.4453
663.6270, 164.1543
664.7870, 21.21094
665.9480, 317.7227
667.1080, 307.9434
668.2680, 237.0742
669.4280, 32.08594
670.5880, 294.9062
671.7480, 146.6934
672.9070, 9.798828
674.0670, 143.1328
675.2260, 351.4238
676.3850, 548.3320
677.5440, 447.5469
678.7030, 633.9473
679.8610, 666.6895
681.0200, 622.7891
682.1780, 810.6523
683.3360, 878.7578
684.4940, 1076.279
685.6520, 1250.734
686.8090, 1409.645
687.9670, 1408.229
689.1240, 1699.793
690.2810, 2100.814
691.4380, 2050.623
692.5950, 2273.637
693.7520, 2501.172
694.9080, 2344.457
696.0650, 2191.002
697.2210, 2050.273
698.3770, 1775.775
699.5330, 1905.451
700.6880, 1569.635
701.8440, 1344.580
702.9990, 1663.566
704.1550, 1680.635
705.3100, 1238.979
706.4650, 1507.691
707.6190, 1576.867
708.7740, 1357.055
709.9290, 1267.295
711.0830, 1423.395
712.2370, 1256.018
713.3910, 1162.035
714.5450, 1170.010
715.6980, 886.2598
716.8520, 840.4434
718.0050, 754.3008
719.1580, 895.1152
720.3110, 994.8848
721.4640, 787.1094
722.6170, 1071.465
723.7700, 1092.115
724.9220, 1126.191
726.0740, 775.6992
727.2260, 972.7871
728.3780, 663.6270
729.5300, 641.8867
730.6810, 630.0488
731.8330, 442.0195
732.9840, 355.8301
734.1350, 370.5605
735.2860, 222.6387
736.4370, 214.4199
737.5880, 110.1523
738.7380, 144.6348
739.8880, 197.7188
741.0390, 200.7227
742.1890, 186.5957
743.3380, 192.7520
744.4880, 249.8066
745.6380, 432.7285
746.7870, 416.0098
747.9360, 537.0117
749.0850, 704.1621
750.2340, 704.4121
751.3830, 956.6348
752.5310, 909.6055
753.6800, 1162.990
754.8280, 925.9902
755.9760, 817.3984
757.1240, 929.9922
758.2720, 1019.395
759.4190, 1370.664
760.5670, 1205.852
761.7140, 1247.299
762.8610, 1286.676
764.0080, 1064.668
765.1550, 1246.076
766.3020, 1083.748
767.4480, 983.2500
768.5950, 1050.648
769.7410, 1026.590
770.8870, 1008.779
772.0330, 1056.205
773.1780, 1060.939
774.3240, 828.5410
775.4690, 622.4980
776.6140, 669.1035
777.7590, 326.4180
778.9040, 339.4590
780.0490, 299.7363
781.1940, 223.1328
782.3380, 149.4316
783.4820, 139.7715
784.6260, 267.7402
785.7700, 244.2109
786.9140, 393.5332
788.0580, 144.6582
789.2010, 340.0098
790.3450, 1.685547
791.4880, 385.7363
792.6310, 199.5020
793.7730, 167.6133
794.9160, 70.50781
796.0590, 169.4766
797.2010, 148.0234
798.3430, 221.6074
799.4850, 130.0098
800.6270, 352.4414
801.7690, 260.0684
802.9100, 140.6328
804.0520, 246.6484
805.1930, 214.6875
806.3340, 185.5410
807.4750, 268.5508
808.6160, 268.5488
809.7560, 183.0371
810.8970, 494.2891
812.0370, 481.9043
813.1770, 197.1074
814.3170, 553.2578
815.4570, 300.3613
816.5960, 210.4141
817.7360, 430.4141
818.8750, 287.3672
820.0140, 211.2676
821.1530, 379.6016
822.2920, 167.6074
823.4310, 116.3574
824.5690, 12.50000
825.7070, 181.6895
826.8460, 213.2637
827.9840, 335.7891
829.1220, 289.5586
830.2590, 131.9688
831.3970, 353.3652
832.5340, 22.27539
833.6710, 98.30273
834.8080, 19.93359
835.9450, 67.59570
837.0820, 54.51758
838.2190, 21.57031
839.3550, 219.5645
840.4910, 190.5078
841.6270, 354.3965
842.7630, 256.2363
843.8990, 418.0254
845.0350, 123.7656
846.1700, 227.4492
847.3060, 540.0840
848.4410, 229.6699
849.5760, 445.2109
850.7100, 425.7031
851.8450, 290.1504
852.9800, 296.5430
854.1140, 471.8867
855.2480, 680.1816
856.3820, 467.4277
857.5160, 250.6211
858.6500, 208.7637
859.7830, 127.8086
860.9170, 200.8730
862.0500, 142.8535
863.1830, 232.7734
864.3160, 281.6543
865.4480, 132.4844
866.5810, 266.2617
867.7130, 132.9961
868.8460, 357.6758
869.9780, 176.3086
871.1100, 281.0391
872.2410, 74.46094
873.3730, 273.9766
874.5050, 150.4414
875.6360, 39.85938
876.7670, 237.4141
877.8980, 79.52344
879.0290, 63.82031
880.1590, 338.4688
881.2900, 282.0820
882.4200, 254.6406
883.5500, 149.7695
884.6800, 217.8477
885.8100, 63.40625
886.9400, 366.3750
888.0690, 97.70312
889.1990, 92.79297
890.3280, 118.7539
891.4570, 176.7031
892.5860, 0.8593750
893.7140, 166.7891
894.8430, 9.718750
895.9710, 203.5000
897.1000, 129.8867
898.2280, 136.8750
899.3560, 218.2695
900.4830, 109.3711
901.6110, 26.34766
902.7380, 35.45703
903.8660, 107.6250
904.9930, 21.64062
906.1200, 135.4219
907.2460, 117.8906
908.3730, 33.85156
909.5000, 153.9609
910.6260, 74.62891
911.7520, 289.2148
912.8780, 53.01172
914.0040, 20.67188
915.1290, 265.6523
916.2550, 149.5547
917.3800, 47.19922
918.5050, 214.7773
919.6300, 106.5938
920.7550, 65.73828
921.8800, 397.8203
923.0040, 225.1328
924.1290, 144.0781
925.2530, 248.7773
926.3770, 175.7109
927.5010, 323.8945
928.6250, 216.8047
929.7480, 134.6602
930.8720, 167.9961
931.9950, 249.2812
933.1180, 293.5820
934.2410, 20.66797
935.3640, 405.2344
936.4860, 260.6953
937.6090, 12.74219
938.7310, 270.2422
939.8530, 264.1250
940.9750, 232.8203
942.0970, 462.3398
943.2180, 230.1562
944.3400, 192.9141
945.4610, 665.2617
946.5820, 700.2812
947.7030, 710.2500
948.8240, 687.5156
949.9450, 722.3828
951.0650, 515.9727
952.1860, 654.1328
953.3060, 457.8477
954.4260, 439.2266
955.5460, 257.2344
956.6650, 323.7930
957.7850, 380.5117
958.9040, 264.9844
960.0230, 238.6914
961.1420, 448.3320
962.2610, 510.0547
963.3800, 302.2383
964.4990, 141.1719
965.6170, 407.3867
966.7350, 242.4766
967.8530, 29.05859
968.9710, 282.8125
970.0890, 307.0898
971.2070, 389.0234
972.3240, 625.5508
973.4410, 418.9375
974.5580, 508.9844
975.6750, 681.3242
976.7920, 587.9023
977.9090, 861.4922
979.0250, 983.0078
980.1410, 1361.734
981.2580, 1331.441
982.3740, 1763.410
983.4890, 2086.492
984.6050, 2622.746
985.7200, 2504.062
986.8360, 3052.914
987.9510, 2952.418
989.0660, 2454.480
990.1810, 2132.512
991.2950, 1940.492
992.4100, 1522.953
993.5240, 1347.188
994.6390, 1044.031
995.7530, 821.0000
996.8660, 623.0430
997.9800, 724.2148
999.0940, 493.5039
1000.207, 617.1172
1001.320, 523.8750
1002.433, 429.4609
1003.546, 431.1016
1004.659, 334.8867
1005.772, 298.9648
1006.884, 254.5039
1007.996, 160.3945
1009.108, 215.5469
1010.220, 221.0234
1011.332, 90.16016
1012.444, 225.8320
1013.555, 143.0430
1014.666, 208.4531
1015.777, 286.1797
1016.888, 495.0703
1017.999, 383.9336
1019.110, 254.1914
1020.220, 496.3555
1021.331, 449.7852
1022.441, 211.3906
1023.551, 206.7148
1024.661, 176.4141
1025.770, 171.7617
1026.880, 344.8398
1027.989, 48.29297
1029.098, 296.1328
1030.207, 597.8008
1031.316, 232.4727
1032.425, 360.5586
1033.533, 199.8164
1034.642, 217.1875
1035.750, 50.39453
1036.858, 26.33594
1037.966, 86.71094
1039.073, 336.5078
1040.181, 224.6562
1041.288, 261.6523
1042.396, 343.7812
1043.503, 363.2422
1044.610, 383.7383
1045.716, 312.7539
1046.823, 438.9766
1047.929, 124.7031
1049.036, 171.3789
1050.142, 236.0312
1051.248, 197.6016
1052.353, 212.4219
1053.459, 30.79688
1054.564, 223.3984
1055.670, 282.2656
1056.775, 415.4180
1057.880, 572.1836
1058.985, 451.3516
1060.089, 256.1797
1061.194, 134.6094
1062.298, 299.6992
1063.402, 354.8750
1064.506, 242.0430
1065.610, 233.2266
1066.713, 346.6523
1067.817, 739.3633
1068.920, 716.5195
1070.023, 642.4961
1071.126, 904.0547
1072.229, 748.7461
1073.332, 671.5000
1074.435, 467.2969
1075.537, 642.4219
1076.639, 622.9062
1077.741, 906.1914
1078.843, 578.1836
1079.945, 501.1289
1081.046, 817.3281
1082.148, 813.1875
1083.249, 717.0000
1084.350, 936.3828
1085.451, 877.1172
1086.551, 675.8008
1087.652, 602.4414
1088.752, 492.9102
1089.853, 515.7148
1090.953, 500.0586
1092.053, 529.3320
1093.152, 563.7070
1094.252, 665.6758
1095.351, 721.2227
1096.451, 831.2422
1097.550, 523.5469
1098.649, 516.7812
1099.748, 644.4297
1100.846, 430.8633
1101.945, 437.5977
1103.043, 292.4062
1104.141, 351.4648
1105.239, 301.4883
1106.337, 137.5547
1107.434, 263.4922
1108.532, 507.7031
1109.629, 244.5586
1110.726, 437.5234
1111.823, 292.2969
1112.920, 150.0312
1114.017, 210.7148
1115.113, 43.35547
1116.210, 116.9453
1117.306, 328.4805
1118.402, 365.9844
1119.498, 189.4453
1120.593, 371.8594
1121.689, 615.1719
1122.784, 789.5039
1123.879, 477.7383
1124.974, 549.9961
1126.069, 463.2148
1127.164, 144.3984
1128.259, 296.5391
1129.353, 7.359375
1130.447, 111.6758
1131.541, 464.6680
1132.635, 1.375000
1133.729, 331.5195
1134.822, 382.7891
1135.916, 309.6094
1137.009, 259.2617
1138.102, 232.7227
1139.195, 44.96094
1140.288, 162.2461
1141.380, 152.6055
1142.473, 199.4375
1143.565, 81.32031
1144.657, 217.4141
1145.749, 67.22656
1146.841, 46.60547
1147.932, 203.8125
1149.024, 331.0820
1150.115, 293.2109
1151.206, 146.7695
1152.297, 132.8320
1153.388, 71.85547
1154.479, 97.18359
1155.569, 53.54297
1156.659, 8.429688
1157.750, 151.6016
1158.839, 92.64062
1159.929, 236.7070
1161.019, 279.1055
1162.108, 86.18750
1163.198, 411.0117
1164.287, 171.4961
1165.376, 201.1328
1166.465, 298.8086
1167.553, 272.1680
1168.642, 452.8047
1169.730, 268.1641
1170.818, 159.3516
1171.906, 166.0430
1172.994, 440.8594
1174.082, 315.0195
1175.170, 28.76953
1176.257, 279.4492
1177.344, 206.3633
1178.431, 305.5234
1179.518, 306.6211
1180.605, 173.8867
1181.691, 137.3906
1182.778, 125.7422
1183.864, 207.1289
1184.950, 49.62891
1186.036, 311.0000
1187.122, 309.5938
1188.207, 468.5234
1189.292, 430.7305
1190.378, 324.3125
1191.463, 279.7070
1192.548, 241.5625
1193.632, 150.0898
1194.717, 67.18359
1195.801, 239.9883
1196.886, 213.0977
1197.970, 10.34375
1199.054, 57.73047
1200.137, 79.18750
1201.221, 51.26953
1202.305, 69.85938
1203.388, 311.1133
1204.471, 222.4922
1205.554, 328.8516
1206.637, 354.1797
1207.719, 371.8477
1208.802, 268.7695
1209.884, 515.0312
1210.966, 196.2695
1212.048, 366.4766
1213.130, 350.6641
1214.212, 116.8164
1215.293, 531.9492
1216.374, 557.0547
1217.456, 435.1367
1218.536, 174.1953
1219.617, 148.2344
1220.698, 68.76172
1221.778, 68.17969
1222.859, 62.47266
1223.939, 115.9805
1225.019, 205.8398
1226.099, 277.6758
1227.178, 276.4961
1228.258, 303.3828
1229.337, 340.0703
1230.417, 262.8281
1231.496, 372.5820
1232.574, 326.3125
1233.653, 429.7422
1234.732, 286.3945
1235.810, 219.8242
1236.888, 321.5469
1237.966, 161.7773
1239.044, 237.3945
1240.122, 198.5469
1241.199, 306.1445
1242.277, 385.4961
1243.354, 484.6680
1244.431, 553.6094
1245.508, 646.8047
1246.585, 618.3242
1247.661, 421.7109
1248.738, 316.1875
1249.814, 540.9805
1250.890, 62.56641
1251.966, 315.8359
1253.042, 46.77734
1254.117, 414.5625
1255.193, 536.8867
1256.268, 481.1953
1257.343, 566.6133
1258.418, 564.6562
1259.493, 577.8906
1260.567, 406.1406
1261.642, 299.3789
1262.716, 270.0156
1263.790, 111.2109
1264.864, 314.4609
1265.938, 546.5391
1267.011, 466.4336
1268.085, 415.1719
1269.158, 359.1133
1270.231, 191.0508
1271.304, 671.4375
1272.377, 284.0039
1273.450, 477.6328
1274.522, 212.2656
1275.594, 101.8086
1276.666, 78.73828
1277.738, 149.3086
1278.810, 219.5312
1279.882, 269.6523
1280.953, 285.4414
1282.025, 356.0898
1283.096, 286.0938
1284.167, 300.0781
1285.238, 168.6680
1286.308, 253.1172
1287.379, 209.2148
1288.449, 206.2539
1289.519, 184.9297
1290.589, 450.7852
1291.659, 101.2617
1292.729, 288.5859
1293.798, 602.7344
1294.868, 522.2578
1295.937, 717.2617
1297.006, 541.7383
1298.075, 607.2773
1299.143, 511.1797
