##NAMES=Bertrandite
##RRUFFID=R060800
##IDEAL CHEMISTRY=Be_4_Si_2_O_7_(OH)_2_
##LOCALITY=Golconda mine, Governador Valadares, Minas Gerais, Brazil
##OWNER=RRUFF
##SOURCE=Bob Jenkins
##DESCRIPTION=Colorless pseudohexagonal prisms
##STATUS=The identification of this mineral is confirmed by single-crystal X-ray diffraction and chemical analysis.
##URL=rruff.info/R060800
##MEASURED CHEMISTRY=Be_4.00_Si_2.00_O_7_(OH)_2_
##PIN_ID=M00406
##ORIENTATION=Laser parallel to b* (0 1 0). Fiducial mark perpendicular to laser is parallel to c [0 0 1]
123.0580, 0.0000000E+00
124.2880, 76.22656
125.5190, 15.54883
126.7490, 151.9258
127.9790, 45.37988
129.2090, 103.7861
130.4390, 25.76953
131.6680, 35.19238
132.8980, 16.16504
134.1270, 104.7373
135.3560, 0.5722660
136.5850, 20.38965
137.8140, 181.9658
139.0430, 114.1104
140.2710, 76.66504
141.5000, 150.4951
142.7280, 33.48535
143.9560, 166.5244
145.1840, 36.51660
146.4120, 10.37891
147.6390, 103.0439
148.8670, 89.45508
150.0940, 254.5615
151.3210, 217.3145
152.5490, 294.6768
153.7750, 378.6074
155.0020, 219.0723
156.2290, 344.0439
157.4550, 404.4922
158.6810, 577.3906
159.9080, 727.7178
161.1340, 654.4365
162.3590, 657.5117
163.5850, 631.9141
164.8110, 879.6182
166.0360, 1084.604
167.2610, 1112.859
168.4860, 1341.369
169.7110, 2041.123
170.9360, 3036.208
172.1610, 4831.521
173.3850, 7049.070
174.6100, 8835.888
175.8340, 9914.918
177.0580, 11368.17
178.2820, 14727.62
179.5050, 19933.30
180.7290, 24613.17
181.9520, 26101.23
183.1760, 22744.49
184.3990, 17203.92
185.6220, 13315.52
186.8450, 10529.30
188.0670, 8461.236
189.2900, 7309.328
190.5120, 7049.574
191.7340, 7952.963
192.9560, 10466.49
194.1780, 15108.19
195.4000, 19864.01
196.6220, 22081.93
197.8430, 24098.84
199.0640, 30129.72
200.2860, 38713.60
201.5070, 48680.48
202.7270, 52689.40
203.9480, 47792.33
205.1690, 36591.32
206.3890, 26542.36
207.6090, 19671.45
208.8290, 14342.59
210.0490, 9345.797
211.2690, 6174.062
212.4890, 4190.393
213.7080, 3577.787
214.9280, 3828.283
216.1470, 4748.887
217.3660, 7147.979
218.5850, 10833.73
219.8030, 14153.59
221.0220, 16035.70
222.2400, 18703.20
223.4590, 24708.49
224.6770, 33762.55
225.8950, 41924.08
227.1120, 45661.70
228.3300, 41604.44
229.5480, 33560.42
230.7650, 25709.46
231.9820, 19954.57
233.1990, 15068.85
234.4160, 10421.28
235.6330, 7457.764
236.8490, 5527.283
238.0660, 4703.840
239.2820, 4104.458
240.4980, 3338.113
241.7140, 3004.803
242.9300, 2301.529
244.1460, 1880.294
245.3610, 1433.101
246.5770, 1217.976
247.7920, 1056.921
249.0070, 920.9346
250.2220, 815.9824
251.4370, 540.0615
252.6510, 591.1670
253.8660, 400.2988
255.0800, 495.4561
256.2940, 428.6387
257.5080, 600.8467
258.7220, 660.0791
259.9360, 407.3340
261.1490, 222.6113
262.3630, 424.9111
263.5760, 344.9014
264.7890, 328.2275
266.0020, 354.5752
267.2150, 250.9404
268.4270, 210.3252
269.6400, 200.2588
270.8520, 261.0918
272.0640, 186.2002
273.2760, 143.0811
274.4880, 192.0117
275.7000, 142.3545
276.9120, 169.2539
278.1230, 230.9746
279.3340, 56.86719
280.5450, 126.9150
281.7560, 266.0996
282.9670, 156.4219
284.1780, 362.8682
285.3880, 512.4316
286.5980, 775.1064
287.8090, 979.8838
289.0190, 1297.760
290.2290, 1599.729
291.4380, 1592.785
292.6480, 1949.926
293.8570, 2669.147
295.0670, 2986.447
296.2760, 3694.820
297.4850, 3377.264
298.6930, 2835.772
299.9020, 1946.349
301.1110, 1316.986
302.3190, 1215.686
303.5270, 644.4414
304.7350, 459.2500
305.9430, 441.9141
307.1510, 187.3730
308.3580, 199.3350
309.5660, 143.0605
310.7730, 111.2266
311.9800, 211.8633
313.1870, 72.99707
314.3940, 92.17285
315.6010, 108.5146
316.8070, 30.77051
318.0130, 11.93848
319.2200, 102.3555
320.4260, 24.17773
321.6310, 113.1406
322.8370, 203.5674
324.0430, 35.20605
325.2480, 51.59668
326.4540, 110.6338
327.6590, 55.07227
328.8640, 54.82910
330.0680, 94.33105
331.2730, 138.2363
332.4780, 157.5312
333.6820, 45.64941
334.8860, 164.6357
336.0900, 123.3418
337.2940, 179.4082
338.4980, 224.2256
339.7010, 284.8662
340.9050, 309.3594
342.1080, 343.1611
343.3110, 284.3281
344.5140, 552.4346
345.7170, 535.3477
346.9200, 828.4307
348.1220, 1321.316
349.3240, 1726.217
350.5270, 1982.145
351.7290, 2192.088
352.9310, 2693.420
354.1320, 3500.414
355.3340, 4228.596
356.5350, 4289.619
357.7370, 3656.654
358.9380, 2757.704
360.1390, 1955.018
361.3400, 1410.389
362.5400, 1056.650
363.7410, 604.7422
364.9410, 388.8340
366.1410, 362.7998
367.3410, 304.9092
368.5410, 141.8574
369.7410, 180.2861
370.9400, 156.0889
372.1400, 198.9492
373.3390, 190.2461
374.5380, 234.4785
375.7370, 293.7158
376.9360, 396.0195
378.1350, 495.9736
379.3330, 535.5098
380.5310, 782.7568
381.7300, 855.0049
382.9280, 1068.262
384.1260, 1190.518
385.3230, 1100.774
386.5210, 1078.031
387.7180, 849.2881
388.9160, 653.5449
390.1130, 484.8018
391.3100, 550.0566
392.5060, 186.3105
393.7030, 301.5635
394.9000, 83.81348
396.0960, 182.0625
397.2920, 66.30859
398.4880, 93.55176
399.6840, 102.7930
400.8800, 3.029297
402.0750, 44.73730
403.2710, 138.4844
404.4660, 290.7041
405.6610, 172.9199
406.8560, 176.1299
408.0510, 82.32715
409.2450, 121.8027
410.4400, 323.7119
411.6340, 265.8984
412.8280, 377.0781
414.0220, 556.3164
415.2160, 557.3242
416.4100, 540.2656
417.6030, 648.4941
418.7970, 564.5186
419.9900, 657.7676
421.1830, 413.0312
422.3760, 262.5469
423.5690, 428.9453
424.7610, 536.3115
425.9540, 351.5996
427.1460, 317.8926
428.3380, 380.1885
429.5300, 326.4863
430.7220, 351.7871
431.9140, 487.0898
433.1050, 546.3936
434.2970, 771.6973
435.4880, 560.0010
436.6790, 699.3047
437.8700, 762.6094
439.0610, 617.9111
440.2510, 568.2129
441.4420, 400.5117
442.6320, 314.1699
443.8220, 100.4648
445.0120, 203.7559
446.2020, 101.0449
447.3910, 114.3301
448.5810, 67.38965
449.7700, 5.844727
450.9600, 200.0664
452.1490, 46.71582
453.3370, 6.460938
454.5260, 80.44434
455.7150, 37.60449
456.9030, 86.75781
458.0910, 83.09473
459.2800, 68.99219
460.4670, 85.07129
461.6550, 109.9551
462.8430, 30.95703
464.0300, 60.08594
465.2180, 90.82422
466.4050, 11.72656
467.5920, 5.183594
468.7790, 86.70703
469.9650, 72.90820
471.1520, 30.83203
472.3380, 11.55859
473.5250, 29.26758
474.7110, 146.0352
475.8970, 94.43945
477.0820, 27.56641
478.2680, 117.9141
479.4540, 32.38672
480.6390, 48.14844
481.8240, 50.40234
483.0090, 111.0059
484.1940, 104.3027
485.3780, 88.39844
486.5630, 22.86719
487.7470, 55.31641
488.9320, 45.48828
490.1160, 95.64844
491.3000, 101.7969
492.4830, 147.4473
493.6670, 247.5762
494.8500, 4.269531
496.0340, 106.6680
497.2170, 59.73828
498.4000, 188.7988
499.5820, 173.8457
500.7650, 79.88086
501.9480, 57.90430
503.1300, 55.91406
504.3120, 62.90820
505.4940, 80.88672
506.6760, 133.8535
507.8580, 10.80859
509.0390, 118.9531
510.2210, 35.45508
511.4020, 36.82617
512.5830, 44.59570
513.7640, 6.865234
514.9450, 46.48633
516.1250, 226.9473
517.3060, 110.6855
518.4860, 101.4082
519.6660, 267.1191
520.8460, 134.8164
522.0260, 201.5000
523.2060, 331.1680
524.3850, 297.1035
525.5650, 463.7461
526.7440, 489.3750
527.9230, 847.9863
529.1020, 1020.588
530.2810, 1392.174
531.4590, 1672.748
532.6380, 2351.307
533.8160, 2611.852
534.9940, 3041.385
536.1720, 2873.902
537.3500, 2401.404
538.5270, 1846.896
539.7050, 1399.373
540.8820, 991.8359
542.0590, 642.2871
543.2360, 533.7070
544.4130, 373.5312
545.5900, 379.9395
546.7660, 402.3359
547.9430, 222.7188
549.1190, 166.0879
550.2950, 175.4434
551.4710, 265.7832
552.6470, 134.1152
553.8220, 163.4316
554.9980, 54.73242
556.1730, 11.01367
557.3480, 34.25586
558.5230, 186.4668
559.6980, 32.66797
560.8730, 208.8359
562.0470, 176.9922
563.2220, 48.13477
564.3960, 103.2539
565.5700, 107.3555
566.7440, 302.4453
567.9170, 294.5195
569.0910, 221.5820
570.2640, 247.6289
571.4380, 222.6660
572.6110, 396.6992
573.7840, 321.7168
574.9570, 326.7324
576.1290, 251.7363
577.3020, 340.7578
578.4740, 398.7754
579.6460, 286.7832
580.8180, 158.7773
581.9900, 188.7598
583.1620, 83.72656
584.3330, 188.6855
585.5040, 200.6582
586.6760, 231.6191
587.8470, 219.5703
589.0180, 181.5098
590.1880, 307.6406
591.3590, 336.0195
592.5290, 144.9297
593.7000, 335.1152
594.8700, 348.3457
596.0400, 391.2344
597.2090, 226.1113
598.3790, 342.9844
599.5490, 261.7402
600.7180, 472.6133
601.8870, 373.4746
603.0560, 305.3613
604.2250, 70.09570
605.3940, 308.0059
606.5620, 295.8281
607.7300, 383.8730
608.8990, 148.5547
610.0670, 78.63477
611.2350, 80.52930
612.4020, 374.1191
613.5700, 215.9844
614.7370, 160.4648
615.9050, 147.5684
617.0720, 27.86523
618.2390, 165.3086
619.4060, 169.0449
620.5720, 26.43555
621.7390, 239.0840
622.9050, 179.9258
624.0710, 158.9238
625.2370, 88.62695
626.4030, 10.97656
627.5690, 145.3984
628.7340, 102.0234
629.9000, 162.4941
631.0650, 61.17188
632.2300, 31.15234
633.3950, 145.4961
634.5600, 19.14258
635.7240, 72.59180
636.8890, 199.0059
638.0530, 141.4277
639.2170, 140.0176
640.3810, 116.6035
641.5450, 125.1875
642.7080, 128.2402
643.8720, 149.8047
645.0350, 169.1914
646.1980, 50.75781
647.3610, 101.3340
648.5240, 4.042969
649.6870, 39.38672
650.8490, 54.05273
652.0120, 97.41211
653.1740, 72.59766
654.3360, 74.83594
655.4980, 4.478516
656.6600, 134.8594
657.8210, 122.2383
658.9830, 95.55664
660.1440, 52.93945
661.3050, 113.3242
662.4660, 238.7070
663.6270, 21.90820
664.7870, 130.4668
665.9480, 180.8418
667.1080, 102.2207
668.2680, 104.5996
669.4280, 144.9805
670.5880, 224.3652
671.7480, 350.7520
672.9070, 424.9844
674.0670, 572.5371
675.2260, 669.9336
676.3850, 960.3340
677.5440, 1177.734
678.7030, 1414.141
679.8610, 1773.553
681.0200, 2308.967
682.1780, 2653.385
683.3360, 3277.809
684.4940, 3976.242
685.6520, 4475.682
686.8090, 5103.129
687.9670, 5412.578
689.1240, 5566.033
690.2810, 5412.492
691.4380, 5040.957
692.5950, 4731.430
693.7520, 4364.910
694.9080, 4184.344
696.0650, 4215.027
697.2210, 4289.799
698.3770, 4576.301
699.5330, 5297.023
700.6880, 6077.543
701.8440, 7319.070
702.9990, 9121.359
704.1550, 10951.78
705.3100, 12817.25
706.4650, 14992.81
707.6190, 16981.38
708.7740, 18640.95
709.9290, 19276.54
711.0830, 18760.18
712.2370, 17185.79
713.3910, 14962.61
714.5450, 12265.23
715.6980, 10246.74
716.8520, 8104.389
718.0050, 6378.039
719.1580, 5207.699
720.3110, 4251.367
721.4640, 3395.045
722.6170, 2739.766
723.7700, 2429.629
724.9220, 1955.336
726.0740, 1821.943
727.2260, 1413.672
728.3780, 1207.998
729.5300, 1177.990
730.6810, 948.7773
731.8330, 932.6406
732.9840, 836.4648
734.1350, 935.3008
735.2860, 812.9824
736.4370, 869.4180
737.5880, 674.5566
738.7380, 519.4668
739.8880, 678.3867
741.0390, 664.3184
742.1890, 817.2969
743.3380, 926.1445
744.4880, 936.1855
745.6380, 1131.234
746.7870, 1211.301
747.9360, 1403.385
749.0850, 1922.512
750.2340, 1943.680
751.3830, 2341.859
752.5310, 2597.059
753.6800, 2420.273
754.8280, 2248.547
755.9760, 2065.514
757.1240, 1709.861
758.2720, 1491.225
759.4190, 1243.299
760.5670, 1057.691
761.7140, 921.1211
762.8610, 890.6035
764.0080, 810.0996
765.1550, 868.3359
766.3020, 938.9102
767.4480, 971.4980
768.5950, 1101.102
769.7410, 1082.721
770.8870, 1023.846
772.0330, 1082.496
773.1780, 854.1230
774.3240, 667.9629
775.4690, 603.6719
776.6140, 450.3984
777.7590, 507.1387
778.9040, 411.9102
780.0490, 113.6992
781.1940, 397.5039
782.3380, 134.3281
783.4820, 101.1699
784.6260, 152.0293
785.7700, 254.9062
786.9140, 90.59180
788.0580, 77.84766
789.2010, 76.39844
790.3450, 141.4609
791.4880, 137.1602
792.6310, 140.5996
793.7730, 155.6660
794.9160, 155.7832
796.0590, 87.91992
797.2010, 61.07617
798.3430, 215.2520
799.4850, 117.4473
800.6270, 249.6621
801.7690, 266.6191
802.9100, 139.8770
804.0520, 308.1641
805.1930, 348.4727
806.3340, 553.8008
807.4750, 830.1641
808.6160, 778.5469
809.7560, 1102.949
810.8970, 1415.381
812.0370, 1990.836
813.1770, 2578.311
814.3170, 3193.803
815.4570, 3908.316
816.5960, 4565.854
817.7360, 5368.410
818.8750, 5591.988
820.0140, 5592.586
821.1530, 5248.215
822.2920, 4388.863
823.4310, 3546.537
824.5690, 3023.229
825.7070, 2349.967
826.8460, 1590.756
827.9840, 1284.584
829.1220, 978.4375
830.2590, 702.3105
831.3970, 707.2051
832.5340, 507.1250
833.6710, 472.0801
834.8080, 416.0645
835.9450, 301.0703
837.0820, 134.1074
838.2190, 136.1680
839.3550, 72.25977
840.4910, 219.3789
841.6270, 126.5215
842.7630, 130.6855
843.8990, 201.8730
845.0350, 65.08203
846.1700, 36.31055
847.3060, 60.43750
848.4410, 189.8184
849.5760, 63.90625
850.7100, 164.3730
851.8450, 155.3262
852.9800, 81.06445
854.1140, 18.19141
855.2480, 160.4707
856.3820, 135.7715
857.5160, 46.09570
858.6500, 44.56055
859.7830, 142.2031
860.9170, 140.1211
862.0500, 31.53320
863.1830, 253.8262
864.3160, 22.79102
865.4480, 40.37305
866.5810, 77.05469
867.7130, 2.494141
868.8460, 151.9824
869.9780, 141.4824
871.1100, 29.99805
872.2410, 22.46094
873.3730, 125.9102
874.5050, 103.6152
875.6360, 24.16992
876.7670, 65.74414
877.8980, 192.3418
879.0290, 122.9590
880.1590, 180.5332
881.2900, 260.2676
882.4200, 128.9531
883.5500, 310.7129
884.6800, 169.5078
885.8100, 306.3242
886.9400, 78.16211
888.0690, 102.0215
889.1990, 116.9043
890.3280, 347.8066
891.4570, 39.73242
892.5860, 178.6816
893.7140, 364.6523
894.8430, 186.6426
895.9710, 303.6562
897.1000, 321.6934
898.2280, 455.7520
899.3560, 422.8301
900.4830, 569.9297
901.6110, 771.0527
902.7380, 740.1992
903.8660, 640.3613
904.9930, 747.5469
906.1200, 828.7559
907.2460, 932.9941
908.3730, 1264.258
909.5000, 1386.543
910.6260, 1573.871
911.7520, 1931.219
912.8780, 2443.586
914.0040, 2882.650
915.1290, 4117.059
916.2550, 5144.488
917.3800, 6809.941
918.5050, 9649.414
919.6300, 13674.91
920.7550, 17847.42
921.8800, 22937.95
923.0040, 28234.77
924.1290, 32266.36
925.2530, 34405.98
926.3770, 32130.93
927.5010, 26825.64
928.6250, 21227.38
929.7480, 16042.15
930.8720, 11706.94
931.9950, 8685.738
933.1180, 6224.564
934.2410, 4705.406
935.3640, 3605.268
936.4860, 2877.887
937.6090, 2606.793
938.7310, 2250.949
939.8530, 1656.891
940.9750, 1501.850
942.0970, 1439.604
943.2180, 1016.621
944.3400, 1031.658
945.4610, 1075.855
946.5820, 856.9277
947.7030, 816.0176
948.8240, 901.1250
949.9450, 808.2520
951.0650, 796.3945
952.1860, 1014.557
953.3060, 650.7324
954.4260, 791.9258
955.5460, 601.0195
956.6650, 552.2480
957.7850, 781.4941
958.9040, 830.7598
960.0230, 1102.656
961.1420, 753.0176
962.2610, 976.5039
963.3800, 1033.832
964.4990, 1059.176
965.6170, 1077.535
966.7350, 978.9062
967.8530, 1311.295
968.9710, 1277.699
970.0890, 1600.119
971.2070, 1795.553
972.3240, 2113.002
973.4410, 2486.016
974.5580, 2919.492
975.6750, 3157.988
976.7920, 4143.494
977.9090, 4887.014
979.0250, 5943.549
980.1410, 7267.100
981.2580, 9215.660
982.3740, 11222.19
983.4890, 13079.78
984.6050, 14986.17
985.7200, 16373.79
986.8360, 16747.55
987.9510, 16488.19
989.0660, 14934.84
990.1810, 13155.52
991.2950, 11028.21
992.4100, 9005.938
993.5240, 7300.283
994.6390, 6002.875
995.7530, 4804.641
996.8660, 4260.531
997.9800, 3344.326
999.0940, 2773.117
1000.207, 2501.717
1001.320, 2176.553
1002.433, 1923.488
1003.546, 1573.354
1004.659, 1455.232
1005.772, 1121.291
1006.884, 990.6191
1007.996, 908.2676
1009.108, 828.8672
1010.220, 897.8125
1011.332, 931.7715
1012.444, 742.7812
1013.555, 662.8047
1014.666, 765.8398
1015.777, 651.8867
1016.888, 614.6504
1017.999, 467.8848
1019.110, 486.5098
1020.220, 568.0664
1021.331, 589.1758
1022.441, 543.2969
1023.551, 559.1562
1024.661, 612.5723
1025.770, 523.7266
1026.880, 380.9141
1027.989, 405.1367
1029.098, 448.4004
1030.207, 377.6719
1031.316, 187.9570
1032.425, 224.2520
1033.533, 355.5586
1034.642, 386.8750
1035.750, 167.2012
1036.858, 398.5391
1037.966, 171.8848
1039.073, 90.24023
1040.181, 197.6074
1041.288, 244.5469
1042.396, 213.8027
1043.503, 273.3301
1044.610, 139.7363
1045.716, 117.1504
1046.823, 46.42383
1047.929, 91.98633
1049.036, 268.4023
1050.142, 200.8320
1051.248, 40.26758
1052.353, 174.8828
1053.459, 155.3340
1054.564, 241.7969
1055.670, 54.73242
1056.775, 52.71680
1057.880, 35.17383
1058.985, 88.35938
1060.089, 88.06641
1061.194, 166.5000
1062.298, 173.9434
1063.402, 141.3926
1064.506, 169.8477
1065.610, 242.3105
1066.713, 292.7832
1067.817, 146.2617
1068.920, 6.253906
1070.023, 61.23047
1071.126, 33.27930
1072.229, 201.1953
1073.332, 146.6777
1074.435, 41.83398
1075.537, 100.6309
1076.639, 31.10547
1077.741, 28.41211
1078.843, 90.05273
1079.945, 71.87695
1081.046, 208.0039
1082.148, 148.4863
1083.249, 194.9766
1084.350, 155.4707
1085.451, 169.9727
1086.551, 21.47656
1087.652, 22.01367
1088.752, 199.4863
1089.853, 244.9883
1090.953, 48.49805
1092.053, 84.98828
1093.152, 92.51953
1094.252, 77.09766
1095.351, 229.2832
1096.451, 218.6699
1097.550, 243.0586
1098.649, 160.4531
1099.748, 92.84961
1100.846, 76.25391
1101.945, 43.66016
1103.043, 125.0723
1104.141, 254.4883
1105.239, 31.09180
1106.337, 84.30859
1107.434, 216.7129
1108.532, 46.12109
1109.629, 154.5332
1110.726, 34.94922
1111.823, 133.3711
1112.920, 74.79297
1114.017, 142.2207
1115.113, 244.6719
1116.210, 273.1250
1117.306, 202.5957
1118.402, 210.0664
1119.498, 91.57031
1120.593, 136.0938
1121.689, 407.6211
1122.784, 578.1504
1123.879, 600.5801
1124.974, 332.1172
1126.069, 218.6621
1127.164, 194.2383
1128.259, 235.9453
1129.353, 198.5293
1130.447, 60.88086
1131.541, 69.67383
1132.635, 209.2363
1133.729, 2.199219
1134.822, 102.3594
1135.916, 134.9199
1137.009, 247.4805
1138.102, 195.0488
1139.195, 232.7051
1140.288, 7.224609
1141.380, 182.8184
1142.473, 175.4160
1143.565, 79.11914
1144.657, 292.7207
1145.749, 333.3242
1146.841, 78.92773
1147.932, 170.4648
1149.024, 30.96094
1150.115, 183.5195
1151.206, 113.0020
1152.297, 395.4824
1153.388, 194.9668
1154.479, 260.4531
1155.569, 47.93750
1156.659, 130.4258
1157.750, 206.7520
1158.839, 325.7363
1159.929, 282.3887
1161.019, 325.8789
1162.108, 304.3711
1163.198, 352.8613
1164.287, 291.3496
1165.376, 417.8418
1166.465, 293.3320
1167.553, 520.8438
1168.642, 189.3574
1169.730, 307.8730
1170.818, 361.3867
1171.906, 29.90039
1172.994, 104.4922
1174.082, 259.9980
1175.170, 256.5039
1176.257, 350.0078
1177.344, 368.6426
1178.431, 215.3398
1179.518, 312.8438
1180.605, 310.3438
1181.691, 150.8477
1182.778, 48.34766
1183.864, 119.8457
1184.950, 237.3457
1186.036, 241.8438
1187.122, 273.0762
1188.207, 288.7617
1189.292, 305.0664
1190.378, 271.2773
1191.463, 181.7715
1192.548, 183.2656
1193.632, 513.7598
1194.717, 87.25391
1195.801, 412.7480
1196.886, 119.2402
1197.970, 249.7305
1199.054, 254.2227
1200.137, 268.9727
1201.221, 383.4648
1202.305, 380.7207
1203.388, 133.2090
1204.471, 282.6973
1205.554, 59.58594
1206.637, 100.8555
1207.719, 98.30078
1208.802, 214.6016
1209.884, 285.0449
1210.966, 300.4883
1212.048, 85.93164
1213.130, 349.3711
1214.212, 217.8164
1215.293, 85.25781
1216.374, 223.6973
1217.456, 251.1387
1218.536, 200.6992
1219.617, 217.1406
1220.698, 80.58203
1221.778, 386.0215
1222.859, 244.8457
1223.939, 196.2168
1225.019, 66.48438
1226.099, 162.9258
1227.178, 121.7480
1228.258, 135.4199
1229.337, 174.2520
1230.417, 148.6953
1231.496, 181.1426
1232.574, 105.5879
1233.653, 164.5508
1234.732, 77.47852
1235.810, 189.3750
1236.888, 275.8223
1237.966, 173.2715
1239.044, 276.7227
1240.122, 215.1719
1241.199, 227.6250
1242.277, 190.0762
1243.354, 146.5273
1244.431, 236.2344
1245.508, 70.68945
1246.585, 224.1445
1247.661, 290.5996
1248.738, 239.0586
1249.814, 141.5566
1250.890, 261.0547
1251.966, 101.5527
1253.042, 67.93164
1254.117, 313.5430
1255.193, 181.0195
1256.268, 129.4922
1257.343, 26.96875
1258.418, 174.4453
1259.493, 243.9199
1260.567, 196.8262
1261.642, 93.30273
1262.716, 271.8066
1263.790, 180.1582
1264.864, 210.6641
1265.938, 128.1699
1267.011, 400.6777
1268.085, 307.1855
1269.158, 175.6934
1270.231, 341.5352
1271.304, 164.0469
1272.377, 137.4355
1273.450, 282.0039
1274.522, 82.44336
1275.594, 104.9062
1276.666, 256.3672
1277.738, 174.1328
1278.810, 138.4336
1279.882, 317.9004
1280.953, 306.3691
1282.025, 123.8379
1283.096, 197.3086
1284.167, 175.7812
1285.238, 151.2520
1286.308, 76.27148
1287.379, 86.83594
1288.449, 113.3867
1289.519, 110.9395
1290.589, 138.2676
1291.659, 132.5977
1292.729, 172.9258
1293.798, 165.2559
1294.868, 84.78320
1295.937, 114.4512
1297.006, 190.7812
1298.075, 47.11523
1299.143, 74.44531
