##NAMES=Beryl
##RRUFFID=R050121
##IDEAL CHEMISTRY=Be_3_Al_2_Si_6_O_18_
##LOCALITY=Cruziero mine, San Jose, Minas Gerais, Brazil
##OWNER=RRUFF
##SOURCE=Carlos and Paulo Vasconcelos
##DESCRIPTION=Light blue fragment, variety aquamarine
##STATUS=The identification of this mineral has been confirmed by X-ray diffraction and chemical analysis
##URL=rruff.info/R050121
##MEASURED CHEMISTRY=(Be_0.96_Li_0.04_)_3_Al_2.00_Si_6.00_O_18_Î‡Na_0.09_Mg_0.03_
##PIN_ID=L00500
##ORIENTATION=Laser parallel to -c* (0 0 -1). Fiducial mark perpendicular to laser is parallel to a [1 0 0]
96.161, 0.000
97.554, 126.289
98.947, 2.938
100.340, 85.496
101.732, 11.010
103.124, 83.178
104.516, 100.544
105.908, 164.211
107.300, 142.510
108.691, 192.930
110.082, 267.661
111.473, 310.759
112.864, 456.864
114.254, 552.176
115.644, 690.481
117.034, 780.630
118.424, 705.502
119.813, 784.002
121.203, 466.053
122.592, 579.591
123.981, 565.565
125.369, 399.107
126.758, 435.627
128.146, 379.167
129.534, 689.860
130.922, 479.678
132.309, 465.622
133.696, 295.696
135.083, 665.902
136.470, 429.238
137.857, 550.704
139.243, 466.291
140.630, 474.990
142.016, 429.793
143.401, 461.696
144.787, 409.695
146.172, 515.789
147.557, 297.974
148.942, 410.246
150.327, 311.607
151.711, 284.058
153.096, 367.596
154.480, 347.093
155.863, 319.656
157.247, 387.344
158.630, 388.779
160.013, 353.200
161.396, 405.546
162.779, 374.007
164.161, 244.578
165.544, 422.259
166.926, 259.041
168.308, 326.921
169.689, 229.895
171.070, 399.967
172.452, 290.137
173.833, 324.400
175.213, 319.752
176.594, 131.188
177.974, 236.704
179.354, 311.271
180.734, 182.825
182.114, 235.387
183.493, 245.967
184.872, 327.571
186.251, 285.206
187.630, 218.874
189.008, 279.580
190.387, 286.322
191.765, 202.106
193.143, 189.929
194.520, 179.794
195.898, 144.930
197.275, 180.647
198.652, 131.637
200.029, 185.669
201.405, 211.742
202.782, 90.876
204.158, 193.095
205.534, 191.378
206.909, 45.703
208.285, 28.069
209.660, 67.466
211.035, 60.106
212.410, 38.646
213.784, 64.117
215.159, 8.491
216.533, 12.771
217.907, 111.975
219.281, 99.141
220.654, 59.264
222.027, 6.333
223.400, 20.328
224.773, 97.734
226.146, 56.823
227.518, 143.021
228.891, 26.238
230.263, 16.479
231.634, 132.736
233.006, 67.007
234.377, 51.290
235.748, 145.603
237.119, 86.925
238.490, 209.263
239.860, 199.615
241.231, 176.010
242.601, 178.538
243.970, 155.195
245.340, 187.931
246.709, 113.694
248.079, 290.475
249.448, 135.254
250.816, 220.031
252.185, 245.807
253.553, 202.578
254.921, 296.348
256.289, 284.754
257.657, 317.879
259.024, 271.637
260.391, 214.392
261.758, 224.570
263.125, 242.059
264.492, 237.758
265.858, 253.720
267.224, 344.854
268.590, 352.318
269.956, 348.527
271.321, 378.033
272.687, 346.633
274.052, 233.319
275.416, 275.321
276.781, 299.362
278.146, 316.806
279.510, 462.756
280.874, 581.759
282.237, 710.811
283.601, 871.604
284.964, 840.057
286.327, 1156.240
287.690, 1247.462
289.053, 1304.722
290.416, 1614.015
291.778, 1211.354
293.140, 1145.736
294.502, 862.159
295.863, 827.604
297.225, 684.066
298.586, 591.551
299.947, 694.053
301.308, 620.573
302.668, 616.147
304.029, 739.829
305.389, 806.399
306.749, 912.236
308.108, 1194.376
309.468, 1166.992
310.827, 1404.662
312.186, 1543.305
313.545, 1958.080
314.903, 2550.748
316.262, 2883.113
317.620, 3585.806
318.978, 4024.477
320.336, 4446.172
321.693, 4626.797
323.051, 4188.381
324.408, 3125.971
325.765, 2462.710
327.121, 1548.597
328.478, 949.223
329.834, 608.086
331.190, 459.802
332.546, 159.711
333.902, 286.372
335.257, 97.649
336.612, 232.180
337.967, 145.016
339.322, 69.954
340.677, 131.816
342.031, 75.726
343.385, 211.540
344.739, 101.253
346.093, 99.183
347.446, 8.634
348.799, 10.599
350.153, 25.308
351.505, 234.394
352.858, 92.953
354.210, 228.684
355.563, 294.084
356.915, 202.819
358.267, 277.554
359.618, 251.604
360.969, 156.181
362.321, 241.810
363.672, 192.549
365.022, 190.289
366.373, 180.219
367.723, 224.959
369.073, 238.696
370.423, 250.606
371.773, 188.468
373.122, 379.458
374.471, 667.928
375.821, 586.947
377.169, 770.697
378.518, 455.246
379.866, 700.623
381.215, 815.091
382.563, 1078.870
383.910, 1289.902
385.258, 1900.199
386.605, 2749.682
387.952, 3408.419
389.299, 4762.590
390.646, 6267.452
391.992, 8210.013
393.339, 10118.373
394.685, 11756.551
396.031, 12545.187
397.376, 11329.812
398.722, 10102.425
400.067, 7995.032
401.412, 6235.628
402.757, 5183.213
404.101, 3932.787
405.446, 2968.352
406.790, 2557.904
408.134, 1999.445
409.478, 1932.973
410.821, 1743.488
412.165, 1619.992
413.508, 1866.480
414.851, 1956.959
416.193, 2098.424
417.536, 2418.873
418.878, 2738.312
420.220, 3006.738
421.562, 2700.148
422.904, 2681.549
424.245, 2376.947
425.586, 1910.340
426.927, 1674.732
428.268, 1525.115
429.609, 1059.496
430.949, 1001.867
432.289, 977.232
433.629, 877.590
434.969, 983.938
436.309, 945.275
437.648, 1357.605
438.987, 1334.926
440.326, 1336.234
441.665, 1534.533
443.003, 1483.852
444.342, 1252.715
445.680, 1038.980
447.018, 919.314
448.355, 699.820
449.693, 534.865
451.030, 466.078
452.367, 376.771
453.704, 329.488
455.041, 311.199
456.377, 310.381
457.713, 248.525
459.049, 300.652
460.385, 242.768
461.721, 233.865
463.056, 71.947
464.391, 52.014
465.726, 264.064
467.061, 93.098
468.395, 13.887
469.730, 132.090
471.064, 32.951
472.398, 338.953
473.731, 64.846
475.065, 116.717
476.398, 31.570
477.731, 248.406
479.064, 184.221
480.397, 92.170
481.729, 138.955
483.062, 127.723
484.394, 155.475
485.725, 73.707
487.057, 56.424
488.389, 173.121
489.720, 62.182
491.051, 94.451
492.382, 45.934
493.712, 159.670
495.043, 66.746
496.373, 36.762
497.703, 81.246
499.032, 25.730
500.362, 80.186
501.691, 71.621
503.020, 8.965
504.349, 35.404
505.678, 73.744
507.007, 17.932
508.335, 6.340
509.663, 5.570
510.991, 119.770
512.319, 44.973
513.646, 207.146
514.973, 94.701
516.300, 162.361
517.627, 231.400
518.954, 36.422
520.280, 149.416
521.607, 46.445
522.933, 170.443
524.259, 153.422
525.584, 94.381
526.910, 212.320
528.235, 253.240
529.560, 101.139
530.885, 113.016
532.209, 5.129
533.534, 80.680
534.858, 106.475
536.182, 25.256
537.506, 20.004
538.829, 53.723
540.152, 37.412
541.476, 45.084
542.799, 188.260
544.121, 57.744
545.444, 113.693
546.766, 158.891
548.088, 73.395
549.410, 65.344
550.732, 54.834
552.053, 62.982
553.375, 6.900
554.696, 161.170
556.017, 249.219
557.337, 326.248
558.658, 460.256
559.978, 522.240
561.298, 713.205
562.618, 579.150
563.938, 503.074
565.257, 663.980
566.576, 370.865
567.895, 805.729
569.214, 765.572
570.533, 708.395
571.851, 688.197
573.170, 1090.982
574.488, 1099.744
575.805, 1246.488
577.123, 1203.213
578.440, 1254.914
579.758, 1431.598
581.075, 1286.262
582.391, 1393.904
583.708, 1264.529
585.024, 991.131
586.341, 960.715
587.657, 982.279
588.972, 833.822
590.288, 632.346
591.603, 454.852
592.918, 364.336
594.233, 276.971
595.548, 443.246
596.863, 231.672
598.177, 241.076
599.491, 278.463
600.805, 145.828
602.119, 29.176
603.432, 163.488
604.746, 132.783
606.059, 88.053
607.372, 53.305
608.685, 193.529
609.997, 26.266
611.309, 32.119
612.621, 17.035
613.933, 143.990
615.245, 218.000
616.557, 310.990
617.868, 319.961
619.179, 374.912
620.490, 316.846
621.801, 635.725
623.111, 453.494
624.421, 745.373
625.731, 378.234
627.041, 569.291
628.351, 303.113
629.660, 182.883
630.970, 421.668
632.279, 203.322
633.588, 218.076
634.896, 231.588
636.205, 424.307
637.513, 97.010
638.821, 230.371
640.129, 446.039
641.437, 175.689
642.744, 49.324
644.051, 262.314
645.358, 423.641
646.665, 517.973
647.972, 377.994
649.278, 295.471
650.584, 322.982
651.890, 635.498
653.196, 519.387
654.502, 481.014
655.807, 223.076
657.113, 423.277
658.418, 647.129
659.722, 612.338
661.027, 578.631
662.331, 681.082
663.636, 927.764
664.940, 684.389
666.244, 1297.488
667.547, 1250.127
668.851, 1590.574
670.154, 1893.047
671.457, 2324.340
672.760, 3110.949
674.062, 3770.260
675.365, 4782.510
676.667, 6733.088
677.969, 9264.740
679.271, 13034.062
680.572, 17533.270
681.874, 24508.451
683.175, 30579.438
684.476, 33191.594
685.777, 31660.754
687.077, 26169.715
688.378, 20759.719
689.678, 15529.564
690.978, 11659.359
692.278, 8324.008
693.577, 7130.363
694.877, 5331.207
696.176, 4900.404
697.475, 3743.119
698.774, 3440.045
700.072, 2880.209
701.371, 2474.543
702.669, 1983.395
703.967, 1730.057
705.265, 1864.846
706.562, 1471.641
707.860, 1249.723
709.157, 1465.990
710.454, 916.422
711.751, 1203.383
713.047, 843.340
714.344, 890.291
715.640, 560.236
716.936, 791.180
718.232, 777.115
719.527, 481.045
720.823, 498.971
722.118, 435.895
723.413, 466.814
724.708, 467.729
726.002, 519.641
727.297, 458.668
728.591, 508.453
729.885, 363.355
731.179, 291.256
732.472, 295.152
733.766, 267.018
735.059, 276.939
736.352, 347.828
737.645, 363.717
738.937, 448.000
740.230, 446.066
741.522, 505.367
742.814, 446.250
744.106, 440.129
745.397, 428.008
746.689, 293.885
747.980, 322.762
749.271, 302.635
750.562, 418.512
751.853, 53.387
753.143, 252.258
754.433, 280.133
755.723, 169.006
757.013, 527.850
758.303, 153.135
759.592, 328.010
760.881, 362.805
762.170, 581.414
763.459, 758.475
764.748, 605.354
766.036, 830.629
767.325, 803.553
768.613, 958.438
769.901, 1083.301
771.188, 508.189
772.476, 915.082
773.763, 592.975
775.050, 667.875
776.337, 444.775
777.624, 489.682
778.910, 418.592
780.196, 424.504
781.482, 418.020
782.768, 297.352
784.054, 299.291
785.339, 353.250
786.625, 81.215
787.910, 300.184
789.195, 11.842
790.479, 54.135
791.764, 220.115
793.048, 19.049
794.332, 108.936
795.616, 90.926
796.900, 122.918
798.183, 14.582
799.467, 14.420
800.750, 84.572
802.033, 44.594
803.316, 287.404
804.598, 224.594
805.880, 254.332
807.163, 168.268
808.445, 187.236
809.726, 105.785
811.008, 42.158
812.289, 18.885
813.570, 160.072
814.851, 268.039
816.132, 0.971
817.413, 17.969
818.693, 83.035
819.973, 34.129
821.253, 69.754
822.533, 99.645
823.813, 48.438
825.092, 64.531
826.371, 167.639
827.650, 0.207
828.929, 93.955
830.208, 18.873
831.486, 238.691
832.764, 7.391
834.042, 22.488
835.320, 32.598
836.598, 187.715
837.875, 68.881
839.152, 139.057
840.429, 333.246
841.706, 123.455
842.983, 36.328
844.259, 257.908
845.536, 28.846
846.812, 230.402
848.088, 29.330
849.363, 325.949
850.639, 354.244
851.914, 122.557
853.189, 89.889
854.464, 267.293
855.739, 489.771
857.013, 150.268
858.288, 129.871
859.562, 375.510
860.836, 390.193
862.110, 83.896
863.383, 349.668
864.656, 200.475
865.930, 298.314
867.203, 178.170
868.475, 191.699
869.748, 223.922
871.020, 226.816
872.292, 213.727
873.564, 285.664
874.836, 278.152
876.108, 313.152
877.379, 312.762
878.650, 349.840
879.922, 359.934
881.192, 330.045
882.463, 311.172
883.733, 162.314
885.004, 134.473
886.274, 206.648
887.544, 358.836
888.813, 57.039
890.083, 350.256
891.352, 463.484
892.621, 329.727
893.890, 462.982
895.159, 204.248
896.427, 200.531
897.695, 548.826
898.964, 437.135
900.232, 369.453
901.499, 596.787
902.767, 667.133
904.034, 503.492
905.301, 616.861
906.568, 890.246
907.835, 819.643
909.102, 754.053
910.368, 498.477
911.634, 931.926
912.900, 715.385
914.166, 945.857
915.432, 776.342
916.697, 509.842
917.962, 863.359
919.227, 564.908
920.492, 682.488
921.757, 457.100
923.021, 587.725
924.285, 886.359
925.550, 501.008
926.813, 628.668
928.077, 412.338
929.341, 572.020
930.604, 651.715
931.867, 523.422
933.130, 499.139
934.393, 608.869
935.655, 248.607
936.918, 697.361
938.180, 481.123
939.442, 311.896
940.703, 575.678
941.965, 357.014
943.226, 138.818
944.488, 346.637
945.749, 187.475
947.009, 322.592
948.270, 283.441
949.530, 210.301
950.791, 427.656
952.051, 277.539
953.311, 64.678
954.570, 361.893
955.830, 334.803
957.089, 417.488
958.348, 238.420
959.607, 390.363
960.866, 292.316
962.124, 166.527
963.383, 256.502
964.641, 45.902
965.899, 160.902
967.156, 268.289
968.414, 137.359
969.671, 364.863
970.928, 211.639
972.185, 222.305
973.442, 181.828
974.699, 143.457
975.955, 305.842
977.211, 206.049
978.468, 466.172
979.723, 642.281
980.979, 391.422
982.234, 798.084
983.490, 151.832
984.745, 434.805
986.000, 684.066
987.254, 480.270
988.509, 700.162
989.763, 670.385
991.017, 649.266
992.271, 875.354
993.525, 1086.148
994.779, 1277.752
996.032, 1568.061
997.285, 1679.652
998.538, 1627.008
999.791, 2511.648
1001.044, 1976.035
1002.296, 2444.922
1003.548, 2094.551
1004.800, 1936.941
1006.052, 1927.543
1007.304, 1673.885
1008.555, 1583.832
1009.807, 1557.242
1011.058, 1358.480
1012.309, 1137.238
1013.559, 1091.016
1014.810, 970.641
1016.060, 1016.172
1017.310, 1110.768
1018.560, 508.791
1019.810, 681.758
1021.060, 898.330
1022.309, 609.469
1023.558, 869.557
1024.807, 634.887
1026.056, 749.395
1027.305, 608.729
1028.553, 959.697
1029.801, 722.367
1031.049, 435.326
1032.297, 535.744
1033.545, 898.312
1034.793, 784.656
1036.040, 658.947
1037.287, 740.945
1038.534, 718.994
1039.781, 1098.945
1041.027, 713.559
1042.274, 1020.170
1043.520, 910.793
1044.766, 708.393
1046.012, 647.576
1047.257, 648.174
1048.503, 926.828
1049.748, 888.412
1050.993, 1190.320
1052.238, 1214.896
1053.483, 967.463
1054.727, 1165.031
1055.971, 1754.947
1057.216, 1727.498
1058.459, 2113.043
1059.703, 2380.582
1060.947, 2989.414
1062.190, 3500.938
1063.433, 4007.449
1064.676, 4608.955
1065.919, 4726.453
1067.162, 5440.285
1068.404, 5177.764
1069.646, 4876.234
1070.888, 5223.689
1072.130, 4375.139
1073.372, 4119.570
1074.613, 4146.994
1075.855, 3334.406
1077.096, 3017.805
1078.337, 3176.189
1079.578, 2647.564
1080.818, 2366.928
1082.059, 2125.271
1083.299, 2112.604
1084.539, 1797.920
1085.779, 1761.223
1087.018, 1554.506
1088.258, 1644.777
1089.497, 1252.029
1090.736, 1315.264
1091.975, 1188.484
1093.213, 880.686
1094.452, 1326.869
1095.690, 490.039
1096.928, 782.189
1098.166, 615.322
1099.404, 732.438
1100.642, 485.535
1101.879, 605.617
1103.116, 283.697
1104.353, 371.766
1105.590, 347.818
1106.827, 466.900
1108.063, 228.961
1109.299, 436.002
1110.536, 321.438
1111.771, 295.453
1113.007, 318.443
1114.243, 384.770
1115.478, 112.717
1116.713, 176.637
1117.948, 363.881
1119.183, 246.555
1120.418, 65.617
1121.652, 197.240
1122.886, 288.764
1124.120, 220.291
1125.354, 1.031
1126.588, 494.619
1127.821, 5.553
1129.055, 371.002
1130.288, 393.781
1131.521, 372.033
1132.753, 50.574
1133.986, 226.516
1135.218, 561.414
1136.450, 123.043
1137.682, 696.203
1138.914, 9.209
1140.146, 51.918
1141.377, 127.211
1142.609, 179.199
1143.840, 507.010
1145.071, 566.338
1146.301, 447.670
1147.532, 469.590
1148.762, 280.514
1149.992, 163.719
1151.222, 228.912
1152.452, 347.252
1153.682, 100.250
1154.911, 75.582
1156.140, 120.000
1157.369, 46.891
1158.598, 108.465
1159.827, 248.811
1161.055, 170.369
1162.284, 81.723
1163.512, 37.396
1164.740, 90.926
1165.967, 213.900
1167.195, 230.570
1168.422, 343.951
1169.650, 207.383
1170.877, 7.605
1172.103, 122.396
1173.330, 76.529
1174.557, 172.713
1175.783, 75.805
1177.009, 127.426
1178.235, 94.566
1179.461, 180.314
1180.686, 145.184
1181.912, 201.652
1183.137, 216.684
1184.362, 288.711
1185.587, 277.465
1186.811, 300.836
1188.036, 403.891
1189.260, 497.559
1190.484, 381.281
1191.708, 603.473
1192.932, 249.699
1194.155, 409.742
1195.378, 378.273
1196.602, 560.777
1197.825, 318.293
1199.047, 630.188
1200.270, 461.602
1201.492, 911.461
1202.715, 318.809
1203.937, 637.117
1205.159, 577.516
1206.380, 653.723
1207.602, 137.895
1208.823, 665.016
1210.044, 446.082
1211.265, 473.145
1212.486, 633.129
1213.707, 337.066
1214.927, 687.965
1216.147, 528.742
1217.367, 690.406
1218.587, 829.031
1219.807, 726.617
1221.027, 717.160
1222.246, 689.652
1223.465, 799.078
1224.684, 1141.270
1225.903, 1214.117
1227.121, 1263.453
1228.340, 1265.125
1229.558, 1218.008
1230.776, 1296.812
1231.994, 1227.566
1233.212, 1698.141
1234.429, 1840.039
1235.646, 1873.469
1236.864, 2338.836
1238.081, 2373.152
1239.297, 2674.414
1240.514, 3037.605
1241.730, 2807.719
1242.947, 2389.305
1244.163, 2069.297
1245.378, 2109.430
1246.594, 1765.270
1247.810, 1258.215
1249.025, 1310.512
1250.240, 1026.129
1251.455, 851.039
1252.670, 1023.520
1253.885, 881.926
1255.099, 686.262
1256.313, 356.527
1257.527, 773.711
1258.741, 642.828
1259.955, 180.883
1261.168, 564.102
1262.382, 540.641
1263.595, 395.805
1264.808, 314.672
1266.021, 356.652
1267.233, 241.699
1268.446, 263.152
1269.658, 36.848
1270.870, 461.176
1272.082, 223.895
1273.294, 382.102
1274.505, 250.617
1275.716, 404.129
1276.928, 42.508
1278.139, 458.734
1279.349, 174.137
1280.560, 354.867
1281.770, 213.410
1282.981, 229.078
1284.191, 376.199
1285.401, 233.688
1286.610, 205.398
1287.820, 254.035
1289.029, 63.578
1290.239, 410.695
1291.448, 38.613
1292.656, 268.316
1293.865, 250.824
1295.073, 393.391
1296.282, 392.203
1297.490, 327.930
1298.698, 276.738
1299.906, 201.965
1301.113, 135.434
1302.320, 142.465
1303.528, 109.457
1304.735, 128.711
1305.942, 40.691
1307.148, 257.746
1308.355, 68.809
1309.561, 435.117
1310.767, 112.262
1311.973, 176.324
1313.179, 50.375
1314.384, 379.484
1315.590, 119.957
1316.795, 418.766
1318.000, 64.051
1319.205, 381.730
1320.410, 287.637
1321.614, 104.832
1322.819, 295.176
1324.023, 233.574
1325.227, 693.918
1326.431, 123.203
1327.634, 178.434
1328.838, 230.602
1330.041, 441.719
1331.244, 518.785
1332.447, 500.309
1333.650, 501.043
1334.852, 425.711
1336.055, 306.605
1337.257, 292.457
1338.459, 166.266
1339.661, 543.035
1340.862, 499.754
1342.064, 438.426
1343.265, 341.070
1344.466, 486.992
1345.667, 171.281
1346.868, 619.824
1348.068, 526.531
1349.269, 420.773
1350.469, 788.984
1351.669, 615.547
1352.869, 697.727
1354.069, 941.645
1355.268, 225.180
1356.468, 902.465
1357.667, 787.477
1358.866, 577.957
1360.065, 841.945
1361.263, 515.406
1362.462, 441.418
1363.660, 959.129
1364.858, 635.559
1366.056, 569.289
1367.254, 875.746
1368.451, 605.805
1369.649, 214.102
1370.846, 670.230
1372.043, 379.543
1373.240, 553.184
1374.436, 739.348
1375.633, 481.281
1376.829, 426.957
1378.025, 242.520
1379.221, 699.070
1380.417, 499.594
1381.613, 564.297
1382.808, 440.430
1384.003, 610.652
1385.199, 723.449
1386.393, 192.297
1387.588, 750.324
1388.783, 257.273
1389.977, 468.320
1391.171, 102.570
1392.365, 165.441
1393.559, 479.859
1394.753, 81.727
1395.946, 583.992
1397.140, 383.031
1398.333, 561.527
1399.526, 466.531
1400.719, 278.664
1401.911, 429.668
1403.104, 354.562
1404.296, 214.402
1405.488, 482.484
1406.680, 106.672
1407.872, 252.246
1409.063, 609.570
1410.255, 264.934
1411.446, 562.391
1412.637, 193.727
1413.828, 424.566
1415.018, 151.512
1416.209, 445.746
1417.399, 173.207
1418.589, 568.852
1419.779, 276.973
1420.969, 360.449
1422.159, 78.336
1423.348, 247.973
1424.537, 311.383
1425.726, 248.465
1426.915, 165.754
1428.104, 1.219
1429.293, 0.000
##END=



