##NAMES=Beryl
##RRUFFID=R050121
##IDEAL CHEMISTRY=Be_3_Al_2_Si_6_O_18_
##LOCALITY=Cruziero mine, San Jose, Minas Gerais, Brazil
##OWNER=RRUFF
##SOURCE=Carlos and Paulo Vasconcelos
##DESCRIPTION=Light blue fragment, variety aquamarine
##STATUS=The identification of this mineral has been confirmed by X-ray diffraction and chemical analysis
##URL=rruff.info/R050121
##MEASURED CHEMISTRY=(Be_0.96_Li_0.04_)_3_Al_2.00_Si_6.00_O_18_Î‡Na_0.09_Mg_0.03_
##PIN_ID=L00500
##ORIENTATION=Laser parallel to -c* (0 0 -1). Fiducial mark perpendicular to laser is parallel to a [1 0 0]
101.732, 0.000
103.124, 0.566
104.516, 59.168
105.908, 3.291
107.300, 1.808
108.691, 111.802
110.082, 77.486
111.473, 57.852
112.864, 306.522
114.254, 362.206
115.644, 500.718
117.034, 621.126
118.424, 551.379
119.813, 541.241
121.203, 467.552
122.592, 441.200
123.981, 353.108
125.369, 290.224
126.758, 415.506
128.146, 252.005
129.534, 560.018
130.922, 225.051
132.309, 426.229
133.696, 201.241
135.083, 443.058
136.470, 284.724
137.857, 465.245
139.243, 301.646
140.630, 372.947
142.016, 345.168
143.401, 325.321
144.787, 321.418
146.172, 282.465
147.557, 283.470
148.942, 237.441
150.327, 336.385
151.711, 210.304
153.096, 368.207
154.480, 254.771
155.863, 342.585
157.247, 224.337
158.630, 323.054
160.013, 292.182
161.396, 230.369
162.779, 316.797
164.161, 425.482
165.544, 278.428
166.926, 200.232
168.308, 307.101
169.689, 169.438
171.070, 298.415
172.452, 268.445
173.833, 187.533
175.213, 224.682
176.594, 124.889
177.974, 251.151
179.354, 303.467
180.734, 82.828
182.114, 129.235
183.493, 223.684
184.872, 298.163
186.251, 235.653
187.630, 160.161
189.008, 181.689
190.387, 196.243
191.765, 213.822
193.143, 192.107
194.520, 188.062
195.898, 141.719
197.275, 130.403
198.652, 116.515
200.029, 145.855
201.405, 173.631
202.782, 145.435
204.158, 204.260
205.534, 151.111
206.909, 23.011
208.285, 127.895
209.660, 91.829
211.035, 74.218
212.410, 22.243
213.784, 73.251
215.159, 0.242
216.533, 58.782
217.907, 56.175
219.281, 69.114
220.654, 95.032
222.027, 28.932
223.400, 25.229
224.773, 27.427
226.146, 44.652
227.518, 86.899
228.891, 2.833
230.263, 121.556
231.634, 69.967
233.006, 106.400
234.377, 49.857
235.748, 100.340
237.119, 7.176
238.490, 168.313
239.860, 132.783
241.231, 213.318
242.601, 205.901
243.970, 129.482
245.340, 203.214
246.709, 129.067
248.079, 197.926
249.448, 156.782
250.816, 247.648
252.185, 239.498
253.553, 252.144
254.921, 298.153
256.289, 241.959
257.657, 274.749
259.024, 206.523
260.391, 305.282
261.758, 155.025
263.125, 232.753
264.492, 377.464
265.858, 318.159
267.224, 334.188
268.590, 283.109
269.956, 271.563
271.321, 463.509
272.687, 311.813
274.052, 325.190
275.416, 495.617
276.781, 368.087
278.146, 363.591
279.510, 559.124
280.874, 533.684
282.237, 732.264
283.601, 874.560
284.964, 1010.538
286.327, 1176.119
287.690, 1360.761
289.053, 1418.424
290.416, 1554.099
291.778, 1211.815
293.140, 1129.540
294.502, 919.275
295.863, 839.197
297.225, 696.994
298.586, 628.962
299.947, 623.838
301.308, 583.151
302.668, 682.861
304.029, 772.695
305.389, 856.398
306.749, 1000.578
308.108, 1169.397
309.468, 1269.104
310.827, 1524.187
312.186, 1812.345
313.545, 2148.014
314.903, 2583.240
316.262, 3015.236
317.620, 3572.039
318.978, 4121.807
320.336, 4426.547
321.693, 4238.851
323.051, 4249.291
324.408, 3254.289
325.765, 2531.934
327.121, 1502.374
328.478, 1047.992
329.834, 752.454
331.190, 662.901
332.546, 161.787
333.902, 381.209
335.257, 180.820
336.612, 227.799
337.967, 165.682
339.322, 73.598
340.677, 191.269
342.031, 32.312
343.385, 211.551
344.739, 101.134
346.093, 121.355
347.446, 77.311
348.799, 100.673
350.153, 118.662
351.505, 213.042
352.858, 166.576
354.210, 224.422
355.563, 237.388
356.915, 237.028
358.267, 267.838
359.618, 156.475
360.969, 227.055
362.321, 129.084
363.672, 223.085
365.022, 375.428
366.373, 222.477
367.723, 370.574
369.073, 234.450
370.423, 401.287
371.773, 273.535
373.122, 337.377
374.471, 567.379
375.821, 411.043
377.169, 523.811
378.518, 490.323
379.866, 728.102
381.215, 1002.966
382.563, 1145.439
383.910, 1415.979
385.258, 1955.965
386.605, 2813.754
387.952, 3758.100
389.299, 4906.043
390.646, 6435.580
391.992, 8255.682
393.339, 10267.375
394.685, 11657.273
396.031, 12589.871
397.376, 11611.996
398.722, 10200.105
400.067, 8144.033
401.412, 6287.115
402.757, 5288.184
404.101, 3957.236
405.446, 3138.275
406.790, 2466.299
408.134, 2192.307
409.478, 2112.299
410.821, 1925.273
412.165, 1917.961
413.508, 1892.172
414.851, 2069.098
416.193, 2121.006
417.536, 2406.896
418.878, 2759.771
420.220, 3035.629
421.562, 2749.469
422.904, 2778.293
424.245, 2471.100
425.586, 1987.889
426.927, 1747.660
428.268, 1278.418
429.609, 979.156
430.949, 1008.885
432.289, 1058.596
433.629, 880.295
434.969, 1138.977
436.309, 1053.641
437.648, 1359.291
438.987, 1426.922
440.326, 1495.588
441.665, 1513.186
443.003, 1522.764
444.342, 1310.551
445.680, 1205.100
447.018, 841.625
448.355, 539.299
449.693, 597.172
451.030, 479.457
452.367, 457.094
453.704, 201.799
455.041, 435.693
456.377, 135.256
457.713, 164.934
459.049, 68.285
460.385, 58.611
461.721, 251.914
463.056, 224.197
464.391, 154.459
465.726, 325.699
467.061, 189.918
468.395, 53.117
469.730, 185.289
471.064, 95.441
472.398, 273.568
473.731, 39.676
475.065, 138.328
476.398, 117.508
477.731, 163.988
479.064, 169.381
480.397, 176.406
481.729, 157.375
483.062, 95.320
484.394, 84.238
485.725, 146.133
487.057, 193.107
488.389, 151.963
489.720, 29.793
491.051, 194.635
492.382, 90.455
493.712, 207.301
495.043, 25.125
496.373, 69.918
497.703, 93.686
499.032, 86.426
500.362, 145.141
501.691, 63.834
503.020, 56.508
504.349, 167.088
505.678, 8.660
507.007, 78.260
508.335, 38.832
509.663, 35.410
510.991, 83.961
512.319, 31.484
513.646, 103.994
514.973, 130.498
516.300, 151.896
517.627, 111.268
518.954, 13.391
520.280, 164.900
521.607, 66.172
522.933, 69.418
524.259, 8.357
525.584, 62.816
526.910, 57.262
528.235, 89.076
529.560, 130.166
530.885, 46.230
532.209, 93.266
533.534, 151.275
534.858, 25.727
536.182, 22.783
537.506, 106.881
538.829, 100.916
540.152, 7.314
541.476, 26.416
542.799, 103.879
544.121, 130.252
545.444, 94.986
546.766, 101.318
548.088, 48.998
549.410, 29.283
550.732, 233.531
552.053, 96.756
553.375, 16.955
554.696, 25.117
556.017, 275.240
557.337, 268.340
558.658, 450.416
559.978, 475.469
561.298, 559.729
562.618, 594.504
563.938, 686.484
565.257, 666.441
566.576, 664.324
567.895, 698.287
569.214, 766.178
570.533, 642.041
571.851, 765.887
573.170, 1094.709
574.488, 1043.508
575.805, 1139.281
577.123, 1097.031
578.440, 1252.760
579.758, 1459.465
581.075, 1196.146
582.391, 1356.803
583.708, 1230.438
585.024, 1000.051
586.341, 820.637
587.657, 876.201
588.972, 785.742
590.288, 595.262
591.603, 342.758
592.918, 296.230
594.233, 399.678
595.548, 243.102
596.863, 247.506
598.177, 206.887
599.491, 223.244
600.805, 227.578
602.119, 27.891
603.432, 329.258
604.746, 224.512
606.059, 177.744
607.372, 0.951
608.685, 44.373
609.997, 91.752
611.309, 150.287
612.621, 18.305
613.933, 173.283
615.245, 141.053
616.557, 257.914
617.868, 392.346
619.179, 404.705
620.490, 354.570
621.801, 745.412
623.111, 504.104
624.421, 939.900
625.731, 307.680
627.041, 555.834
628.351, 272.688
629.660, 217.010
630.970, 632.699
632.279, 69.904
633.588, 177.328
634.896, 98.639
636.205, 437.115
637.513, 104.590
638.821, 203.070
640.129, 363.443
641.437, 421.535
642.744, 436.137
644.051, 177.273
645.358, 326.771
646.665, 490.006
647.972, 312.197
649.278, 487.564
650.584, 310.000
651.890, 562.346
653.196, 405.484
654.502, 435.234
655.807, 368.107
657.113, 537.881
658.418, 771.725
659.722, 692.322
661.027, 695.707
662.331, 722.756
663.636, 994.939
664.940, 698.537
666.244, 1257.506
667.547, 1150.701
668.851, 1749.307
670.154, 1724.045
671.457, 2107.166
672.760, 3099.617
674.062, 3815.465
675.365, 4941.025
676.667, 6779.736
677.969, 9289.041
679.271, 12849.309
680.572, 17553.088
681.874, 24283.990
683.175, 30119.164
684.476, 32848.562
685.777, 31369.863
687.077, 25926.311
688.378, 20699.191
689.678, 15574.082
690.978, 11629.562
692.278, 8429.150
693.577, 7212.902
694.877, 5366.350
696.176, 4640.543
697.475, 3735.189
698.774, 3440.436
700.072, 2758.977
701.371, 2538.842
702.669, 1943.902
703.967, 2014.613
705.265, 2029.297
706.562, 1548.533
707.860, 1299.105
709.157, 1511.510
710.454, 865.312
711.751, 1233.385
713.047, 807.906
714.344, 909.418
715.640, 598.916
716.936, 621.402
718.232, 978.877
719.527, 593.342
720.823, 668.797
722.118, 712.236
723.413, 360.895
724.708, 397.316
726.002, 471.729
727.297, 278.922
728.591, 496.314
729.885, 570.697
731.179, 423.072
732.472, 230.436
733.766, 299.789
735.059, 511.135
736.352, 539.471
737.645, 501.799
738.937, 529.117
740.230, 479.018
741.522, 545.729
742.814, 411.023
744.106, 495.309
745.397, 539.586
746.689, 264.855
747.980, 444.117
749.271, 272.371
750.562, 425.617
751.853, 291.859
753.143, 337.090
754.433, 337.266
755.723, 121.484
757.013, 524.695
758.303, 86.674
759.592, 285.873
760.881, 306.062
762.170, 512.086
763.459, 700.881
764.748, 641.240
766.036, 877.221
767.325, 784.109
768.613, 926.787
769.901, 800.768
771.188, 614.607
772.476, 903.752
773.763, 452.893
775.050, 649.031
776.337, 547.168
777.624, 486.299
778.910, 200.426
780.196, 387.549
781.482, 127.668
782.768, 50.787
784.054, 139.902
785.339, 120.014
786.625, 7.125
787.910, 270.656
789.195, 90.641
790.479, 182.295
791.764, 129.398
793.048, 278.078
794.332, 196.170
795.616, 250.266
796.900, 165.359
798.183, 0.455
799.467, 55.439
800.750, 78.525
802.033, 165.393
803.316, 544.609
804.598, 193.389
805.880, 269.514
807.163, 215.414
808.445, 84.318
809.726, 53.225
811.008, 171.131
812.289, 11.955
813.570, 139.951
814.851, 64.867
816.132, 52.809
817.413, 266.248
818.693, 230.568
819.973, 138.826
821.253, 20.008
822.533, 44.803
823.813, 74.387
825.092, 104.605
826.371, 195.316
827.650, 30.100
828.929, 240.908
830.208, 87.717
831.486, 32.457
832.764, 69.357
834.042, 31.818
835.320, 163.998
836.598, 215.826
837.875, 1.326
839.152, 194.523
840.429, 246.377
841.706, 119.234
842.983, 12.898
844.259, 302.969
845.536, 58.842
846.812, 107.734
848.088, 46.650
849.363, 262.607
850.639, 178.574
851.914, 243.561
853.189, 145.561
854.464, 238.604
855.739, 168.525
857.013, 18.887
858.288, 166.100
859.562, 232.334
860.836, 450.582
862.110, 8.162
863.383, 336.100
864.656, 176.375
865.930, 243.666
867.203, 199.959
868.475, 364.262
869.748, 271.260
871.020, 292.889
872.292, 144.213
873.564, 180.551
874.836, 106.977
876.108, 3.578
877.379, 286.873
878.650, 255.334
879.922, 23.178
881.192, 304.311
882.463, 193.809
883.733, 201.318
885.004, 342.838
886.274, 285.367
887.544, 434.906
888.813, 221.453
890.083, 398.012
891.352, 324.574
892.621, 356.146
893.890, 391.723
895.159, 296.305
896.427, 301.898
897.695, 412.447
898.964, 482.102
900.232, 675.711
901.499, 609.326
902.767, 729.945
904.034, 540.572
905.301, 502.203
906.568, 528.100
907.835, 830.482
909.102, 579.133
910.368, 800.785
911.634, 929.359
912.900, 916.029
914.166, 1083.705
915.432, 646.387
916.697, 561.086
917.962, 897.795
919.227, 554.545
920.492, 614.303
921.757, 582.068
923.021, 538.846
924.285, 554.396
925.550, 519.412
926.813, 529.203
928.077, 551.998
929.341, 544.801
930.604, 656.605
931.867, 405.416
933.130, 526.230
934.393, 730.051
935.655, 370.742
936.918, 771.570
938.180, 353.404
939.442, 274.932
940.703, 500.777
941.965, 466.625
943.226, 256.480
944.488, 82.340
945.749, 157.992
947.009, 278.072
948.270, 256.945
949.530, 337.820
950.791, 315.238
952.051, 209.051
953.311, 162.936
954.570, 445.004
955.830, 492.896
957.089, 395.266
958.348, 133.166
959.607, 314.068
960.866, 143.979
962.124, 143.844
963.383, 358.455
964.641, 216.791
965.899, 447.611
967.156, 365.432
968.414, 197.641
969.671, 242.139
970.928, 29.762
972.185, 324.391
973.442, 98.236
974.699, 247.156
975.955, 357.379
977.211, 8.520
978.468, 464.570
979.723, 240.146
980.979, 395.207
982.234, 714.766
983.490, 120.273
984.745, 522.326
986.000, 749.818
987.254, 390.898
988.509, 955.510
989.763, 674.309
991.017, 795.996
992.271, 1003.096
993.525, 1034.549
994.779, 1361.342
996.032, 1609.725
997.285, 1924.889
998.538, 1850.395
999.791, 2319.590
1001.044, 1972.422
1002.296, 2447.545
1003.548, 2105.564
1004.800, 1725.826
1006.052, 2032.043
1007.304, 1526.320
1008.555, 1624.564
1009.807, 1338.020
1011.058, 1280.125
1012.309, 1279.176
1013.559, 893.812
1014.810, 771.887
1016.060, 705.137
1017.310, 1069.670
1018.560, 648.262
1019.810, 709.271
1021.060, 815.668
1022.309, 297.105
1023.558, 801.191
1024.807, 483.307
1026.056, 870.523
1027.305, 625.920
1028.553, 858.057
1029.801, 714.006
1031.049, 387.094
1032.297, 669.734
1033.545, 784.688
1034.793, 724.721
1036.040, 632.232
1037.287, 634.951
1038.534, 882.512
1039.781, 980.334
1041.027, 955.324
1042.274, 1005.154
1043.520, 853.652
1044.766, 858.029
1046.012, 736.209
1047.257, 560.822
1048.503, 1040.182
1049.748, 444.529
1050.993, 1258.871
1052.238, 1197.203
1053.483, 1139.527
1054.727, 1427.844
1055.971, 1798.148
1057.216, 1799.443
1058.459, 2141.723
1059.703, 2438.994
1060.947, 3034.250
1062.190, 3441.496
1063.433, 3992.730
1064.676, 4597.955
1065.919, 4760.471
1067.162, 5650.752
1068.404, 5209.934
1069.646, 5377.100
1070.888, 5419.250
1072.130, 4694.379
1073.372, 4279.496
1074.613, 3870.592
1075.855, 3187.670
1077.096, 2958.729
1078.337, 2612.018
1079.578, 2420.787
1080.818, 2273.787
1082.059, 2033.766
1083.299, 2113.723
1084.539, 1705.658
1085.779, 1879.570
1087.018, 1595.463
1088.258, 1409.330
1089.497, 1322.178
1090.736, 1306.000
1091.975, 957.799
1093.213, 1015.572
1094.452, 1020.322
1095.690, 636.043
1096.928, 947.742
1098.166, 581.414
1099.404, 768.059
1100.642, 513.678
1101.879, 666.271
1103.116, 524.832
1104.353, 633.416
1105.590, 249.967
1106.827, 404.539
1108.063, 230.084
1109.299, 416.594
1110.536, 263.414
1111.771, 26.129
1113.007, 161.273
1114.243, 13.668
1115.478, 17.492
1116.713, 159.117
1117.948, 141.672
1119.183, 226.035
1120.418, 334.535
1121.652, 454.035
1122.886, 891.949
1124.120, 674.477
1125.354, 115.258
1126.588, 246.656
1127.821, 65.344
1129.055, 267.836
1130.288, 146.750
1131.521, 278.711
1132.753, 36.602
1133.986, 53.059
1135.218, 538.973
1136.450, 27.098
1137.682, 487.238
1138.914, 139.453
1140.146, 293.762
1141.377, 201.566
1142.609, 6.570
1143.840, 246.250
1145.071, 443.285
1146.301, 224.082
1147.532, 455.145
1148.762, 157.656
1149.992, 95.488
1151.222, 143.785
1152.452, 376.363
1153.682, 79.109
1154.911, 372.035
1156.140, 1.969
1157.369, 8.672
1158.598, 191.484
1159.827, 219.609
1161.055, 230.000
1162.284, 218.566
1163.512, 244.078
1164.740, 288.121
1165.967, 342.230
1167.195, 245.469
1168.422, 156.676
1169.650, 148.551
1170.877, 60.023
1172.103, 260.605
1173.330, 11.535
1174.557, 124.172
1175.783, 231.434
1177.009, 30.023
1178.235, 303.578
1179.461, 132.383
1180.686, 95.844
1181.912, 267.273
1183.137, 152.668
1184.362, 126.672
1185.587, 145.996
1186.811, 317.289
1188.036, 258.082
1189.260, 496.660
1190.484, 312.863
1191.708, 513.004
1192.932, 234.375
1194.155, 370.297
1195.378, 536.359
1196.602, 512.469
1197.825, 434.543
1199.047, 615.340
1200.270, 527.695
1201.492, 571.086
1202.715, 605.129
1203.937, 639.266
1205.159, 628.855
1206.380, 651.234
1207.602, 645.277
1208.823, 617.352
1210.044, 595.641
1211.265, 486.281
1212.486, 381.422
1213.707, 434.367
1214.927, 799.246
1216.147, 551.000
1217.367, 898.453
1218.587, 702.758
1219.807, 690.977
1221.027, 732.117
1222.246, 612.152
1223.465, 810.129
1224.684, 1137.977
1225.903, 794.754
1227.121, 941.391
1228.340, 1243.949
1229.558, 1133.445
1230.776, 1138.859
1231.994, 1257.172
1233.212, 1632.406
1234.429, 1882.535
1235.646, 1891.551
1236.864, 2281.480
1238.081, 2297.297
1239.297, 2709.008
1240.514, 2943.625
1241.730, 2660.145
1242.947, 2500.559
1244.163, 2215.840
1245.378, 2079.027
1246.594, 1855.113
1247.810, 1609.562
1249.025, 1572.348
1250.240, 1215.168
1251.455, 1017.062
1252.670, 1015.699
1253.885, 823.660
1255.099, 711.121
1256.313, 388.562
1257.527, 715.840
1258.741, 474.637
1259.955, 224.477
1261.168, 351.609
1262.382, 183.652
1263.595, 397.590
1264.808, 227.945
1266.021, 192.453
1267.233, 81.570
1268.446, 264.043
1269.658, 132.508
1270.870, 282.707
1272.082, 325.938
1273.294, 106.398
1274.505, 86.016
1275.716, 473.797
1276.928, 102.031
1278.139, 526.273
1279.349, 313.785
1280.560, 443.227
1281.770, 208.473
1282.981, 159.078
1284.191, 363.480
1285.401, 338.477
1286.610, 222.141
1287.820, 188.898
1289.029, 104.609
1290.239, 369.770
1291.448, 107.129
1292.656, 20.754
1293.865, 243.492
1295.073, 56.707
1296.282, 108.000
1297.490, 189.363
1298.698, 91.840
1299.906, 116.621
1301.113, 9.312
1302.320, 175.691
1303.528, 45.180
1304.735, 44.660
1305.942, 213.043
1307.148, 129.887
1308.355, 160.234
1309.561, 440.043
1310.767, 88.004
1311.973, 117.895
1313.179, 98.719
1314.384, 455.477
1315.590, 513.160
1316.795, 408.223
1318.000, 1.770
1319.205, 475.258
1320.410, 307.703
1321.614, 4.898
1322.819, 445.457
1324.023, 390.773
1325.227, 576.051
1326.431, 535.301
1327.634, 579.098
1328.838, 313.711
1330.041, 504.883
1331.244, 472.039
1332.447, 176.188
1333.650, 386.328
1334.852, 527.457
1336.055, 245.598
1337.257, 416.738
1338.459, 155.285
1339.661, 689.625
1340.862, 452.484
1342.064, 454.266
1343.265, 266.988
1344.466, 316.684
1345.667, 329.191
1346.868, 567.719
1348.068, 544.375
1349.269, 598.824
1350.469, 807.926
1351.669, 572.098
1352.869, 621.793
1354.069, 798.195
1355.268, 164.836
1356.468, 953.559
1357.667, 851.789
1358.866, 566.203
1360.065, 912.949
1361.263, 654.039
1362.462, 641.266
1363.660, 1001.375
1364.858, 553.922
1366.056, 735.895
1367.254, 804.098
1368.451, 756.637
1369.649, 413.820
1370.846, 518.156
1372.043, 497.871
1373.240, 413.996
1374.436, 561.441
1375.633, 467.168
1376.829, 251.012
1378.025, 303.984
1379.221, 246.625
1380.417, 340.453
1381.613, 302.934
1382.808, 366.426
1384.003, 411.219
1385.199, 481.027
1386.393, 416.988
1387.588, 420.492
1388.783, 236.289
1389.977, 316.723
1391.171, 192.660
1392.365, 72.496
1393.559, 394.172
1394.753, 99.066
1395.946, 411.848
1397.140, 37.328
1398.333, 464.691
1399.526, 100.359
1400.719, 218.422
1401.911, 36.715
1403.104, 255.688
1404.296, 303.480
1405.488, 354.926
1406.680, 17.992
1407.872, 144.594
1409.063, 335.656
1410.255, 12.316
1411.446, 425.469
1412.637, 69.184
1413.828, 250.957
1415.018, 357.430
1416.209, 225.484
1417.399, 0.000
##END=



