##NAMES=Beryl
##RRUFFID=R060942
##IDEAL CHEMISTRY=Be_3_Al_2_Si_6_O_18_
##LOCALITY=Mingore mine, Swat Valley, Pakistan
##OWNER=RRUFF
##SOURCE=Lawrence W. Snee
##DESCRIPTION=Green hexagonal prisms, variety emerald
##STATUS=The identification of this mineral has been confirmed by X-ray diffraction and chemical analysis
##URL=rruff.info/R060942
##MEASURED CHEMISTRY=(Be_2.94_Li_0.06_)_Σ=3_(Al_1.55_Mg_0.37_Fe^3+^_0.06_Cr^3+^_0.02_)_Σ=2_Si_6.00_O_18_·Na_0.42_; Be and Li not measured but estimated by stoichiometry
##PIN_ID=L01519
##ORIENTATION=Laser parallel to a* (1 0 0). Fiducial mark perpendicular to laser is parallel to -c [0 0 -1]
119.3650, 0.0000000E+00
120.5960, 58.09766
121.8270, 70.68359
123.0580, 339.4199
124.2880, 272.2598
125.5190, 213.7998
126.7490, 317.1816
127.9790, 190.8535
129.2090, 452.2451
130.4390, 422.8291
131.6680, 209.4844
132.8980, 408.9453
134.1270, 272.1475
135.3560, 373.6943
136.5850, 327.0010
137.8140, 615.8262
139.0430, 504.8604
140.2710, 526.4531
141.5000, 353.5361
142.7280, 254.8467
143.9560, 130.9980
145.1840, 37.60645
146.4120, 47.00879
147.6390, 187.8232
148.8670, 126.8604
150.0940, 23.83496
151.3210, 224.7559
152.5490, 181.5918
153.7750, 19.63770
155.0020, 133.8633
156.2290, 48.24414
157.4550, 8.235352
158.6810, 41.41602
159.9080, 51.80957
161.1340, 75.92578
162.3590, 119.0566
163.5850, 128.1250
164.8110, 130.2666
166.0360, 240.4727
167.2610, 222.7314
168.4860, 253.0371
169.7110, 264.3877
170.9360, 339.7773
172.1610, 478.2070
173.3850, 323.6729
174.6100, 466.1729
175.8340, 438.7129
177.0580, 600.7471
178.2820, 590.3857
179.5050, 520.1416
180.7290, 486.4854
181.9520, 663.0137
183.1760, 661.4551
184.3990, 658.8145
185.6220, 698.0977
186.8450, 682.3086
188.0670, 693.4502
189.2900, 656.5283
190.5120, 639.5459
191.7340, 665.5088
192.9560, 749.4492
194.1780, 758.4238
195.4000, 730.4326
196.6220, 851.4678
197.8430, 828.5215
199.0640, 751.5859
200.2860, 842.6494
201.5070, 951.7031
202.7270, 939.7451
203.9480, 645.7666
205.1690, 567.7646
206.3890, 319.6650
207.6090, 237.5400
208.8290, 265.3525
210.0490, 401.1465
211.2690, 188.9180
212.4890, 231.6455
213.7080, 411.2627
214.9280, 444.8359
216.1470, 291.4053
217.3660, 420.9775
218.5850, 414.5527
219.8030, 556.1357
221.0220, 355.7217
222.2400, 467.3125
223.4590, 436.9053
224.6770, 632.4990
225.8950, 637.0908
227.1120, 761.6816
228.3300, 709.2705
229.5480, 713.8594
230.7650, 980.4453
231.9820, 859.7441
233.1990, 1047.467
234.4160, 1123.137
235.6330, 1274.961
236.8490, 1379.612
238.0660, 1553.563
239.2820, 1635.348
240.4980, 1924.172
241.7140, 2091.380
242.9300, 2173.014
244.1460, 2313.611
245.3610, 2258.218
246.5770, 2089.833
247.7920, 1895.457
249.0070, 1425.088
250.2220, 1167.726
251.4370, 875.3662
252.6510, 663.0098
253.8660, 492.6543
255.0800, 387.2959
256.2940, 280.9375
257.5080, 479.5771
258.7220, 397.7764
259.9360, 383.4346
261.1490, 447.4951
262.3630, 378.2305
263.5760, 356.1504
264.7890, 530.2861
266.0020, 632.6094
267.2150, 461.0410
268.4270, 460.4707
269.6400, 375.8428
270.8520, 352.1270
272.0640, 425.3184
273.2760, 429.3818
274.4880, 339.3213
275.7000, 300.1562
276.9120, 318.8701
278.1230, 401.4775
279.3340, 370.7461
280.5450, 430.9707
281.7560, 392.0283
282.9670, 393.0361
284.1780, 447.1631
285.3880, 405.9004
286.5980, 516.4824
287.8090, 481.0781
289.0190, 453.6904
290.2290, 647.0244
291.4380, 529.6777
292.6480, 368.3535
293.8570, 481.0312
295.0670, 502.4844
296.2760, 582.6143
297.4850, 550.3301
298.6930, 606.3066
299.9020, 574.7051
301.1110, 622.3125
302.3190, 754.4463
303.5270, 677.2256
304.7350, 761.3613
305.9430, 1006.586
307.1510, 1045.382
308.3580, 1151.030
309.5660, 1342.730
310.7730, 1667.452
311.9800, 2020.297
313.1870, 2577.131
314.3940, 3061.003
315.6010, 4111.992
316.8070, 4996.064
318.0130, 5694.285
319.2200, 6793.305
320.4260, 7816.186
321.6310, 8826.241
322.8370, 9222.229
324.0430, 9335.223
325.2480, 8833.126
326.4540, 7796.064
327.6590, 6820.857
328.8640, 5355.645
330.0680, 4264.426
331.2730, 3043.200
332.4780, 2143.968
333.6820, 1369.730
334.8860, 980.4883
336.0900, 668.2402
337.2940, 413.9873
338.4980, 260.7305
339.7010, 277.4678
340.9050, 212.2002
342.1080, 72.92871
343.3110, 73.64941
344.5140, 59.63477
345.7170, 97.94824
346.9200, 37.29688
348.1220, 60.66699
349.3240, 69.06348
350.5270, 135.4902
351.7290, 91.96094
352.9310, 103.5332
354.1320, 49.28320
355.3340, 46.76660
356.5350, 40.98242
357.7370, 27.54590
358.9380, 170.0908
360.1390, 75.68945
361.3400, 132.3164
362.5400, 43.98828
363.7410, 46.67969
364.9410, 47.60547
366.1410, 155.8877
367.3410, 175.1660
368.5410, 182.4414
369.7410, 152.7119
370.9400, 214.9795
372.1400, 221.2441
373.3390, 512.5049
374.5380, 481.7617
375.7370, 738.0156
376.9360, 767.2637
378.1350, 1053.440
379.3330, 1243.567
380.5310, 1384.610
381.7300, 1711.614
382.9280, 1849.612
384.1260, 2322.592
385.3230, 2699.480
386.5210, 3303.299
387.7180, 4191.096
388.9160, 5006.895
390.1130, 6270.693
391.3100, 7651.492
392.5060, 9059.293
393.7030, 10452.09
394.9000, 11714.90
396.0960, 12769.70
397.2920, 13317.50
398.4880, 13113.31
399.6840, 12230.30
400.8800, 11047.32
402.0750, 9866.799
403.2710, 8127.121
404.4660, 6743.667
405.6610, 5291.711
406.8560, 4455.029
408.0510, 3559.188
409.2450, 2881.959
410.4400, 2442.232
411.6340, 2105.908
412.8280, 1826.748
414.0220, 1643.498
415.2160, 1372.235
416.4100, 1327.029
417.6030, 1173.591
418.7970, 1248.371
419.9900, 1045.062
421.1830, 943.7432
422.3760, 963.4141
423.5690, 917.0771
424.7610, 894.7324
425.9540, 869.3809
427.1460, 1049.022
428.3380, 1206.656
429.5300, 1111.285
430.7220, 1260.910
431.9140, 1344.529
433.1050, 1361.144
434.2970, 1455.755
435.4880, 1424.382
436.6790, 1350.009
437.8700, 1138.631
439.0610, 1143.248
440.2510, 994.8750
441.4420, 986.4980
442.6320, 846.1162
443.8220, 657.7334
445.0120, 470.3447
446.2020, 628.9551
447.3910, 361.5693
448.5810, 257.1807
449.7700, 586.8066
450.9600, 349.7764
452.1490, 327.0967
453.3370, 290.7354
454.5260, 157.3682
455.7150, 159.9971
456.9030, 151.6211
458.0910, 123.2383
459.2800, 103.8496
460.4670, 68.45508
461.6550, 117.0527
462.8430, 149.6436
464.0300, 108.2305
465.2180, 123.8115
466.4050, 121.3857
467.5920, 140.9541
468.7790, 131.5186
469.9650, 228.0781
471.1520, 222.6328
472.3380, 245.1846
473.5250, 327.7334
474.7110, 218.2783
475.8970, 251.8213
477.0820, 312.3594
478.2680, 310.8945
479.4540, 361.4268
480.6390, 264.9551
481.8240, 359.4805
483.0090, 350.0029
484.1940, 446.5225
485.3780, 452.6650
486.5630, 385.9961
487.7470, 474.7812
488.9320, 392.1582
490.1160, 397.3379
491.3000, 488.0479
492.4830, 424.2285
493.6670, 531.2383
494.8500, 685.9805
496.0340, 802.3242
497.2170, 612.4424
498.4000, 779.5469
499.5820, 876.6289
500.7650, 920.4160
501.9480, 1076.259
503.1300, 1019.029
504.3120, 1212.249
505.4940, 1435.018
506.6760, 1468.622
507.8580, 1769.730
509.0390, 1962.208
510.2210, 2242.684
511.4020, 2371.160
512.5830, 2846.636
513.7640, 3282.110
514.9450, 3510.585
516.1250, 3701.898
517.3060, 3763.532
518.4860, 3742.005
519.6660, 3722.477
520.8460, 3518.947
522.0260, 3300.418
523.2060, 2872.890
524.3850, 2522.361
525.5650, 2094.833
526.7440, 1869.305
527.9230, 1368.778
529.1020, 1203.253
530.2810, 972.7275
531.4590, 624.2051
532.6380, 461.6904
533.8160, 492.1768
534.9940, 275.6699
536.1720, 250.1621
537.3500, 183.6592
538.5270, 158.1572
539.7050, 105.3965
540.8820, 32.17188
542.0590, 22.68750
543.2360, 109.7861
544.4130, 123.3105
545.5900, 158.8506
546.7660, 246.5469
547.9430, 203.3174
549.1190, 169.1895
550.2950, 195.1426
551.4710, 76.19434
552.6470, 51.28516
553.8220, 52.59473
554.9980, 103.4756
556.1730, 152.3809
557.3480, 156.2988
558.5230, 101.2402
559.6980, 347.2178
560.8730, 111.2080
562.0470, 196.2119
563.2220, 411.2441
564.3960, 247.2783
565.5700, 384.3408
566.7440, 341.4023
567.9170, 261.4785
569.0910, 370.5635
570.2640, 434.6777
571.4380, 402.8086
572.6110, 616.9453
573.7840, 490.0791
574.9570, 551.2139
576.1290, 511.3477
577.3020, 641.4912
578.4740, 487.6338
579.6460, 565.7842
580.8180, 553.9541
581.9900, 573.1494
583.1620, 601.3447
584.3330, 576.5557
585.5040, 453.7656
586.6760, 463.9775
587.8470, 412.1885
589.0180, 461.4189
590.1880, 493.6748
591.3590, 510.4893
592.5290, 534.4199
593.7000, 595.5293
594.8700, 475.8467
596.0400, 515.1318
597.2090, 528.1426
598.3790, 654.7461
599.5490, 627.9814
600.7180, 632.1543
601.8870, 772.1846
603.0560, 855.1416
604.2250, 1000.891
605.3940, 1212.160
606.5620, 1477.494
607.7300, 1771.823
608.8990, 2010.268
610.0670, 2326.720
611.2350, 2453.334
612.4020, 2503.965
613.5700, 2299.605
614.7370, 1981.244
615.9050, 1875.877
617.0720, 1594.506
618.2390, 1222.131
619.4060, 1113.751
620.5720, 844.3662
621.7390, 789.9766
622.9050, 544.5820
624.0710, 563.1836
625.2370, 401.7773
626.4030, 346.3672
627.5690, 329.9531
628.7340, 352.5557
629.9000, 310.1836
631.0650, 304.8203
632.2300, 341.4727
633.3950, 309.1436
634.5600, 350.7207
635.7240, 375.5781
636.8890, 363.3008
638.0530, 310.0186
639.2170, 204.7314
640.3810, 336.4375
641.5450, 431.1514
642.7080, 360.9082
643.8720, 366.6816
645.0350, 482.4883
646.1980, 363.3047
647.3610, 405.1328
648.5240, 450.9521
649.6870, 430.7646
650.8490, 538.5684
652.0120, 676.3633
653.1740, 808.1514
654.3360, 837.9287
655.4980, 733.6992
656.6600, 983.4590
657.8210, 1004.211
658.9830, 1183.954
660.1440, 1318.687
661.3050, 1588.409
662.4660, 1712.124
663.6270, 1967.827
664.7870, 2201.593
665.9480, 2518.342
667.1080, 2821.158
668.2680, 3228.908
669.4280, 3894.561
670.5880, 4590.450
671.7480, 5399.500
672.9070, 6612.223
674.0670, 7947.994
675.2260, 9819.713
676.3850, 12225.99
677.5440, 15547.80
678.7030, 19881.51
679.8610, 24457.96
681.0200, 30395.03
682.1780, 36434.66
683.3360, 42552.41
684.4940, 47672.87
685.6520, 50840.48
686.8090, 50763.56
687.9670, 48878.17
689.1240, 44296.07
690.2810, 38744.90
691.4380, 32386.09
692.5950, 26421.78
693.7520, 20824.39
694.9080, 16572.09
696.0650, 13120.46
697.2210, 10916.82
698.3770, 8974.623
699.5330, 7419.775
700.6880, 6219.990
701.8440, 5348.588
702.9990, 4664.493
704.1550, 4166.098
705.3100, 3621.383
706.4650, 3199.818
707.6190, 2717.782
708.7740, 2506.983
709.9290, 2281.809
711.0830, 2021.625
712.2370, 1753.099
713.3910, 1554.388
714.5450, 1319.704
715.6980, 1104.799
716.8520, 1155.927
718.0050, 1089.877
719.1580, 984.5498
720.3110, 914.5029
721.4640, 743.7773
722.6170, 618.4043
723.7700, 599.5098
724.9220, 518.9180
726.0740, 639.0674
727.2260, 422.0186
728.3780, 619.7598
729.5300, 492.0840
730.6810, 535.9092
731.8330, 414.5303
732.9840, 374.6826
734.1350, 466.1299
735.2860, 346.8652
736.4370, 309.4297
737.5880, 365.8018
738.7380, 345.8926
739.8880, 333.6533
741.0390, 302.3193
742.1890, 343.8477
743.3380, 296.3594
744.4880, 400.1475
745.6380, 351.6455
746.7870, 354.1309
747.9360, 369.1387
749.0850, 336.5117
750.2340, 279.1348
751.3830, 404.3906
752.5310, 474.0391
753.6800, 407.4746
754.8280, 406.8838
755.9760, 441.2646
757.1240, 483.6172
758.2720, 475.9443
759.4190, 512.2422
760.5670, 439.5127
761.7140, 460.7549
762.8610, 519.9707
764.0080, 484.1582
765.1550, 562.3184
766.3020, 695.4492
767.4480, 615.5537
768.5950, 663.6299
769.7410, 746.6768
770.8870, 737.6963
772.0330, 689.6865
773.1780, 754.6484
774.3240, 699.7334
775.4690, 608.4873
776.6140, 647.3633
777.7590, 520.2100
778.9040, 489.0283
780.0490, 533.8174
781.1940, 512.5781
782.3380, 432.3086
783.4820, 445.0107
784.6260, 465.6826
785.7700, 324.3252
786.9140, 376.9395
788.0580, 329.5244
789.2010, 335.0781
790.3450, 261.6045
791.4880, 386.1006
792.6310, 311.5674
793.7730, 305.6729
794.9160, 298.4619
796.0590, 237.7930
797.2010, 242.1426
798.3430, 194.4639
799.4850, 214.7549
800.6270, 180.0215
801.7690, 143.2510
802.9100, 143.4551
804.0520, 123.6299
805.1930, 135.7734
806.3340, 224.8877
807.4750, 94.97363
808.6160, 30.02734
809.7560, 127.0400
810.8970, 36.02344
812.0370, 119.9658
813.1770, 51.87891
814.3170, 89.75586
815.4570, 110.6045
816.5960, 2.578125
817.7360, 47.18359
818.8750, 5.912109
820.0140, 12.58984
821.1530, 21.25195
822.2920, 20.09570
823.4310, 4.195313
824.5690, 15.60645
825.7070, 12.58398
826.8460, 21.23828
827.9840, 71.90332
829.1220, 85.55859
830.2590, 62.82812
831.3970, 46.18945
832.5340, 9.652344
833.6710, 42.16992
834.8080, 97.75977
835.9450, 8.449219
837.0820, 10.19336
838.2190, 64.99121
839.3550, 34.12793
840.4910, 66.78418
841.6270, 108.2217
842.7630, 13.79883
843.8990, 0.1279300
845.0350, 79.99023
846.1700, 27.19629
847.3060, 18.53809
848.4410, 83.23926
849.5760, 66.23242
850.7100, 53.56445
851.8450, 4.809570
852.9800, 86.77051
854.1140, 4.672852
855.2480, 49.15820
856.3820, 70.70996
857.5160, 26.66211
858.6500, 35.99219
859.7830, 51.29980
860.9170, 14.56738
862.0500, 26.80664
863.1830, 61.97754
864.3160, 75.82715
865.4480, 6.750000
866.5810, 95.70996
867.7130, 46.02539
868.8460, 39.94238
869.9780, 61.99512
871.1100, 20.20312
872.2410, 130.4512
873.3730, 160.7949
874.5050, 62.25000
875.6360, 10.76367
876.7670, 138.3076
877.8980, 89.94629
879.0290, 27.65820
880.1590, 2.595703
881.2900, 14.17188
882.4200, 127.9668
883.5500, 185.8477
884.6800, 113.8457
885.8100, 71.91992
886.9400, 52.04785
888.0690, 4.216797
889.1990, 50.59375
890.3280, 86.77930
891.4570, 104.4814
892.5860, 143.9443
893.7140, 136.7002
894.8430, 83.44336
895.9710, 127.1748
897.1000, 115.8936
898.2280, 184.6006
899.3560, 369.2959
900.4830, 278.9805
901.6110, 423.6533
902.7380, 324.3174
903.8660, 334.9707
904.9930, 450.6143
906.1200, 456.2500
907.2460, 458.8750
908.3730, 555.4922
909.5000, 514.1006
910.6260, 564.7021
911.7520, 611.2959
912.8780, 668.8818
914.0040, 597.4609
915.1290, 734.0342
916.2550, 760.6006
917.3800, 831.1621
918.5050, 718.7188
919.6300, 810.2686
920.7550, 776.8145
921.8800, 652.3555
923.0040, 726.8945
924.1290, 743.4277
925.2530, 588.9580
926.3770, 593.4863
927.5010, 631.0117
928.6250, 528.5361
929.7480, 486.0576
930.8720, 458.5781
931.9950, 412.8701
933.1180, 362.6152
934.2410, 355.1318
935.3640, 369.6504
936.4860, 308.1680
937.6090, 327.6162
938.7310, 274.0703
939.8530, 216.4473
940.9750, 216.8828
942.0970, 296.4072
943.2180, 111.6855
944.3400, 88.79590
945.4610, 204.2256
946.5820, 100.5977
947.7030, 140.0166
948.8240, 165.8682
949.9450, 98.18164
951.0650, 135.4531
952.1860, 89.23926
953.3060, 119.0908
954.4260, 67.34375
955.5460, 29.00879
956.6650, 88.12207
957.7850, 35.14160
958.9040, 90.60547
960.0230, 29.44922
961.1420, 190.3623
962.2610, 93.61914
963.3800, 103.0059
964.4990, 22.46582
965.6170, 164.8301
966.7350, 65.18457
967.8530, 213.8740
968.9710, 94.56543
970.0890, 73.81152
971.2070, 144.7119
972.3240, 107.5537
973.4410, 281.0098
974.5580, 184.1777
975.6750, 320.6475
976.7920, 399.4355
977.9090, 346.3457
979.0250, 458.1982
980.1410, 468.0859
981.2580, 671.3623
982.3740, 653.4229
983.4890, 801.2881
984.6050, 1075.110
985.7200, 1217.922
986.8360, 1401.958
987.9510, 1595.966
989.0660, 1849.159
990.1810, 1934.663
991.2950, 2165.919
992.4100, 2494.882
993.5240, 2637.539
994.6390, 2889.744
995.7530, 3034.671
996.8660, 3237.895
997.9800, 3368.334
999.0940, 3636.016
1000.207, 3702.146
1001.320, 3904.791
1002.433, 3930.650
1003.546, 4211.996
1004.659, 4223.079
1005.772, 4448.898
1006.884, 4527.918
1007.996, 4651.133
1009.108, 4636.648
1010.220, 4594.502
1011.332, 4817.457
1012.444, 4750.570
1013.555, 4685.707
1014.666, 4526.576
1015.777, 4467.930
1016.888, 4296.941
1017.999, 4245.623
1019.110, 4167.946
1020.220, 4029.030
1021.331, 3815.488
1022.441, 3647.563
1023.551, 3602.859
1024.661, 3434.191
1025.770, 3425.567
1026.880, 3339.992
1027.989, 3185.452
1029.098, 3206.950
1030.207, 3161.505
1031.316, 3098.098
1032.425, 3224.727
1033.533, 3337.415
1034.642, 3415.184
1035.750, 3437.990
1036.858, 3542.837
1037.966, 3597.723
1039.073, 3853.647
1040.181, 3983.623
1041.288, 4435.638
1042.396, 4627.693
1043.503, 4928.820
1044.610, 5596.990
1045.716, 5949.201
1046.823, 6713.457
1047.929, 7154.754
1049.036, 8107.094
1050.142, 8970.468
1051.248, 9838.889
1052.353, 11200.36
1053.459, 12752.87
1054.564, 14648.42
1055.670, 16720.01
1056.775, 18888.66
1057.880, 21195.38
1058.985, 24125.13
1060.089, 26741.93
1061.194, 29756.76
1062.298, 32641.64
1063.402, 35260.57
1064.506, 37329.52
1065.610, 39331.54
1066.713, 40563.58
1067.817, 41214.67
1068.920, 41598.80
1070.023, 41276.97
1071.126, 40123.19
1072.229, 38903.45
1073.332, 36885.75
1074.435, 34493.08
1075.537, 31862.47
1076.639, 29499.90
1077.741, 26873.38
1078.843, 24618.90
1079.945, 22679.47
1081.046, 20476.08
1082.148, 19342.74
1083.249, 17860.44
1084.350, 17093.19
1085.451, 15662.98
1086.551, 14611.83
1087.652, 13716.73
1088.752, 13082.68
1089.853, 12460.69
1090.953, 11767.08
1092.053, 11307.44
1093.152, 10653.28
1094.252, 10286.50
1095.351, 9974.775
1096.451, 9223.092
1097.550, 9027.450
1098.649, 8576.852
1099.748, 8423.317
1100.846, 7963.844
1101.945, 7798.436
1103.043, 7456.111
1104.141, 7281.020
1105.239, 7142.121
1106.337, 6831.500
1107.434, 6700.464
1108.532, 6599.436
1109.629, 6543.450
1110.726, 6372.781
1111.823, 6415.615
1112.920, 6352.268
1114.017, 6174.521
1115.113, 6547.979
1116.210, 6575.325
1117.306, 6603.443
1118.402, 6666.944
1119.498, 6860.875
1120.593, 6847.909
1121.689, 7190.947
1122.784, 7100.578
1123.879, 7161.047
1124.974, 6970.174
1126.069, 6773.429
1127.164, 6671.883
1128.259, 6536.926
1129.353, 6137.968
1130.447, 5997.809
1131.541, 5804.006
1132.635, 5511.821
1133.729, 5392.224
1134.822, 5100.851
1135.916, 4876.843
1137.009, 4633.168
1138.102, 4362.980
1139.195, 4187.423
1140.288, 3909.011
1141.380, 3687.583
1142.473, 3536.197
1143.565, 3356.017
1144.657, 3167.758
1145.749, 3018.541
1146.841, 2779.135
1147.932, 2679.785
1149.024, 2673.913
1150.115, 2426.208
1151.206, 2371.268
1152.297, 2192.377
1153.388, 2022.531
1154.479, 1920.715
1155.569, 1627.930
1156.659, 1678.710
1157.750, 1503.133
1158.839, 1374.434
1159.929, 1360.833
1161.019, 1273.426
1162.108, 1102.807
1163.198, 1064.215
1164.287, 921.2100
1165.376, 915.6367
1166.465, 864.1230
1167.553, 806.8018
1168.642, 748.3369
1169.730, 727.8994
1170.818, 728.4746
1171.906, 630.0859
1172.994, 669.7314
1174.082, 581.0889
1175.170, 655.3828
1176.257, 554.0850
1177.344, 564.3564
1178.431, 587.1699
1179.518, 552.9453
1180.605, 649.7422
1181.691, 675.1689
1182.778, 478.6445
1183.864, 628.5225
1184.950, 492.4014
1186.036, 521.6348
1187.122, 565.8418
1188.207, 513.4658
1189.292, 478.4141
1190.378, 454.3779
1191.463, 476.4561
1192.548, 510.4531
1193.632, 401.6270
1194.717, 384.6553
1195.801, 344.8232
1196.886, 424.8809
1197.970, 434.9531
1199.054, 505.1719
1200.137, 418.2705
1201.221, 417.3828
1202.305, 475.5479
1203.388, 502.6875
1204.471, 482.8984
1205.554, 470.1387
1206.637, 435.4111
1207.719, 615.6963
1208.802, 552.9043
1209.884, 567.1221
1210.966, 569.4160
1212.048, 409.5908
1213.130, 459.8389
1214.212, 382.0967
1215.293, 269.3643
1216.374, 373.6426
1217.456, 304.9277
1218.536, 184.2217
1219.617, 263.5234
1220.698, 44.83105
1221.778, 219.1475
1222.859, 92.59570
1223.939, 137.9932
1225.019, 198.3301
1226.099, 25.67285
1227.178, 59.01953
1228.258, 142.3701
1229.337, 89.72461
1230.417, 87.20605
1231.496, 81.43750
1232.574, 46.80078
1233.653, 8.833984
1234.732, 14.29492
1235.810, 87.92676
1236.888, 1.010742
1237.966, 36.32422
1239.044, 22.66016
1240.122, 37.00391
1241.199, 22.62109
1242.277, 59.56836
1243.354, 35.82031
1244.431, 3.595703
1245.508, 6.089844
1246.585, 59.63379
1247.661, 1.120117
1248.738, 9.901367
1249.814, 10.66992
1250.890, 115.3125
1251.966, 120.8711
1253.042, 83.78027
1254.117, 171.7393
1255.193, 75.79395
1256.268, 76.89551
1257.343, 116.0469
1258.418, 50.26855
1259.493, 92.52832
1260.567, 95.84766
1261.642, 23.23242
1262.716, 13.37988
1263.790, 32.33105
1264.864, 83.66797
1265.938, 54.66895
1267.011, 60.46973
1268.085, 90.44824
1269.158, 20.18555
1270.231, 34.14844
1271.304, 64.89453
1272.377, 17.62012
1273.450, 79.65430
1274.522, 35.99805
1275.594, 7.830078
1276.666, 32.05469
1277.738, 93.26465
1278.810, 22.47656
1279.882, 85.85840
1280.953, 115.1182
1282.025, 126.3730
1283.096, 121.8486
1284.167, 189.2207
1285.238, 5.992188
1286.308, 2.786133
1287.379, 189.2354
1288.449, 46.23926
1289.519, 32.77637
1290.589, 171.1514
