##NAMES=Beryl
##RRUFFID=R050065
##IDEAL CHEMISTRY=Be_3_Al_2_Si_6_O_18_
##LOCALITY=Xuebaoding, Sichuan Province, China
##OWNER=RRUFF
##SOURCE=Rock Currier
##DESCRIPTION=Light blue colored tabular single crystal
##STATUS=The identification of this mineral has been confirmed by X-ray diffraction and chemical analysis
##URL=rruff.info/R050065
##MEASURED CHEMISTRY=(Be_2.78_Li_0.22_)_Σ=3_Al_2.00_Si_6.00_O_18_·Na_0.22_
##PIN_ID=L00396
##ORIENTATION=Laser parallel to a* (1 0 0). Fiducial mark perpendicular to laser is parallel to c [0 0 1]
98.947, 0.000
100.340, 25.665
101.732, 28.148
103.124, 10.683
104.516, 161.818
105.908, 257.358
107.300, 239.373
108.691, 501.191
110.082, 523.758
111.473, 1010.903
112.864, 727.349
114.254, 1092.520
115.644, 1262.023
117.034, 1239.542
118.424, 1102.821
119.813, 1213.658
121.203, 1001.882
122.592, 880.348
123.981, 919.962
125.369, 888.642
126.758, 770.344
128.146, 682.919
129.534, 883.260
130.922, 764.280
132.309, 772.925
133.696, 595.157
135.083, 806.939
136.470, 703.237
137.857, 735.023
139.243, 618.271
140.630, 606.953
142.016, 464.043
143.401, 512.525
144.787, 530.359
146.172, 566.499
147.557, 478.425
148.942, 434.114
150.327, 459.063
151.711, 398.591
153.096, 459.123
154.480, 443.703
155.863, 394.579
157.247, 454.158
158.630, 459.478
160.013, 450.265
161.396, 445.332
162.779, 431.843
164.161, 366.894
165.544, 321.206
166.926, 239.697
168.308, 391.362
169.689, 235.195
171.070, 347.191
172.452, 254.348
173.833, 403.666
175.213, 356.145
176.594, 173.782
177.974, 287.605
179.354, 319.546
180.734, 236.628
182.114, 160.801
183.493, 363.934
184.872, 195.590
186.251, 302.718
187.630, 168.101
189.008, 54.300
190.387, 296.550
191.765, 370.855
193.143, 182.222
194.520, 86.652
195.898, 16.850
197.275, 84.717
198.652, 267.355
200.029, 111.065
201.405, 65.849
202.782, 24.296
204.158, 40.945
205.534, 133.638
206.909, 33.286
208.285, 50.864
209.660, 46.084
211.035, 32.625
212.410, 53.738
213.784, 14.830
215.159, 10.329
216.533, 107.238
217.907, 6.113
219.281, 20.386
220.654, 9.405
222.027, 117.264
223.400, 150.095
224.773, 127.425
226.146, 174.663
227.518, 100.783
228.891, 20.136
230.263, 157.186
231.634, 253.675
233.006, 60.334
234.377, 108.109
235.748, 107.925
237.119, 177.784
238.490, 241.684
239.860, 140.627
241.231, 224.648
242.601, 218.774
243.970, 150.977
245.340, 208.325
246.709, 159.805
248.079, 216.354
249.448, 104.987
250.816, 204.713
252.185, 150.527
253.553, 108.410
254.921, 173.338
256.289, 0.690
257.657, 177.305
259.024, 76.323
260.391, 224.365
261.758, 21.429
263.125, 151.514
264.492, 144.277
265.858, 63.654
267.224, 153.445
268.590, 21.637
269.956, 137.865
271.321, 225.642
272.687, 109.658
274.052, 42.112
275.416, 146.304
276.781, 90.893
278.146, 70.639
279.510, 221.530
280.874, 202.555
282.237, 187.703
283.601, 226.538
284.964, 77.341
286.327, 204.817
287.690, 191.389
289.053, 172.052
290.416, 360.802
291.778, 263.632
293.140, 252.540
294.502, 179.522
295.863, 296.574
297.225, 367.695
298.586, 406.882
299.947, 460.130
301.308, 467.438
302.668, 680.805
304.029, 654.227
305.389, 827.702
306.749, 876.230
308.108, 1062.808
309.468, 1153.434
310.827, 1462.107
312.186, 1439.824
313.545, 2019.585
314.903, 2575.389
316.262, 2986.224
317.620, 4075.094
318.978, 5240.004
320.336, 6488.948
321.693, 7768.928
323.051, 8633.944
324.408, 8365.994
325.765, 7780.079
327.121, 5917.201
328.478, 4492.354
329.834, 3310.539
331.190, 2377.756
332.546, 1696.003
333.902, 1209.280
335.257, 688.561
336.612, 576.896
337.967, 502.259
339.322, 225.647
340.677, 257.062
342.031, 190.502
343.385, 179.163
344.739, 40.652
346.093, 86.835
347.446, 2.613
348.799, 15.904
350.153, 121.595
351.505, 30.115
352.858, 30.208
354.210, 4.422
355.563, 57.481
356.915, 25.153
358.267, 4.152
359.618, 96.566
360.969, 42.078
362.321, 29.800
363.672, 3.094
365.022, 71.680
366.373, 86.687
367.723, 32.996
369.073, 114.833
370.423, 84.305
371.773, 62.174
373.122, 152.061
374.471, 240.591
375.821, 120.509
377.169, 362.315
378.518, 225.181
379.866, 396.143
381.215, 583.287
382.563, 603.080
383.910, 743.733
385.258, 1110.748
386.605, 1374.023
387.952, 1568.173
389.299, 2199.849
390.646, 2842.407
391.992, 3565.455
393.339, 4582.027
394.685, 5667.127
396.031, 7198.887
397.376, 7732.364
398.722, 8346.820
400.067, 7969.776
401.412, 7146.553
402.757, 6289.398
404.101, 4788.041
405.446, 3521.062
406.790, 2714.158
408.134, 2211.862
409.478, 1662.961
410.821, 1367.061
412.165, 952.161
413.508, 967.263
414.851, 755.363
416.193, 580.464
417.536, 500.562
418.878, 428.736
420.220, 323.833
421.562, 279.738
422.904, 235.021
424.245, 241.114
425.586, 125.205
426.927, 232.317
428.268, 148.450
429.609, 15.399
430.949, 146.498
432.289, 183.670
433.629, 161.083
434.969, 253.279
436.309, 205.835
437.648, 272.051
438.987, 210.295
440.326, 246.548
441.665, 204.813
443.003, 352.083
444.342, 420.360
445.680, 469.657
447.018, 431.961
448.355, 384.289
449.693, 385.619
451.030, 353.951
452.367, 320.734
453.704, 329.840
455.041, 263.129
456.377, 315.539
457.713, 313.949
459.049, 264.359
460.385, 410.771
461.721, 417.193
463.056, 215.615
464.391, 304.039
465.726, 376.457
467.061, 223.875
468.395, 89.291
469.730, 282.705
471.064, 31.121
472.398, 187.533
473.731, 52.943
475.065, 152.350
476.398, 106.752
477.731, 153.178
479.064, 190.598
480.397, 212.012
481.729, 121.426
483.062, 156.199
484.394, 128.232
485.725, 152.629
487.057, 185.020
488.389, 223.402
489.720, 209.209
491.051, 220.160
492.382, 108.535
493.712, 189.980
495.043, 2.582
496.373, 73.830
497.703, 61.232
499.032, 271.631
500.362, 178.018
501.691, 199.449
503.020, 48.873
504.349, 85.285
505.678, 96.709
507.007, 12.080
508.335, 27.295
509.663, 221.578
510.991, 29.656
512.319, 64.871
513.646, 215.436
514.973, 49.641
516.300, 153.830
517.627, 105.021
518.954, 34.117
520.280, 11.461
521.607, 56.938
522.933, 32.340
524.259, 68.320
525.584, 12.375
526.910, 209.531
528.235, 153.428
529.560, 174.312
530.885, 192.186
532.209, 156.213
533.534, 144.889
534.858, 127.727
536.182, 136.547
537.506, 143.355
538.829, 127.152
540.152, 65.064
541.476, 292.643
542.799, 38.664
544.121, 113.965
545.444, 46.580
546.766, 107.832
548.088, 70.656
549.410, 96.877
550.732, 199.492
552.053, 78.848
553.375, 39.820
554.696, 39.447
556.017, 48.682
557.337, 23.449
558.658, 34.941
559.978, 18.158
561.298, 41.223
562.618, 22.254
563.938, 70.244
565.257, 202.211
566.576, 4.162
567.895, 222.066
569.214, 267.951
570.533, 167.822
571.851, 253.678
573.170, 328.514
574.488, 197.338
575.805, 303.145
577.123, 123.936
578.440, 268.707
579.758, 416.465
581.075, 212.209
582.391, 282.934
583.708, 423.643
585.024, 217.336
586.341, 366.014
587.657, 525.672
588.972, 526.354
590.288, 332.980
591.603, 120.592
592.918, 208.180
594.233, 293.754
595.548, 388.312
596.863, 300.301
598.177, 206.822
599.491, 263.275
600.805, 314.762
602.119, 274.621
603.432, 413.035
604.746, 285.205
606.059, 341.277
607.372, 380.672
608.685, 473.047
609.997, 401.604
611.309, 409.969
612.621, 514.965
613.933, 797.289
615.245, 799.596
616.557, 1078.914
617.868, 1267.180
619.179, 1215.031
620.490, 1129.256
621.801, 1394.469
623.111, 1002.658
624.421, 975.826
625.731, 699.980
627.041, 935.113
628.351, 640.422
629.660, 491.518
630.970, 949.590
632.279, 674.645
633.588, 553.678
634.896, 483.869
636.205, 712.863
637.513, 636.832
638.821, 713.900
640.129, 712.828
641.437, 968.736
642.744, 674.623
644.051, 906.488
645.358, 833.332
646.665, 1094.158
647.972, 916.180
649.278, 870.963
650.584, 970.146
651.890, 920.506
653.196, 1137.629
654.502, 1069.324
655.807, 964.998
657.113, 1173.648
658.418, 1340.838
659.722, 1272.445
661.027, 1304.834
662.331, 1321.920
663.636, 1826.459
664.940, 1465.066
666.244, 2004.463
667.547, 2028.025
668.851, 2574.559
670.154, 2937.939
671.457, 3339.188
672.760, 4245.195
674.062, 5050.605
675.365, 6214.980
676.667, 7771.314
677.969, 10184.738
679.271, 12976.082
680.572, 16939.365
681.874, 22876.842
683.175, 29113.660
684.476, 33786.902
685.777, 36734.117
687.077, 34588.328
688.378, 30504.512
689.678, 24462.680
690.978, 18740.824
692.278, 13620.947
693.577, 11309.059
694.877, 8253.145
696.176, 6943.215
697.475, 5224.051
698.774, 4566.084
700.072, 3676.445
701.371, 3240.443
702.669, 2493.158
703.967, 2350.994
705.265, 2376.295
706.562, 1683.703
707.860, 1341.615
709.157, 1616.979
710.454, 1051.805
711.751, 1215.967
713.047, 876.400
714.344, 959.850
715.640, 617.789
716.936, 690.072
718.232, 866.104
719.527, 595.330
720.823, 727.164
722.118, 519.920
723.413, 457.053
724.708, 508.781
726.002, 600.498
727.297, 359.201
728.591, 451.893
729.885, 463.570
731.179, 336.238
732.472, 317.895
733.766, 263.447
735.059, 460.082
736.352, 312.104
737.645, 273.713
738.937, 407.312
740.230, 107.898
741.522, 179.477
742.814, 184.043
744.106, 240.598
745.397, 168.146
746.689, 160.688
747.980, 127.986
749.271, 185.506
750.562, 336.016
751.853, 29.486
753.143, 207.965
754.433, 33.404
755.723, 81.826
757.013, 235.240
758.303, 15.355
759.592, 36.008
760.881, 21.645
762.170, 191.664
763.459, 94.963
764.748, 139.400
766.036, 335.785
767.325, 37.035
768.613, 115.096
769.901, 325.217
771.188, 63.332
772.476, 386.441
773.763, 8.461
775.050, 109.609
776.337, 273.889
777.624, 146.945
778.910, 69.998
780.196, 130.852
781.482, 63.891
782.768, 11.928
784.054, 115.662
785.339, 269.674
786.625, 64.684
787.910, 211.688
789.195, 73.312
790.479, 155.629
791.764, 238.564
793.048, 34.500
794.332, 223.428
795.616, 138.354
796.900, 155.275
798.183, 118.195
799.467, 60.113
800.750, 112.027
802.033, 18.061
803.316, 363.828
804.598, 279.283
805.880, 237.445
807.163, 154.174
808.445, 84.908
809.726, 27.645
811.008, 158.379
812.289, 191.887
813.570, 67.738
814.851, 241.365
816.132, 67.006
817.413, 64.582
818.693, 266.172
819.973, 74.189
821.253, 110.379
822.533, 228.018
823.813, 181.658
825.092, 44.693
826.371, 256.754
827.650, 48.619
828.929, 290.982
830.208, 368.586
831.486, 32.201
832.764, 63.824
834.042, 6.521
835.320, 135.152
836.598, 133.859
837.875, 214.582
839.152, 176.312
840.429, 202.049
841.706, 188.789
842.983, 158.535
844.259, 291.285
845.536, 189.043
846.812, 253.805
848.088, 73.576
849.363, 346.354
850.639, 284.137
851.914, 175.959
853.189, 187.787
854.464, 400.650
855.739, 453.521
857.013, 216.406
858.288, 415.344
859.562, 255.293
860.836, 426.289
862.110, 290.297
863.383, 462.314
864.656, 144.371
865.930, 274.443
867.203, 98.531
868.475, 356.643
869.748, 7.211
871.020, 159.957
872.292, 220.141
873.564, 146.350
874.836, 193.574
876.108, 54.811
877.379, 107.623
878.650, 83.957
879.922, 162.635
881.192, 106.934
882.463, 138.246
883.733, 202.570
885.004, 158.908
886.274, 159.258
887.544, 226.619
888.813, 20.004
890.083, 313.381
891.352, 385.781
892.621, 312.191
893.890, 133.619
895.159, 99.059
896.427, 165.516
897.695, 113.445
898.964, 148.469
900.232, 202.969
901.499, 165.486
902.767, 263.016
904.034, 122.562
905.301, 368.678
906.568, 375.273
907.835, 206.943
909.102, 96.570
910.368, 173.217
911.634, 297.580
912.900, 213.580
914.166, 449.672
915.432, 87.441
916.697, 170.770
917.962, 475.820
919.227, 117.598
920.492, 298.746
921.757, 158.562
923.021, 223.400
924.285, 278.242
925.550, 87.139
926.813, 137.480
928.077, 60.551
929.341, 213.424
930.604, 491.436
931.867, 46.490
933.130, 25.600
934.393, 369.707
935.655, 43.357
936.918, 300.789
938.180, 95.955
939.442, 241.145
940.703, 255.352
941.965, 175.402
943.226, 97.656
944.488, 267.934
945.749, 328.115
947.009, 233.436
948.270, 136.779
949.530, 244.160
950.791, 181.561
952.051, 183.986
953.311, 58.457
954.570, 218.730
955.830, 189.244
957.089, 166.357
958.348, 96.920
959.607, 109.535
960.866, 93.115
962.124, 104.805
963.383, 155.516
964.641, 138.691
965.899, 278.490
967.156, 110.312
968.414, 114.639
969.671, 249.516
970.928, 67.578
972.185, 388.525
973.442, 77.479
974.699, 179.455
975.955, 204.461
977.211, 99.328
978.468, 326.713
979.723, 146.766
980.979, 145.863
982.234, 618.988
983.490, 150.141
984.745, 240.314
986.000, 402.006
987.254, 267.234
988.509, 594.488
989.763, 447.773
991.017, 369.084
992.271, 463.418
993.525, 373.834
994.779, 671.275
996.032, 621.830
997.285, 774.408
998.538, 775.020
999.791, 1547.660
1001.044, 1135.328
1002.296, 1478.018
1003.548, 1332.732
1004.800, 1499.475
1006.052, 1478.240
1007.304, 1374.035
1008.555, 1543.857
1009.807, 1795.701
1011.058, 1809.576
1012.309, 1838.514
1013.559, 1667.475
1014.810, 1715.461
1016.060, 1702.090
1017.310, 2041.520
1018.560, 1810.592
1019.810, 1846.691
1021.060, 2044.691
1022.309, 1921.904
1023.558, 2242.139
1024.807, 1810.398
1026.056, 2180.686
1027.305, 1967.996
1028.553, 2552.328
1029.801, 2437.693
1031.049, 2262.080
1032.297, 2410.490
1033.545, 2469.809
1034.793, 2750.387
1036.040, 2852.875
1037.287, 3190.391
1038.534, 3406.938
1039.781, 3654.877
1041.027, 3923.723
1042.274, 4240.359
1043.520, 4621.023
1044.766, 5017.715
1046.012, 5739.432
1047.257, 6057.174
1048.503, 7068.936
1049.748, 7356.723
1050.993, 8750.625
1052.238, 9696.447
1053.483, 10692.297
1054.727, 12176.168
1055.971, 14112.406
1057.216, 15504.332
1058.459, 17651.281
1059.703, 19661.256
1060.947, 21920.959
1062.190, 24116.453
1063.433, 26082.600
1064.676, 27585.686
1065.919, 28322.777
1067.162, 29555.801
1068.404, 28843.986
1069.646, 28658.547
1070.888, 28365.779
1072.130, 26853.486
1073.372, 25442.676
1074.613, 24156.100
1075.855, 22188.959
1077.096, 20366.414
1078.337, 19232.533
1079.578, 17229.137
1080.818, 15883.871
1082.059, 14191.602
1083.299, 13249.105
1084.539, 11756.225
1085.779, 10686.324
1087.018, 9783.754
1088.258, 8967.203
1089.497, 8391.127
1090.736, 7802.586
1091.975, 7094.648
1093.213, 6663.443
1094.452, 6236.824
1095.690, 5709.855
1096.928, 5611.828
1098.166, 5477.895
1099.404, 5248.438
1100.642, 4771.986
1101.879, 5106.900
1103.116, 4434.459
1104.353, 4731.035
1105.590, 4068.949
1106.827, 4430.885
1108.063, 4170.207
1109.299, 4110.191
1110.536, 4191.391
1111.771, 3735.070
1113.007, 4054.352
1114.243, 3797.633
1115.478, 3733.564
1116.713, 3659.184
1117.948, 3676.207
1119.183, 3605.201
1120.418, 3578.307
1121.652, 3530.820
1122.886, 3408.871
1124.120, 3382.738
1125.354, 2999.527
1126.588, 3077.689
1127.821, 2897.023
1129.055, 3144.266
1130.288, 3276.154
1131.521, 3198.732
1132.753, 2887.531
1133.986, 2954.824
1135.218, 3181.879
1136.450, 2714.797
1137.682, 3007.613
1138.914, 2918.801
1140.146, 2790.566
1141.377, 2857.148
1142.609, 2893.064
1143.840, 2939.695
1145.071, 2928.611
1146.301, 2820.904
1147.532, 2706.232
1148.762, 2528.545
1149.992, 2332.363
1151.222, 2169.305
1152.452, 2249.988
1153.682, 1864.234
1154.911, 2011.742
1156.140, 1548.924
1157.369, 1563.787
1158.598, 1384.527
1159.827, 1447.834
1161.055, 1040.297
1162.284, 1075.473
1163.512, 974.176
1164.740, 831.178
1165.967, 815.488
1167.195, 703.211
1168.422, 624.146
1169.650, 642.607
1170.877, 394.713
1172.103, 297.727
1173.330, 436.475
1174.557, 318.795
1175.783, 573.168
1177.009, 124.910
1178.235, 386.822
1179.461, 280.854
1180.686, 312.709
1181.912, 317.912
1183.137, 399.891
1184.362, 269.494
1185.587, 176.012
1186.811, 296.268
1188.036, 291.281
1189.260, 387.674
1190.484, 292.418
1191.708, 314.035
1192.932, 192.371
1194.155, 195.369
1195.378, 319.012
1196.602, 302.475
1197.825, 84.344
1199.047, 269.936
1200.270, 220.518
1201.492, 468.145
1202.715, 68.436
1203.937, 448.947
1205.159, 212.355
1206.380, 435.699
1207.602, 197.973
1208.823, 22.281
1210.044, 112.521
1211.265, 230.498
1212.486, 176.705
1213.707, 26.102
1214.927, 256.375
1216.147, 65.439
1217.367, 157.305
1218.587, 49.133
1219.807, 48.066
1221.027, 129.963
1222.246, 104.301
1223.465, 138.365
1224.684, 256.004
1225.903, 32.930
1227.121, 145.463
1228.340, 140.922
1229.558, 155.137
1230.776, 27.283
1231.994, 91.385
1233.212, 327.447
1234.429, 189.451
1235.646, 80.408
1236.864, 257.297
1238.081, 63.104
1239.297, 130.797
1240.514, 177.424
1241.730, 139.973
1242.947, 101.455
1244.163, 26.127
1245.378, 228.225
1246.594, 307.523
1247.810, 53.246
1249.025, 396.908
1250.240, 226.006
1251.455, 142.225
1252.670, 159.184
1253.885, 72.084
1255.099, 152.924
1256.313, 162.945
1257.527, 238.064
1258.741, 89.652
1259.955, 97.820
1261.168, 191.416
1262.382, 56.787
1263.595, 178.180
1264.808, 22.430
1266.021, 29.617
1267.233, 82.760
1268.446, 185.840
1269.658, 44.867
1270.870, 311.832
1272.082, 38.748
1273.294, 125.607
1274.505, 151.420
1275.716, 51.129
1276.928, 87.787
1278.139, 259.393
1279.349, 142.100
1280.560, 200.479
1281.770, 232.791
1282.981, 19.037
1284.191, 168.209
1285.401, 293.299
1286.610, 153.510
1287.820, 59.074
1289.029, 280.754
1290.239, 239.068
1291.448, 18.857
1292.656, 122.637
1293.865, 163.400
1295.073, 288.150
1296.282, 265.029
1297.490, 115.535
1298.698, 205.137
1299.906, 147.711
1301.113, 77.246
1302.320, 315.629
1303.528, 130.973
1304.735, 80.711
1305.942, 186.574
1307.148, 260.824
1308.355, 66.047
1309.561, 313.219
1310.767, 96.340
1311.973, 73.379
1313.179, 112.629
1314.384, 27.270
1315.590, 313.238
1316.795, 340.004
1318.000, 177.867
1319.205, 265.219
1320.410, 256.961
1321.614, 73.648
1322.819, 343.027
1324.023, 127.539
1325.227, 440.477
1326.431, 278.254
1327.634, 68.074
1328.838, 169.727
1330.041, 42.500
1331.244, 212.496
1332.447, 11.824
1333.650, 183.438
1334.852, 139.543
1336.055, 71.500
1337.257, 202.680
1338.459, 117.355
1339.661, 381.652
1340.862, 166.957
1342.064, 296.523
1343.265, 413.125
1344.466, 388.113
1345.667, 318.020
1346.868, 572.008
1348.068, 356.250
1349.269, 133.445
1350.469, 506.047
1351.669, 501.609
1352.869, 469.387
1354.069, 517.512
1355.268, 176.961
1356.468, 616.875
1357.667, 443.000
1358.866, 290.137
1360.065, 576.676
1361.263, 346.871
1362.462, 480.309
1363.660, 551.180
1364.858, 245.039
1366.056, 547.285
1367.254, 441.652
1368.451, 496.176
1369.649, 163.621
1370.846, 603.355
1372.043, 360.078
1373.240, 488.625
1374.436, 352.473
1375.633, 286.730
1376.829, 404.773
1378.025, 321.875
1379.221, 375.496
1380.417, 375.055
1381.613, 376.262
1382.808, 539.410
1384.003, 378.496
1385.199, 401.383
1386.393, 217.395
1387.588, 446.617
1388.783, 301.812
1389.977, 488.773
1391.171, 284.320
1392.365, 398.945
1393.559, 415.031
1394.753, 149.668
1395.946, 309.281
1397.140, 321.895
1398.333, 339.797
1399.526, 96.957
1400.719, 93.727
1401.911, 403.250
1403.104, 442.441
1404.296, 8.191
1405.488, 355.680
1406.680, 145.074
1407.872, 245.066
1409.063, 543.590
1410.255, 32.570
1411.446, 410.297
1412.637, 159.324
1413.828, 159.047
1415.018, 370.562
1416.209, 483.195
1417.399, 153.875
1418.589, 536.727
1419.779, 252.684
1420.969, 341.789
1422.159, 82.879
1423.348, 273.664
1424.537, 349.742
1425.726, 264.359
1426.915, 349.191
1428.104, 253.051
1429.293, 133.680
1430.481, 1.430
1431.669, 0.000
##END=



