##NAMES=Beryl
##RRUFFID=R060943
##IDEAL CHEMISTRY=Be_3_Al_2_Si_6_O_18_
##LOCALITY=Xinjiang, China
##OWNER=RRUFF
##SOURCE=Lawrence W. Snee
##DESCRIPTION=Green hexagonal prisms, variety emerald
##STATUS=The identification of this mineral has been confirmed by X-ray diffraction and chemical analysis
##URL=rruff.info/R060943
##MEASURED CHEMISTRY=(Be_2.96_Li_0.04_)_Σ=3_(Al_1.64_Mg_0.21_V^3+^_0.06_Fe^3+^_0.04_Sc^3+^_0.03_Cr^3+^_0.02_)_Σ=2_Si_6.00_O_18_·Na_0.25_
##PIN_ID=L00265
##ORIENTATION=Laser parallel to a* (1 0 0). Fiducial mark perpendicular to laser is parallel to -c [0 0 -1]
167.3340, 0.0000000E+00
168.5670, 48.05127
169.8000, 75.39624
171.0320, 6.421875
172.2650, 110.4478
173.4970, 9.126709
174.7290, 81.00806
175.9610, 163.6660
177.1930, 76.78271
178.4240, 163.1157
179.6550, 191.4805
180.8870, 128.7456
182.1170, 180.7979
183.3480, 161.5400
184.5790, 225.8872
185.8090, 157.7686
187.0390, 235.1250
188.2690, 218.9067
189.4990, 311.0703
190.7290, 301.5845
191.9580, 255.4580
193.1870, 256.6729
194.4160, 224.1880
195.6450, 331.9697
196.8740, 248.9888
198.1020, 267.2197
199.3310, 230.6431
200.5590, 222.2437
201.7870, 256.0073
203.0140, 235.9219
204.2420, 232.9766
205.4690, 194.1631
206.6960, 167.4741
207.9230, 184.9019
209.1500, 208.4385
210.3760, 145.0771
211.6030, 181.1270
212.8290, 243.6411
214.0550, 200.7158
215.2810, 196.1504
216.5060, 214.7852
217.7320, 258.5312
218.9570, 276.2944
220.1820, 333.0737
221.4070, 250.8691
222.6320, 299.6807
223.8560, 307.5083
225.0800, 369.3516
226.3040, 248.2104
227.5280, 295.0859
228.7520, 289.9839
229.9760, 349.9106
231.1990, 282.8696
232.4220, 309.8608
233.6450, 339.8833
234.8680, 279.9346
236.0910, 289.0127
237.3130, 313.1147
238.5350, 260.2397
239.7570, 225.3882
240.9790, 276.6113
242.2010, 260.8428
243.4220, 337.1230
244.6430, 295.4067
245.8640, 373.7466
247.0850, 285.0938
248.3060, 311.4731
249.5270, 328.8818
250.7470, 306.3013
251.9670, 288.7241
253.1870, 215.1504
254.4070, 241.5796
255.6260, 161.0122
256.8460, 9.448730
258.0650, 104.7378
259.2840, 162.7134
260.5030, 139.4741
261.7220, 2.446777
262.9400, 37.18652
264.1580, 54.99316
265.3760, 177.1626
266.5940, 195.3232
267.8120, 248.4946
269.0290, 300.6768
270.2470, 394.8689
271.4640, 287.0710
272.6810, 322.2827
273.8980, 226.5032
275.1140, 132.7319
276.3310, 228.9692
277.5470, 218.2144
278.7630, 176.4668
279.9790, 281.7261
281.1940, 251.9924
282.4100, 262.2661
283.6250, 320.5483
284.8400, 232.8494
286.0550, 312.1655
287.2700, 306.5620
288.4850, 423.0415
289.6990, 462.6431
290.9130, 395.3442
292.1270, 474.0906
293.3410, 528.8813
294.5540, 512.7107
295.7680, 558.5601
296.9810, 659.4219
298.1940, 613.2803
299.4070, 793.1282
300.6200, 808.9661
301.8320, 887.7930
303.0450, 989.6084
304.2570, 1066.413
305.4690, 1197.206
306.6800, 1318.988
307.8920, 1549.759
309.1030, 1741.518
310.3150, 2017.265
311.5260, 2359.357
312.7360, 2842.232
313.9470, 3473.662
315.1580, 4243.398
316.3680, 5128.829
317.5780, 6313.870
318.7880, 7423.188
319.9980, 9197.544
321.2070, 11013.64
322.4170, 13008.05
323.6260, 14171.38
324.8350, 14138.00
326.0430, 12499.90
327.2520, 9975.439
328.4610, 7330.141
329.6690, 5173.613
330.8770, 3543.508
332.0850, 2403.287
333.2920, 1625.921
334.5000, 1012.444
335.7070, 692.1487
336.9140, 493.6658
338.1210, 338.2009
339.3280, 377.7537
340.5350, 158.3220
341.7410, 83.90430
342.9470, 119.5000
344.1540, 14.10767
345.3590, 42.72705
346.5650, 22.64404
347.7710, 11.99170
348.9760, 29.36353
350.1810, 10.71436
351.3860, 30.36548
352.5910, 85.40186
353.7950, 54.75537
355.0000, 36.11230
356.2040, 11.46973
357.4080, 17.17578
358.6120, 49.17456
359.8150, 38.53027
361.0190, 81.89111
362.2220, 29.26904
363.4250, 48.34839
364.6280, 92.96484
365.8310, 139.0381
367.0340, 171.1958
368.2360, 210.8096
369.4380, 280.4221
370.6400, 309.0332
371.8420, 373.5168
373.0440, 401.2510
374.2450, 467.8574
375.4470, 593.4614
376.6480, 686.8025
377.8490, 787.6636
379.0490, 954.2607
380.2500, 1125.855
381.4500, 1272.447
382.6510, 1637.035
383.8510, 1913.620
385.0500, 2377.203
386.2500, 2833.780
387.4500, 3474.354
388.6490, 4244.923
389.8480, 5178.489
391.0470, 6096.050
392.2460, 7337.606
393.4440, 8704.159
394.6430, 10199.71
395.8410, 11350.44
397.0390, 12194.98
398.2370, 12391.86
399.4340, 11537.97
400.6320, 9848.384
401.8290, 8101.087
403.0260, 6247.200
404.2230, 4841.816
405.4200, 3644.922
406.6170, 2655.517
407.8130, 2039.659
409.0090, 1510.419
410.2050, 1158.266
411.4010, 949.0061
412.5970, 801.7012
413.7920, 574.3423
414.9880, 454.5835
416.1830, 404.5000
417.3780, 353.9417
418.5730, 299.5862
419.7670, 303.2505
420.9620, 252.3921
422.1560, 178.0803
423.3500, 204.0847
424.5440, 158.5791
425.7380, 148.4001
426.9310, 190.8035
428.1240, 229.0964
429.3180, 163.3416
430.5110, 227.6062
431.7030, 132.8347
432.8960, 235.0544
434.0890, 245.2646
435.2810, 260.4651
436.4730, 292.6553
437.6650, 262.8352
438.8570, 281.0042
440.0480, 315.1626
441.2390, 278.3098
442.4310, 365.4468
443.6220, 307.5723
444.8120, 243.6870
446.0030, 151.7908
447.1940, 192.8835
448.3840, 176.9653
449.5740, 133.0364
450.7640, 138.0964
451.9540, 45.14551
453.1430, 65.18286
454.3330, 43.20850
455.5220, 22.77905
456.7110, 16.19531
457.9000, 103.1572
459.0890, 19.88672
460.2770, 25.96118
461.4650, 70.93262
462.6540, 31.81860
463.8420, 8.694092
465.0290, 27.44873
466.2170, 61.37183
467.4050, 33.18286
468.5920, 19.98193
469.7790, 52.76611
470.9660, 27.46045
472.1530, 82.27417
473.3390, 28.99829
474.5250, 41.70898
475.7120, 66.40674
476.8980, 99.09326
478.0840, 61.76953
479.2690, 167.4338
480.4550, 163.5942
481.6400, 300.7324
482.8250, 221.3662
484.0100, 184.9897
485.1950, 203.6028
486.3800, 186.2051
487.5640, 215.7966
488.7480, 187.3772
489.9320, 161.4185
491.1160, 200.9771
492.3000, 127.7520
493.4840, 214.0874
494.6670, 185.7886
495.8500, 128.4277
497.0330, 204.9326
498.2160, 216.3428
499.3990, 255.5901
500.5810, 185.0588
501.7630, 192.7522
502.9460, 276.9536
504.1280, 188.5654
505.3090, 280.1416
506.4910, 236.5537
507.6720, 306.9548
508.8540, 313.3447
510.0350, 337.7229
511.2160, 322.0898
512.3960, 337.4453
513.5770, 377.7891
514.7570, 471.1216
515.9380, 509.4424
517.1180, 475.7515
518.2970, 454.0491
519.4770, 570.3347
520.6570, 659.6089
521.8360, 750.8711
523.0150, 688.1216
524.1940, 700.3604
525.3730, 691.5867
526.5510, 629.4624
527.7300, 576.0110
528.9080, 487.2051
530.0860, 448.3872
531.2640, 306.5657
532.4420, 310.7319
533.6200, 218.8862
534.7970, 207.0312
535.9740, 153.1653
537.1510, 73.28735
538.3280, 133.4106
539.5050, 51.52222
540.6810, 30.62207
541.8580, 14.71460
543.0340, 76.78687
544.2100, 29.84497
545.3860, 25.11475
546.5610, 97.10010
547.7370, 6.841797
548.9120, 66.22046
550.0870, 92.34375
551.2620, 30.54248
552.4370, 60.78003
553.6120, 76.07373
554.7860, 4.565918
555.9600, 16.18774
557.1340, 16.21021
558.3080, 40.63892
559.4820, 3.884033
560.6560, 12.61719
561.8290, 58.84814
563.0020, 21.70142
564.1750, 24.71948
565.3480, 71.12158
566.5210, 35.51538
567.6930, 88.89258
568.8660, 113.2566
570.0380, 132.6079
571.2100, 115.9529
572.3820, 143.2861
573.5530, 157.6133
574.7250, 183.5278
575.8960, 229.2480
577.0670, 280.5474
578.2380, 320.8433
579.4090, 425.1270
580.5800, 333.3992
581.7500, 383.6589
582.9210, 376.9077
584.0910, 467.1440
585.2610, 461.3687
586.4300, 463.5815
587.6000, 472.7825
588.7690, 454.9727
589.9390, 454.1509
591.1080, 513.3171
592.2770, 413.4910
593.4450, 460.4309
594.6140, 538.4592
595.7820, 515.3750
596.9500, 478.6267
598.1190, 537.1172
599.2860, 494.2527
600.4540, 566.6216
601.6220, 499.6025
602.7890, 578.6211
603.9560, 591.3723
605.1230, 586.4546
606.2900, 683.2998
607.4570, 735.2778
608.6230, 790.0222
609.7890, 909.5107
610.9560, 995.3994
612.1220, 1171.480
613.2870, 1443.153
614.4530, 1602.758
615.6180, 1856.497
616.7840, 2162.413
617.9490, 2355.454
619.1140, 2389.338
620.2790, 2313.421
621.4430, 2070.493
622.6080, 1640.556
623.7720, 1349.608
624.9360, 1106.650
626.1000, 916.6809
627.2640, 729.7014
628.4270, 642.7109
629.5910, 611.7100
630.7540, 532.7012
631.9170, 476.6821
633.0800, 451.6558
634.2430, 458.6204
635.4050, 517.5781
636.5680, 487.5427
637.7300, 448.5061
638.8920, 496.4639
640.0540, 401.4121
641.2150, 451.3503
642.3770, 528.2861
643.5380, 596.2170
644.7000, 617.7153
645.8610, 589.0859
647.0210, 635.0066
648.1820, 684.9172
649.3430, 646.8174
650.5030, 699.7070
651.6630, 814.5862
652.8230, 821.4556
653.9830, 889.3142
655.1430, 889.1621
656.3020, 1049.000
657.4620, 1160.828
658.6210, 1185.646
659.7800, 1381.452
660.9390, 1463.250
662.0970, 1709.036
663.2560, 1839.813
664.4140, 2152.580
665.5720, 2443.974
666.7300, 2868.721
667.8880, 3219.456
669.0460, 3858.182
670.2030, 4395.664
671.3600, 5104.370
672.5180, 6220.065
673.6740, 7596.308
674.8310, 9317.176
675.9880, 11467.84
677.1440, 14631.77
678.3010, 18188.42
679.4570, 22411.46
680.6130, 27993.70
681.7690, 34206.41
682.9240, 40798.83
684.0800, 47742.81
685.2350, 52291.45
686.3900, 53439.42
687.5450, 49955.19
688.7000, 42823.04
689.8540, 34646.21
691.0090, 27201.01
692.1630, 20784.62
693.3170, 16134.79
694.4710, 12704.23
695.6250, 10014.94
696.7780, 8251.686
697.9320, 6900.053
699.0850, 5975.211
700.2380, 5000.327
701.3910, 4435.478
702.5440, 3754.801
703.6970, 3454.532
704.8490, 3012.909
706.0010, 2609.795
707.1530, 2403.083
708.3050, 2068.467
709.4570, 1905.068
710.6090, 1722.449
711.7600, 1631.200
712.9110, 1569.290
714.0620, 1340.678
715.2130, 1259.059
716.3640, 1036.230
717.5150, 942.5959
718.6650, 947.9551
719.8150, 733.3069
720.9650, 760.6685
722.1150, 658.0059
723.2650, 617.3367
724.4150, 530.6602
725.5640, 441.9766
726.7130, 441.3403
727.8630, 380.6431
729.0110, 414.9390
730.1600, 339.5439
731.3090, 354.8262
732.4570, 334.1880
733.6060, 172.5598
734.7540, 256.9202
735.9020, 189.1897
737.0490, 216.0034
738.1970, 192.8013
739.3440, 238.2559
740.4920, 222.4172
741.6390, 173.9233
742.7860, 148.1851
743.9320, 152.8579
745.0790, 119.8481
746.2250, 164.9470
747.3720, 67.19507
748.5180, 64.43799
749.6640, 130.0510
750.8100, 113.2939
751.9550, 179.2095
753.1010, 69.43945
754.2460, 134.2126
755.3910, 119.4424
756.5360, 151.7361
757.6810, 189.9517
758.8250, 191.1445
759.9700, 220.4631
761.1140, 164.6404
762.2580, 259.8093
763.4020, 218.9705
764.5460, 197.1238
765.6900, 247.2695
766.8330, 167.4072
767.9760, 230.5374
769.1200, 292.6602
770.2620, 245.7754
771.4050, 268.8831
772.5480, 244.9834
773.6900, 259.0764
774.8330, 152.1621
775.9750, 279.2407
777.1170, 191.3118
778.2590, 218.3757
779.4000, 223.4326
780.5420, 222.4822
781.6830, 220.5295
782.8240, 184.5603
783.9650, 185.5889
785.1060, 104.6106
786.2470, 59.62524
787.3870, 145.6333
788.5280, 93.63452
789.6680, 143.6292
790.8080, 130.6174
791.9480, 114.5991
793.0870, 188.5745
794.2270, 108.5435
795.3660, 161.5063
796.5060, 160.7852
797.6450, 81.41357
798.7830, 162.3582
799.9220, 129.2969
801.0610, 99.22998
802.1990, 10.15723
803.3370, 119.0723
804.4750, 92.98169
805.6130, 67.88574
806.7510, 10.21582
807.8890, 98.66113
809.0260, 65.53247
810.1630, 9.435791
811.3000, 19.29126
812.4370, 124.1389
813.5740, 39.01807
814.7110, 37.79028
815.8470, 3.593994
816.9830, 19.61353
818.1190, 57.15674
819.2550, 94.92700
820.3910, 45.15332
821.5270, 36.08130
822.6620, 2.334229
823.7970, 56.56909
824.9330, 24.15918
826.0670, 55.17725
827.2020, 0.9541020
828.3370, 5.734619
829.4710, 40.52954
830.6060, 7.651367
831.7400, 14.63379
832.8740, 1.557373
834.0080, 95.25146
835.1410, 19.07520
836.2750, 96.90210
837.4080, 23.73682
838.5410, 18.42944
839.6740, 27.39795
840.8070, 8.773926
841.9400, 37.04150
843.0730, 36.85742
844.2050, 62.67188
845.3370, 10.51514
846.4690, 83.28442
847.6010, 13.91748
848.7330, 20.13379
849.8640, 37.63257
850.9960, 153.3977
852.1270, 22.83789
853.2580, 162.9082
854.3890, 34.65405
855.5200, 16.39917
856.6500, 9.143555
857.7810, 48.88696
858.9110, 47.62988
860.0410, 96.37329
861.1710, 9.116211
862.3010, 5.858887
863.4310, 37.60034
864.5600, 31.34204
865.6900, 67.91553
866.8190, 49.78931
867.9480, 32.50488
869.0770, 65.81738
870.2050, 2.834717
871.3340, 19.48584
872.4620, 6.861816
873.5900, 42.21436
874.7180, 69.58838
875.8460, 65.31396
876.9740, 38.44092
878.1010, 51.90234
879.2290, 59.38940
880.3560, 64.90503
881.4830, 15.45215
882.6100, 28.99438
883.7370, 21.44312
884.8630, 7.105469
885.9900, 13.34351
887.1160, 14.20483
888.2420, 43.24268
889.3680, 66.30688
890.4940, 2.114258
891.6200, 59.46191
892.7450, 1.937500
893.8700, 12.33911
894.9960, 3.255371
896.1210, 31.15186
897.2460, 62.56299
898.3700, 62.97827
899.4950, 102.3977
900.6190, 108.6934
901.7430, 108.9375
902.8670, 88.68237
903.9910, 100.1201
905.1150, 96.29126
906.2390, 90.00977
907.3620, 113.4626
908.4850, 128.9204
909.6080, 129.3838
910.7310, 180.8528
911.8540, 168.3276
912.9770, 154.8083
914.0990, 201.2949
915.2210, 148.7876
916.3440, 156.2869
917.4660, 162.3662
918.5870, 134.3044
919.7090, 196.8232
920.8310, 153.3489
921.9520, 228.8816
923.0730, 193.4214
924.1940, 220.9683
925.3150, 171.5229
926.4360, 96.08496
927.5560, 129.6548
928.6770, 172.2324
929.7970, 120.8179
930.9170, 10.41162
932.0370, 166.0137
933.1570, 206.6238
934.2760, 66.24268
935.3960, 68.87012
936.5150, 141.5066
937.6340, 105.5125
938.7530, 39.16699
939.8720, 6.831055
940.9910, 65.50415
942.1090, 61.42041
943.2280, 108.1125
944.3460, 2.185059
945.4640, 37.96924
946.5820, 7.498535
947.6990, 28.23096
948.8170, 11.50269
949.9340, 86.25659
951.0520, 110.2622
952.1690, 56.84497
953.2860, 25.63525
954.4030, 25.56323
955.5190, 22.24512
956.6360, 18.89575
957.7520, 51.70679
958.8680, 26.14697
959.9840, 18.98999
961.1000, 16.88501
962.2160, 124.0203
963.3310, 103.4556
964.4470, 46.37183
965.5620, 28.92676
966.6770, 99.90112
967.7920, 106.0168
968.9060, 139.9827
970.0210, 89.96338
971.1360, 76.96899
972.2500, 115.9956
973.3640, 90.56396
974.4780, 127.3032
975.5920, 118.2397
976.7050, 151.3391
977.8190, 201.4736
978.9320, 157.6218
980.0450, 152.6157
981.1580, 235.8076
982.2710, 159.6667
983.3840, 262.2056
984.4970, 249.4678
985.6090, 350.7659
986.7210, 395.2810
987.8330, 403.6167
988.9450, 542.9695
990.0570, 605.3374
991.1690, 552.7068
992.2800, 713.1167
993.3920, 684.5566
994.5030, 915.0144
995.6140, 918.4890
996.7250, 1077.926
997.8350, 1206.432
998.9460, 1226.973
1000.056, 1413.228
1001.167, 1475.815
1002.277, 1520.338
1003.387, 1681.860
1004.496, 1661.413
1005.606, 1826.078
1006.715, 2004.222
1007.825, 1986.392
1008.934, 2055.927
1010.043, 2093.781
1011.152, 2144.300
1012.260, 1990.076
1013.369, 2010.459
1014.477, 2020.550
1015.586, 2043.543
1016.694, 1980.401
1017.802, 1895.279
1018.909, 1855.798
1020.017, 1857.357
1021.124, 1892.971
1022.232, 1915.927
1023.339, 1931.353
1024.446, 1992.335
1025.553, 2043.269
1026.659, 2150.300
1027.766, 2135.372
1028.872, 2272.332
1029.979, 2333.445
1031.085, 2514.579
1032.191, 2632.733
1033.296, 2727.908
1034.402, 2957.103
1035.507, 3052.319
1036.613, 3403.556
1037.718, 3574.814
1038.823, 3977.092
1039.928, 4033.391
1041.032, 4505.711
1042.137, 4892.052
1043.241, 5319.420
1044.346, 5898.811
1045.450, 6417.221
1046.554, 6976.653
1047.657, 7810.104
1048.761, 8743.582
1049.864, 9769.082
1050.968, 11003.60
1052.071, 12357.14
1053.174, 14092.71
1054.277, 15776.29
1055.379, 18376.89
1056.482, 20680.53
1057.584, 23796.18
1058.687, 27077.85
1059.789, 30583.55
1060.891, 34729.28
1061.992, 38755.03
1063.094, 42080.80
1064.196, 45020.60
1065.297, 47261.41
1066.398, 48737.25
1067.499, 48578.10
1068.600, 47597.98
1069.701, 45685.88
1070.801, 43761.83
1071.902, 41012.77
1073.002, 38201.74
1074.102, 35289.72
1075.202, 31954.74
1076.302, 28894.79
1077.402, 26135.81
1078.501, 23481.57
1079.600, 21165.02
1080.700, 18959.15
1081.799, 17090.38
1082.898, 15467.84
1083.996, 14106.06
1085.095, 13005.46
1086.193, 11881.73
1087.292, 10909.56
1088.390, 10149.88
1089.488, 9387.257
1090.586, 8821.631
1091.683, 8210.043
1092.781, 7631.209
1093.878, 7194.663
1094.975, 6889.873
1096.073, 6534.375
1097.169, 6170.451
1098.266, 5801.570
1099.363, 5504.141
1100.459, 5307.736
1101.556, 5097.395
1102.652, 4887.689
1103.748, 4752.188
1104.844, 4531.861
1105.940, 4457.563
1107.035, 4317.584
1108.131, 4265.330
1109.226, 4089.969
1110.321, 4041.752
1111.416, 3964.058
1112.511, 3805.884
1113.605, 3896.948
1114.700, 3949.286
1115.794, 3813.295
1116.889, 3729.057
1117.983, 3804.990
1119.077, 3862.607
1120.170, 3768.870
1121.264, 4002.863
1122.357, 4008.422
1123.451, 4116.179
1124.544, 4318.590
1125.637, 4435.903
1126.730, 4462.162
1127.823, 4566.410
1128.915, 4700.365
1130.008, 4615.633
1131.100, 4677.020
1132.192, 4619.195
1133.284, 4579.326
1134.376, 4477.542
1135.467, 4126.170
1136.559, 3901.442
1137.650, 3679.741
1138.742, 3425.044
1139.833, 3277.376
1140.924, 3025.741
1142.014, 2689.139
1143.105, 2459.561
1144.195, 2310.252
1145.286, 2091.732
1146.376, 1920.242
1147.466, 1821.770
1148.556, 1612.311
1149.646, 1489.866
1150.735, 1369.437
1151.825, 1222.289
1152.914, 1086.892
1154.003, 1017.507
1155.092, 909.8999
1156.181, 804.3687
1157.270, 766.2986
1158.358, 772.4795
1159.447, 719.2290
1160.535, 688.9521
1161.623, 572.6882
1162.711, 583.4373
1163.799, 504.1982
1164.886, 581.9707
1165.974, 432.7542
1167.061, 488.5515
1168.148, 426.3599
1169.235, 413.2197
1170.322, 354.0508
1171.409, 346.8965
1172.496, 293.8042
1173.582, 338.2224
1174.669, 364.0952
1175.755, 369.9783
1176.841, 351.3232
1177.927, 330.7759
1179.012, 276.3960
1180.098, 295.4360
1181.183, 260.3701
1182.269, 271.3159
1183.354, 259.5491
1184.439, 232.5996
1185.524, 184.6812
1186.608, 205.5098
1187.693, 177.4993
1188.777, 151.5105
1189.862, 275.9670
1190.946, 177.4312
1192.030, 221.4521
1193.113, 216.8916
1194.197, 94.92749
1195.281, 133.9702
1196.364, 131.0200
1197.447, 114.0767
1198.530, 84.14014
1199.613, 91.21021
1200.696, 0.5358890
1201.779, 85.60938
1202.861, 67.69751
1203.944, 46.79126
1205.026, 107.1348
1206.108, 52.38354
1207.190, 72.49438
1208.271, 89.52393
1209.353, 57.74976
1210.435, 43.87622
1211.516, 1.993164
1212.597, 11.44849
1213.678, 56.28418
1214.759, 6.576416
1215.840, 4.569824
1216.920, 82.74292
1218.001, 50.89429
1219.081, 46.88818
1220.161, 9.251465
1221.241, 16.40552
1222.321, 83.55103
1223.401, 34.70117
1224.480, 19.14575
1225.560, 16.43701
1226.639, 14.41309
1227.718, 0.2661130
1228.797, 10.88403
1229.876, 47.03589
1230.955, 40.81030
1232.033, 18.67383
1233.112, 32.54492
1234.190, 62.57007
1235.268, 23.68604
1236.346, 75.19751
1237.424, 18.88184
1238.501, 83.03809
1239.579, 19.99976
1240.656, 59.96167
1241.733, 57.12451
1242.811, 1.230713
1243.888, 41.22656
1244.964, 51.24487
1246.041, 78.29175
1247.117, 50.61890
1248.194, 25.44580
1249.270, 0.5397950
1250.346, 47.40112
1251.422, 4.700928
1252.498, 24.81494
1253.573, 50.94629
1254.649, 1.892090
1255.724, 3.725342
1256.800, 55.55371
1257.875, 19.38013
1258.950, 60.79565
1260.024, 46.00977
1261.099, 36.74487
1262.173, 7.500732
1263.248, 46.28662
1264.322, 13.97241
1265.396, 53.86206
1266.470, 23.41675
1267.544, 31.35474
1268.617, 96.64697
1269.691, 62.43994
1270.764, 29.45605
1271.837, 53.14258
1272.910, 9.824951
1273.983, 85.51855
1275.056, 63.18945
1276.129, 24.85571
1277.201, 90.51685
1278.273, 74.24536
1279.346, 52.92871
1280.418, 12.73584
1281.489, 41.69702
1282.561, 28.39355
1283.633, 42.10767
1284.704, 7.730713
1285.776, 3.499756
1286.847, 6.905273
1287.918, 25.69946
1288.989, 42.27588
1290.059, 64.03711
1291.130, 34.98828
1292.200, 65.53638
1293.271, 96.12280
1294.341, 88.65747
1295.411, 34.53809
1296.481, 53.28662
1297.551, 31.92578
1298.620, 91.51440
1299.690, 85.01758
1300.759, 32.51270
1301.828, 2.933838
1302.897, 64.53149
1303.966, 73.08154
1305.035, 141.7107
1306.103, 42.15210
1307.172, 14.58472
1308.240, 34.00293
1309.308, 59.97998
1310.376, 60.84766
1311.444, 29.28906
1312.512, 38.70215
1313.580, 38.11157
1314.647, 14.46680
1315.714, 103.9094
1316.781, 47.23291
1317.848, 26.54688
1318.915, 12.14893
1319.982, 122.1370
1321.049, 29.41479
1322.115, 67.68140
1323.181, 120.9397
1324.248, 98.18750
1325.314, 77.41797
1326.380, 95.63940
1327.445, 56.93115
1328.511, 43.13477
1329.576, 51.30518
1330.642, 69.48901
1331.707, 131.6633
1332.772, 41.82837
1333.837, 47.98071
1334.902, 98.12305
