##NAMES=Beryl
##RRUFFID=R050065
##IDEAL CHEMISTRY=Be_3_Al_2_Si_6_O_18_
##LOCALITY=Xuebaoding, Sichuan Province, China
##OWNER=RRUFF
##SOURCE=Rock Currier
##DESCRIPTION=Light blue colored tabular single crystal
##STATUS=The identification of this mineral has been confirmed by X-ray diffraction and chemical analysis
##URL=rruff.info/R050065
##MEASURED CHEMISTRY=(Be_2.78_Li_0.22_)_Σ=3_Al_2.00_Si_6.00_O_18_·Na_0.22_
##PIN_ID=L00396
##ORIENTATION=Laser parallel to a* (1 0 0). Fiducial mark perpendicular to laser is parallel to c [0 0 1]
101.732, 0.000
103.124, 10.633
104.516, 254.377
105.908, 355.726
107.300, 352.017
108.691, 599.282
110.082, 556.668
111.473, 648.956
112.864, 1064.921
114.254, 1251.015
115.644, 1650.051
117.034, 1570.073
118.424, 1480.325
119.813, 1698.220
121.203, 1613.276
122.592, 1570.107
123.981, 1536.522
125.369, 1391.337
126.758, 1434.239
128.146, 1456.944
129.534, 1488.742
130.922, 1606.896
132.309, 1724.807
133.696, 1662.879
135.083, 1909.040
136.470, 1922.209
137.857, 1933.288
139.243, 1739.180
140.630, 1848.809
142.016, 1686.143
143.401, 1847.436
144.787, 1604.127
146.172, 1509.267
147.557, 1310.108
148.942, 1344.286
150.327, 1217.627
151.711, 1137.129
153.096, 1327.788
154.480, 1176.608
155.863, 1120.588
157.247, 1128.731
158.630, 930.040
160.013, 949.512
161.396, 888.144
162.779, 745.078
164.161, 787.651
165.544, 802.454
166.926, 708.756
168.308, 744.371
169.689, 668.205
171.070, 827.104
172.452, 796.037
173.833, 788.008
175.213, 903.017
176.594, 839.302
177.974, 754.146
179.354, 793.270
180.734, 711.438
182.114, 661.229
183.493, 772.158
184.872, 683.457
186.251, 692.694
187.630, 614.431
189.008, 551.451
190.387, 691.379
191.765, 610.734
193.143, 562.010
194.520, 357.137
195.898, 489.959
197.275, 455.861
198.652, 522.853
200.029, 348.932
201.405, 313.102
202.782, 117.361
204.158, 297.711
205.534, 445.158
206.909, 163.736
208.285, 207.462
209.660, 371.345
211.035, 101.350
212.410, 256.466
213.784, 153.701
215.159, 16.035
216.533, 219.451
217.907, 133.949
219.281, 174.529
220.654, 137.178
222.027, 232.217
223.400, 165.322
224.773, 264.473
226.146, 244.279
227.518, 329.793
228.891, 206.371
230.263, 276.643
231.634, 456.896
233.006, 259.850
234.377, 345.680
235.748, 580.018
237.119, 298.373
238.490, 542.793
239.860, 564.240
241.231, 729.715
242.601, 697.217
243.970, 864.742
245.340, 874.289
246.709, 797.855
248.079, 1125.447
249.448, 906.070
250.816, 952.748
252.185, 756.451
253.553, 659.203
254.921, 408.016
256.289, 169.908
257.657, 58.877
259.024, 29.877
260.391, 10.111
261.758, 34.992
263.125, 64.059
264.492, 45.000
265.858, 59.938
267.224, 88.352
268.590, 208.139
269.956, 53.338
271.321, 89.859
272.687, 132.801
274.052, 251.295
275.416, 18.574
276.781, 174.211
278.146, 136.711
279.510, 50.059
280.874, 17.928
282.237, 20.662
283.601, 133.164
284.964, 11.512
286.327, 148.305
287.690, 182.268
289.053, 238.391
290.416, 496.623
291.778, 347.002
293.140, 653.502
294.502, 528.139
295.863, 545.854
297.225, 632.641
298.586, 568.492
299.947, 551.400
301.308, 501.361
302.668, 539.371
304.029, 582.473
305.389, 587.572
306.749, 313.705
308.108, 783.174
309.468, 510.484
310.827, 740.518
312.186, 815.895
313.545, 989.170
314.903, 1348.824
316.262, 1642.936
317.620, 2105.303
318.978, 2588.623
320.336, 3247.672
321.693, 3766.451
323.051, 4314.469
324.408, 4033.629
325.765, 3938.410
327.121, 2929.371
328.478, 2163.240
329.834, 1562.023
331.190, 1042.035
332.546, 669.180
333.902, 666.498
335.257, 230.891
336.612, 194.812
337.967, 294.605
339.322, 11.938
340.677, 115.537
342.031, 159.152
343.385, 101.752
344.739, 16.000
346.093, 144.779
347.446, 82.566
348.799, 79.518
350.153, 5.381
351.505, 18.543
352.858, 61.381
354.210, 100.123
355.563, 75.148
356.915, 100.484
358.267, 66.857
359.618, 30.260
360.969, 1.316
362.321, 42.121
363.672, 82.414
365.022, 3.938
366.373, 70.555
367.723, 98.920
369.073, 0.379
370.423, 35.818
371.773, 143.242
373.122, 159.648
374.471, 255.279
375.821, 187.412
377.169, 399.770
378.518, 441.104
379.866, 457.420
381.215, 712.717
382.563, 708.994
383.910, 796.248
385.258, 970.477
386.605, 1415.633
387.952, 1556.711
389.299, 2155.738
390.646, 2524.477
391.992, 3272.449
393.339, 4160.174
394.685, 5126.080
396.031, 6662.598
397.376, 7221.010
398.722, 7844.418
400.067, 7537.754
401.412, 6558.988
402.757, 5865.166
404.101, 5501.119
405.446, 3536.133
406.790, 2501.311
408.134, 2004.648
409.478, 1697.178
410.821, 1316.436
412.165, 1013.107
413.508, 1036.578
414.851, 1007.107
416.193, 628.477
417.536, 873.111
418.878, 797.797
420.220, 687.639
421.562, 536.842
422.904, 703.203
424.245, 721.461
425.586, 650.738
426.927, 635.092
428.268, 418.254
429.609, 466.002
430.949, 376.600
432.289, 504.934
433.629, 527.143
434.969, 637.908
436.309, 364.439
437.648, 747.924
438.987, 906.348
440.326, 734.043
441.665, 989.043
443.003, 1220.938
444.342, 1408.678
445.680, 1290.174
447.018, 1440.262
448.355, 955.258
449.693, 926.564
451.030, 741.756
452.367, 933.723
453.704, 447.996
455.041, 489.018
456.377, 358.654
457.713, 391.887
459.049, 456.240
460.385, 280.494
461.721, 411.693
463.056, 325.902
464.391, 267.000
465.726, 387.473
467.061, 285.467
468.395, 111.729
469.730, 266.602
471.064, 19.189
472.398, 277.381
473.731, 39.158
475.065, 84.600
476.398, 72.846
477.731, 142.863
479.064, 103.076
480.397, 116.242
481.729, 237.150
483.062, 85.355
484.394, 117.678
485.725, 136.531
487.057, 212.217
488.389, 237.174
489.720, 142.066
491.051, 207.980
492.382, 190.830
493.712, 175.768
495.043, 171.562
496.373, 234.289
497.703, 265.951
499.032, 384.549
500.362, 312.838
501.691, 426.354
503.020, 223.402
504.349, 391.795
505.678, 389.650
507.007, 362.100
508.335, 411.645
509.663, 352.838
510.991, 656.809
512.319, 720.580
513.646, 832.607
514.973, 858.572
516.300, 1075.805
517.627, 1055.641
518.954, 955.082
520.280, 1276.240
521.607, 1261.754
522.933, 1341.143
524.259, 1312.754
525.584, 1290.164
526.910, 1437.838
528.235, 1366.264
529.560, 1397.219
530.885, 1443.955
532.209, 1290.562
533.534, 1465.736
534.858, 1391.850
536.182, 1330.896
537.506, 1286.883
538.829, 1310.811
540.152, 973.678
541.476, 1044.480
542.799, 562.219
544.121, 793.891
545.444, 740.502
546.766, 562.045
548.088, 587.523
549.410, 245.939
550.732, 555.285
552.053, 230.562
553.375, 129.770
554.696, 100.893
556.017, 155.928
557.337, 264.883
558.658, 274.770
559.978, 72.582
561.298, 305.301
562.618, 25.949
563.938, 178.484
565.257, 290.939
566.576, 111.674
567.895, 221.533
569.214, 256.662
570.533, 132.717
571.851, 142.689
573.170, 412.578
574.488, 228.396
575.805, 375.141
577.123, 190.539
578.440, 176.562
579.758, 524.381
581.075, 90.062
582.391, 167.418
583.708, 315.695
585.024, 35.584
586.341, 128.688
587.657, 271.713
588.972, 238.094
590.288, 129.010
591.603, 72.455
592.918, 75.223
594.233, 41.047
595.548, 84.568
596.863, 31.129
598.177, 33.535
599.491, 64.807
600.805, 85.527
602.119, 100.596
603.432, 155.064
604.746, 53.750
606.059, 95.330
607.372, 25.189
608.685, 328.150
609.997, 53.262
611.309, 11.158
612.621, 87.762
613.933, 417.033
615.245, 261.758
616.557, 460.406
617.868, 471.986
619.179, 495.500
620.490, 456.945
621.801, 717.324
623.111, 367.588
624.421, 628.826
625.731, 202.996
627.041, 499.795
628.351, 164.709
629.660, 24.004
630.970, 434.719
632.279, 111.605
633.588, 299.926
634.896, 80.734
636.205, 268.211
637.513, 156.672
638.821, 301.488
640.129, 454.643
641.437, 404.219
642.744, 257.592
644.051, 300.754
645.358, 458.193
646.665, 551.662
647.972, 518.646
649.278, 694.830
650.584, 473.977
651.890, 801.709
653.196, 696.363
654.502, 741.527
655.807, 823.557
657.113, 573.994
658.418, 878.049
659.722, 738.338
661.027, 769.975
662.331, 583.172
663.636, 1225.340
664.940, 806.385
666.244, 1326.084
667.547, 1321.402
668.851, 1706.344
670.154, 1860.223
671.457, 2221.039
672.760, 3122.791
674.062, 3471.699
675.365, 4374.373
676.667, 5615.000
677.969, 7279.629
679.271, 9552.938
680.572, 12450.680
681.874, 17022.088
683.175, 21762.443
684.476, 25513.752
685.777, 27926.131
687.077, 26760.324
688.378, 23822.455
689.678, 19068.521
690.978, 14658.535
692.278, 10556.486
693.577, 8957.373
694.877, 6572.145
696.176, 5480.914
697.475, 4131.617
698.774, 3741.266
700.072, 3076.850
701.371, 2385.375
702.669, 1966.842
703.967, 1983.248
705.265, 2032.598
706.562, 1539.146
707.860, 1150.379
709.157, 1259.717
710.454, 953.752
711.751, 1124.068
713.047, 779.404
714.344, 985.637
715.640, 617.852
716.936, 853.086
718.232, 768.301
719.527, 618.656
720.823, 637.873
722.118, 717.850
723.413, 457.158
724.708, 426.619
726.002, 664.273
727.297, 756.432
728.591, 548.713
729.885, 500.854
731.179, 477.076
732.472, 190.035
733.766, 257.771
735.059, 283.275
736.352, 297.334
737.645, 426.008
738.937, 477.217
740.230, 178.516
741.522, 342.199
742.814, 399.551
744.106, 224.508
745.397, 478.199
746.689, 148.395
747.980, 453.451
749.271, 244.207
750.562, 533.748
751.853, 254.682
753.143, 465.719
754.433, 236.982
755.723, 128.184
757.013, 524.094
758.303, 0.980
759.592, 385.160
760.881, 231.742
762.170, 324.551
763.459, 396.975
764.748, 126.436
766.036, 636.041
767.325, 80.266
768.613, 317.656
769.901, 456.357
771.188, 262.379
772.476, 373.203
773.763, 311.078
775.050, 246.869
776.337, 209.600
777.624, 216.361
778.910, 139.668
780.196, 284.375
781.482, 147.732
782.768, 149.391
784.054, 82.258
785.339, 277.416
786.625, 172.094
787.910, 361.586
789.195, 97.369
790.479, 124.291
791.764, 255.928
793.048, 48.525
794.332, 21.291
795.616, 204.680
796.900, 160.859
798.183, 174.578
799.467, 119.016
800.750, 130.256
802.033, 354.518
803.316, 232.506
804.598, 304.488
805.880, 156.268
807.163, 21.084
808.445, 9.887
809.726, 24.670
811.008, 57.441
812.289, 167.805
813.570, 186.850
814.851, 15.510
816.132, 37.107
817.413, 191.289
818.693, 67.203
819.973, 11.312
821.253, 69.850
822.533, 277.568
823.813, 38.977
825.092, 92.373
826.371, 170.758
827.650, 52.865
828.929, 154.479
830.208, 82.816
831.486, 3.146
832.764, 143.535
834.042, 170.285
835.320, 18.885
836.598, 186.045
837.875, 96.203
839.152, 2.646
840.429, 401.496
841.706, 6.633
842.983, 26.766
844.259, 252.893
845.536, 55.020
846.812, 153.143
848.088, 63.738
849.363, 297.363
850.639, 340.463
851.914, 199.562
853.189, 120.660
854.464, 265.760
855.739, 173.227
857.013, 203.959
858.288, 209.062
859.562, 399.168
860.836, 469.281
862.110, 308.396
863.383, 379.520
864.656, 138.658
865.930, 282.814
867.203, 352.984
868.475, 248.164
869.748, 337.256
871.020, 155.566
872.292, 307.787
873.564, 309.043
874.836, 222.311
876.108, 34.408
877.379, 488.936
878.650, 132.295
879.922, 232.711
881.192, 284.150
882.463, 286.607
883.733, 187.078
885.004, 6.436
886.274, 228.342
887.544, 367.438
888.813, 29.676
890.083, 314.004
891.352, 348.592
892.621, 254.201
893.890, 360.154
895.159, 236.820
896.427, 123.516
897.695, 495.809
898.964, 269.547
900.232, 374.605
901.499, 95.438
902.767, 346.078
904.034, 217.992
905.301, 412.812
906.568, 534.801
907.835, 493.727
909.102, 242.254
910.368, 384.422
911.634, 630.758
912.900, 483.035
914.166, 747.352
915.432, 289.711
916.697, 202.129
917.962, 649.250
919.227, 318.762
920.492, 392.906
921.757, 419.551
923.021, 594.227
924.285, 640.930
925.550, 318.660
926.813, 439.414
928.077, 439.195
929.341, 481.000
930.604, 504.836
931.867, 315.695
933.130, 374.586
934.393, 479.504
935.655, 181.453
936.918, 615.297
938.180, 274.352
939.442, 343.309
940.703, 588.430
941.965, 434.574
943.226, 569.367
944.488, 208.012
945.749, 540.133
947.009, 336.156
948.270, 120.488
949.530, 284.852
950.791, 318.773
952.051, 171.207
953.311, 339.148
954.570, 79.723
955.830, 376.281
957.089, 335.707
958.348, 175.336
959.607, 442.930
960.866, 102.445
962.124, 181.230
963.383, 231.070
964.641, 152.965
965.899, 539.918
967.156, 200.887
968.414, 193.914
969.671, 362.941
970.928, 169.047
972.185, 399.555
973.442, 347.312
974.699, 531.531
975.955, 344.812
977.211, 257.137
978.468, 422.523
979.723, 522.750
980.979, 277.230
982.234, 827.746
983.490, 78.301
984.745, 704.152
986.000, 655.562
987.254, 533.289
988.509, 728.055
989.763, 568.883
991.017, 834.645
992.271, 861.574
993.525, 1099.551
994.779, 1288.570
996.032, 1579.688
997.285, 2028.852
998.538, 1715.070
999.791, 2702.398
1001.044, 2273.719
1002.296, 3021.078
1003.548, 3091.488
1004.800, 3097.977
1006.052, 3654.512
1007.304, 3592.098
1008.555, 3998.750
1009.807, 4155.457
1011.058, 4142.203
1012.309, 4149.082
1013.559, 3983.043
1014.810, 3860.051
1016.060, 3813.133
1017.310, 3818.258
1018.560, 3331.426
1019.810, 3009.656
1021.060, 3262.938
1022.309, 2897.266
1023.558, 2747.645
1024.807, 2421.062
1026.056, 2623.551
1027.305, 2313.508
1028.553, 2489.078
1029.801, 2223.453
1031.049, 1964.152
1032.297, 2101.902
1033.545, 2377.695
1034.793, 2196.539
1036.040, 2268.387
1037.287, 2233.445
1038.534, 2608.480
1039.781, 2906.559
1041.027, 3057.566
1042.274, 2917.871
1043.520, 3473.102
1044.766, 3412.379
1046.012, 3496.711
1047.257, 3945.086
1048.503, 4671.512
1049.748, 4475.980
1050.993, 5479.492
1052.238, 6002.055
1053.483, 6312.172
1054.727, 7213.812
1055.971, 8063.609
1057.216, 9048.340
1058.459, 10377.113
1059.703, 11407.922
1060.947, 12949.773
1062.190, 14349.676
1063.433, 15305.625
1064.676, 16226.609
1065.919, 16683.633
1067.162, 17996.691
1068.404, 17216.789
1069.646, 17165.922
1070.888, 17254.094
1072.130, 16134.301
1073.372, 15634.543
1074.613, 14891.812
1075.855, 13472.305
1077.096, 12411.648
1078.337, 11964.020
1079.578, 10550.422
1080.818, 9784.852
1082.059, 8765.316
1083.299, 8319.809
1084.539, 7320.332
1085.779, 6728.402
1087.018, 6225.984
1088.258, 5469.594
1089.497, 5198.277
1090.736, 4698.988
1091.975, 4283.730
1093.213, 3888.492
1094.452, 3716.145
1095.690, 3339.086
1096.928, 3577.918
1098.166, 3236.777
1099.404, 3306.660
1100.642, 2645.605
1101.879, 2954.969
1103.116, 2481.957
1104.353, 2747.180
1105.590, 2490.734
1106.827, 2593.957
1108.063, 2223.844
1109.299, 2681.273
1110.536, 2311.305
1111.771, 2273.691
1113.007, 2225.008
1114.243, 2243.215
1115.478, 1936.605
1116.713, 2084.012
1117.948, 2363.449
1119.183, 1718.773
1120.418, 2232.133
1121.652, 1925.660
1122.886, 2065.211
1124.120, 2016.309
1125.354, 1730.062
1126.588, 1866.164
1127.821, 1643.277
1129.055, 1884.223
1130.288, 1852.836
1131.521, 1974.504
1132.753, 1523.348
1133.986, 1482.473
1135.218, 2299.172
1136.450, 1527.305
1137.682, 2217.492
1138.914, 1792.449
1140.146, 1798.855
1141.377, 1524.633
1142.609, 1565.340
1143.840, 1874.527
1145.071, 1804.016
1146.301, 1675.879
1147.532, 1655.699
1148.762, 1482.488
1149.992, 1155.852
1151.222, 1335.434
1152.452, 1307.113
1153.682, 971.742
1154.911, 1323.961
1156.140, 734.750
1157.369, 668.512
1158.598, 792.520
1159.827, 830.375
1161.055, 503.082
1162.284, 609.910
1163.512, 383.328
1164.740, 377.578
1165.967, 83.031
1167.195, 615.277
1168.422, 355.953
1169.650, 311.273
1170.877, 166.434
1172.103, 106.445
1173.330, 68.969
1174.557, 423.859
1175.783, 452.902
1177.009, 249.211
1178.235, 358.191
1179.461, 82.391
1180.686, 56.824
1181.912, 355.969
1183.137, 340.633
1184.362, 5.891
1185.587, 289.703
1186.811, 293.188
1188.036, 237.777
1189.260, 384.992
1190.484, 122.496
1191.708, 509.211
1192.932, 177.633
1194.155, 192.770
1195.378, 185.527
1196.602, 251.465
1197.825, 64.984
1199.047, 509.730
1200.270, 27.461
1201.492, 648.656
1202.715, 5.965
1203.937, 208.785
1205.159, 299.406
1206.380, 289.711
1207.602, 364.828
1208.823, 365.445
1210.044, 319.414
1211.265, 320.691
1212.486, 222.820
1213.707, 91.930
1214.927, 360.227
1216.147, 86.152
1217.367, 360.242
1218.587, 343.234
1219.807, 271.016
1221.027, 244.125
1222.246, 33.605
1223.465, 247.969
1224.684, 123.750
1225.903, 242.445
1227.121, 109.586
1228.340, 368.680
1229.558, 427.680
1230.776, 267.527
1231.994, 64.676
1233.212, 570.039
1234.429, 138.758
1235.646, 139.211
1236.864, 683.543
1238.081, 128.781
1239.297, 407.926
1240.514, 471.980
1241.730, 391.949
1242.947, 540.262
1244.163, 205.641
1245.378, 429.344
1246.594, 355.977
1247.810, 91.496
1249.025, 383.914
1250.240, 137.238
1251.455, 64.461
1252.670, 300.582
1253.885, 23.617
1255.099, 136.559
1256.313, 231.586
1257.527, 160.113
1258.741, 236.719
1259.955, 133.762
1261.168, 216.641
1262.382, 203.953
1263.595, 214.879
1264.808, 30.125
1266.021, 30.199
1267.233, 253.191
1268.446, 302.113
1269.658, 70.031
1270.870, 173.723
1272.082, 51.586
1273.294, 96.027
1274.505, 1.258
1275.716, 240.383
1276.928, 135.594
1278.139, 177.254
1279.349, 119.988
1280.560, 316.645
1281.770, 132.266
1282.981, 42.023
1284.191, 19.531
1285.401, 99.945
1286.610, 67.371
1287.820, 82.742
1289.029, 154.930
1290.239, 132.402
1291.448, 16.648
1292.656, 2.855
1293.865, 120.035
1295.073, 212.977
1296.282, 174.445
1297.490, 79.332
1298.698, 81.434
1299.906, 115.180
1301.113, 25.125
1302.320, 189.543
1303.528, 144.766
1304.735, 248.816
1305.942, 68.488
1307.148, 193.652
1308.355, 27.156
1309.561, 425.973
1310.767, 142.051
1311.973, 62.070
1313.179, 54.051
1314.384, 470.344
1315.590, 117.102
1316.795, 227.973
1318.000, 24.812
1319.205, 274.629
1320.410, 248.410
1321.614, 39.836
1322.819, 480.895
1324.023, 150.605
1325.227, 574.043
1326.431, 164.730
1327.634, 56.594
1328.838, 156.082
1330.041, 220.539
1331.244, 446.164
1332.447, 159.801
1333.650, 135.453
1334.852, 259.133
1336.055, 168.844
1337.257, 282.594
1338.459, 206.004
1339.661, 241.340
1340.862, 381.488
1342.064, 246.301
1343.265, 391.609
1344.466, 351.984
1345.667, 290.305
1346.868, 642.652
1348.068, 384.051
1349.269, 232.105
1350.469, 600.133
1351.669, 465.988
1352.869, 616.469
1354.069, 815.688
1355.268, 239.078
1356.468, 625.168
1357.667, 739.047
1358.866, 364.152
1360.065, 534.348
1361.263, 391.281
1362.462, 376.855
1363.660, 762.523
1364.858, 316.082
1366.056, 418.125
1367.254, 649.488
1368.451, 590.848
1369.649, 336.840
1370.846, 571.066
1372.043, 543.938
1373.240, 574.621
1374.436, 502.996
1375.633, 685.977
1376.829, 624.871
1378.025, 212.238
1379.221, 597.082
1380.417, 331.680
1381.613, 346.957
1382.808, 554.195
1384.003, 902.129
1385.199, 909.402
1386.393, 757.730
1387.588, 954.781
1388.783, 595.664
1389.977, 754.711
1391.171, 366.520
1392.365, 374.906
1393.559, 426.953
1394.753, 184.992
1395.946, 412.184
1397.140, 329.578
1398.333, 586.117
1399.526, 186.137
1400.719, 250.383
1401.911, 181.480
1403.104, 378.461
1404.296, 152.020
1405.488, 409.910
1406.680, 64.023
1407.872, 66.211
1409.063, 437.758
1410.255, 131.773
1411.446, 323.539
1412.637, 93.973
1413.828, 264.133
1415.018, 229.273
1416.209, 170.449
1417.399, 144.609
1418.589, 335.836
1419.779, 116.742
1420.969, 238.051
1422.159, 94.746
1423.348, 266.059
1424.537, 231.586
1425.726, 0.000
##END=



