##NAMES=Beryl
##RRUFFID=R050347
##IDEAL CHEMISTRY=Be_3_Al_2_Si_6_O_18_
##LOCALITY=North Keystone, South Dakota, USA
##OWNER=RRUFF
##SOURCE=California Institute of Technology
##DESCRIPTION=Colorless fragment
##STATUS=The identification of this mineral has been confirmed by X-ray diffraction and chemical analysis
##URL=rruff.info/R050347
##MEASURED CHEMISTRY=(Be_0.96_Li_0.04_)_3_Al_2.00_(Si_0.99_Al_0.01_)_6_O_18_ Î‡0.17Na
##PIN_ID=L01036
##ORIENTATION=Laser parallel to a* (1 0 0). Fiducial mark perpendicular to laser is parallel to c [0 0 1]
120.5960, 0.0000000E+00
121.8270, 102.3613
123.0580, 333.6602
124.2880, 373.4072
125.5190, 8.022461
126.7490, 195.2549
127.9790, 131.0264
129.2090, 239.7256
130.4390, 299.5703
131.6680, 248.0146
132.8980, 289.9902
134.1270, 503.8701
135.3560, 271.7471
136.5850, 493.8711
137.8140, 503.7988
139.0430, 761.2637
140.2710, 691.0986
141.5000, 741.2012
142.7280, 474.9785
143.9560, 432.3984
145.1840, 309.8203
146.4120, 370.4102
147.6390, 417.8125
148.8670, 401.2275
150.0940, 308.7344
151.3210, 435.5674
152.5490, 396.9482
153.7750, 415.0088
155.0020, 449.8955
156.2290, 356.5879
157.4550, 382.1914
158.6810, 292.8535
159.9080, 529.5557
161.1340, 384.3574
162.3590, 399.3506
163.5850, 751.6387
164.8110, 803.9521
166.0360, 1047.734
167.2610, 1069.575
168.4860, 1006.074
169.7110, 1064.185
170.9360, 1172.309
172.1610, 1037.415
173.3850, 990.9961
174.6100, 819.5029
175.8340, 868.5664
177.0580, 798.2529
178.2820, 996.3037
179.5050, 909.6465
180.7290, 999.8164
181.9520, 1066.764
183.1760, 1007.961
184.3990, 1060.957
185.6220, 999.3301
186.8450, 1088.021
188.0670, 1092.273
189.2900, 1112.219
190.5120, 1061.054
191.7340, 1282.178
192.9560, 1248.807
194.1780, 1359.420
195.4000, 1308.917
196.6220, 1304.971
197.8430, 1283.957
199.0640, 1411.912
200.2860, 1546.935
201.5070, 1536.068
202.7270, 1805.306
203.9480, 1261.635
205.1690, 736.0469
206.3890, 161.5342
207.6090, 49.08691
208.8290, 50.30273
210.0490, 67.64551
211.2690, 95.94531
212.4890, 116.0938
213.7080, 124.1641
214.9280, 104.6455
216.1470, 71.82910
217.3660, 51.00391
218.5850, 115.8125
219.8030, 23.61133
221.0220, 11.60645
222.2400, 45.84570
223.4590, 115.8965
224.6770, 35.61914
225.8950, 142.3242
227.1120, 198.0117
228.3300, 156.3477
229.5480, 195.2432
230.7650, 276.6240
231.9820, 226.5635
233.1990, 226.1992
234.4160, 317.1260
235.6330, 267.2256
236.8490, 344.1025
238.0660, 201.5234
239.2820, 312.7266
240.4980, 219.1133
241.7140, 282.9473
242.9300, 122.6025
244.1460, 142.2891
245.3610, 188.8789
246.5770, 220.4902
247.7920, 246.2148
249.0070, 250.0039
250.2220, 259.2988
251.4370, 227.4238
252.6510, 226.1396
253.8660, 196.8438
255.0800, 119.5322
256.2940, 23.20020
257.5080, 272.8535
258.7220, 513.4990
259.9360, 332.5664
261.1490, 661.7666
262.3630, 175.3662
263.5760, 171.9707
264.7890, 295.5723
266.0020, 234.1650
267.2150, 225.2490
268.4270, 158.9961
269.6400, 204.3818
270.8520, 178.7646
272.0640, 244.0322
273.2760, 368.3604
274.4880, 332.6426
275.7000, 352.8721
276.9120, 390.9697
278.1230, 396.1455
279.3340, 458.1787
280.5450, 505.1338
281.7560, 622.0029
282.9670, 699.7871
284.1780, 807.0439
285.3880, 978.0977
286.5980, 1058.630
287.8090, 1302.083
289.0190, 1485.454
290.2290, 1628.718
291.4380, 1701.858
292.6480, 1710.873
293.8570, 1528.768
295.0670, 1227.551
296.2760, 1057.231
297.4850, 988.8145
298.6930, 862.8164
299.9020, 804.7148
301.1110, 847.0420
302.3190, 863.2949
303.5270, 993.4756
304.7350, 986.5898
305.9430, 960.6426
307.1510, 1146.635
308.3580, 1141.571
309.5660, 1399.432
310.7730, 1507.066
311.9800, 1772.369
313.1870, 2110.297
314.3940, 2439.922
315.6010, 2762.402
316.8070, 2974.751
318.0130, 3436.980
319.2200, 3955.165
320.4260, 4228.318
321.6310, 4495.449
322.8370, 4360.564
324.0430, 3813.667
325.2480, 2995.805
326.4540, 2393.934
327.6590, 1712.045
328.8640, 1367.133
330.0680, 900.2432
331.2730, 547.3076
332.4780, 589.3584
333.6820, 306.3896
334.8860, 196.3945
336.0900, 282.3975
337.2940, 107.3945
338.4980, 166.4912
339.7010, 343.4941
340.9050, 261.4561
342.1080, 277.4062
343.3110, 210.3555
344.5140, 190.8496
345.7170, 246.7920
346.9200, 275.7334
348.1220, 253.3818
349.3240, 225.7959
350.5270, 235.8936
351.7290, 272.5918
352.9310, 299.0674
354.1320, 290.3516
355.3340, 273.9043
356.5350, 268.2041
357.7370, 232.5439
358.9380, 152.5029
360.1390, 204.8018
361.3400, 229.3604
362.5400, 208.4824
363.7410, 335.5059
364.9410, 274.5459
366.1410, 283.7422
367.3410, 198.2119
368.5410, 225.5059
369.7410, 312.7861
370.9400, 310.1992
372.1400, 307.6387
373.3390, 422.0762
374.5380, 496.6592
375.7370, 554.1797
376.9360, 742.3018
378.1350, 740.6250
379.3330, 894.9990
380.5310, 1077.166
381.7300, 1407.658
382.9280, 1774.524
384.1260, 2171.898
385.3230, 2598.887
386.5210, 3392.152
387.7180, 4605.436
388.9160, 5410.902
390.1130, 6950.778
391.3100, 8503.827
392.5060, 10645.99
393.7030, 12441.19
394.9000, 14252.43
396.0960, 15797.75
397.2920, 16144.27
398.4880, 15354.28
399.6840, 13755.73
400.8800, 11863.95
402.0750, 9671.634
403.2710, 7595.635
404.4660, 6167.261
405.6610, 4843.046
406.8560, 3936.033
408.0510, 3354.018
409.2450, 2821.130
410.4400, 2521.854
411.6340, 2473.998
412.8280, 2366.900
414.0220, 2428.977
415.2160, 2624.927
416.4100, 2592.139
417.6030, 2897.814
418.7970, 3178.360
419.9900, 3154.972
421.1830, 3207.593
422.3760, 3075.067
423.5690, 2978.783
424.7610, 2555.353
425.9540, 2145.904
427.1460, 1697.439
428.3380, 1517.960
429.5300, 1207.465
430.7220, 1142.955
431.9140, 1026.429
433.1050, 1106.889
434.2970, 1048.335
435.4880, 1042.767
436.6790, 1091.188
437.8700, 1124.594
439.0610, 1303.988
440.2510, 1198.371
441.4420, 1211.744
442.6320, 1242.104
443.8220, 1069.454
445.0120, 999.7949
446.2020, 950.1270
447.3910, 827.4482
448.5810, 787.7598
449.7700, 728.0615
450.9600, 601.3564
452.1490, 522.6416
453.3370, 531.9189
454.5260, 368.1885
455.7150, 297.4521
456.9030, 333.7119
458.0910, 258.0176
459.2800, 211.2725
460.4670, 196.6543
461.6550, 195.0830
462.8430, 205.5859
464.0300, 195.8340
465.2180, 171.9971
466.4050, 159.3584
467.5920, 167.5674
468.7790, 125.9629
469.9650, 154.8760
471.1520, 148.1152
472.3380, 116.3760
473.5250, 157.6113
474.7110, 176.8477
475.8970, 187.3496
477.0820, 169.2891
478.2680, 212.0439
479.4540, 132.1660
480.6390, 91.56152
481.8240, 18.79004
483.0090, 231.4209
484.1940, 120.4658
485.3780, 150.5830
486.5630, 31.57520
487.7470, 141.1729
488.9320, 196.1602
490.1160, 65.27344
491.3000, 121.2988
492.4830, 69.21387
493.6670, 3.824219
494.8500, 51.42578
496.0340, 65.62012
497.2170, 14.85059
498.4000, 122.1172
499.5820, 66.48730
500.7650, 50.80957
501.9480, 79.09766
503.1300, 4.255859
504.3120, 84.27734
505.4940, 48.17578
506.6760, 187.3584
507.8580, 93.02637
509.0390, 5.433594
510.2210, 21.85840
511.4020, 135.7021
512.5830, 60.68262
513.7640, 180.9287
514.9450, 106.6299
516.1250, 14.37793
517.3060, 17.86719
518.4860, 63.61035
519.6660, 14.35742
520.8460, 103.6025
522.0260, 150.8496
523.2060, 157.0967
524.3850, 240.3438
525.5650, 267.5938
526.7440, 315.8438
527.9230, 232.0947
529.1020, 216.3467
530.2810, 234.6074
531.4590, 271.8945
532.6380, 243.2012
533.8160, 275.5156
534.9940, 125.8320
536.1720, 237.2012
537.3500, 36.57129
538.5270, 5.8594000E-02
539.7050, 141.3086
540.8820, 118.6768
542.0590, 151.0488
543.2360, 4.440430
544.4130, 30.85938
545.5900, 193.2793
546.7660, 113.7197
547.9430, 235.1748
549.1190, 125.6357
550.2950, 301.1191
551.4710, 264.6025
552.6470, 268.0996
553.8220, 293.6279
554.9980, 297.1592
556.1730, 456.6895
557.3480, 578.2246
558.5230, 1746.759
559.6980, 1190.914
560.8730, 1884.850
562.0470, 773.3945
563.2220, 704.9365
564.3960, 761.4912
565.5700, 776.0557
566.7440, 662.6416
567.9170, 884.2256
569.0910, 934.8223
570.2640, 869.4316
571.4380, 1075.040
572.6110, 1183.654
573.7840, 1196.271
574.9570, 1330.886
576.1290, 1375.499
577.3020, 1362.116
578.4740, 1399.150
579.6460, 1470.359
580.8180, 1329.986
581.9900, 1270.611
583.1620, 1150.025
584.3330, 823.8604
585.5040, 873.4834
586.6760, 691.1055
587.8470, 453.7256
589.0180, 522.3428
590.1880, 379.9600
591.3590, 277.5732
592.5290, 254.1875
593.7000, 204.7988
594.8700, 177.4189
596.0400, 261.0391
597.2090, 138.6670
598.3790, 65.29297
599.5490, 214.9170
600.7180, 16.46094
601.8870, 66.85352
603.0560, 16.71484
604.2250, 81.27832
605.3940, 11.16016
606.5620, 35.38965
607.7300, 189.0645
608.8990, 45.37500
610.0670, 25.19238
611.2350, 154.2256
612.4020, 71.65430
613.5700, 140.0439
614.7370, 76.46777
615.9050, 242.8887
617.0720, 183.3057
618.2390, 313.7207
619.4060, 274.1348
620.5720, 345.5449
621.7390, 297.8428
622.9050, 295.2256
624.0710, 256.6328
625.2370, 191.0381
626.4030, 186.8301
627.5690, 97.29297
628.7340, 166.6934
629.9000, 174.0898
631.0650, 222.2920
632.2300, 112.6826
633.3950, 154.9033
634.5600, 45.72363
635.7240, 165.8701
636.8890, 168.0752
638.0530, 192.0674
639.2170, 62.43750
640.3810, 263.6436
641.5450, 164.7822
642.7080, 110.8643
643.8720, 190.8027
645.0350, 247.5391
646.1980, 145.6592
647.3610, 287.9072
648.5240, 174.2100
649.6870, 295.1426
650.8490, 204.1416
652.0120, 186.5996
653.1740, 187.7568
654.3360, 216.8438
655.4980, 356.6289
656.6600, 387.0820
657.8210, 449.0557
658.9830, 585.6016
660.1440, 593.5762
661.3050, 666.8604
662.4660, 794.1416
663.6270, 916.4180
664.7870, 1033.688
665.9480, 1268.956
667.1080, 1717.219
668.2680, 1772.477
669.4280, 2361.574
670.5880, 2747.882
671.7480, 3445.727
672.9070, 4260.607
674.0670, 5323.861
675.2260, 7052.568
676.3850, 8831.888
677.5440, 11591.92
678.7030, 15122.75
679.8610, 19297.96
681.0200, 24559.20
682.1780, 30214.55
683.3360, 35841.66
684.4940, 40170.30
685.6520, 40208.65
686.8090, 37399.48
687.9670, 31655.52
689.1240, 25808.97
690.2810, 20089.15
691.4380, 15561.16
692.5950, 12156.50
693.7520, 9718.645
694.9080, 7932.789
696.0650, 6604.518
697.2210, 5388.644
698.3770, 4829.090
699.5330, 4230.826
700.6880, 3668.923
701.8440, 3217.035
702.9990, 2817.453
704.1550, 2570.749
705.3100, 2224.138
706.4650, 2086.188
707.6190, 1927.213
708.7740, 1731.690
709.9290, 1626.705
711.0830, 1590.267
712.2370, 1328.049
713.3910, 1253.030
714.5450, 1077.001
715.6980, 1052.953
716.8520, 1158.898
718.0050, 994.0742
719.1580, 993.9971
720.3110, 859.9082
721.4640, 916.8066
722.6170, 859.3486
723.7700, 723.2246
724.9220, 789.0869
726.0740, 492.9512
727.2260, 608.7891
728.3780, 629.6152
729.5300, 738.4287
730.6810, 635.2295
731.8330, 522.0186
732.9840, 592.5430
734.1350, 589.3076
735.2860, 592.3809
736.4370, 513.1191
737.5880, 537.7959
738.7380, 659.5088
739.8880, 524.0791
741.0390, 668.5898
742.1890, 716.0107
743.3380, 480.6729
744.4880, 518.4082
745.6380, 502.8701
746.7870, 450.5713
747.9360, 450.0498
749.0850, 371.9805
750.2340, 405.7188
751.3830, 372.2725
752.5310, 498.8379
753.6800, 627.3877
754.8280, 817.9307
755.9760, 641.4590
757.1240, 663.9766
758.2720, 720.4824
759.4190, 724.9756
760.5670, 722.4570
761.7140, 910.9336
762.8610, 929.3945
764.0080, 1004.846
765.1550, 906.2842
766.3020, 1096.719
767.4480, 1152.141
768.5950, 957.5508
769.7410, 1011.947
770.8870, 858.3340
772.0330, 631.7090
773.1780, 781.9492
774.3240, 669.3027
775.4690, 557.6465
776.6140, 404.9785
777.7590, 409.2441
778.9040, 327.6133
780.0490, 355.8525
781.1940, 289.1582
782.3380, 356.4541
783.4820, 383.7588
784.6260, 303.0527
785.7700, 250.3828
786.9140, 187.7002
788.0580, 200.0078
789.2010, 201.3057
790.3450, 277.6260
791.4880, 225.9346
792.6310, 161.2773
793.7730, 95.63574
794.9160, 79.17676
796.0590, 31.32617
797.2010, 73.65137
798.3430, 109.9648
799.4850, 164.2676
800.6270, 141.5586
801.7690, 140.8379
802.9100, 138.0469
804.0520, 184.3613
805.1930, 83.60547
806.3340, 15.83887
807.4750, 51.49316
808.6160, 28.33691
809.7560, 2.775391
810.8970, 118.8613
812.0370, 170.0654
813.1770, 55.88965
814.3170, 99.83301
815.4570, 260.7656
816.5960, 80.68848
817.7360, 149.3311
818.8750, 4.768555
820.0140, 85.90137
821.1530, 24.89551
822.2920, 53.32617
823.4310, 29.60449
824.5690, 18.07324
825.7070, 55.49023
826.8460, 75.11035
827.9840, 17.02246
829.1220, 86.47070
830.2590, 113.0088
831.3970, 110.1699
832.5340, 24.62695
833.6710, 114.0664
834.8080, 9.505859
835.9450, 21.89062
837.0820, 162.2695
838.2190, 50.63770
839.3550, 20.00586
840.4910, 16.68555
841.6270, 59.48047
842.7630, 49.82715
843.8990, 22.95508
845.0350, 30.77441
846.1700, 57.36523
847.3060, 1.505859
848.4410, 11.59766
849.5760, 97.68359
850.7100, 39.76074
851.8450, 5.827148
852.9800, 75.87305
854.1140, 31.08887
855.2480, 231.9102
856.3820, 87.89941
857.5160, 265.8789
858.6500, 8.850586
859.7830, 63.80566
860.9170, 47.75293
862.0500, 28.69043
863.1830, 80.62012
864.3160, 66.54102
865.4480, 122.4541
866.5810, 38.35840
867.7130, 34.25488
868.8460, 29.85547
869.9780, 71.00098
871.1100, 24.15039
872.2410, 56.66992
873.3730, 86.48145
874.5050, 149.2871
875.6360, 88.08496
876.7670, 97.88281
877.8980, 54.69238
879.0290, 60.16602
880.1590, 68.94434
881.2900, 99.08984
882.4200, 101.8799
883.5500, 165.7158
884.6800, 189.5459
885.8100, 44.62109
886.9400, 111.1768
888.0690, 337.9688
889.1990, 107.7578
890.3280, 52.54102
891.4570, 214.3174
892.5860, 169.0898
893.7140, 453.8584
894.8430, 333.1514
895.9710, 230.3799
897.1000, 286.1348
898.2280, 108.8848
899.3560, 306.6299
900.4830, 253.3721
901.6110, 370.1123
902.7380, 246.8506
903.8660, 355.5840
904.9930, 557.3154
906.1200, 301.0459
907.2460, 365.7754
908.3730, 580.5215
909.5000, 409.2666
910.6260, 384.0088
911.7520, 539.7471
912.8780, 484.4844
914.0040, 577.2236
915.1290, 507.9619
916.2550, 477.7031
917.3800, 341.4424
918.5050, 475.1797
919.6300, 253.9150
920.7550, 253.6494
921.8800, 346.3809
923.0040, 172.1113
924.1290, 171.8389
925.2530, 252.5674
926.3770, 192.2930
927.5010, 183.0176
928.6250, 239.7412
929.7480, 164.4639
930.8720, 177.1836
931.9950, 83.52051
933.1180, 103.2188
934.2410, 203.9385
935.3640, 202.6562
936.4860, 217.4141
937.6090, 287.0918
938.7310, 163.8086
939.8530, 179.5273
940.9750, 69.24512
942.0970, 93.88184
943.2180, 98.75977
944.3400, 143.8594
945.4610, 151.9189
946.5820, 31.60254
947.7030, 25.82812
948.8240, 96.43750
949.9450, 59.12891
951.0650, 212.8232
952.1860, 73.48047
953.3060, 224.1953
954.4260, 67.73633
955.5460, 21.19922
956.6650, 110.2441
957.7850, 85.78711
958.9040, 49.83594
960.0230, 35.31055
961.1420, 6.791992
962.2610, 18.18066
963.3800, 27.68555
964.4990, 21.21680
965.6170, 64.05859
966.7350, 103.6562
967.8530, 138.7900
968.9710, 245.5205
970.0890, 116.9307
971.2070, 185.0488
972.3240, 136.8037
973.4410, 112.0947
974.5580, 173.4170
975.6750, 84.52930
976.7920, 224.9893
977.9090, 243.7852
979.0250, 251.6094
980.1410, 165.9785
981.2580, 367.8105
982.3740, 381.0938
983.4890, 288.1582
984.6050, 562.0234
985.7200, 408.8975
986.8360, 747.7891
987.9510, 717.6865
989.0660, 822.3564
990.1810, 972.2803
991.2950, 984.2168
992.4100, 1138.674
993.5240, 1241.470
994.6390, 1368.443
995.7530, 1624.449
996.8660, 1739.453
997.9800, 1888.492
999.0940, 2064.545
1000.207, 2482.610
1001.320, 2518.690
1002.433, 2603.783
1003.546, 2626.143
1004.659, 2618.264
1005.772, 2746.084
1006.884, 2683.239
1007.996, 2954.410
1009.108, 2951.602
1010.220, 2994.809
1011.332, 2989.030
1012.444, 2737.280
1013.555, 2541.547
1014.666, 2376.826
1015.777, 2114.123
1016.888, 1981.436
1017.999, 1602.769
1019.110, 1414.117
1020.220, 1303.334
1021.331, 1030.719
1022.441, 1094.122
1023.551, 907.5400
1024.661, 798.9756
1025.770, 862.4336
1026.880, 749.9082
1027.989, 701.3984
1029.098, 563.9072
1030.207, 630.4336
1031.316, 543.9746
1032.425, 510.5352
1033.533, 468.1133
1034.642, 477.4355
1035.750, 454.8184
1036.858, 337.6797
1037.966, 439.3281
1039.073, 489.8945
1040.181, 471.6055
1041.288, 367.2090
1042.396, 497.9316
1043.503, 469.6699
1044.610, 572.4277
1045.716, 575.2031
1046.823, 691.2852
1047.929, 676.1035
1049.036, 796.5078
1050.142, 971.0117
1051.248, 1022.893
1052.353, 1164.793
1053.459, 1298.719
1054.564, 1569.664
1055.670, 1781.629
1056.775, 2096.613
1057.880, 2382.619
1058.985, 2693.645
1060.089, 3185.688
1061.194, 3759.750
1062.298, 3961.834
1063.402, 4409.938
1064.506, 5032.062
1065.610, 5074.207
1066.713, 5366.375
1067.817, 5665.559
1068.920, 5567.766
1070.023, 5236.994
1071.126, 5307.242
1072.229, 4998.518
1073.332, 4506.820
1074.435, 4409.139
1075.537, 3965.029
1076.639, 3647.416
1077.741, 3488.840
1078.843, 3086.301
1079.945, 2727.779
1081.046, 2725.336
1082.148, 2435.914
1083.249, 2196.512
1084.350, 2169.129
1085.451, 1809.039
1086.551, 1693.723
1087.652, 1606.438
1088.752, 1346.215
1089.853, 1322.037
1090.953, 1185.904
1092.053, 978.8086
1093.152, 1058.961
1094.252, 878.9375
1095.351, 770.6582
1096.451, 783.6914
1097.550, 731.7754
1098.649, 768.1895
1099.748, 780.3184
1100.846, 624.4727
1101.945, 565.6504
1103.043, 543.8555
1104.141, 582.0898
1105.239, 557.3457
1106.337, 436.6230
1107.434, 557.9375
1108.532, 425.2852
1109.629, 553.6758
1110.726, 454.0898
1111.823, 458.5391
1112.920, 369.0273
1114.017, 261.5371
1115.113, 361.0781
1116.210, 365.6465
1117.306, 287.2344
1118.402, 329.8438
1119.498, 337.4805
1120.593, 399.1387
1121.689, 505.8359
1122.784, 567.5508
1123.879, 571.4609
1124.974, 426.0508
1126.069, 521.8340
1127.164, 361.0684
1128.259, 262.8984
1129.353, 417.2246
1130.447, 558.0918
1131.541, 456.9844
1132.635, 424.8945
1133.729, 407.8262
1134.822, 405.3984
1135.916, 440.9844
1137.009, 464.7891
1138.102, 535.9355
1139.195, 565.5312
1140.288, 587.3809
1141.380, 568.4805
1142.473, 528.6055
1143.565, 631.6895
1144.657, 655.8633
1145.749, 626.0625
1146.841, 563.2812
1147.932, 502.5195
1149.024, 529.8496
1150.115, 439.1289
1151.206, 498.7578
1152.297, 299.7617
1153.388, 359.1309
1154.479, 215.5527
1155.569, 257.9648
1156.659, 198.5879
1157.750, 88.03711
1158.839, 175.5117
1159.929, 81.00391
1161.019, 132.5566
1162.108, 91.11914
1163.198, 49.94141
1164.287, 68.10547
1165.376, 40.07617
1166.465, 74.55469
1167.553, 15.22656
1168.642, 49.91602
1169.730, 45.36914
1170.818, 1.636719
1171.906, 143.8887
1172.994, 18.83398
1174.082, 46.57617
1175.170, 10.33203
1176.257, 111.1074
1177.344, 56.02148
1178.431, 202.7734
1179.518, 52.94727
1180.605, 64.89062
1181.691, 149.7461
1182.778, 287.6172
1183.864, 258.2344
1184.950, 171.1367
1186.036, 221.0605
1187.122, 308.9980
1188.207, 343.3184
1189.292, 316.2852
1190.378, 225.2695
1191.463, 298.2656
1192.548, 136.4746
1193.632, 151.5059
1194.717, 194.6504
1195.801, 303.8281
1196.886, 257.8984
1197.970, 235.9844
1199.054, 315.1328
1200.137, 10.25000
1201.221, 171.3789
1202.305, 62.55078
1203.388, 230.7129
1204.471, 255.8887
1205.554, 287.0781
1206.637, 197.3145
1207.719, 285.5605
1208.802, 321.0430
1209.884, 170.3145
1210.966, 163.0039
1212.048, 206.3008
1213.130, 134.6074
1214.212, 240.9551
1215.293, 146.3105
1216.374, 314.7715
1217.456, 233.1660
1218.536, 276.7246
1219.617, 518.8262
1220.698, 404.2773
1221.778, 466.7207
1222.859, 585.4121
1223.939, 563.8770
1225.019, 645.3516
1226.099, 669.8359
1227.178, 752.3418
1228.258, 847.2871
1229.337, 920.3906
1230.417, 1021.930
1231.496, 1136.482
1232.574, 1143.041
1233.653, 1435.611
1234.732, 1217.188
1235.810, 1570.770
1236.888, 1442.359
1237.966, 1418.959
1239.044, 1581.562
1240.122, 1355.174
1241.199, 1224.793
1242.277, 896.9727
1243.354, 879.6016
1244.431, 906.2363
1245.508, 709.9805
1246.585, 686.6250
1247.661, 571.2734
1248.738, 592.9277
1249.814, 466.5840
1250.890, 467.2422
1251.966, 268.9043
1253.042, 260.7227
1254.117, 37.39258
1255.193, 127.0645
1256.268, 94.26172
1257.343, 151.3750
1258.418, 35.98242
1259.493, 17.64844
1260.567, 47.27930
1261.642, 63.91211
1262.716, 114.5469
1263.790, 116.1855
1264.864, 141.8672
1265.938, 23.49219
1267.011, 164.1367
1268.085, 1.769531
1269.158, 29.74609
1270.231, 47.89648
1271.304, 78.06445
1272.377, 58.87305
1273.450, 53.72070
1274.522, 125.3027
1275.594, 219.8926
1276.666, 105.4824
1277.738, 20.66992
1278.810, 27.96094
1279.882, 3.466797
1280.953, 10.01562
1282.025, 211.7109
1283.096, 6.306641
1284.167, 90.16406
1285.238, 19.82422
1286.308, 258.7500
1287.379, 38.27344
1288.449, 174.8027
1289.519, 9.158203
1290.589, 67.80859
1291.659, 149.2793
1292.729, 96.82227
1293.798, 126.4922
1294.868, 187.3887
1295.937, 59.76953
1297.006, 91.93164
