##NAMES=Beryl
##RRUFFID=R060943
##IDEAL CHEMISTRY=Be_3_Al_2_Si_6_O_18_
##LOCALITY=Xinjiang, China
##OWNER=RRUFF
##SOURCE=Lawrence W. Snee
##DESCRIPTION=Green hexagonal prisms, variety emerald
##STATUS=The identification of this mineral has been confirmed by X-ray diffraction and chemical analysis
##URL=rruff.info/R060943
##MEASURED CHEMISTRY=(Be_2.96_Li_0.04_)_Σ=3_(Al_1.64_Mg_0.21_V^3+^_0.06_Fe^3+^_0.04_Sc^3+^_0.03_Cr^3+^_0.02_)_Σ=2_Si_6.00_O_18_·Na_0.25_
##PIN_ID=L01186
##ORIENTATION=Laser parallel to -c* (0 0 -1). Fiducial mark perpendicular to laser is parallel to a [1 0 0]
167.3340, 0.0000000E+00
168.5670, 20.25000
169.8000, 78.03418
171.0320, 6.827148
172.2650, 23.99121
173.4970, 11.54199
174.7290, 66.27441
175.9610, 24.83105
177.1930, 153.7217
178.4240, 76.79590
179.6550, 74.55078
180.8870, 222.5391
182.1170, 139.6055
183.3480, 193.3516
184.5790, 301.4375
185.8090, 391.6309
187.0390, 553.7734
188.2690, 672.5391
189.4990, 664.1807
190.7290, 737.8428
191.9580, 734.3574
193.1870, 858.2559
194.4160, 932.4648
195.6450, 845.8203
196.8740, 1016.679
198.1020, 889.7646
199.3310, 995.0996
200.5590, 907.7256
201.7870, 971.6855
203.0140, 826.0107
204.2420, 605.7402
205.4690, 438.9131
206.6960, 239.5781
207.9230, 217.7793
209.1500, 11.55078
210.3760, 179.9600
211.6030, 203.6729
212.8290, 238.9229
214.0550, 253.3535
215.2810, 282.6924
216.5060, 368.5107
217.7320, 489.6885
218.9570, 444.5879
220.1820, 478.6875
221.4070, 574.5879
222.6320, 694.5527
223.8560, 556.9990
225.0800, 675.2559
226.3040, 704.5439
227.5280, 640.6035
228.7520, 517.3574
229.9760, 733.8203
231.1990, 698.0078
232.4220, 789.9316
233.6450, 816.6006
234.8680, 981.0244
236.0910, 1004.211
237.3130, 1012.173
238.5350, 998.9141
239.7570, 1079.446
240.9790, 1126.817
242.2010, 1299.158
243.4220, 1367.457
244.6430, 1406.725
245.8640, 1554.965
247.0850, 1597.174
248.3060, 1611.351
249.5270, 1729.494
250.7470, 1701.601
251.9670, 1463.670
253.1870, 1105.146
254.4070, 897.5781
255.6260, 539.7310
256.8460, 497.7920
258.0650, 526.1235
259.2840, 301.0244
260.5030, 257.0171
261.7220, 77.85254
262.9400, 3.067871
264.1580, 44.71143
265.3760, 134.5889
266.5940, 4.451660
267.8120, 200.0317
269.0290, 183.4253
270.2470, 342.6968
271.4640, 207.9102
272.6810, 68.07764
273.8980, 199.2173
275.1140, 72.32812
276.3310, 91.40771
277.5470, 155.4580
278.7630, 159.4756
279.9790, 223.4624
281.1940, 282.4160
282.4100, 347.2524
283.6250, 391.2231
284.8400, 529.0747
286.0550, 603.8896
287.2700, 727.6665
288.4850, 677.4106
289.6990, 751.0576
290.9130, 945.6533
292.1270, 944.3291
293.3410, 817.9717
294.5540, 796.5244
295.7680, 945.9800
296.9810, 750.3564
298.1940, 885.6665
299.4070, 892.9199
300.6200, 896.1221
301.8320, 881.2744
303.0450, 924.3770
304.2570, 1025.432
305.4690, 1175.438
306.6800, 1323.398
307.8920, 1406.312
309.1030, 1585.180
310.3150, 1917.002
311.5260, 2175.781
312.7360, 2675.516
313.9470, 3207.444
315.1580, 3812.263
316.3680, 4389.939
317.5780, 5216.123
318.7880, 6148.819
319.9980, 7272.506
321.2070, 8541.168
322.4170, 9706.798
323.6260, 10977.39
324.8350, 10715.94
326.0430, 9658.435
327.2520, 8058.878
328.4610, 6029.266
329.6690, 4158.589
330.8770, 2966.848
332.0850, 2040.041
333.2920, 1311.170
334.5000, 931.2207
335.7070, 542.2080
336.9140, 399.1309
338.1210, 232.9751
339.3280, 116.7275
340.5350, 51.61768
341.7410, 52.91309
342.9470, 0.6562500
344.1540, 31.66846
345.3590, 25.10303
346.5650, 40.55371
347.7710, 49.09326
348.9760, 55.06250
350.1810, 112.2642
351.3860, 42.58545
352.5910, 130.0059
353.7950, 64.54688
355.0000, 4.596191
356.2040, 64.32422
357.4080, 136.1533
358.6120, 17.10645
359.8150, 25.83154
361.0190, 65.41357
362.2220, 43.04688
363.4250, 55.13037
364.6280, 51.20410
365.8310, 30.84717
367.0340, 91.96338
368.2360, 156.6606
369.4380, 34.26562
370.6400, 196.7886
371.8420, 179.2510
373.0440, 428.6582
374.2450, 404.0156
375.4470, 582.3232
376.6480, 646.5845
377.8490, 772.8008
379.0490, 975.9736
380.2500, 1086.103
381.4500, 1340.189
382.6510, 1533.235
383.8510, 1673.241
385.0500, 1768.206
386.2500, 2085.133
387.4500, 2367.021
388.6490, 2683.870
389.8480, 3013.681
391.0470, 3459.453
392.2460, 4044.186
393.4440, 4688.881
394.6430, 5328.537
395.8410, 6012.157
397.0390, 6727.738
398.2370, 6859.270
399.4340, 6640.694
400.6320, 6111.028
401.8290, 5164.256
403.0260, 4294.884
404.2230, 3523.027
405.4200, 2814.848
406.6170, 2358.114
407.8130, 2036.425
409.0090, 1488.663
410.2050, 1448.336
411.4010, 1332.489
412.5970, 1158.523
413.7920, 1149.988
414.9880, 1151.004
416.1830, 1145.584
417.3780, 1113.354
418.5730, 1005.286
419.7670, 1014.556
420.9620, 917.0400
422.1560, 978.6963
423.3500, 901.0122
424.5440, 765.7432
425.7380, 799.9810
426.9310, 676.2378
428.1240, 822.6611
429.3180, 863.4258
430.5110, 951.1709
431.7030, 1022.897
432.8960, 1121.248
434.0890, 1241.294
435.2810, 1338.965
436.4730, 1557.617
437.6650, 1673.250
438.8570, 1889.865
440.0480, 1979.462
441.2390, 2018.042
442.4310, 2171.604
443.6220, 2161.149
444.8120, 1952.678
446.0030, 1781.191
447.1940, 1535.688
448.3840, 1315.168
449.5740, 988.6333
450.7640, 898.0830
451.9540, 799.5166
453.1430, 745.9365
454.3330, 766.3408
455.5220, 601.7314
456.7110, 692.1069
457.9000, 650.4463
459.0890, 567.7505
460.2770, 572.0200
461.4650, 508.2568
462.6540, 552.4590
463.8420, 515.6260
465.0290, 432.7573
466.2170, 457.8540
467.4050, 453.9160
468.5920, 491.9438
469.7790, 565.9365
470.9660, 433.8955
472.1530, 446.8213
473.3390, 519.7124
474.5250, 433.5703
475.7120, 473.3950
476.8980, 512.1865
478.0840, 629.9448
479.2690, 676.6709
480.4550, 459.9937
481.6400, 541.5840
482.8250, 580.2476
484.0100, 527.9526
485.1950, 568.6694
486.3800, 601.4917
487.5640, 530.6768
488.7480, 574.8887
489.9320, 567.0928
491.1160, 545.7271
492.3000, 542.9521
493.4840, 561.6143
494.6670, 531.5010
495.8500, 637.9316
497.0330, 712.4438
498.2160, 800.6958
499.3990, 729.1748
500.5810, 932.1230
501.7630, 792.5225
502.9460, 897.1846
504.1280, 924.5176
505.3090, 1062.246
506.4910, 993.5171
507.6720, 1117.712
508.8540, 1144.193
510.0350, 1393.950
511.2160, 1400.317
512.3960, 1698.143
513.5770, 1831.823
514.7570, 2138.345
515.9380, 2431.025
517.1180, 2653.589
518.2970, 2991.549
519.4770, 3363.496
520.6570, 3643.427
521.8360, 3924.345
523.0150, 3980.248
524.1940, 4293.140
525.3730, 4116.018
526.5510, 3896.884
527.7300, 3458.739
528.9080, 3031.583
530.0860, 2556.415
531.2640, 2146.235
532.4420, 1709.044
533.6200, 1402.839
534.7970, 1091.623
535.9740, 885.3960
537.1510, 748.1587
538.3280, 540.9180
539.5050, 445.6685
540.6810, 377.4165
541.8580, 249.1680
543.0340, 218.9258
544.2100, 63.69971
545.3860, 54.49756
546.5610, 21.32129
547.7370, 78.82568
548.9120, 77.96924
550.0870, 96.12744
551.2620, 201.3022
552.4370, 79.51221
553.6120, 136.7158
554.7860, 162.9644
555.9600, 110.2695
557.1340, 41.59033
558.3080, 9.3750000E-02
559.4820, 90.79492
560.6560, 127.5093
561.8290, 152.2568
563.0020, 55.02344
564.1750, 139.7959
565.3480, 211.5718
566.5210, 106.3706
567.6930, 165.1748
568.8660, 190.0259
570.0380, 260.8774
571.2100, 326.9111
572.3820, 385.6133
573.5530, 503.4873
574.7250, 390.3682
575.8960, 511.2432
577.0670, 371.1123
578.2380, 484.9854
579.4090, 576.8521
580.5800, 394.7124
581.7500, 498.5684
582.9210, 399.4253
584.0910, 567.2993
585.2610, 500.3276
586.4300, 373.1064
587.6000, 414.0391
588.7690, 464.9644
589.9390, 379.8872
591.1080, 422.8130
592.2770, 382.7642
593.4450, 360.7095
594.6140, 414.6479
595.7820, 392.5864
596.9500, 407.1602
598.1190, 380.4668
599.2860, 399.4165
600.4540, 401.3633
601.6220, 351.3042
602.7890, 429.2490
603.9560, 326.1880
605.1230, 430.1387
606.2900, 432.9277
607.4570, 463.5835
608.6230, 513.9609
609.7890, 615.9067
610.9560, 696.8467
612.1220, 874.7803
613.2870, 1051.708
614.4530, 1204.631
615.6180, 1345.547
616.7840, 1594.458
617.9490, 1673.362
619.1140, 1797.262
620.2790, 1675.155
621.4430, 1522.045
622.6080, 1259.933
623.7720, 1123.823
624.9360, 789.7427
626.1000, 696.6689
627.2640, 532.6099
628.4270, 474.5605
629.5910, 437.5317
630.7540, 339.5303
631.9170, 299.5571
633.0800, 405.6133
634.2430, 339.7144
635.4050, 434.8428
636.5680, 351.0205
637.7300, 338.2305
638.8920, 350.4570
640.0540, 401.7158
641.2150, 396.0410
642.3770, 397.3560
643.5380, 443.6958
644.7000, 447.0679
645.8610, 508.4673
647.0210, 498.3179
648.1820, 530.2842
649.3430, 537.7192
650.5030, 523.1577
651.6630, 646.5977
652.8230, 641.0454
653.9830, 750.4927
655.1430, 846.9399
656.3020, 830.3828
657.4620, 930.8604
658.6210, 1201.292
659.7800, 1191.716
660.9390, 1351.135
662.0970, 1583.612
663.2560, 1672.151
664.4140, 2041.853
665.5720, 2353.561
666.7300, 2835.347
667.8880, 3151.151
669.0460, 3693.780
670.2030, 4378.484
671.3600, 5388.869
672.5180, 6575.306
673.6740, 7800.782
674.8310, 9865.434
675.9880, 12219.27
677.1440, 15152.27
678.3010, 18968.27
679.4570, 23280.34
680.6130, 28212.81
681.7690, 33971.00
682.9240, 40139.43
684.0800, 46053.96
685.2350, 50752.52
686.3900, 52314.41
687.5450, 49273.91
688.7000, 43863.71
689.8540, 36158.35
691.0090, 28720.50
692.1630, 22343.31
693.3170, 17513.62
694.4710, 13933.81
695.6250, 10903.22
696.7780, 9152.831
697.9320, 7427.307
699.0850, 6529.341
700.2380, 5471.872
701.3910, 4810.197
702.5440, 3997.378
703.6970, 3684.819
704.8490, 3245.454
706.0010, 2872.106
707.1530, 2504.804
708.3050, 2374.710
709.4570, 2154.305
710.6090, 1980.284
711.7600, 1704.422
712.9110, 1586.025
714.0620, 1375.957
715.2130, 1285.957
716.3640, 1167.524
717.5150, 1010.405
718.6650, 967.2695
719.8150, 868.2651
720.9650, 805.4116
722.1150, 725.6406
723.2650, 640.9092
724.4150, 556.8164
725.5640, 488.4380
726.7130, 390.1792
727.8630, 331.4429
729.0110, 296.2588
730.1600, 298.5186
731.3090, 301.1826
732.4570, 351.8271
733.6060, 453.4312
734.7540, 407.5986
735.9020, 427.5283
737.0490, 398.2822
738.1970, 364.1226
739.3440, 332.7456
740.4920, 294.1787
741.6390, 275.6602
742.7860, 279.3911
743.9320, 276.0361
745.0790, 314.0332
746.2250, 307.4302
747.3720, 356.4302
748.5180, 389.0645
749.6640, 314.1152
750.8100, 486.4258
751.9550, 462.7139
753.1010, 492.9805
754.2460, 433.2251
755.3910, 460.4473
756.5360, 505.1719
757.6810, 631.8281
758.8250, 650.9858
759.9700, 705.1211
761.1140, 832.2344
762.2580, 760.3262
763.4020, 840.3955
764.5460, 772.4424
765.6900, 838.4668
766.8330, 963.4688
767.9760, 908.4487
769.1200, 839.4058
770.2620, 943.3398
771.4050, 950.2510
772.5480, 930.1387
773.6900, 873.0029
774.8330, 821.8438
775.9750, 721.6611
777.1170, 736.4541
778.2590, 747.2231
779.4000, 666.9468
780.5420, 569.6890
781.6830, 575.3857
782.8240, 531.0571
783.9650, 527.7041
785.1060, 454.3257
786.2470, 448.9233
787.3870, 415.7178
788.5280, 344.0435
789.6680, 359.5664
790.8080, 240.0640
791.9480, 196.5366
793.0870, 164.9849
794.2270, 149.3208
795.3660, 174.8052
796.5060, 170.1777
797.6450, 160.5249
798.7830, 137.8481
799.9220, 120.1460
801.0610, 78.41797
802.1990, 73.66211
803.3370, 60.77539
804.4750, 58.52148
805.6130, 83.22607
806.7510, 62.35840
807.8890, 135.4624
809.0260, 119.5415
810.1630, 106.5947
811.3000, 61.62305
812.4370, 49.62402
813.5740, 16.59473
814.7110, 41.52490
815.8470, 13.80029
816.9830, 9.720215
818.1190, 21.91650
819.2550, 58.17285
820.3910, 100.5078
821.5270, 102.5557
822.6620, 110.4722
823.7970, 106.1060
824.9330, 19.17578
826.0670, 55.43848
827.2020, 1.301270
828.3370, 50.03760
829.4710, 35.82812
830.6060, 44.64844
831.7400, 107.4961
832.8740, 52.41895
834.0080, 33.40283
835.1410, 20.44385
836.2750, 74.53516
837.4080, 22.70605
838.5410, 4.070313
839.6740, 25.81104
840.8070, 61.47705
841.9400, 2.835449
843.0730, 160.2334
844.2050, 11.24658
845.3370, 65.30469
846.4690, 74.07324
847.6010, 28.56934
848.7330, 21.26270
849.8640, 62.99805
850.9960, 37.23877
852.1270, 8.540527
853.2580, 62.64307
854.3890, 49.80713
855.5200, 18.12109
856.6500, 2.924805
857.7810, 70.83252
858.9110, 55.80664
860.0410, 128.8374
861.1710, 51.96387
862.3010, 65.85693
863.4310, 2.660156
864.5600, 21.56006
865.6900, 107.8149
866.8190, 41.85156
867.9480, 83.50195
869.0770, 12.86328
870.2050, 6.254883
871.3340, 54.66943
872.4620, 37.13037
873.5900, 3.627930
874.7180, 0.8549800
875.8460, 36.31641
876.9740, 17.75537
878.1010, 68.82471
879.2290, 7.452637
880.3560, 136.9019
881.4830, 59.24365
882.6100, 72.42627
883.7370, 43.85693
884.8630, 95.12988
885.9900, 98.39062
887.1160, 98.64062
888.2420, 115.8804
889.3680, 186.1094
890.4940, 147.3296
891.6200, 247.5400
892.7450, 118.7412
893.8700, 250.9346
894.9960, 220.1187
896.1210, 352.2949
897.2460, 333.4629
898.3700, 490.6230
899.4950, 472.7769
900.6190, 470.9233
901.7430, 503.0630
902.8670, 544.1963
903.9910, 557.3232
905.1150, 638.4448
906.2390, 787.5605
907.3620, 815.6714
908.4850, 826.7769
909.6080, 820.8779
910.7310, 987.9746
911.8540, 1082.067
912.9770, 1169.157
914.0990, 1118.243
915.2210, 1237.326
916.3440, 1350.407
917.4660, 1204.485
918.5870, 1160.561
919.7090, 1305.636
920.8310, 1143.708
921.9520, 1052.780
923.0730, 1110.852
924.1940, 1026.923
925.3150, 904.9927
926.4360, 930.0635
927.5560, 768.1348
928.6770, 765.2070
929.7970, 788.2407
930.9170, 703.3154
932.0370, 683.3916
933.1570, 718.4702
934.2760, 517.4854
935.3960, 547.4355
936.5150, 503.2192
937.6340, 425.9927
938.7530, 368.6851
939.8720, 280.3564
940.9910, 336.2007
942.1090, 344.9668
943.2280, 413.0518
944.3460, 331.3809
945.4640, 244.0688
946.5820, 196.8809
947.6990, 122.5083
948.8170, 139.9697
949.9340, 27.43213
951.0520, 158.8149
952.1690, 52.81250
953.2860, 174.0786
954.4030, 114.1055
955.5190, 37.51465
956.6360, 42.83740
957.7520, 75.70898
958.8680, 85.90381
959.9840, 107.8745
961.1000, 107.8838
962.2160, 99.35645
963.3310, 47.73682
964.4470, 71.60498
965.5620, 68.97510
966.6770, 87.45703
967.7920, 148.4531
968.9060, 18.70312
970.0210, 83.82959
971.1360, 69.62402
972.2500, 145.7383
973.3640, 126.6021
974.4780, 301.5728
975.5920, 299.4624
976.7050, 329.1079
977.8190, 301.9492
978.9320, 203.5889
980.0450, 387.5459
981.1580, 417.1255
982.2710, 625.5527
983.3840, 577.5234
984.4970, 856.1724
985.6090, 946.7705
986.7210, 1184.809
987.8330, 1308.558
988.9450, 1479.340
990.0570, 1754.999
991.1690, 2028.761
992.2800, 2233.368
993.3920, 2563.024
994.5030, 2825.211
995.6140, 3175.347
996.7250, 3563.393
997.8350, 3831.268
998.9460, 4203.504
1000.056, 4416.648
1001.167, 4713.909
1002.277, 5008.218
1003.387, 5398.579
1004.496, 5414.400
1005.606, 5824.483
1006.715, 5822.769
1007.825, 6003.004
1008.934, 6043.471
1010.043, 5967.139
1011.152, 5872.771
1012.260, 5631.703
1013.369, 5432.091
1014.477, 5136.831
1015.586, 4974.619
1016.694, 4616.815
1017.802, 4404.672
1018.909, 4109.576
1020.017, 3847.539
1021.124, 3735.563
1022.232, 3569.639
1023.339, 3297.764
1024.446, 3088.951
1025.553, 2912.178
1026.659, 2800.445
1027.766, 2772.769
1028.872, 2715.134
1029.979, 2751.535
1031.085, 2819.975
1032.191, 2801.450
1033.296, 2620.963
1034.402, 2901.514
1035.507, 2941.102
1036.613, 2978.738
1037.718, 3224.412
1038.823, 3395.125
1039.928, 3520.879
1041.032, 3738.670
1042.137, 3997.701
1043.241, 4427.388
1044.346, 4609.318
1045.450, 5152.305
1046.554, 5525.332
1047.657, 6214.396
1048.761, 6985.498
1049.864, 7707.641
1050.968, 8733.827
1052.071, 9824.051
1053.174, 11079.33
1054.277, 12647.64
1055.379, 14514.00
1056.482, 16717.40
1057.584, 19198.84
1058.687, 21545.33
1059.789, 24748.86
1060.891, 27722.43
1061.992, 31072.04
1063.094, 33991.69
1064.196, 36592.38
1065.297, 38200.11
1066.398, 39622.89
1067.499, 39766.71
1068.600, 39123.58
1069.701, 38297.49
1070.801, 36297.45
1071.902, 34530.45
1073.002, 31875.49
1074.102, 29627.59
1075.202, 27446.72
1076.302, 24799.90
1077.402, 22207.12
1078.501, 20089.39
1079.600, 18003.70
1080.700, 16351.06
1081.799, 14833.46
1082.898, 13704.92
1083.996, 12485.42
1085.095, 11521.98
1086.193, 10492.60
1087.292, 9646.292
1088.390, 8848.062
1089.488, 8164.914
1090.586, 7559.850
1091.683, 7227.865
1092.781, 6735.926
1093.878, 6336.037
1094.975, 5963.201
1096.073, 5544.429
1097.169, 5136.721
1098.266, 4887.598
1099.363, 4637.514
1100.459, 4364.013
1101.556, 4208.346
1102.652, 4031.193
1103.748, 3922.887
1104.844, 3815.644
1105.940, 3719.449
1107.035, 3689.299
1108.131, 3391.527
1109.226, 3257.498
1110.321, 3183.559
1111.416, 3173.667
1112.511, 3178.841
1113.605, 3232.054
1114.700, 3180.460
1115.794, 2984.641
1116.889, 3122.014
1117.983, 3063.412
1119.077, 3059.387
1120.170, 3181.366
1121.264, 3336.891
1122.357, 3432.111
1123.451, 3499.719
1124.544, 3552.658
1125.637, 3707.012
1126.730, 3728.950
1127.823, 3845.562
1128.915, 3819.823
1130.008, 3823.095
1131.100, 3906.221
1132.192, 3880.064
1133.284, 3707.396
1134.376, 3463.507
1135.467, 3375.298
1136.559, 3180.783
1137.650, 2945.403
1138.742, 2726.114
1139.833, 2551.429
1140.924, 2261.778
1142.014, 2021.170
1143.105, 1939.705
1144.195, 1702.177
1145.286, 1545.682
1146.376, 1348.360
1147.466, 1311.926
1148.556, 1248.541
1149.646, 1000.696
1150.735, 968.8350
1151.825, 831.1929
1152.914, 766.7695
1154.003, 681.4438
1155.092, 578.1558
1156.181, 519.5791
1157.270, 516.3447
1158.358, 362.2231
1159.447, 428.2861
1160.535, 355.2534
1161.623, 339.2100
1162.711, 153.1948
1163.799, 206.2046
1164.886, 314.2393
1165.974, 233.2974
1167.061, 37.61572
1168.148, 103.7227
1169.235, 131.8525
1170.322, 75.67139
1171.409, 118.8481
1172.496, 202.0474
1173.582, 172.2129
1174.669, 204.8398
1175.755, 185.6074
1176.841, 225.8931
1177.927, 173.1997
1179.012, 198.5273
1180.098, 196.8740
1181.183, 204.8979
1182.269, 235.2847
1183.354, 185.3076
1184.439, 202.7329
1185.524, 252.1758
1186.608, 76.81836
1187.693, 124.2974
1188.777, 70.45020
1189.862, 182.9644
1190.946, 95.49609
1192.030, 186.0605
1193.113, 74.75537
1194.197, 150.3364
1195.281, 89.41504
1196.364, 106.1704
1197.447, 145.7979
1198.530, 73.32129
1199.613, 214.1763
1200.696, 82.05762
1201.779, 56.04834
1202.861, 83.89648
1203.944, 164.7168
1205.026, 114.4414
1206.108, 199.6729
1207.190, 211.7729
1208.271, 224.3335
1209.353, 241.6738
1210.435, 287.6353
1211.516, 231.4370
1212.597, 305.2417
1213.678, 274.0571
1214.759, 293.3740
1215.840, 409.9556
1216.920, 344.0469
1218.001, 352.2324
1219.081, 418.0957
1220.161, 425.9668
1221.241, 452.8452
1222.321, 349.7300
1223.401, 418.8799
1224.480, 333.9653
1225.560, 275.9580
1226.639, 384.5020
1227.718, 387.4160
1228.797, 491.3335
1229.876, 324.2539
1230.955, 343.8389
1232.033, 234.7656
1233.112, 144.9448
1234.190, 214.3228
1235.268, 194.3916
1236.346, 143.4722
1237.424, 14.59180
1238.501, 93.60791
1239.579, 9.783691
1240.656, 63.98535
1241.733, 149.9160
1242.811, 77.84717
1243.888, 53.83691
1244.964, 10.77002
1246.041, 51.29834
1247.117, 29.61084
1248.194, 77.48193
1249.270, 37.53564
1250.346, 36.31641
1251.422, 16.82568
1252.498, 11.02002
1253.573, 48.13867
1254.649, 71.32422
1255.724, 110.5454
1256.800, 70.82764
1257.875, 143.1499
1258.950, 77.55127
1260.024, 104.9985
1261.099, 49.50488
1262.173, 72.04492
1263.248, 29.36914
1264.322, 43.22510
1265.396, 52.85254
1266.470, 36.51855
1267.544, 100.2158
1268.617, 15.16992
1269.691, 122.6787
1270.764, 31.89600
1271.837, 8.874023
1272.910, 128.3125
1273.983, 62.57373
1275.056, 39.25928
1276.129, 40.86768
1277.201, 64.24854
1278.273, 25.64697
1279.346, 71.57715
1280.418, 73.45703
1281.489, 43.51025
1282.561, 27.61035
1283.633, 74.48438
1284.704, 12.32227
1285.776, 24.19336
1286.847, 67.26270
1287.918, 26.00586
1288.989, 35.68311
1290.059, 72.47656
1291.130, 117.0317
1292.200, 118.3623
1293.271, 84.37500
1294.341, 130.9897
1295.411, 4.411133
1296.481, 56.15186
1297.551, 95.69824
1298.620, 28.35449
1299.690, 137.8613
1300.759, 110.4326
1301.828, 26.09424
1302.897, 17.32568
1303.966, 17.28564
1305.035, 130.0537
1306.103, 121.3745
1307.172, 130.6768
1308.240, 103.9604
1309.308, 42.22461
1310.376, 85.46387
1311.444, 2.683594
1312.512, 85.85986
1313.580, 111.0151
1314.647, 34.14990
1315.714, 130.2559
1316.781, 25.34619
1317.848, 225.4121
1318.915, 170.4595
1319.982, 92.48535
1321.049, 81.48291
1322.115, 153.4609
1323.181, 66.41406
1324.248, 45.34521
1325.314, 164.2441
1326.380, 29.12354
1327.445, 86.97461
1328.511, 87.80078
1329.576, 83.60400
1330.642, 95.38379
1331.707, 54.14355
1332.772, 145.8716
1333.837, 79.57715
1334.902, 88.25586
