##NAMES=Beryl
##RRUFFID=R060944
##IDEAL CHEMISTRY=Be_3_Al_2_Si_6_O_18_
##LOCALITY=Habachtal, Salzburg, Austria
##OWNER=RRUFF
##SOURCE=Lawrence W. Snee
##DESCRIPTION=Green hexagonal prisms in a muscovite schist, variety emerald. Note that there are micro inclusions of actinolite. The Raman signal is a mixture of the two phases.
##STATUS=The identification of this mineral has been confirmed by X-ray diffraction and chemical analysis
##URL=rruff.info/R060944
##MEASURED CHEMISTRY=Be_3.00_(Al_1.59_Mg_0.33_Fe^3+^_0.04_Cr^3+^_0.04_)_Σ=2_Si_6.00_O_18_·Na_0.33_ ; bright inclusions are actinolite
##PIN_ID=L01278
##ORIENTATION=Laser parallel to a* (1 0 0). Fiducial mark perpendicular to laser is parallel to c [0 0 1]
130.4390, 0.0000000E+00
131.6680, 34.47656
132.8980, 216.3438
134.1270, 1.730469
135.3560, 226.7129
136.5850, 103.6172
137.8140, 11.16992
139.0430, 474.0527
140.2710, 176.0078
141.5000, 211.4316
142.7280, 2.150391
143.9560, 75.01172
145.1840, 162.8887
146.4120, 225.6836
147.6390, 48.69531
148.8670, 145.6836
150.0940, 162.7734
151.3210, 382.5078
152.5490, 456.8242
153.7750, 632.6719
155.0020, 800.8145
156.2290, 876.7910
157.4550, 1050.000
158.6810, 1122.611
159.9080, 1048.598
161.1340, 765.9375
162.3590, 844.6152
163.5850, 514.6094
164.8110, 687.8984
166.0360, 609.4785
167.2610, 517.5020
168.4860, 606.7715
169.7110, 628.2559
170.9360, 946.9414
172.1610, 1123.809
173.3850, 1588.852
174.6100, 1442.059
175.8340, 1640.424
177.0580, 1819.945
178.2820, 1777.621
179.5050, 1728.453
180.7290, 1449.445
181.9520, 1250.598
183.1760, 1215.908
184.3990, 1192.369
185.6220, 1014.277
186.8450, 642.7539
188.0670, 762.6523
189.2900, 653.6816
190.5120, 579.8379
191.7340, 657.1133
192.9560, 631.5078
194.1780, 577.0176
195.4000, 612.6348
196.6220, 843.3594
197.8430, 607.1895
199.0640, 445.1191
200.2860, 648.1523
201.5070, 512.2891
202.7270, 706.4004
203.9480, 851.8750
205.1690, 639.1230
206.3890, 460.4121
207.6090, 320.6758
208.8290, 562.9629
210.0490, 479.2773
211.2690, 681.6230
212.4890, 689.9961
213.7080, 1241.395
214.9280, 1191.838
216.1470, 1569.326
217.3660, 1843.863
218.5850, 2103.451
219.8030, 2261.086
221.0220, 2363.777
222.2400, 2507.537
223.4590, 2399.369
224.6770, 2453.402
225.8950, 2232.586
227.1120, 2151.854
228.3300, 2099.213
229.5480, 1948.670
230.7650, 1832.873
231.9820, 1799.037
233.1990, 1568.859
234.4160, 1512.793
235.6330, 1468.766
236.8490, 1275.777
238.0660, 1141.822
239.2820, 908.3535
240.4980, 1035.510
241.7140, 1015.703
242.9300, 1100.932
244.1460, 1247.195
245.3610, 1328.494
246.5770, 1443.830
247.7920, 1439.621
249.0070, 1324.609
250.2220, 1345.055
251.4370, 1097.533
252.6510, 932.0469
253.8660, 533.5957
255.0800, 448.1797
256.2940, 290.7969
257.5080, 59.44727
258.7220, 523.1309
259.9360, 656.8496
261.1490, 243.5996
262.3630, 20.38281
263.5760, 71.20117
264.7890, 103.0488
266.0020, 53.92969
267.2150, 133.9395
268.4270, 332.9082
269.6400, 207.0703
270.8520, 215.3242
272.0640, 191.0938
273.2760, 113.9473
274.4880, 145.4531
275.7000, 37.85742
276.9120, 14.92383
278.1230, 136.1719
279.3340, 64.11719
280.5450, 0.6464840
281.7560, 13.51562
282.9670, 168.7754
284.1780, 73.14062
285.3880, 297.4941
286.5980, 351.9551
287.8090, 294.5234
289.0190, 282.1719
290.2290, 447.9238
291.4380, 198.7598
292.6480, 365.6797
293.8570, 303.1191
295.0670, 430.1914
296.2760, 129.3340
297.4850, 220.5449
298.6930, 189.8203
299.9020, 228.1562
301.1110, 209.5586
302.3190, 249.0137
303.5270, 247.5273
304.7350, 370.0938
305.9430, 457.7168
307.1510, 442.3887
308.3580, 349.1094
309.5660, 582.8809
310.7730, 804.6992
311.9800, 758.8047
313.1870, 1028.713
314.3940, 1216.496
315.6010, 1615.648
316.8070, 1948.986
318.0130, 2391.141
319.2200, 2708.248
320.4260, 3153.119
321.6310, 3765.305
322.8370, 4237.523
324.0430, 4521.152
325.2480, 4239.441
326.4540, 3704.766
327.6590, 3053.486
328.8640, 2417.320
330.0680, 1735.738
331.2730, 1198.189
332.4780, 649.6699
333.6820, 604.2559
334.8860, 433.9492
336.0900, 63.34180
337.2940, 324.9336
338.4980, 428.5508
339.7010, 188.1934
340.9050, 220.8633
342.1080, 257.5566
343.3110, 410.2754
344.5140, 363.0195
345.7170, 390.2500
346.9200, 21.96094
348.1220, 365.8496
349.3240, 202.6816
350.5270, 363.5684
351.7290, 587.4785
352.9310, 243.4102
354.1320, 435.3672
355.3340, 367.3457
356.5350, 74.34570
357.7370, 345.3672
358.9380, 381.4102
360.1390, 350.4766
361.3400, 314.5664
362.5400, 436.6758
363.7410, 557.8086
364.9410, 529.9629
366.1410, 612.1348
367.3410, 584.3301
368.5410, 609.5449
369.7410, 626.7500
370.9400, 773.0332
372.1400, 694.3027
373.3390, 712.5938
374.5380, 866.9004
375.7370, 823.2246
376.9360, 1031.566
378.1350, 1178.922
379.3330, 875.2969
380.5310, 1006.686
381.7300, 1248.092
382.9280, 1628.510
384.1260, 1512.943
385.3230, 1983.389
386.5210, 2228.852
387.7180, 2944.326
388.9160, 3382.820
390.1130, 3982.326
391.3100, 4793.846
392.5060, 5672.379
393.7030, 6299.928
394.9000, 7314.492
396.0960, 7989.066
397.2920, 8657.658
398.4880, 9304.262
399.6840, 7950.879
400.8800, 7258.510
402.0750, 5843.152
403.2710, 4904.863
404.4660, 4021.629
405.6610, 3297.309
406.8560, 2819.873
408.0510, 2134.576
409.2450, 2141.295
410.4400, 2031.625
411.6340, 1630.768
412.8280, 1616.518
414.0220, 1734.273
415.2160, 1482.043
416.4100, 1345.818
417.6030, 1101.180
418.7970, 956.9746
419.9900, 951.7773
421.1830, 851.4824
422.3760, 821.3223
423.5690, 619.1836
424.7610, 636.0469
425.9540, 728.9531
427.1460, 911.8789
428.3380, 649.8223
429.5300, 826.7852
430.7220, 651.7637
431.9140, 889.7637
433.1050, 1075.779
434.2970, 1085.812
435.4880, 1225.861
436.6790, 1023.928
437.8700, 1257.018
439.0610, 1292.123
440.2510, 1006.242
441.4420, 1247.377
442.6320, 873.5273
443.8220, 817.6914
445.0120, 552.8691
446.2020, 488.0625
447.3910, 331.2695
448.5810, 302.4883
449.7700, 248.7031
450.9600, 143.6895
452.1490, 186.2734
453.3370, 48.54492
454.5260, 23.17188
455.7150, 74.11328
456.9030, 13.59180
458.0910, 2.705078
459.2800, 112.9902
460.4670, 159.7324
461.6550, 10.45703
462.8430, 101.3398
464.0300, 100.8203
465.2180, 53.99414
466.4050, 58.82422
467.5920, 26.33789
468.7790, 108.5117
469.9650, 143.3047
471.1520, 144.1855
472.3380, 86.87109
473.5250, 29.93750
474.7110, 67.01562
475.8970, 67.89844
477.0820, 68.83789
478.2680, 62.81055
479.4540, 59.19336
480.6390, 250.2070
481.8240, 213.2305
483.0090, 49.26172
484.1940, 299.3027
485.3780, 128.3516
486.5630, 363.4082
487.7470, 53.52539
488.9320, 101.5176
490.1160, 87.00195
491.3000, 442.3594
492.4830, 214.7051
493.6670, 323.7793
494.8500, 303.8613
496.0340, 313.9492
497.2170, 348.0410
498.4000, 525.1445
499.5820, 425.2539
500.7650, 430.3652
501.9480, 719.4863
503.1300, 784.6152
504.3120, 686.7480
505.4940, 683.8867
506.6760, 895.0332
507.8580, 941.1836
509.0390, 1317.340
510.2210, 1211.502
511.4020, 1506.670
512.5830, 1601.844
513.7640, 1636.021
514.9450, 2013.207
516.1250, 2137.428
517.3060, 2434.654
518.4860, 2867.904
519.6660, 2846.174
520.8460, 2902.451
522.0260, 2994.734
523.2060, 2641.041
524.3850, 2713.354
525.5650, 2397.672
526.7440, 2060.996
527.9230, 2041.322
529.1020, 1415.654
530.2810, 1593.994
531.4590, 1087.336
532.6380, 1025.707
533.8160, 929.1133
534.9940, 792.5254
536.1720, 538.9355
537.3500, 308.3574
538.5270, 429.7852
539.7050, 167.2188
540.8820, 401.6562
542.0590, 252.1035
543.2360, 67.55469
544.4130, 188.9922
545.5900, 9.351563
546.7660, 103.6836
547.9430, 200.9668
549.1190, 76.26367
550.2950, 137.5020
551.4710, 100.2617
552.6470, 28.91211
553.8220, 80.08203
554.9980, 155.2637
556.1730, 201.4629
557.3480, 255.9414
558.5230, 412.8887
559.6980, 408.1309
560.8730, 384.3730
562.0470, 569.6172
563.2220, 356.8633
564.3960, 406.1113
565.5700, 379.3594
566.7440, 236.6523
567.9170, 621.9551
569.0910, 496.2578
570.2640, 466.5586
571.4380, 560.8809
572.6110, 499.2012
573.7840, 437.5234
574.9570, 565.8457
576.1290, 405.2266
577.3020, 523.6172
578.4740, 550.0098
579.6460, 335.4023
580.8180, 523.7930
581.9900, 345.1914
583.1620, 718.5859
584.3330, 339.0137
585.5040, 247.4395
586.6760, 175.8672
587.8470, 343.2910
589.0180, 449.7148
590.1880, 385.1348
591.3590, 298.5527
592.5290, 62.96875
593.7000, 219.3848
594.8700, 217.7949
596.0400, 293.9629
597.2090, 121.3711
598.3790, 148.9395
599.5490, 133.1797
600.7180, 135.2969
601.8870, 70.67773
603.0560, 227.1719
604.2250, 313.9395
605.3940, 246.4316
606.5620, 229.9297
607.7300, 424.0527
608.8990, 245.5664
610.0670, 566.1074
611.2350, 666.2891
612.4020, 779.4082
613.5700, 980.9727
614.7370, 1058.541
615.9050, 744.1094
617.0720, 779.5938
618.2390, 663.0000
619.4060, 585.7363
620.5720, 575.2988
621.7390, 799.8594
622.9050, 463.5273
624.0710, 920.9766
625.2370, 91.53125
626.4030, 88.08594
627.5690, 282.6348
628.7340, 205.7188
629.9000, 66.73438
631.0650, 13.76953
632.2300, 107.7344
633.3950, 284.6953
634.5600, 171.1230
635.7240, 347.5508
636.8890, 211.9707
638.0530, 247.3887
639.2170, 486.8047
640.3810, 662.2168
641.5450, 531.6250
642.7080, 543.0332
643.8720, 502.4355
645.0350, 698.8340
646.1980, 777.2305
647.3610, 571.6211
648.5240, 873.0078
649.6870, 841.3906
650.8490, 917.7695
652.0120, 1225.145
653.1740, 1053.732
654.3360, 1200.098
655.4980, 1362.445
656.6600, 1530.133
657.8210, 1795.639
658.9830, 2204.156
660.1440, 2418.498
661.3050, 2878.889
662.4660, 3321.424
663.6270, 3937.045
664.7870, 4713.670
665.9480, 5459.979
667.1080, 6545.285
668.2680, 7562.582
669.4280, 8523.955
670.5880, 9243.238
671.7480, 9939.172
672.9070, 10804.31
674.0670, 10875.58
675.2260, 10952.83
676.3850, 11020.02
677.5440, 11704.34
678.7030, 12861.87
679.8610, 14523.09
681.0200, 16810.12
682.1780, 19775.33
683.3360, 23012.53
684.4940, 26922.67
685.6520, 30084.75
686.8090, 31006.85
687.9670, 29738.18
689.1240, 26827.73
690.2810, 22980.92
691.4380, 18723.48
692.5950, 14775.25
693.7520, 11852.83
694.9080, 9504.229
696.0650, 7519.172
697.2210, 6152.697
698.3770, 5113.908
699.5330, 4332.039
700.6880, 3984.164
701.8440, 3251.379
702.9990, 2780.484
704.1550, 2488.580
705.3100, 2089.967
706.4650, 1906.521
707.6190, 1746.590
708.7740, 1539.652
709.9290, 1221.391
711.0830, 1042.430
712.2370, 1136.461
713.3910, 808.7910
714.5450, 887.5234
715.6980, 821.1309
716.8520, 760.1172
718.0050, 753.0918
719.1580, 792.1055
720.3110, 719.5332
721.4640, 629.4746
722.6170, 676.5059
723.7700, 375.4258
724.9220, 465.6582
726.0740, 114.5527
727.2260, 277.4336
728.3780, 196.3047
729.5300, 406.1621
730.6810, 237.0098
731.8330, 430.7969
732.9840, 200.6172
734.1350, 312.4277
735.2860, 440.2324
736.4370, 580.0234
737.5880, 423.8047
738.7380, 702.7363
739.8880, 469.6484
741.0390, 364.7793
742.1890, 465.5820
743.3380, 505.5605
744.4880, 419.7246
745.6380, 465.5098
746.7870, 648.0137
747.9360, 623.3262
749.0850, 393.2168
750.2340, 435.5898
751.3830, 271.4004
752.5310, 299.4609
753.6800, 481.2344
754.8280, 430.9941
755.9760, 388.7559
757.1240, 367.8203
758.2720, 517.5879
759.4190, 469.3418
760.5670, 303.0801
761.7140, 478.8047
762.8610, 416.5137
764.0080, 437.2070
765.1550, 691.8848
766.3020, 373.5469
767.4480, 534.2129
768.5950, 330.1211
769.7410, 625.4570
770.8870, 484.7969
772.0330, 210.4023
773.1780, 340.9941
774.3240, 550.5703
775.4690, 466.1348
776.6140, 347.6836
777.7590, 260.2168
778.9040, 336.7383
780.0490, 253.9961
781.1940, 246.6387
782.3380, 188.2168
783.4820, 242.6816
784.6260, 122.1328
785.7700, 198.5684
786.9140, 187.9922
788.0580, 261.4004
789.2010, 275.7969
790.3450, 78.17969
791.4880, 210.5449
792.6310, 69.10352
793.7730, 67.17383
794.9160, 14.56641
796.0590, 19.35156
797.2010, 127.8184
798.3430, 31.35156
799.4850, 26.90039
800.6270, 64.17773
801.7690, 64.24023
802.9100, 265.2852
804.0520, 141.3184
805.1930, 490.3379
806.3340, 26.34570
807.4750, 450.3281
808.6160, 47.70117
809.7560, 78.78711
810.8970, 249.0469
812.0370, 299.8711
813.1770, 26.68164
814.3170, 21.46875
815.4570, 53.23633
816.5960, 273.9883
817.7360, 3.726563
818.8750, 148.4355
820.0140, 76.13281
821.1530, 225.8184
822.2920, 269.5000
823.4310, 15.77539
824.5690, 144.8223
825.7070, 47.55664
826.8460, 108.2773
827.9840, 102.9824
829.1220, 93.71289
830.2590, 6.566406
831.3970, 4.410156
832.5340, 24.77344
833.6710, 55.59180
834.8080, 57.98242
835.9450, 72.40234
837.0820, 337.0801
838.2190, 55.62305
839.3550, 133.1523
840.4910, 75.67383
841.6270, 135.8164
842.7630, 5.593750
843.8990, 99.98047
845.0350, 115.3574
846.1700, 33.27734
847.3060, 204.0469
848.4410, 203.3594
849.5760, 29.66406
850.7100, 196.0430
851.8450, 18.87891
852.9800, 213.2539
854.1140, 79.38086
855.2480, 37.49609
856.3820, 2.394531
857.5160, 106.6875
858.6500, 96.23438
859.7830, 72.77344
860.9170, 16.77344
862.0500, 48.76172
863.1830, 71.74414
864.3160, 94.71875
865.4480, 99.41016
866.5810, 97.94141
867.7130, 100.6094
868.8460, 77.56250
869.9780, 81.50781
871.1100, 77.45117
872.2410, 101.3906
873.3730, 235.3242
874.5050, 93.74609
875.6360, 141.8770
876.7670, 114.0898
877.8980, 11.62695
879.0290, 4.337891
880.1590, 17.52930
881.2900, 19.72852
882.4200, 76.59180
883.5500, 107.9570
884.6800, 17.38281
885.8100, 77.44336
886.9400, 5.693359
888.0690, 22.79688
889.1990, 91.69922
890.3280, 232.1895
891.4570, 152.6777
892.5860, 5.833984
893.7140, 19.65039
894.8430, 82.12891
895.9710, 165.6074
897.1000, 46.08789
898.2280, 215.5664
899.3560, 212.0430
900.4830, 393.5195
901.6110, 117.0000
902.7380, 304.4785
903.8660, 123.9570
904.9930, 328.4609
906.1200, 387.9648
907.2460, 343.5039
908.3730, 339.0449
909.5000, 346.5898
910.6260, 518.1367
911.7520, 373.6836
912.8780, 705.2363
914.0040, 491.7930
915.1290, 678.3496
916.2550, 669.9121
917.3800, 775.4766
918.5050, 835.0469
919.6300, 698.6191
920.7550, 974.2012
921.8800, 850.7832
923.0040, 993.3730
924.1290, 815.9648
925.2530, 981.5645
926.3770, 940.9570
927.5010, 1214.568
928.6250, 1158.199
929.7480, 1052.496
930.8720, 778.6055
931.9950, 986.4414
933.1180, 768.0879
934.2410, 509.6855
935.3640, 614.1426
936.4860, 496.5078
937.6090, 479.8926
938.7310, 330.5840
939.8530, 184.2871
940.9750, 435.9961
942.0970, 24.63477
943.2180, 452.3672
944.3400, 305.8047
945.4610, 259.3320
946.5820, 387.0977
947.7030, 134.8770
948.8240, 214.7285
949.9450, 349.4453
951.0650, 220.9648
952.1860, 154.7930
953.3060, 52.81445
954.4260, 197.6719
955.5460, 171.5332
956.6650, 52.57812
957.7850, 239.3125
958.9040, 194.7070
960.0230, 86.15430
961.1420, 57.66797
962.2610, 186.5566
963.3800, 303.4629
964.4990, 82.38281
965.6170, 280.9023
966.7350, 14.60352
967.8530, 247.7734
968.9710, 61.36719
970.0890, 116.7090
971.2070, 12.71484
972.3240, 256.2988
973.4410, 161.2305
974.5580, 252.2773
975.6750, 59.34375
976.7920, 52.13281
977.9090, 62.76367
979.0250, 108.2500
980.1410, 60.06250
981.2580, 362.5664
982.3740, 361.7910
983.4890, 521.0371
984.6050, 300.0273
985.7200, 507.6328
986.8360, 663.3789
987.9510, 935.7559
989.0660, 933.1543
990.1810, 946.5312
991.2950, 1095.512
992.4100, 1214.990
993.5240, 1222.396
994.6390, 1572.973
995.7530, 2011.250
996.8660, 1824.887
997.9800, 2134.561
999.0940, 2248.260
1000.207, 2200.004
1001.320, 2720.781
1002.433, 3136.600
1003.546, 2807.443
1004.659, 3076.312
1005.772, 2878.211
1006.884, 3225.156
1007.996, 3161.133
1009.108, 3160.975
1010.220, 3287.883
1011.332, 3304.773
1012.444, 3462.713
1013.555, 3405.666
1014.666, 3347.447
1015.777, 3181.633
1016.888, 3168.133
1017.999, 3079.840
1019.110, 3205.984
1020.220, 3032.705
1021.331, 3026.562
1022.441, 3218.145
1023.551, 2930.559
1024.661, 2898.010
1025.770, 2919.488
1026.880, 2994.705
1027.989, 2748.340
1029.098, 2715.010
1030.207, 2611.711
1031.316, 2734.447
1032.425, 2442.215
1033.533, 2362.018
1034.642, 2200.895
1035.750, 1992.807
1036.858, 2038.764
1037.966, 2391.766
1039.073, 2444.832
1040.181, 2410.941
1041.288, 2559.086
1042.396, 2705.266
1043.503, 2947.477
1044.610, 2969.803
1045.716, 3402.084
1046.823, 3918.400
1047.929, 4254.750
1049.036, 4908.135
1050.142, 5422.328
1051.248, 6209.016
1052.353, 6622.508
1053.459, 7484.035
1054.564, 8132.594
1055.670, 9023.193
1056.775, 9885.826
1057.880, 11067.49
1058.985, 12073.19
1060.089, 13150.93
1061.194, 14328.71
1062.298, 15535.55
1063.402, 16976.43
1064.506, 18132.36
1065.610, 18947.34
1066.713, 19810.36
1067.817, 20098.42
1068.920, 19938.58
1070.023, 19708.74
1071.126, 19549.93
1072.229, 18838.17
1073.332, 18084.43
1074.435, 16847.74
1075.537, 15699.08
1076.639, 14364.46
1077.741, 13291.91
1078.843, 12326.44
1079.945, 11270.19
1081.046, 10260.72
1082.148, 9536.270
1083.249, 8356.969
1084.350, 7726.707
1085.451, 7068.480
1086.551, 6631.297
1087.652, 6292.148
1088.752, 5905.043
1089.853, 5489.020
1090.953, 5161.586
1092.053, 4937.086
1093.152, 4533.133
1094.252, 4248.223
1095.351, 4094.344
1096.451, 4075.504
1097.550, 3860.699
1098.649, 3769.945
1099.748, 3318.238
1100.846, 3391.570
1101.945, 3191.965
1103.043, 3172.539
1104.141, 2994.879
1105.239, 2766.414
1106.337, 2822.988
1107.434, 2724.594
1108.532, 2796.238
1109.629, 2556.965
1110.726, 2597.738
1111.823, 2711.223
1112.920, 2455.066
1114.017, 2591.434
1115.113, 2461.359
1116.210, 2884.895
1117.306, 2514.312
1118.402, 2615.406
1119.498, 2510.547
1120.593, 2445.723
1121.689, 2771.930
1122.784, 2726.145
1123.879, 2772.430
1124.974, 2732.965
1126.069, 2610.168
1127.164, 2881.582
1128.259, 2781.047
1129.353, 2686.824
1130.447, 2810.371
1131.541, 2586.609
1132.635, 2468.945
1133.729, 2290.773
1134.822, 2161.410
1135.916, 2140.082
1137.009, 1901.785
1138.102, 1644.984
1139.195, 1847.746
1140.288, 1627.562
1141.380, 1596.438
1142.473, 1276.379
1143.565, 1167.387
1144.657, 1012.426
1145.749, 1098.492
1146.841, 1224.613
1147.932, 1085.746
1149.024, 817.9297
1150.115, 1026.172
1151.206, 803.3242
1152.297, 797.6562
1153.388, 733.0195
1154.479, 558.1289
1155.569, 670.5547
1156.659, 477.0078
1157.750, 430.4961
1158.839, 359.5430
1159.929, 319.0859
1161.019, 339.6523
1162.108, 249.2578
1163.198, 378.8945
1164.287, 393.5625
1165.376, 304.2383
1166.465, 374.9688
1167.553, 317.2148
1168.642, 365.5977
1169.730, 294.0508
1170.818, 279.1445
1171.906, 217.5625
1172.994, 109.4375
1174.082, 273.3594
1175.170, 7.695313
1176.257, 238.2695
1177.344, 267.3594
1178.431, 196.3945
1179.518, 281.7148
1180.605, 255.7852
1181.691, 140.8828
1182.778, 259.9961
1183.864, 394.1289
1184.950, 455.2812
1186.036, 223.4492
1187.122, 18.64453
1188.207, 230.8477
1189.292, 391.0742
1190.378, 183.3164
1191.463, 32.58203
1192.548, 302.8594
1193.632, 115.1562
1194.717, 150.4688
1195.801, 144.7969
1196.886, 294.1445
1197.970, 136.5078
1199.054, 1.515625
1200.137, 229.8789
1201.221, 434.2852
1202.305, 141.7031
1203.388, 464.1406
1204.471, 113.5938
1205.554, 386.0586
1206.637, 597.5430
1207.719, 458.1602
1208.802, 183.8359
1209.884, 213.3555
1210.966, 134.4805
1212.048, 266.0195
1213.130, 241.5820
1214.212, 294.1484
1215.293, 412.7227
1216.374, 467.3164
1217.456, 480.6484
1218.536, 230.9219
1219.617, 475.5430
1220.698, 427.1836
1221.778, 415.8281
1222.859, 543.5117
1223.939, 238.2109
1225.019, 378.9180
1226.099, 322.6328
1227.178, 166.3555
1228.258, 266.0859
1229.337, 230.1367
1230.417, 108.8828
1231.496, 40.64453
1232.574, 95.40625
1233.653, 39.73047
1234.732, 183.9688
1235.810, 34.76953
1236.888, 250.6875
1237.966, 198.1523
1239.044, 154.9648
1240.122, 164.0000
1241.199, 119.1797
1242.277, 107.5938
1243.354, 58.62500
1244.431, 182.1367
1245.508, 146.0938
1246.585, 34.39062
1247.661, 124.3008
1248.738, 84.99219
1249.814, 165.6914
1250.890, 17.38281
1251.966, 41.75391
1253.042, 221.9258
1254.117, 1.394531
1255.193, 186.7227
1256.268, 90.85547
1257.343, 38.56641
1258.418, 43.01172
1259.493, 6.523438
1260.567, 65.94531
1261.642, 30.44922
1262.716, 55.97266
1263.790, 63.47266
1264.864, 65.91406
1265.938, 213.4219
1267.011, 89.11328
1268.085, 86.30078
1269.158, 117.0273
1270.231, 338.5664
1271.304, 37.96484
1272.377, 203.7500
1273.450, 21.35938
1274.522, 93.75781
1275.594, 22.85938
1276.666, 39.50391
1277.738, 61.86328
1278.810, 247.2109
1279.882, 0.5625000
1280.953, 59.78906
1282.025, 70.10938
1283.096, 11.57031
1284.167, 100.7148
1285.238, 96.13672
1286.308, 201.1445
1287.379, 323.5898
1288.449, 35.69531
1289.519, 49.79688
1290.589, 238.0312
1291.659, 417.2461
1292.729, 73.40625
1293.798, 131.9805
1294.868, 152.9453
1295.937, 11.12891
