##NAMES=Beryl
##RRUFFID=R050065
##IDEAL CHEMISTRY=Be_3_Al_2_Si_6_O_18_
##LOCALITY=Xuebaoding, Sichuan Province, China
##OWNER=RRUFF
##SOURCE=Rock Currier
##DESCRIPTION=Light blue colored tabular single crystal
##STATUS=The identification of this mineral has been confirmed by X-ray diffraction and chemical analysis
##URL=rruff.info/R050065
##MEASURED CHEMISTRY=(Be_2.78_Li_0.22_)_Σ=3_Al_2.00_Si_6.00_O_18_·Na_0.22_
##PIN_ID=L00371
##ORIENTATION=Laser parallel to c* (0 0 1). Fiducial mark perpendicular to laser is parallel to a [1 0 0]
91.981, 0.000
93.375, 93.583
94.768, 10.975
96.161, 112.421
97.554, 66.461
98.947, 149.896
100.340, 239.320
101.732, 413.843
103.124, 377.460
104.516, 631.723
105.908, 820.532
107.300, 851.031
108.691, 1201.570
110.082, 1401.626
111.473, 1630.766
112.864, 1857.632
114.254, 2346.945
115.644, 2604.450
117.034, 2742.905
118.424, 2675.105
119.813, 2859.875
121.203, 2772.064
122.592, 2588.551
123.981, 2667.367
125.369, 2546.359
126.758, 2411.415
128.146, 2283.453
129.534, 2554.400
130.922, 2420.191
132.309, 2427.805
133.696, 2296.146
135.083, 2415.338
136.470, 2369.248
137.857, 2416.732
139.243, 2229.689
140.630, 2143.093
142.016, 1994.914
143.401, 1929.132
144.787, 1788.728
146.172, 1681.682
147.557, 1506.981
148.942, 1400.616
150.327, 1490.575
151.711, 1465.846
153.096, 1580.415
154.480, 1501.499
155.863, 1410.014
157.247, 1548.365
158.630, 1419.958
160.013, 1469.771
161.396, 1529.805
162.779, 1577.063
164.161, 1531.537
165.544, 1475.223
166.926, 1440.112
168.308, 1470.197
169.689, 1322.470
171.070, 1392.737
172.452, 1417.346
173.833, 1272.117
175.213, 1242.976
176.594, 1058.409
177.974, 1100.185
179.354, 988.511
180.734, 899.550
182.114, 969.129
183.493, 852.766
184.872, 793.470
186.251, 851.249
187.630, 620.112
189.008, 783.062
190.387, 802.103
191.765, 574.238
193.143, 639.470
194.520, 586.801
195.898, 631.230
197.275, 551.758
198.652, 584.384
200.029, 442.109
201.405, 399.959
202.782, 288.902
204.158, 279.989
205.534, 320.268
206.909, 120.636
208.285, 41.090
209.660, 209.630
211.035, 43.254
212.410, 44.979
213.784, 32.782
215.159, 59.913
216.533, 2.176
217.907, 35.491
219.281, 23.594
220.654, 90.137
222.027, 49.359
223.400, 115.672
224.773, 168.188
226.146, 142.864
227.518, 202.800
228.891, 257.082
230.263, 283.247
231.634, 352.715
233.006, 350.222
234.377, 296.777
235.748, 263.397
237.119, 180.123
238.490, 294.921
239.860, 219.780
241.231, 306.670
242.601, 206.584
243.970, 216.521
245.340, 249.479
246.709, 48.456
248.079, 179.454
249.448, 30.531
250.816, 98.502
252.185, 17.550
253.553, 9.610
254.921, 42.684
256.289, 24.771
257.657, 71.077
259.024, 103.886
260.391, 17.383
261.758, 40.857
263.125, 36.208
264.492, 19.731
265.858, 55.346
267.224, 113.922
268.590, 90.500
269.956, 98.348
271.321, 121.448
272.687, 128.780
274.052, 19.322
275.416, 126.060
276.781, 58.978
278.146, 114.062
279.510, 187.301
280.874, 245.685
282.237, 346.206
283.601, 438.856
284.964, 528.926
286.327, 703.509
287.690, 769.892
289.053, 1004.610
290.416, 1224.827
291.778, 1278.144
293.140, 1331.554
294.502, 1118.049
295.863, 1072.623
297.225, 874.269
298.586, 540.986
299.947, 488.767
301.308, 390.611
302.668, 442.513
304.029, 386.541
305.389, 431.484
306.749, 329.607
308.108, 534.370
309.468, 446.542
310.827, 601.767
312.186, 640.040
313.545, 863.763
314.903, 893.002
316.262, 1073.098
317.620, 1434.533
318.978, 1782.037
320.336, 1976.525
321.693, 2188.045
323.051, 2448.593
324.408, 2113.168
325.765, 2046.767
327.121, 1410.394
328.478, 1057.042
329.834, 756.117
331.190, 483.811
332.546, 99.526
333.902, 195.262
335.257, 103.763
336.612, 24.010
337.967, 209.244
339.322, 192.496
340.677, 33.780
342.031, 151.981
343.385, 14.630
344.739, 100.641
346.093, 87.290
347.446, 46.258
348.799, 47.269
350.153, 155.193
351.505, 89.667
352.858, 34.162
354.210, 164.184
355.563, 97.489
356.915, 174.425
358.267, 175.912
359.618, 162.777
360.969, 268.869
362.321, 231.346
363.672, 210.748
365.022, 270.390
366.373, 283.098
367.723, 291.893
369.073, 340.802
370.423, 501.651
371.773, 359.505
373.122, 585.576
374.471, 729.431
375.821, 538.522
377.169, 860.411
378.518, 934.692
379.866, 987.913
381.215, 1198.695
382.563, 1486.135
383.910, 1732.626
385.258, 2096.255
386.605, 2749.879
387.952, 3220.234
389.299, 4084.848
390.646, 5190.452
391.992, 6501.048
393.339, 8354.634
394.685, 10380.209
396.031, 12898.771
397.376, 14421.324
398.722, 15520.867
400.067, 15188.396
401.412, 13650.910
402.757, 11802.411
404.101, 9217.900
405.446, 7175.374
406.790, 5816.836
408.134, 4567.281
409.478, 3957.713
410.821, 3307.129
412.165, 2942.139
413.508, 3097.524
414.851, 2892.895
416.193, 2780.248
417.536, 2939.587
418.878, 3121.910
420.220, 2912.252
421.562, 2542.399
422.904, 2625.574
424.245, 2449.353
425.586, 2178.742
426.927, 2013.136
428.268, 1522.613
429.609, 1267.008
430.949, 1264.542
432.289, 1226.933
433.629, 947.320
434.969, 998.702
436.309, 985.078
437.648, 1037.446
438.987, 938.807
440.326, 746.156
441.665, 691.496
443.003, 635.623
444.342, 552.820
445.680, 570.125
447.018, 520.414
448.355, 424.318
449.693, 476.266
451.030, 479.443
452.367, 538.778
453.704, 151.166
455.041, 335.042
456.377, 120.832
457.713, 249.986
459.049, 280.227
460.385, 150.341
461.721, 304.435
463.056, 176.507
464.391, 166.557
465.726, 209.586
467.061, 96.591
468.395, 41.566
469.730, 203.508
471.064, 119.487
472.398, 319.347
473.731, 31.216
475.065, 44.061
476.398, 38.140
477.731, 225.576
479.064, 114.266
480.397, 188.926
481.729, 237.560
483.062, 240.192
484.394, 302.344
485.725, 251.559
487.057, 309.898
488.389, 229.440
489.720, 75.954
491.051, 226.471
492.382, 313.960
493.712, 156.467
495.043, 125.944
496.373, 170.005
497.703, 235.746
499.032, 146.705
500.362, 133.628
501.691, 55.648
503.020, 17.448
504.349, 76.260
505.678, 64.030
507.007, 107.752
508.335, 59.238
509.663, 50.921
510.991, 18.036
512.319, 17.232
513.646, 24.511
514.973, 43.859
516.300, 56.693
517.627, 28.785
518.954, 145.356
520.280, 11.922
521.607, 25.836
522.933, 8.318
524.259, 74.586
525.584, 138.607
526.910, 110.217
528.235, 164.010
529.560, 179.770
530.885, 276.057
532.209, 105.211
533.534, 258.887
534.858, 159.525
536.182, 7.125
537.506, 24.648
538.829, 67.113
540.152, 51.521
541.476, 309.871
542.799, 34.184
544.121, 231.432
545.444, 232.643
546.766, 142.820
548.088, 216.957
549.410, 345.059
550.732, 516.125
552.053, 379.158
553.375, 371.156
554.696, 476.121
556.017, 619.051
557.337, 756.945
558.658, 816.809
559.978, 768.637
561.298, 949.443
562.618, 829.213
563.938, 908.947
565.257, 995.650
566.576, 970.316
567.895, 1196.971
569.214, 1349.588
570.533, 1324.172
571.851, 1267.719
573.170, 1509.232
574.488, 1418.711
575.805, 1315.154
577.123, 1348.561
578.440, 1300.930
579.758, 1365.264
581.075, 1037.570
582.391, 1159.848
583.708, 1053.086
585.024, 807.291
586.341, 789.457
587.657, 741.594
588.972, 592.123
590.288, 639.764
591.603, 435.795
592.918, 443.791
594.233, 473.748
595.548, 386.668
596.863, 311.551
598.177, 342.395
599.491, 338.205
600.805, 317.977
602.119, 190.711
603.432, 316.398
604.746, 324.051
606.059, 196.664
607.372, 62.232
608.685, 86.080
609.997, 117.168
611.309, 114.549
612.621, 194.873
613.933, 200.510
615.245, 366.385
616.557, 268.582
617.868, 321.742
619.179, 391.861
620.490, 350.943
621.801, 615.986
623.111, 342.994
624.421, 514.963
625.731, 122.838
627.041, 356.180
628.351, 170.043
629.660, 175.836
630.970, 380.582
632.279, 303.131
633.588, 463.920
634.896, 423.771
636.205, 431.477
637.513, 297.992
638.821, 463.516
640.129, 288.004
641.437, 576.824
642.744, 387.236
644.051, 509.785
645.358, 467.123
646.665, 625.424
647.972, 524.988
649.278, 648.232
650.584, 640.598
651.890, 756.766
653.196, 706.668
654.502, 754.908
655.807, 639.773
657.113, 814.857
658.418, 912.580
659.722, 723.678
661.027, 878.299
662.331, 1009.188
663.636, 1339.578
664.940, 1246.846
666.244, 1595.488
667.547, 1619.557
668.851, 2091.672
670.154, 2378.744
671.457, 3048.801
672.760, 3881.021
674.062, 4468.984
675.365, 5941.977
676.667, 7506.564
677.969, 9773.676
679.271, 13018.605
680.572, 16991.199
681.874, 23296.998
683.175, 29798.615
684.476, 35534.211
685.777, 39149.578
687.077, 38169.973
688.378, 34216.414
689.678, 27838.529
690.978, 21500.836
692.278, 16038.871
693.577, 13182.082
694.877, 10024.480
696.176, 8345.168
697.475, 6551.242
698.774, 5716.369
700.072, 4879.621
701.371, 4121.691
702.669, 3478.734
703.967, 3199.012
705.265, 3196.002
706.562, 2629.963
707.860, 2169.896
709.157, 2354.801
710.454, 1726.680
711.751, 2014.529
713.047, 1659.355
714.344, 1626.029
715.640, 1324.801
716.936, 1398.164
718.232, 1575.883
719.527, 1284.574
720.823, 1255.379
722.118, 1078.021
723.413, 1066.531
724.708, 975.119
726.002, 1219.686
727.297, 938.225
728.591, 1081.738
729.885, 1067.227
731.179, 926.689
732.472, 727.129
733.766, 822.545
735.059, 804.936
736.352, 933.301
737.645, 877.645
738.937, 936.963
740.230, 627.258
741.522, 734.531
742.814, 737.777
744.106, 747.006
745.397, 808.207
746.689, 799.547
747.980, 703.547
749.271, 745.680
750.562, 761.793
751.853, 575.885
753.143, 680.955
754.433, 780.004
755.723, 498.031
757.013, 919.041
758.303, 690.346
759.592, 661.312
760.881, 586.258
762.170, 853.555
763.459, 603.775
764.748, 441.725
766.036, 769.486
767.325, 358.158
768.613, 640.305
769.901, 550.502
771.188, 479.297
772.476, 558.967
773.763, 429.758
775.050, 361.473
776.337, 296.199
777.624, 322.910
778.910, 298.604
780.196, 292.281
781.482, 98.951
782.768, 116.604
784.054, 303.184
785.339, 211.842
786.625, 47.549
787.910, 273.012
789.195, 105.566
790.479, 275.137
791.764, 209.693
793.048, 110.238
794.332, 210.770
795.616, 35.262
796.900, 230.766
798.183, 133.746
799.467, 272.643
800.750, 117.020
802.033, 142.252
803.316, 300.016
804.598, 151.729
805.880, 137.420
807.163, 140.555
808.445, 50.686
809.726, 85.699
811.008, 75.346
812.289, 117.619
813.570, 38.332
814.851, 1.721
816.132, 22.221
817.413, 49.578
818.693, 5.730
819.973, 78.330
821.253, 32.676
822.533, 65.314
823.813, 104.326
825.092, 45.645
826.371, 74.369
827.650, 61.592
828.929, 77.414
830.208, 132.439
831.486, 134.482
832.764, 42.533
834.042, 54.428
835.320, 10.592
836.598, 56.646
837.875, 33.244
839.152, 22.844
840.429, 205.928
841.706, 99.992
842.983, 31.027
844.259, 357.049
845.536, 132.070
846.812, 16.086
848.088, 45.877
849.363, 115.152
850.639, 204.189
851.914, 230.803
853.189, 274.531
854.464, 279.354
855.739, 243.418
857.013, 118.480
858.288, 65.543
859.562, 165.607
860.836, 303.674
862.110, 17.738
863.383, 98.803
864.656, 49.869
865.930, 110.936
867.203, 28.998
868.475, 145.064
869.748, 66.871
871.020, 76.170
872.292, 201.215
873.564, 5.740
874.836, 34.309
876.108, 110.639
877.379, 92.375
878.650, 75.389
879.922, 159.412
881.192, 49.438
882.463, 145.469
883.733, 122.508
885.004, 144.551
886.274, 112.602
887.544, 273.656
888.813, 158.719
890.083, 197.791
891.352, 222.869
892.621, 99.955
893.890, 309.049
895.159, 114.152
896.427, 207.262
897.695, 367.381
898.964, 397.510
900.232, 422.707
901.499, 385.793
902.767, 446.949
904.034, 305.115
905.301, 434.289
906.568, 543.475
907.835, 561.672
909.102, 365.877
910.368, 342.094
911.634, 567.324
912.900, 356.568
914.166, 605.822
915.432, 388.090
916.697, 83.385
917.962, 427.707
919.227, 291.047
920.492, 391.408
921.757, 83.789
923.021, 388.182
924.285, 210.590
925.550, 314.010
926.813, 203.443
928.077, 186.889
929.341, 272.348
930.604, 348.820
931.867, 66.307
933.130, 246.805
934.393, 413.221
935.655, 59.732
936.918, 311.287
938.180, 199.861
939.442, 109.203
940.703, 185.805
941.965, 154.396
943.226, 188.348
944.488, 96.676
945.749, 221.338
947.009, 216.014
948.270, 116.336
949.530, 176.043
950.791, 97.596
952.051, 76.334
953.311, 132.908
954.570, 227.148
955.830, 243.908
957.089, 137.523
958.348, 606.318
959.607, 208.133
960.866, 41.164
962.124, 55.898
963.383, 159.758
964.641, 63.984
965.899, 254.752
967.156, 50.434
968.414, 79.807
969.671, 199.082
970.928, 38.416
972.185, 191.418
973.442, 157.525
974.699, 227.572
975.955, 158.682
977.211, 51.279
978.468, 375.432
979.723, 315.207
980.979, 178.406
982.234, 654.625
983.490, 83.096
984.745, 581.359
986.000, 680.033
987.254, 410.256
988.509, 846.590
989.763, 852.863
991.017, 1048.234
992.271, 1111.670
993.525, 1479.057
994.779, 1683.564
996.032, 1937.154
997.285, 2322.770
998.538, 1936.418
999.791, 2553.762
1001.044, 2204.465
1002.296, 2332.191
1003.548, 2124.939
1004.800, 1918.750
1006.052, 1792.586
1007.304, 1585.449
1008.555, 1670.365
1009.807, 1309.311
1011.058, 1393.305
1012.309, 1419.361
1013.559, 903.445
1014.810, 847.557
1016.060, 1050.734
1017.310, 870.939
1018.560, 690.373
1019.810, 706.719
1021.060, 809.502
1022.309, 545.922
1023.558, 810.387
1024.807, 392.736
1026.056, 586.277
1027.305, 334.967
1028.553, 714.576
1029.801, 590.270
1031.049, 236.986
1032.297, 415.729
1033.545, 642.494
1034.793, 465.305
1036.040, 401.234
1037.287, 587.199
1038.534, 591.203
1039.781, 651.227
1041.027, 473.285
1042.274, 781.367
1043.520, 789.471
1044.766, 635.602
1046.012, 707.754
1047.257, 790.930
1048.503, 1176.129
1049.748, 895.346
1050.993, 1214.586
1052.238, 1302.867
1053.483, 1322.166
1054.727, 1480.496
1055.971, 1725.473
1057.216, 2219.209
1058.459, 2417.611
1059.703, 2750.031
1060.947, 3287.469
1062.190, 3457.922
1063.433, 3896.395
1064.676, 4205.885
1065.919, 4123.391
1067.162, 4799.914
1068.404, 4425.453
1069.646, 4601.010
1070.888, 4906.582
1072.130, 4366.170
1073.372, 4351.775
1074.613, 4437.396
1075.855, 3913.029
1077.096, 3685.682
1078.337, 3693.346
1079.578, 3338.027
1080.818, 3150.723
1082.059, 2772.434
1083.299, 2668.160
1084.539, 2374.900
1085.779, 2089.656
1087.018, 1807.424
1088.258, 1617.207
1089.497, 1472.258
1090.736, 1306.859
1091.975, 1325.711
1093.213, 1300.570
1094.452, 1315.445
1095.690, 1292.646
1096.928, 1070.236
1098.166, 1126.154
1099.404, 1233.086
1100.642, 900.072
1101.879, 985.072
1103.116, 882.719
1104.353, 879.789
1105.590, 761.875
1106.827, 738.018
1108.063, 687.729
1109.299, 629.168
1110.536, 646.211
1111.771, 556.660
1113.007, 637.424
1114.243, 661.234
1115.478, 563.795
1116.713, 416.754
1117.948, 601.434
1119.183, 707.301
1120.418, 736.373
1121.652, 460.371
1122.886, 578.279
1124.120, 547.408
1125.354, 500.492
1126.588, 675.031
1127.821, 442.988
1129.055, 613.348
1130.288, 622.949
1131.521, 706.105
1132.753, 629.857
1133.986, 599.445
1135.218, 1025.416
1136.450, 550.752
1137.682, 887.732
1138.914, 663.812
1140.146, 650.264
1141.377, 757.270
1142.609, 641.439
1143.840, 864.881
1145.071, 816.668
1146.301, 652.471
1147.532, 695.961
1148.762, 648.020
1149.992, 626.258
1151.222, 624.352
1152.452, 616.047
1153.682, 515.250
1154.911, 481.344
1156.140, 272.240
1157.369, 341.400
1158.598, 172.748
1159.827, 91.492
1161.055, 231.275
1162.284, 89.732
1163.512, 126.436
1164.740, 344.398
1165.967, 26.703
1167.195, 400.922
1168.422, 273.070
1169.650, 314.609
1170.877, 162.914
1172.103, 286.904
1173.330, 314.203
1174.557, 357.666
1175.783, 388.930
1177.009, 422.400
1178.235, 425.385
1179.461, 489.203
1180.686, 424.049
1181.912, 513.889
1183.137, 570.254
1184.362, 466.373
1185.587, 546.328
1186.811, 547.174
1188.036, 448.148
1189.260, 653.043
1190.484, 574.555
1191.708, 684.572
1192.932, 591.750
1194.155, 748.020
1195.378, 748.316
1196.602, 749.408
1197.825, 649.059
1199.047, 794.246
1200.270, 838.439
1201.492, 983.092
1202.715, 960.824
1203.937, 1007.031
1205.159, 762.865
1206.380, 889.775
1207.602, 482.676
1208.823, 922.541
1210.044, 874.383
1211.265, 691.371
1212.486, 922.166
1213.707, 911.932
1214.927, 925.676
1216.147, 902.395
1217.367, 826.273
1218.587, 1025.943
1219.807, 965.586
1221.027, 1003.207
1222.246, 875.803
1223.465, 1095.377
1224.684, 1374.932
1225.903, 1192.461
1227.121, 1212.963
1228.340, 1366.445
1229.558, 1216.902
1230.776, 1191.354
1231.994, 1144.789
1233.212, 1328.219
1234.429, 1241.635
1235.646, 1077.041
1236.864, 1159.434
1238.081, 846.814
1239.297, 757.188
1240.514, 943.543
1241.730, 698.887
1242.947, 612.213
1244.163, 574.525
1245.378, 697.822
1246.594, 732.104
1247.810, 296.367
1249.025, 615.609
1250.240, 318.803
1251.455, 320.971
1252.670, 558.119
1253.885, 161.246
1255.099, 93.350
1256.313, 142.424
1257.527, 377.477
1258.741, 438.463
1259.955, 166.316
1261.168, 174.127
1262.382, 240.900
1263.595, 297.646
1264.808, 78.314
1266.021, 148.906
1267.233, 62.426
1268.446, 196.852
1269.658, 115.822
1270.870, 291.309
1272.082, 33.346
1273.294, 166.309
1274.505, 123.189
1275.716, 173.000
1276.928, 157.828
1278.139, 234.307
1279.349, 70.713
1280.560, 157.029
1281.770, 91.285
1282.981, 157.482
1284.191, 137.627
1285.401, 80.287
1286.610, 37.721
1287.820, 42.355
1289.029, 189.518
1290.239, 218.186
1291.448, 3.154
1292.656, 23.447
1293.865, 155.996
1295.073, 119.498
1296.282, 147.693
1297.490, 94.641
1298.698, 37.682
1299.906, 146.951
1301.113, 80.828
1302.320, 41.309
1303.528, 39.609
1304.735, 111.602
1305.942, 75.312
1307.148, 31.166
1308.355, 108.039
1309.561, 52.656
1310.767, 260.709
1311.973, 4.217
1313.179, 50.799
1314.384, 82.529
1315.590, 21.207
1316.795, 149.977
1318.000, 68.904
1319.205, 7.881
1320.410, 39.064
1321.614, 184.057
1322.819, 213.701
1324.023, 45.402
1325.227, 164.043
1326.431, 30.371
1327.634, 309.854
1328.838, 3.482
1330.041, 1.172
1331.244, 153.080
1332.447, 14.283
1333.650, 46.436
1334.852, 204.535
1336.055, 39.594
1337.257, 272.605
1338.459, 77.568
1339.661, 73.490
1340.862, 316.367
1342.064, 136.203
1343.265, 25.002
1344.466, 232.732
1345.667, 16.432
1346.868, 400.088
1348.068, 329.713
1349.269, 5.688
1350.469, 408.865
1351.669, 264.398
1352.869, 452.910
1354.069, 487.402
1355.268, 221.883
1356.468, 404.348
1357.667, 337.805
1358.866, 351.258
1360.065, 568.719
1361.263, 215.176
1362.462, 338.652
1363.660, 461.152
1364.858, 280.680
1366.056, 421.246
1367.254, 492.641
1368.451, 359.336
1369.649, 469.895
1370.846, 515.875
1372.043, 507.684
1373.240, 532.629
1374.436, 564.641
1375.633, 412.602
1376.829, 306.520
1378.025, 301.387
1379.221, 516.211
1380.417, 346.566
1381.613, 549.984
1382.808, 662.758
1384.003, 689.785
1385.199, 374.375
1386.393, 500.109
1387.588, 449.102
1388.783, 390.863
1389.977, 579.246
1391.171, 312.477
1392.365, 471.422
1393.559, 656.160
1394.753, 447.645
1395.946, 613.449
1397.140, 480.363
1398.333, 627.855
1399.526, 605.070
1400.719, 701.535
1401.911, 567.453
1403.104, 377.051
1404.296, 520.805
1405.488, 733.770
1406.680, 393.219
1407.872, 412.945
1409.063, 761.840
1410.255, 475.398
1411.446, 661.168
1412.637, 395.617
1413.828, 406.848
1415.018, 378.711
1416.209, 494.613
1417.399, 306.652
1418.589, 632.055
1419.779, 245.070
1420.969, 603.336
1422.159, 319.340
1423.348, 346.641
1424.537, 436.105
1425.726, 304.473
1426.915, 424.887
1428.104, 411.406
1429.293, 269.613
1430.481, 325.809
1431.669, 317.184
1432.857, 435.195
1434.045, 319.695
1435.233, 562.121
1436.420, 718.133
1437.608, 340.355
1438.795, 590.121
1439.982, 649.109
1441.169, 732.984
1442.355, 404.707
1443.542, 826.289
1444.728, 331.711
1445.914, 695.891
1447.100, 589.789
1448.286, 826.395
1449.472, 573.695
1450.657, 783.684
1451.842, 645.355
1453.027, 793.703
1454.212, 1580.723
1455.397, 1392.637
1456.581, 676.223
1457.766, 1015.473
1458.950, 480.480
1460.134, 1073.828
1461.318, 572.930
1462.501, 599.109
1463.685, 775.461
1464.868, 451.391
1466.051, 927.836
1467.234, 365.516
1468.417, 678.680
1469.600, 631.980
1470.782, 930.504
1471.965, 471.105
1473.147, 580.816
1474.329, 428.840
1475.510, 371.922
1476.692, 500.996
1477.873, 380.066
1479.055, 199.141
1480.236, 746.238
1481.416, 336.395
1482.597, 528.656
1483.778, 382.086
1484.958, 275.750
1486.138, 382.719
1487.318, 220.383
1488.498, 290.906
1489.678, 187.246
1490.857, 328.102
1492.037, 588.461
1493.216, 625.262
1494.395, 331.512
1495.574, 497.246
1496.752, 84.523
1497.931, 533.469
1499.109, 89.199
1500.287, 324.859
1501.465, 164.574
1502.643, 264.473
1503.820, 316.688
1504.998, 336.422
1506.175, 162.000
1507.352, 253.828
1508.529, 20.578
1509.706, 36.480
1510.882, 489.062
1512.059, 446.996
1513.235, 478.602
1514.411, 0.000
##END=



