##NAMES=Beryl
##RRUFFID=R050368
##IDEAL CHEMISTRY=Be_3_Al_2_Si_6_O_18_
##LOCALITY=Wah Wah Mountains, Utah, USA
##OWNER=RRUFF
##SOURCE=Eugene Schlepp
##DESCRIPTION=Red-violet hexagonal prism
##STATUS=The identification of this mineral has been confirmed by X-ray diffraction and chemical analysis
##URL=rruff.info/R050368
##MEASURED CHEMISTRY=(Be_0.99_Li_0.01_)_3_(Al_0.95_Fe^3+^_0.05_)_2_Si_6.00_O_18_Î‡K_0.02_Na_0.01_
##PIN_ID=L01802
##ORIENTATION=Laser parallel to -c* (0 0 -1). Fiducial mark perpendicular to laser is parallel to b [0 1 0]
82.36700, 0.0000000E+00
83.60200, 248.9746
84.83700, 336.0410
86.07200, 95.21094
87.30800, 149.3203
88.54200, 235.8262
89.77700, 383.1045
91.01200, 512.2002
92.24600, 744.4766
93.48000, 739.5332
94.71400, 831.0020
95.94800, 719.8115
97.18200, 581.3027
98.41600, 539.0469
99.64900, 438.1221
100.8830, 667.8652
102.1160, 348.5029
103.3490, 376.0996
104.5820, 422.7500
105.8150, 785.6699
107.0470, 1339.026
108.2800, 2330.940
109.5120, 2434.511
110.7440, 1376.812
111.9760, 509.8984
113.2080, 288.8154
114.4400, 572.5996
115.6710, 1061.279
116.9030, 1004.879
118.1340, 556.8965
119.3650, 369.0967
120.5960, 217.6162
121.8270, 225.1904
123.0580, 127.4629
124.2880, 76.45312
125.5190, 220.2314
126.7490, 83.50977
127.9790, 326.0840
129.2090, 418.9297
130.4390, 456.8174
131.6680, 541.9883
132.8980, 662.8770
134.1270, 591.6035
135.3560, 767.5098
136.5850, 852.5830
137.8140, 1050.809
139.0430, 1197.164
140.2710, 1352.634
141.5000, 1227.209
142.7280, 1154.886
143.9560, 882.6582
145.1840, 686.5264
146.4120, 418.4863
147.6390, 249.5332
148.8670, 172.6621
150.0940, 103.8682
151.3210, 24.47852
152.5490, 23.66504
153.7750, 65.51562
155.0020, 107.8057
156.2290, 149.4521
157.4550, 175.3955
158.6810, 253.6396
159.9080, 115.2998
161.1340, 63.99512
162.3590, 5.712891
163.5850, 179.5488
164.8110, 343.7959
166.0360, 434.0293
167.2610, 615.2510
168.4860, 639.4609
169.7110, 724.7383
170.9360, 744.8477
172.1610, 807.0254
173.3850, 877.1953
174.6100, 902.3545
175.8340, 1033.490
177.0580, 1135.603
178.2820, 1406.690
179.5050, 1603.867
180.7290, 1772.806
181.9520, 2033.836
183.1760, 2173.850
184.3990, 2176.849
185.6220, 2416.833
186.8450, 2364.805
188.0670, 2405.766
189.2900, 2678.714
190.5120, 2621.653
191.7340, 2638.552
192.9560, 2836.329
194.1780, 2819.895
195.4000, 2962.311
196.6220, 3013.704
197.8430, 2977.100
199.0640, 2864.495
200.2860, 2933.893
201.5070, 3059.290
202.7270, 3001.688
203.9480, 2670.092
205.1690, 2086.575
206.3890, 1719.101
207.6090, 1538.663
208.8290, 1507.221
210.0490, 1518.776
211.2690, 1467.328
212.4890, 1453.876
213.7080, 1483.421
214.9280, 1506.963
216.1470, 1541.502
217.3660, 1549.036
218.5850, 1563.660
219.8030, 1588.715
221.0220, 1583.392
222.2400, 1577.121
223.4590, 1594.302
224.6770, 1748.250
225.8950, 1691.874
227.1120, 1668.100
228.3300, 1764.646
229.5480, 1624.763
230.7650, 1643.065
231.9820, 1672.229
233.1990, 1730.090
234.4160, 1711.212
235.6330, 1755.540
236.8490, 1585.030
238.0660, 1571.655
239.2820, 1436.387
240.4980, 1328.204
241.7140, 1175.088
242.9300, 1117.027
244.1460, 1017.017
245.3610, 971.0479
246.5770, 1225.117
247.7920, 1072.208
249.0070, 1281.287
250.2220, 1381.354
251.4370, 1381.412
252.6510, 1524.466
253.8660, 1443.517
255.0800, 1365.567
256.2940, 1394.618
257.5080, 1357.671
258.7220, 1693.726
259.9360, 2052.785
261.1490, 1654.848
262.3630, 1397.915
263.5760, 1455.996
264.7890, 1588.016
266.0020, 1702.839
267.2150, 2117.331
268.4270, 2364.716
269.6400, 2646.117
270.8520, 2634.540
272.0640, 2381.982
273.2760, 2305.445
274.4880, 2166.926
275.7000, 2190.422
276.9120, 2079.934
278.1230, 1996.460
279.3340, 2181.000
280.5450, 2195.553
281.7560, 2241.116
282.9670, 2201.691
284.1780, 2238.276
285.3880, 2076.872
286.5980, 1937.476
287.8090, 1717.088
289.0190, 1689.709
290.2290, 1411.337
291.4380, 1557.973
292.6480, 1505.615
293.8570, 1547.265
295.0670, 1661.919
296.2760, 1660.580
297.4850, 1717.245
298.6930, 1876.997
299.9020, 1980.020
301.1110, 2155.014
302.3190, 2461.854
303.5270, 2573.238
304.7350, 2885.166
305.9430, 3270.646
307.1510, 3796.582
308.3580, 4207.858
309.5660, 5104.469
310.7730, 5989.072
311.9800, 7134.672
313.1870, 8496.264
314.3940, 9413.848
315.6010, 10329.43
316.8070, 11861.00
318.0130, 13487.57
319.2200, 14365.13
320.4260, 14067.69
321.6310, 11898.24
322.8370, 9115.779
324.0430, 6308.625
325.2480, 4323.377
326.4540, 3026.579
327.6590, 2112.103
328.8640, 1529.644
330.0680, 1370.156
331.2730, 1109.663
332.4780, 936.1650
333.6820, 900.6611
334.8860, 750.1533
336.0900, 742.6396
337.2940, 818.1211
338.4980, 636.5986
339.7010, 679.0732
340.9050, 636.5439
342.1080, 552.0127
343.3110, 384.4785
344.5140, 407.9375
345.7170, 517.4033
346.9200, 375.8623
348.1220, 400.3184
349.3240, 350.7715
350.5270, 296.2217
351.7290, 196.6709
352.9310, 146.1152
354.1320, 103.7607
355.3340, 40.99414
356.5350, 12.42090
357.7370, 23.16895
358.9380, 51.15137
360.1390, 147.4395
361.3400, 102.1484
362.5400, 73.90723
363.7410, 122.7041
364.9410, 219.5645
366.1410, 186.5410
367.3410, 217.3926
368.5410, 263.9746
369.7410, 175.4854
370.9400, 106.2031
372.1400, 31.11426
373.3390, 201.1162
374.5380, 77.75195
375.7370, 9.622070
376.9360, 211.4707
378.1350, 467.3203
379.3330, 662.1738
380.5310, 896.0264
381.7300, 1340.881
382.9280, 1975.734
384.1260, 2930.588
385.3230, 4024.441
386.5210, 5418.295
387.7180, 7164.146
388.9160, 9284.996
390.1130, 11379.85
391.3100, 14007.70
392.5060, 16107.55
393.7030, 16821.40
394.9000, 15865.24
396.0960, 13873.09
397.2920, 11543.94
398.4880, 9131.789
399.6840, 7272.637
400.8800, 5838.488
402.0750, 4782.338
403.2710, 4105.188
404.4660, 3588.040
405.6610, 3516.893
406.8560, 3336.961
408.0510, 3377.304
409.2450, 3436.160
410.4400, 3783.928
411.6340, 3807.617
412.8280, 4152.484
414.0220, 4222.355
415.2160, 4437.230
416.4100, 4439.111
417.6030, 4385.996
418.7970, 4202.887
419.9900, 4042.779
421.1830, 3598.679
422.3760, 3212.580
423.5690, 2865.487
424.7610, 2529.398
425.9540, 2402.314
427.1460, 2246.234
428.3380, 2272.159
429.5300, 2272.088
430.7220, 2472.021
431.9140, 2942.960
433.1050, 3333.902
434.2970, 3896.850
435.4880, 4379.803
436.6790, 4951.760
437.8700, 5928.720
439.0610, 6406.686
440.2510, 6899.656
441.4420, 6982.633
442.6320, 6382.617
443.8220, 4977.622
445.0120, 4064.653
446.2020, 2936.723
447.3910, 2148.831
448.5810, 1758.009
449.7700, 1152.236
450.9600, 918.5273
452.1490, 714.8340
453.3370, 551.1484
454.5260, 538.4688
455.7150, 437.8047
456.9030, 411.1465
458.0910, 176.5137
459.2800, 243.9014
460.4670, 308.2959
461.6550, 91.69824
462.8430, 164.1104
464.0300, 153.5264
465.2180, 51.95215
466.4050, 0.6162110
467.5920, 104.1846
468.7790, 8.791992
469.9650, 25.59766
471.1520, 119.0049
472.3380, 97.33496
473.5250, 112.6816
474.7110, 252.0342
475.8970, 286.3936
477.0820, 338.7598
478.2680, 456.1318
479.4540, 460.5127
480.6390, 608.8994
481.8240, 551.2939
483.0090, 610.6943
484.1940, 764.1016
485.3780, 821.5166
486.5630, 830.9385
487.7470, 783.3682
488.9320, 721.8047
490.1160, 769.2490
491.3000, 638.7002
492.4830, 631.1582
493.6670, 604.6250
494.8500, 468.0977
496.0340, 683.5781
497.2170, 668.0430
498.4000, 640.0430
499.5820, 643.7383
500.7650, 565.3018
501.9480, 732.1191
503.1300, 639.9062
504.3120, 772.5479
505.4940, 799.9785
506.6760, 886.3633
507.8580, 781.6895
509.0390, 765.1104
510.2210, 791.6260
511.4020, 885.2607
512.5830, 996.5039
513.7640, 985.0713
514.9450, 1077.657
516.1250, 992.5449
517.3060, 1051.134
518.4860, 1077.419
519.6660, 1282.423
520.8460, 1391.452
522.0260, 1366.517
523.2060, 1543.616
524.3850, 1503.025
525.5650, 1510.533
526.7440, 1430.221
527.9230, 1422.515
529.1020, 1283.848
530.2810, 1158.247
531.4590, 973.6797
532.6380, 784.1494
533.8160, 780.6494
534.9940, 671.1709
536.1720, 549.7314
537.3500, 513.3525
538.5270, 377.0059
539.7050, 353.7090
540.8820, 283.4512
542.0590, 214.2236
543.2360, 153.0176
544.4130, 128.8340
545.5900, 181.6953
546.7660, 22.57715
547.9430, 110.5039
549.1190, 40.58398
550.2950, 35.34766
551.4710, 62.69531
552.6470, 58.71973
553.8220, 21.26562
554.9980, 49.28320
556.1730, 134.3193
557.3480, 218.3750
558.5230, 276.4502
559.6980, 381.5430
560.8730, 441.6533
562.0470, 391.7793
563.2220, 452.9219
564.3960, 438.0830
565.5700, 601.2598
566.7440, 770.4521
567.9170, 741.6611
569.0910, 949.8857
570.2640, 1075.125
571.4380, 1180.381
572.6110, 1482.653
573.7840, 1790.939
574.9570, 2151.242
576.1290, 2224.560
577.3020, 2585.892
578.4740, 2880.239
579.6460, 3263.602
580.8180, 3388.979
581.9900, 3582.370
583.1620, 3833.812
584.3330, 4078.532
585.5040, 4499.186
586.6760, 4824.871
587.8470, 5307.523
589.0180, 5535.009
590.1880, 5910.186
591.3590, 6181.074
592.5290, 6372.230
593.7000, 6327.900
594.8700, 6250.660
596.0400, 6252.070
597.2090, 5974.831
598.3790, 5718.390
599.5490, 5572.014
600.7180, 5207.942
601.8870, 5019.986
603.0560, 4728.020
604.2250, 4455.707
605.3940, 4208.655
606.5620, 3875.295
607.7300, 3756.037
608.8990, 3645.128
610.0670, 3539.277
611.2350, 3540.314
612.4020, 3551.328
613.5700, 3666.672
614.7370, 3708.377
615.9050, 3781.090
617.0720, 3880.811
618.2390, 3965.540
619.4060, 3911.281
620.5720, 3733.027
621.7390, 3509.783
622.9050, 2946.546
624.0710, 2511.318
625.2370, 1872.098
626.4030, 1676.884
627.5690, 1294.679
628.7340, 1130.481
629.9000, 850.2920
631.0650, 913.1084
632.2300, 934.9316
633.3950, 929.7617
634.5600, 918.5996
635.7240, 949.4434
636.8890, 1015.293
638.0530, 1029.150
639.2170, 1085.021
640.3810, 1177.913
641.5450, 1215.835
642.7080, 1264.793
643.8720, 1312.812
645.0350, 1183.882
646.1980, 1266.993
647.3610, 1249.160
648.5240, 1350.495
649.6870, 1107.022
650.8490, 1088.167
652.0120, 1138.072
653.1740, 1103.938
654.3360, 1094.049
655.4980, 1103.422
656.6600, 1301.433
657.8210, 1318.248
658.9830, 1591.659
660.1440, 1823.875
661.3050, 2222.997
662.4660, 2649.211
663.6270, 3025.963
664.7870, 3382.089
665.9480, 4077.736
667.1080, 4840.602
668.2680, 5783.888
669.4280, 7204.498
670.5880, 8741.440
671.7480, 10631.44
672.9070, 13464.31
674.0670, 17175.87
675.2260, 21558.18
676.3850, 26702.44
677.5440, 32421.49
678.7030, 38927.00
679.8610, 44393.34
681.0200, 46905.60
682.1780, 45594.93
683.3360, 39964.62
684.4940, 33200.32
685.6520, 26417.51
686.8090, 20660.57
687.9670, 16093.57
689.1240, 12804.13
690.2810, 10392.16
691.4380, 8512.789
692.5950, 7131.699
693.7520, 6107.749
694.9080, 5181.512
696.0650, 4406.641
697.2210, 3895.500
698.3770, 3411.182
699.5330, 2919.871
700.6880, 2716.260
701.8440, 2234.832
702.9990, 1811.191
704.1550, 1647.589
705.3100, 1570.009
706.4650, 1368.328
707.6190, 1053.624
708.7740, 999.9033
709.9290, 798.1650
711.0830, 704.4092
712.2370, 730.6377
713.3910, 545.8467
714.5450, 547.0400
715.6980, 365.2148
716.8520, 301.3711
718.0050, 239.5098
719.1580, 166.6309
720.3110, 113.1055
721.4640, 79.81543
722.6170, 18.87891
723.7700, 40.92090
724.9220, 37.94141
726.0740, 52.04980
727.2260, 7.972656
728.3780, 65.89062
729.5300, 156.0088
730.6810, 16.04395
731.8330, 73.72461
732.9840, 56.61230
734.1350, 17.70020
735.2860, 65.98047
736.4370, 50.39453
737.5880, 34.79980
738.7380, 39.97266
739.8880, 16.46387
741.0390, 22.92969
742.1890, 109.3701
743.3380, 51.78809
744.4880, 157.1816
745.6380, 35.55371
746.7870, 24.09668
747.9360, 98.23340
749.0850, 50.54688
750.2340, 160.8350
751.3830, 152.1338
752.5310, 321.4102
753.6800, 294.6641
754.8280, 413.8965
755.9760, 439.1064
757.1240, 683.2949
758.2720, 900.4609
759.4190, 1258.605
760.5670, 1696.727
761.7140, 2192.826
762.8610, 2666.903
764.0080, 3234.959
765.1550, 3721.991
766.3020, 4319.001
767.4480, 4587.987
768.5950, 4702.951
769.7410, 4321.892
770.8870, 3720.810
772.0330, 2942.704
773.1780, 2293.575
774.3240, 1855.423
775.4690, 1441.248
776.6140, 1176.048
777.7590, 957.8242
778.9040, 571.5771
780.0490, 484.3066
781.1940, 309.0107
782.3380, 265.6895
783.4820, 190.3438
784.6260, 210.9727
785.7700, 171.5762
786.9140, 144.1514
788.0580, 8.698242
789.2010, 1.798828
790.3450, 79.34668
791.4880, 113.9883
792.6310, 21.73926
793.7730, 237.5537
794.9160, 138.5469
796.0590, 131.6631
797.2010, 17.09863
798.3430, 15.18457
799.4850, 16.52930
800.6270, 40.93555
801.7690, 142.4150
802.9100, 71.02344
804.0520, 26.72266
805.1930, 33.48828
806.3340, 134.3252
807.4750, 12.28711
808.6160, 29.30762
809.7560, 4.602539
810.8970, 38.46191
812.0370, 34.66992
813.1770, 113.9199
814.3170, 15.28418
815.4570, 70.70703
816.5960, 36.22070
817.7360, 3.751953
818.8750, 48.60742
820.0140, 27.93164
821.1530, 59.78516
822.2920, 68.41602
823.4310, 34.41699
824.5690, 53.67871
825.7070, 92.75098
826.8460, 13.79297
827.9840, 3.791016
829.1220, 157.7441
830.2590, 21.32812
831.3970, 143.5371
832.5340, 52.37109
833.6710, 114.1719
834.8080, 151.9395
835.9450, 146.6768
837.0820, 246.3828
838.2190, 167.0625
839.3550, 235.7109
840.4910, 200.3320
841.6270, 190.9229
842.7630, 210.4863
843.8990, 241.0215
845.0350, 297.5303
846.1700, 313.0107
847.3060, 257.4629
848.4410, 315.8877
849.5760, 281.3770
850.7100, 286.6553
851.8450, 309.9990
852.9800, 279.3145
854.1140, 299.8174
855.2480, 276.8154
856.3820, 271.7529
857.5160, 245.3096
858.6500, 260.4570
859.7830, 270.3125
860.9170, 273.2246
862.0500, 179.0889
863.1830, 209.5498
864.3160, 171.0156
865.4480, 213.3496
866.5810, 142.9600
867.7130, 179.2900
868.8460, 145.0928
869.9780, 187.7891
871.1100, 176.8281
872.2410, 232.5020
873.3730, 173.3682
874.5050, 116.1543
875.6360, 206.6279
876.7670, 207.9746
877.8980, 204.3398
879.0290, 229.0410
880.1590, 219.4951
881.2900, 202.2646
882.4200, 202.6309
883.5500, 332.7578
884.6800, 206.3848
885.8100, 284.7969
886.9400, 291.5742
888.0690, 250.3535
889.1990, 230.1406
890.3280, 328.9346
891.4570, 330.7363
892.5860, 268.5332
893.7140, 384.3486
894.8430, 372.1582
895.9710, 462.9668
897.1000, 540.7568
898.2280, 606.5303
899.3560, 540.2852
900.4830, 779.0234
901.6110, 841.7559
902.7380, 794.4727
903.8660, 1003.174
904.9930, 1211.854
906.1200, 1276.518
907.2460, 1336.162
908.3730, 1577.790
909.5000, 1662.402
910.6260, 1804.995
911.7520, 2040.568
912.8780, 2008.123
914.0040, 2103.660
915.1290, 1980.177
916.2550, 2087.677
917.3800, 1958.155
918.5050, 1914.617
919.6300, 1732.059
920.7550, 1651.482
921.8800, 1481.800
923.0040, 1316.978
924.1290, 1267.601
925.2530, 1173.536
926.3770, 944.5596
927.5010, 1049.369
928.6250, 884.8389
929.7480, 853.8174
930.8720, 705.0742
931.9950, 779.6426
933.1180, 700.3916
934.2410, 638.2227
935.3640, 544.9492
936.4860, 437.1211
937.6090, 546.9072
938.7310, 471.1592
939.8530, 276.1777
940.9750, 373.7617
942.0970, 232.0088
943.2180, 286.9072
944.3400, 71.73438
945.4610, 340.6875
946.5820, 25.91797
947.7030, 238.4023
948.8240, 177.9131
949.9450, 176.6182
951.0650, 156.8486
952.1860, 2.251953
953.3060, 200.6982
954.4260, 135.0635
955.5460, 35.05664
956.6650, 260.0176
957.7850, 210.4844
958.9040, 223.0645
960.0230, 358.4639
961.1420, 289.0234
962.2610, 360.5879
963.3800, 436.6270
964.4990, 547.4541
965.6170, 446.9502
966.7350, 555.7168
967.8530, 544.1006
968.9710, 647.7422
970.0890, 660.5420
971.2070, 715.9902
972.3240, 827.3809
973.4410, 818.2451
974.5580, 866.3047
975.6750, 903.8887
976.7920, 889.2754
977.9090, 991.3252
979.0250, 1061.383
980.1410, 1042.439
981.2580, 1098.497
982.3740, 1207.555
983.4890, 1258.613
984.6050, 1439.671
985.7200, 1552.729
986.8360, 1533.787
987.9510, 1642.846
989.0660, 1850.906
990.1810, 2056.967
991.2950, 2163.028
992.4100, 2430.091
993.5240, 2590.154
994.6390, 2830.220
995.7530, 3014.287
996.8660, 3290.248
997.9800, 3420.320
999.0940, 3648.264
1000.207, 3831.367
1001.320, 4047.323
1002.433, 3943.447
1003.546, 4176.576
1004.659, 4064.298
1005.772, 3913.828
1006.884, 3830.487
1007.996, 3466.129
1009.108, 3339.529
1010.220, 3236.396
1011.332, 3031.435
1012.444, 2947.042
1013.555, 2739.158
1014.666, 2594.645
1015.777, 2547.785
1016.888, 2409.591
1017.999, 2358.281
1019.110, 2249.797
1020.220, 2102.489
1021.331, 2007.053
1022.441, 1980.750
1023.551, 2015.383
1024.661, 1809.588
1025.770, 1733.438
1026.880, 1791.929
1027.989, 1686.242
1029.098, 1762.141
1030.207, 1568.086
1031.316, 1639.199
1032.425, 1566.328
1033.533, 1543.183
1034.642, 1566.311
1035.750, 1523.301
1036.858, 1497.146
1037.966, 1472.219
1039.073, 1422.018
1040.181, 1313.884
1041.288, 1287.710
1042.396, 1268.768
1043.503, 1297.475
1044.610, 1269.787
1045.716, 1291.191
1046.823, 1283.816
1047.929, 1310.150
1049.036, 1376.492
1050.142, 1488.840
1051.248, 1579.193
1052.353, 1734.553
1053.459, 1790.914
1054.564, 1911.311
1055.670, 2333.750
1056.775, 2486.197
1057.880, 2894.661
1058.985, 3331.145
1060.089, 3794.665
1061.194, 4033.271
1062.298, 4576.893
1063.402, 4902.594
1064.506, 5197.347
1065.610, 5244.148
1066.713, 5193.975
1067.817, 5086.823
1068.920, 4912.689
1070.023, 4436.583
1071.126, 3957.525
1072.229, 3822.502
1073.332, 3320.498
1074.435, 3147.517
1075.537, 2819.583
1076.639, 2629.666
1077.741, 2376.768
1078.843, 2299.880
1079.945, 2137.949
1081.046, 1939.085
1082.148, 1891.263
1083.249, 1681.455
1084.350, 1750.676
1085.451, 1558.861
1086.551, 1636.110
1087.652, 1502.359
1088.752, 1291.613
1089.853, 1281.893
1090.953, 1098.169
1092.053, 1123.466
1093.152, 1106.759
1094.252, 962.0498
1095.351, 928.3457
1096.451, 746.6484
1097.550, 746.9473
1098.649, 629.2568
1099.748, 592.5645
1100.846, 572.8682
1101.945, 670.1670
1103.043, 649.4600
1104.141, 548.7471
1105.239, 411.0283
1106.337, 524.3018
1107.434, 374.5684
1108.532, 432.8311
1109.629, 420.0879
1110.726, 385.3379
1111.823, 434.5820
1112.920, 531.8184
1114.017, 404.0449
1115.113, 323.2637
1116.210, 448.4766
1117.306, 433.6797
1118.402, 456.8750
1119.498, 395.0586
1120.593, 433.2324
1121.689, 479.3975
1122.784, 412.5518
1123.879, 448.6963
1124.974, 423.8389
1126.069, 450.9697
1127.164, 401.0918
1128.259, 335.2002
1129.353, 354.2998
1130.447, 379.3906
1131.541, 257.4707
1132.635, 253.5420
1133.729, 224.6016
1134.822, 167.3242
1135.916, 70.69238
1137.009, 113.7178
1138.102, 93.72461
1139.195, 98.71484
1140.288, 108.6865
1141.380, 61.45508
1142.473, 81.43066
1143.565, 10.55176
1144.657, 81.44336
1145.749, 86.88281
1146.841, 62.16309
1147.932, 122.3398
1149.024, 87.73242
1150.115, 48.18262
1151.206, 102.2783
1152.297, 83.66309
1153.388, 101.0625
1154.479, 99.40527
1155.569, 107.9277
1156.659, 51.38965
1157.750, 143.1777
1158.839, 40.09961
1159.929, 68.89453
1161.019, 96.59766
1162.108, 58.86621
1163.198, 57.90039
1164.287, 126.3262
1165.376, 52.71289
1166.465, 99.27539
1167.553, 41.48730
1168.642, 180.9316
1169.730, 154.5762
1170.818, 141.7695
1171.906, 153.5889
1172.994, 96.39258
1174.082, 192.2344
1175.170, 306.3457
1176.257, 267.2842
1177.344, 217.9473
1178.431, 319.9385
1179.518, 376.1523
1180.605, 456.6299
1181.691, 660.4209
1182.778, 570.6133
1183.864, 557.6123
1184.950, 621.5244
1186.036, 818.5283
1187.122, 613.5156
1188.207, 698.3252
1189.292, 808.9795
1190.378, 754.2910
1191.463, 930.0508
1192.548, 889.4277
1193.632, 888.1611
1194.717, 842.3799
1195.801, 881.5010
1196.886, 886.2988
1197.970, 963.6953
1199.054, 1023.096
1200.137, 1055.578
1201.221, 1085.975
1202.305, 1118.720
1203.388, 1153.036
1204.471, 1187.667
1205.554, 1218.357
1206.637, 1302.513
1207.719, 1329.233
1208.802, 1403.057
1209.884, 1458.653
1210.966, 1701.283
1212.048, 1894.803
1213.130, 2168.280
1214.212, 2399.810
1215.293, 2654.141
1216.374, 2956.998
1217.456, 3371.029
1218.536, 3733.410
1219.617, 3910.736
1220.698, 4526.555
1221.778, 4657.764
1222.859, 5082.188
1223.939, 5174.039
1225.019, 5215.111
1226.099, 5257.876
1227.178, 5173.454
1228.258, 4781.018
1229.337, 4674.612
1230.417, 4643.918
1231.496, 4405.215
1232.574, 4594.232
1233.653, 4745.204
1234.732, 4799.503
1235.810, 5003.484
1236.888, 5261.405
1237.966, 5521.062
1239.044, 5885.395
1240.122, 6142.443
1241.199, 6035.838
1242.277, 5753.450
1243.354, 5457.354
1244.431, 4787.229
1245.508, 4182.122
1246.585, 3655.016
1247.661, 3181.688
1248.738, 2784.910
1249.814, 2287.205
1250.890, 2058.507
1251.966, 1717.103
1253.042, 1564.369
1254.117, 1381.743
1255.193, 1326.709
1256.268, 1246.119
1257.343, 1141.996
1258.418, 1079.405
1259.493, 1031.193
1260.567, 978.8857
1261.642, 929.7559
1262.716, 917.1348
1263.790, 921.8086
