##NAMES=Beryl
##RRUFFID=R050368
##IDEAL CHEMISTRY=Be_3_Al_2_Si_6_O_18_
##LOCALITY=Wah Wah Mountains, Utah, USA
##OWNER=RRUFF
##SOURCE=Eugene Schlepp
##DESCRIPTION=Red-violet hexagonal prism
##STATUS=The identification of this mineral has been confirmed by X-ray diffraction and chemical analysis
##URL=rruff.info/R050368
##MEASURED CHEMISTRY=(Be_0.99_Li_0.01_)_3_(Al_0.95_Fe^3+^_0.05_)_2_Si_6.00_O_18_Î‡K_0.02_Na_0.01_
##PIN_ID=L01133
##ORIENTATION=Laser parallel to -a* (-1 0 0). Fiducial mark perpendicular to laser is parallel to -c [0 0 -1]
82.36700, 0.0000000E+00
83.60200, 332.5264
84.83700, 219.7812
86.07200, 10.69922
87.30800, 13.22656
88.54200, 345.2090
89.77700, 813.2305
91.01200, 1197.972
92.24600, 1583.666
93.48000, 1391.487
94.71400, 1222.701
95.94800, 1136.195
97.18200, 914.2969
98.41600, 980.5752
99.64900, 1034.747
100.8830, 870.1230
102.1160, 709.0029
103.3490, 772.0898
104.5820, 934.9980
105.8150, 1566.983
107.0470, 1993.242
108.2800, 2753.926
109.5120, 3384.154
110.7440, 1693.020
111.9760, 688.5918
113.2080, 593.9316
114.4400, 916.0820
115.6710, 1145.086
116.9030, 795.9746
118.1340, 792.8262
119.3650, 584.4834
120.5960, 418.4707
121.8270, 764.5762
123.0580, 975.6914
124.2880, 762.8555
125.5190, 572.3838
126.7490, 534.2471
127.9790, 629.4219
129.2090, 726.8838
130.4390, 768.7002
131.6680, 872.5850
132.8980, 881.7852
134.1270, 1044.200
135.3560, 1005.812
136.5850, 1286.610
137.8140, 1513.583
139.0430, 1594.704
140.2710, 1608.957
141.5000, 1369.334
142.7280, 1172.828
143.9560, 1054.441
145.1840, 758.1758
146.4120, 580.0283
147.6390, 497.9893
148.8670, 263.0596
150.0940, 64.22852
151.3210, 164.5322
152.5490, 242.4463
153.7750, 94.38574
155.0020, 133.8506
156.2290, 60.60352
157.4550, 215.4160
158.6810, 188.2744
159.9080, 133.1572
161.1340, 86.05176
162.3590, 72.94922
163.5850, 266.1543
164.8110, 390.2637
166.0360, 533.3818
167.2610, 496.5078
168.4860, 472.6416
169.7110, 763.7842
170.9360, 910.9346
172.1610, 1030.096
173.3850, 908.2637
174.6100, 964.4434
175.8340, 1201.619
177.0580, 1381.785
178.2820, 1464.945
179.5050, 1727.099
180.7290, 1948.249
181.9520, 2150.396
183.1760, 2197.544
184.3990, 2309.692
185.6220, 2361.842
186.8450, 2413.995
188.0670, 2536.149
189.2900, 2668.311
190.5120, 2607.476
191.7340, 2767.646
192.9560, 2849.714
194.1780, 2737.572
195.4000, 2952.268
196.6220, 3024.903
197.8430, 2870.557
199.0640, 2872.228
200.2860, 3178.916
201.5070, 3281.621
202.7270, 3324.357
203.9480, 2700.201
205.1690, 2105.203
206.3890, 1572.297
207.6090, 1343.403
208.8290, 1410.523
210.0490, 1213.653
211.2690, 1186.791
212.4890, 1299.940
213.7080, 1335.098
214.9280, 1407.265
216.1470, 1366.440
217.3660, 1277.627
218.5850, 1247.821
219.8030, 1234.842
221.0220, 1398.923
222.2400, 1404.767
223.4590, 1536.548
224.6770, 1442.597
225.8950, 1500.713
227.1120, 1466.324
228.3300, 1407.307
229.5480, 1548.440
230.7650, 1564.173
231.9820, 1569.289
233.1990, 1620.581
234.4160, 1446.283
235.6330, 1421.189
236.8490, 1422.259
238.0660, 1338.469
239.2820, 1125.791
240.4980, 1106.205
241.7140, 1130.693
242.9300, 917.2441
244.1460, 998.8506
245.3610, 872.5078
246.5770, 1080.210
247.7920, 1249.946
249.0070, 1115.680
250.2220, 1356.404
251.4370, 1244.125
252.6510, 1130.845
253.8660, 1248.567
255.0800, 1263.295
256.2940, 1206.030
257.5080, 1310.773
258.7220, 1801.526
259.9360, 2100.290
261.1490, 1782.065
262.3630, 1474.854
263.5760, 1546.653
264.7890, 1613.467
266.0020, 1651.116
267.2150, 1952.410
268.4270, 2185.531
269.6400, 2341.617
270.8520, 2219.733
272.0640, 2070.883
273.2760, 2209.062
274.4880, 2074.270
275.7000, 2118.504
276.9120, 2124.764
278.1230, 2100.139
279.3340, 2132.358
280.5450, 2145.689
281.7560, 2059.043
282.9670, 2118.418
284.1780, 1964.812
285.3880, 2029.227
286.5980, 1753.660
287.8090, 1793.112
289.0190, 1665.582
290.2290, 1471.069
291.4380, 1568.572
292.6480, 1531.093
293.8570, 1655.629
295.0670, 1577.180
296.2760, 1807.747
297.4850, 1948.328
298.6930, 1905.920
299.9020, 2107.518
301.1110, 2377.745
302.3190, 2504.819
303.5270, 2744.396
304.7350, 3068.551
305.9430, 3639.788
307.1510, 4250.576
308.3580, 4990.270
309.5660, 5755.645
310.7730, 6836.270
311.9800, 8194.899
313.1870, 9430.532
314.3940, 10562.17
315.6010, 11531.81
316.8070, 12595.46
318.0130, 13777.11
319.2200, 13777.77
320.4260, 12372.42
321.6310, 10576.47
322.8370, 8319.139
324.0430, 6572.715
325.2480, 4851.715
326.4540, 3367.167
327.6590, 2340.165
328.8640, 1743.852
330.0680, 1237.540
331.2730, 1147.453
332.4780, 1005.149
333.6820, 962.8486
334.8860, 876.5518
336.0900, 751.2578
337.2940, 701.9668
338.4980, 691.6807
339.7010, 610.3994
340.9050, 602.1221
342.1080, 609.8525
343.3110, 558.5879
344.5140, 574.3281
345.7170, 553.0752
346.9200, 403.8271
348.1220, 382.5859
349.3240, 398.3496
350.5270, 209.1162
351.7290, 187.8887
352.9310, 91.66406
354.1320, 28.49316
355.3340, 33.21875
356.5350, 39.00977
357.7370, 117.2578
358.9380, 126.5479
360.1390, 93.87988
361.3400, 204.2480
362.5400, 282.6787
363.7410, 70.19629
364.9410, 57.75684
366.1410, 282.4150
367.3410, 4.244141
368.5410, 191.2461
369.7410, 210.3672
370.9400, 146.6553
372.1400, 4.880859
373.3390, 33.34961
374.5380, 84.82324
375.7370, 137.3076
376.9360, 406.8047
378.1350, 648.3125
379.3330, 847.8301
380.5310, 1395.356
381.7300, 1949.891
382.9280, 2965.342
384.1260, 3932.979
385.3230, 5580.531
386.5210, 7146.094
387.7180, 8974.658
388.9160, 10807.23
390.1130, 13145.81
391.3100, 15309.40
392.5060, 16395.99
393.7030, 16682.59
394.9000, 15660.19
396.0960, 13898.80
397.2920, 11897.42
398.4880, 9664.047
399.6840, 7825.680
400.8800, 6751.319
402.0750, 5361.215
403.2710, 4386.620
404.4660, 3808.281
405.6610, 3621.951
406.8560, 3517.696
408.0510, 3544.639
409.2450, 3602.781
410.4400, 3696.835
411.6340, 3981.685
412.8280, 4278.406
414.0220, 4363.137
415.2160, 4410.879
416.4100, 4465.633
417.6030, 4468.396
418.7970, 4170.188
419.9900, 4307.954
421.1830, 3440.750
422.3760, 3184.555
423.5690, 2807.371
424.7610, 2571.198
425.9540, 2334.036
427.1460, 2181.883
428.3380, 2124.742
429.5300, 2377.610
430.7220, 2460.490
431.9140, 2898.378
433.1050, 3408.279
434.2970, 3945.188
435.4880, 4445.107
436.6790, 5339.039
437.8700, 6012.979
439.0610, 6498.931
440.2510, 6590.891
441.4420, 6206.863
442.6320, 5514.848
443.8220, 4797.857
445.0120, 3898.987
446.2020, 2964.162
447.3910, 2356.400
448.5810, 1805.696
449.7700, 1294.054
450.9600, 1136.478
452.1490, 844.9424
453.3370, 446.4492
454.5260, 517.9795
455.7150, 380.5225
456.9030, 362.0918
458.0910, 279.6729
459.2800, 197.2783
460.4670, 168.8945
461.6550, 144.5254
462.8430, 80.16895
464.0300, 41.17578
465.2180, 123.4736
466.4050, 232.8652
467.5920, 94.31641
468.7790, 31.80762
469.9650, 112.3066
471.1520, 23.14453
472.3380, 21.60645
473.5250, 3.920898
474.7110, 244.5547
475.8970, 247.0410
477.0820, 418.5381
478.2680, 522.0449
479.4540, 408.5615
480.6390, 463.0889
481.8240, 482.6270
483.0090, 606.1748
484.1940, 639.7334
485.3780, 725.3008
486.5630, 880.8799
487.7470, 743.4697
488.9320, 632.0684
490.1160, 717.6777
491.3000, 687.2969
492.4830, 590.9258
493.6670, 512.5664
494.8500, 469.2158
496.0340, 528.8760
497.2170, 664.1289
498.4000, 555.5752
499.5820, 716.1016
500.7650, 752.8711
501.9480, 735.0742
503.1300, 809.3467
504.3120, 798.7109
505.4940, 762.1758
506.6760, 653.0020
507.8580, 722.5840
509.0390, 859.1514
510.2210, 878.9375
511.4020, 1006.321
512.5830, 1036.556
513.7640, 950.8809
514.9450, 1058.482
516.1250, 1203.490
517.3060, 1305.561
518.4860, 1596.691
519.6660, 1492.874
520.8460, 1697.103
522.0260, 1693.364
523.2060, 1941.656
524.3850, 1856.979
525.5650, 1854.325
526.7440, 1750.737
527.9230, 1739.185
529.1020, 1465.702
530.2810, 1173.265
531.4590, 1259.857
532.6380, 1077.496
533.8160, 968.1914
534.9940, 789.9082
536.1720, 782.6494
537.3500, 656.4307
538.5270, 531.2598
539.7050, 429.1348
540.8820, 306.0479
542.0590, 382.0000
543.2360, 221.9766
544.4130, 234.9902
545.5900, 71.04785
546.7660, 105.1240
547.9430, 4.780273
549.1190, 23.66504
550.2950, 139.5371
551.4710, 31.41895
552.6470, 13.28711
553.8220, 146.8613
554.9980, 214.0283
556.1730, 183.2129
557.3480, 406.4150
558.5230, 341.6357
559.6980, 488.8740
560.8730, 417.1348
562.0470, 378.4414
563.2220, 490.7627
564.3960, 562.0996
565.5700, 726.4521
566.7440, 695.8203
567.9170, 962.2012
569.0910, 1159.599
570.2640, 1210.010
571.4380, 1462.436
572.6110, 1654.875
573.7840, 1985.327
574.9570, 2199.793
576.1290, 2491.273
577.3020, 2844.767
578.4740, 3080.271
579.6460, 3392.791
580.8180, 3538.609
581.9900, 3857.512
583.1620, 4125.668
584.3330, 4354.843
585.5040, 4733.597
586.6760, 4982.799
587.8470, 5277.398
589.0180, 5795.490
590.1880, 6063.987
591.3590, 6267.213
592.5290, 6525.947
593.7000, 6578.846
594.8700, 6436.134
596.0400, 6179.052
597.2090, 6105.043
598.3790, 5946.086
599.5490, 5673.658
600.7180, 5576.803
601.8870, 5184.004
603.0560, 4780.221
604.2250, 4671.430
605.3940, 4157.158
606.5620, 4241.303
607.7300, 3939.225
608.8990, 3745.780
610.0670, 3664.729
611.2350, 3760.144
612.4020, 3615.939
613.5700, 3803.678
614.7370, 3871.203
615.9050, 3970.953
617.0720, 3892.708
618.2390, 3868.468
619.4060, 3589.230
620.5720, 3517.999
621.7390, 3142.772
622.9050, 2809.547
624.0710, 2412.328
625.2370, 2248.113
626.4030, 1657.900
627.5690, 1345.692
628.7340, 1249.485
629.9000, 1133.283
631.0650, 970.0820
632.2300, 961.8848
633.3950, 864.6895
634.5600, 966.4971
635.7240, 1119.306
636.8890, 1217.118
638.0530, 1258.939
639.2170, 1247.770
640.3810, 1411.627
641.5450, 1327.529
642.7080, 1595.481
643.8720, 1489.472
645.0350, 1523.531
646.1980, 1491.679
647.3610, 1395.859
648.5240, 1391.342
649.6870, 1398.071
650.8490, 1298.455
652.0120, 1321.892
653.1740, 1312.948
654.3360, 1347.899
655.4980, 1413.795
656.6600, 1510.246
657.8210, 1672.001
658.9830, 1834.771
660.1440, 2327.696
661.3050, 2506.980
662.4660, 3052.952
663.6270, 3449.553
664.7870, 4055.152
665.9480, 4683.559
667.1080, 5793.570
668.2680, 6864.884
669.4280, 8265.445
670.5880, 10251.01
671.7480, 12866.69
672.9070, 16377.10
674.0670, 20737.21
675.2260, 25911.98
676.3850, 31485.16
677.5440, 37010.13
678.7030, 42262.21
679.8610, 46519.66
681.0200, 47214.20
682.1780, 44978.60
683.3360, 40275.24
684.4940, 34394.39
685.6520, 28186.04
686.8090, 22264.03
687.9670, 17704.95
689.1240, 13873.34
690.2810, 11227.09
691.4380, 9388.532
692.5950, 7696.213
693.7520, 6619.776
694.9080, 5660.354
696.0650, 4793.828
697.2210, 4095.531
698.3770, 3599.130
699.5330, 3260.489
700.6880, 2662.261
701.8440, 2528.323
702.9990, 2108.299
704.1550, 1947.641
705.3100, 1771.575
706.4650, 1413.487
707.6190, 1195.576
708.7740, 1044.447
709.9290, 904.2959
711.0830, 730.1230
712.2370, 707.9287
713.3910, 598.7393
714.5450, 387.5010
715.6980, 493.2393
716.8520, 261.9551
718.0050, 291.6484
719.1580, 48.31836
720.3110, 33.96191
721.4640, 163.5791
722.6170, 29.82520
723.7700, 277.2842
724.9220, 39.92480
726.0740, 173.3770
727.2260, 18.60645
728.3780, 42.63672
729.5300, 101.4502
730.6810, 13.35645
731.8330, 95.04590
732.9840, 21.08984
734.1350, 80.81641
735.2860, 31.30566
736.4370, 57.51465
737.5880, 23.69238
738.7380, 39.04590
739.8880, 28.75391
741.0390, 27.43164
742.1890, 32.08008
743.3380, 1.697266
744.4880, 52.77539
745.6380, 131.8428
746.7870, 121.4355
747.9360, 241.0244
749.0850, 231.5986
750.2340, 150.1768
751.3830, 228.7275
752.5310, 182.2539
753.6800, 362.7568
754.8280, 391.2344
755.9760, 566.6865
757.1240, 719.1133
758.2720, 1079.514
759.4190, 1355.890
760.5670, 1855.239
761.7140, 2290.562
762.8610, 2643.861
764.0080, 3300.135
765.1550, 3755.382
766.3020, 4278.604
767.4480, 4412.799
768.5950, 4463.969
769.7410, 3984.112
770.8870, 3349.229
772.0330, 2947.321
773.1780, 2347.388
774.3240, 1873.427
775.4690, 1442.440
776.6140, 1100.425
777.7590, 915.3848
778.9040, 674.3184
780.0490, 490.2246
781.1940, 499.1025
782.3380, 341.9531
783.4820, 215.7773
784.6260, 276.5713
785.7700, 145.3369
786.9140, 108.5723
788.0580, 3.774414
789.2010, 27.42578
790.3450, 99.96387
791.4880, 72.45996
792.6310, 89.04688
793.7730, 104.7354
794.9160, 109.5342
796.0590, 77.91406
797.2010, 64.46973
798.3430, 6.541992
799.4850, 1.693359
800.6270, 4.099609
801.7690, 26.84082
802.9100, 136.4600
804.0520, 18.88770
805.1930, 151.3789
806.3340, 60.00488
807.4750, 3.283203
808.6160, 62.48047
809.7560, 106.3311
810.8970, 54.70801
812.0370, 16.71094
813.1770, 40.33203
814.3170, 69.45020
815.4570, 71.65625
816.5960, 29.95605
817.7360, 48.32324
818.8750, 23.23242
820.0140, 35.25391
821.1530, 59.81055
822.2920, 131.5488
823.4310, 46.87402
824.5690, 41.16406
825.7070, 119.4170
826.8460, 21.63672
827.9840, 73.83301
829.1220, 63.99707
830.2590, 121.1260
831.3970, 112.9307
832.5340, 132.2822
833.6710, 73.31152
834.8080, 93.30469
835.9450, 7.263672
837.0820, 79.82129
838.2190, 206.0039
839.3550, 323.7988
840.4910, 128.5654
841.6270, 234.2988
842.7630, 258.0039
843.8990, 172.6807
845.0350, 382.3271
846.1700, 295.9434
847.3060, 456.5322
848.4410, 358.0918
849.5760, 210.6250
850.7100, 380.1289
851.8450, 235.6025
852.9800, 460.0498
854.1140, 271.4697
855.2480, 342.8604
856.3820, 417.9365
857.5160, 318.9170
858.6500, 484.2256
859.7830, 274.6025
860.9170, 266.3828
862.0500, 218.0020
863.1830, 77.20508
864.3160, 352.9014
865.4480, 288.1748
866.5810, 225.7031
867.7130, 110.7109
868.8460, 212.5371
869.9780, 182.9580
871.1100, 209.7305
872.2410, 234.4199
873.3730, 216.0596
874.5050, 251.1592
875.6360, 218.6807
876.7670, 396.1396
877.8980, 276.5811
879.0290, 299.0234
880.1590, 518.5479
881.2900, 492.9697
882.4200, 759.6191
883.5500, 407.6035
884.6800, 548.1279
885.8100, 602.5264
886.9400, 518.4551
888.0690, 570.4785
889.1990, 527.5010
890.3280, 549.5488
891.4570, 512.5801
892.5860, 562.6143
893.7140, 602.9717
894.8430, 638.7109
895.9710, 741.7998
897.1000, 838.8740
898.2280, 939.9385
899.3560, 881.9883
900.4830, 1094.025
901.6110, 1223.930
902.7380, 1305.067
903.8660, 1650.083
904.9930, 1643.085
906.1200, 1892.072
907.2460, 2082.043
908.3730, 2290.002
909.5000, 2340.946
910.6260, 2524.877
911.7520, 2957.790
912.8780, 2858.689
914.0040, 3062.570
915.1290, 3080.437
916.2550, 3137.283
917.3800, 3048.042
918.5050, 2843.925
919.6300, 2678.719
920.7550, 2401.495
921.8800, 2224.622
923.0040, 1995.293
924.1290, 1794.947
925.2530, 1688.596
926.3770, 1444.678
927.5010, 1403.457
928.6250, 1318.169
929.7480, 1118.872
930.8720, 1044.254
931.9950, 1042.604
933.1180, 824.7832
934.2410, 820.5850
935.3640, 703.6797
936.4860, 622.1279
937.6090, 725.5615
938.7310, 536.1689
939.8530, 495.1504
940.9750, 563.8135
942.0970, 324.2109
943.2180, 514.5830
944.3400, 313.8301
945.4610, 244.3301
946.5820, 200.0996
947.7030, 291.1953
948.8240, 51.86328
949.9450, 202.7148
951.0650, 164.4414
952.1860, 204.7998
953.3060, 186.0234
954.4260, 192.3799
955.5460, 399.4619
956.6650, 156.0234
957.7850, 316.0684
958.9040, 224.7559
960.0230, 386.4170
961.1420, 448.4043
962.2610, 355.8154
963.3800, 430.6113
964.4990, 486.3643
965.6170, 443.3555
966.7350, 452.3125
967.8530, 619.3496
968.9710, 763.1396
970.0890, 696.0039
971.2070, 801.3447
972.3240, 689.7637
973.4410, 775.1104
974.5580, 1014.525
975.6750, 912.5498
976.7920, 843.9639
977.9090, 923.3770
979.0250, 867.5918
980.1410, 1162.004
981.2580, 1191.415
982.3740, 1143.828
983.4890, 1356.240
984.6050, 1419.625
985.7200, 1418.036
986.8360, 1681.449
987.9510, 1767.861
989.0660, 1951.274
990.1810, 2198.688
991.2950, 2377.103
992.4100, 2690.521
993.5240, 2780.939
994.6390, 3135.373
995.7530, 3512.888
996.8660, 3987.421
997.9800, 4207.493
999.0940, 4478.032
1000.207, 4713.590
1001.320, 4881.678
1002.433, 5300.135
1003.546, 5184.898
1004.659, 5223.553
1005.772, 5338.186
1006.884, 5144.412
1007.996, 5074.922
1009.108, 5054.544
1010.220, 4813.915
1011.332, 4567.388
1012.444, 4366.475
1013.555, 3886.258
1014.666, 3538.958
1015.777, 3211.069
1016.888, 2975.062
1017.999, 2902.062
1019.110, 2628.815
1020.220, 2526.207
1021.331, 2367.561
1022.441, 2265.566
1023.551, 2303.467
1024.661, 2195.510
1025.770, 2072.068
1026.880, 1965.572
1027.989, 1896.312
1029.098, 1728.652
1030.207, 1763.630
1031.316, 1725.574
1032.425, 1632.545
1033.533, 1796.729
1034.642, 1609.883
1035.750, 1576.943
1036.858, 1371.870
1037.966, 1407.559
1039.073, 1381.910
1040.181, 1437.880
1041.288, 1464.688
1042.396, 1467.898
1043.503, 1558.606
1044.610, 1506.213
1045.716, 1515.588
1046.823, 1470.317
1047.929, 1516.064
1049.036, 1573.812
1050.142, 1688.533
1051.248, 1854.256
1052.353, 2089.985
1053.459, 2136.717
1054.564, 2495.448
1055.670, 2687.182
1056.775, 2978.920
1057.880, 3446.669
1058.985, 3812.426
1060.089, 4267.220
1061.194, 4773.047
1062.298, 5285.910
1063.402, 5717.811
1064.506, 5993.753
1065.610, 6213.730
1066.713, 5955.736
1067.817, 5621.754
1068.920, 5420.784
1070.023, 4921.824
1071.126, 4445.869
1072.229, 4268.965
1073.332, 3966.075
1074.435, 3484.233
1075.537, 3327.456
1076.639, 3239.610
1077.741, 2927.828
1078.843, 2564.081
1079.945, 2554.334
1081.046, 2269.591
1082.148, 2041.869
1083.249, 2024.172
1084.350, 2137.501
1085.451, 2127.847
1086.551, 1736.208
1087.652, 1475.565
1088.752, 1375.938
1089.853, 1390.330
1090.953, 1244.717
1092.053, 1219.099
1093.152, 1164.476
1094.252, 1142.844
1095.351, 1033.212
1096.451, 955.5723
1097.550, 752.9258
1098.649, 763.2705
1099.748, 666.6074
1100.846, 582.9375
1101.945, 664.2598
1103.043, 687.5762
1104.141, 602.8896
1105.239, 597.2217
1106.337, 563.5430
1107.434, 540.8525
1108.532, 499.1572
1109.629, 441.6279
1110.726, 558.7266
1111.823, 379.9941
1112.920, 307.2510
1114.017, 423.4902
1115.113, 419.7178
1116.210, 579.9277
1117.306, 507.1250
1118.402, 497.3086
1119.498, 426.4795
1120.593, 455.6523
1121.689, 684.8174
1122.784, 643.9756
1123.879, 595.1211
1124.974, 385.2832
1126.069, 255.4561
1127.164, 393.6113
1128.259, 544.7578
1129.353, 427.8945
1130.447, 343.0195
1131.541, 372.1318
1132.635, 127.2305
1133.729, 268.3154
1134.822, 245.3867
1135.916, 312.4434
1137.009, 47.48730
1138.102, 72.49609
1139.195, 87.49512
1140.288, 39.54395
1141.380, 2.370117
1142.473, 58.71484
1143.565, 6.854492
1144.657, 43.96973
1145.749, 68.86426
1146.841, 44.37402
1147.932, 157.6494
1149.024, 139.0303
1150.115, 119.3076
1151.206, 144.5625
1152.297, 190.9717
1153.388, 56.70020
1154.479, 150.3770
1155.569, 14.09863
1156.659, 63.81445
1157.750, 109.9893
1158.839, 63.82910
1159.929, 203.0312
1161.019, 43.69922
1162.108, 12.09766
1163.198, 49.70410
1164.287, 7.410156
1165.376, 11.51855
1166.465, 12.67383
1167.553, 47.04590
1168.642, 130.8301
1169.730, 70.27539
1170.818, 211.8672
1171.906, 109.8369
1172.994, 16.44336
1174.082, 138.4453
1175.170, 334.2344
1176.257, 155.1621
1177.344, 274.3555
1178.431, 375.8896
1179.518, 378.5908
1180.605, 514.6680
1181.691, 567.4795
1182.778, 498.3574
1183.864, 717.4834
1184.950, 585.1230
1186.036, 639.7656
1187.122, 760.4580
1188.207, 723.9648
1189.292, 875.8164
1190.378, 906.2617
1191.463, 783.8340
1192.548, 860.2764
1193.632, 883.5156
1194.717, 908.8730
1195.801, 939.6494
1196.886, 884.9521
1197.970, 1016.690
1199.054, 1047.198
1200.137, 933.3389
1201.221, 1108.174
1202.305, 997.6924
1203.388, 1032.760
1204.471, 1245.986
1205.554, 1120.816
1206.637, 1145.202
1207.719, 1245.733
1208.802, 1238.086
1209.884, 1424.367
1210.966, 1489.628
1212.048, 1834.563
1213.130, 1878.621
1214.212, 2152.887
1215.293, 2212.925
1216.374, 2487.360
1217.456, 2942.543
1218.536, 3246.997
1219.617, 3400.692
1220.698, 3942.077
1221.778, 4205.348
1222.859, 4293.972
1223.939, 4387.942
1225.019, 4444.215
1226.099, 4366.369
1227.178, 4278.006
1228.258, 4069.307
1229.337, 3866.146
1230.417, 3871.310
1231.496, 3959.674
1232.574, 3788.009
1233.653, 3767.589
1234.732, 3992.649
1235.810, 4270.135
1236.888, 4319.579
1237.966, 4844.910
1239.044, 5062.043
1240.122, 4992.820
1241.199, 5040.961
1242.277, 4959.745
1243.354, 4681.797
1244.431, 4113.730
1245.508, 3311.723
1246.585, 3053.740
1247.661, 2684.723
1248.738, 2200.559
1249.814, 1993.066
1250.890, 1962.934
1251.966, 1627.670
1253.042, 1523.684
1254.117, 1448.499
1255.193, 1178.655
1256.268, 1169.164
1257.343, 1099.043
1258.418, 904.3926
1259.493, 1066.860
1260.567, 919.9434
1261.642, 869.9971
1262.716, 817.3047
1263.790, 919.2510
