##NAMES=Beryl
##RRUFFID=R050347
##IDEAL CHEMISTRY=Be_3_Al_2_Si_6_O_18_
##LOCALITY=North Keystone, South Dakota, USA
##OWNER=RRUFF
##SOURCE=California Institute of Technology
##DESCRIPTION=Colorless fragment
##STATUS=The identification of this mineral has been confirmed by X-ray diffraction and chemical analysis
##URL=rruff.info/R050347
##MEASURED CHEMISTRY=(Be_0.96_Li_0.04_)_3_Al_2.00_(Si_0.99_Al_0.01_)_6_O_18_ Î‡0.17Na
##PIN_ID=L00581
##ORIENTATION=Laser parallel to c* (0 0 1). Fiducial mark perpendicular to laser is parallel to b [0 1 0]
211.2690, 0.0000000E+00
212.4890, 8.1055000E-02
213.7080, 63.28809
214.9280, 7.926758
216.1470, 7.887695
217.3660, 6.042969
218.5850, 23.88379
219.8030, 21.16113
221.0220, 90.45117
222.2400, 59.84863
223.4590, 104.8320
224.6770, 167.3037
225.8950, 139.1982
227.1120, 243.4434
228.3300, 127.0635
229.5480, 233.1035
230.7650, 209.4814
231.9820, 260.1270
233.1990, 281.9834
234.4160, 259.0107
235.6330, 218.1738
236.8490, 199.4521
238.0660, 317.8242
239.2820, 266.2744
240.4980, 378.1533
241.7140, 317.7119
242.9300, 272.3184
244.1460, 279.6680
245.3610, 270.7285
246.5770, 190.0117
247.7920, 320.1836
249.0070, 255.3037
250.2220, 380.3730
251.4370, 351.3682
252.6510, 301.2998
253.8660, 244.1768
255.0800, 158.0059
256.2940, 169.1748
257.5080, 207.5293
258.7220, 138.2324
259.9360, 158.0107
261.1490, 293.5430
262.3630, 89.15527
263.5760, 126.7412
264.7890, 6.303711
266.0020, 38.84180
267.2150, 42.36035
268.4270, 6.142578
269.6400, 30.33789
270.8520, 42.79980
272.0640, 63.65625
273.2760, 98.67383
274.4880, 142.0908
275.7000, 197.8848
276.9120, 251.9258
278.1230, 439.2607
279.3340, 373.9482
280.5450, 280.6250
281.7560, 539.6562
282.9670, 561.3184
284.1780, 628.0352
285.3880, 808.8477
286.5980, 831.3945
287.8090, 1078.126
289.0190, 1308.975
290.2290, 1593.978
291.4380, 1627.109
292.6480, 1484.250
293.8570, 1260.394
295.0670, 1197.545
296.2760, 913.7021
297.4850, 792.8633
298.6930, 877.0312
299.9020, 680.2061
301.1110, 713.3867
302.3190, 609.5713
303.5270, 818.7617
304.7350, 775.9570
305.9430, 767.1553
307.1510, 869.3594
308.3580, 843.5654
309.5660, 997.5156
310.7730, 1247.988
311.9800, 1331.205
313.1870, 1592.422
314.3940, 1840.143
315.6010, 2259.865
316.8070, 2528.090
318.0130, 3046.312
319.2200, 3468.532
320.4260, 3829.750
321.6310, 4328.965
322.8370, 3925.178
324.0430, 3672.388
325.2480, 3179.596
326.4540, 2203.801
327.6590, 1482.004
328.8640, 1158.204
330.0680, 744.4023
331.2730, 478.6006
332.4780, 349.7949
333.6820, 119.9883
334.8860, 169.1826
336.0900, 59.38867
337.2940, 66.61230
338.4980, 67.87500
339.7010, 99.74512
340.9050, 83.31445
342.1080, 94.15527
343.3110, 110.3613
344.5140, 20.31250
345.7170, 176.0400
346.9200, 18.49707
348.1220, 64.80566
349.3240, 153.9326
350.5270, 1.795898
351.7290, 161.4658
352.9310, 71.68750
354.1320, 246.3740
355.3340, 122.9697
356.5350, 173.2197
357.7370, 148.0283
358.9380, 19.04297
360.1390, 25.77637
361.3400, 111.4014
362.5400, 233.4541
363.7410, 97.93652
364.9410, 107.3975
366.1410, 54.06543
367.3410, 75.96387
368.5410, 105.8174
369.7410, 272.7686
370.9400, 251.3945
372.1400, 155.8428
373.3390, 341.3037
374.5380, 351.7734
375.7370, 459.2520
376.9360, 568.7373
378.1350, 610.2275
379.3330, 716.7227
380.5310, 862.9131
381.7300, 1072.726
382.9280, 1208.232
384.1260, 1430.741
385.3230, 1659.250
386.5210, 2187.763
387.7180, 2890.274
388.9160, 3447.787
390.1130, 4572.295
391.3100, 5546.797
392.5060, 6966.295
393.7030, 8549.785
394.9000, 9945.274
396.0960, 11079.75
397.2920, 11675.23
398.4880, 11043.71
399.6840, 10051.18
400.8800, 8514.644
402.0750, 7075.104
403.2710, 5645.563
404.4660, 4626.018
405.6610, 3547.471
406.8560, 2969.919
408.0510, 2455.365
409.2450, 2252.809
410.4400, 1912.247
411.6340, 1871.683
412.8280, 2072.041
414.0220, 2171.472
415.2160, 2223.899
416.4100, 2422.325
417.6030, 2608.748
418.7970, 2927.169
419.9900, 2932.529
421.1830, 2832.842
422.3760, 2727.092
423.5690, 2306.334
424.7610, 2056.539
425.9540, 1868.746
427.1460, 1641.952
428.3380, 1276.159
429.5300, 1094.367
430.7220, 851.5605
431.9140, 898.7559
433.1050, 915.9502
434.2970, 937.1455
435.4880, 992.3398
436.6790, 1133.532
437.8700, 1185.725
439.0610, 1144.915
440.2510, 1410.105
441.4420, 1109.295
442.6320, 1238.483
443.8220, 1139.670
445.0120, 1216.855
446.2020, 1074.039
447.3910, 1005.223
448.5810, 859.4033
449.7700, 804.3438
450.9600, 787.7617
452.1490, 680.9395
453.3370, 584.1152
454.5260, 499.5498
455.7150, 433.2158
456.9030, 368.9180
458.0910, 314.2852
459.2800, 252.6533
460.4670, 170.1270
461.6550, 117.2549
462.8430, 118.8418
464.0300, 87.23730
465.2180, 229.6104
466.4050, 125.2822
467.5920, 202.7920
468.7790, 266.9453
469.9650, 160.8896
471.1520, 142.7451
472.3380, 169.8916
473.5250, 167.3574
474.7110, 57.80273
475.8970, 173.1162
477.0820, 44.24902
478.2680, 135.3789
479.4540, 226.5049
480.6390, 144.6299
481.8240, 42.74902
483.0090, 159.8701
484.1940, 55.01758
485.3780, 0.8769530
486.5630, 145.5518
487.7470, 92.63672
488.9320, 94.72363
490.1160, 93.88867
491.3000, 109.4492
492.4830, 93.51367
493.6670, 85.97070
494.8500, 26.55957
496.0340, 51.48340
497.2170, 22.51367
498.4000, 4.537109
499.5820, 111.5488
500.7650, 16.43945
501.9480, 50.51660
503.1300, 75.04980
504.3120, 66.29980
505.4940, 43.28027
506.6760, 69.74414
507.8580, 24.81641
509.0390, 75.91406
510.2210, 59.00391
511.4020, 76.25781
512.5830, 41.49707
513.7640, 92.24512
514.9450, 228.9893
516.1250, 171.7285
517.3060, 169.4619
518.4860, 320.1914
519.6660, 393.9170
520.8460, 421.6367
522.0260, 458.3535
523.2060, 577.0625
524.3850, 486.7734
525.5650, 442.4863
526.7440, 681.1953
527.9230, 477.8984
529.1020, 648.5977
530.2810, 568.2910
531.4590, 422.9795
532.6380, 506.6621
533.8160, 470.3408
534.9940, 434.0137
536.1720, 544.6826
537.3500, 362.3486
538.5270, 501.0078
539.7050, 370.6641
540.8820, 306.3154
542.0590, 167.9639
543.2360, 198.6094
544.4130, 228.2490
545.5900, 199.8848
546.7660, 297.5156
547.9430, 125.1416
549.1190, 192.7705
550.2950, 317.3926
551.4710, 256.0107
552.6470, 382.6260
553.8220, 477.2559
554.9980, 384.9014
556.1730, 540.5420
557.3480, 457.1943
558.5230, 601.8398
559.6980, 430.4980
560.8730, 746.1543
562.0470, 832.8174
563.2220, 767.4756
564.3960, 676.1377
565.5700, 708.7939
566.7440, 775.4463
567.9170, 795.1016
569.0910, 825.7812
570.2640, 991.4570
571.4380, 1171.147
572.6110, 1225.857
573.7840, 1255.563
574.9570, 1263.277
576.1290, 1284.003
577.3020, 1147.725
578.4740, 1315.442
579.6460, 1287.153
580.8180, 1113.865
581.9900, 1120.582
583.1620, 936.3047
584.3330, 717.0225
585.5040, 726.7344
586.6760, 690.4395
587.8470, 586.1396
589.0180, 304.8330
590.1880, 244.5215
591.3590, 251.2041
592.5290, 265.8818
593.7000, 223.5820
594.8700, 89.30371
596.0400, 36.01660
597.2090, 149.7236
598.3790, 8.567383
599.5490, 50.12695
600.7180, 25.86230
601.8870, 36.41211
603.0560, 27.71875
604.2250, 83.94434
605.3940, 154.3994
606.5620, 60.83887
607.7300, 42.32520
608.8990, 113.1504
610.0670, 33.37988
611.2350, 47.94141
612.4020, 117.4541
613.5700, 25.84473
614.7370, 28.22461
615.9050, 58.41406
617.0720, 123.7744
618.2390, 332.8896
619.4060, 307.2354
620.5720, 260.5732
621.7390, 364.9033
622.9050, 283.9775
624.0710, 289.3184
625.2370, 236.5137
626.4030, 203.5664
627.5690, 156.7646
628.7340, 129.4141
629.9000, 99.76660
631.0650, 29.11523
632.2300, 124.4697
633.3950, 102.8154
634.5600, 187.1543
635.7240, 171.3271
636.8890, 226.2188
638.0530, 153.2705
639.2170, 224.0684
640.3810, 236.3672
641.5450, 99.83789
642.7080, 185.9697
643.8720, 36.20801
645.0350, 180.3975
646.1980, 364.4824
647.3610, 229.6104
648.5240, 258.5498
649.6870, 160.2744
650.8490, 249.0547
652.0120, 377.8359
653.1740, 244.8623
654.3360, 384.0723
655.4980, 329.2734
656.6600, 521.4678
657.8210, 408.6553
658.9830, 471.8350
660.1440, 694.0479
661.3050, 682.4375
662.4660, 740.5947
663.6270, 1040.598
664.7870, 1055.728
665.9480, 1219.904
667.1080, 1523.063
668.2680, 1679.260
669.4280, 2092.383
670.5880, 2472.544
671.7480, 3133.775
672.9070, 3899.924
674.0670, 4919.250
675.2260, 6103.664
676.3850, 7725.787
677.5440, 10328.09
678.7030, 13453.40
679.8610, 17476.58
681.0200, 22450.60
682.1780, 28792.68
683.3360, 34905.91
684.4940, 39340.25
685.6520, 39896.43
686.8090, 36834.73
687.9670, 30974.42
689.1240, 24917.47
690.2810, 19319.51
691.4380, 14987.17
692.5950, 11618.79
693.7520, 9267.182
694.9080, 7433.818
696.0650, 6216.357
697.2210, 5280.361
698.3770, 4467.268
699.5330, 3844.783
700.6880, 3497.933
701.8440, 3009.953
702.9990, 2829.548
704.1550, 2573.488
705.3100, 2125.590
706.4650, 1849.046
707.6190, 1820.849
708.7740, 1491.038
709.9290, 1497.284
711.0830, 1404.142
712.2370, 1525.210
713.3910, 1122.703
714.5450, 1088.372
715.6980, 1115.600
716.8520, 1031.519
718.0050, 1041.312
719.1580, 987.2812
720.3110, 744.3174
721.4640, 809.7197
722.6170, 861.4580
723.7700, 704.1826
724.9220, 759.8916
726.0740, 669.5879
727.2260, 706.3564
728.3780, 779.0244
729.5300, 561.8662
730.6810, 454.8291
731.8330, 601.8828
732.9840, 508.6221
734.1350, 587.1865
735.2860, 707.5127
736.4370, 456.1162
737.5880, 445.5244
738.7380, 791.0996
739.8880, 629.3115
741.0390, 493.8516
742.1890, 566.9160
743.3380, 635.3252
744.4880, 421.3984
745.6380, 293.3262
746.7870, 221.3994
747.9360, 367.8945
749.0850, 502.4990
750.2340, 566.1855
751.3830, 451.5527
752.5310, 519.5830
753.6800, 600.6191
754.8280, 491.7676
755.9760, 676.0781
757.1240, 584.3760
758.2720, 620.6582
759.4190, 791.9268
760.5670, 644.1816
761.7140, 896.4219
762.8610, 790.6475
764.0080, 899.8594
765.1550, 1092.063
766.3020, 875.2520
767.4480, 885.4258
768.5950, 702.5781
769.7410, 739.4189
770.8870, 789.5498
772.0330, 774.6631
773.1780, 706.8115
774.3240, 623.5371
775.4690, 486.9395
776.6140, 418.0078
777.7590, 279.0635
778.9040, 306.1035
780.0490, 253.1387
781.1940, 200.1572
782.3380, 217.8975
783.4820, 308.8887
784.6260, 271.8633
785.7700, 139.8477
786.9140, 280.8271
788.0580, 148.8154
789.2010, 99.80859
790.3450, 206.8105
791.4880, 160.7969
792.6310, 249.7695
793.7730, 237.0078
794.9160, 216.6699
796.0590, 207.5977
797.2010, 108.5107
798.3430, 64.40820
799.4850, 187.2891
800.6270, 13.15430
801.7690, 9.003906
802.9100, 105.8057
804.0520, 115.0234
805.1930, 103.8018
806.3340, 162.5645
807.4750, 177.1504
808.6160, 108.6914
809.7560, 192.4062
810.8970, 81.10645
812.0370, 58.79004
813.1770, 171.4551
814.3170, 80.10449
815.4570, 74.73535
816.5960, 102.3516
817.7360, 18.95020
818.8750, 150.5244
820.0140, 86.08301
821.1530, 54.62598
822.2920, 86.14941
823.4310, 71.18359
824.5690, 4.674805
825.7070, 159.3281
826.8460, 172.7715
827.9840, 33.19824
829.1220, 42.19629
830.2590, 38.41016
831.3970, 36.89941
832.5340, 22.82715
833.6710, 129.4004
834.8080, 29.38672
835.9450, 38.77344
837.0820, 18.08496
838.2190, 106.0117
839.3550, 6.265625
840.4910, 253.3164
841.6270, 76.35059
842.7630, 7.369141
843.8990, 78.64355
845.0350, 49.26953
846.1700, 38.83496
847.3060, 64.99316
848.4410, 60.78125
849.5760, 12.46094
850.7100, 31.74121
851.8450, 35.92871
852.9800, 79.58008
854.1140, 106.2158
855.2480, 9.836914
856.3820, 8.567383
857.5160, 15.00879
858.6500, 118.5137
859.7830, 152.0215
860.9170, 130.5146
862.0500, 165.9746
863.1830, 74.45996
864.3160, 131.9121
865.4480, 47.34863
866.5810, 28.77051
867.7130, 78.82324
868.8460, 74.48633
869.9780, 216.7832
871.1100, 153.0410
872.2410, 10.71387
873.3730, 4.499023
874.5050, 158.3057
875.6360, 127.7842
876.7670, 113.8613
877.8980, 103.9395
879.0290, 174.0166
880.1590, 116.2617
881.2900, 111.1807
882.4200, 72.28711
883.5500, 47.39746
884.6800, 72.49512
885.8100, 61.59375
886.9400, 122.6982
888.0690, 90.79199
889.1990, 149.8750
890.3280, 97.94922
891.4570, 82.01367
892.5860, 72.06836
893.7140, 147.1113
894.8430, 164.1445
895.9710, 114.1680
897.1000, 175.1797
898.2280, 111.1836
899.3560, 296.1816
900.4830, 284.1699
901.6110, 344.1504
902.7380, 406.1191
903.8660, 422.0811
904.9930, 517.0322
906.1200, 608.9756
907.2460, 544.8008
908.3730, 457.8369
909.5000, 469.7559
910.6260, 458.6680
911.7520, 517.5703
912.8780, 547.4639
914.0040, 423.3506
915.1290, 498.2295
916.2550, 336.0996
917.3800, 432.9619
918.5050, 350.8184
919.6300, 336.6670
920.7550, 485.5078
921.8800, 296.3418
923.0040, 253.1689
924.1290, 228.9902
925.2530, 295.7148
926.3770, 203.5205
927.5010, 110.3203
928.6250, 39.11328
929.7480, 125.9004
930.8720, 174.6797
931.9950, 79.45410
933.1180, 108.1807
934.2410, 4.718750
935.3640, 97.47559
936.4860, 137.3721
937.6090, 114.1318
938.7310, 65.17188
939.8530, 213.5166
940.9750, 74.15625
942.0970, 169.1475
943.2180, 21.54004
944.3400, 153.9775
945.4610, 51.56934
946.5820, 10.96875
947.7030, 102.2686
948.8240, 92.50977
949.9450, 61.16113
951.0650, 92.04883
952.1860, 88.74219
953.3060, 101.7295
954.4260, 97.29590
955.5460, 148.7090
956.6650, 106.9844
957.7850, 93.60059
958.9040, 120.6934
960.0230, 35.42676
961.1420, 84.07520
962.2610, 65.57422
963.3800, 8.547852
964.4990, 17.65234
965.6170, 93.53711
966.7350, 56.30566
967.8530, 107.2354
968.9710, 176.6895
970.0890, 157.2324
971.2070, 31.15723
972.3240, 7.437500
973.4410, 10.16406
974.5580, 167.6514
975.6750, 272.1104
976.7920, 231.4004
977.9090, 202.3262
979.0250, 144.8945
980.1410, 289.0703
981.2580, 330.1777
982.3740, 155.6680
983.4890, 474.9355
984.6050, 586.7715
985.7200, 445.4238
986.8360, 605.5098
987.9510, 691.8965
989.0660, 844.3984
990.1810, 864.7188
991.2950, 806.9629
992.4100, 1041.836
993.5240, 1292.363
994.6390, 1585.900
995.7530, 1665.441
996.8660, 1806.988
997.9800, 2020.197
999.0940, 2159.021
1000.207, 2341.420
1001.320, 2458.652
1002.433, 2516.867
1003.546, 2522.361
1004.659, 2576.992
1005.772, 2488.646
1006.884, 2358.273
1007.996, 2646.908
1009.108, 2668.369
1010.220, 2436.080
1011.332, 2541.803
1012.444, 2314.533
1013.555, 2048.275
1014.666, 1956.029
1015.777, 1807.801
1016.888, 1530.580
1017.999, 1571.287
1019.110, 1301.094
1020.220, 1256.900
1021.331, 1154.729
1022.441, 1008.580
1023.551, 817.4512
1024.661, 718.3340
1025.770, 736.2266
1026.880, 566.1328
1027.989, 535.0527
1029.098, 516.9824
1030.207, 438.9238
1031.316, 467.8750
1032.425, 378.9023
1033.533, 484.9023
1034.642, 297.9961
1035.750, 342.0020
1036.858, 446.0195
1037.966, 461.0508
1039.073, 427.0938
1040.181, 403.1504
1041.288, 442.2383
1042.396, 451.7188
1043.503, 510.8438
1044.610, 577.5547
1045.716, 670.1387
1046.823, 802.3047
1047.929, 872.4863
1049.036, 1111.682
1050.142, 1090.891
1051.248, 1435.113
1052.353, 1382.352
1053.459, 1509.621
1054.564, 1853.949
1055.670, 2291.291
1056.775, 2615.648
1057.880, 3036.018
1058.985, 3502.414
1060.089, 3809.826
1061.194, 4340.693
1062.298, 5161.695
1063.402, 5354.154
1064.506, 5800.648
1065.610, 6351.168
1066.713, 6368.736
1067.817, 6487.320
1068.920, 6551.922
1070.023, 6224.545
1071.126, 6373.191
1072.229, 5816.451
1073.332, 5466.152
1074.435, 5293.871
1075.537, 4762.766
1076.639, 4248.709
1077.741, 4075.477
1078.843, 3705.264
1079.945, 3384.068
1081.046, 3243.891
1082.148, 2996.734
1083.249, 2579.594
1084.350, 2408.469
1085.451, 2164.365
1086.551, 1993.283
1087.652, 1830.258
1088.752, 1696.174
1089.853, 1546.148
1090.953, 1365.615
1092.053, 1255.629
1093.152, 1173.471
1094.252, 1062.537
1095.351, 985.6035
1096.451, 890.5000
1097.550, 857.2012
1098.649, 738.5020
1099.748, 921.5586
1100.846, 668.7910
1101.945, 699.0410
1103.043, 735.3281
1104.141, 578.6348
1105.239, 467.9766
1106.337, 639.1680
1107.434, 543.5547
1108.532, 455.9629
1109.629, 459.3926
1110.726, 387.8457
1111.823, 408.3516
1112.920, 251.8770
1114.017, 451.4414
1115.113, 644.0508
1116.210, 640.6816
1117.306, 420.3398
1118.402, 609.0371
1119.498, 410.7559
1120.593, 472.4961
1121.689, 410.2578
1122.784, 431.0469
1123.879, 493.8770
1124.974, 373.7402
1126.069, 405.6211
1127.164, 431.5234
1128.259, 406.4453
1129.353, 329.3848
1130.447, 437.3457
1131.541, 295.2520
1132.635, 545.2539
1133.729, 502.2734
1134.822, 564.7168
1135.916, 556.8301
1137.009, 593.4062
1138.102, 621.5586
1139.195, 726.7246
1140.288, 740.9316
1141.380, 718.2051
1142.473, 755.4941
1143.565, 652.8047
1144.657, 831.1328
1145.749, 649.4824
1146.841, 813.0254
1147.932, 710.4121
1149.024, 665.3926
1150.115, 591.8145
1151.206, 409.6719
1152.297, 605.1328
1153.388, 517.7676
1154.479, 318.3613
1155.569, 99.87500
1156.659, 325.4062
1157.750, 395.9551
1158.839, 235.5195
1159.929, 51.09961
1161.019, 16.69727
1162.108, 43.31445
1163.198, 60.05469
1164.287, 227.5898
1165.376, 11.74805
1166.465, 177.1523
1167.553, 10.84570
1168.642, 30.55469
1169.730, 160.2949
1170.818, 21.05273
1171.906, 206.9785
1172.994, 29.22852
1174.082, 146.1191
1175.170, 99.93945
1176.257, 132.7734
1177.344, 211.6270
1178.431, 225.4922
1179.518, 109.3730
1180.605, 229.2793
1181.691, 27.21680
1182.778, 282.3535
1183.864, 122.0352
1184.950, 215.9414
1186.036, 215.9414
1187.122, 398.9883
1188.207, 193.0469
1189.292, 476.1289
1190.378, 400.2188
1191.463, 214.3828
1192.548, 324.4980
1193.632, 429.6270
1194.717, 249.6543
1195.801, 254.0840
1196.886, 403.5039
1197.970, 405.6934
1199.054, 514.8965
1200.137, 427.4258
1201.221, 301.6543
1202.305, 217.3672
1203.388, 259.6348
1204.471, 355.9121
1205.554, 320.2070
1206.637, 425.5527
1207.719, 446.9141
1208.802, 463.2832
1209.884, 497.5449
1210.966, 500.3750
1212.048, 502.4551
1213.130, 489.8633
1214.212, 475.2832
1215.293, 419.7109
1216.374, 378.1484
1217.456, 616.5957
1218.536, 503.0527
1219.617, 473.5176
1220.698, 764.9922
1221.778, 640.4941
1222.859, 682.0078
1223.939, 867.5332
1225.019, 839.0703
1226.099, 938.6172
1227.178, 1089.172
1228.258, 1185.783
1229.337, 1040.375
1230.417, 1070.023
1231.496, 1242.631
1232.574, 1379.246
1233.653, 1338.867
1234.732, 1314.508
1235.810, 1409.158
1236.888, 1502.816
1237.966, 1466.480
1239.044, 1309.150
1240.122, 1164.824
1241.199, 1250.504
1242.277, 896.1914
1243.354, 907.8867
1244.431, 816.5879
1245.508, 603.2930
1246.585, 710.0039
1247.661, 414.7305
1248.738, 437.4531
1249.814, 345.1758
1250.890, 33.90039
1251.966, 322.6328
1253.042, 287.2598
1254.117, 130.0078
1255.193, 185.7793
1256.268, 117.5527
1257.343, 247.3281
1258.418, 158.1035
1259.493, 17.88281
1260.567, 82.33594
1261.642, 139.4102
1262.716, 77.15820
1263.790, 53.09375
1264.864, 144.6348
1265.938, 70.62891
1267.011, 106.2578
1268.085, 78.03711
1269.158, 82.43945
1270.231, 35.10938
1271.304, 99.77930
1272.377, 45.44531
1273.450, 15.50000
1274.522, 27.36914
1275.594, 23.96680
1276.666, 22.87109
1277.738, 10.09180
1278.810, 88.79297
1279.882, 5.564453
1280.953, 86.27344
1282.025, 38.93359
1283.096, 37.32617
1284.167, 34.46875
1285.238, 55.05078
1286.308, 122.6309
1287.379, 128.1953
1288.449, 78.77734
1289.519, 119.3457
1290.589, 138.9082
1291.659, 99.66016
1292.729, 179.5840
1293.798, 149.7168
1294.868, 2.656250
1295.937, 178.1895
1297.006, 82.87305
1298.075, 172.5332
1299.143, 200.5566
1300.212, 59.99219
1301.280, 212.4766
1302.348, 33.44141
1303.416, 124.9883
1304.484, 169.4121
1305.552, 278.8262
1306.620, 252.5039
1307.687, 142.7344
1308.754, 158.9121
1309.821, 62.09766
1310.888, 14.47266
1311.955, 44.84961
1313.021, 143.2246
1314.088, 283.2168
1315.154, 139.1621
1316.220, 157.6719
1317.286, 11.96680
1318.352, 277.6992
1319.417, 41.43164
1320.483, 100.5918
1321.548, 98.73438
1322.613, 55.14648
1323.678, 13.08789
1324.743, 90.60547
1325.807, 164.3945
1326.872, 232.3691
1327.936, 27.81250
1329.000, 301.7734
1330.064, 44.26758
1331.128, 147.3125
1332.191, 171.2422
1333.255, 79.15625
1334.318, 271.0723
1335.381, 193.9863
1336.444, 216.8926
1337.507, 150.8164
1338.569, 96.70898
1339.632, 152.5938
1340.694, 128.3438
1341.756, 114.8965
1342.818, 177.2539
1343.880, 125.1406
1344.941, 143.9922
1346.003, 238.9434
1347.064, 266.7793
1348.125, 351.7676
1349.186, 307.6777
1350.247, 195.6426
1351.308, 241.2520
1352.368, 131.8301
1353.428, 192.5898
1354.489, 182.3398
1355.549, 100.0801
1356.608, 231.8125
1357.668, 101.8613
1358.727, 199.5703
1359.787, 198.6543
1360.846, 347.3398
1361.905, 361.7520
1362.964, 358.9336
1364.022, 349.8965
1365.081, 376.6348
1366.139, 195.2578
1367.197, 326.8672
1368.255, 193.4668
1369.313, 215.1699
1370.371, 415.4102
1371.428, 133.9668
1372.486, 153.5098
1373.543, 206.8262
1374.600, 136.3086
1375.657, 179.0254
