##NAMES=Beryl
##RRUFFID=R060942
##IDEAL CHEMISTRY=Be_3_Al_2_Si_6_O_18_
##LOCALITY=Mingore mine, Swat Valley, Pakistan
##OWNER=RRUFF
##SOURCE=Lawrence W. Snee
##DESCRIPTION=Green hexagonal prisms, variety emerald
##STATUS=The identification of this mineral has been confirmed by X-ray diffraction and chemical analysis
##URL=rruff.info/R060942
##MEASURED CHEMISTRY=(Be_2.94_Li_0.06_)_Σ=3_(Al_1.55_Mg_0.37_Fe^3+^_0.06_Cr^3+^_0.02_)_Σ=2_Si_6.00_O_18_·Na_0.42_; Be and Li not measured but estimated by stoichiometry
##PIN_ID=L01519
##ORIENTATION=Laser parallel to a* (1 0 0). Fiducial mark perpendicular to laser is parallel to -c [0 0 -1]
119.3650, 0.0000000E+00
120.5960, 3.154297
121.8270, 103.0518
123.0580, 215.0186
124.2880, 263.5566
125.5190, 64.26953
126.7490, 17.65723
127.9790, 161.7148
129.2090, 183.7549
130.4390, 256.2607
131.6680, 383.8428
132.8980, 395.1816
134.1270, 266.0137
135.3560, 332.1855
136.5850, 454.5693
137.8140, 645.0371
139.0430, 685.4531
140.2710, 686.7031
141.5000, 504.6807
142.7280, 516.3760
143.9560, 510.7051
145.1840, 380.5127
146.4120, 539.7412
147.6390, 482.3799
148.8670, 428.5508
150.0940, 487.3184
151.3210, 580.6348
152.5490, 526.4111
153.7750, 451.5674
155.0020, 497.0400
156.2290, 363.7715
157.4550, 352.7178
158.6810, 369.8457
159.9080, 385.1279
161.1340, 411.2715
162.3590, 465.0674
163.5850, 487.6934
164.8110, 504.4443
166.0360, 553.1221
167.2610, 525.5117
168.4860, 559.5039
169.7110, 445.3945
170.9360, 465.3320
172.1610, 362.3057
173.3850, 412.3125
174.6100, 429.5205
175.8340, 381.7822
177.0580, 470.3223
178.2820, 635.7441
179.5050, 673.8047
180.7290, 466.9980
181.9520, 342.2314
183.1760, 384.2559
184.3990, 456.0420
185.6220, 555.6035
186.8450, 543.9463
188.0670, 583.0811
189.2900, 469.0176
190.5120, 523.7715
191.7340, 619.3564
192.9560, 505.7812
194.1780, 746.0566
195.4000, 789.2080
196.6220, 655.2549
197.8430, 636.2090
199.0640, 817.0801
200.2860, 715.8770
201.5070, 1013.604
202.7270, 811.2676
203.9480, 661.8721
205.1690, 428.4199
206.3890, 276.3037
207.6090, 99.35938
208.8290, 0.7548830
210.0490, 20.10449
211.2690, 18.40820
212.4890, 54.33105
213.7080, 8.114258
214.9280, 18.06055
216.1470, 56.19336
217.3660, 49.97559
218.5850, 4.334961
219.8030, 51.34668
221.0220, 92.31836
222.2400, 154.2529
223.4590, 91.14844
224.6770, 82.00098
225.8950, 232.8125
227.1120, 319.7393
228.3300, 141.3115
229.5480, 305.7432
230.7650, 403.0918
231.9820, 328.1074
233.1990, 482.8691
234.4160, 532.1865
235.6330, 735.7764
236.8490, 672.4951
238.0660, 676.3096
239.2820, 558.2715
240.4980, 733.9521
241.7140, 788.0293
242.9300, 808.4258
244.1460, 858.2100
245.3610, 718.0439
246.5770, 788.1377
247.7920, 711.9785
249.0070, 543.7988
250.2220, 523.5928
251.4370, 439.3604
252.6510, 575.0928
253.8660, 520.7910
255.0800, 452.4541
256.2940, 521.0938
257.5080, 808.7109
258.7220, 874.9150
259.9360, 1067.989
261.1490, 1294.922
262.3630, 1404.789
263.5760, 1681.646
264.7890, 1842.466
266.0020, 2013.809
267.2150, 1900.758
268.4270, 1786.339
269.6400, 1816.123
270.8520, 1480.072
272.0640, 1372.156
273.2760, 1211.354
274.4880, 1034.646
275.7000, 889.0186
276.9120, 944.4619
278.1230, 914.9629
279.3340, 1004.514
280.5450, 1061.880
281.7560, 1097.743
282.9670, 1208.408
284.1780, 1196.098
285.3880, 1214.810
286.5980, 1291.538
287.8090, 1312.281
289.0190, 1438.033
290.2290, 1349.794
291.4380, 1485.560
292.6480, 1125.327
293.8570, 1250.096
295.0670, 1055.861
296.2760, 822.6230
297.4850, 727.3760
298.6930, 578.1191
299.9020, 585.8525
301.1110, 488.5723
302.3190, 358.2773
303.5270, 411.9658
304.7350, 389.6377
305.9430, 414.2930
307.1510, 417.9277
308.3580, 567.5459
309.5660, 527.1426
310.7730, 663.7188
311.9800, 674.2637
313.1870, 814.7861
314.3940, 935.2871
315.6010, 1154.767
316.8070, 1247.226
318.0130, 1494.660
319.2200, 1693.193
320.4260, 1903.595
321.6310, 1943.955
322.8370, 1853.440
324.0430, 1940.805
325.2480, 1728.051
326.4540, 1501.258
327.6590, 1358.422
328.8640, 1088.765
330.0680, 840.6260
331.2730, 618.6689
332.4780, 424.6729
333.6820, 252.6377
334.8860, 149.0068
336.0900, 119.4541
337.2940, 19.30469
338.4980, 16.89648
339.7010, 36.15332
340.9050, 133.4756
342.1080, 117.5840
343.3110, 150.9775
344.5140, 118.9639
345.7170, 140.6328
346.9200, 133.3818
348.1220, 64.21973
349.3240, 46.12793
350.5270, 122.1016
351.7290, 87.15820
352.9310, 23.27148
354.1320, 144.4580
355.3340, 17.28418
356.5350, 144.0225
357.7370, 148.7910
358.9380, 65.29395
360.1390, 67.82324
361.3400, 11.68945
362.5400, 59.74219
363.7410, 118.1338
364.9410, 19.51172
366.1410, 136.7861
367.3410, 167.0488
368.5410, 200.2773
369.7410, 269.4727
370.9400, 278.6377
372.1400, 526.7686
373.3390, 593.8623
374.5380, 470.8760
375.7370, 742.7520
376.9360, 733.4570
378.1350, 896.0000
379.3330, 1037.398
380.5310, 1243.667
381.7300, 1593.827
382.9280, 1985.873
384.1260, 2440.820
385.3230, 2971.729
386.5210, 3677.577
387.7180, 4762.367
388.9160, 5934.133
390.1130, 7317.215
391.3100, 9065.528
392.5060, 10960.46
393.7030, 12918.77
394.9000, 15110.18
396.0960, 16546.14
397.2920, 17734.68
398.4880, 17986.08
399.6840, 17204.33
400.8800, 16540.32
402.0750, 14637.94
403.2710, 12914.21
404.4660, 11226.73
405.6610, 9837.516
406.8560, 8571.043
408.0510, 7451.496
409.2450, 6649.930
410.4400, 6266.340
411.6340, 5591.732
412.8280, 5016.102
414.0220, 4697.447
415.2160, 4320.771
416.4100, 3996.066
417.6030, 3592.340
418.7970, 3333.585
419.9900, 3046.806
421.1830, 2770.998
422.3760, 2594.165
423.5690, 2376.305
424.7610, 2235.417
425.9540, 2196.502
427.1460, 2051.559
428.3380, 2156.588
429.5300, 2280.590
430.7220, 1999.563
431.9140, 2114.509
433.1050, 2271.427
434.2970, 2421.316
435.4880, 2368.177
436.6790, 2378.010
437.8700, 2498.814
439.0610, 2317.592
440.2510, 2262.340
441.4420, 2093.061
442.6320, 1890.754
443.8220, 1727.328
445.0120, 1460.055
446.2020, 1284.664
447.3910, 1083.244
448.5810, 931.5977
449.7700, 846.5840
450.9600, 726.8223
452.1490, 702.2930
453.3370, 613.3867
454.5260, 601.1533
455.7150, 491.5430
456.9030, 506.9053
458.0910, 454.2422
459.2800, 457.5508
460.4670, 525.8340
461.6550, 322.0908
462.8430, 347.3203
464.0300, 457.5225
465.2180, 310.7002
466.4050, 329.8486
467.5920, 443.9727
468.7790, 394.0713
469.9650, 391.1436
471.1520, 429.1934
472.3380, 416.2168
473.5250, 365.2158
474.7110, 576.1904
475.8970, 391.1416
477.0820, 651.9512
478.2680, 557.2949
479.4540, 399.3516
480.6390, 576.2334
481.8240, 538.8848
483.0090, 577.2598
484.1940, 509.4746
485.3780, 398.6045
486.5630, 327.7012
487.7470, 376.8350
488.9320, 424.0791
490.1160, 319.9775
491.3000, 471.1641
492.4830, 363.4941
493.6670, 367.9766
494.8500, 477.7148
496.0340, 397.2705
497.2170, 440.2783
498.4000, 290.2129
499.5820, 410.0576
500.7650, 461.7930
501.9480, 498.4131
503.1300, 394.0586
504.3120, 508.0947
505.4940, 510.4795
506.6760, 397.8242
507.8580, 543.2578
509.0390, 442.7334
510.2210, 550.4395
511.4020, 1274.317
512.5830, 1794.467
513.7640, 2138.636
514.9450, 2211.997
516.1250, 802.3457
517.3060, 753.6816
518.4860, 649.0059
519.6660, 913.3184
520.8460, 792.6191
522.0260, 781.9111
523.2060, 649.1924
524.3850, 580.4658
525.5650, 419.7305
526.7440, 268.9863
527.9230, 309.2354
529.1020, 244.4756
530.2810, 160.7090
531.4590, 60.93457
532.6380, 18.85059
533.8160, 86.34766
534.9940, 4.537109
536.1720, 54.28711
537.3500, 60.84668
538.5270, 265.0293
539.7050, 120.0576
540.8820, 0.8388670
542.0590, 115.2354
543.2360, 46.38281
544.4130, 105.5635
545.5900, 143.2344
546.7660, 55.06348
547.9430, 109.8965
549.1190, 332.7373
550.2950, 388.5762
551.4710, 551.4287
552.6470, 712.2832
553.8220, 934.1641
554.9980, 1165.049
556.1730, 1419.932
557.3480, 1705.806
558.5230, 1971.680
559.6980, 2215.547
560.8730, 2291.408
562.0470, 2409.269
563.2220, 2451.294
564.3960, 2338.003
565.5700, 2398.903
566.7440, 2370.812
567.9170, 2241.718
569.0910, 2213.617
570.2640, 2254.513
571.4380, 2093.402
572.6110, 2079.295
573.7840, 1993.186
574.9570, 1940.069
576.1290, 1800.950
577.3020, 1986.831
578.4740, 1661.727
579.6460, 1836.615
580.8180, 1542.519
581.9900, 1631.430
583.1620, 1547.336
584.3330, 1589.246
585.5040, 1565.155
586.6760, 1482.258
587.8470, 1350.004
589.0180, 1340.936
590.1880, 1377.863
591.3590, 1361.796
592.5290, 1316.913
593.7000, 1249.692
594.8700, 1162.660
596.0400, 1157.643
597.2090, 1009.622
598.3790, 973.5977
599.5490, 1005.576
600.7180, 794.5508
601.8870, 812.5283
603.0560, 804.4092
604.2250, 784.4131
605.3940, 605.4531
606.5620, 718.3359
607.7300, 524.3193
608.8990, 667.3955
610.0670, 686.4727
611.2350, 783.5801
612.4020, 686.6836
613.5700, 764.7842
614.7370, 786.8838
615.9050, 373.9795
617.0720, 395.0723
618.2390, 343.1641
619.4060, 311.2559
620.5720, 254.3486
621.7390, 141.4531
622.9050, 102.5781
624.0710, 47.73047
625.2370, 87.93359
626.4030, 20.18555
627.5690, 2.493164
628.7340, 48.15234
629.9000, 53.23926
631.0650, 89.68359
632.2300, 33.16309
633.3950, 39.67090
634.5600, 87.77051
635.7240, 72.79297
636.8890, 33.62012
638.0530, 82.01172
639.2170, 149.6582
640.3810, 210.3613
641.5450, 265.6465
642.7080, 222.7754
643.8720, 289.4922
645.0350, 244.2314
646.1980, 149.9785
647.3610, 300.7266
648.5240, 201.4990
649.6870, 274.2744
650.8490, 168.0498
652.0120, 271.8242
653.1740, 453.5977
654.3360, 354.3691
655.4980, 589.1387
656.6600, 472.9053
657.8210, 750.6699
658.9830, 714.4316
660.1440, 848.6992
661.3050, 1181.944
662.4660, 1192.697
663.6270, 1445.446
664.7870, 1802.377
665.9480, 2121.120
667.1080, 2525.860
668.2680, 3046.598
669.4280, 3590.333
670.5880, 4276.064
671.7480, 5097.452
672.9070, 6272.123
674.0670, 7593.816
675.2260, 9616.905
676.3850, 12507.90
677.5440, 16208.40
678.7030, 20489.30
679.8610, 25947.24
681.0200, 31848.43
682.1780, 38609.73
683.3360, 45249.00
684.4940, 50982.12
685.6520, 54640.90
686.8090, 54967.88
687.9670, 52810.13
689.1240, 48082.30
690.2810, 41623.68
691.4380, 35271.41
692.5950, 28462.14
693.7520, 22970.83
694.9080, 18486.12
696.0650, 14993.84
697.2210, 12270.84
698.3770, 10261.60
699.5330, 8682.484
700.6880, 7571.663
701.8440, 6532.766
702.9990, 5814.917
704.1550, 4978.306
705.3100, 4510.053
706.4650, 4091.874
707.6190, 3522.545
708.7740, 3211.303
709.9290, 2930.957
711.0830, 2764.944
712.2370, 2537.691
713.3910, 2350.306
714.5450, 1988.915
715.6980, 1967.559
716.8520, 1705.048
718.0050, 1674.634
719.1580, 1458.131
720.3110, 1454.129
721.4640, 1416.691
722.6170, 1264.075
723.7700, 1244.271
724.9220, 1135.526
726.0740, 1102.397
727.2260, 1041.930
728.3780, 955.4648
729.5300, 900.4180
730.6810, 859.0840
731.8330, 819.3271
732.9840, 843.5908
734.1350, 854.1221
735.2860, 853.4629
736.4370, 845.0469
737.5880, 872.3154
738.7380, 848.7344
739.8880, 842.9521
741.0390, 945.6543
742.1890, 882.9033
743.3380, 967.0977
744.4880, 983.3438
745.6380, 877.6777
746.7870, 872.9863
747.9360, 837.9219
749.0850, 840.3027
750.2340, 806.6826
751.3830, 886.8906
752.5310, 753.1650
753.6800, 731.4258
754.8280, 721.6748
755.9760, 616.9082
757.1240, 803.1289
758.2720, 592.3359
759.4190, 706.5293
760.5670, 740.7080
761.7140, 595.8730
762.8610, 570.0078
764.0080, 705.1445
765.1550, 588.1416
766.3020, 711.0361
767.4480, 510.3867
768.5950, 642.4639
769.7410, 532.5254
770.8870, 553.5107
772.0330, 510.5078
773.1780, 534.3770
774.3240, 506.0059
775.4690, 530.2539
776.6140, 480.2197
777.7590, 395.1689
778.9040, 417.1006
780.0490, 416.0156
781.1940, 458.9150
782.3380, 384.7959
783.4820, 425.6602
784.6260, 463.5078
785.7700, 324.3379
786.9140, 295.1504
788.0580, 302.9463
789.2010, 366.7246
790.3450, 259.4844
791.4880, 260.2295
792.6310, 378.9551
793.7730, 218.6650
794.9160, 159.3555
796.0590, 184.0303
797.2010, 178.6865
798.3430, 174.3262
799.4850, 309.9482
800.6270, 139.5527
801.7690, 60.14062
802.9100, 166.7090
804.0520, 206.2607
805.1930, 105.7939
806.3340, 226.3115
807.4750, 165.8096
808.6160, 158.2920
809.7560, 6.756836
810.8970, 51.19922
812.0370, 171.6221
813.1770, 771.0117
814.3170, 58.42090
815.4570, 459.8311
816.5960, 417.2803
817.7360, 128.2559
818.8750, 114.1074
820.0140, 30.48633
821.1530, 129.1436
822.2920, 111.8486
823.4310, 7.750977
824.5690, 24.58301
825.7070, 36.33105
826.8460, 41.58203
827.9840, 0.4921880
829.1220, 79.51758
830.2590, 0.3945310
831.3970, 29.26953
832.5340, 76.20996
833.6710, 38.60449
834.8080, 68.84961
835.9450, 43.84668
837.0820, 32.21777
838.2190, 33.97070
839.3550, 71.29785
840.4910, 59.64062
841.6270, 18.05176
842.7630, 41.49219
843.8990, 70.01758
845.0350, 46.52539
846.1700, 68.01562
847.3060, 7.489258
848.4410, 39.93164
849.5760, 160.3574
850.7100, 65.76562
851.8450, 11.15820
852.9800, 35.47656
854.1140, 88.83789
855.2480, 36.86523
856.3820, 13.61719
857.5160, 121.5898
858.6500, 5.216797
859.7830, 20.94238
860.9170, 7.083008
862.0500, 78.80371
863.1830, 44.23828
864.3160, 39.26562
865.4480, 2.721680
866.5810, 46.73730
867.7130, 7.195313
868.8460, 57.89551
869.9780, 47.04297
871.1100, 37.75879
872.2410, 23.54688
873.3730, 2.321289
874.5050, 29.07324
875.6360, 2.186523
876.7670, 83.47266
877.8980, 48.82324
879.0290, 80.79688
880.1590, 2.685547
881.2900, 53.17090
882.4200, 69.70312
883.5500, 0.2929690
884.6800, 104.9014
885.8100, 112.4170
886.9400, 105.7236
888.0690, 43.02051
889.1990, 146.3066
890.3280, 244.5820
891.4570, 54.84766
892.5860, 248.1045
893.7140, 270.3506
894.8430, 171.5869
895.9710, 225.8154
897.1000, 253.0342
898.2280, 420.2441
899.3560, 470.4463
900.4830, 307.6396
901.6110, 573.8252
902.7380, 485.0049
903.8660, 632.1846
904.9930, 552.3584
906.1200, 552.5244
907.2460, 512.6846
908.3730, 593.8369
909.5000, 479.0010
910.6260, 568.1611
911.7520, 663.3203
912.8780, 640.4727
914.0040, 615.6201
915.1290, 693.7607
916.2550, 638.9678
917.3800, 620.0293
918.5050, 599.1543
919.6300, 575.2754
920.7550, 560.3916
921.8800, 545.5039
923.0040, 468.6123
924.1290, 461.5166
925.2530, 378.8174
926.3770, 411.9150
927.5010, 332.0098
928.6250, 321.1016
929.7480, 326.1904
930.8720, 244.2764
931.9950, 254.6504
933.1180, 182.4424
934.2410, 215.5225
935.3640, 267.6006
936.4860, 237.6777
937.6090, 218.9902
938.7310, 167.6455
939.8530, 145.7207
940.9750, 132.7939
942.0970, 104.8271
943.2180, 194.9404
944.3400, 88.01367
945.4610, 55.54785
946.5820, 76.42480
947.7030, 106.4990
948.8240, 57.54199
949.9450, 1.411133
951.0650, 68.45312
952.1860, 32.49805
953.3060, 21.42578
954.4260, 48.46387
955.5460, 13.90039
956.6650, 83.80371
957.7850, 46.19727
958.9040, 3.298828
960.0230, 44.24512
961.1420, 32.35352
962.2610, 3.268555
963.3800, 51.76758
964.4990, 19.80566
965.6170, 20.88379
966.7350, 8.624023
967.8530, 37.58008
968.9710, 61.80273
970.0890, 32.78809
971.2070, 39.90234
972.3240, 81.69238
973.4410, 190.3652
974.5580, 63.99316
975.6750, 189.3877
976.7920, 224.4248
977.9090, 250.3936
979.0250, 391.5166
980.1410, 346.5586
981.2580, 587.7080
982.3740, 599.5264
983.4890, 658.5918
984.6050, 890.7949
985.7200, 889.0078
986.8360, 1262.193
987.9510, 1403.537
989.0660, 1604.789
990.1810, 1938.136
991.2950, 2059.998
992.4100, 2312.310
993.5240, 2547.203
994.6390, 2676.843
995.7530, 2954.238
996.8660, 3060.313
997.9800, 3155.746
999.0940, 3258.222
1000.207, 3191.300
1001.320, 3313.694
1002.433, 3144.530
1003.546, 2939.373
1004.659, 2944.956
1005.772, 2795.626
1006.884, 2822.301
1007.996, 2676.203
1009.108, 2497.960
1010.220, 2340.706
1011.332, 2298.417
1012.444, 2383.371
1013.555, 2240.388
1014.666, 2135.363
1015.777, 1973.258
1016.888, 1979.196
1017.999, 1733.518
1019.110, 1710.416
1020.220, 1698.419
1021.331, 1552.472
1022.441, 1416.565
1023.551, 1378.687
1024.661, 1208.831
1025.770, 1082.000
1026.880, 1157.192
1027.989, 1102.428
1029.098, 926.6885
1030.207, 803.0088
1031.316, 657.3535
1032.425, 850.7354
1033.533, 710.1660
1034.642, 770.6230
1035.750, 666.1074
1036.858, 666.6182
1037.966, 765.1533
1039.073, 645.7148
1040.181, 635.3018
1041.288, 648.9150
1042.396, 676.2852
1043.503, 731.2197
1044.610, 813.9111
1045.716, 934.6299
1046.823, 1025.855
1047.929, 1156.145
1049.036, 1281.953
1050.142, 1428.785
1051.248, 1612.646
1052.353, 1857.053
1053.459, 2117.448
1054.564, 2457.389
1055.670, 2837.369
1056.775, 3243.376
1057.880, 3775.410
1058.985, 4294.475
1060.089, 4793.564
1061.194, 5382.182
1062.298, 5955.840
1063.402, 6531.027
1064.506, 7214.242
1065.610, 7748.494
1066.713, 8139.775
1067.817, 8362.081
1068.920, 8530.416
1070.023, 8560.551
1071.126, 8542.182
1072.229, 8304.616
1073.332, 7958.079
1074.435, 7560.570
1075.537, 7229.091
1076.639, 6783.641
1077.741, 6304.221
1078.843, 5734.834
1079.945, 5537.482
1081.046, 5111.177
1082.148, 4873.881
1083.249, 4533.598
1084.350, 4361.361
1085.451, 4217.154
1086.551, 3953.020
1087.652, 3839.916
1088.752, 3697.846
1089.853, 3535.850
1090.953, 3403.023
1092.053, 3237.779
1093.152, 3094.587
1094.252, 2937.683
1095.351, 2841.883
1096.451, 2747.172
1097.550, 2709.521
1098.649, 2692.913
1099.748, 2418.247
1100.846, 2577.141
1101.945, 2240.445
1103.043, 2350.512
1104.141, 2115.467
1105.239, 2090.049
1106.337, 2166.665
1107.434, 2014.340
1108.532, 2105.072
1109.629, 1914.846
1110.726, 1877.654
1111.823, 1863.491
1112.920, 1947.373
1114.017, 2109.284
1115.113, 2140.232
1116.210, 2195.212
1117.306, 2174.222
1118.402, 2326.262
1119.498, 2386.338
1120.593, 2457.462
1121.689, 2514.465
1122.784, 2655.771
1123.879, 2564.482
1124.974, 2519.223
1126.069, 2508.720
1127.164, 2311.060
1128.259, 2130.329
1129.353, 2068.001
1130.447, 1944.563
1131.541, 1762.730
1132.635, 1747.504
1133.729, 1571.054
1134.822, 1512.193
1135.916, 1476.839
1137.009, 1361.531
1138.102, 1333.482
1139.195, 1319.697
1140.288, 1218.474
1141.380, 1183.886
1142.473, 1082.109
1143.565, 1043.996
1144.657, 1017.485
1145.749, 920.9062
1146.841, 929.9160
1147.932, 952.2002
1149.024, 713.3027
1150.115, 723.5479
1151.206, 856.2002
1152.297, 726.2666
1153.388, 584.4854
1154.479, 653.4062
1155.569, 609.6934
1156.659, 652.0029
1157.750, 498.3379
1158.839, 467.1572
1159.929, 514.5635
1161.019, 294.2793
1162.108, 431.7686
1163.198, 366.9688
1164.287, 486.0195
1165.376, 413.5723
1166.465, 479.4824
1167.553, 567.0781
1168.642, 528.7197
1169.730, 510.3789
1170.818, 571.0605
1171.906, 604.7617
1172.994, 586.4814
1174.082, 697.2188
1175.170, 682.9766
1176.257, 803.7539
1177.344, 726.5508
1178.431, 873.3652
1179.518, 913.0264
1180.605, 843.8750
1181.691, 1060.742
1182.778, 1094.627
1183.864, 1144.526
1184.950, 1105.444
1186.036, 1161.648
1187.122, 1113.598
1188.207, 1143.562
1189.292, 1146.543
1190.378, 1223.614
1191.463, 1205.485
1192.548, 1154.879
1193.632, 1217.501
1194.717, 1125.719
1195.801, 1154.152
1196.886, 1190.240
1197.970, 1294.342
1199.054, 1247.460
1200.137, 1400.597
1201.221, 1557.945
1202.305, 1398.338
1203.388, 1497.515
1204.471, 1476.702
1205.554, 1627.910
1206.637, 1753.130
1207.719, 1815.361
1208.802, 1803.605
1209.884, 1764.860
1210.966, 1808.128
1212.048, 1808.424
1213.130, 1780.732
1214.212, 1755.771
1215.293, 1698.379
1216.374, 1660.719
1217.456, 1479.068
1218.536, 1443.436
1219.617, 1243.806
1220.698, 1128.322
1221.778, 1008.715
1222.859, 1005.559
1223.939, 963.9746
1225.019, 953.3955
1226.099, 865.4629
1227.178, 505.8984
1228.258, 569.3398
1229.337, 434.7881
1230.417, 522.2432
1231.496, 420.7061
1232.574, 402.3721
1233.653, 382.0107
1234.732, 367.8545
1235.810, 348.2148
1236.888, 381.7607
1237.966, 295.2988
1239.044, 265.8789
1240.122, 201.3936
1241.199, 115.9131
1242.277, 156.4609
1243.354, 159.9854
1244.431, 166.5127
1245.508, 181.4570
1246.585, 159.4766
1247.661, 190.2480
1248.738, 116.9092
1249.814, 107.7461
1250.890, 88.25293
1251.966, 49.37305
1253.042, 36.86230
1254.117, 124.3672
1255.193, 48.92969
1256.268, 12.48633
1257.343, 43.09961
1258.418, 48.70508
1259.493, 159.3350
1260.567, 55.04688
1261.642, 95.78809
1262.716, 40.57812
1263.790, 82.39062
1264.864, 19.75098
1265.938, 29.88965
1267.011, 74.41016
1268.085, 45.31836
1269.158, 29.80371
1270.231, 34.95508
1271.304, 77.00684
1272.377, 86.05273
1273.450, 94.52441
1274.522, 68.55859
1275.594, 29.59570
1276.666, 16.89648
1277.738, 16.20020
1278.810, 45.94043
1279.882, 50.64941
1280.953, 87.78711
1282.025, 56.99512
1283.096, 2.179688
1284.167, 62.77539
1285.238, 75.72363
1286.308, 87.46191
1287.379, 59.71387
1288.449, 187.2646
1289.519, 116.4805
1290.589, 96.83203
