##NAMES=Beryl
##RRUFFID=R050121
##IDEAL CHEMISTRY=Be_3_Al_2_Si_6_O_18_
##LOCALITY=Cruziero mine, San Jose, Minas Gerais, Brazil
##OWNER=RRUFF
##SOURCE=Carlos and Paulo Vasconcelos
##DESCRIPTION=Light blue fragment, variety aquamarine
##STATUS=The identification of this mineral has been confirmed by X-ray diffraction and chemical analysis
##URL=rruff.info/R050121
##MEASURED CHEMISTRY=(Be_0.96_Li_0.04_)_3_Al_2.00_Si_6.00_O_18_Î‡Na_0.09_Mg_0.03_
##PIN_ID=L00353
##ORIENTATION=Laser parallel to a* (1 0 0). Fiducial mark perpendicular to laser is parallel to c [0 0 1]
98.947, 0.000
100.340, 99.687
101.732, 30.188
103.124, 0.757
104.516, 64.088
105.908, 147.096
107.300, 87.142
108.691, 235.855
110.082, 324.045
111.473, 256.787
112.864, 561.833
114.254, 736.048
115.644, 789.784
117.034, 809.268
118.424, 736.931
119.813, 650.301
121.203, 413.793
122.592, 361.288
123.981, 326.687
125.369, 307.938
126.758, 204.961
128.146, 125.654
129.534, 360.966
130.922, 191.847
132.309, 486.265
133.696, 616.182
135.083, 376.557
136.470, 229.362
137.857, 246.571
139.243, 281.159
140.630, 276.105
142.016, 274.541
143.401, 298.960
144.787, 219.820
146.172, 232.946
147.557, 155.320
148.942, 140.931
150.327, 146.767
151.711, 89.087
153.096, 217.314
154.480, 213.742
155.863, 209.365
157.247, 210.179
158.630, 86.175
160.013, 202.349
161.396, 126.697
162.779, 157.213
164.161, 171.885
165.544, 145.879
166.926, 226.840
168.308, 125.937
169.689, 54.165
171.070, 330.521
172.452, 244.998
173.833, 201.596
175.213, 172.313
176.594, 116.149
177.974, 217.103
179.354, 224.171
180.734, 180.351
182.114, 150.597
183.493, 166.099
184.872, 194.143
186.251, 193.480
187.630, 185.838
189.008, 208.221
190.387, 162.716
191.765, 172.247
193.143, 155.820
194.520, 136.438
195.898, 140.101
197.275, 104.876
198.652, 84.095
200.029, 99.604
201.405, 45.580
202.782, 37.387
204.158, 12.492
205.534, 6.470
206.909, 60.164
208.285, 109.470
209.660, 151.849
211.035, 156.318
212.410, 47.855
213.784, 16.495
215.159, 46.215
216.533, 96.000
217.907, 100.832
219.281, 119.711
220.654, 5.628
222.027, 137.580
223.400, 102.042
224.773, 109.104
226.146, 177.201
227.518, 131.338
228.891, 146.397
230.263, 11.289
231.634, 118.947
233.006, 106.213
234.377, 91.508
235.748, 159.830
237.119, 112.184
238.490, 125.566
239.860, 36.977
241.231, 208.418
242.601, 202.887
243.970, 85.382
245.340, 142.961
246.709, 56.640
248.079, 320.371
249.448, 180.166
250.816, 186.989
252.185, 66.886
253.553, 170.889
254.921, 264.944
256.289, 180.050
257.657, 122.199
259.024, 181.388
260.391, 277.602
261.758, 110.847
263.125, 185.128
264.492, 213.005
265.858, 136.457
267.224, 272.305
268.590, 128.162
269.956, 228.577
271.321, 338.208
272.687, 189.038
274.052, 164.035
275.416, 170.182
276.781, 307.463
278.146, 153.869
279.510, 275.271
280.874, 208.895
282.237, 396.614
283.601, 142.425
284.964, 108.317
286.327, 274.291
287.690, 239.339
289.053, 353.457
290.416, 349.641
291.778, 330.889
293.140, 498.510
294.502, 295.872
295.863, 507.288
297.225, 603.297
298.586, 503.814
299.947, 655.855
301.308, 516.885
302.668, 488.536
304.029, 706.751
305.389, 621.482
306.749, 683.251
308.108, 1001.535
309.468, 1108.376
310.827, 1231.250
312.186, 1530.155
313.545, 1916.359
314.903, 2555.327
316.262, 3145.008
317.620, 4217.025
318.978, 5291.279
320.336, 6588.807
321.693, 7062.334
323.051, 7009.456
324.408, 5561.601
325.765, 4410.438
327.121, 3018.625
328.478, 2009.686
329.834, 1445.201
331.190, 1059.448
332.546, 616.713
333.902, 585.997
335.257, 334.466
336.612, 394.783
337.967, 342.117
339.322, 112.467
340.677, 272.830
342.031, 106.209
343.385, 185.603
344.739, 25.992
346.093, 93.425
347.446, 84.304
348.799, 178.810
350.153, 190.265
351.505, 122.731
352.858, 81.574
354.210, 50.171
355.563, 39.032
356.915, 107.185
358.267, 125.710
359.618, 99.244
360.969, 303.788
362.321, 181.342
363.672, 75.905
365.022, 202.478
366.373, 201.725
367.723, 281.237
369.073, 268.833
370.423, 402.436
371.773, 243.046
373.122, 224.663
374.471, 417.286
375.821, 347.913
377.169, 486.606
378.518, 515.186
379.866, 732.827
381.215, 779.747
382.563, 974.397
383.910, 1189.051
385.258, 1618.706
386.605, 2112.361
387.952, 2445.435
389.299, 3305.625
390.646, 4185.957
391.992, 4986.623
393.339, 5731.872
394.685, 6375.456
396.031, 6781.311
397.376, 5765.365
398.722, 4914.031
400.067, 3708.004
401.412, 2838.134
402.757, 2317.341
404.101, 1604.817
405.446, 1101.333
406.790, 876.992
408.134, 724.693
409.478, 576.816
410.821, 445.465
412.165, 333.358
413.508, 251.404
414.851, 176.923
416.193, 160.609
417.536, 102.235
418.878, 163.472
420.220, 209.024
421.562, 181.911
422.904, 139.188
424.245, 200.780
425.586, 63.365
426.927, 111.964
428.268, 168.572
429.609, 145.812
430.949, 63.742
432.289, 180.304
433.629, 26.944
434.969, 261.512
436.309, 122.081
437.648, 181.653
438.987, 144.227
440.326, 90.201
441.665, 141.328
443.003, 244.858
444.342, 170.386
445.680, 107.939
447.018, 193.492
448.355, 30.046
449.693, 81.596
451.030, 177.143
452.367, 280.692
453.704, 71.762
455.041, 108.769
456.377, 24.292
457.713, 2.189
459.049, 35.316
460.385, 36.184
461.721, 2.062
463.056, 27.777
464.391, 1.246
465.726, 119.699
467.061, 43.145
468.395, 65.416
469.730, 168.977
471.064, 79.365
472.398, 211.744
473.731, 12.115
475.065, 24.475
476.398, 13.178
477.731, 66.162
479.064, 20.510
480.397, 11.791
481.729, 39.910
483.062, 91.346
484.394, 55.592
485.725, 57.174
487.057, 96.010
488.389, 8.182
489.720, 48.666
491.051, 149.455
492.382, 66.568
493.712, 71.734
495.043, 5.891
496.373, 186.021
497.703, 219.141
499.032, 76.262
500.362, 139.369
501.691, 64.475
503.020, 166.570
504.349, 52.650
505.678, 107.359
507.007, 25.559
508.335, 49.506
509.663, 154.557
510.991, 194.609
512.319, 38.652
513.646, 51.674
514.973, 92.682
516.300, 254.674
517.627, 220.654
518.954, 269.137
520.280, 283.566
521.607, 214.502
522.933, 280.424
524.259, 133.326
525.584, 200.217
526.910, 226.096
528.235, 385.957
529.560, 309.803
530.885, 342.867
532.209, 183.453
533.534, 293.256
534.858, 207.041
536.182, 180.811
537.506, 198.566
538.829, 199.303
540.152, 67.023
541.476, 173.727
542.799, 112.172
544.121, 113.082
545.444, 140.734
546.766, 36.627
548.088, 60.945
549.410, 71.504
550.732, 117.965
552.053, 59.416
553.375, 26.158
554.696, 44.209
556.017, 39.549
557.337, 107.859
558.658, 79.152
559.978, 32.576
561.298, 69.631
562.618, 69.188
563.938, 10.910
565.257, 134.969
566.576, 23.994
567.895, 42.984
569.214, 178.928
570.533, 88.857
571.851, 40.047
573.170, 236.793
574.488, 93.613
575.805, 136.414
577.123, 19.197
578.440, 62.936
579.758, 263.650
581.075, 13.350
582.391, 192.004
583.708, 162.639
585.024, 193.254
586.341, 153.855
587.657, 155.637
588.972, 300.297
590.288, 179.844
591.603, 28.375
592.918, 133.867
594.233, 242.344
595.548, 319.801
596.863, 335.322
598.177, 300.664
599.491, 246.186
600.805, 323.756
602.119, 137.125
603.432, 234.963
604.746, 288.297
606.059, 323.680
607.372, 176.979
608.685, 479.258
609.997, 285.074
611.309, 444.318
612.621, 266.328
613.933, 494.535
615.245, 567.725
616.557, 785.355
617.868, 926.510
619.179, 1317.852
620.490, 1459.547
621.801, 1864.648
623.111, 1599.207
624.421, 1868.271
625.731, 1157.318
627.041, 1331.867
628.351, 906.236
629.660, 532.229
630.970, 908.205
632.279, 610.896
633.588, 505.834
634.896, 412.730
636.205, 566.635
637.513, 248.316
638.821, 632.836
640.129, 592.258
641.437, 667.098
642.744, 577.920
644.051, 638.057
645.358, 547.844
646.665, 574.152
647.972, 672.959
649.278, 723.699
650.584, 695.094
651.890, 1013.801
653.196, 767.320
654.502, 886.992
655.807, 653.354
657.113, 785.992
658.418, 1051.301
659.722, 744.904
661.027, 852.490
662.331, 662.062
663.636, 1133.910
664.940, 923.920
666.244, 1341.375
667.547, 1253.059
668.851, 1860.549
670.154, 1727.652
671.457, 2235.000
672.760, 3137.436
674.062, 3578.855
675.365, 4539.258
676.667, 5917.643
677.969, 8220.012
679.271, 11307.371
680.572, 15086.707
681.874, 21566.033
683.175, 24808.344
684.476, 26659.635
685.777, 25225.203
687.077, 20729.465
688.378, 16164.709
689.678, 12189.938
690.978, 8927.148
692.278, 6161.352
693.577, 5429.531
694.877, 3725.699
696.176, 3278.850
697.475, 2472.713
698.774, 2378.836
700.072, 1916.941
701.371, 1672.035
702.669, 1135.113
703.967, 1266.766
705.265, 1259.285
706.562, 1072.652
707.860, 713.678
709.157, 840.031
710.454, 432.111
711.751, 751.908
713.047, 467.494
714.344, 612.455
715.640, 325.098
716.936, 422.568
718.232, 542.951
719.527, 472.051
720.823, 384.102
722.118, 402.996
723.413, 356.836
724.708, 226.244
726.002, 314.111
727.297, 46.723
728.591, 358.434
729.885, 392.273
731.179, 176.898
732.472, 156.721
733.766, 116.922
735.059, 186.791
736.352, 210.594
737.645, 177.432
738.937, 308.221
740.230, 132.000
741.522, 92.777
742.814, 150.543
744.106, 223.309
745.397, 360.102
746.689, 109.885
747.980, 191.592
749.271, 36.365
750.562, 290.137
751.853, 208.900
753.143, 181.662
754.433, 200.420
755.723, 21.193
757.013, 281.961
758.303, 86.275
759.592, 98.428
760.881, 0.873
762.170, 291.814
763.459, 72.496
764.748, 10.826
766.036, 292.834
767.325, 84.510
768.613, 267.113
769.901, 191.730
771.188, 87.346
772.476, 424.963
773.763, 49.420
775.050, 284.172
776.337, 182.766
777.624, 133.355
778.910, 38.951
780.196, 110.543
781.482, 99.137
782.768, 16.250
784.054, 131.350
785.339, 257.945
786.625, 60.545
787.910, 192.146
789.195, 57.252
790.479, 266.324
791.764, 204.330
793.048, 50.082
794.332, 95.480
795.616, 84.061
796.900, 197.643
798.183, 80.227
799.467, 211.830
800.750, 54.438
802.033, 80.947
803.316, 439.645
804.598, 256.760
805.880, 94.703
807.163, 160.168
808.445, 9.645
809.726, 52.879
811.008, 74.578
812.289, 53.965
813.570, 179.473
814.851, 65.912
816.132, 10.357
817.413, 115.195
818.693, 110.080
819.973, 100.564
821.253, 84.068
822.533, 149.270
823.813, 210.609
825.092, 32.955
826.371, 77.309
827.650, 77.666
828.929, 239.031
830.208, 294.400
831.486, 226.955
832.764, 21.859
834.042, 106.246
835.320, 72.643
836.598, 107.041
837.875, 70.447
839.152, 12.139
840.429, 408.279
841.706, 174.701
842.983, 111.133
844.259, 373.570
845.536, 120.016
846.812, 380.469
848.088, 41.930
849.363, 381.398
850.639, 342.877
851.914, 198.363
853.189, 235.861
854.464, 192.734
855.739, 225.090
857.013, 244.400
858.288, 357.955
859.562, 496.523
860.836, 586.135
862.110, 265.754
863.383, 649.385
864.656, 326.051
865.930, 287.732
867.203, 423.430
868.475, 388.195
869.748, 236.973
871.020, 125.785
872.292, 275.611
873.564, 278.533
874.836, 204.479
876.108, 91.451
877.379, 239.457
878.650, 343.480
879.922, 385.564
881.192, 139.473
882.463, 312.615
883.733, 130.770
885.004, 192.939
886.274, 194.121
887.544, 479.326
888.813, 278.562
890.083, 195.812
891.352, 451.090
892.621, 203.381
893.890, 83.688
895.159, 46.004
896.427, 160.355
897.695, 138.459
898.964, 317.137
900.232, 284.547
901.499, 327.998
902.767, 439.461
904.034, 209.939
905.301, 312.430
906.568, 469.971
907.835, 344.525
909.102, 370.910
910.368, 370.494
911.634, 500.604
912.900, 337.219
914.166, 673.781
915.432, 241.430
916.697, 91.092
917.962, 450.252
919.227, 364.980
920.492, 334.629
921.757, 156.387
923.021, 389.162
924.285, 405.953
925.550, 273.766
926.813, 234.916
928.077, 227.768
929.341, 324.660
930.604, 437.580
931.867, 290.527
933.130, 293.492
934.393, 383.475
935.655, 85.113
936.918, 568.139
938.180, 255.182
939.442, 256.238
940.703, 337.312
941.965, 178.740
943.226, 33.150
944.488, 254.969
945.749, 640.004
947.009, 292.154
948.270, 246.330
949.530, 388.523
950.791, 357.732
952.051, 253.957
953.311, 70.199
954.570, 303.727
955.830, 378.002
957.089, 271.623
958.348, 197.934
959.607, 221.264
960.866, 140.613
962.124, 142.268
963.383, 249.650
964.641, 182.361
965.899, 248.775
967.156, 297.207
968.414, 147.656
969.671, 236.828
970.928, 196.395
972.185, 216.898
973.442, 115.240
974.699, 303.785
975.955, 240.346
977.211, 129.930
978.468, 405.527
979.723, 120.146
980.979, 80.783
982.234, 502.438
983.490, 54.891
984.745, 336.795
986.000, 329.494
987.254, 135.215
988.509, 512.951
989.763, 177.715
991.017, 460.199
992.271, 311.000
993.525, 416.820
994.779, 518.656
996.032, 526.518
997.285, 629.400
998.538, 512.301
999.791, 1267.223
1001.044, 834.160
1002.296, 1330.115
1003.548, 1126.088
1004.800, 1158.086
1006.052, 1201.102
1007.304, 998.133
1008.555, 1206.184
1009.807, 1394.273
1011.058, 1364.381
1012.309, 1670.547
1013.559, 1449.732
1014.810, 1383.080
1016.060, 1575.359
1017.310, 1502.656
1018.560, 1179.768
1019.810, 1285.102
1021.060, 1497.488
1022.309, 1225.893
1023.558, 1446.463
1024.807, 1194.996
1026.056, 1403.355
1027.305, 1516.160
1028.553, 1679.637
1029.801, 1558.371
1031.049, 1418.875
1032.297, 1655.986
1033.545, 1957.918
1034.793, 1704.461
1036.040, 1765.027
1037.287, 2024.902
1038.534, 2102.922
1039.781, 2537.525
1041.027, 2262.613
1042.274, 2588.240
1043.520, 2911.242
1044.766, 3246.889
1046.012, 3271.391
1047.257, 3712.359
1048.503, 4553.445
1049.748, 4379.141
1050.993, 5555.336
1052.238, 6002.051
1053.483, 6670.777
1054.727, 7410.516
1055.971, 8674.605
1057.216, 10258.078
1058.459, 11972.836
1059.703, 14172.605
1060.947, 16822.375
1062.190, 19696.969
1063.433, 22759.785
1064.676, 25785.363
1065.919, 28131.350
1067.162, 30825.512
1068.404, 30406.371
1069.646, 29795.486
1070.888, 28654.381
1072.130, 25733.279
1073.372, 23043.178
1074.613, 20630.547
1075.855, 18260.014
1077.096, 15873.406
1078.337, 14225.295
1079.578, 12322.289
1080.818, 10890.570
1082.059, 9659.217
1083.299, 8733.150
1084.539, 7704.084
1085.779, 7032.752
1087.018, 5966.688
1088.258, 5666.850
1089.497, 4879.785
1090.736, 4421.719
1091.975, 3831.402
1093.213, 3430.920
1094.452, 3494.039
1095.690, 2834.275
1096.928, 2897.363
1098.166, 2463.707
1099.404, 2362.656
1100.642, 2067.598
1101.879, 1954.062
1103.116, 1619.998
1104.353, 1683.354
1105.590, 1391.037
1106.827, 1642.234
1108.063, 1179.596
1109.299, 1461.773
1110.536, 1139.764
1111.771, 1003.766
1113.007, 1057.760
1114.243, 805.760
1115.478, 925.754
1116.713, 886.746
1117.948, 1055.738
1119.183, 960.705
1120.418, 752.656
1121.652, 821.646
1122.886, 845.684
1124.120, 820.352
1125.354, 501.383
1126.588, 658.705
1127.821, 438.146
1129.055, 719.293
1130.288, 887.484
1131.521, 757.564
1132.753, 660.133
1133.986, 638.217
1135.218, 1074.303
1136.450, 469.398
1137.682, 1044.629
1138.914, 580.734
1140.146, 828.855
1141.377, 799.861
1142.609, 556.986
1143.840, 768.881
1145.071, 854.014
1146.301, 716.000
1147.532, 559.076
1148.762, 532.408
1149.992, 258.531
1151.222, 377.477
1152.452, 476.762
1153.682, 176.701
1154.911, 424.779
1156.140, 183.875
1157.369, 253.984
1158.598, 180.004
1159.827, 278.633
1161.055, 114.891
1162.284, 44.729
1163.512, 122.154
1164.740, 149.939
1165.967, 206.895
1167.195, 233.465
1168.422, 164.314
1169.650, 301.963
1170.877, 174.396
1172.103, 94.189
1173.330, 41.373
1174.557, 42.162
1175.783, 282.635
1177.009, 172.062
1178.235, 139.324
1179.461, 5.949
1180.686, 38.295
1181.912, 330.857
1183.137, 145.691
1184.362, 72.625
1185.587, 26.006
1186.811, 317.254
1188.036, 35.506
1189.260, 337.281
1190.484, 65.553
1191.708, 311.760
1192.932, 44.256
1194.155, 50.783
1195.378, 65.354
1196.602, 320.467
1197.825, 35.957
1199.047, 340.365
1200.270, 191.578
1201.492, 315.951
1202.715, 106.021
1203.937, 194.953
1205.159, 282.898
1206.380, 279.814
1207.602, 306.240
1208.823, 30.561
1210.044, 213.398
1211.265, 38.527
1212.486, 154.303
1213.707, 103.939
1214.927, 213.703
1216.147, 135.203
1217.367, 224.500
1218.587, 239.758
1219.807, 210.867
1221.027, 8.953
1222.246, 16.975
1223.465, 40.961
1224.684, 45.824
1225.903, 15.205
1227.121, 3.416
1228.340, 61.318
1229.558, 279.016
1230.776, 270.668
1231.994, 7.748
1233.212, 270.781
1234.429, 163.258
1235.646, 221.664
1236.864, 277.018
1238.081, 68.322
1239.297, 398.568
1240.514, 179.768
1241.730, 155.902
1242.947, 34.979
1244.163, 129.998
1245.378, 278.973
1246.594, 267.906
1247.810, 101.795
1249.025, 408.639
1250.240, 132.443
1251.455, 78.201
1252.670, 185.920
1253.885, 145.600
1255.099, 189.707
1256.313, 246.898
1257.527, 233.445
1258.741, 289.008
1259.955, 255.244
1261.168, 262.375
1262.382, 235.756
1263.595, 243.693
1264.808, 150.234
1266.021, 125.799
1267.233, 67.119
1268.446, 342.924
1269.658, 104.254
1270.870, 281.227
1272.082, 182.191
1273.294, 158.145
1274.505, 234.090
1275.716, 227.031
1276.928, 258.207
1278.139, 216.867
1279.349, 320.762
1280.560, 411.625
1281.770, 461.703
1282.981, 34.309
1284.191, 420.125
1285.401, 279.922
1286.610, 112.684
1287.820, 343.355
1289.029, 56.793
1290.239, 403.230
1291.448, 106.582
1292.656, 304.730
1293.865, 200.352
1295.073, 244.371
1296.282, 310.395
1297.490, 17.500
1298.698, 405.707
1299.906, 236.977
1301.113, 228.488
1302.320, 28.570
1303.528, 249.480
1304.735, 119.785
1305.942, 175.008
1307.148, 311.582
1308.355, 196.211
1309.561, 348.820
1310.767, 51.848
1311.973, 123.738
1313.179, 95.371
1314.384, 347.273
1315.590, 264.637
1316.795, 274.344
1318.000, 26.832
1319.205, 353.398
1320.410, 390.621
1321.614, 88.246
1322.819, 455.586
1324.023, 189.531
1325.227, 257.426
1326.431, 200.453
1327.634, 9.621
1328.838, 120.191
1330.041, 240.680
1331.244, 336.922
1332.447, 356.238
1333.650, 135.820
1334.852, 251.953
1336.055, 279.055
1337.257, 36.160
1338.459, 197.262
1339.661, 279.602
1340.862, 411.809
1342.064, 157.574
1343.265, 72.961
1344.466, 236.785
1345.667, 196.176
1346.868, 479.309
1348.068, 336.723
1349.269, 289.234
1350.469, 457.242
1351.669, 327.984
1352.869, 436.574
1354.069, 397.680
1355.268, 204.445
1356.468, 709.656
1357.667, 500.766
1358.866, 457.676
1360.065, 538.355
1361.263, 243.457
1362.462, 397.590
1363.660, 518.180
1364.858, 310.363
1366.056, 406.691
1367.254, 405.555
1368.451, 355.730
1369.649, 365.566
1370.846, 427.414
1372.043, 318.836
1373.240, 268.371
1374.436, 454.410
1375.633, 512.418
1376.829, 368.395
1378.025, 244.203
1379.221, 301.234
1380.417, 429.527
1381.613, 354.434
1382.808, 413.938
1384.003, 444.938
1385.199, 580.734
1386.393, 318.645
1387.588, 401.402
1388.783, 238.457
1389.977, 396.934
1391.171, 277.242
1392.365, 373.629
1393.559, 581.219
1394.753, 383.934
1395.946, 453.914
1397.140, 256.543
1398.333, 644.605
1399.526, 996.391
1400.719, 372.188
1401.911, 382.711
1403.104, 277.074
1404.296, 183.531
1405.488, 460.406
1406.680, 16.984
1407.872, 305.723
1409.063, 643.172
1410.255, 33.457
1411.446, 497.254
1412.637, 0.000
##END=



