##NAMES=Beryl
##RRUFFID=R050305
##IDEAL CHEMISTRY=Be_3_Al_2_Si_6_O_18_
##LOCALITY=Conselheiro Pena, Minas Gerais, Brazil
##OWNER=RRUFF
##SOURCE=Eugene Schlepp
##DESCRIPTION=Light blue fragment, variety aquamarine
##STATUS=The identification of this mineral has been confirmed by X-ray diffraction and chemical analysis
##URL=rruff.info/R050305
##MEASURED CHEMISTRY=(Be_0.91_Li_0.09_)_3_(Al_0.99_Fe^3+^_0.01_)_2_Si_6.00_O_18_Î‡Na_0.27_
##PIN_ID=L01620
##ORIENTATION=Laser parallel to a* (1 0 0). Fiducial mark perpendicular to laser is parallel to -c [0 0 -1]
95.94800, 0.0000000E+00
97.18200, 29.33252
98.41600, 37.91211
99.64900, 53.72217
100.8830, 112.8101
102.1160, 24.43506
103.3490, 30.40479
104.5820, 143.9355
105.8150, 299.4971
107.0470, 781.5742
108.2800, 898.6279
109.5120, 1459.232
110.7440, 1279.049
111.9760, 888.8027
113.2080, 755.2710
114.4400, 1009.277
115.6710, 1354.670
116.9030, 1165.313
118.1340, 1352.086
119.3650, 1349.882
120.5960, 1235.612
121.8270, 1265.196
123.0580, 1370.566
124.2880, 1305.661
125.5190, 1284.429
126.7490, 1288.821
127.9790, 1239.284
129.2090, 1131.332
130.4390, 1175.409
131.6680, 1099.017
132.8980, 1051.123
134.1270, 1069.682
135.3560, 1027.651
136.5850, 982.9932
137.8140, 988.6831
139.0430, 955.6958
140.2710, 933.8750
141.5000, 893.6294
142.7280, 892.5190
143.9560, 748.6694
145.1840, 727.0698
146.4120, 800.7109
147.6390, 838.5815
148.8670, 549.6748
150.0940, 652.9824
151.3210, 625.4976
152.5490, 793.2129
153.7750, 632.1230
155.0020, 667.2212
156.2290, 678.5020
157.4550, 664.9609
158.6810, 634.6011
159.9080, 657.4199
161.1340, 575.4600
162.3590, 548.7334
163.5850, 623.3975
164.8110, 732.4316
166.0360, 669.6836
167.2610, 721.0796
168.4860, 781.5913
169.7110, 689.1714
170.9360, 713.7046
172.1610, 711.2139
173.3850, 755.7114
174.6100, 739.2144
175.8340, 603.7432
177.0580, 718.3066
178.2820, 609.9126
179.5050, 711.5688
180.7290, 814.2788
181.9520, 684.0488
183.1760, 694.8818
184.3990, 673.7817
185.6220, 612.0151
186.8450, 785.0513
188.0670, 730.1611
189.2900, 689.3438
190.5120, 795.6011
191.7340, 541.9341
192.9560, 640.3413
194.1780, 656.8242
195.4000, 623.3818
196.6220, 646.0146
197.8430, 648.7212
199.0640, 692.6279
200.2860, 712.3560
201.5070, 769.2832
202.7270, 811.2832
203.9480, 764.3560
205.1690, 373.4990
206.3890, 288.7129
207.6090, 194.9961
208.8290, 33.34863
210.0490, 181.7676
211.2690, 121.2549
212.4890, 43.80859
213.7080, 136.4287
214.9280, 219.1143
216.1470, 63.86426
217.3660, 78.67773
218.5850, 192.5557
219.8030, 157.4961
221.0220, 110.2939
222.2400, 243.3535
223.4590, 113.5137
224.6770, 156.2891
225.8950, 236.9482
227.1120, 168.1895
228.3300, 268.3516
229.5480, 191.0078
230.7650, 157.0068
231.9820, 393.4980
233.1990, 290.2559
234.4160, 487.5596
235.6330, 347.2754
236.8490, 323.8682
238.0660, 315.5820
239.2820, 261.8604
240.4980, 342.1982
241.7140, 287.0811
242.9300, 283.2441
244.1460, 397.8848
245.3610, 393.8438
246.5770, 271.9766
247.7920, 371.4229
249.0070, 325.1406
250.2220, 217.2129
251.4370, 348.3896
252.6510, 215.9102
253.8660, 339.3184
255.0800, 113.0410
256.2940, 142.9180
257.5080, 169.9404
258.7220, 162.0996
259.9360, 197.9766
261.1490, 172.2666
262.3630, 163.4141
263.5760, 120.9688
264.7890, 121.7119
266.0020, 88.58789
267.2150, 74.96484
268.4270, 70.54785
269.6400, 101.8184
270.8520, 67.09082
272.0640, 82.45410
273.2760, 95.89355
274.4880, 15.58887
275.7000, 165.0020
276.9120, 77.69922
278.1230, 181.4629
279.3340, 269.2920
280.5450, 163.1836
281.7560, 98.13672
282.9670, 150.1504
284.1780, 161.2207
285.3880, 226.3477
286.5980, 268.5303
287.8090, 297.2402
289.0190, 185.0547
290.2290, 344.3936
291.4380, 317.7842
292.6480, 293.2227
293.8570, 523.7090
295.0670, 406.2432
296.2760, 444.8232
297.4850, 464.4492
298.6930, 587.1191
299.9020, 536.8330
301.1110, 704.5898
302.3190, 737.3887
303.5270, 905.2275
304.7350, 905.1084
305.9430, 998.0283
307.1510, 1061.986
308.3580, 1245.982
309.5660, 1480.095
310.7730, 1700.081
311.9800, 2099.181
313.1870, 2611.314
314.3940, 3021.478
315.6010, 3684.674
316.8070, 4526.902
318.0130, 5289.163
319.2200, 5906.455
320.4260, 7039.783
321.6310, 8335.141
322.8370, 9379.529
324.0430, 10011.96
325.2480, 9996.410
326.4540, 9124.896
327.6590, 7885.414
328.8640, 6406.964
330.0680, 4775.544
331.2730, 3677.154
332.4780, 2678.794
333.6820, 1801.465
334.8860, 1411.164
336.0900, 1032.896
337.2940, 713.6543
338.4980, 453.4434
339.7010, 492.2607
340.9050, 279.1064
342.1080, 229.9805
343.3110, 27.82129
344.5140, 55.10547
345.7170, 199.0586
346.9200, 55.04004
348.1220, 4.7851998E-02
349.3240, 32.08203
350.5270, 46.85840
351.7290, 53.59180
352.9310, 8.697266
354.1320, 65.17285
355.3340, 17.02832
356.5350, 15.86035
357.7370, 42.67188
358.9380, 39.32422
360.1390, 67.09863
361.3400, 91.86035
362.5400, 112.6152
363.7410, 114.3652
364.9410, 118.2881
366.1410, 1.856445
367.3410, 106.9756
368.5410, 20.36719
369.7410, 20.93945
370.9400, 152.6445
372.1400, 72.17871
373.3390, 19.18652
374.5380, 301.7764
375.7370, 71.62402
376.9360, 273.3623
378.1350, 270.9922
379.3330, 418.7148
380.5310, 457.3848
381.7300, 627.6875
382.9280, 690.0078
384.1260, 882.3457
385.3230, 1183.704
386.5210, 1518.079
387.7180, 1827.493
388.9160, 2295.945
390.1130, 2854.436
391.3100, 3543.959
392.5060, 4295.707
393.7030, 5239.109
394.9000, 6116.737
396.0960, 7175.395
397.2920, 8342.086
398.4880, 9318.925
399.6840, 10005.72
400.8800, 9775.489
402.0750, 9026.530
403.2710, 7936.357
404.4660, 6552.328
405.6610, 5187.207
406.8560, 4087.358
408.0510, 3225.287
409.2450, 2514.836
410.4400, 1875.110
411.6340, 1481.323
412.8280, 1179.343
414.0220, 1010.558
415.2160, 783.8271
416.4100, 628.9111
417.6030, 484.5273
418.7970, 372.2490
419.9900, 306.5869
421.1830, 284.8115
422.3760, 225.9932
423.5690, 80.19043
424.7610, 127.4082
425.9540, 61.80859
427.1460, 89.06055
428.3380, 141.3301
429.5300, 200.6162
430.7220, 174.9209
431.9140, 40.24121
433.1050, 63.57812
434.2970, 179.9297
435.4880, 130.2988
436.6790, 353.6836
437.8700, 242.0840
439.0610, 448.5000
440.2510, 321.9297
441.4420, 436.3750
442.6320, 410.8350
443.8220, 354.3086
445.0120, 479.7988
446.2020, 558.3027
447.3910, 463.8193
448.5810, 766.3506
449.7700, 467.8955
450.9600, 443.4541
452.1490, 673.0254
453.3370, 493.6113
454.5260, 465.2090
455.7150, 535.8193
456.9030, 505.4424
458.0910, 448.0781
459.2800, 607.7266
460.4670, 425.3877
461.6550, 488.0605
462.8430, 393.7471
464.0300, 370.4434
465.2180, 336.1523
466.4050, 320.8740
467.5920, 339.6074
468.7790, 254.3506
469.9650, 284.1055
471.1520, 295.8721
472.3380, 265.6484
473.5250, 257.4375
474.7110, 245.2412
475.8970, 213.0586
477.0820, 132.8906
478.2680, 186.7373
479.4540, 80.59961
480.6390, 166.4736
481.8240, 116.3574
483.0090, 277.2520
484.1940, 193.1572
485.3780, 48.09668
486.5630, 173.3643
487.7470, 178.3193
488.9320, 214.2832
490.1160, 148.2559
491.3000, 178.2051
492.4830, 161.0059
493.6670, 46.79199
494.8500, 168.7988
496.0340, 124.8154
497.2170, 184.6748
498.4000, 184.2549
499.5820, 98.86914
500.7650, 58.57129
501.9480, 82.54980
503.1300, 170.1006
504.3120, 119.7441
505.4940, 106.4150
506.6760, 92.98730
507.8580, 55.36035
509.0390, 37.64160
510.2210, 105.8623
511.4020, 5.415039
512.5830, 88.34766
513.7640, 11.62598
514.9450, 43.57812
516.1250, 29.55957
517.3060, 18.54590
518.4860, 108.4658
519.6660, 27.46387
520.8460, 24.39941
522.0260, 17.66211
523.2060, 116.2627
524.3850, 106.1943
525.5650, 128.3535
526.7440, 129.1211
527.9230, 154.0371
529.1020, 79.00195
530.2810, 81.97461
531.4590, 97.95508
532.6380, 213.9414
533.8160, 187.9336
534.9940, 72.97949
536.1720, 239.0361
537.3500, 89.09961
538.5270, 166.1729
539.7050, 49.25098
540.8820, 57.33789
542.0590, 95.42871
543.2360, 42.52539
544.4130, 162.6270
545.5900, 10.74609
546.7660, 80.86035
547.9430, 7.979492
549.1190, 120.0908
550.2950, 102.7871
551.4710, 7.306641
552.6470, 44.60645
553.8220, 122.4717
554.9980, 43.43945
556.1730, 9.383789
557.3480, 192.6562
558.5230, 34.70703
559.6980, 24.78613
560.8730, 111.1338
562.0470, 62.87988
563.2220, 125.8945
564.3960, 130.9111
565.5700, 132.9482
566.7440, 56.00879
567.9170, 177.0674
569.0910, 155.1328
570.2640, 243.1982
571.4380, 250.2705
572.6110, 156.3457
573.7840, 335.4199
574.9570, 247.5029
576.1290, 444.5947
577.3020, 397.6875
578.4740, 324.7803
579.6460, 371.9346
580.8180, 246.9688
581.9900, 283.0684
583.1620, 313.1670
584.3330, 220.2676
585.5040, 230.3711
586.6760, 286.4746
587.8470, 124.5781
589.0180, 105.6826
590.1880, 261.8096
591.3590, 237.9482
592.5290, 279.0850
593.7000, 166.2217
594.8700, 242.3584
596.0400, 291.4932
597.2090, 150.6396
598.3790, 165.7852
599.5490, 143.9395
600.7180, 91.94922
601.8870, 125.2578
603.0560, 239.4443
604.2250, 153.6094
605.3940, 242.9414
606.5620, 252.0557
607.7300, 250.1182
608.8990, 404.3086
610.0670, 397.4971
611.2350, 455.6943
612.4020, 361.8896
613.5700, 544.1035
614.7370, 777.2012
615.9050, 958.1484
617.0720, 966.4297
618.2390, 1112.086
619.4060, 1074.857
620.5720, 995.4268
621.7390, 912.6182
622.9050, 761.8037
624.0710, 809.1797
625.2370, 549.2441
626.4030, 416.1309
627.5690, 653.3564
628.7340, 414.5312
629.9000, 394.7549
631.0650, 360.0234
632.2300, 458.1846
633.3950, 453.6787
634.5600, 539.8877
635.7240, 486.0830
636.8890, 515.2715
638.0530, 443.4648
639.2170, 481.7803
640.3810, 538.8857
641.5450, 575.9355
642.7080, 621.4961
643.8720, 660.6016
645.0350, 688.5859
646.1980, 720.7451
647.3610, 736.9756
648.5240, 740.8535
649.6870, 751.0029
650.8490, 811.1631
652.0120, 859.3467
653.1740, 951.3027
654.3360, 886.6768
655.4980, 1002.860
656.6600, 1040.806
657.8210, 1161.658
658.9830, 1110.420
660.1440, 1348.277
661.3050, 1442.050
662.4660, 1502.875
663.6270, 1828.088
664.7870, 2062.299
665.9480, 2213.502
667.1080, 2438.079
668.2680, 2886.699
669.4280, 3434.033
670.5880, 4045.212
671.7480, 4558.384
672.9070, 5514.549
674.0670, 6531.639
675.2260, 7990.708
676.3850, 10161.44
677.5440, 12353.17
678.7030, 15288.30
679.8610, 19013.26
681.0200, 23103.39
682.1780, 28171.49
683.3360, 32808.84
684.4940, 38401.86
685.6520, 42432.26
686.8090, 43451.37
687.9670, 41964.18
689.1240, 37302.53
690.2810, 30997.97
691.4380, 24851.71
692.5950, 19592.42
693.7520, 15504.12
694.9080, 12208.94
696.0650, 9808.976
697.2210, 7947.701
698.3770, 6557.078
699.5330, 5434.293
700.6880, 4699.203
701.8440, 3886.074
702.9990, 3413.002
704.1550, 3233.922
705.3100, 2426.619
706.4650, 2245.348
707.6190, 2235.773
708.7740, 1971.645
709.9290, 1598.608
711.0830, 1441.458
712.2370, 1395.350
713.3910, 1207.157
714.5450, 1166.878
715.6980, 1061.655
716.8520, 925.4883
718.0050, 916.2686
719.1580, 809.0371
720.3110, 800.5459
721.4640, 596.2891
722.6170, 617.1387
723.7700, 511.6455
724.9220, 644.3535
726.0740, 471.0488
727.2260, 481.7314
728.3780, 466.0029
729.5300, 355.0498
730.6810, 347.7402
731.8330, 438.3721
732.9840, 328.9912
734.1350, 270.5967
735.2860, 434.0986
736.4370, 280.6777
737.5880, 397.1992
738.7380, 299.8359
739.8880, 301.3740
741.0390, 217.9004
742.1890, 168.4102
743.3380, 303.9082
744.4880, 239.3320
745.6380, 125.9229
746.7870, 263.7617
747.9360, 252.3340
749.0850, 230.4404
750.2340, 196.8877
751.3830, 134.9932
752.5310, 46.37793
753.6800, 53.23633
754.8280, 38.07227
755.9760, 70.38477
757.1240, 21.67676
758.2720, 76.06445
759.4190, 167.3096
760.5670, 133.5400
761.7140, 91.75488
762.8610, 53.04688
764.0080, 195.9512
765.1550, 112.0693
766.3020, 266.1719
767.4480, 109.2588
768.5950, 101.3311
769.7410, 141.3867
770.8870, 75.42676
772.0330, 77.99023
773.1780, 179.3203
774.3240, 285.3096
775.4690, 189.2842
776.6140, 205.2412
777.7590, 119.1846
778.9040, 130.4404
780.0490, 135.0234
781.1940, 138.9189
782.3380, 185.9111
783.4820, 166.7754
784.6260, 140.6250
785.7700, 95.45703
786.9140, 141.2715
788.0580, 84.08691
789.2010, 104.6943
790.3450, 209.5117
791.4880, 161.3418
792.6310, 137.1592
793.7730, 123.9609
794.9160, 86.74902
796.0590, 128.5215
797.2010, 149.3105
798.3430, 157.0869
799.4850, 165.3486
800.6270, 120.0537
801.7690, 139.7227
802.9100, 119.4492
804.0520, 66.29102
805.1930, 61.98047
806.3340, 87.65137
807.4750, 117.4043
808.6160, 121.2227
809.7560, 148.8438
810.8970, 134.3701
812.0370, 36.12793
813.1770, 49.60156
814.3170, 48.05371
815.4570, 204.4863
816.5960, 31.90234
817.7360, 91.29590
818.8750, 126.6738
820.0140, 49.03711
821.1530, 9.903320
822.2920, 51.39941
823.4310, 94.68945
824.5690, 110.9639
825.7070, 17.23047
826.8460, 92.53027
827.9840, 95.65820
829.1220, 60.16016
830.2590, 6.973633
831.3970, 113.0771
832.5340, 55.18555
833.6710, 4.289063
834.8080, 78.63867
835.9450, 18.36328
837.0820, 61.34570
838.2190, 115.3486
839.3550, 206.3389
840.4910, 34.68359
841.6270, 47.75488
842.7630, 200.1191
843.8990, 27.98242
845.0350, 145.8271
846.1700, 9.659180
847.3060, 114.4697
848.4410, 65.26660
849.5760, 10.05078
850.7100, 6.186523
851.8450, 70.54688
852.9800, 115.2695
854.1140, 154.9785
855.2480, 169.6777
856.3820, 10.36621
857.5160, 92.03613
858.6500, 41.69434
859.7830, 7.339844
860.9170, 121.9678
862.0500, 64.58496
863.1830, 101.1924
864.3160, 72.21094
865.4480, 21.67285
866.5810, 43.83301
867.7130, 103.3291
868.8460, 85.81543
869.9780, 113.2930
871.1100, 33.23926
872.2410, 187.1934
873.3730, 19.38281
874.5050, 53.98535
875.6360, 126.3662
876.7670, 206.7090
877.8980, 92.04395
879.0290, 66.37207
880.1590, 39.30859
881.2900, 10.97656
882.4200, 63.74707
883.5500, 6.482422
884.6800, 38.07715
885.8100, 17.89258
886.9400, 71.92578
888.0690, 22.20801
889.1990, 65.44922
890.3280, 109.8301
891.4570, 84.74805
892.5860, 14.52246
893.7140, 5.1757999E-02
894.8430, 32.77246
895.9710, 30.86426
897.1000, 66.95117
898.2280, 94.83984
899.3560, 37.96973
900.4830, 178.0859
901.6110, 13.09375
902.7380, 101.1426
903.8660, 208.1348
904.9930, 76.07422
906.1200, 49.11328
907.2460, 150.1895
908.3730, 34.61914
909.5000, 49.32520
910.6260, 92.26562
911.7520, 30.79492
912.8780, 105.1318
914.0040, 54.02246
915.1290, 128.9463
916.2550, 52.86914
917.3800, 5.210938
918.5050, 11.63770
919.6300, 53.62598
920.7550, 54.54395
921.8800, 40.30176
923.0040, 68.42969
924.1290, 30.10645
925.2530, 100.7285
926.3770, 155.6377
927.5010, 192.5488
928.6250, 79.45898
929.7480, 16.37012
930.8720, 59.63770
931.9950, 148.0010
933.1180, 81.91602
934.2410, 32.83301
935.3640, 51.25098
936.4860, 37.98535
937.6090, 250.5527
938.7310, 8.548828
939.8530, 105.9727
940.9750, 132.4473
942.0970, 6.796875
943.2180, 11.88965
944.3400, 22.65625
945.4610, 12.04883
946.5820, 112.9541
947.7030, 69.97559
948.8240, 111.3535
949.9450, 63.72070
951.0650, 6.696289
952.1860, 109.7139
953.3060, 187.6318
954.4260, 151.6240
955.5460, 37.87891
956.6650, 35.17676
957.7850, 76.74121
958.9040, 107.7178
960.0230, 105.7500
961.1420, 105.4844
962.2610, 126.5391
963.3800, 86.58594
964.4990, 108.7490
965.6170, 247.1514
966.7350, 277.2617
967.8530, 293.3896
968.9710, 203.5479
970.0890, 268.7969
971.2070, 145.9746
972.3240, 105.0195
973.4410, 268.2334
974.5580, 274.4580
975.6750, 282.6992
976.7920, 360.1631
977.9090, 109.4316
979.0250, 248.1709
980.1410, 176.4639
981.2580, 219.6748
982.3740, 252.0000
983.4890, 311.2910
984.6050, 382.6689
985.7200, 385.1328
986.8360, 421.5020
987.9510, 378.8984
989.0660, 460.3076
990.1810, 452.2119
991.2950, 457.4170
992.4100, 511.8857
993.5240, 560.2734
994.6390, 654.0078
995.7530, 756.5430
996.8660, 808.0938
997.9800, 900.4814
999.0940, 935.6670
1000.207, 1031.888
1001.320, 1228.468
1002.433, 1286.109
1003.546, 1402.768
1004.659, 1549.444
1005.772, 1650.229
1006.884, 1707.973
1007.996, 1880.777
1009.108, 1963.472
1010.220, 1979.292
1011.332, 2017.131
1012.444, 2073.989
1013.555, 2071.935
1014.666, 2057.816
1015.777, 2079.606
1016.888, 2044.153
1017.999, 2037.971
1019.110, 1981.260
1020.220, 2056.218
1021.331, 2167.524
1022.441, 2060.555
1023.551, 2193.615
1024.661, 2097.697
1025.770, 2153.807
1026.880, 2428.938
1027.989, 2322.974
1029.098, 2505.156
1030.207, 2546.369
1031.316, 2696.604
1032.425, 2883.861
1033.533, 2787.301
1034.642, 3216.625
1035.750, 3285.974
1036.858, 3470.346
1037.966, 3877.736
1039.073, 3741.156
1040.181, 4326.598
1041.288, 4735.521
1042.396, 4983.686
1043.503, 5496.200
1044.610, 6081.740
1045.716, 6463.302
1046.823, 7132.889
1047.929, 7851.496
1049.036, 8640.129
1050.142, 9562.787
1051.248, 10440.36
1052.353, 11635.06
1053.459, 12851.79
1054.564, 14375.54
1055.670, 15768.33
1056.775, 17972.12
1057.880, 19839.18
1058.985, 21635.03
1060.089, 24267.90
1061.194, 26167.80
1062.298, 28646.73
1063.402, 30485.69
1064.506, 32215.66
1065.610, 33336.67
1066.713, 34143.69
1067.817, 34795.74
1068.920, 34571.38
1070.023, 34625.54
1071.126, 33966.67
1072.229, 32840.68
1073.332, 31503.87
1074.435, 30159.09
1075.537, 28457.24
1076.639, 26256.32
1077.741, 24708.92
1078.843, 22890.06
1079.945, 21196.45
1081.046, 19817.25
1082.148, 18032.87
1083.249, 16524.35
1084.350, 15257.85
1085.451, 14117.39
1086.551, 13060.95
1087.652, 12157.55
1088.752, 11176.45
1089.853, 10303.11
1090.953, 9889.429
1092.053, 9151.655
1093.152, 8760.620
1094.252, 8271.883
1095.351, 7836.410
1096.451, 7502.270
1097.550, 7311.600
1098.649, 6950.729
1099.748, 6734.000
1100.846, 6444.002
1101.945, 6425.500
1103.043, 6237.855
1104.141, 5928.972
1105.239, 5984.111
1106.337, 5901.273
1107.434, 5730.618
1108.532, 5440.848
1109.629, 5550.119
1110.726, 5394.563
1111.823, 5226.887
1112.920, 5165.076
1114.017, 5258.449
1115.113, 5289.748
1116.210, 5165.371
1117.306, 4970.820
1118.402, 5023.303
1119.498, 4843.807
1120.593, 4662.332
1121.689, 4615.883
1122.784, 4779.453
1123.879, 4646.855
1124.974, 4648.764
1126.069, 4520.408
1127.164, 4521.078
1128.259, 4425.785
1129.353, 4328.344
1130.447, 4483.346
1131.541, 4243.141
1132.635, 4376.969
1133.729, 4114.824
1134.822, 4206.703
1135.916, 4209.977
1137.009, 4242.895
1138.102, 4288.373
1139.195, 4278.348
1140.288, 4290.803
1141.380, 4207.273
1142.473, 4243.336
1143.565, 4150.652
1144.657, 4031.758
1145.749, 3885.883
1146.841, 3831.057
1147.932, 3612.250
1149.024, 3546.480
1150.115, 3342.773
1151.206, 3204.059
1152.297, 3169.422
1153.388, 2801.855
1154.479, 2810.305
1155.569, 2548.773
1156.659, 2416.260
1157.750, 2056.766
1158.839, 1861.287
1159.929, 1630.834
1161.019, 1464.287
1162.108, 1363.943
1163.198, 1227.555
1164.287, 1196.188
1165.376, 1106.844
1166.465, 943.5176
1167.553, 832.2090
1168.642, 827.9180
1169.730, 809.2754
1170.818, 673.0215
1171.906, 801.7812
1172.994, 626.5996
1174.082, 551.8652
1175.170, 484.7207
1176.257, 635.5918
1177.344, 648.4844
1178.431, 674.3887
1179.518, 650.4688
1180.605, 491.2441
1181.691, 563.3125
1182.778, 491.2773
1183.864, 559.2539
1184.950, 428.2891
1186.036, 345.2949
1187.122, 385.3125
1188.207, 324.3438
1189.292, 323.3887
1190.378, 263.4492
1191.463, 187.5215
1192.548, 242.6055
1193.632, 126.6992
1194.717, 303.8066
1195.801, 240.9277
1196.886, 188.0586
1197.970, 197.1992
1199.054, 146.3516
1200.137, 117.5234
1201.221, 182.7109
1202.305, 83.90820
1203.388, 108.9043
1204.471, 96.12695
1205.554, 213.3594
1206.637, 76.64258
1207.719, 121.1055
1208.802, 78.13086
1209.884, 56.35547
1210.966, 102.3848
1212.048, 7.181641
1213.130, 108.0293
1214.212, 69.24805
1215.293, 90.47266
1216.374, 106.1191
1217.456, 158.3613
1218.536, 15.61328
1219.617, 78.87305
1220.698, 19.85938
1221.778, 60.58984
1222.859, 7.335938
1223.939, 15.08008
1225.019, 19.68359
1226.099, 35.51172
1227.178, 35.22852
1228.258, 68.97656
1229.337, 87.14648
1230.417, 20.22656
1231.496, 53.57422
1232.574, 67.39453
1233.653, 74.75977
1234.732, 81.91797
1235.810, 92.08008
1236.888, 44.72852
1237.966, 11.28125
1239.044, 34.57227
1240.122, 0.2695310
1241.199, 28.88672
1242.277, 35.87305
1243.354, 23.32031
1244.431, 16.16602
1245.508, 2.9297000E-02
1246.585, 40.10547
1247.661, 87.24023
1248.738, 80.69727
1249.814, 84.59766
1250.890, 35.78320
1251.966, 47.92383
1253.042, 61.92969
1254.117, 84.81641
1255.193, 99.44141
1256.268, 30.79102
1257.343, 47.07812
1258.418, 41.85742
1259.493, 4.404297
1260.567, 89.43555
1261.642, 96.46484
1262.716, 113.8496
1263.790, 26.09570
1264.864, 4.130859
1265.938, 73.16211
1267.011, 110.8066
1268.085, 62.57227
1269.158, 21.53320
1270.231, 82.48828
1271.304, 46.49023
1272.377, 11.39062
1273.450, 102.5820
1274.522, 104.5547
