##NAMES=Beryl
##RRUFFID=R050368
##IDEAL CHEMISTRY=Be_3_Al_2_Si_6_O_18_
##LOCALITY=Wah Wah Mountains, Utah, USA
##OWNER=RRUFF
##SOURCE=Eugene Schlepp
##DESCRIPTION=Red-violet hexagonal prism
##STATUS=The identification of this mineral has been confirmed by X-ray diffraction and chemical analysis
##URL=rruff.info/R050368
##MEASURED CHEMISTRY=(Be_0.99_Li_0.01_)_3_(Al_0.95_Fe^3+^_0.05_)_2_Si_6.00_O_18_Î‡K_0.02_Na_0.01_
##PIN_ID=L01133
##ORIENTATION=Laser parallel to -a* (-1 0 0). Fiducial mark perpendicular to laser is parallel to -c [0 0 -1]
82.36700, 0.0000000E+00
83.60200, 106.7305
84.83700, 146.6025
86.07200, 34.42969
87.30800, 208.0000
88.54200, 452.2471
89.77700, 929.8428
91.01200, 1637.475
92.24600, 1757.992
93.48000, 1630.937
94.71400, 1541.207
95.94800, 1519.102
97.18200, 1323.131
98.41600, 1388.492
99.64900, 1289.779
100.8830, 1334.031
102.1160, 1114.856
103.3490, 971.6533
104.5820, 1144.146
105.8150, 1244.615
107.0470, 1277.223
108.2800, 1053.557
109.5120, 1151.799
110.7440, 1116.445
111.9760, 1072.981
113.2080, 1208.662
114.4400, 1007.796
115.6710, 1152.596
116.9030, 1171.177
118.1340, 1254.761
119.3650, 1286.692
120.5960, 1503.027
121.8270, 1727.917
123.0580, 2086.049
124.2880, 1931.325
125.5190, 2055.251
126.7490, 1823.236
127.9790, 2118.531
129.2090, 2228.075
130.4390, 2323.539
131.6680, 2406.091
132.8980, 2337.715
134.1270, 2356.392
135.3560, 2529.107
136.5850, 2741.848
137.8140, 2664.593
139.0430, 2729.297
140.2710, 2177.921
141.5000, 1818.458
142.7280, 1192.906
143.9560, 942.2637
145.1840, 599.5010
146.4120, 664.2021
147.6390, 410.6572
148.8670, 160.6592
150.0940, 222.6846
151.3210, 118.7539
152.5490, 219.1504
153.7750, 59.75684
155.0020, 64.08887
156.2290, 238.8223
157.4550, 306.7090
158.6810, 329.5498
159.9080, 284.3330
161.1340, 261.0674
162.3590, 53.75879
163.5850, 50.57910
164.8110, 181.9375
166.0360, 384.3027
167.2610, 460.6611
168.4860, 400.9951
169.7110, 543.2959
170.9360, 394.5508
172.1610, 632.7559
173.3850, 382.4844
174.6100, 477.3564
175.8340, 502.9570
177.0580, 739.1250
178.2820, 744.7588
179.5050, 813.2607
180.7290, 1024.632
181.9520, 922.8740
183.1760, 1001.991
184.3990, 1071.985
185.6220, 1395.859
186.8450, 1326.613
188.0670, 1229.250
189.2900, 1378.745
190.5120, 1260.063
191.7340, 1555.190
192.9560, 1483.983
194.1780, 1551.070
195.4000, 1689.480
196.6220, 1623.512
197.8430, 1718.404
199.0640, 1705.209
200.2860, 1917.930
201.5070, 2040.567
202.7270, 2239.121
203.9480, 1553.600
205.1690, 794.0049
206.3890, 475.3389
207.6090, 441.9189
208.8290, 259.9600
210.0490, 236.4541
211.2690, 157.4180
212.4890, 250.4639
213.7080, 150.8984
214.9280, 220.5801
216.1470, 267.7598
217.3660, 530.4414
218.5850, 375.9014
219.8030, 855.1787
221.0220, 664.1182
222.2400, 639.7598
223.4590, 639.8291
224.6770, 699.3916
225.8950, 784.2988
227.1120, 936.4121
228.3300, 964.7188
229.5480, 1074.339
230.7650, 1084.793
231.9820, 1254.660
233.1990, 1333.747
234.4160, 1306.935
235.6330, 1259.146
236.8490, 1442.323
238.0660, 1507.435
239.2820, 1504.445
240.4980, 1480.315
241.7140, 1709.025
242.9300, 1689.565
244.1460, 2033.935
245.3610, 2063.133
246.5770, 2320.156
247.7920, 2769.980
249.0070, 2900.522
250.2220, 2822.767
251.4370, 2446.736
252.6510, 1979.456
253.8660, 1818.945
255.0800, 1287.222
256.2940, 1124.301
257.5080, 1018.193
258.7220, 1247.912
259.9360, 988.2461
261.1490, 1023.867
262.3630, 688.0566
263.5760, 763.0049
264.7890, 569.6943
266.0020, 866.7793
267.2150, 739.8555
268.4270, 861.0654
269.6400, 819.9600
270.8520, 800.7617
272.0640, 845.4971
273.2760, 912.1738
274.4880, 894.7920
275.7000, 1607.354
276.9120, 2214.869
278.1230, 1664.340
279.3340, 1811.764
280.5450, 1541.140
281.7560, 864.4688
282.9670, 967.7510
284.1780, 926.9844
285.3880, 953.1699
286.5980, 957.3086
287.8090, 962.2900
289.0190, 1004.445
290.2290, 1019.442
291.4380, 1088.380
292.6480, 1173.236
293.8570, 1200.736
295.0670, 1221.197
296.2760, 1295.829
297.4850, 1393.797
298.6930, 1459.227
299.9020, 1644.343
301.1110, 1732.798
302.3190, 1882.523
303.5270, 1975.169
304.7350, 2216.312
305.9430, 2415.220
307.1510, 2953.517
308.3580, 3590.582
309.5660, 4325.935
310.7730, 5359.211
311.9800, 6690.071
313.1870, 7947.187
314.3940, 9050.986
315.6010, 10302.32
316.8070, 11869.96
318.0130, 13123.43
319.2200, 13196.89
320.4260, 11884.67
321.6310, 9942.500
322.8370, 7896.721
324.0430, 5822.888
325.2480, 3872.000
326.4540, 2694.059
327.6590, 1585.062
328.8640, 916.0137
330.0680, 760.9111
331.2730, 541.7568
332.4780, 235.5498
333.6820, 219.2842
334.8860, 89.95996
336.0900, 99.42773
337.2940, 12.92480
338.4980, 24.50684
339.7010, 18.17188
340.9050, 129.9170
342.1080, 57.76855
343.3110, 62.29199
344.5140, 89.70215
345.7170, 32.79199
346.9200, 114.9600
348.1220, 2.771484
349.3240, 137.5625
350.5270, 126.0010
351.7290, 104.1133
352.9310, 170.4531
354.1320, 113.8955
355.3340, 127.8057
356.5350, 116.9951
357.7370, 119.4082
358.9380, 90.34863
360.1390, 49.95703
361.3400, 15.86621
362.5400, 49.30762
363.7410, 95.38574
364.9410, 124.9824
366.1410, 47.94727
367.3410, 161.8262
368.5410, 229.5488
369.7410, 346.0332
370.9400, 538.1729
372.1400, 694.2979
373.3390, 990.4043
374.5380, 1193.455
375.7370, 1611.448
376.9360, 2118.379
378.1350, 2350.249
379.3330, 2742.056
380.5310, 2831.801
381.7300, 3823.482
382.9280, 3791.104
384.1260, 4381.662
385.3230, 5374.162
386.5210, 6751.602
387.7180, 7669.980
388.9160, 8903.303
390.1130, 10104.56
391.3100, 11043.78
392.5060, 11464.92
393.7030, 10880.03
394.9000, 9781.074
396.0960, 8228.070
397.2920, 6685.018
398.4880, 5188.916
399.6840, 3943.768
400.8800, 3039.574
402.0750, 2253.335
403.2710, 1832.052
404.4660, 1590.726
405.6610, 1209.826
406.8560, 1063.730
408.0510, 940.0186
409.2450, 1072.537
410.4400, 1054.033
411.6340, 1064.188
412.8280, 1089.915
414.0220, 1051.587
415.2160, 1081.788
416.4100, 1021.130
417.6030, 1099.447
418.7970, 942.8564
419.9900, 831.2871
421.1830, 842.5400
422.3760, 765.7666
423.5690, 588.9727
424.7610, 518.1572
425.9540, 507.2314
427.1460, 552.4648
428.3380, 561.5879
429.5300, 610.6924
430.7220, 688.7783
431.9140, 880.8457
433.1050, 1191.894
434.2970, 1357.925
435.4880, 1710.938
436.6790, 2227.936
437.8700, 2658.920
439.0610, 3084.899
440.2510, 3183.874
441.4420, 3710.848
442.6320, 3680.818
443.8220, 3581.797
445.0120, 3314.787
446.2020, 3019.863
447.3910, 2544.043
448.5810, 2174.336
449.7700, 1733.729
450.9600, 1391.215
452.1490, 1091.742
453.3370, 1037.284
454.5260, 916.8281
455.7150, 866.3672
456.9030, 771.8975
458.0910, 658.4229
459.2800, 611.9404
460.4670, 531.6338
461.6550, 507.9609
462.8430, 414.4629
464.0300, 286.9619
465.2180, 218.4551
466.4050, 245.9434
467.5920, 253.6748
468.7790, 175.9004
469.9650, 359.3711
471.1520, 349.8379
472.3380, 311.2988
473.5250, 223.7568
474.7110, 403.9365
475.8970, 438.7744
477.0820, 469.4941
478.2680, 515.5645
479.4540, 496.4004
480.6390, 526.7227
481.8240, 521.3799
483.0090, 683.4971
484.1940, 705.6641
485.3780, 615.4268
486.5630, 762.9961
487.7470, 550.8916
488.9320, 786.4287
490.1160, 617.8809
491.3000, 757.7979
492.4830, 856.9844
493.6670, 819.9736
494.8500, 888.4209
496.0340, 970.7900
497.2170, 1054.802
498.4000, 1111.041
499.5820, 1026.072
500.7650, 1211.062
501.9480, 1147.002
503.1300, 1309.600
504.3120, 1194.458
505.4940, 1199.969
506.6760, 1251.586
507.8580, 1218.522
509.0390, 1330.338
510.2210, 1328.689
511.4020, 1451.367
512.5830, 1536.577
513.7640, 1901.414
514.9450, 2074.272
516.1250, 2468.165
517.3060, 3068.100
518.4860, 3370.089
519.6660, 4068.133
520.8460, 4345.223
522.0260, 4753.342
523.2060, 4982.510
524.3850, 4942.704
525.5650, 4839.926
526.7440, 4528.183
527.9230, 3879.470
529.1020, 3395.797
530.2810, 2934.167
531.4590, 2377.591
532.6380, 2149.079
533.8160, 1812.639
534.9940, 1453.277
536.1720, 1255.988
537.3500, 853.7324
538.5270, 811.5322
539.7050, 546.3799
540.8820, 491.2637
542.0590, 215.2148
543.2360, 148.2070
544.4130, 89.26074
545.5900, 104.3506
546.7660, 93.52246
547.9430, 69.35156
549.1190, 118.1338
550.2950, 78.86230
551.4710, 152.5547
552.6470, 121.2256
553.8220, 127.8555
554.9980, 34.41895
556.1730, 34.06152
557.3480, 26.49707
558.5230, 40.24219
559.6980, 11.05078
560.8730, 16.26172
562.0470, 7.983398
563.2220, 20.02734
564.3960, 57.55371
565.5700, 147.5977
566.7440, 158.7139
567.9170, 319.8643
569.0910, 245.0527
570.2640, 268.2930
571.4380, 267.5684
572.6110, 637.8770
573.7840, 570.2441
574.9570, 573.6465
576.1290, 809.0996
577.3020, 795.6025
578.4740, 1124.149
579.6460, 1213.731
580.8180, 1410.346
581.9900, 1430.996
583.1620, 1705.678
584.3330, 1743.393
585.5040, 1842.138
586.6760, 2042.919
587.8470, 1967.729
589.0180, 2118.572
590.1880, 2216.445
591.3590, 2377.349
592.5290, 2339.279
593.7000, 2280.239
594.8700, 2366.228
596.0400, 2271.225
597.2090, 2368.291
598.3790, 2177.363
599.5490, 2108.466
600.7180, 2085.598
601.8870, 2138.756
603.0560, 1967.943
604.2250, 2125.158
605.3940, 1941.401
606.5620, 2081.671
607.7300, 2011.971
608.8990, 2043.298
610.0670, 2134.652
611.2350, 2282.034
612.4020, 2332.993
613.5700, 2533.881
614.7370, 2477.346
615.9050, 2576.840
617.0720, 2588.368
618.2390, 2529.932
619.4060, 2336.535
620.5720, 2111.228
621.7390, 2013.982
622.9050, 1823.805
624.0710, 1697.690
625.2370, 1494.669
626.4030, 1222.723
627.5690, 1232.821
628.7340, 1205.001
629.9000, 1201.246
631.0650, 1285.580
632.2300, 1377.970
633.3950, 1481.453
634.5600, 1514.023
635.7240, 1704.677
636.8890, 1691.432
638.0530, 1940.269
639.2170, 2004.194
640.3810, 2079.204
641.5450, 1976.298
642.7080, 2011.468
643.8720, 2120.701
645.0350, 2128.992
646.1980, 1939.319
647.3610, 1878.681
648.5240, 1921.072
649.6870, 1831.502
650.8490, 1841.959
652.0120, 1881.492
653.1740, 1989.425
654.3360, 2147.308
655.4980, 2356.952
656.6600, 2572.752
657.8210, 2846.419
658.9830, 3406.828
660.1440, 3829.104
661.3050, 4489.344
662.4660, 5073.432
663.6270, 5914.608
664.7870, 6521.790
665.9480, 7250.398
667.1080, 8058.170
668.2680, 9274.992
669.4280, 10562.87
670.5880, 12060.96
671.7480, 14258.08
672.9070, 17836.86
674.0670, 21638.54
675.2260, 25920.72
676.3850, 30880.72
677.5440, 35902.10
678.7030, 39899.70
679.8610, 43131.62
681.0200, 43145.40
682.1780, 40693.75
683.3360, 36242.55
684.4940, 30516.80
685.6520, 25004.21
686.8090, 19999.02
687.9670, 15978.06
689.1240, 13101.73
690.2810, 10665.17
691.4380, 9279.240
692.5950, 7865.074
693.7520, 6740.479
694.9080, 5808.984
696.0650, 5147.161
697.2210, 4439.291
698.3770, 3967.343
699.5330, 3439.809
700.6880, 3010.331
701.8440, 2811.293
702.9990, 2325.043
704.1550, 2220.212
705.3100, 2012.072
706.4650, 1531.477
707.6190, 1526.821
708.7740, 1294.021
709.9290, 1086.606
711.0830, 1012.056
712.2370, 829.4512
713.3910, 753.1865
714.5450, 617.1523
715.6980, 428.5020
716.8520, 550.6318
718.0050, 241.0254
719.1580, 338.5107
720.3110, 393.8906
721.4640, 158.7354
722.6170, 247.5391
723.7700, 191.6494
724.9220, 188.7793
726.0740, 180.5576
727.2260, 90.73438
728.3780, 22.47461
729.5300, 233.2021
730.6810, 213.9150
731.8330, 145.6143
732.9840, 251.2979
734.1350, 109.9688
735.2860, 320.6240
736.4370, 513.2627
737.5880, 454.7178
738.7380, 502.4951
739.8880, 455.0879
741.0390, 483.6641
742.1890, 408.2227
743.3380, 481.7646
744.4880, 458.2900
745.6380, 592.7969
746.7870, 482.2871
747.9360, 594.6299
749.0850, 641.5928
750.2340, 774.6494
751.3830, 719.0664
752.5310, 877.4648
753.6800, 799.8438
754.8280, 940.2051
755.9760, 1095.547
757.1240, 1184.869
758.2720, 1307.633
759.4190, 1407.457
760.5670, 1520.720
761.7140, 1705.963
762.8610, 1851.186
764.0080, 2187.388
765.1550, 2352.567
766.3020, 2273.726
767.4480, 2575.863
768.5950, 2358.979
769.7410, 2160.071
770.8870, 2113.141
772.0330, 1921.188
773.1780, 1554.210
774.3240, 1451.210
775.4690, 1295.184
776.6140, 967.1328
777.7590, 903.0566
778.9040, 891.9541
780.0490, 806.8262
781.1940, 631.6699
782.3380, 410.4863
783.4820, 315.2744
784.6260, 411.0352
785.7700, 266.7666
786.9140, 260.4707
788.0580, 239.1445
789.2010, 153.7900
790.3450, 64.40430
791.4880, 88.98633
792.6310, 3.185547
793.7730, 37.15918
794.9160, 81.54199
796.0590, 76.21094
797.2010, 56.97266
798.3430, 45.18359
799.4850, 51.69727
800.6270, 73.33984
801.7690, 79.34180
802.9100, 7.307617
804.0520, 27.22070
805.1930, 10.24902
806.3340, 10.10156
807.4750, 60.35742
808.6160, 91.70312
809.7560, 117.1572
810.8970, 146.7314
812.0370, 121.9922
813.1770, 31.72266
814.3170, 44.15820
815.4570, 31.12402
816.5960, 37.83301
817.7360, 96.25488
818.8750, 6.544922
820.0140, 63.71484
821.1530, 30.92871
822.2920, 27.52539
823.4310, 53.92969
824.5690, 1.467773
825.7070, 172.0664
826.8460, 73.18945
827.9840, 17.58887
829.1220, 47.42578
830.2590, 170.3438
831.3970, 2.596680
832.5340, 113.5254
833.6710, 80.77246
834.8080, 143.1260
835.9450, 135.6221
837.0820, 122.2529
838.2190, 125.0127
839.3550, 58.90430
840.4910, 40.10840
841.6270, 92.92578
842.7630, 126.9258
843.8990, 33.73730
845.0350, 19.49902
846.1700, 79.18848
847.3060, 109.8359
848.4410, 39.55469
849.5760, 55.96777
850.7100, 17.55176
851.8450, 8.146484
852.9800, 11.19141
854.1140, 109.4717
855.2480, 84.71289
856.3820, 106.9141
857.5160, 232.0771
858.6500, 244.2051
859.7830, 162.2979
860.9170, 154.3564
862.0500, 235.3760
863.1830, 136.3623
864.3160, 258.3105
865.4480, 331.2256
866.5810, 292.1074
867.7130, 254.9561
868.8460, 350.7715
869.9780, 400.5518
871.1100, 423.3018
872.2410, 531.0176
873.3730, 564.5889
874.5050, 582.3496
875.6360, 700.9678
876.7670, 830.5508
877.8980, 951.1035
879.0290, 1032.623
880.1590, 1158.115
881.2900, 1093.577
882.4200, 1236.015
883.5500, 1240.422
884.6800, 1319.806
885.8100, 1291.169
886.9400, 1547.511
888.0690, 1444.843
889.1990, 1614.185
890.3280, 1605.557
891.4570, 1573.934
892.5860, 1654.283
893.7140, 1783.654
894.8430, 1773.010
895.9710, 1994.375
897.1000, 2039.727
898.2280, 2147.051
899.3560, 2222.426
900.4830, 2511.779
901.6110, 2777.141
902.7380, 2971.521
903.8660, 3355.937
904.9930, 3761.350
906.1200, 3987.738
907.2460, 4454.102
908.3730, 5043.467
909.5000, 5474.804
910.6260, 6067.128
911.7520, 6512.420
912.8780, 6682.688
914.0040, 6818.931
915.1290, 6785.143
916.2550, 6780.328
917.3800, 6348.486
918.5050, 5849.616
919.6300, 5466.719
920.7550, 4697.793
921.8800, 4221.839
923.0040, 3768.859
924.1290, 3235.851
925.2530, 2872.768
926.3770, 2545.271
927.5010, 2227.842
928.6250, 1921.634
929.7480, 1891.265
930.8720, 1650.026
931.9950, 1349.029
933.1180, 1407.891
934.2410, 1405.090
935.3640, 1334.348
936.4860, 1016.509
937.6090, 1024.092
938.7310, 899.8613
939.8530, 771.1123
940.9750, 821.9268
942.0970, 538.0205
943.2180, 582.7207
944.3400, 492.8965
945.4610, 462.0840
946.5820, 460.2852
947.7030, 320.8730
948.8240, 349.7734
949.9450, 349.7139
951.0650, 253.4248
952.1860, 270.8135
953.3060, 206.3428
954.4260, 180.8535
955.5460, 197.5410
956.6650, 146.7969
957.7850, 258.6680
958.9040, 276.6553
960.0230, 352.9023
961.1420, 299.4072
962.2610, 340.0459
963.3800, 359.1875
964.4990, 337.4258
965.6170, 376.9258
966.7350, 475.2549
967.8530, 402.2754
968.9710, 391.3340
970.0890, 508.4619
971.2070, 440.0508
972.3240, 594.4717
973.4410, 566.7158
974.5580, 599.1094
975.6750, 733.0742
976.7920, 722.3389
977.9090, 962.0488
979.0250, 761.8066
980.1410, 784.7021
981.2580, 927.2012
982.3740, 1062.825
983.4890, 1114.492
984.6050, 1372.810
985.7200, 1577.884
986.8360, 1843.564
987.9510, 2073.655
989.0660, 2233.069
990.1810, 2599.580
991.2950, 2784.186
992.4100, 3140.312
993.5240, 3675.469
994.6390, 4174.308
995.7530, 4346.115
996.8660, 5005.265
997.9800, 5484.004
999.0940, 5979.166
1000.207, 6648.331
1001.320, 7189.500
1002.433, 7706.672
1003.546, 8618.846
1004.659, 8578.022
1005.772, 9169.200
1006.884, 9212.384
1007.996, 9093.568
1009.108, 8954.758
1010.220, 8592.955
1011.332, 7869.193
1012.444, 7323.395
1013.555, 6575.488
1014.666, 6051.191
1015.777, 5321.875
1016.888, 5057.508
1017.999, 4549.188
1019.110, 4227.724
1020.220, 3925.906
1021.331, 3581.748
1022.441, 3321.006
1023.551, 3278.828
1024.661, 3052.582
1025.770, 3083.926
1026.880, 3010.755
1027.989, 2931.781
1029.098, 2921.579
1030.207, 2905.231
1031.316, 3040.391
1032.425, 3084.932
1033.533, 3097.389
1034.642, 3309.934
1035.750, 3416.158
1036.858, 3616.850
1037.966, 3664.614
1039.073, 3976.035
1040.181, 4196.173
1041.288, 4490.487
1042.396, 4899.185
1043.503, 5194.084
1044.610, 5637.633
1045.716, 6174.788
1046.823, 6670.473
1047.929, 7460.931
1049.036, 8379.386
1050.142, 9272.530
1051.248, 10793.08
1052.353, 11718.43
1053.459, 13264.78
1054.564, 15262.13
1055.670, 17553.49
1056.775, 20315.85
1057.880, 23601.21
1058.985, 26977.58
1060.089, 30968.96
1061.194, 34777.34
1062.298, 38280.73
1063.402, 41001.15
1064.506, 43093.61
1065.610, 43349.08
1066.713, 42993.61
1067.817, 40678.12
1068.920, 37345.68
1070.023, 33734.25
1071.126, 30567.79
1072.229, 26880.38
1073.332, 24080.96
1074.435, 21056.55
1075.537, 18900.16
1076.639, 16607.80
1077.741, 15124.49
1078.843, 13610.21
1079.945, 12328.99
1081.046, 11372.81
1082.148, 10232.64
1083.249, 9316.494
1084.350, 8660.365
1085.451, 7712.246
1086.551, 7295.158
1087.652, 6684.084
1088.752, 6115.041
1089.853, 5716.003
1090.953, 5148.969
1092.053, 4764.963
1093.152, 4493.970
1094.252, 4087.033
1095.351, 3899.098
1096.451, 3621.180
1097.550, 3439.285
1098.649, 3140.446
1099.748, 3097.619
1100.846, 2802.838
1101.945, 2589.092
1103.043, 2587.396
1104.141, 2451.754
1105.239, 2242.159
1106.337, 2185.606
1107.434, 2080.082
1108.532, 2005.559
1109.629, 1971.067
1110.726, 1685.572
1111.823, 1708.078
1112.920, 1606.599
1114.017, 1694.115
1115.113, 1685.625
1116.210, 1598.154
1117.306, 1615.682
1118.402, 1583.237
1119.498, 1268.805
1120.593, 1379.377
1121.689, 1324.975
1122.784, 1311.568
1123.879, 1457.159
1124.974, 1277.752
1126.069, 1279.350
1127.164, 1235.965
1128.259, 913.7920
1129.353, 1151.131
1130.447, 908.7412
1131.541, 889.3398
1132.635, 892.5498
1133.729, 759.7188
1134.822, 826.4229
1135.916, 726.9893
1137.009, 758.0898
1138.102, 639.6445
1139.195, 684.7812
1140.288, 472.8135
1141.380, 439.3535
1142.473, 184.0977
1143.565, 243.7295
1144.657, 1.904297
1145.749, 91.20410
1146.841, 16.76074
1147.932, 109.7021
1149.024, 14.20508
1150.115, 32.97461
1151.206, 24.38672
1152.297, 74.84375
1153.388, 144.6523
1154.479, 232.2949
1155.569, 118.6748
1156.659, 1.524414
1157.750, 181.7354
1158.839, 36.08008
1159.929, 147.5547
1161.019, 46.40137
1162.108, 37.51562
1163.198, 283.4629
1164.287, 22.14648
1165.376, 123.4785
1166.465, 165.4248
1167.553, 235.9287
1168.642, 77.16504
1169.730, 6.620117
1170.818, 66.23633
1171.906, 100.1592
1172.994, 176.7422
1174.082, 25.27344
1175.170, 217.3242
1176.257, 75.71191
1177.344, 190.3867
1178.431, 247.9893
1179.518, 251.4404
1180.605, 283.7539
1181.691, 410.0527
1182.778, 312.7529
1183.864, 493.9102
1184.950, 458.9023
1186.036, 565.0625
1187.122, 578.7969
1188.207, 638.3418
1189.292, 580.2861
1190.378, 828.3809
1191.463, 857.5381
1192.548, 875.3105
1193.632, 844.3369
1194.717, 844.1787
1195.801, 836.3320
1196.886, 799.9688
1197.970, 801.9082
1199.054, 789.6641
1200.137, 737.2861
1201.221, 769.5762
1202.305, 712.0283
1203.388, 641.1113
1204.471, 711.0439
1205.554, 718.6670
1206.637, 851.7324
1207.719, 918.9551
1208.802, 823.8369
1209.884, 985.8633
1210.966, 903.6406
1212.048, 1165.221
1213.130, 1203.921
1214.212, 1183.616
1215.293, 1436.754
1216.374, 1573.857
1217.456, 1766.748
1218.536, 1908.101
1219.617, 2026.459
1220.698, 2048.482
1221.778, 2186.713
1222.859, 2145.933
1223.939, 2113.275
1225.019, 2088.816
1226.099, 1941.121
1227.178, 1929.830
1228.258, 1830.706
1229.337, 2209.467
1230.417, 1780.843
1231.496, 1883.886
1232.574, 1315.434
1233.653, 1428.716
1234.732, 1623.297
1235.810, 1522.823
1236.888, 1542.382
1237.966, 1664.601
1239.044, 1762.621
1240.122, 1714.771
1241.199, 1751.172
1242.277, 1637.752
1243.354, 1602.677
1244.431, 1401.608
1245.508, 1138.674
1246.585, 1068.765
1247.661, 822.9043
1248.738, 813.5166
1249.814, 800.5273
1250.890, 697.4521
1251.966, 672.0049
1253.042, 490.5537
1254.117, 597.5684
1255.193, 486.9092
1256.268, 611.8662
1257.343, 419.9395
1258.418, 303.2109
1259.493, 506.6221
1260.567, 489.5615
1261.642, 333.5166
1262.716, 344.2031
1263.790, 456.2471
