##NAMES=Beryl
##RRUFFID=R060943
##IDEAL CHEMISTRY=Be_3_Al_2_Si_6_O_18_
##LOCALITY=Xinjiang, China
##OWNER=RRUFF
##SOURCE=Lawrence W. Snee
##DESCRIPTION=Green hexagonal prisms, variety emerald
##STATUS=The identification of this mineral has been confirmed by X-ray diffraction and chemical analysis
##URL=rruff.info/R060943
##MEASURED CHEMISTRY=(Be_2.96_Li_0.04_)_Σ=3_(Al_1.64_Mg_0.21_V^3+^_0.06_Fe^3+^_0.04_Sc^3+^_0.03_Cr^3+^_0.02_)_Σ=2_Si_6.00_O_18_·Na_0.25_
##PIN_ID=L00265
##ORIENTATION=Laser parallel to a* (1 0 0). Fiducial mark perpendicular to laser is parallel to -c [0 0 -1]
167.3340, 0.0000000E+00
168.5670, 0.7724610
169.8000, 114.6035
171.0320, 82.06641
172.2650, 3.652344
173.4970, 90.01562
174.7290, 149.4551
175.9610, 92.15723
177.1930, 155.4404
178.4240, 112.8125
179.6550, 266.2412
180.8870, 244.4893
182.1170, 324.0039
183.3480, 365.2109
184.5790, 292.6924
185.8090, 422.1777
187.0390, 352.4971
188.2690, 449.5479
189.4990, 459.5146
190.7290, 392.4609
191.9580, 474.3447
193.1870, 421.5762
194.4160, 525.9902
195.6450, 479.7207
196.8740, 399.5088
198.1020, 433.1523
199.3310, 491.7520
200.5590, 489.3994
201.7870, 500.1768
203.0140, 567.1533
204.2420, 363.3926
205.4690, 275.9619
206.6960, 241.9248
207.9230, 215.3389
209.1500, 136.2568
210.3760, 273.7373
211.6030, 98.24512
212.8290, 190.3877
214.0550, 274.3906
215.2810, 264.3193
216.5060, 467.2900
217.7320, 591.5830
218.9570, 480.7979
220.1820, 596.9180
221.4070, 686.8525
222.6320, 769.7568
223.8560, 834.7588
225.0800, 779.5176
226.3040, 783.2559
227.5280, 851.8115
228.7520, 739.1973
229.9760, 880.4170
231.1990, 899.4854
232.4220, 796.4043
233.6450, 944.1807
234.8680, 1005.815
236.0910, 1108.317
237.3130, 1096.688
238.5350, 1239.934
239.7570, 1263.015
240.9790, 1273.105
242.2010, 1366.170
243.4220, 1472.259
244.6430, 1549.372
245.8640, 1684.519
247.0850, 1822.694
248.3060, 1903.901
249.5270, 2004.128
250.7470, 1698.370
251.9670, 1573.618
253.1870, 1180.114
254.4070, 860.8945
255.6260, 562.9766
256.8460, 264.3926
258.0650, 282.0820
259.2840, 43.41357
260.5030, 153.0513
261.7220, 145.2524
262.9400, 105.4902
264.1580, 86.31592
265.3760, 182.0947
266.5940, 39.75586
267.8120, 80.21094
269.0290, 181.0884
270.2470, 265.2041
271.4640, 253.0820
272.6810, 163.9380
273.8980, 180.7715
275.1140, 150.5825
276.3310, 143.9751
277.5470, 159.1343
278.7630, 194.8750
279.9790, 120.5918
281.1940, 212.2847
282.4100, 272.9531
283.6250, 420.5972
284.8400, 531.2168
286.0550, 577.8286
287.2700, 623.5342
288.4850, 925.1489
289.6990, 976.6650
290.9130, 1036.178
292.1270, 1059.765
293.3410, 1036.340
294.5540, 886.8550
295.7680, 851.3037
296.9810, 807.6895
298.1940, 926.0220
299.4070, 962.3149
300.6200, 896.5698
301.8320, 863.7876
303.0450, 1034.969
304.2570, 993.1133
305.4690, 1202.222
306.6800, 1179.294
307.8920, 1463.333
309.1030, 1512.336
310.3150, 1791.306
311.5260, 2100.242
312.7360, 2623.146
313.9470, 2970.855
315.1580, 3556.413
316.3680, 4350.624
317.5780, 5168.876
318.7880, 5980.061
319.9980, 7324.327
321.2070, 8845.582
322.4170, 10256.42
323.6260, 10959.62
324.8350, 10792.24
326.0430, 9568.602
327.2520, 7397.129
328.4610, 5394.627
329.6690, 3732.616
330.8770, 2464.874
332.0850, 1689.906
333.2920, 1109.669
334.5000, 709.4448
335.7070, 538.0796
336.9140, 430.6528
338.1210, 248.1387
339.3280, 118.5229
340.5350, 160.8066
341.7410, 8.006836
342.9470, 68.92871
344.1540, 52.96973
345.3590, 101.1216
346.5650, 3.394043
347.7710, 31.75684
348.9760, 3.214844
350.1810, 76.75732
351.3860, 11.59912
352.5910, 40.11963
353.7950, 20.92578
355.0000, 44.18945
356.2040, 40.76172
357.4080, 43.98633
358.6120, 41.12061
359.8150, 77.60352
361.0190, 62.92871
362.2220, 84.85059
363.4250, 62.59766
364.6280, 67.27295
365.8310, 143.8770
367.0340, 139.4082
368.2360, 244.8677
369.4380, 296.1616
370.6400, 394.6060
371.8420, 431.9170
373.0440, 541.1973
374.2450, 594.4473
375.4470, 754.6680
376.6480, 1010.859
377.8490, 1151.022
379.0490, 1390.158
380.2500, 1636.265
381.4500, 1909.347
382.6510, 2358.400
383.8510, 2602.430
385.0500, 2731.433
386.2500, 3441.411
387.4500, 4086.363
388.6490, 4695.291
389.8480, 5727.193
391.0470, 6770.069
392.2460, 8205.921
393.4440, 9628.744
394.6430, 11316.54
395.8410, 13050.32
397.0390, 13985.06
398.2370, 13890.78
399.4340, 12980.45
400.6320, 11598.40
401.8290, 9746.085
403.0260, 7957.121
404.2230, 6300.003
405.4200, 4867.492
406.6170, 3910.292
407.8130, 3256.784
409.0090, 2867.050
410.2050, 2523.377
411.4010, 2318.161
412.5970, 2034.925
413.7920, 1847.680
414.9880, 1777.294
416.1830, 1687.577
417.3780, 1556.463
418.5730, 1494.349
419.7670, 1402.653
420.9620, 1193.824
422.1560, 1183.197
423.3500, 1046.779
424.5440, 1001.918
425.7380, 1002.663
426.9310, 968.9341
428.1240, 916.4341
429.3180, 996.9185
430.5110, 1022.386
431.7030, 1046.839
432.8960, 1219.275
434.0890, 1312.696
435.2810, 1533.101
436.4730, 1737.490
437.6650, 1741.863
438.8570, 2015.221
440.0480, 2200.564
441.2390, 2521.892
442.4310, 2408.204
443.6220, 2504.503
444.8120, 2182.786
446.0030, 1780.056
447.1940, 1639.311
448.3840, 1202.551
449.5740, 1106.778
450.7640, 840.9912
451.9540, 814.1909
453.1430, 605.3770
454.3330, 561.5503
455.5220, 421.7100
456.7110, 544.8569
457.9000, 439.9717
459.0890, 441.0581
460.2770, 413.1133
461.4650, 390.1387
462.6540, 440.1328
463.8420, 376.0957
465.0290, 226.0278
466.2170, 373.9238
467.4050, 261.0669
468.5920, 311.6177
469.7790, 257.4146
470.9660, 250.1772
472.1530, 355.9048
473.3390, 275.6016
474.5250, 313.2656
475.7120, 361.8984
476.8980, 342.5010
478.0840, 518.0737
479.2690, 411.6172
480.4550, 439.1318
481.6400, 380.8818
482.8250, 511.8032
484.0100, 454.0449
485.1950, 474.0146
486.3800, 461.1265
487.5640, 618.2070
488.7480, 448.2349
489.9320, 560.3672
491.1160, 462.6919
492.3000, 573.7812
493.4840, 769.2300
494.6670, 655.9106
495.8500, 671.8345
497.0330, 582.7188
498.2160, 669.3965
499.3990, 667.9961
500.5810, 721.2676
501.7630, 729.9155
502.9460, 844.9795
504.1280, 885.8447
505.3090, 874.9761
506.4910, 1039.820
507.6720, 988.7158
508.8540, 1099.339
510.0350, 1328.915
511.2160, 1425.074
512.3960, 1485.436
513.5770, 1608.198
514.7570, 2028.099
515.9380, 2355.984
517.1180, 2594.857
518.2970, 2957.716
519.4770, 3421.561
520.6570, 3772.392
521.8360, 3941.211
523.0150, 4139.015
524.1940, 4204.806
525.3730, 4005.584
526.5510, 3745.350
527.7300, 3395.101
528.9080, 2782.840
530.0860, 2406.564
531.2640, 2060.277
532.4420, 1572.980
533.6200, 1312.688
534.7970, 1045.390
535.9740, 837.0801
537.1510, 638.7896
538.3280, 476.4854
539.5050, 370.1934
540.6810, 237.6118
541.8580, 129.1216
543.0340, 50.32080
544.2100, 46.92627
545.3860, 130.2065
546.5610, 166.5596
547.7370, 71.00977
548.9120, 144.4282
550.0870, 140.8809
551.2620, 142.3481
552.4370, 198.8213
553.6120, 99.35010
554.7860, 113.9092
555.9600, 88.51758
557.1340, 12.76514
558.3080, 83.14404
559.4820, 113.4692
560.6560, 188.7979
561.8290, 249.1519
563.0020, 183.5146
564.1750, 217.8740
565.3480, 156.2505
566.5210, 179.6250
567.6930, 109.9937
568.8660, 201.3657
570.0380, 222.7578
571.2100, 400.1714
572.3820, 446.6084
573.5530, 460.0615
574.7250, 421.5234
575.8960, 560.9854
577.0670, 663.4453
578.2380, 565.8999
579.4090, 628.3496
580.5800, 608.7949
581.7500, 617.2334
582.9210, 598.6836
584.0910, 652.1255
585.2610, 668.5591
586.4300, 533.9951
587.6000, 586.4341
588.7690, 528.8643
589.9390, 588.2900
591.1080, 560.7148
592.2770, 436.1396
593.4450, 615.5801
594.6140, 658.0273
595.7820, 675.4673
596.9500, 559.9150
598.1190, 614.3540
599.2860, 520.7925
600.4540, 568.2358
601.6220, 450.6763
602.7890, 533.1089
603.9560, 552.5322
605.1230, 551.9473
606.2900, 549.7412
607.4570, 617.4204
608.6230, 593.0732
609.7890, 745.2153
610.9560, 905.1265
612.1220, 955.0049
613.2870, 1153.322
614.4530, 1389.301
615.6180, 1471.435
616.7840, 1649.768
617.9490, 1706.018
619.1140, 1869.335
620.2790, 1762.645
621.4430, 1616.945
622.6080, 1323.242
623.7720, 976.5371
624.9360, 776.8296
626.1000, 703.1348
627.2640, 502.4673
628.4270, 561.8242
629.5910, 424.2183
630.7540, 336.6230
631.9170, 299.0474
633.0800, 436.4824
634.2430, 387.9473
635.4050, 396.4199
636.5680, 401.9136
637.7300, 331.4229
638.8920, 362.9351
640.0540, 425.4683
641.2150, 530.0239
642.3770, 554.6001
643.5380, 596.1772
644.7000, 519.7554
645.8610, 525.3340
647.0210, 567.9141
648.1820, 572.4951
649.3430, 621.0737
650.5030, 574.6509
651.6630, 513.2227
652.8230, 702.7891
653.9830, 660.3486
655.1430, 859.8989
656.3020, 879.4424
657.4620, 990.9766
658.6210, 1153.502
659.7800, 1255.021
660.9390, 1434.577
662.0970, 1616.078
663.2560, 1815.570
664.4140, 2218.054
665.5720, 2519.530
666.7300, 2901.997
667.8880, 3273.455
669.0460, 3895.905
670.2030, 4575.346
671.3600, 5317.415
672.5180, 6465.548
673.6740, 7843.392
674.8310, 9404.044
675.9880, 11803.33
677.1440, 14807.72
678.3010, 18428.64
679.4570, 22744.63
680.6130, 28381.33
681.7690, 34908.46
682.9240, 42374.32
684.0800, 48830.78
685.2350, 53638.84
686.3900, 54291.54
687.5450, 50958.15
688.7000, 43974.45
689.8540, 35601.27
691.0090, 28006.09
692.1630, 21649.66
693.3170, 16857.40
694.4710, 13294.63
695.6250, 10763.31
696.7780, 8852.144
697.9320, 7599.151
699.0850, 6221.127
700.2380, 5450.659
701.3910, 4788.151
702.5440, 4164.339
703.6970, 3693.199
704.8490, 3202.226
706.0010, 2974.302
707.1530, 2662.542
708.3050, 2488.146
709.4570, 2173.978
710.6090, 1890.346
711.7600, 1831.896
712.9110, 1624.476
714.0620, 1485.286
715.2130, 1243.518
716.3640, 1279.795
717.5150, 1160.456
718.6650, 887.0542
719.8150, 888.2056
720.9650, 777.5869
722.1150, 724.5459
723.2650, 742.4902
724.4150, 730.5918
725.5640, 610.8135
726.7130, 514.7095
727.8630, 498.1230
729.0110, 492.5835
730.1600, 506.8110
731.3090, 448.0928
732.4570, 340.2407
733.6060, 382.0938
734.7540, 385.4336
735.9020, 450.1953
737.0490, 459.5205
738.1970, 362.0542
739.3440, 363.8145
740.4920, 410.5054
741.6390, 348.1772
742.7860, 428.8315
743.9320, 423.4678
745.0790, 435.0889
746.2250, 349.6909
747.3720, 441.2778
748.5180, 372.8467
749.6640, 401.3994
750.8100, 525.9370
751.9550, 485.4556
753.1010, 458.9575
754.2460, 515.4424
755.3910, 591.9097
756.5360, 732.3589
757.6810, 675.7891
758.8250, 813.2017
759.9700, 719.5962
761.1140, 937.9722
762.2580, 1008.330
763.4020, 939.6694
764.5460, 944.9902
765.6900, 902.2930
766.8330, 1006.577
767.9760, 989.8418
769.1200, 987.0879
770.2620, 1014.315
771.4050, 894.5229
772.5480, 983.7114
773.6900, 863.8809
774.8330, 802.0303
775.9750, 793.1611
777.1170, 751.2715
778.2590, 683.3628
779.4000, 655.4336
780.5420, 654.4854
781.6830, 583.5176
782.8240, 565.5293
783.9650, 430.5210
785.1060, 403.4927
786.2470, 369.4448
787.3870, 461.3770
788.5280, 322.2896
789.6680, 387.1821
790.8080, 275.0547
791.9480, 292.9072
793.0870, 292.6733
794.2270, 199.5537
795.3660, 266.3477
796.5060, 201.1216
797.6450, 112.8760
798.7830, 125.6104
799.9220, 220.3257
801.0610, 217.0205
802.1990, 177.6968
803.3370, 200.3535
804.4750, 197.9912
805.6130, 236.6094
806.7510, 161.2090
807.8890, 36.78906
809.0260, 23.65674
810.1630, 13.84424
811.3000, 52.31201
812.4370, 75.24268
813.5740, 137.1240
814.7110, 54.52832
815.8470, 7.750977
816.9830, 12.99463
818.1190, 113.5918
819.2550, 128.2197
820.3910, 15.82178
821.5270, 69.81689
822.6620, 142.5615
823.7970, 60.06201
824.9330, 20.26123
826.0670, 66.66846
827.2020, 4.703125
828.3370, 73.64600
829.4710, 56.70752
830.6060, 31.56494
831.7400, 72.47168
832.8740, 3.353027
834.0080, 14.20410
835.1410, 0.9731450
836.2750, 69.18750
837.4080, 4.475098
838.5410, 49.19775
839.6740, 43.14746
840.8070, 44.44824
841.9400, 97.02686
843.0730, 10.41113
844.2050, 74.88770
845.3370, 79.43799
846.4690, 88.90820
847.6010, 60.90723
848.7330, 30.54004
849.8640, 3.358887
850.9960, 4.789551
852.1270, 24.23779
853.2580, 13.00928
854.3890, 13.08594
855.5200, 23.14111
856.6500, 50.82227
857.7810, 44.16016
858.9110, 95.12793
860.0410, 17.91797
861.1710, 20.99951
862.3010, 70.88232
863.4310, 6.751465
864.5600, 12.39990
865.6900, 9.580566
866.8190, 75.78955
867.9480, 43.05908
869.0770, 15.62695
870.2050, 48.70068
871.3340, 26.92627
872.4620, 18.45752
873.5900, 39.86963
874.7180, 10.31934
875.8460, 56.20850
876.9740, 47.88428
878.1010, 103.2334
879.2290, 48.73096
880.3560, 143.2188
881.4830, 76.69678
882.6100, 45.16602
883.7370, 35.62598
884.8630, 85.07715
885.9900, 89.17139
887.1160, 152.2163
888.2420, 140.9038
889.3680, 178.8008
890.4940, 165.8726
891.6200, 154.6167
892.7450, 180.0151
893.8700, 231.4067
894.9960, 205.7920
896.1210, 304.1719
897.2460, 383.5459
898.3700, 363.9155
899.4950, 535.2798
900.6190, 469.6396
901.7430, 518.9951
902.8670, 549.3472
903.9910, 591.6948
905.1150, 698.0400
906.2390, 815.3818
907.3620, 762.7212
908.4850, 916.0581
909.6080, 858.3926
910.7310, 821.7251
911.8540, 1015.056
912.9770, 1116.386
914.0990, 1147.715
915.2210, 1204.043
916.3440, 1232.372
917.4660, 1237.332
918.5870, 1334.032
919.7090, 1162.361
920.8310, 1159.693
921.9520, 977.0259
923.0730, 1005.360
924.1940, 979.6968
925.3150, 912.0356
926.4360, 745.3770
927.5560, 783.7207
928.6770, 703.0688
929.7970, 693.4194
930.9170, 627.7739
932.0370, 644.1328
933.1570, 489.4497
934.2760, 516.8174
935.3960, 420.1904
936.5150, 449.5684
937.6340, 400.4790
938.7530, 276.3418
939.8720, 343.7383
940.9910, 229.1406
942.1090, 234.5488
943.2280, 252.3281
944.3460, 102.0405
945.4640, 125.0430
946.5820, 42.23535
947.6990, 9.791504
948.8170, 20.24854
949.9340, 24.16748
951.0520, 57.01514
952.1690, 14.83643
953.2860, 113.5337
954.4030, 1.283203
955.5190, 37.93457
956.6360, 77.65723
957.7520, 25.15869
958.8680, 122.5825
959.9840, 58.26855
961.1000, 38.73584
962.2160, 9.326172
963.3310, 50.32373
964.4470, 30.91748
965.5620, 0.4418950
966.6770, 7.971191
967.7920, 9.617188
968.9060, 77.92383
970.0210, 81.39746
971.1360, 132.6426
972.2500, 49.00342
973.3640, 142.5942
974.4780, 156.6396
975.5920, 70.26025
976.7050, 325.9819
977.8190, 238.2598
978.9320, 273.5522
980.0450, 384.6235
981.1580, 431.1670
982.2710, 460.5371
983.3840, 670.8848
984.4970, 592.0122
985.6090, 741.7256
986.7210, 975.4023
987.8330, 1000.708
988.9450, 1352.084
990.0570, 1559.918
991.1690, 1746.530
992.2800, 2039.576
993.3920, 2333.648
994.5030, 2795.573
995.6140, 2908.404
996.7250, 3343.571
997.8350, 3757.237
998.9460, 3818.868
1000.056, 4236.754
1001.167, 4534.616
1002.277, 4985.623
1003.387, 5041.937
1004.496, 5368.783
1005.606, 5431.224
1006.715, 5560.119
1007.825, 5686.826
1008.934, 5677.322
1010.043, 5649.902
1011.152, 5484.512
1012.260, 5384.155
1013.369, 5147.829
1014.477, 4863.535
1015.586, 4609.274
1016.694, 4387.545
1017.802, 4002.850
1018.909, 3973.697
1020.017, 3654.582
1021.124, 3489.513
1022.232, 3374.479
1023.339, 3205.479
1024.446, 3062.556
1025.553, 2811.665
1026.659, 2784.844
1027.766, 2676.062
1028.872, 2619.339
1029.979, 2618.670
1031.085, 2601.142
1032.191, 2610.473
1033.296, 2661.953
1034.402, 2714.470
1035.507, 2768.037
1036.613, 2965.641
1037.718, 3171.286
1038.823, 3203.968
1039.928, 3456.698
1041.032, 3793.465
1042.137, 4186.274
1043.241, 4421.144
1044.346, 4839.072
1045.450, 5237.048
1046.554, 5732.085
1047.657, 6488.197
1048.761, 7133.346
1049.864, 7839.532
1050.968, 9080.772
1052.071, 10061.05
1053.174, 11636.37
1054.277, 13249.74
1055.379, 15085.14
1056.482, 17314.59
1057.584, 19736.10
1058.687, 22611.64
1059.789, 25951.23
1060.891, 29245.85
1061.992, 32351.53
1063.094, 35851.25
1064.196, 38760.01
1065.297, 40590.81
1066.398, 41758.66
1067.499, 41723.56
1068.600, 40815.50
1069.701, 39436.49
1070.801, 37683.51
1071.902, 35667.58
1073.002, 32926.68
1074.102, 30631.83
1075.202, 28043.01
1076.302, 25041.24
1077.402, 22462.54
1078.501, 20584.86
1079.600, 18300.23
1080.700, 16650.68
1081.799, 14971.16
1082.898, 13530.71
1083.996, 12440.31
1085.095, 11426.75
1086.193, 10265.23
1087.292, 9536.005
1088.390, 8806.863
1089.488, 8245.029
1090.586, 7637.632
1091.683, 7128.304
1092.781, 6552.287
1093.878, 6266.407
1094.975, 5812.484
1096.073, 5525.727
1097.169, 5275.650
1098.266, 5054.997
1099.363, 4720.405
1100.459, 4574.861
1101.556, 4334.367
1102.652, 3993.922
1103.748, 3994.546
1104.844, 3868.219
1105.940, 3781.934
1107.035, 3520.708
1108.131, 3390.526
1109.226, 3294.385
1110.321, 3212.294
1111.416, 3134.271
1112.511, 3218.318
1113.605, 3049.438
1114.700, 3049.012
1115.794, 3026.863
1116.889, 2913.152
1117.983, 3017.486
1119.077, 2889.161
1120.170, 2951.579
1121.264, 3064.039
1122.357, 3102.539
1123.451, 3298.097
1124.544, 3437.897
1125.637, 3495.531
1126.730, 3637.411
1127.823, 3770.143
1128.915, 3791.095
1130.008, 3938.904
1131.100, 3946.715
1132.192, 3820.869
1133.284, 3747.829
1134.376, 3724.841
1135.467, 3457.127
1136.559, 3124.754
1137.650, 3045.318
1138.742, 2688.629
1139.833, 2430.310
1140.924, 2220.579
1142.014, 2055.882
1143.105, 1870.224
1144.195, 1647.599
1145.286, 1518.009
1146.376, 1359.452
1147.466, 1237.928
1148.556, 1122.474
1149.646, 984.7549
1150.735, 697.3359
1151.825, 713.4951
1152.914, 622.5181
1154.003, 445.1929
1155.092, 523.4209
1156.181, 459.1582
1157.270, 398.8232
1158.358, 325.6992
1159.447, 322.7412
1160.535, 292.0845
1161.623, 238.2866
1162.711, 292.1050
1163.799, 235.8955
1164.886, 79.41553
1165.974, 147.8823
1167.061, 153.9194
1168.148, 37.85498
1169.235, 54.99854
1170.322, 181.7461
1171.409, 78.01025
1172.496, 129.0200
1173.582, 217.3965
1174.669, 223.5947
1175.755, 183.9097
1176.841, 193.0977
1177.927, 159.5127
1179.012, 137.8394
1180.098, 149.9858
1181.183, 116.8618
1182.269, 175.2559
1183.354, 250.6724
1184.439, 269.8589
1185.524, 333.3164
1186.608, 314.3823
1187.693, 221.3110
1188.777, 262.9561
1189.862, 197.7383
1190.946, 161.0591
1192.030, 228.3564
1193.113, 121.2344
1194.197, 167.8657
1195.281, 166.9395
1196.364, 152.5869
1197.447, 123.4580
1198.530, 256.4087
1199.613, 127.9292
1200.696, 219.6426
1201.779, 170.3711
1202.861, 208.6851
1203.944, 214.4600
1205.026, 190.3535
1206.108, 206.2417
1207.190, 143.0444
1208.271, 163.8613
1209.353, 283.6914
1210.435, 155.5352
1211.516, 308.3916
1212.597, 371.4653
1213.678, 405.3467
1214.759, 381.2407
1215.840, 534.7402
1216.920, 367.6724
1218.001, 514.6191
1219.081, 437.5723
1220.161, 410.5713
1221.241, 546.5547
1222.321, 586.5625
1223.401, 687.5854
1224.480, 516.6182
1225.560, 522.7842
1226.639, 460.8374
1227.718, 526.9004
1228.797, 564.9756
1229.876, 519.0566
1230.955, 525.0210
1232.033, 472.2373
1233.112, 400.3354
1234.190, 415.4395
1235.268, 255.5474
1236.346, 254.6602
1237.424, 168.4897
1238.501, 211.6099
1239.579, 261.7339
1240.656, 187.8608
1241.733, 150.1685
1242.811, 23.30615
1243.888, 48.15820
1244.964, 123.2925
1246.041, 68.42822
1247.117, 113.5635
1248.194, 14.30029
1249.270, 74.83496
1250.346, 54.96924
1251.422, 25.10303
1252.498, 17.23535
1253.573, 8.633301
1254.649, 70.49316
1255.724, 73.38330
1256.800, 156.7090
1257.875, 32.20166
1258.950, 35.87354
1260.024, 46.04736
1261.099, 85.98877
1262.173, 59.02783
1263.248, 13.03955
1264.322, 27.95312
1265.396, 11.96338
1266.470, 29.86914
1267.544, 23.04297
1268.617, 8.086426
1269.691, 18.84180
1270.764, 44.83691
1271.837, 105.3682
1272.910, 77.27539
1273.983, 108.1753
1275.056, 47.06836
1276.129, 13.95361
1277.201, 8.290039
1278.273, 26.30322
1279.346, 7.452637
1280.418, 35.63184
1281.489, 3.563965
1282.561, 20.33643
1283.633, 142.9019
1284.704, 87.77002
1285.776, 114.5688
1286.847, 3.986816
1287.918, 73.22314
1288.989, 50.51611
1290.059, 23.06445
1291.130, 29.01025
1292.200, 49.63281
1293.271, 24.69385
1294.341, 34.76514
1295.411, 35.69336
1296.481, 9.071289
1297.551, 34.30322
1298.620, 17.24951
1299.690, 33.92920
1300.759, 15.18506
1301.828, 70.67529
1302.897, 34.60498
1303.966, 19.15186
1305.035, 47.62500
1306.103, 113.6919
1307.172, 60.52979
1308.240, 104.7510
1309.308, 18.45361
1310.376, 103.3228
1311.444, 64.13818
1312.512, 23.11621
1313.580, 73.61719
1314.647, 32.28027
1315.714, 12.08447
1316.781, 26.49561
1317.848, 56.03809
1318.915, 38.56299
1319.982, 41.04590
1321.049, 9.494141
1322.115, 76.65381
1323.181, 55.06592
1324.248, 105.4600
1325.314, 37.16162
1326.380, 67.17822
1327.445, 46.49414
1328.511, 96.79053
1329.576, 175.0669
1330.642, 59.32617
1331.707, 93.56543
1332.772, 85.78662
1333.837, 88.98877
1334.902, 199.1719
