##NAMES=Beryl
##RRUFFID=R050347
##IDEAL CHEMISTRY=Be_3_Al_2_Si_6_O_18_
##LOCALITY=North Keystone, South Dakota, USA
##OWNER=RRUFF
##SOURCE=California Institute of Technology
##DESCRIPTION=Colorless fragment
##STATUS=The identification of this mineral has been confirmed by X-ray diffraction and chemical analysis
##URL=rruff.info/R050347
##MEASURED CHEMISTRY=(Be_0.96_Li_0.04_)_3_Al_2.00_(Si_0.99_Al_0.01_)_6_O_18_ Î‡0.17Na
##PIN_ID=L01036
##ORIENTATION=Laser parallel to a* (1 0 0). Fiducial mark perpendicular to laser is parallel to c [0 0 1]
120.5960, 0.0000000E+00
121.8270, 103.2466
123.0580, 76.21289
124.2880, 185.6499
125.5190, 87.47217
126.7490, 6.690918
127.9790, 109.8647
129.2090, 58.63135
130.4390, 114.6807
131.6680, 157.4443
132.8980, 226.6543
134.1270, 239.4897
135.3560, 242.8799
136.5850, 176.8027
137.8140, 227.2739
139.0430, 204.9414
140.2710, 306.3643
141.5000, 218.0195
142.7280, 219.4351
143.9560, 206.9023
145.1840, 225.2056
146.4120, 230.6714
147.6390, 167.5630
148.8670, 174.9639
150.0940, 213.9409
151.3210, 150.5518
152.5490, 227.8438
153.7750, 138.8584
155.0020, 131.6284
156.2290, 55.18506
157.4550, 47.55420
158.6810, 119.7607
159.9080, 33.17383
161.1340, 149.7671
162.3590, 83.60107
163.5850, 96.71387
164.8110, 90.14941
166.0360, 303.8262
167.2610, 198.2466
168.4860, 281.8218
169.7110, 260.4717
170.9360, 262.1968
172.1610, 199.5620
173.3850, 204.9780
174.6100, 281.4434
175.8340, 196.9561
177.0580, 346.5146
178.2820, 228.1177
179.5050, 313.7627
180.7290, 188.4438
181.9520, 221.1572
183.1760, 276.9038
184.3990, 304.6841
185.6220, 351.4995
186.8450, 378.3491
188.0670, 386.2319
189.2900, 249.1479
190.5120, 413.0962
191.7340, 319.0771
192.9560, 318.0898
194.1780, 344.1479
195.4000, 330.2759
196.6220, 348.4575
197.8430, 297.6646
199.0640, 329.9180
200.2860, 333.2173
201.5070, 454.5605
202.7270, 407.9448
203.9480, 293.3662
205.1690, 91.82080
206.3890, 53.30664
207.6090, 73.17920
208.8290, 27.63770
210.0490, 47.06934
211.2690, 93.52344
212.4890, 63.86719
213.7080, 56.26318
214.9280, 23.33984
216.1470, 27.03857
217.3660, 37.40088
218.5850, 31.25098
219.8030, 65.91602
221.0220, 104.5942
222.2400, 107.4277
223.4590, 103.9907
224.6770, 102.7100
225.8950, 106.6943
227.1120, 111.1655
228.3300, 116.9521
229.5480, 123.7285
230.7650, 135.5190
231.9820, 135.3242
233.1990, 130.1440
234.4160, 214.9780
235.6330, 146.8271
236.8490, 238.6880
238.0660, 218.4873
239.2820, 281.2456
240.4980, 279.9639
241.7140, 188.6689
242.9300, 231.3545
244.1460, 255.1431
245.3610, 242.9683
246.5770, 271.8154
247.7920, 287.6787
249.0070, 186.5742
250.2220, 298.4849
251.4370, 261.4126
252.6510, 190.3560
253.8660, 342.3145
255.0800, 212.2886
256.2940, 110.2783
257.5080, 130.2832
258.7220, 239.3027
259.9360, 331.3379
261.1490, 326.3892
262.3630, 185.4551
263.5760, 181.5366
264.7890, 108.7129
266.0020, 109.9292
267.2150, 197.5444
268.4270, 220.9966
269.6400, 234.2485
270.8520, 185.2188
272.0640, 163.1587
273.2760, 292.6079
274.4880, 166.5845
275.7000, 294.4180
276.9120, 313.3857
278.1230, 258.3325
279.3340, 289.2676
280.5450, 245.2041
281.7560, 381.1250
282.9670, 372.0327
284.1780, 429.9287
285.3880, 431.7852
286.5980, 438.5229
287.8090, 535.2559
289.0190, 477.9771
290.2290, 546.6870
291.4380, 576.3828
292.6480, 598.0664
293.8570, 646.7393
295.0670, 727.4038
296.2760, 792.0620
297.4850, 832.7153
298.6930, 879.3652
299.9020, 910.0127
301.1110, 1071.659
302.3190, 1241.908
303.5270, 1185.099
304.7350, 1350.711
305.9430, 1553.774
307.1510, 1669.425
308.3580, 1969.903
309.5660, 2304.437
310.7730, 2711.733
311.9800, 3392.219
313.1870, 4149.588
314.3940, 5188.930
315.6010, 6269.240
316.8070, 7452.563
318.0130, 8713.899
319.2200, 10094.25
320.4260, 11373.61
321.6310, 12332.98
322.8370, 12070.37
324.0430, 10569.77
325.2480, 8662.181
326.4540, 6632.607
327.6590, 4729.042
328.8640, 3328.490
330.0680, 2461.949
331.2730, 1773.420
332.4780, 1289.902
333.6820, 1025.395
334.8860, 659.8994
336.0900, 504.4150
337.2940, 351.9409
338.4980, 171.4771
339.7010, 149.2505
340.9050, 274.5815
342.1080, 157.1484
343.3110, 166.7251
344.5140, 254.3120
345.7170, 203.9082
346.9200, 134.5132
348.1220, 165.1284
349.3240, 150.7520
350.5270, 118.2690
351.7290, 120.7017
352.9310, 183.6499
354.1320, 175.5132
355.3340, 160.2129
356.5350, 200.3086
357.7370, 217.1968
358.9380, 243.4829
360.1390, 232.1533
361.3400, 281.5054
362.5400, 243.1357
363.7410, 238.5166
364.9410, 256.6543
366.1410, 278.1797
367.3410, 340.9854
368.5410, 379.7432
369.7410, 390.8560
370.9400, 499.6289
372.1400, 543.4097
373.3390, 617.1982
374.5380, 713.3511
375.7370, 673.1548
376.9360, 810.9648
378.1350, 1008.783
379.3330, 1276.608
380.5310, 1357.440
381.7300, 1624.280
382.9280, 1977.126
384.1260, 2220.980
385.3230, 3041.843
386.5210, 3562.712
387.7180, 4262.589
388.9160, 5409.475
390.1130, 6321.366
391.3100, 7347.266
392.5060, 8416.171
393.7030, 9549.085
394.9000, 10233.00
396.0960, 10507.93
397.2920, 10104.87
398.4880, 8998.807
399.6840, 7577.755
400.8800, 6222.710
402.0750, 4970.671
403.2710, 3918.638
404.4660, 3022.613
405.6610, 2262.382
406.8560, 1823.505
408.0510, 1338.686
409.2450, 1017.684
410.4400, 814.6880
411.6340, 749.5576
412.8280, 588.4150
414.0220, 486.0391
415.2160, 416.9644
416.4100, 335.4497
417.6030, 326.1846
418.7970, 182.2046
419.9900, 152.0176
421.1830, 234.0420
422.3760, 135.3486
423.5690, 151.9839
424.7610, 118.0132
425.9540, 200.0439
427.1460, 88.07666
428.3380, 86.11084
429.5300, 58.14648
430.7220, 147.1855
431.9140, 35.22656
433.1050, 40.27002
434.2970, 97.31592
435.4880, 243.3647
436.6790, 282.4160
437.8700, 199.4697
439.0610, 308.5264
440.2510, 191.5854
441.4420, 268.6479
442.6320, 293.7134
443.8220, 404.7812
445.0120, 377.8525
446.2020, 360.9282
447.3910, 356.0088
448.5810, 428.0918
449.7700, 356.1938
450.9600, 435.2983
452.1490, 409.4067
453.3370, 392.5181
454.5260, 303.6338
455.7150, 279.7534
456.9030, 244.8770
458.0910, 216.0532
459.2800, 193.1860
460.4670, 160.3760
461.6550, 138.4639
462.8430, 118.6104
464.0300, 78.75928
465.2180, 92.08545
466.4050, 72.07178
467.5920, 144.2339
468.7790, 198.4009
469.9650, 194.5708
471.1520, 113.7451
472.3380, 115.9233
473.5250, 61.10498
474.7110, 208.2915
475.8970, 84.47998
477.0820, 201.6738
478.2680, 169.8701
479.4540, 25.07031
480.6390, 173.2744
481.8240, 63.48193
483.0090, 47.69287
484.1940, 192.9062
485.3780, 92.12402
486.5630, 88.34424
487.7470, 99.56738
488.9320, 81.79395
490.1160, 50.02393
491.3000, 55.25635
492.4830, 116.4917
493.6670, 0.2695310
494.8500, 135.9722
496.0340, 26.24072
497.2170, 103.5249
498.4000, 96.82812
499.5820, 32.86523
500.7650, 50.44971
501.9480, 46.78516
503.1300, 30.87451
504.3120, 58.46484
505.4940, 102.8193
506.6760, 109.8223
507.8580, 66.51709
509.0390, 20.75635
510.2210, 92.03174
511.4020, 7.690918
512.5830, 108.5840
513.7640, 52.86084
514.9450, 65.14746
516.1250, 25.56445
517.3060, 108.7124
518.4860, 153.9902
519.6660, 145.2695
520.8460, 206.5508
522.0260, 210.8325
523.2060, 237.1162
524.3850, 277.4004
525.5650, 258.2144
526.7440, 216.9785
527.9230, 214.2734
529.1020, 239.5825
530.2810, 179.8916
531.4590, 159.2090
532.6380, 165.7974
533.8160, 217.8462
534.9940, 188.1665
536.1720, 199.4878
537.3500, 254.8374
538.5270, 159.1899
539.7050, 146.5420
540.8820, 119.9004
542.0590, 138.2646
543.2360, 98.62988
544.4130, 25.99609
545.5900, 128.3638
546.7660, 122.2642
547.9430, 47.95850
549.1190, 16.68164
550.2950, 73.60547
551.4710, 60.89111
552.6470, 42.80664
553.8220, 10.53076
554.9980, 86.26318
556.1730, 43.04395
557.3480, 35.84033
558.5230, 7.659668
559.6980, 38.51123
560.8730, 56.31738
562.0470, 63.81982
563.2220, 16.04443
564.3960, 68.92139
565.5700, 40.15918
566.7440, 74.23926
567.9170, 63.31836
569.0910, 89.39941
570.2640, 106.4927
571.4380, 72.58496
572.6110, 64.69043
573.7840, 32.79492
574.9570, 176.8975
576.1290, 227.9990
577.3020, 125.0991
578.4740, 63.21143
579.6460, 67.32617
580.8180, 50.44971
581.9900, 52.59033
583.1620, 67.59180
584.3330, 44.87695
585.5040, 105.0171
586.6760, 135.1548
587.8470, 153.2915
589.0180, 67.42578
590.1880, 139.5640
591.3590, 61.70215
592.5290, 151.8379
593.7000, 174.9707
594.8700, 73.11084
596.0400, 120.2769
597.2090, 89.44580
598.3790, 24.61865
599.5490, 59.79102
600.7180, 126.9751
601.8870, 81.15576
603.0560, 172.3442
604.2250, 301.5303
605.3940, 232.7139
606.5620, 223.9136
607.7300, 161.1177
608.8990, 307.3188
610.0670, 286.5161
611.2350, 445.7100
612.4020, 393.9004
613.5700, 641.0869
614.7370, 820.2695
615.9050, 936.4487
617.0720, 1178.699
618.2390, 1419.886
619.4060, 1510.069
620.5720, 1587.950
621.7390, 1722.441
622.9050, 1478.625
624.0710, 1268.806
625.2370, 957.9814
626.4030, 767.1606
627.5690, 792.3374
628.7340, 512.5176
629.9000, 530.6953
631.0650, 508.8726
632.2300, 377.0449
633.3950, 410.2124
634.5600, 411.2905
635.7240, 460.4478
636.8890, 518.6001
638.0530, 470.7476
639.2170, 492.8892
640.3810, 553.3999
641.5450, 490.5308
642.7080, 610.6558
643.8720, 629.2310
645.0350, 650.3442
646.1980, 585.4512
647.3610, 699.2900
648.5240, 639.5474
649.6870, 782.6372
650.8490, 720.7217
652.0120, 895.4604
653.1740, 829.5400
654.3360, 941.4072
655.4980, 889.4751
656.6600, 1018.180
657.8210, 1177.236
658.9830, 1130.287
660.1440, 1349.331
661.3050, 1537.370
662.4660, 1632.404
663.6270, 1861.431
664.7870, 2233.452
665.9480, 2410.626
667.1080, 2863.948
668.2680, 3314.840
669.4280, 3690.834
670.5880, 4654.200
671.7480, 5769.182
672.9070, 6962.526
674.0670, 8740.494
675.2260, 10964.45
676.3850, 14153.95
677.5440, 18005.26
678.7030, 23098.19
679.8610, 28625.39
681.0200, 34261.53
682.1780, 40205.43
683.3360, 45212.63
684.4940, 47226.75
685.6520, 45085.66
686.8090, 39717.81
687.9670, 32400.54
689.1240, 25673.19
690.2810, 19544.04
691.4380, 15265.54
692.5950, 11764.51
693.7520, 9339.841
694.9080, 7392.146
696.0650, 5890.390
697.2210, 4878.722
698.3770, 4162.805
699.5330, 3609.690
700.6880, 3096.684
701.8440, 2715.460
702.9990, 2249.948
704.1550, 2100.102
705.3100, 1829.854
706.4650, 1575.601
707.6190, 1588.934
708.7740, 1168.687
709.9290, 1335.409
711.0830, 1104.536
712.2370, 949.2427
713.3910, 842.9414
714.5450, 770.6323
715.6980, 744.3149
716.8520, 581.1919
718.0050, 658.5596
719.1580, 615.4209
720.3110, 547.4966
721.4640, 632.1240
722.6170, 544.7549
723.7700, 438.3770
724.9220, 501.9902
726.0740, 429.1172
727.2260, 397.2021
728.3780, 379.1099
729.5300, 349.8901
730.6810, 264.4575
731.8330, 294.0156
732.9840, 290.6382
734.1350, 352.7227
735.2860, 263.3574
736.4370, 248.3130
737.5880, 221.1724
738.7380, 232.8408
739.8880, 278.3306
741.0390, 240.1416
742.1890, 242.6108
743.3380, 181.2236
744.4880, 138.0132
745.6380, 254.0596
746.7870, 233.4858
747.9360, 182.9019
749.0850, 154.3076
750.2340, 191.7026
751.3830, 196.0859
752.5310, 102.4595
753.6800, 123.8218
754.8280, 57.78418
755.9760, 73.12451
757.1240, 75.45361
758.2720, 68.39453
759.4190, 153.2422
760.5670, 88.20605
761.7140, 184.4912
762.8610, 186.7656
764.0080, 132.7217
765.1550, 316.3018
766.3020, 219.1221
767.4480, 184.8193
768.5950, 221.7109
769.7410, 193.9639
770.8870, 203.1602
772.0330, 153.3452
773.1780, 220.5190
774.3240, 203.6826
775.4690, 111.8345
776.6140, 172.9756
777.7590, 164.1055
778.9040, 88.23242
780.0490, 204.3477
781.1940, 198.4526
782.3380, 86.55371
783.4820, 158.6440
784.6260, 40.72363
785.7700, 140.8179
786.9140, 82.91846
788.0580, 205.0083
789.2010, 161.5176
790.3450, 109.5879
791.4880, 1.647461
792.6310, 158.6802
793.7730, 133.7021
794.9160, 233.7197
796.0590, 92.72754
797.2010, 228.7329
798.3430, 149.9834
799.4850, 164.9600
800.6270, 148.0015
801.7690, 96.95752
802.9100, 10.90283
804.0520, 33.82666
805.1930, 18.26318
806.3340, 130.6128
807.4750, 5.477051
808.6160, 180.3193
809.7560, 29.15137
810.8970, 107.9707
812.0370, 107.7793
813.1770, 78.42188
814.3170, 27.31152
815.4570, 128.0312
816.5960, 4.741211
817.7360, 5.429688
818.8750, 95.09863
820.0140, 26.75684
821.1530, 29.40332
822.2920, 7.038086
823.4310, 35.65332
824.5690, 66.29395
825.7070, 57.05273
826.8460, 77.54688
827.9840, 36.86230
829.1220, 41.68652
830.2590, 19.24023
831.3970, 27.78711
832.5340, 17.65234
833.6710, 33.89258
834.8080, 53.44141
835.9450, 24.98535
837.0820, 39.51953
838.2190, 82.06348
839.3550, 68.01270
840.4910, 37.13477
841.6270, 57.68262
842.7630, 64.22266
843.8990, 6.755859
845.0350, 32.72363
846.1700, 139.7617
847.3060, 39.75879
848.4410, 97.68359
849.5760, 29.11914
850.7100, 55.54883
851.8450, 45.97266
852.9800, 38.61035
854.1140, 0.7734380
855.2480, 23.63184
856.3820, 59.51465
857.5160, 5.215820
858.6500, 35.06836
859.7830, 69.34668
860.9170, 82.61914
862.0500, 81.88770
863.1830, 12.15234
864.3160, 13.58887
865.4480, 4.651367
866.5810, 48.88574
867.7130, 47.11523
868.8460, 27.65918
869.9780, 99.45605
871.1100, 13.31348
872.2410, 19.18652
873.3730, 2.077148
874.5050, 47.97461
875.6360, 107.0957
876.7670, 35.83691
877.8980, 8.206055
879.0290, 0.2470700
880.1590, 69.71875
881.2900, 26.72559
882.4200, 47.25098
883.5500, 53.22559
884.6800, 53.19727
885.8100, 52.16699
886.9400, 102.1357
888.0690, 60.10254
889.1990, 53.06738
890.3280, 63.96875
891.4570, 110.9033
892.5860, 6.832031
893.7140, 25.23926
894.8430, 74.67188
895.9710, 35.41309
897.1000, 43.48730
898.2280, 14.38672
899.3560, 37.71387
900.4830, 10.83008
901.6110, 36.75586
902.7380, 15.08594
903.8660, 20.22656
904.9930, 1.372070
906.1200, 48.48047
907.2460, 77.33496
908.3730, 81.19043
909.5000, 116.2559
910.6260, 81.90723
911.7520, 112.7686
912.8780, 144.6309
914.0040, 52.49414
915.1290, 31.36035
916.2550, 102.2285
917.3800, 102.0996
918.5050, 70.97266
919.6300, 77.84961
920.7550, 23.44824
921.8800, 112.3291
923.0040, 32.21387
924.1290, 44.89844
925.2530, 65.97852
926.3770, 50.85938
927.5010, 101.9502
928.6250, 48.83789
929.7480, 5.729492
930.8720, 15.62598
931.9950, 1.731445
933.1180, 15.87109
934.2410, 32.33594
935.3640, 5.753906
936.4860, 16.16113
937.6090, 98.08008
938.7310, 129.8477
939.8530, 163.4629
940.9750, 176.3555
942.0970, 164.3018
943.2180, 137.0244
944.3400, 124.9814
945.4610, 60.44824
946.5820, 98.25684
947.7030, 124.0430
948.8240, 131.9121
949.9450, 100.4902
951.0650, 128.1465
952.1860, 131.0391
953.3060, 133.0215
954.4260, 48.20703
955.5460, 44.95996
956.6650, 164.8047
957.7850, 144.8379
958.9040, 76.85645
960.0230, 1.941406
961.1420, 182.0732
962.2610, 166.1816
963.3800, 200.6514
964.4990, 155.7793
965.6170, 108.5771
966.7350, 125.6396
967.8530, 239.4678
968.9710, 28.65137
970.0890, 163.8457
971.2070, 218.9570
972.3240, 137.1807
973.4410, 248.4170
974.5580, 93.67188
975.6750, 201.9375
976.7920, 243.2188
977.9090, 109.5205
979.0250, 125.2578
980.1410, 330.5967
981.2580, 308.9688
982.3740, 325.9404
983.4890, 280.3350
984.6050, 336.7432
985.7200, 298.1816
986.8360, 299.6328
987.9510, 414.9014
989.0660, 379.7129
990.1810, 487.0391
991.2950, 443.1572
992.4100, 471.7578
993.5240, 556.3623
994.6390, 474.9824
995.7530, 571.6611
996.8660, 839.3525
997.9800, 773.0557
999.0940, 996.4697
1000.207, 992.0176
1001.320, 1151.790
1002.433, 1128.578
1003.546, 1328.308
1004.659, 1537.586
1005.772, 1760.323
1006.884, 1942.757
1007.996, 2112.245
1009.108, 2266.979
1010.220, 2312.897
1011.332, 2317.502
1012.444, 2302.457
1013.555, 2324.275
1014.666, 2171.924
1015.777, 2125.324
1016.888, 2000.350
1017.999, 2097.395
1019.110, 1998.456
1020.220, 2053.536
1021.331, 1806.635
1022.441, 1913.750
1023.551, 1852.885
1024.661, 1865.447
1025.770, 1880.640
1026.880, 1974.852
1027.989, 2043.519
1029.098, 2253.170
1030.207, 2226.773
1031.316, 2361.064
1032.425, 2399.389
1033.533, 2657.038
1034.642, 2854.072
1035.750, 3115.873
1036.858, 3180.808
1037.966, 3569.557
1039.073, 3814.952
1040.181, 3978.415
1041.288, 4371.896
1042.396, 4806.401
1043.503, 5400.925
1044.610, 5889.469
1045.716, 6416.033
1046.823, 6961.617
1047.929, 7954.223
1049.036, 8652.848
1050.142, 9724.495
1051.248, 11126.16
1052.353, 12540.85
1053.459, 14335.56
1054.564, 16330.29
1055.670, 18585.04
1056.775, 21052.81
1057.880, 24380.18
1058.985, 27428.99
1060.089, 31282.83
1061.194, 35316.71
1062.298, 39172.60
1063.402, 42322.51
1064.506, 45643.45
1065.610, 47210.41
1066.713, 48028.14
1067.817, 47991.15
1068.920, 46437.11
1070.023, 44464.16
1071.126, 42443.24
1072.229, 38902.34
1073.332, 35836.48
1074.435, 32744.65
1075.537, 30021.21
1076.639, 27077.42
1077.741, 24351.65
1078.843, 22108.95
1079.945, 19891.42
1081.046, 17982.53
1082.148, 16330.87
1083.249, 14753.25
1084.350, 13523.98
1085.451, 12181.40
1086.551, 11046.85
1087.652, 10142.32
1088.752, 9043.812
1089.853, 8513.335
1090.953, 7693.878
1092.053, 7271.729
1093.152, 6745.306
1094.252, 6265.828
1095.351, 5875.477
1096.451, 5430.163
1097.550, 5024.916
1098.649, 4580.646
1099.748, 4481.538
1100.846, 4143.321
1101.945, 3958.124
1103.043, 3877.947
1104.141, 3727.316
1105.239, 3450.182
1106.337, 3487.972
1107.434, 3133.879
1108.532, 3028.357
1109.629, 2963.525
1110.726, 2867.967
1111.823, 2896.944
1112.920, 2775.314
1114.017, 2712.645
1115.113, 2600.080
1116.210, 2535.175
1117.306, 2458.128
1118.402, 2360.263
1119.498, 2309.655
1120.593, 2338.692
1121.689, 2202.559
1122.784, 2137.797
1123.879, 2258.178
1124.974, 2243.477
1126.069, 2038.389
1127.164, 1918.590
1128.259, 2109.939
1129.353, 2137.125
1130.447, 2116.549
1131.541, 2204.954
1132.635, 2177.594
1133.729, 2244.473
1134.822, 2318.488
1135.916, 2371.896
1137.009, 2605.957
1138.102, 2710.683
1139.195, 2757.251
1140.288, 2688.836
1141.380, 2806.456
1142.473, 2729.092
1143.565, 2717.128
1144.657, 2681.497
1145.749, 2599.220
1146.841, 2528.227
1147.932, 2436.978
1149.024, 2335.742
1150.115, 2239.523
1151.206, 2017.317
1152.297, 1727.129
1153.388, 1499.955
1154.479, 1435.796
1155.569, 1294.261
1156.659, 1272.145
1157.750, 1063.042
1158.839, 980.9521
1159.929, 997.8809
1161.019, 764.3789
1162.108, 549.3398
1163.198, 597.1074
1164.287, 495.0928
1165.376, 423.0986
1166.465, 390.1191
1167.553, 419.1592
1168.642, 308.2129
1169.730, 467.2832
1170.818, 332.3643
1171.906, 311.4570
1172.994, 350.7227
1174.082, 293.8457
1175.170, 322.9805
1176.257, 368.1250
1177.344, 168.2803
1178.431, 326.4463
1179.518, 270.6221
1180.605, 196.8105
1181.691, 263.0078
1182.778, 117.2148
1183.864, 339.4404
1184.950, 278.6855
1186.036, 446.9404
1187.122, 198.2139
1188.207, 264.4941
1189.292, 310.7939
1190.378, 281.3018
1191.463, 295.4590
1192.548, 143.9453
1193.632, 197.3516
1194.717, 262.3154
1195.801, 117.6660
1196.886, 140.0254
1197.970, 255.7715
1199.054, 225.1475
1200.137, 55.53223
1201.221, 93.37793
1202.305, 142.7773
1203.388, 38.18262
1204.471, 135.5947
1205.554, 16.98828
1206.637, 50.43359
1207.719, 124.8604
1208.802, 1.707031
1209.884, 83.74316
1210.966, 123.1992
1212.048, 30.66113
1213.130, 57.22070
1214.212, 75.11426
1215.293, 83.33105
1216.374, 121.7793
1217.456, 28.53027
1218.536, 105.9893
1219.617, 2.500000
1220.698, 74.96680
1221.778, 9.559570
1222.859, 126.9111
1223.939, 23.61328
1225.019, 26.85645
1226.099, 151.3281
1227.178, 62.04785
1228.258, 33.40234
1229.337, 3.146484
1230.417, 38.30664
1231.496, 51.76074
1232.574, 81.24316
1233.653, 31.27148
1234.732, 12.43262
1235.810, 37.09180
1236.888, 14.36719
1237.966, 10.17285
1239.044, 40.71777
1240.122, 76.28320
1241.199, 51.88770
1242.277, 59.48242
1243.354, 48.85352
1244.431, 68.22461
1245.508, 94.42676
1246.585, 62.03223
1247.661, 66.16504
1248.738, 18.29492
1249.814, 107.8955
1250.890, 6.628906
1251.966, 22.62891
1253.042, 110.1152
1254.117, 118.0801
1255.193, 3.719727
1256.268, 152.3408
1257.343, 45.81738
1258.418, 23.01562
1259.493, 9.933594
1260.567, 59.13574
1261.642, 11.79785
1262.716, 120.2539
1263.790, 171.3027
1264.864, 5.652344
1265.938, 1.380859
1267.011, 24.59570
1268.085, 50.54883
1269.158, 19.71582
1270.231, 51.18359
1271.304, 57.86035
1272.377, 7.109375
1273.450, 21.16406
1274.522, 215.1338
1275.594, 122.0986
1276.666, 153.1621
1277.738, 216.1172
1278.810, 53.52930
1279.882, 43.60254
1280.953, 156.2080
1282.025, 252.2637
1283.096, 260.3838
1284.167, 55.56445
1285.238, 50.31152
1286.308, 40.17969
1287.379, 109.0410
1288.449, 143.8965
1289.519, 12.74414
1290.589, 219.5771
1291.659, 23.59473
1292.729, 229.1992
1293.798, 110.9863
1294.868, 175.7646
1295.937, 165.5342
1297.006, 168.6055
