##NAMES=Beryl
##RRUFFID=R050305
##IDEAL CHEMISTRY=Be_3_Al_2_Si_6_O_18_
##LOCALITY=Conselheiro Pena, Minas Gerais, Brazil
##OWNER=RRUFF
##SOURCE=Eugene Schlepp
##DESCRIPTION=Light blue fragment, variety aquamarine
##STATUS=The identification of this mineral has been confirmed by X-ray diffraction and chemical analysis
##URL=rruff.info/R050305
##MEASURED CHEMISTRY=(Be_0.91_Li_0.09_)_3_(Al_0.99_Fe^3+^_0.01_)_2_Si_6.00_O_18_Î‡Na_0.27_
##PIN_ID=L01620
##ORIENTATION=Laser parallel to a* (1 0 0). Fiducial mark perpendicular to laser is parallel to -c [0 0 -1]
100.8830, 0.0000000E+00
102.1160, 100.1367
103.3490, 14.24805
104.5820, 155.1494
105.8150, 317.0732
107.0470, 789.6670
108.2800, 1497.184
109.5120, 2054.490
110.7440, 1577.380
111.9760, 980.2568
113.2080, 880.0117
114.4400, 1276.770
115.6710, 1706.787
116.9030, 1632.454
118.1340, 1582.274
119.3650, 1605.848
120.5960, 1446.832
121.8270, 1505.959
123.0580, 1733.183
124.2880, 1789.437
125.5190, 1644.477
126.7490, 1471.052
127.9790, 1501.961
129.2090, 1615.039
130.4390, 1685.147
131.6680, 1724.553
132.8980, 1716.039
134.1270, 1797.700
135.3560, 1794.110
136.5850, 1806.197
137.8140, 1907.890
139.0430, 1823.306
140.2710, 1840.268
141.5000, 1711.924
142.7280, 1729.358
143.9560, 1694.072
145.1840, 1542.637
146.4120, 1571.823
147.6390, 1498.404
148.8670, 1347.969
150.0940, 1452.516
151.3210, 1492.052
152.5490, 1437.585
153.7750, 1444.123
155.0020, 1345.672
156.2290, 1279.235
157.4550, 1028.819
158.6810, 1055.426
159.9080, 1064.058
161.1340, 942.7148
162.3590, 1022.545
163.5850, 984.5010
164.8110, 1257.599
166.0360, 1155.168
167.2610, 1204.043
168.4860, 1125.092
169.7110, 1222.188
170.9360, 1158.250
172.1610, 1196.279
173.3850, 1116.278
174.6100, 1017.206
175.8340, 1165.950
177.0580, 1084.573
178.2820, 1084.120
179.5050, 1035.621
180.7290, 1251.098
181.9520, 1266.564
183.1760, 1138.599
184.3990, 1110.936
185.6220, 1037.427
186.8450, 1041.312
188.0670, 1114.545
189.2900, 1081.571
190.5120, 1056.473
191.7340, 1023.568
192.9560, 1006.607
194.1780, 1002.734
195.4000, 999.5684
196.6220, 976.4785
197.8430, 998.4619
199.0640, 1023.519
200.2860, 1046.645
201.5070, 1161.837
202.7270, 1123.095
203.9480, 1179.418
205.1690, 407.8018
206.3890, 403.2451
207.6090, 229.7480
208.8290, 93.30762
210.0490, 106.9248
211.2690, 76.59668
212.4890, 35.32227
213.7080, 125.0977
214.9280, 51.92578
216.1470, 113.8008
217.3660, 38.71777
218.5850, 295.6699
219.8030, 124.6562
221.0220, 121.6719
222.2400, 171.4639
223.4590, 65.10938
224.6770, 211.3428
225.8950, 320.8408
227.1120, 336.8809
228.3300, 158.9141
229.5480, 308.2764
230.7650, 254.9902
231.9820, 363.6670
233.1990, 331.2559
234.4160, 445.9746
235.6330, 573.2471
236.8490, 505.0400
238.0660, 374.7852
239.2820, 629.5547
240.4980, 503.3457
241.7140, 690.1562
242.9300, 867.9863
244.1460, 998.8359
245.3610, 1165.704
246.5770, 1163.592
247.7920, 1091.690
249.0070, 990.4570
250.2220, 1055.633
251.4370, 752.9209
252.6510, 777.7451
253.8660, 346.0176
255.0800, 381.6699
256.2940, 199.6494
257.5080, 231.4160
258.7220, 206.2754
259.9360, 114.7402
261.1490, 167.1279
262.3630, 13.25488
263.5760, 108.4541
264.7890, 138.0352
266.0020, 101.5078
267.2150, 191.8770
268.4270, 76.17383
269.6400, 49.37988
270.8520, 134.5039
272.0640, 185.5693
273.2760, 229.5957
274.4880, 228.6016
275.7000, 86.58984
276.9120, 109.5371
278.1230, 9.549805
279.3340, 78.31152
280.5450, 62.14062
281.7560, 107.9395
282.9670, 92.71973
284.1780, 127.5176
285.3880, 0.7910160
286.5980, 217.0977
287.8090, 153.4355
289.0190, 405.7998
290.2290, 377.1846
291.4380, 404.5801
292.6480, 505.9854
293.8570, 518.3975
295.0670, 513.8164
296.2760, 630.2432
297.4850, 655.6758
298.6930, 656.1152
299.9020, 695.5742
301.1110, 706.0400
302.3190, 559.5127
303.5270, 641.9922
304.7350, 742.4766
305.9430, 569.9678
307.1510, 781.4658
308.3580, 552.9678
309.5660, 905.4736
310.7730, 863.0117
311.9800, 1241.556
313.1870, 1305.121
314.3940, 1682.726
315.6010, 1851.359
316.8070, 2427.992
318.0130, 2676.623
319.2200, 3406.255
320.4260, 4048.887
321.6310, 4424.521
322.8370, 5081.152
324.0430, 5301.806
325.2480, 5025.462
326.4540, 4101.123
327.6590, 3521.969
328.8640, 2838.552
330.0680, 2140.035
331.2730, 1654.480
332.4780, 1285.816
333.6820, 940.9629
334.8860, 653.1094
336.0900, 544.2051
337.2940, 376.2490
338.4980, 243.2695
339.7010, 191.6924
340.9050, 13.72754
342.1080, 5.235352
343.3110, 25.79590
344.5140, 22.22656
345.7170, 27.58398
346.9200, 32.30664
348.1220, 42.34961
349.3240, 40.18750
350.5270, 53.52832
351.7290, 22.50293
352.9310, 43.55957
354.1320, 38.38184
355.3340, 36.33984
356.5350, 84.28516
357.7370, 169.2588
358.9380, 89.72070
360.1390, 94.29785
361.3400, 97.65430
362.5400, 43.61035
363.7410, 44.56738
364.9410, 31.52344
366.1410, 42.52441
367.3410, 226.3857
368.5410, 25.71387
369.7410, 295.1602
370.9400, 18.02930
372.1400, 243.8818
373.3390, 244.7119
374.5380, 412.4854
375.7370, 362.2031
376.9360, 227.8867
378.1350, 337.5654
379.3330, 513.2178
380.5310, 753.8545
381.7300, 659.4873
382.9280, 1096.126
384.1260, 1163.697
385.3230, 1219.417
386.5210, 1600.069
387.7180, 1838.729
388.9160, 2256.392
390.1130, 2820.060
391.3100, 3349.732
392.5060, 3989.434
393.7030, 4883.159
394.9000, 5978.910
396.0960, 7147.676
397.2920, 8192.457
398.4880, 8704.254
399.6840, 9025.059
400.8800, 8423.877
402.0750, 7731.699
403.2710, 6668.531
404.4660, 5407.367
405.6610, 4315.209
406.8560, 3533.057
408.0510, 2783.434
409.2450, 2180.275
410.4400, 1735.896
411.6340, 1345.736
412.8280, 1467.508
414.0220, 1269.469
415.2160, 1104.213
416.4100, 959.1211
417.6030, 864.5645
418.7970, 798.9941
419.9900, 781.9277
421.1830, 708.6523
422.3760, 600.5352
423.5690, 700.7246
424.7610, 481.6699
425.9540, 499.2637
427.1460, 343.5684
428.3380, 442.4668
429.5300, 412.5312
430.7220, 428.7109
431.9140, 467.9336
433.1050, 499.8398
434.2970, 560.7461
435.4880, 572.6562
436.6790, 729.5684
437.8700, 859.4824
439.0610, 791.4004
440.2510, 1053.320
441.4420, 1171.242
442.6320, 1143.977
443.8220, 1171.902
445.0120, 1088.830
446.2020, 1188.760
447.3910, 1070.691
448.5810, 1100.625
449.7700, 716.5605
450.9600, 679.4980
452.1490, 575.4395
453.3370, 563.4375
454.5260, 434.1387
455.7150, 510.2188
456.9030, 550.1992
458.0910, 440.7480
459.2800, 515.6914
460.4670, 433.6387
461.6550, 332.5840
462.8430, 346.5312
464.0300, 194.4785
465.2180, 196.4258
466.4050, 261.5547
467.5920, 124.5020
468.7790, 286.1562
469.9650, 45.45312
471.1520, 190.4004
472.3380, 177.3477
473.5250, 79.29688
474.7110, 67.24805
475.8970, 72.69141
477.0820, 181.1562
478.2680, 128.1152
479.4540, 114.0781
480.6390, 163.0410
481.8240, 30.00781
483.0090, 95.97656
484.1940, 272.4824
485.3780, 109.9707
486.5630, 25.93164
487.7470, 287.7227
488.9320, 202.0742
490.1160, 201.1953
491.3000, 243.5938
492.4830, 207.9199
493.6670, 324.5410
494.8500, 346.5605
496.0340, 288.9180
497.2170, 280.3379
498.4000, 379.6113
499.5820, 259.3496
500.7650, 243.0781
501.9480, 250.0957
503.1300, 369.1582
504.3120, 426.1855
505.4940, 459.3887
506.6760, 516.6914
507.8580, 534.3711
509.0390, 540.3320
510.2210, 602.3770
511.4020, 567.2500
512.5830, 771.3086
513.7640, 794.4512
514.9450, 711.5195
516.1250, 794.5918
517.3060, 1150.670
518.4860, 1594.752
519.6660, 1129.844
520.8460, 1346.941
522.0260, 1159.053
523.2060, 1432.174
524.3850, 1228.305
525.5650, 1152.438
526.7440, 1489.576
527.9230, 1343.719
529.1020, 1446.865
530.2810, 1437.020
531.4590, 1356.182
532.6380, 1534.348
533.8160, 1402.520
534.9940, 1408.699
536.1720, 1298.889
537.3500, 1340.080
538.5270, 1129.281
539.7050, 1228.486
540.8820, 1159.693
542.0590, 994.9043
543.2360, 907.1191
544.4130, 740.3477
545.5900, 647.5762
546.7660, 504.8164
547.9430, 473.0977
549.1190, 568.3984
550.2950, 342.7422
551.4710, 358.1465
552.6470, 164.5957
553.8220, 348.1230
554.9980, 32.70312
556.1730, 49.30664
557.3480, 279.9883
558.5230, 42.72461
559.6980, 185.5332
560.8730, 138.3926
562.0470, 167.2734
563.2220, 151.1875
564.3960, 313.1191
565.5700, 76.10938
566.7440, 128.1387
567.9170, 215.2207
569.0910, 79.32617
570.2640, 309.4668
571.4380, 380.6113
572.6110, 266.7852
573.7840, 232.9629
574.9570, 417.1406
576.1290, 266.3223
577.3020, 237.5098
578.4740, 464.6973
579.6460, 200.8945
580.8180, 101.1289
581.9900, 224.3652
583.1620, 52.39648
584.3330, 162.8184
585.5040, 205.0391
586.6760, 57.26367
587.8470, 82.49219
589.0180, 24.72266
590.1880, 56.95312
591.3590, 97.18164
592.5290, 48.60938
593.7000, 104.3613
594.8700, 15.18750
596.0400, 89.02344
597.2090, 150.9082
598.3790, 111.8711
599.5490, 87.10352
600.7180, 38.08203
601.8870, 93.06055
603.0560, 94.05859
604.2250, 108.0840
605.3940, 100.8867
606.5620, 71.68750
607.7300, 71.34961
608.8990, 12.61523
610.0670, 3.541016
611.2350, 53.35352
612.4020, 83.42383
613.5700, 136.5605
614.7370, 351.5645
615.9050, 265.6367
617.0720, 340.7031
618.2390, 431.7832
619.4060, 305.8613
620.5720, 533.9473
621.7390, 347.0332
622.9050, 90.71680
624.0710, 151.7891
625.2370, 378.8809
626.4030, 219.9785
627.5690, 104.6816
628.7340, 1.218750
629.9000, 64.87305
631.0650, 50.96484
632.2300, 131.0527
633.3950, 166.1367
634.5600, 0.2167970
635.7240, 180.2930
636.8890, 136.3633
638.0530, 89.55273
639.2170, 169.4941
640.3810, 295.5645
641.5450, 289.8066
642.7080, 351.0664
643.8720, 301.4648
645.0350, 369.5879
646.1980, 436.7969
647.3610, 416.9141
648.5240, 491.0273
649.6870, 403.2129
650.8490, 402.3340
652.0120, 466.1055
653.1740, 327.2305
654.3360, 451.5742
655.4980, 518.6816
656.6600, 555.8750
657.8210, 750.2461
658.9830, 654.5918
660.1440, 791.5586
661.3050, 894.0762
662.4660, 1027.621
663.6270, 1049.039
664.7870, 1356.064
665.9480, 1467.076
667.1080, 1539.076
668.2680, 1900.066
669.4280, 2289.432
670.5880, 2745.869
671.7480, 3125.137
672.9070, 3714.379
674.0670, 4536.625
675.2260, 5664.730
676.3850, 6936.074
677.5440, 8637.314
678.7030, 10798.54
679.8610, 13746.40
681.0200, 17381.29
682.1780, 21022.14
683.3360, 25387.84
684.4940, 29128.16
685.6520, 31280.00
686.8090, 31402.02
687.9670, 28826.38
689.1240, 25521.07
690.2810, 20973.37
691.4380, 16549.92
692.5950, 13319.46
693.7520, 10472.84
694.9080, 7978.549
696.0650, 6758.783
697.2210, 5625.324
698.3770, 4697.154
699.5330, 3946.182
700.6880, 3391.729
701.8440, 3109.273
702.9990, 2472.578
704.1550, 2255.025
705.3100, 1883.152
706.4650, 1935.869
707.6190, 1444.809
708.7740, 1504.139
709.9290, 1463.980
711.0830, 1222.484
712.2370, 967.8691
713.3910, 943.4902
714.5450, 793.7520
715.6980, 807.8145
716.8520, 678.2656
718.0050, 756.2109
719.1580, 704.0586
720.3110, 645.7559
721.4640, 768.4629
722.6170, 623.9277
723.7700, 664.9082
724.9220, 821.2422
726.0740, 628.4863
727.2260, 544.9883
728.3780, 477.2227
729.5300, 469.2480
730.6810, 562.3906
731.8330, 525.3770
732.9840, 494.7969
734.1350, 452.5684
735.2860, 388.3086
736.4370, 337.0352
737.5880, 296.2559
738.7380, 378.6133
739.8880, 329.8516
741.0390, 339.5078
742.1890, 425.9824
743.3380, 165.7188
744.4880, 294.3281
745.6380, 232.4551
746.7870, 275.1504
747.9360, 216.7051
749.0850, 463.1211
750.2340, 469.4258
751.3830, 410.8672
752.5310, 255.9434
753.6800, 319.1484
754.8280, 359.3203
755.9760, 469.6289
757.1240, 455.7441
758.2720, 511.8770
759.4190, 408.5156
760.5670, 503.6992
761.7140, 488.6680
762.8610, 365.8242
764.0080, 398.7227
765.1550, 469.8223
766.3020, 514.6562
767.4480, 493.0781
768.5950, 540.8418
769.7410, 295.5703
770.8870, 410.2637
772.0330, 457.9219
773.1780, 253.1738
774.3240, 305.7617
775.4690, 455.3145
776.6140, 349.0645
777.7590, 287.5449
778.9040, 206.9883
780.0490, 201.1973
781.1940, 174.9473
782.3380, 219.0996
783.4820, 236.3965
784.6260, 253.6562
785.7700, 408.8789
786.9140, 224.0625
788.0580, 300.2148
789.2010, 126.3281
790.3450, 236.3984
791.4880, 183.4316
792.6310, 250.4258
793.7730, 214.3867
794.9160, 169.3066
796.0590, 172.1895
797.2010, 103.7559
798.3430, 69.55469
799.4850, 67.30273
800.6270, 153.0020
801.7690, 266.6621
802.9100, 240.1953
804.0520, 238.4902
805.1930, 237.4199
806.3340, 148.9316
807.4750, 138.4043
808.6160, 157.8379
809.7560, 159.2285
810.8970, 155.5801
812.0370, 76.39258
813.1770, 138.6582
814.3170, 148.8906
815.4570, 148.0762
816.5960, 259.2246
817.7360, 216.3320
818.8750, 222.9043
820.0140, 41.43945
821.1530, 124.4219
822.2920, 77.36328
823.4310, 71.74023
824.5690, 13.95312
825.7070, 4.242188
826.8460, 62.38477
827.9840, 19.35547
829.1220, 83.61133
830.2590, 50.26562
831.3970, 6.578125
832.5340, 111.3984
833.6710, 10.65039
834.8080, 11.36133
835.9450, 117.5547
837.0820, 219.9238
838.2190, 26.76562
839.3550, 9.550781
840.4910, 105.7227
841.6270, 22.11914
842.7630, 48.59180
843.8990, 96.84766
845.0350, 76.75586
846.1700, 98.54102
847.3060, 50.20312
848.4410, 173.9648
849.5760, 109.0957
850.7100, 38.19336
851.8450, 67.24414
852.9800, 123.2598
854.1140, 16.23633
855.2480, 96.83398
856.3820, 66.98633
857.5160, 60.76758
858.6500, 119.5137
859.7830, 5.240234
860.9170, 112.9121
862.0500, 18.55273
863.1830, 55.14844
864.3160, 81.71094
865.4480, 122.2363
866.5810, 84.73047
867.7130, 112.1934
868.8460, 101.4316
869.9780, 118.7676
871.1100, 75.44531
872.2410, 126.8359
873.3730, 103.2344
874.5050, 19.63281
875.6360, 23.99609
876.7670, 57.67578
877.8980, 88.10156
879.0290, 74.74414
880.1590, 109.2656
881.2900, 58.22852
882.4200, 53.75781
883.5500, 140.2871
884.6800, 38.44727
885.8100, 132.3457
886.9400, 198.1094
888.0690, 35.15039
889.1990, 118.5371
890.3280, 167.1992
891.4570, 57.16211
892.5860, 96.41211
893.7140, 49.03906
894.8430, 56.45703
895.9710, 46.92578
897.1000, 250.3711
898.2280, 49.20703
899.3560, 140.1621
900.4830, 22.50781
901.6110, 257.8320
902.7380, 145.1328
903.8660, 327.4141
904.9930, 225.6719
906.1200, 290.9102
907.2460, 299.1289
908.3730, 440.3262
909.5000, 433.8750
910.6260, 414.6660
911.7520, 454.8047
912.8780, 317.9512
914.0040, 266.0781
915.1290, 428.0605
916.2550, 272.0000
917.3800, 481.8125
918.5050, 502.7891
919.6300, 197.8203
920.7550, 320.8398
921.8800, 315.6895
923.0040, 477.7695
924.1290, 401.7402
925.2530, 470.0508
926.3770, 342.9824
927.5010, 211.6797
928.6250, 474.5879
929.7480, 334.3848
930.8720, 361.9805
931.9950, 30.42383
933.1180, 195.5234
934.2410, 148.8926
935.3640, 250.2129
936.4860, 231.6348
937.6090, 193.4238
938.7310, 358.2012
939.8530, 68.96680
940.9750, 144.7207
942.0970, 182.0742
943.2180, 168.3340
944.3400, 303.7422
945.4610, 161.1484
946.5820, 29.46680
947.7030, 25.02734
948.8240, 4.259766
949.9450, 134.5762
951.0650, 116.8809
952.1860, 144.5332
953.3060, 133.1270
954.4260, 135.3926
955.5460, 181.4844
956.6650, 114.5898
957.7850, 169.1562
958.9040, 118.5078
960.0230, 80.51172
961.1420, 10.14844
962.2610, 92.16016
963.3800, 164.9043
964.4990, 97.64062
965.6170, 103.4941
966.7350, 184.0117
967.8530, 9.974609
968.9710, 99.61523
970.0890, 22.95117
971.2070, 38.93359
972.3240, 177.6387
973.4410, 57.19141
974.5580, 102.9609
975.6750, 184.5684
976.7920, 142.4746
977.9090, 250.7773
979.0250, 250.8359
980.1410, 229.4824
981.2580, 568.5977
982.3740, 413.0293
983.4890, 445.5605
984.6050, 346.8926
985.7200, 531.4023
986.8360, 806.4727
987.9510, 559.9766
989.0660, 1007.963
990.1810, 834.0293
991.2950, 908.2559
992.4100, 1013.465
993.5240, 1358.090
994.6390, 1400.879
995.7530, 1618.252
996.8660, 1811.123
997.9800, 1936.453
999.0940, 2395.039
1000.207, 2535.816
1001.320, 2966.461
1002.433, 3178.264
1003.546, 3379.043
1004.659, 3734.920
1005.772, 3858.648
1006.884, 4270.617
1007.996, 4327.512
1009.108, 4506.859
1010.220, 4632.314
1011.332, 4490.342
1012.444, 4577.535
1013.555, 4295.477
1014.666, 4304.529
1015.777, 4054.873
1016.888, 3687.832
1017.999, 3568.215
1019.110, 3451.100
1020.220, 3181.646
1021.331, 2981.908
1022.441, 2802.332
1023.551, 2649.016
1024.661, 2424.256
1025.770, 2435.588
1026.880, 2309.102
1027.989, 2247.133
1029.098, 2341.547
1030.207, 2326.969
1031.316, 2116.592
1032.425, 2071.037
1033.533, 2293.727
1034.642, 2379.209
1035.750, 2486.945
1036.858, 2329.705
1037.966, 2441.488
1039.073, 2574.297
1040.181, 2717.133
1041.288, 2935.990
1042.396, 3135.875
1043.503, 3344.783
1044.610, 3642.713
1045.716, 3857.672
1046.823, 4485.658
1047.929, 4807.666
1049.036, 4950.699
1050.142, 5362.762
1051.248, 6316.852
1052.353, 6956.965
1053.459, 7604.107
1054.564, 8627.277
1055.670, 9676.471
1056.775, 10454.69
1057.880, 11626.94
1058.985, 13070.22
1060.089, 14127.52
1061.194, 15782.86
1062.298, 16946.23
1063.402, 18269.62
1064.506, 19088.05
1065.610, 19873.78
1066.713, 20044.28
1067.817, 20535.81
1068.920, 20402.39
1070.023, 20215.00
1071.126, 19808.64
1072.229, 19291.30
1073.332, 18407.00
1074.435, 17420.72
1075.537, 16544.48
1076.639, 15441.94
1077.741, 14356.08
1078.843, 13292.93
1079.945, 12231.31
1081.046, 11315.22
1082.148, 10111.16
1083.249, 9488.137
1084.350, 8961.145
1085.451, 8097.188
1086.551, 7750.264
1087.652, 6806.367
1088.752, 6284.527
1089.853, 6249.701
1090.953, 5759.916
1092.053, 5362.195
1093.152, 5148.844
1094.252, 4712.902
1095.351, 4628.348
1096.451, 4331.844
1097.550, 4224.408
1098.649, 3974.596
1099.748, 4023.270
1100.846, 3579.051
1101.945, 3742.926
1103.043, 3601.783
1104.141, 3376.180
1105.239, 3501.100
1106.337, 3260.062
1107.434, 3226.068
1108.532, 3108.148
1109.629, 3126.992
1110.726, 3141.184
1111.823, 2898.600
1112.920, 2861.889
1114.017, 3014.215
1115.113, 3078.596
1116.210, 2962.695
1117.306, 3022.141
1118.402, 2826.957
1119.498, 3045.473
1120.593, 3163.018
1121.689, 3090.602
1122.784, 2760.707
1123.879, 3043.221
1124.974, 2948.947
1126.069, 2734.707
1127.164, 2910.941
1128.259, 2635.770
1129.353, 2660.455
1130.447, 2616.664
1131.541, 2537.586
1132.635, 2556.539
1133.729, 2608.178
1134.822, 2649.188
1135.916, 2553.244
1137.009, 2495.898
1138.102, 2508.002
1139.195, 2370.898
1140.288, 2536.072
1141.380, 2457.162
1142.473, 2549.988
1143.565, 2527.918
1144.657, 2414.959
1145.749, 2458.822
1146.841, 2222.283
1147.932, 2151.363
1149.024, 2203.904
1150.115, 2121.088
1151.206, 1999.930
1152.297, 1991.623
1153.388, 1538.348
1154.479, 1582.107
1155.569, 1313.893
1156.659, 1335.568
1157.750, 1084.420
1158.839, 1163.295
1159.929, 884.2148
1161.019, 992.5547
1162.108, 581.5410
1163.198, 716.4102
1164.287, 522.4355
1165.376, 645.9297
1166.465, 200.0254
1167.553, 490.1445
1168.642, 397.2832
1169.730, 1116.445
1170.818, 342.2910
1171.906, 567.5293
1172.994, 292.7871
1174.082, 326.0684
1175.170, 309.3945
1176.257, 188.7422
1177.344, 210.1113
1178.431, 105.5020
1179.518, 235.9102
1180.605, 201.3379
1181.691, 394.0117
1182.778, 260.4766
1183.864, 372.9590
1184.950, 469.4609
1186.036, 314.9766
1187.122, 127.5117
1188.207, 278.0625
1189.292, 202.6328
1190.378, 309.2188
1191.463, 297.8203
1192.548, 336.3145
1193.632, 34.94727
1194.717, 105.5059
1195.801, 66.16992
1196.886, 142.8535
1197.970, 21.32227
1199.054, 133.0352
1200.137, 223.7637
1201.221, 104.5078
1202.305, 285.2637
1203.388, 36.14062
1204.471, 346.9238
1205.554, 391.7207
1206.637, 332.5293
1207.719, 300.3535
1208.802, 247.1074
1209.884, 241.2500
1210.966, 119.1504
1212.048, 162.0293
1213.130, 163.9199
1214.212, 245.9043
1215.293, 392.2891
1216.374, 104.2109
1217.456, 111.1504
1218.536, 2.103516
1219.617, 143.0645
1220.698, 295.0371
1221.778, 70.79102
1222.859, 433.7832
1223.939, 154.7891
1225.019, 49.80273
1226.099, 108.8281
1227.178, 318.9121
1228.258, 110.9531
1229.337, 202.1230
1230.417, 60.96094
1231.496, 1.908203
1232.574, 139.1504
1233.653, 181.2168
1234.732, 88.29102
1235.810, 296.3711
1236.888, 48.45703
1237.966, 490.6797
1239.044, 23.22070
1240.122, 37.09375
1241.199, 5.662109
1242.277, 265.4805
1243.354, 82.62500
1244.431, 36.76953
1245.508, 231.0820
1246.585, 48.06055
1247.661, 254.8730
1248.738, 195.0742
1249.814, 74.01953
1250.890, 193.9648
1251.966, 123.5352
1253.042, 60.35742
1254.117, 180.5039
1255.193, 31.36328
1256.268, 6.775391
1257.343, 61.07812
1258.418, 15.07031
1259.493, 25.23242
1260.567, 37.59180
1261.642, 49.35742
1262.716, 83.75781
1263.790, 118.2461
1264.864, 74.14453
1265.938, 25.86133
1267.011, 287.9102
1268.085, 7.216797
1269.158, 146.1562
1270.231, 28.19922
1271.304, 1.777344
1272.377, 33.10938
1273.450, 89.21680
1274.522, 182.2734
1275.594, 89.93359
1276.666, 66.80859
1277.738, 124.4785
1278.810, 64.94336
