##NAMES=Beryl
##RRUFFID=R060944
##IDEAL CHEMISTRY=Be_3_Al_2_Si_6_O_18_
##LOCALITY=Habachtal, Salzburg, Austria
##OWNER=RRUFF
##SOURCE=Lawrence W. Snee
##DESCRIPTION=Green hexagonal prisms in a muscovite schist, variety emerald. Note that there are micro inclusions of actinolite. The Raman signal is a mixture of the two phases.
##STATUS=The identification of this mineral has been confirmed by X-ray diffraction and chemical analysis
##URL=rruff.info/R060944
##MEASURED CHEMISTRY=Be_3.00_(Al_1.59_Mg_0.33_Fe^3+^_0.04_Cr^3+^_0.04_)_Σ=2_Si_6.00_O_18_·Na_0.33_ ; bright inclusions are actinolite
##PIN_ID=L01278
##ORIENTATION=Laser parallel to a* (1 0 0). Fiducial mark perpendicular to laser is parallel to c [0 0 1]
130.4390, 0.0000000E+00
131.6680, 328.7910
132.8980, 228.9238
134.1270, 140.2988
135.3560, 16.09570
136.5850, 48.33203
137.8140, 149.9609
139.0430, 306.0156
140.2710, 300.7715
141.5000, 251.7168
142.7280, 0.3964840
143.9560, 42.42969
145.1840, 49.49414
146.4120, 223.3340
147.6390, 204.7441
148.8670, 395.1113
150.0940, 259.9727
151.3210, 817.6211
152.5490, 1280.379
153.7750, 1663.102
155.0020, 2421.672
156.2290, 3111.012
157.4550, 3650.051
158.6810, 3898.734
159.9080, 3190.008
161.1340, 2618.832
162.3590, 2177.160
163.5850, 1723.961
164.8110, 1757.201
166.0360, 1672.887
167.2610, 1731.785
168.4860, 1738.307
169.7110, 2039.938
170.9360, 2525.672
172.1610, 3114.514
173.3850, 3679.455
174.6100, 4606.500
175.8340, 5516.648
177.0580, 6157.914
178.2820, 6150.303
179.5050, 5580.822
180.7290, 4497.506
181.9520, 3615.369
183.1760, 2878.412
184.3990, 2170.625
185.6220, 2064.000
186.8450, 1727.523
188.0670, 1534.191
189.2900, 1376.000
190.5120, 1161.934
191.7340, 1695.992
192.9560, 1704.166
194.1780, 1750.453
195.4000, 1529.846
196.6220, 1698.342
197.8430, 1735.936
199.0640, 1553.625
200.2860, 1524.404
201.5070, 1642.295
202.7270, 1580.043
203.9480, 1567.189
205.1690, 1191.869
206.3890, 1374.734
207.6090, 1431.605
208.8290, 1786.508
210.0490, 1987.451
211.2690, 2270.447
212.4890, 2788.500
213.7080, 3263.611
214.9280, 3892.785
216.1470, 4538.025
217.3660, 5371.336
218.5850, 6392.713
219.8030, 7158.160
221.0220, 7880.746
222.2400, 7754.570
223.4590, 7355.557
224.6770, 6487.633
225.8950, 5601.773
227.1120, 4856.225
228.3300, 4191.018
229.5480, 3826.211
230.7650, 3258.779
231.9820, 2665.586
233.1990, 2220.547
234.4160, 1692.539
235.6330, 1603.549
236.8490, 1358.576
238.0660, 1165.625
239.2820, 974.6895
240.4980, 904.7676
241.7140, 1077.855
242.9300, 1101.955
244.1460, 1009.068
245.3610, 1152.191
246.5770, 1136.330
247.7920, 1016.480
249.0070, 1167.639
250.2220, 830.8145
251.4370, 693.9980
252.6510, 634.1973
253.8660, 239.4102
255.0800, 191.6328
256.2940, 228.8652
257.5080, 375.1133
258.7220, 318.6016
259.9360, 318.6191
261.1490, 327.9180
262.3630, 233.2051
263.5760, 248.5039
264.7890, 273.8086
266.0020, 454.1270
267.2150, 562.4668
268.4270, 347.8320
269.6400, 322.2383
270.8520, 70.66797
272.0640, 51.89062
273.2760, 99.44531
274.4880, 388.9980
275.7000, 39.65039
276.9120, 273.9395
278.1230, 9.472656
279.3340, 48.39648
280.5450, 83.03320
281.7560, 52.92773
282.9670, 15.85352
284.1780, 176.9922
285.3880, 177.3164
286.5980, 190.8105
287.8090, 385.4590
289.0190, 390.2402
290.2290, 482.1582
291.4380, 513.3965
292.6480, 481.3457
293.8570, 517.5996
295.0670, 443.9512
296.2760, 433.3906
297.4850, 345.9141
298.6930, 545.5156
299.9020, 573.1914
301.1110, 583.9375
302.3190, 619.7520
303.5270, 319.6270
304.7350, 644.5605
305.9430, 438.5508
307.1510, 332.5957
308.3580, 438.6895
309.5660, 480.5723
310.7730, 629.7617
311.9800, 720.9375
313.1870, 758.7188
314.3940, 1001.988
315.6010, 1164.189
316.8070, 1417.553
318.0130, 1580.150
319.2200, 1809.568
320.4260, 2140.016
321.6310, 2161.137
322.8370, 2625.016
324.0430, 2505.938
325.2480, 2277.545
326.4540, 1809.227
327.6590, 1528.887
328.8640, 1464.246
330.0680, 1024.559
331.2730, 678.9805
332.4780, 644.4941
333.6820, 470.5801
334.8860, 278.1309
336.0900, 422.8398
337.2940, 576.5605
338.4980, 688.2930
339.7010, 651.0391
340.9050, 606.7949
342.1080, 618.5605
343.3110, 630.3379
344.5140, 719.1250
345.7170, 784.9180
346.9200, 777.7129
348.1220, 826.3340
349.3240, 783.8672
350.5270, 846.4043
351.7290, 816.4629
352.9310, 786.5137
354.1320, 776.0879
355.3340, 713.6738
356.5350, 688.2734
357.7370, 872.8848
358.9380, 855.5078
360.1390, 979.1426
361.3400, 1201.787
362.5400, 1143.443
363.7410, 1099.109
364.9410, 1340.787
366.1410, 1338.471
367.3410, 1573.166
368.5410, 1479.867
369.7410, 1374.574
370.9400, 1609.289
372.1400, 1243.008
373.3390, 1165.732
374.5380, 1265.459
375.7370, 1309.186
376.9360, 1376.910
378.1350, 1160.637
379.3330, 1327.357
380.5310, 1304.076
381.7300, 1638.795
382.9280, 1723.510
384.1260, 2377.225
385.3230, 2758.938
386.5210, 2842.648
387.7180, 3687.357
388.9160, 4359.064
390.1130, 5148.770
391.3100, 6239.473
392.5060, 7123.172
393.7030, 7944.869
394.9000, 8804.566
396.0960, 9589.258
397.2920, 9697.949
398.4880, 9439.641
399.6840, 8811.324
400.8800, 7471.041
402.0750, 6495.723
403.2710, 5244.402
404.4660, 4528.369
405.6610, 3891.041
406.8560, 3494.324
408.0510, 3132.990
409.2450, 3056.654
410.4400, 2871.443
411.6340, 2705.102
412.8280, 2496.754
414.0220, 2411.404
415.2160, 2409.051
416.4100, 2091.701
417.6030, 2052.838
418.7970, 1804.646
419.9900, 1627.584
421.1830, 1511.352
422.3760, 951.0059
423.5690, 1072.762
424.7610, 877.4375
425.9540, 858.1328
427.1460, 989.8379
428.3380, 760.5508
429.5300, 1057.270
430.7220, 950.9961
431.9140, 1019.727
433.1050, 1497.461
434.2970, 1073.199
435.4880, 1404.943
436.6790, 1290.689
437.8700, 1195.438
439.0610, 1174.188
440.2510, 1075.637
441.4420, 1117.689
442.6320, 869.4414
443.8220, 828.1914
445.0120, 564.9434
446.2020, 406.6973
447.3910, 371.4473
448.5810, 71.19727
449.7700, 123.9473
450.9600, 215.6934
452.1490, 47.55859
453.3370, 200.1426
454.5260, 81.16016
455.7150, 122.5254
456.9030, 16.01953
458.0910, 0.5507810
459.2800, 152.0625
460.4670, 12.56641
461.6550, 93.05664
462.8430, 125.5430
464.0300, 184.9766
465.2180, 132.4434
466.4050, 196.1777
467.5920, 63.04102
468.7790, 222.9648
469.9650, 238.0312
471.1520, 137.2480
472.3380, 215.8145
473.5250, 24.97852
474.7110, 218.4941
475.8970, 11.89258
477.0820, 4.259766
478.2680, 186.5996
479.4540, 136.9375
480.6390, 138.2715
481.8240, 122.5977
483.0090, 187.9219
484.1940, 150.2422
485.3780, 66.55469
486.5630, 396.8613
487.7470, 190.1660
488.9320, 327.4785
490.1160, 159.7715
491.3000, 366.0586
492.4830, 362.3438
493.6670, 110.6250
494.8500, 246.9004
496.0340, 281.1719
497.2170, 277.4395
498.4000, 343.7031
499.5820, 374.9609
500.7650, 403.0137
501.9480, 442.8438
503.1300, 454.7070
504.3120, 517.9473
505.4940, 513.0625
506.6760, 588.4121
507.8580, 648.6367
509.0390, 732.8574
510.2210, 887.0723
511.4020, 887.2832
512.5830, 1131.490
513.7640, 1107.691
514.9450, 1540.891
516.1250, 1649.082
517.3060, 1794.307
518.4860, 2063.531
519.6660, 2086.750
520.8460, 2125.709
522.0260, 1958.244
523.2060, 2022.500
524.3850, 1876.748
525.5650, 1766.031
526.7440, 1646.312
527.9230, 1541.584
529.1020, 1257.879
530.2810, 1033.166
531.4590, 1226.461
532.6380, 878.7754
533.8160, 759.0840
534.9940, 660.4141
536.1720, 495.9688
537.3500, 525.0723
538.5270, 305.4258
539.7050, 301.8047
540.8820, 175.1797
542.0590, 10.54883
543.2360, 123.9004
544.4130, 87.25977
545.5900, 26.37500
546.7660, 79.95508
547.9430, 31.72266
549.1190, 62.55664
550.2950, 174.8633
551.4710, 42.16016
552.6470, 318.5176
553.8220, 235.8691
554.9980, 314.2168
556.1730, 360.5625
557.3480, 486.8984
558.5230, 588.2520
559.6980, 740.6113
560.8730, 803.0410
562.0470, 911.4707
563.2220, 893.9395
564.3960, 696.4043
565.5700, 679.8652
566.7440, 723.3184
567.9170, 662.7656
569.0910, 870.2051
570.2640, 778.6387
571.4380, 803.0625
572.6110, 1045.479
573.7840, 943.8887
574.9570, 1014.299
576.1290, 781.6973
577.3020, 703.0898
578.4740, 690.4727
579.6460, 569.2090
580.8180, 703.2539
581.9900, 448.6445
583.1620, 467.0273
584.3330, 372.4316
585.5040, 502.8438
586.6760, 728.2480
587.8470, 480.6426
589.0180, 479.0781
590.1880, 369.5156
591.3590, 246.9844
592.5290, 279.5039
593.7000, 366.2773
594.8700, 316.7793
596.0400, 224.3613
597.2090, 263.3086
598.3790, 138.8262
599.5490, 245.4648
600.7180, 179.9668
601.8870, 131.2793
603.0560, 144.7910
604.2250, 89.29297
605.3940, 12.14062
606.5620, 196.2578
607.7300, 327.3516
608.8990, 299.7734
610.0670, 461.1406
611.2350, 145.5898
612.4020, 335.3535
613.5700, 281.1816
614.7370, 485.9141
615.9050, 382.5684
617.0720, 298.6641
618.2390, 279.3047
619.4060, 125.8047
620.5720, 154.3008
621.7390, 263.7969
622.9050, 114.2910
624.0710, 218.7812
625.2370, 73.27344
626.4030, 345.7637
627.5690, 130.2520
628.7340, 3.738281
629.9000, 267.2227
631.0650, 374.7031
632.2300, 261.1836
633.3950, 309.6641
634.5600, 524.1426
635.7240, 392.6152
636.8890, 381.0879
638.0530, 559.5586
639.2170, 832.0273
640.3810, 890.4941
641.5450, 943.9570
642.7080, 1253.420
643.8720, 1156.879
645.0350, 1224.338
646.1980, 1452.793
647.3610, 1791.244
648.5240, 1602.693
649.6870, 1980.139
650.8490, 1982.584
652.0120, 2405.326
653.1740, 2371.953
654.3360, 3022.387
655.4980, 3087.820
656.6600, 3666.289
657.8210, 4329.174
658.9830, 4840.598
660.1440, 5552.742
661.3050, 6651.160
662.4660, 7726.701
663.6270, 9587.107
664.7870, 11491.78
665.9480, 13438.32
667.1080, 16054.71
668.2680, 18569.84
669.4280, 21285.21
670.5880, 23596.69
671.7480, 24781.10
672.9070, 24433.46
674.0670, 23781.49
675.2260, 21849.83
676.3850, 20013.88
677.5440, 18916.40
678.7030, 18847.10
679.8610, 19615.42
681.0200, 21177.12
682.1780, 23440.39
683.3360, 26408.38
684.4940, 29175.72
685.6520, 31631.71
686.8090, 31439.97
687.9670, 29315.62
689.1240, 25839.18
690.2810, 21294.42
691.4380, 17471.43
692.5950, 13915.66
693.7520, 11260.72
694.9080, 9101.930
696.0650, 7833.131
697.2210, 6373.559
698.3770, 5481.389
699.5330, 4433.561
700.6880, 3923.721
701.8440, 3410.871
702.9990, 3170.008
704.1550, 2835.139
705.3100, 2621.256
706.4650, 2247.361
707.6190, 2159.459
708.7740, 1838.545
709.9290, 1768.617
711.0830, 1588.053
712.2370, 1340.734
713.3910, 1298.715
714.5450, 1135.746
715.6980, 999.7656
716.8520, 784.7734
718.0050, 733.9707
719.1580, 648.5566
720.3110, 522.7148
721.4640, 611.6777
722.6170, 680.5352
723.7700, 745.3301
724.9220, 756.0371
726.0740, 543.1758
727.2260, 653.9043
728.3780, 629.9883
729.5300, 361.4277
730.6810, 438.4629
731.8330, 389.3125
732.9840, 374.1738
734.1350, 453.0195
735.2860, 438.8809
736.4370, 414.1133
737.5880, 360.4824
738.7380, 354.3613
739.8880, 346.3242
741.0390, 362.2598
742.1890, 397.0996
743.3380, 496.9238
744.4880, 633.8633
745.6380, 642.7637
746.7870, 587.7109
747.9360, 621.6738
749.0850, 520.1660
750.2340, 557.5879
751.3830, 665.3438
752.5310, 557.5020
753.6800, 523.6484
754.8280, 459.8477
755.9760, 295.0410
757.1240, 495.2266
758.2720, 313.3984
759.4190, 441.5527
760.5670, 364.6934
761.7140, 409.8164
762.8610, 380.9238
764.0080, 540.0176
765.1550, 438.0957
766.3020, 437.1562
767.4480, 467.1875
768.5950, 379.2168
769.7410, 480.2324
770.8870, 395.3320
772.0330, 500.2168
773.1780, 275.1855
774.3240, 321.1387
775.4690, 243.0801
776.6140, 376.0039
777.7590, 183.9102
778.9040, 182.8027
780.0490, 445.6777
781.1940, 181.5391
782.3380, 262.3867
783.4820, 291.2168
784.6260, 151.0352
785.7700, 187.3047
786.9140, 267.6172
788.0580, 121.3887
789.2010, 57.14453
790.3450, 63.88086
791.4880, 237.5977
792.6310, 132.3027
793.7730, 107.0098
794.9160, 47.58398
796.0590, 459.1562
797.2010, 102.2852
798.3430, 186.1836
799.4850, 13.36523
800.6270, 84.04297
801.7690, 111.5664
802.9100, 62.73242
804.0520, 107.0117
805.1930, 55.72070
806.3340, 170.4785
807.4750, 1.666016
808.6160, 61.18555
809.7560, 190.8965
810.8970, 56.03711
812.0370, 253.9629
813.1770, 25.04883
814.3170, 49.10938
815.4570, 84.23438
816.5960, 102.5645
817.7360, 39.34961
818.8750, 127.1152
820.0140, 11.12500
821.1530, 17.40625
822.2920, 131.2715
823.4310, 165.9492
824.5690, 179.6152
825.7070, 70.71484
826.8460, 62.88672
827.9840, 224.5254
829.1220, 54.91406
830.2590, 16.34180
831.3970, 236.7441
832.5340, 68.13672
833.6710, 25.48633
834.8080, 17.84961
835.9450, 108.1660
837.0820, 130.4668
838.2190, 128.7578
839.3550, 148.5977
840.4910, 136.0176
841.6270, 139.5645
842.7630, 119.3008
843.8990, 146.1562
845.0350, 165.2715
846.1700, 124.4824
847.3060, 102.6855
848.4410, 44.87695
849.5760, 3.056641
850.7100, 126.2168
851.8450, 257.3652
852.9800, 139.5039
854.1140, 51.36523
855.2480, 141.7148
856.3820, 14.21094
857.5160, 158.8320
858.6500, 97.13477
859.7830, 49.17383
860.9170, 108.7461
862.0500, 43.65625
863.1830, 162.4414
864.3160, 25.64258
865.4480, 143.8750
866.5810, 202.1973
867.7130, 154.3555
868.8460, 284.9043
869.9780, 117.4453
871.1100, 136.9785
872.2410, 17.49609
873.3730, 116.9902
874.5050, 58.44141
875.6360, 82.13477
876.7670, 286.2344
877.8980, 16.59961
879.0290, 225.9570
880.1590, 21.68750
881.2900, 165.6465
882.4200, 139.9746
883.5500, 17.29688
884.6800, 158.3828
885.8100, 102.8457
886.9400, 34.06836
888.0690, 117.2871
889.1990, 169.4980
890.3280, 314.7051
891.4570, 178.9082
892.5860, 262.1055
893.7140, 449.3027
894.8430, 365.5000
895.9710, 533.7070
897.1000, 367.9141
898.2280, 623.1172
899.3560, 626.3223
900.4830, 410.5332
901.6110, 709.7402
902.7380, 641.9570
903.8660, 573.1738
904.9930, 565.3945
906.1200, 665.6074
907.2460, 705.8223
908.3730, 597.0332
909.5000, 777.2598
910.6260, 800.4805
911.7520, 997.7031
912.8780, 1039.922
914.0040, 929.1426
915.1290, 1332.361
916.2550, 1155.580
917.3800, 1434.799
918.5050, 1478.018
919.6300, 1509.238
920.7550, 1433.457
921.8800, 1907.678
923.0040, 1877.898
924.1290, 2139.123
925.2530, 2856.047
926.3770, 2691.047
927.5010, 2294.316
928.6250, 2695.545
929.7480, 2552.742
930.8720, 2347.518
931.9950, 2152.760
933.1180, 2067.277
934.2410, 1628.525
935.3640, 1566.648
936.4860, 1059.904
937.6090, 1111.893
938.7310, 1012.021
939.8530, 742.2988
940.9750, 885.8457
942.0970, 786.1348
943.2180, 729.3301
944.3400, 675.6016
945.4610, 797.9160
946.5820, 838.5625
947.7030, 705.8945
948.8240, 632.5391
949.9450, 526.7031
951.0650, 605.6953
952.1860, 531.0684
953.3060, 555.5332
954.4260, 534.6562
955.5460, 540.1777
956.6650, 472.5430
957.7850, 346.9785
958.9040, 322.4219
960.0230, 211.8809
961.1420, 275.0586
962.2610, 299.5430
963.3800, 232.1484
964.4990, 272.6562
965.6170, 283.3477
966.7350, 255.9824
967.8530, 282.2051
968.9710, 203.7949
970.0890, 262.7402
971.2070, 208.3496
972.3240, 144.9824
973.4410, 400.6309
974.5580, 344.2969
975.6750, 196.9805
976.7920, 306.6836
977.9090, 168.4043
979.0250, 263.1426
980.1410, 313.9023
981.2580, 402.6758
982.3740, 504.4707
983.4890, 592.0957
984.6050, 661.6602
985.7200, 753.0312
986.8360, 868.9023
987.9510, 847.7949
989.0660, 1102.510
990.1810, 1047.443
991.2950, 1156.611
992.4100, 1687.605
993.5240, 2380.717
994.6390, 1873.908
995.7530, 1984.984
996.8660, 1912.084
997.9800, 2490.404
999.0940, 2201.383
1000.207, 2556.014
1001.320, 2507.074
1002.433, 2647.326
1003.546, 2598.605
1004.659, 2792.912
1005.772, 2800.242
1006.884, 2603.314
1007.996, 2569.268
1009.108, 2674.734
1010.220, 2901.064
1011.332, 3154.604
1012.444, 2749.172
1013.555, 2988.768
1014.666, 2824.188
1015.777, 2839.881
1016.888, 2788.607
1017.999, 2871.359
1019.110, 3158.668
1020.220, 2933.477
1021.331, 3014.344
1022.441, 3070.254
1023.551, 2784.227
1024.661, 3107.246
1025.770, 3098.344
1026.880, 3218.639
1027.989, 2968.285
1029.098, 3083.680
1030.207, 2697.863
1031.316, 2906.109
1032.425, 2652.283
1033.533, 2542.467
1034.642, 2736.803
1035.750, 2567.746
1036.858, 2849.086
1037.966, 2650.914
1039.073, 2424.379
1040.181, 2978.873
1041.288, 3186.500
1042.396, 3173.805
1043.503, 3200.408
1044.610, 3748.047
1045.716, 4092.715
1046.823, 4518.414
1047.929, 5191.145
1049.036, 5727.910
1050.142, 6773.703
1051.248, 7694.527
1052.353, 8251.385
1053.459, 9320.271
1054.564, 10277.20
1055.670, 10794.15
1056.775, 11454.13
1057.880, 11288.15
1058.985, 11630.20
1060.089, 11222.29
1061.194, 11273.41
1062.298, 11383.55
1063.402, 11142.79
1064.506, 11585.05
1065.610, 11540.35
1066.713, 11602.74
1067.817, 11641.16
1068.920, 11363.64
1070.023, 10943.15
1071.126, 10566.74
1072.229, 10001.36
1073.332, 9506.010
1074.435, 8991.746
1075.537, 8259.508
1076.639, 7545.316
1077.741, 6901.184
1078.843, 6334.316
1079.945, 5776.047
1081.046, 5333.037
1082.148, 4992.078
1083.249, 4573.176
1084.350, 4068.340
1085.451, 3847.535
1086.551, 3618.768
1087.652, 3605.035
1088.752, 3436.352
1089.853, 3019.713
1090.953, 2632.105
1092.053, 2516.533
1093.152, 2719.992
1094.252, 2491.508
1095.351, 2434.061
1096.451, 2155.709
1097.550, 2266.389
1098.649, 2034.107
1099.748, 1859.859
1100.846, 1841.652
1101.945, 1855.529
1103.043, 1576.443
1104.141, 1612.008
1105.239, 1464.986
1106.337, 1436.000
1107.434, 1320.043
1108.532, 1572.117
1109.629, 1408.223
1110.726, 1483.357
1111.823, 1308.525
1112.920, 1238.723
1114.017, 1291.949
1115.113, 1475.205
1116.210, 1346.492
1117.306, 1305.820
1118.402, 1230.174
1119.498, 1494.561
1120.593, 1325.980
1121.689, 1459.449
1122.784, 1714.947
1123.879, 1412.883
1124.974, 1553.449
1126.069, 1673.164
1127.164, 1298.025
1128.259, 1684.727
1129.353, 1344.957
1130.447, 1239.762
1131.541, 1184.605
1132.635, 1133.820
1133.729, 1056.105
1134.822, 1104.840
1135.916, 945.8887
1137.009, 915.9629
1138.102, 911.4766
1139.195, 744.6152
1140.288, 656.8105
1141.380, 631.7949
1142.473, 422.0664
1143.565, 283.3652
1144.657, 381.6875
1145.749, 543.5234
1146.841, 335.9043
1147.932, 377.2246
1149.024, 236.6523
1150.115, 283.1016
1151.206, 260.6172
1152.297, 175.4824
1153.388, 124.9473
1154.479, 84.53125
1155.569, 34.82617
1156.659, 1.917969
1157.750, 61.86914
1158.839, 34.30078
1159.929, 117.3594
1161.019, 51.62695
1162.108, 185.0332
1163.198, 48.27930
1164.287, 79.53906
1165.376, 128.1621
1166.465, 97.71680
1167.553, 48.49609
1168.642, 25.74805
1169.730, 45.01367
1170.818, 183.7930
1171.906, 5.941406
1172.994, 98.10938
1174.082, 45.71484
1175.170, 105.5664
1176.257, 194.4336
1177.344, 124.6016
1178.431, 269.5020
1179.518, 244.4180
1180.605, 248.3496
1181.691, 272.2949
1182.778, 151.2559
1183.864, 378.3203
1184.950, 348.7598
1186.036, 124.0293
1187.122, 203.0469
1188.207, 397.0781
1189.292, 198.1191
1190.378, 352.4102
1191.463, 64.47852
1192.548, 63.56055
1193.632, 52.97852
1194.717, 112.0840
1195.801, 196.1992
1196.886, 312.7383
1197.970, 173.1172
1199.054, 283.2637
1200.137, 156.0527
1201.221, 278.2168
1202.305, 35.39062
1203.388, 80.57031
1204.471, 220.7812
1205.554, 245.0254
1206.637, 283.2285
1207.719, 266.8555
1208.802, 315.4941
1209.884, 289.5234
1210.966, 405.7520
1212.048, 585.9883
1213.130, 689.2324
1214.212, 740.0957
1215.293, 601.6074
1216.374, 584.8633
1217.456, 553.9668
1218.536, 488.0117
1219.617, 578.4414
1220.698, 719.7227
1221.778, 663.9941
1222.859, 689.1504
1223.939, 611.5469
1225.019, 580.8262
1226.099, 427.1074
1227.178, 326.3906
1228.258, 301.7676
1229.337, 608.7773
1230.417, 405.1621
1231.496, 300.3965
1232.574, 397.6797
1233.653, 11.07812
1234.732, 276.2852
1235.810, 212.9551
1236.888, 248.6191
1237.966, 171.9473
1239.044, 346.2422
1240.122, 305.5430
1241.199, 194.8066
1242.277, 119.0684
1243.354, 264.3262
1244.431, 141.6699
1245.508, 233.9199
1246.585, 102.9453
1247.661, 98.18750
1248.738, 139.4258
1249.814, 83.85938
1250.890, 52.23242
1251.966, 50.50586
1253.042, 67.27344
1254.117, 29.12500
1255.193, 8.707031
1256.268, 28.53125
1257.343, 56.71875
1258.418, 79.33008
1259.493, 127.7227
1260.567, 66.76953
1261.642, 25.19141
1262.716, 80.81445
1263.790, 151.8164
1264.864, 100.8086
1265.938, 124.7891
1267.011, 196.9512
1268.085, 182.8945
1269.158, 233.4141
1270.231, 40.14258
1271.304, 123.6367
1272.377, 223.8438
1273.450, 43.60156
1274.522, 127.6523
1275.594, 159.5312
1276.666, 11.39648
1277.738, 126.0156
1278.810, 223.7051
1279.882, 137.3516
1280.953, 56.06836
1282.025, 32.54883
1283.096, 81.08203
1284.167, 28.68945
1285.238, 0.6562500
1286.308, 119.9277
1287.379, 2.041016
1288.449, 67.10352
1289.519, 43.02344
1290.589, 106.5098
1291.659, 201.3965
1292.729, 53.87500
1293.798, 113.0371
1294.868, 34.07227
1295.937, 29.60352
