##NAMES=Beryl
##RRUFFID=R050347
##IDEAL CHEMISTRY=Be_3_Al_2_Si_6_O_18_
##LOCALITY=North Keystone, South Dakota, USA
##OWNER=RRUFF
##SOURCE=California Institute of Technology
##DESCRIPTION=Colorless fragment
##STATUS=The identification of this mineral has been confirmed by X-ray diffraction and chemical analysis
##URL=rruff.info/R050347
##MEASURED CHEMISTRY=(Be_0.96_Li_0.04_)_3_Al_2.00_(Si_0.99_Al_0.01_)_6_O_18_ Î‡0.17Na
##PIN_ID=L01036
##ORIENTATION=Laser parallel to a* (1 0 0). Fiducial mark perpendicular to laser is parallel to c [0 0 1]
120.5960, 0.0000000E+00
121.8270, 74.01953
123.0580, 3.037109
124.2880, 210.7568
125.5190, 35.62207
126.7490, 224.6436
127.9790, 340.9502
129.2090, 432.4053
130.4390, 676.6885
131.6680, 815.8027
132.8980, 1008.358
134.1270, 1271.320
135.3560, 1300.595
136.5850, 1516.092
137.8140, 1678.732
139.0430, 1962.682
140.2710, 1982.362
141.5000, 1894.709
142.7280, 1885.667
143.9560, 1832.051
145.1840, 1656.671
146.4120, 1534.391
147.6390, 1370.111
148.8670, 892.7832
150.0940, 755.3604
151.3210, 554.8223
152.5490, 552.1426
153.7750, 161.2949
155.0020, 120.3486
156.2290, 25.16992
157.4550, 16.74219
158.6810, 88.47168
159.9080, 52.20605
161.1340, 15.50391
162.3590, 9.344727
163.5850, 225.3115
164.8110, 230.4746
166.0360, 510.9033
167.2610, 482.6592
168.4860, 345.7930
169.7110, 498.3516
170.9360, 760.3809
172.1610, 485.9199
173.3850, 587.0000
174.6100, 729.6553
175.8340, 702.2676
177.0580, 743.3184
178.2820, 746.2139
179.5050, 911.8789
180.7290, 1062.301
181.9520, 1159.518
183.1760, 1246.126
184.3990, 1097.090
185.6220, 1328.434
186.8450, 1314.501
188.0670, 1296.307
189.2900, 1399.775
190.5120, 1341.937
191.7340, 1351.816
192.9560, 1349.537
194.1780, 1424.158
195.4000, 1558.146
196.6220, 1523.256
197.8430, 1573.695
199.0640, 1585.394
200.2860, 1718.982
201.5070, 1905.771
202.7270, 2014.825
203.9480, 1599.417
205.1690, 1134.064
206.3890, 777.7607
207.6090, 643.5039
208.8290, 556.2891
210.0490, 507.1104
211.2690, 479.9668
212.4890, 559.8545
213.7080, 503.7480
214.9280, 527.6309
216.1470, 538.5342
217.3660, 542.4551
218.5850, 432.3916
219.8030, 463.3389
221.0220, 444.2979
222.2400, 404.2656
223.4590, 532.2412
224.6770, 536.2236
225.8950, 505.2100
227.1120, 435.2031
228.3300, 522.1973
229.5480, 500.1885
230.7650, 365.6289
231.9820, 482.7295
233.1990, 522.0771
234.4160, 546.8359
235.6330, 615.0947
236.8490, 623.3955
238.0660, 640.7510
239.2820, 668.0605
240.4980, 655.7148
241.7140, 699.5459
242.9300, 816.2383
244.1460, 801.9326
245.3610, 921.2441
246.5770, 992.4834
247.7920, 1089.699
249.0070, 1076.891
250.2220, 1128.059
251.4370, 1107.202
252.6510, 1076.321
253.8660, 887.4170
255.0800, 604.4873
256.2940, 315.5361
257.5080, 97.55859
258.7220, 255.5576
259.9360, 14.05078
261.1490, 147.4863
262.3630, 119.5938
263.5760, 177.7324
264.7890, 178.9785
266.0020, 276.5117
267.2150, 222.3877
268.4270, 144.1885
269.6400, 183.9795
270.8520, 98.68652
272.0640, 30.39160
273.2760, 57.09961
274.4880, 9.165039
275.7000, 6.589844
276.9120, 193.6172
278.1230, 118.7959
279.3340, 153.9385
280.5450, 165.0459
281.7560, 145.1182
282.9670, 240.1523
284.1780, 326.1484
285.3880, 514.1084
286.5980, 541.9385
287.8090, 665.6982
289.0190, 894.4189
290.2290, 960.0957
291.4380, 1004.729
292.6480, 1185.318
293.8570, 1265.862
295.0670, 1154.361
296.2760, 1420.816
297.4850, 1214.227
298.6930, 1304.593
299.9020, 1341.916
301.1110, 1274.198
302.3190, 1263.943
303.5270, 1239.680
304.7350, 1173.710
305.9430, 1233.000
307.1510, 1317.218
308.3580, 1456.033
309.5660, 1782.914
310.7730, 2046.766
311.9800, 2487.576
313.1870, 2889.332
314.3940, 3486.049
315.6010, 4289.723
316.8070, 5096.355
318.0130, 6086.963
319.2200, 7160.540
320.4260, 8235.091
321.6310, 9134.626
322.8370, 9158.140
324.0430, 8454.635
325.2480, 6823.090
326.4540, 5033.502
327.6590, 3688.876
328.8640, 2715.214
330.0680, 1874.512
331.2730, 1241.090
332.4780, 940.3301
333.6820, 606.5166
334.8860, 568.6475
336.0900, 418.6963
337.2940, 419.5889
338.4980, 256.1670
339.7010, 142.3691
340.9050, 167.2881
342.1080, 129.0518
343.3110, 126.6709
344.5140, 69.21875
345.7170, 75.73828
346.9200, 150.2109
348.1220, 45.66113
349.3240, 34.09180
350.5270, 161.4990
351.7290, 301.0859
352.9310, 259.8457
354.1320, 169.8379
355.3340, 173.2705
356.5350, 239.6104
357.7370, 67.93555
358.9380, 92.24316
360.1390, 55.53223
361.3400, 181.7998
362.5400, 228.0527
363.7410, 245.2900
364.9410, 313.3525
366.1410, 154.7246
367.3410, 358.9219
368.5410, 427.1045
369.7410, 407.2764
370.9400, 584.4346
372.1400, 635.5820
373.3390, 628.7168
374.5380, 626.8389
375.7370, 710.8145
376.9360, 803.8887
378.1350, 995.9297
379.3330, 1320.944
380.5310, 1511.918
381.7300, 1626.873
382.9280, 2128.810
384.1260, 2435.729
385.3230, 2682.617
386.5210, 3216.484
387.7180, 3976.334
388.9160, 4757.170
390.1130, 6035.994
391.3100, 7103.810
392.5060, 8466.614
393.7030, 9730.410
394.9000, 10749.20
396.0960, 11259.98
397.2920, 11389.75
398.4880, 10487.50
399.6840, 9245.252
400.8800, 7609.723
402.0750, 6084.406
403.2710, 4911.615
404.4660, 3899.589
405.6610, 2996.622
406.8560, 2328.771
408.0510, 1790.896
409.2450, 1568.990
410.4400, 1433.016
411.6340, 1114.429
412.8280, 1051.741
414.0220, 1022.757
415.2160, 1000.908
416.4100, 1003.320
417.6030, 1051.062
418.7970, 1047.111
419.9900, 1090.987
421.1830, 1135.702
422.3760, 1063.791
423.5690, 899.0791
424.7610, 879.7891
425.9540, 627.9590
427.1460, 564.7754
428.3380, 480.9277
429.5300, 578.3115
430.7220, 503.6787
431.9140, 635.0293
433.1050, 597.3633
434.2970, 722.6826
435.4880, 835.9863
436.6790, 971.2754
437.8700, 1019.549
439.0610, 1323.808
440.2510, 1467.052
441.4420, 1743.279
442.6320, 2148.494
443.8220, 2278.921
445.0120, 2545.107
446.2020, 2663.045
447.3910, 2647.232
448.5810, 2417.694
449.7700, 2187.036
450.9600, 1688.397
452.1490, 1578.411
453.3370, 1291.438
454.5260, 1229.945
455.7150, 994.1465
456.9030, 675.2783
458.0910, 731.9072
459.2800, 517.4961
460.4670, 517.1465
461.6550, 466.2979
462.8430, 254.3975
464.0300, 443.2725
465.2180, 279.0850
466.4050, 356.0439
467.5920, 237.3799
468.7790, 276.8398
469.9650, 202.2461
471.1520, 288.8389
472.3380, 290.7314
473.5250, 116.6104
474.7110, 187.4727
475.8970, 292.3242
477.0820, 405.1602
478.2680, 304.9844
479.4540, 251.7949
480.6390, 309.5947
481.8240, 257.7979
483.0090, 193.2998
484.1940, 179.0107
485.3780, 201.4053
486.5630, 192.7842
487.7470, 176.4424
488.9320, 214.2236
490.1160, 201.8154
491.3000, 241.0801
492.4830, 248.0947
493.6670, 124.7949
494.8500, 181.5820
496.0340, 279.7881
497.2170, 149.5723
498.4000, 238.3887
499.5820, 210.4971
500.7650, 349.2988
501.9480, 362.4150
503.1300, 410.0391
504.3120, 485.9033
505.4940, 492.9590
506.6760, 488.0889
507.8580, 533.5010
509.0390, 573.2871
510.2210, 729.8096
511.4020, 785.4473
512.5830, 1025.079
513.7640, 1339.706
514.9450, 1324.328
516.1250, 1609.943
517.3060, 1953.554
518.4860, 1994.160
519.6660, 2309.760
520.8460, 2631.355
522.0260, 2824.995
523.2060, 3066.742
524.3850, 3301.114
525.5650, 3339.695
526.7440, 3412.274
527.9230, 3325.759
529.1020, 3203.417
530.2810, 3131.980
531.4590, 2908.543
532.6380, 2681.100
533.8160, 2476.652
534.9940, 2134.202
536.1720, 2064.748
537.3500, 1973.293
538.5270, 1567.836
539.7050, 1537.375
540.8820, 1172.923
542.0590, 1150.468
543.2360, 1084.014
544.4130, 799.5791
545.5900, 638.1416
546.7660, 666.7217
547.9430, 422.3027
549.1190, 460.9424
550.2950, 293.6768
551.4710, 279.4795
552.6470, 262.4033
553.8220, 210.4141
554.9980, 81.78320
556.1730, 178.7363
557.3480, 231.5645
558.5230, 242.6562
559.6980, 86.87012
560.8730, 146.6875
562.0470, 120.1357
563.2220, 90.03809
564.3960, 180.2314
565.5700, 48.80762
566.7440, 142.7637
567.9170, 294.9160
569.0910, 242.3135
570.2640, 240.7188
571.4380, 237.1475
572.6110, 269.6084
573.7840, 299.0879
574.9570, 286.6084
576.1290, 451.1484
577.3020, 479.6807
578.4740, 454.3184
579.6460, 321.7285
580.8180, 384.2432
581.9900, 345.7520
583.1620, 335.2539
584.3330, 84.75000
585.5040, 153.2451
586.6760, 7.267578
587.8470, 133.2070
589.0180, 64.67285
590.1880, 94.13770
591.3590, 200.3916
592.5290, 83.02930
593.7000, 146.7188
594.8700, 74.47559
596.0400, 16.26172
597.2090, 68.04980
598.3790, 43.88281
599.5490, 43.05762
600.7180, 91.63281
601.8870, 67.57520
603.0560, 66.55664
604.2250, 126.5830
605.3940, 77.68457
606.5620, 95.83887
607.7300, 53.03613
608.8990, 19.85352
610.0670, 29.66504
611.2350, 0.5253910
612.4020, 233.2705
613.5700, 250.0576
614.7370, 222.5186
615.9050, 572.2715
617.0720, 610.0322
618.2390, 741.7910
619.4060, 866.5469
620.5720, 888.2959
621.7390, 963.0361
622.9050, 1070.770
624.0710, 753.5010
625.2370, 540.2090
626.4030, 536.9316
627.5690, 364.6504
628.7340, 231.3604
629.9000, 379.0781
631.0650, 153.7930
632.2300, 160.5078
633.3950, 162.2256
634.5600, 49.74512
635.7240, 147.4463
636.8890, 156.1396
638.0530, 340.7490
639.2170, 218.4297
640.3810, 341.1016
641.5450, 304.7725
642.7080, 227.4395
643.8720, 234.1055
645.0350, 223.7637
646.1980, 266.4141
647.3610, 327.0547
648.5240, 377.6865
649.6870, 486.3125
650.8490, 317.9268
652.0120, 591.5303
653.1740, 544.1211
654.3360, 398.7021
655.4980, 723.2715
656.6600, 652.8291
657.8210, 714.4092
658.9830, 767.9443
660.1440, 1107.466
661.3050, 1634.977
662.4660, 1986.812
663.6270, 2775.299
664.7870, 1428.824
665.9480, 1675.743
667.1080, 1931.194
668.2680, 2501.631
669.4280, 3030.057
670.5880, 3571.885
671.7480, 4194.514
672.9070, 5391.087
674.0670, 6721.864
675.2260, 8670.437
676.3850, 11092.93
677.5440, 14370.58
678.7030, 18301.07
679.8610, 23248.75
681.0200, 30678.37
682.1780, 34842.67
683.3360, 40019.45
684.4940, 43157.90
685.6520, 43327.43
686.8090, 39129.83
687.9670, 32803.06
689.1240, 25988.47
690.2810, 19992.48
691.4380, 15469.65
692.5950, 12617.18
693.7520, 9506.838
694.9080, 7510.755
696.0650, 6254.127
697.2210, 5003.010
698.3770, 4232.919
699.5330, 3596.145
700.6880, 3219.318
701.8440, 2885.709
702.9990, 2460.804
704.1550, 2329.910
705.3100, 1948.074
706.4650, 1573.873
707.6190, 1565.766
708.7740, 1532.968
709.9290, 1213.903
711.0830, 1078.378
712.2370, 1042.559
713.3910, 944.4873
714.5450, 825.6182
715.6980, 843.3516
716.8520, 625.0781
718.0050, 621.8643
719.1580, 697.5156
720.3110, 386.2373
721.4640, 602.9678
722.6170, 602.5732
723.7700, 438.1885
724.9220, 537.7109
726.0740, 595.4434
727.2260, 406.9062
728.3780, 507.4355
729.5300, 458.8955
730.6810, 446.7637
731.8330, 467.2539
732.9840, 354.5273
734.1350, 239.2334
735.2860, 360.0986
736.4370, 224.3027
737.5880, 330.9727
738.7380, 283.1963
739.8880, 360.7686
741.0390, 434.0439
742.1890, 384.1240
743.3380, 246.3564
744.4880, 257.6133
745.6380, 168.6855
746.7870, 383.2539
747.9360, 424.4316
749.0850, 414.0020
750.2340, 385.2979
751.3830, 417.3281
752.5310, 364.1748
753.6800, 446.0791
754.8280, 487.9590
755.9760, 505.5498
757.1240, 633.9424
758.2720, 735.7490
759.4190, 809.5322
760.5670, 849.8809
761.7140, 886.8340
762.8610, 854.7344
764.0080, 918.4199
765.1550, 876.0811
766.3020, 909.7178
767.4480, 960.3301
768.5950, 949.9180
769.7410, 824.4805
770.8870, 856.0195
772.0330, 760.5332
773.1780, 737.6064
774.3240, 633.0625
775.4690, 656.5039
776.6140, 637.9219
777.7590, 542.3145
778.9040, 620.6826
780.0490, 503.0264
781.1940, 458.3457
782.3380, 379.6406
783.4820, 384.9111
784.6260, 345.8584
785.7700, 299.5898
786.9140, 308.5781
788.0580, 251.7510
789.2010, 210.8994
790.3450, 261.0244
791.4880, 299.1250
792.6310, 182.2012
793.7730, 185.2539
794.9160, 158.2822
796.0590, 168.2852
797.2010, 235.2646
798.3430, 400.2197
799.4850, 81.15234
800.6270, 232.0576
801.7690, 40.93945
802.9100, 65.78711
804.0520, 232.6074
805.1930, 198.4023
806.3340, 155.1768
807.4750, 64.92676
808.6160, 95.64844
809.7560, 104.3447
810.8970, 63.01758
812.0370, 95.46191
813.1770, 32.28223
814.3170, 66.92188
815.4570, 102.4814
816.5960, 9.185547
817.7360, 67.29688
818.8750, 35.75391
820.0140, 11.69434
821.1530, 91.67578
822.2920, 70.02148
823.4310, 99.34375
824.5690, 10.64062
825.7070, 57.10254
826.8460, 37.07910
827.9840, 70.77246
829.1220, 2.295898
830.2590, 0.6025390
831.3970, 121.3750
832.5340, 55.33301
833.6710, 22.73340
834.8080, 71.85645
835.9450, 33.06055
837.0820, 75.67676
838.2190, 13.39258
839.3550, 1.926758
840.4910, 16.28809
841.6270, 55.69824
842.7630, 21.82422
843.8990, 103.3164
845.0350, 6.210938
846.1700, 82.77930
847.3060, 108.4287
848.4410, 57.17285
849.5760, 149.9844
850.7100, 58.91113
851.8450, 79.09668
852.9800, 72.08594
854.1140, 49.05664
855.2480, 76.00781
856.3820, 46.94043
857.5160, 35.94434
858.6500, 56.75098
859.7830, 1.370117
860.9170, 65.48047
862.0500, 59.31250
863.1830, 48.13281
864.3160, 7.064453
865.4480, 37.28906
866.5810, 2.440430
867.7130, 38.19922
868.8460, 50.03516
869.9780, 50.28027
871.1100, 49.55566
872.2410, 47.12793
873.3730, 79.81445
874.5050, 34.50000
875.6360, 119.1611
876.7670, 15.16797
877.8980, 7.498047
879.0290, 176.1650
880.1590, 71.85645
881.2900, 31.55664
882.4200, 158.8184
883.5500, 28.19922
884.6800, 35.60547
885.8100, 3.958008
886.9400, 38.51172
888.0690, 59.05664
889.1990, 230.5898
890.3280, 49.11328
891.4570, 17.37109
892.5860, 33.87500
893.7140, 77.59668
894.8430, 85.06055
895.9710, 181.5156
897.1000, 64.96191
898.2280, 199.4023
899.3560, 65.83398
900.4830, 265.2588
901.6110, 205.6758
902.7380, 193.0869
903.8660, 338.4922
904.9930, 296.8906
906.1200, 327.2812
907.2460, 290.6680
908.3730, 443.0498
909.5000, 373.4268
910.6260, 333.7998
911.7520, 524.1680
912.8780, 468.5322
914.0040, 529.8906
915.1290, 623.2461
916.2550, 556.5977
917.3800, 553.9473
918.5050, 642.2930
919.6300, 687.6357
920.7550, 576.9746
921.8800, 421.3125
923.0040, 347.6465
924.1290, 402.9805
925.2530, 450.3125
926.3770, 393.6436
927.5010, 192.9727
928.6250, 243.3027
929.7480, 73.63086
930.8720, 181.9238
931.9950, 160.2529
933.1180, 294.5820
934.2410, 140.9102
935.3640, 238.9043
936.4860, 175.2363
937.6090, 232.5186
938.7310, 149.3955
939.8530, 38.73438
940.9750, 182.0762
942.0970, 86.43262
943.2180, 22.37402
944.3400, 129.5078
945.4610, 122.6865
946.5820, 146.6523
947.7030, 109.8145
948.8240, 3.952148
949.9450, 126.1035
951.0650, 97.66895
952.1860, 12.33496
953.3060, 44.62793
954.4260, 56.20996
955.5460, 174.6514
956.6650, 60.84082
957.7850, 92.95410
958.9040, 170.2949
960.0230, 48.59473
961.1420, 213.8076
962.2610, 168.4072
963.3800, 120.8438
964.4990, 8.089844
965.6170, 85.83594
966.7350, 121.2920
967.8530, 156.4893
968.9710, 252.1660
970.0890, 245.8105
971.2070, 232.9424
972.3240, 217.3057
973.4410, 340.3926
974.5580, 241.6416
975.6750, 67.04492
976.7920, 372.0342
977.9090, 318.7314
979.0250, 317.3271
980.1410, 641.6055
981.2580, 554.1416
982.3740, 616.1328
983.4890, 555.4102
984.6050, 543.9336
985.7200, 716.2490
986.8360, 759.9541
987.9510, 862.6611
989.0660, 932.3008
990.1810, 1170.071
991.2950, 1111.766
992.4100, 1205.443
993.5240, 1449.242
994.6390, 1765.820
995.7530, 2054.713
996.8660, 2242.635
997.9800, 2670.557
999.0940, 2869.141
1000.207, 3331.932
1001.320, 3791.283
1002.433, 4511.360
1003.546, 4958.627
1004.659, 5652.963
1005.772, 6261.432
1006.884, 7154.620
1007.996, 7703.854
1009.108, 8276.556
1010.220, 8632.838
1011.332, 8726.928
1012.444, 8449.252
1013.555, 8077.633
1014.666, 7456.051
1015.777, 6941.495
1016.888, 6241.053
1017.999, 5562.887
1019.110, 5259.374
1020.220, 4643.939
1021.331, 4391.562
1022.441, 3915.229
1023.551, 3754.968
1024.661, 3521.257
1025.770, 3170.861
1026.880, 3206.184
1027.989, 2985.096
1029.098, 2842.035
1030.207, 3009.002
1031.316, 2893.010
1032.425, 2824.043
1033.533, 2750.105
1034.642, 2698.209
1035.750, 2781.345
1036.858, 2836.510
1037.966, 2932.701
1039.073, 3198.923
1040.181, 3336.174
1041.288, 3583.453
1042.396, 3915.763
1043.503, 4095.102
1044.610, 4602.468
1045.716, 4865.865
1046.823, 5438.293
1047.929, 5781.748
1049.036, 6437.236
1050.142, 6991.752
1051.248, 7978.301
1052.353, 9244.880
1053.459, 10713.50
1054.564, 11737.15
1055.670, 13339.83
1056.775, 15259.54
1057.880, 17522.29
1058.985, 20121.07
1060.089, 22915.89
1061.194, 26610.74
1062.298, 28763.62
1063.402, 31674.53
1064.506, 34189.47
1065.610, 35971.44
1066.713, 36989.44
1067.817, 36757.47
1068.920, 36111.55
1070.023, 34908.83
1071.126, 33034.96
1072.229, 30866.20
1073.332, 28447.03
1074.435, 26169.52
1075.537, 23670.79
1076.639, 21633.26
1077.741, 19534.60
1078.843, 17485.98
1079.945, 15779.39
1081.046, 14660.83
1082.148, 13219.26
1083.249, 11860.57
1084.350, 10915.32
1085.451, 9887.913
1086.551, 8952.540
1087.652, 8173.749
1088.752, 7404.228
1089.853, 6776.533
1090.953, 6153.312
1092.053, 5643.124
1093.152, 5175.979
1094.252, 4804.998
1095.351, 4463.891
1096.451, 4267.852
1097.550, 3922.829
1098.649, 3783.928
1099.748, 3545.061
1100.846, 3331.228
1101.945, 3033.443
1103.043, 3006.724
1104.141, 2979.057
1105.239, 2736.423
1106.337, 2478.829
1107.434, 2451.277
1108.532, 2324.772
1109.629, 2274.326
1110.726, 2306.917
1111.823, 2155.540
1112.920, 2047.206
1114.017, 2067.935
1115.113, 1899.734
1116.210, 1708.589
1117.306, 1770.523
1118.402, 1879.512
1119.498, 1765.535
1120.593, 1649.586
1121.689, 1779.672
1122.784, 1638.791
1123.879, 1704.951
1124.974, 1728.150
1126.069, 1500.881
1127.164, 1483.146
1128.259, 1645.410
1129.353, 1534.738
1130.447, 1491.119
1131.541, 1501.400
1132.635, 1557.594
1133.729, 1669.662
1134.822, 1881.166
1135.916, 1727.715
1137.009, 1943.314
1138.102, 1912.014
1139.195, 2029.061
1140.288, 2049.758
1141.380, 2188.984
1142.473, 2099.918
1143.565, 2163.721
1144.657, 2184.551
1145.749, 2237.062
1146.841, 2083.506
1147.932, 1817.416
1149.024, 1914.645
1150.115, 1595.541
1151.206, 1387.592
1152.297, 1379.146
1153.388, 1270.350
1154.479, 1103.832
1155.569, 958.6172
1156.659, 1002.121
1157.750, 729.3633
1158.839, 640.7695
1159.929, 381.6641
1161.019, 343.9805
1162.108, 355.7227
1163.198, 264.1094
1164.287, 113.5234
1165.376, 214.5703
1166.465, 197.8242
1167.553, 123.3008
1168.642, 181.7988
1169.730, 237.3184
1170.818, 184.8555
1171.906, 91.41602
1172.994, 166.9941
1174.082, 182.6113
1175.170, 41.25000
1176.257, 62.91211
1177.344, 67.59180
1178.431, 160.2930
1179.518, 126.0078
1180.605, 117.8711
1181.691, 240.6797
1182.778, 82.45312
1183.864, 206.5176
1184.950, 320.6797
1186.036, 115.5059
1187.122, 242.3457
1188.207, 216.2051
1189.292, 200.4160
1190.378, 79.35742
1191.463, 171.2637
1192.548, 169.1855
1193.632, 155.0703
1194.717, 113.0723
1195.801, 119.0410
1196.886, 168.0215
1197.970, 39.01758
1199.054, 109.0371
1200.137, 14.88477
1201.221, 58.16016
1202.305, 4.779297
1203.388, 35.44336
1204.471, 82.36523
1205.554, 201.1875
1206.637, 12.70508
1207.719, 191.4160
1208.802, 105.3242
1209.884, 113.4688
1210.966, 236.6230
1212.048, 16.78906
1213.130, 38.03320
1214.212, 153.1484
1215.293, 15.35352
1216.374, 105.5684
1217.456, 88.99609
1218.536, 63.03711
1219.617, 48.28906
1220.698, 60.54883
1221.778, 69.82031
1222.859, 58.09766
1223.939, 112.3867
1225.019, 281.6875
1226.099, 293.9941
1227.178, 177.3105
1228.258, 279.6406
1229.337, 217.9785
1230.417, 258.1035
1231.496, 282.6758
1232.574, 356.8008
1233.653, 491.1680
1234.732, 566.5410
1235.810, 504.9180
1236.888, 475.4297
1237.966, 525.8145
1239.044, 687.5996
1240.122, 386.0039
1241.199, 438.4863
1242.277, 262.8906
1243.354, 349.3828
1244.431, 397.7949
1245.508, 200.2090
1246.585, 143.6289
1247.661, 157.0469
1248.738, 213.4668
1249.814, 91.88867
1250.890, 48.30859
1251.966, 18.19922
1253.042, 82.43359
1254.117, 113.6797
1255.193, 85.88281
1256.268, 148.5117
1257.343, 39.09375
1258.418, 105.2832
1259.493, 89.34180
1260.567, 70.01367
1261.642, 11.72266
1262.716, 63.06055
1263.790, 46.18359
1264.864, 91.42578
1265.938, 9.662109
1267.011, 14.10547
1268.085, 69.89062
1269.158, 17.28125
1270.231, 0.5507810
1271.304, 95.16406
1272.377, 36.22656
1273.450, 217.3184
1274.522, 19.59570
1275.594, 1.464844
1276.666, 178.7070
1277.738, 74.25000
1278.810, 2.257813
1279.882, 42.04102
1280.953, 74.89648
1282.025, 51.98438
1283.096, 148.4922
1284.167, 72.39258
1285.238, 66.62891
1286.308, 35.55078
1287.379, 17.85156
1288.449, 34.72461
1289.519, 60.53320
1290.589, 14.19531
1291.659, 166.8652
1292.729, 60.66992
1293.798, 14.78906
1294.868, 16.80078
1295.937, 172.2930
1297.006, 87.76562
