##NAMES=Beryl
##RRUFFID=R050120
##IDEAL CHEMISTRY=Be_3_Al_2_Si_6_O_18_
##LOCALITY=Cruziero mine, San Jose, Minas Gerais, Brazil
##OWNER=RRUFF
##SOURCE=Carlos and Paulo Vasconcelos
##DESCRIPTION=Yellow gemmy fragment
##STATUS=The identification of this mineral has been confirmed by X-ray diffraction and chemical analysis
##URL=rruff.info/R050120
##MEASURED CHEMISTRY=(Be_2.76_Li_0.24_)_Σ=3_Al_2.00_Si_6.00_O_18_·Na_0.24_
##PIN_ID=L00520
##ORIENTATION=Laser parallel to a* (1 0 0). Fiducial mark perpendicular to laser is parallel to c [0 0 1]
94.768, 0.000
96.161, 50.731
97.554, 3.053
98.947, 67.797
100.340, 80.756
101.732, 144.475
103.124, 198.835
104.516, 193.868
105.908, 344.182
107.300, 315.769
108.691, 587.879
110.082, 643.032
111.473, 859.874
112.864, 1119.982
114.254, 1468.031
115.644, 1523.854
117.034, 1599.561
118.424, 1587.475
119.813, 1454.130
121.203, 1276.813
122.592, 1043.469
123.981, 1202.364
125.369, 994.691
126.758, 982.817
128.146, 844.449
129.534, 1107.572
130.922, 944.168
132.309, 929.209
133.696, 723.670
135.083, 925.526
136.470, 662.756
137.857, 791.327
139.243, 679.209
140.630, 704.377
142.016, 533.813
143.401, 429.503
144.787, 453.434
146.172, 543.594
147.557, 512.976
148.942, 387.354
150.327, 442.130
151.711, 347.221
153.096, 394.150
154.480, 434.064
155.863, 465.062
157.247, 554.541
158.630, 542.877
160.013, 584.548
161.396, 499.392
162.779, 457.480
164.161, 482.911
165.544, 443.540
166.926, 394.302
168.308, 392.193
169.689, 230.217
171.070, 438.368
172.452, 523.651
173.833, 449.064
175.213, 469.609
176.594, 459.199
177.974, 393.023
179.354, 407.718
180.734, 376.405
182.114, 327.106
183.493, 356.839
184.872, 251.614
186.251, 304.439
187.630, 288.320
189.008, 263.263
190.387, 260.269
191.765, 147.343
193.143, 156.485
194.520, 81.697
195.898, 76.979
197.275, 82.333
198.652, 93.756
200.029, 156.251
201.405, 86.815
202.782, 19.551
204.158, 8.152
205.534, 124.925
206.909, 49.229
208.285, 35.315
209.660, 140.662
211.035, 118.290
212.410, 17.173
213.784, 152.982
215.159, 24.267
216.533, 17.581
217.907, 11.042
219.281, 85.607
220.654, 31.894
222.027, 55.487
223.400, 50.653
224.773, 188.301
226.146, 43.027
227.518, 108.929
228.891, 97.362
230.263, 118.332
231.634, 267.590
233.006, 200.531
234.377, 136.206
235.748, 223.194
237.119, 180.189
238.490, 296.217
239.860, 153.301
241.231, 303.467
242.601, 225.747
243.970, 262.104
245.340, 221.540
246.709, 168.130
248.079, 210.771
249.448, 107.506
250.816, 190.395
252.185, 121.400
253.553, 102.443
254.921, 245.508
256.289, 34.595
257.657, 163.702
259.024, 28.830
260.391, 139.679
261.758, 68.317
263.125, 203.493
264.492, 87.120
265.858, 154.095
267.224, 179.361
268.590, 97.881
269.956, 183.621
271.321, 138.557
272.687, 77.667
274.052, 127.937
275.416, 183.352
276.781, 139.897
278.146, 9.563
279.510, 53.343
280.874, 39.227
282.237, 57.417
283.601, 107.641
284.964, 152.438
286.327, 169.678
287.690, 196.994
289.053, 140.383
290.416, 434.835
291.778, 203.348
293.140, 468.919
294.502, 322.549
295.863, 406.230
297.225, 390.963
298.586, 377.747
299.947, 694.579
301.308, 590.457
302.668, 601.380
304.029, 836.346
305.389, 774.354
306.749, 983.402
308.108, 1179.490
309.468, 1117.617
310.827, 1491.780
312.186, 1682.981
313.545, 2252.213
314.903, 2797.479
316.262, 3269.930
317.620, 4333.688
318.978, 5377.947
320.336, 6586.240
321.693, 7725.539
323.051, 8720.869
324.408, 8555.233
325.765, 8137.877
327.121, 6318.295
328.478, 4996.741
329.834, 3642.206
331.190, 2707.703
332.546, 1753.223
333.902, 1439.766
335.257, 875.333
336.612, 615.927
337.967, 503.538
339.322, 281.170
340.677, 189.823
342.031, 81.497
343.385, 116.146
344.739, 35.860
346.093, 120.406
347.446, 16.658
348.799, 56.511
350.153, 17.541
351.505, 83.237
352.858, 16.313
354.210, 36.131
355.563, 43.551
356.915, 10.172
358.267, 5.280
359.618, 10.687
360.969, 14.787
362.321, 10.626
363.672, 46.026
365.022, 99.414
366.373, 138.899
367.723, 174.146
369.073, 138.095
370.423, 28.189
371.773, 54.265
373.122, 103.796
374.471, 165.937
375.821, 103.712
377.169, 412.694
378.518, 228.524
379.866, 323.561
381.215, 513.660
382.563, 361.838
383.910, 674.187
385.258, 850.757
386.605, 1287.769
387.952, 1399.103
389.299, 1784.172
390.646, 2368.400
391.992, 3297.465
393.339, 4139.578
394.685, 5061.812
396.031, 6478.673
397.376, 7587.704
398.722, 8699.965
400.067, 8730.263
401.412, 7954.541
402.757, 7104.591
404.101, 5556.942
405.446, 4123.371
406.790, 3125.430
408.134, 2525.762
409.478, 1984.822
410.821, 1498.884
412.165, 1114.944
413.508, 880.016
414.851, 936.065
416.193, 620.122
417.536, 527.179
418.878, 475.231
420.220, 406.282
421.562, 165.332
422.904, 167.404
424.245, 240.493
425.586, 127.599
426.927, 339.719
428.268, 119.850
429.609, 116.991
430.949, 205.143
432.289, 136.381
433.629, 507.467
434.969, 273.638
436.309, 236.815
437.648, 469.996
438.987, 371.181
440.326, 252.369
441.665, 357.561
443.003, 553.775
444.342, 609.990
445.680, 485.249
447.018, 488.525
448.355, 430.807
449.693, 365.088
451.030, 446.367
452.367, 543.678
453.704, 379.986
455.041, 463.301
456.377, 396.615
457.713, 399.926
459.049, 274.234
460.385, 386.541
461.721, 481.889
463.056, 369.229
464.391, 347.566
465.726, 462.900
467.061, 257.229
468.395, 176.551
469.730, 323.891
471.064, 161.238
472.398, 250.582
473.731, 83.918
475.065, 93.252
476.398, 51.578
477.731, 39.572
479.064, 110.254
480.397, 89.580
481.729, 109.900
483.062, 134.213
484.394, 174.516
485.725, 22.812
487.057, 91.090
488.389, 195.357
489.720, 32.617
491.051, 183.891
492.382, 149.154
493.712, 290.473
495.043, 127.779
496.373, 37.074
497.703, 213.352
499.032, 205.617
500.362, 212.873
501.691, 207.117
503.020, 44.350
504.349, 213.561
505.678, 204.768
507.007, 7.680
508.335, 82.490
509.663, 12.588
510.991, 101.059
512.319, 22.775
513.646, 180.342
514.973, 60.459
516.300, 148.559
517.627, 97.672
518.954, 0.311
520.280, 123.189
521.607, 17.461
522.933, 62.953
524.259, 69.049
525.584, 120.020
526.910, 87.908
528.235, 179.852
529.560, 163.779
530.885, 46.697
532.209, 93.307
533.534, 247.186
534.858, 141.062
536.182, 147.924
537.506, 61.789
538.829, 197.631
540.152, 22.459
541.476, 249.250
542.799, 12.967
544.121, 42.762
545.444, 22.541
546.766, 5.100
548.088, 119.693
549.410, 7.732
550.732, 239.789
552.053, 20.705
553.375, 70.262
554.696, 0.092
556.017, 132.396
557.337, 107.686
558.658, 60.953
559.978, 115.809
561.298, 185.316
562.618, 195.574
563.938, 33.377
565.257, 166.291
566.576, 65.186
567.895, 300.049
569.214, 287.895
570.533, 203.721
571.851, 239.531
573.170, 467.326
574.488, 470.102
575.805, 446.857
577.123, 196.596
578.440, 312.314
579.758, 493.016
581.075, 199.699
582.391, 438.363
583.708, 386.008
585.024, 277.635
586.341, 317.246
587.657, 507.834
588.972, 369.406
590.288, 348.957
591.603, 292.490
592.918, 248.002
594.233, 347.492
595.548, 413.967
596.863, 219.420
598.177, 349.852
599.491, 432.264
600.805, 231.545
602.119, 182.918
603.432, 291.172
604.746, 272.035
606.059, 367.469
607.372, 303.771
608.685, 528.039
609.997, 306.410
611.309, 488.635
612.621, 477.490
613.933, 693.193
615.245, 797.350
616.557, 1002.488
617.868, 1088.602
619.179, 1025.061
620.490, 791.127
621.801, 1207.172
623.111, 849.189
624.421, 1037.188
625.731, 650.162
627.041, 894.000
628.351, 688.607
629.660, 531.510
630.970, 812.389
632.279, 701.035
633.588, 663.861
634.896, 467.463
636.205, 693.766
637.513, 380.611
638.821, 767.789
640.129, 841.498
641.437, 856.182
642.744, 777.840
644.051, 1013.250
645.358, 945.861
646.665, 1133.447
647.972, 993.641
649.278, 962.176
650.584, 903.279
651.890, 1351.766
653.196, 1082.230
654.502, 1306.660
655.807, 1058.070
657.113, 1268.457
658.418, 1465.814
659.722, 1347.150
661.027, 1548.504
662.331, 1655.619
663.636, 1956.730
664.940, 1680.656
666.244, 2278.555
667.547, 2355.135
668.851, 2867.326
670.154, 3214.215
671.457, 3714.760
672.760, 4713.293
674.062, 5438.449
675.365, 6656.512
676.667, 8521.406
677.969, 10735.693
679.271, 13928.445
680.572, 18119.748
681.874, 23876.191
683.175, 30536.127
684.476, 35860.949
685.777, 39435.859
687.077, 37897.758
688.378, 33584.473
689.678, 27160.240
690.978, 20752.066
692.278, 15336.863
693.577, 12514.645
694.877, 9348.588
696.176, 7758.312
697.475, 5978.828
698.774, 5173.506
700.072, 4301.879
701.371, 3343.988
702.669, 2801.625
703.967, 2643.928
705.265, 2637.479
706.562, 2078.854
707.860, 1572.371
709.157, 1887.809
710.454, 1313.078
711.751, 1381.707
713.047, 1057.137
714.344, 1245.320
715.640, 712.455
716.936, 836.594
718.232, 843.941
719.527, 612.977
720.823, 621.916
722.118, 632.209
723.413, 515.213
724.708, 461.471
726.002, 678.711
727.297, 326.932
728.591, 606.137
729.885, 661.326
731.179, 507.529
732.472, 303.684
733.766, 303.820
735.059, 350.939
736.352, 455.041
737.645, 250.129
738.937, 374.195
740.230, 146.430
741.522, 211.465
742.814, 388.486
744.106, 253.531
745.397, 285.521
746.689, 179.496
747.980, 278.453
749.271, 204.396
750.562, 248.320
751.853, 135.234
753.143, 289.131
754.433, 209.016
755.723, 27.115
757.013, 334.695
758.303, 108.004
759.592, 7.307
760.881, 39.346
762.170, 86.971
763.459, 228.584
764.748, 67.436
766.036, 169.088
767.325, 20.598
768.613, 51.078
769.901, 205.541
771.188, 75.992
772.476, 231.428
773.763, 125.146
775.050, 96.180
776.337, 88.490
777.624, 164.795
778.910, 120.084
780.196, 216.367
781.482, 43.363
782.768, 25.145
784.054, 113.027
785.339, 206.189
786.625, 21.346
787.910, 197.480
789.195, 66.395
790.479, 137.672
791.764, 37.732
793.048, 22.783
794.332, 253.822
795.616, 96.852
796.900, 85.875
798.183, 30.891
799.467, 39.902
800.750, 33.906
802.033, 103.096
803.316, 307.836
804.598, 216.240
805.880, 122.553
807.163, 133.340
808.445, 76.123
809.726, 64.904
811.008, 180.682
812.289, 107.803
813.570, 74.221
814.851, 60.984
816.132, 7.250
817.413, 56.500
818.693, 156.211
819.973, 89.064
821.253, 103.396
822.533, 126.221
823.813, 209.838
825.092, 56.529
826.371, 182.760
827.650, 132.641
828.929, 108.887
830.208, 204.414
831.486, 44.047
832.764, 97.549
834.042, 6.084
835.320, 193.621
836.598, 112.160
837.875, 27.703
839.152, 11.246
840.429, 430.789
841.706, 121.332
842.983, 212.881
844.259, 207.432
845.536, 81.984
846.812, 151.537
848.088, 167.094
849.363, 159.686
850.639, 193.322
851.914, 245.799
853.189, 184.381
854.464, 284.984
855.739, 228.730
857.013, 121.238
858.288, 298.896
859.562, 362.562
860.836, 419.250
862.110, 110.941
863.383, 425.664
864.656, 118.426
865.930, 297.211
867.203, 268.002
868.475, 244.801
869.748, 155.615
871.020, 221.482
872.292, 315.359
873.564, 212.311
874.836, 243.744
876.108, 144.262
877.379, 160.254
878.650, 168.254
879.922, 123.266
881.192, 208.285
882.463, 168.314
883.733, 0.646
885.004, 125.402
886.274, 188.459
887.544, 231.525
888.813, 77.602
890.083, 4.688
891.352, 300.787
892.621, 13.105
893.890, 190.012
895.159, 45.143
896.427, 1.717
897.695, 419.436
898.964, 173.600
900.232, 129.775
901.499, 163.967
902.767, 410.168
904.034, 38.385
905.301, 264.613
906.568, 374.893
907.835, 327.186
909.102, 102.600
910.368, 33.080
911.634, 382.346
912.900, 94.156
914.166, 302.393
915.432, 274.758
916.697, 28.850
917.962, 458.434
919.227, 235.857
920.492, 330.648
921.757, 135.586
923.021, 430.062
924.285, 435.559
925.550, 312.072
926.813, 82.260
928.077, 224.848
929.341, 279.492
930.604, 364.162
931.867, 235.881
933.130, 271.633
934.393, 474.516
935.655, 128.623
936.918, 397.463
938.180, 290.322
939.442, 76.412
940.703, 442.330
941.965, 192.303
943.226, 61.262
944.488, 205.154
945.749, 385.711
947.009, 247.732
948.270, 75.777
949.530, 239.854
950.791, 220.922
952.051, 201.039
953.311, 85.193
954.570, 344.742
955.830, 367.938
957.089, 282.568
958.348, 47.811
959.607, 226.074
960.866, 32.373
962.124, 147.697
963.383, 190.043
964.641, 55.414
965.899, 165.828
967.156, 133.268
968.414, 175.896
969.671, 208.529
970.928, 62.061
972.185, 240.863
973.442, 177.865
974.699, 276.467
975.955, 153.145
977.211, 58.559
978.468, 194.166
979.723, 109.855
980.979, 184.633
982.234, 457.436
983.490, 11.002
984.745, 265.850
986.000, 443.727
987.254, 241.631
988.509, 493.562
989.763, 412.520
991.017, 503.502
992.271, 488.512
993.525, 566.553
994.779, 596.621
996.032, 690.721
997.285, 988.844
998.538, 808.000
999.791, 1471.188
1001.044, 1354.418
1002.296, 1551.674
1003.548, 1446.990
1004.800, 1449.336
1006.052, 1633.705
1007.304, 1650.113
1008.555, 1735.605
1009.807, 1725.131
1011.058, 1814.682
1012.309, 1944.293
1013.559, 1760.936
1014.810, 1643.604
1016.060, 2003.338
1017.310, 2123.096
1018.560, 1621.900
1019.810, 1990.732
1021.060, 2193.605
1022.309, 1941.506
1023.558, 2218.434
1024.807, 1850.385
1026.056, 2327.365
1027.305, 2201.373
1028.553, 2574.402
1029.801, 2440.736
1031.049, 2411.830
1032.297, 2779.947
1033.545, 3042.084
1034.793, 2918.213
1036.040, 3206.398
1037.287, 3432.604
1038.534, 3622.832
1039.781, 4181.082
1041.027, 4172.662
1042.274, 4654.992
1043.520, 5138.264
1044.766, 5450.652
1046.012, 6149.074
1047.257, 6424.703
1048.503, 7814.268
1049.748, 8086.770
1050.993, 9381.570
1052.238, 10335.117
1053.483, 11468.156
1054.727, 12900.742
1055.971, 14464.289
1057.216, 16147.523
1058.459, 18191.176
1059.703, 20150.871
1060.947, 22390.080
1062.190, 24461.852
1063.433, 26087.984
1064.676, 27653.148
1065.919, 28328.490
1067.162, 29853.699
1068.404, 29030.787
1069.646, 28747.363
1070.888, 28854.670
1072.130, 27414.652
1073.372, 26330.023
1074.613, 25068.408
1075.855, 23069.561
1077.096, 21521.783
1078.337, 20316.822
1079.578, 18502.633
1080.818, 17212.984
1082.059, 15352.156
1083.299, 14231.504
1084.539, 12942.148
1085.779, 11756.977
1087.018, 10918.199
1088.258, 10080.434
1089.497, 9346.203
1090.736, 8479.457
1091.975, 7948.209
1093.213, 7500.539
1094.452, 7299.846
1095.690, 6642.441
1096.928, 6557.100
1098.166, 6264.896
1099.404, 6269.229
1100.642, 5668.564
1101.879, 5774.281
1103.116, 5502.629
1104.353, 5317.268
1105.590, 5204.326
1106.827, 5271.842
1108.063, 5024.293
1109.299, 5212.043
1110.536, 4983.529
1111.771, 4679.988
1113.007, 4676.965
1114.243, 4765.197
1115.478, 4326.156
1116.713, 4601.609
1117.948, 4477.664
1119.183, 3982.531
1120.418, 4330.008
1121.652, 4517.963
1122.886, 4404.047
1124.120, 4330.658
1125.354, 3842.314
1126.588, 3978.650
1127.821, 3604.348
1129.055, 4085.129
1130.288, 3812.068
1131.521, 3799.818
1132.753, 3343.633
1133.986, 3636.301
1135.218, 4094.479
1136.450, 3308.469
1137.682, 3726.033
1138.914, 3359.883
1140.146, 3565.885
1141.377, 3380.047
1142.609, 3319.551
1143.840, 3574.527
1145.071, 3330.621
1146.301, 3430.658
1147.532, 3197.279
1148.762, 2877.590
1149.992, 2743.498
1151.222, 2665.268
1152.452, 2735.461
1153.682, 2283.297
1154.911, 2335.479
1156.140, 1990.324
1157.369, 1668.561
1158.598, 1718.852
1159.827, 1719.840
1161.055, 1295.949
1162.284, 1281.230
1163.512, 1012.654
1164.740, 1029.299
1165.967, 454.607
1167.195, 873.105
1168.422, 723.283
1169.650, 909.027
1170.877, 599.834
1172.103, 520.498
1173.330, 554.152
1174.557, 556.256
1175.783, 631.953
1177.009, 0.404
1178.235, 418.389
1179.461, 273.260
1180.686, 140.871
1181.912, 492.479
1183.137, 350.027
1184.362, 127.789
1185.587, 222.842
1186.811, 265.266
1188.036, 23.959
1189.260, 270.258
1190.484, 81.635
1191.708, 321.154
1192.932, 121.623
1194.155, 63.873
1195.378, 97.135
1196.602, 187.152
1197.825, 57.791
1199.047, 369.006
1200.270, 17.871
1201.492, 532.402
1202.715, 144.457
1203.937, 201.107
1205.159, 221.285
1206.380, 202.227
1207.602, 236.488
1208.823, 191.359
1210.044, 80.242
1211.265, 81.389
1212.486, 48.352
1213.707, 5.166
1214.927, 129.967
1216.147, 20.725
1217.367, 95.449
1218.587, 247.102
1219.807, 93.652
1221.027, 97.193
1222.246, 70.477
1223.465, 53.572
1224.684, 113.098
1225.903, 12.443
1227.121, 99.586
1228.340, 31.854
1229.558, 159.818
1230.776, 98.428
1231.994, 86.010
1233.212, 215.432
1234.429, 259.826
1235.646, 49.824
1236.864, 362.449
1238.081, 112.598
1239.297, 216.619
1240.514, 374.557
1241.730, 161.387
1242.947, 151.449
1244.163, 10.867
1245.378, 308.736
1246.594, 359.248
1247.810, 22.701
1249.025, 330.727
1250.240, 182.988
1251.455, 86.174
1252.670, 232.275
1253.885, 353.297
1255.099, 0.762
1256.313, 49.639
1257.527, 354.396
1258.741, 133.080
1259.955, 37.312
1261.168, 140.270
1262.382, 282.695
1263.595, 121.367
1264.808, 28.363
1266.021, 264.803
1267.233, 158.436
1268.446, 134.426
1269.658, 148.340
1270.870, 237.445
1272.082, 32.137
1273.294, 55.746
1274.505, 219.352
1275.716, 180.781
1276.928, 225.211
1278.139, 192.660
1279.349, 247.516
1280.560, 124.562
1281.770, 167.516
1282.981, 77.332
1284.191, 197.895
1285.401, 159.262
1286.610, 37.430
1287.820, 88.059
1289.029, 54.246
1290.239, 157.242
1291.448, 58.766
1292.656, 37.195
1293.865, 2.598
1295.073, 228.828
1296.282, 81.004
1297.490, 173.090
1298.698, 265.070
1299.906, 36.977
1301.113, 171.188
1302.320, 80.609
1303.528, 178.363
1304.735, 57.242
1305.942, 99.414
1307.148, 196.035
1308.355, 75.371
1309.561, 385.188
1310.767, 6.699
1311.973, 180.578
1313.179, 15.613
1314.384, 351.746
1315.590, 154.598
1316.795, 483.152
1318.000, 88.344
1319.205, 261.297
1320.410, 362.207
1321.614, 32.219
1322.819, 343.438
1324.023, 327.117
1325.227, 416.383
1326.431, 426.039
1327.634, 411.730
1328.838, 315.602
1330.041, 222.219
1331.244, 373.359
1332.447, 17.297
1333.650, 87.895
1334.852, 22.000
1336.055, 326.715
1337.257, 85.516
1338.459, 27.387
1339.661, 495.715
1340.862, 204.891
1342.064, 286.277
1343.265, 435.055
1344.466, 225.848
1345.667, 290.371
1346.868, 551.891
1348.068, 259.570
1349.269, 167.020
1350.469, 468.551
1351.669, 293.500
1352.869, 412.809
1354.069, 491.559
1355.268, 145.535
1356.468, 349.277
1357.667, 502.434
1358.866, 496.953
1360.065, 637.641
1361.263, 462.832
1362.462, 603.781
1363.660, 519.148
1364.858, 359.641
1366.056, 416.984
1367.254, 296.566
1368.451, 460.004
1369.649, 168.523
1370.846, 521.289
1372.043, 529.906
1373.240, 496.047
1374.436, 658.750
1375.633, 407.867
1376.829, 263.762
1378.025, 377.586
1379.221, 513.840
1380.417, 420.719
1381.613, 378.328
1382.808, 432.816
1384.003, 301.250
1385.199, 401.812
1386.393, 132.348
1387.588, 401.848
1388.783, 316.809
1389.977, 372.750
1391.171, 64.168
1392.365, 165.035
1393.559, 416.648
1394.753, 188.766
1395.946, 401.160
1397.140, 222.367
1398.333, 251.609
1399.526, 34.633
1400.719, 147.512
1401.911, 229.031
1403.104, 142.109
1404.296, 103.000
1405.488, 340.199
1406.680, 36.070
1407.872, 128.508
1409.063, 437.008
1410.255, 3.441
1411.446, 408.605
1412.637, 18.895
1413.828, 256.258
1415.018, 332.492
1416.209, 282.773
1417.399, 52.133
1418.589, 569.242
1419.779, 7.977
1420.969, 333.242
1422.159, 5.918
1423.348, 114.867
1424.537, 83.957
1425.726, 55.668
1426.915, 61.125
1428.104, 83.156
1429.293, 0.000
##END=



