##NAMES=Beryl
##RRUFFID=R050368
##IDEAL CHEMISTRY=Be_3_Al_2_Si_6_O_18_
##LOCALITY=Wah Wah Mountains, Utah, USA
##OWNER=RRUFF
##SOURCE=Eugene Schlepp
##DESCRIPTION=Red-violet hexagonal prism
##STATUS=The identification of this mineral has been confirmed by X-ray diffraction and chemical analysis
##URL=rruff.info/R050368
##MEASURED CHEMISTRY=(Be_0.99_Li_0.01_)_3_(Al_0.95_Fe^3+^_0.05_)_2_Si_6.00_O_18_Î‡K_0.02_Na_0.01_
##PIN_ID=L01802
##ORIENTATION=Laser parallel to -c* (0 0 -1). Fiducial mark perpendicular to laser is parallel to b [0 1 0]
82.36700, 0.0000000E+00
83.60200, 5.593750
84.83700, 99.31201
86.07200, 179.1270
87.30800, 316.5469
88.54200, 487.2563
89.77700, 538.0215
91.01200, 889.1768
92.24600, 1193.873
93.48000, 1484.688
94.71400, 1067.027
95.94800, 922.7686
97.18200, 771.1709
98.41600, 763.7217
99.64900, 629.6826
100.8830, 778.7627
102.1160, 505.4502
103.3490, 610.8174
104.5820, 636.1045
105.8150, 894.4170
107.0470, 1470.830
108.2800, 2478.391
109.5120, 2922.134
110.7440, 1594.081
111.9760, 572.2432
113.2080, 318.6250
114.4400, 476.2305
115.6710, 686.0615
116.9030, 655.1152
118.1340, 470.7598
119.3650, 270.0605
120.5960, 228.1289
121.8270, 292.6387
123.0580, 437.5381
124.2880, 503.0488
125.5190, 380.0186
126.7490, 513.7402
127.9790, 247.1973
129.2090, 638.3447
130.4390, 477.8193
131.6680, 583.6270
132.8980, 579.7168
134.1270, 646.0781
135.3560, 809.6973
136.5850, 738.5566
137.8140, 1113.641
139.0430, 1201.934
140.2710, 1294.411
141.5000, 1337.065
142.7280, 1062.887
143.9560, 1046.870
145.1840, 946.0156
146.4120, 716.3184
147.6390, 536.7686
148.8670, 301.3623
150.0940, 82.09180
151.3210, 131.9512
152.5490, 237.1611
153.7750, 11.67773
155.0020, 7.427734
156.2290, 144.3438
157.4550, 111.0977
158.6810, 121.8857
159.9080, 211.7334
161.1340, 261.6211
162.3590, 17.53320
163.5850, 37.46094
164.8110, 206.6035
166.0360, 493.6689
167.2610, 478.7373
168.4860, 633.8105
169.7110, 603.8906
170.9360, 695.9248
172.1610, 731.1172
173.3850, 843.2080
174.6100, 840.3428
175.8340, 913.4873
177.0580, 1090.637
178.2820, 1213.790
179.5050, 1461.952
180.7290, 1772.124
181.9520, 2055.306
183.1760, 2138.500
184.3990, 2325.709
185.6220, 2478.930
186.8450, 2568.167
188.0670, 2428.419
189.2900, 2580.688
190.5120, 2642.974
191.7340, 2782.272
192.9560, 2917.551
194.1780, 2941.748
195.4000, 3096.788
196.6220, 3089.776
197.8430, 3047.781
199.0640, 2911.811
200.2860, 3044.861
201.5070, 3231.936
202.7270, 3222.031
203.9480, 2848.174
205.1690, 2245.439
206.3890, 1760.839
207.6090, 1785.265
208.8290, 1610.709
210.0490, 1575.168
211.2690, 1559.643
212.4890, 1511.132
213.7080, 1562.636
214.9280, 1540.155
216.1470, 1482.689
217.3660, 1609.238
218.5850, 1628.801
219.8030, 1681.378
221.0220, 1653.812
222.2400, 1680.406
223.4590, 1675.453
224.6770, 1787.448
225.8950, 1762.095
227.1120, 1697.521
228.3300, 1805.431
229.5480, 1719.713
230.7650, 1713.355
231.9820, 1567.154
233.1990, 1702.830
234.4160, 1793.303
235.6330, 1691.088
236.8490, 1807.133
238.0660, 1637.402
239.2820, 1544.863
240.4980, 1371.487
241.7140, 1352.254
242.9300, 1249.146
244.1460, 1072.151
245.3610, 1102.260
246.5770, 1199.463
247.7920, 1303.750
249.0070, 1225.094
250.2220, 1173.480
251.4370, 1373.911
252.6510, 1427.385
253.8660, 1415.901
255.0800, 1328.461
256.2940, 1305.062
257.5080, 1359.703
258.7220, 1795.383
259.9360, 2119.101
261.1490, 1777.856
262.3630, 1535.649
263.5760, 1553.477
264.7890, 1540.329
266.0020, 1635.118
267.2150, 1936.811
268.4270, 2195.240
269.6400, 2478.683
270.8520, 2805.167
272.0640, 2840.691
273.2760, 2663.253
274.4880, 2377.851
275.7000, 2314.483
276.9120, 2036.148
278.1230, 2057.845
279.3340, 2287.571
280.5450, 2201.326
281.7560, 2288.110
282.9670, 2248.919
284.1780, 2211.754
285.3880, 2133.323
286.5980, 2133.497
287.8090, 1893.404
289.0190, 1755.332
290.2290, 1654.283
291.4380, 1549.254
292.6480, 1473.244
293.8570, 1586.255
295.0670, 1567.283
296.2760, 1612.330
297.4850, 1749.396
298.6930, 1840.926
299.9020, 2083.235
301.1110, 2139.104
302.3190, 2363.156
303.5270, 2500.579
304.7350, 2767.533
305.9430, 3272.516
307.1510, 3445.079
308.3580, 4046.692
309.5660, 4749.718
310.7730, 5571.847
311.9800, 6540.429
313.1870, 7734.118
314.3940, 8739.261
315.6010, 9954.410
316.8070, 11149.56
318.0130, 12843.72
319.2200, 14450.88
320.4260, 15320.05
321.6310, 14083.23
322.8370, 11770.40
324.0430, 8905.487
325.2480, 6269.149
326.4540, 4301.432
327.6590, 3002.768
328.8640, 2170.248
330.0680, 1675.453
331.2730, 1287.752
332.4780, 1155.966
333.6820, 952.1816
334.8860, 839.4023
336.0900, 853.6270
337.2940, 772.8545
338.4980, 792.0859
339.7010, 618.3223
340.9050, 661.5625
342.1080, 596.8086
343.3110, 495.0596
344.5140, 587.3145
345.7170, 570.5752
346.9200, 357.8408
348.1220, 362.1104
349.3240, 461.3848
350.5270, 345.6641
351.7290, 300.9463
352.9310, 143.2324
354.1320, 262.5205
355.3340, 196.8125
356.5350, 96.10742
357.7370, 0.5957030
358.9380, 40.31348
360.1390, 87.84961
361.3400, 139.1094
362.5400, 131.6621
363.7410, 176.5361
364.9410, 213.4688
366.1410, 155.4893
367.3410, 203.7031
368.5410, 144.9434
369.7410, 217.4395
370.9400, 191.1289
372.1400, 173.0010
373.3390, 166.0527
374.5380, 74.19531
375.7370, 13.38672
376.9360, 72.39844
378.1350, 316.1973
379.3330, 503.8604
380.5310, 919.8232
381.7300, 1247.658
382.9280, 1708.506
384.1260, 2544.363
385.3230, 3410.230
386.5210, 4566.109
387.7180, 6049.997
388.9160, 7653.892
390.1130, 9898.798
391.3100, 12589.71
392.5060, 15093.63
393.7030, 17264.56
394.9000, 17712.50
396.0960, 16380.44
397.2920, 14245.40
398.4880, 11430.36
399.6840, 9187.327
400.8800, 7149.304
402.0750, 5782.291
403.2710, 4932.283
404.4660, 4104.285
405.6610, 3830.295
406.8560, 3491.451
408.0510, 3648.475
409.2450, 3661.506
410.4400, 3739.654
411.6340, 3895.341
412.8280, 4088.397
414.0220, 4317.625
415.2160, 4545.703
416.4100, 4650.788
417.6030, 4574.883
418.7970, 4525.987
419.9900, 4302.100
421.1830, 4049.223
422.3760, 3546.354
423.5690, 3291.493
424.7610, 2962.642
425.9540, 2814.798
427.1460, 2617.994
428.3380, 2321.139
429.5300, 2438.321
430.7220, 2463.513
431.9140, 2592.713
433.1050, 2987.920
434.2970, 3459.135
435.4880, 4069.360
436.6790, 4572.593
437.8700, 5382.833
439.0610, 6342.082
440.2510, 6917.338
441.4420, 7397.604
442.6320, 7023.875
443.8220, 6271.160
445.0120, 4912.451
446.2020, 3755.776
447.3910, 2793.148
448.5810, 2173.560
449.7700, 1681.045
450.9600, 1025.613
452.1490, 925.2344
453.3370, 608.8887
454.5260, 485.5840
455.7150, 284.3154
456.9030, 234.0635
458.0910, 293.8262
459.2800, 207.6006
460.4670, 167.3857
461.6550, 190.1826
462.8430, 138.9971
464.0300, 143.8242
465.2180, 77.65918
466.4050, 46.49902
467.5920, 39.68555
468.7790, 101.8926
469.9650, 86.15430
471.1520, 1.465820
472.3380, 56.21680
473.5250, 34.90723
474.7110, 111.6035
475.8970, 109.5029
477.0820, 277.0176
478.2680, 206.7373
479.4540, 322.4648
480.6390, 544.2012
481.8240, 470.9443
483.0090, 447.6953
484.1940, 648.4541
485.3780, 705.2217
486.5630, 697.9971
487.7470, 814.7793
488.9320, 815.5703
490.1160, 684.3691
491.3000, 610.1738
492.4830, 735.9883
493.6670, 636.8096
494.8500, 473.6396
496.0340, 533.4766
497.2170, 505.3223
498.4000, 582.1748
499.5820, 597.8926
500.7650, 610.2520
501.9480, 694.3301
503.1300, 707.6172
504.3120, 740.8945
505.4940, 753.6045
506.6760, 805.6846
507.8580, 918.4766
509.0390, 763.7969
510.2210, 768.2061
511.4020, 804.1895
512.5830, 928.8105
513.7640, 874.1143
514.9450, 883.5801
516.1250, 990.5078
517.3060, 1009.860
518.4860, 1051.850
519.6660, 1163.801
520.8460, 1369.770
522.0260, 1331.111
523.2060, 1458.498
524.3850, 1476.942
525.5650, 1452.413
526.7440, 1536.915
527.9230, 1450.459
529.1020, 1429.026
530.2810, 1271.643
531.4590, 1126.297
532.6380, 1010.003
533.8160, 830.7520
534.9940, 707.5400
536.1720, 638.4082
537.3500, 483.3105
538.5270, 464.2529
539.7050, 360.2480
540.8820, 256.2627
542.0590, 202.3105
543.2360, 239.3848
544.4130, 174.4766
545.5900, 151.5889
546.7660, 58.72168
547.9430, 14.12207
549.1190, 64.05078
550.2950, 30.25293
551.4710, 71.51953
552.6470, 50.27051
553.8220, 37.99316
554.9980, 16.72949
556.1730, 185.5674
557.3480, 120.8779
558.5230, 316.2041
559.6980, 416.5479
560.8730, 469.9062
562.0470, 569.2822
563.2220, 572.6738
564.3960, 582.0781
565.5700, 557.4990
566.7440, 721.9355
567.9170, 863.3867
569.0910, 971.6299
570.2640, 977.3281
571.4380, 1232.817
572.6110, 1615.320
573.7840, 1657.838
574.9570, 1895.365
576.1290, 2370.904
577.3020, 2611.455
578.4740, 2812.019
579.6460, 3156.593
580.8180, 3511.180
581.9900, 3746.776
583.1620, 4000.387
584.3330, 4316.005
585.5040, 4653.790
586.6760, 4820.731
587.8470, 5238.984
589.0180, 5727.172
590.1880, 6002.900
591.3590, 6665.398
592.5290, 6704.047
593.7000, 6929.682
594.8700, 6878.864
596.0400, 6796.070
597.2090, 6759.166
598.3790, 6447.108
599.5490, 6208.411
600.7180, 5978.707
601.8870, 5682.021
603.0560, 5405.127
604.2250, 5070.480
605.3940, 4748.237
606.5620, 4531.999
607.7300, 4305.242
608.8990, 4162.504
610.0670, 4003.674
611.2350, 3945.436
612.4020, 3896.122
613.5700, 3905.908
614.7370, 3900.605
615.9050, 3943.397
617.0720, 4116.193
618.2390, 4181.992
619.4060, 4067.795
620.5720, 4132.601
621.7390, 4047.410
622.9050, 3576.220
624.0710, 3052.034
625.2370, 2699.851
626.4030, 2150.670
627.5690, 1940.490
628.7340, 1436.312
629.9000, 1286.137
631.0650, 1110.962
632.2300, 1135.790
633.3950, 1146.618
634.5600, 924.4482
635.7240, 1124.278
636.8890, 1080.110
638.0530, 1160.942
639.2170, 1169.774
640.3810, 1256.607
641.5450, 1282.459
642.7080, 1347.356
643.8720, 1497.254
645.0350, 1455.222
646.1980, 1509.238
647.3610, 1512.725
648.5240, 1376.518
649.6870, 1384.008
650.8490, 1337.875
652.0120, 1267.971
653.1740, 1278.837
654.3360, 1235.752
655.4980, 1205.236
656.6600, 1286.386
657.8210, 1397.946
658.9830, 1604.342
660.1440, 1853.939
661.3050, 2129.125
662.4660, 2354.870
663.6270, 2855.586
664.7870, 3353.312
665.9480, 3791.552
667.1080, 4702.959
668.2680, 5509.549
669.4280, 6700.466
670.5880, 8000.785
671.7480, 9916.971
672.9070, 12694.70
674.0670, 15716.96
675.2260, 19743.20
676.3850, 24139.57
677.5440, 29590.39
678.7030, 35807.03
679.8610, 42487.24
681.0200, 47235.50
682.1780, 48881.91
683.3360, 46101.19
684.4940, 39790.23
685.6520, 32689.62
686.8090, 25662.56
687.9670, 19852.58
689.1240, 15548.69
690.2810, 12506.91
691.4380, 10271.67
692.5950, 8284.149
693.7520, 7093.785
694.9080, 6173.898
696.0650, 5035.201
697.2210, 4434.727
698.3770, 3840.447
699.5330, 3341.841
700.6880, 2813.651
701.8440, 2437.965
702.9990, 2268.271
704.1550, 1895.734
705.3100, 1760.458
706.4650, 1509.704
707.6190, 1193.652
708.7740, 1138.670
709.9290, 1079.573
711.0830, 937.6113
712.2370, 834.4307
713.3910, 531.2998
714.5450, 543.1084
715.6980, 427.8916
716.8520, 263.6514
718.0050, 403.3867
719.1580, 344.0977
720.3110, 294.7832
721.4640, 220.4443
722.6170, 157.5635
723.7700, 89.66211
724.9220, 57.27051
726.0740, 56.17578
727.2260, 22.44238
728.3780, 94.00879
729.5300, 73.66406
730.6810, 139.1045
731.8330, 42.62793
732.9840, 98.54004
734.1350, 82.33301
735.2860, 0.4072270
736.4370, 2.602539
737.5880, 32.59375
738.7380, 34.97363
739.8880, 35.01172
741.0390, 13.80469
742.1890, 34.86816
743.3380, 197.5176
744.4880, 206.1270
745.6380, 111.7070
746.7870, 9.276367
747.9360, 50.84961
749.0850, 139.4531
750.2340, 125.9980
751.3830, 217.9775
752.5310, 274.0117
753.6800, 334.4766
754.8280, 402.9131
755.9760, 409.3223
757.1240, 631.7012
758.2720, 846.0518
759.4190, 1229.374
760.5670, 1541.256
761.7140, 1941.930
762.8610, 2382.163
764.0080, 3026.368
765.1550, 3624.543
766.3020, 4207.691
767.4480, 4772.807
768.5950, 4951.895
769.7410, 4866.953
770.8870, 4481.980
772.0330, 3681.979
773.1780, 2991.947
774.3240, 2340.887
775.4690, 1850.934
776.6140, 1413.672
777.7590, 1088.520
778.9040, 894.3369
780.0490, 670.1221
781.1940, 473.8789
782.3380, 386.6035
783.4820, 309.2969
784.6260, 119.9570
785.7700, 69.60938
786.9140, 151.1699
788.0580, 38.27832
789.2010, 62.80371
790.3450, 21.58008
791.4880, 14.41992
792.6310, 22.29395
793.7730, 87.38281
794.9160, 69.45996
796.0590, 66.39844
797.2010, 69.43262
798.3430, 126.5645
799.4850, 55.82227
800.6270, 103.1699
801.7690, 8.366211
802.9100, 0.1533200
804.0520, 50.73535
805.1930, 44.59668
806.3340, 75.11719
807.4750, 33.92969
808.6160, 79.82324
809.7560, 56.81934
810.8970, 33.90527
812.0370, 193.0693
813.1770, 20.39648
814.3170, 43.79492
815.4570, 89.27539
816.5960, 61.13574
817.7360, 20.49512
818.8750, 8.802734
820.0140, 49.04590
821.1530, 74.24609
822.2920, 38.40527
823.4310, 15.52051
824.5690, 51.58301
825.7070, 6.317383
826.8460, 7.566406
827.9840, 35.52832
829.1220, 45.30762
830.2590, 133.1045
831.3970, 30.86328
832.5340, 201.5781
833.6710, 142.8555
834.8080, 90.89941
835.9450, 163.5020
837.0820, 58.06836
838.2190, 171.5938
839.3550, 167.0830
840.4910, 124.5361
841.6270, 55.95215
842.7630, 164.3271
843.8990, 295.6680
845.0350, 206.9746
846.1700, 317.2471
847.3060, 189.4873
848.4410, 441.6904
849.5760, 399.8633
850.7100, 327.0020
851.8450, 333.1094
852.9800, 334.1816
854.1140, 339.2236
855.2480, 346.3379
856.3820, 354.3867
857.5160, 338.1523
858.6500, 362.0654
859.7830, 308.9453
860.9170, 278.6396
862.0500, 220.1572
863.1830, 154.3398
864.3160, 220.5674
865.4480, 219.2334
866.5810, 128.1094
867.7130, 110.8086
868.8460, 204.4990
869.9780, 126.6182
871.1100, 166.6963
872.2410, 134.8594
873.3730, 128.1572
874.5050, 26.06934
875.6360, 98.96777
876.7670, 54.82715
877.8980, 162.8857
879.0290, 158.6787
880.1590, 259.0625
881.2900, 288.4268
882.4200, 255.5518
883.5500, 150.7666
884.6800, 142.6348
885.8100, 224.8516
886.9400, 221.0000
888.0690, 264.3701
889.1990, 203.7256
890.3280, 263.0879
891.4570, 271.4473
892.5860, 274.7832
893.7140, 353.1016
894.8430, 362.3027
895.9710, 482.6895
897.1000, 425.9600
898.2280, 526.2354
899.3560, 545.4932
900.4830, 525.7305
901.6110, 595.9463
902.7380, 746.1416
903.8660, 858.3164
904.9930, 1073.472
906.1200, 1245.605
907.2460, 1428.725
908.3730, 1571.285
909.5000, 1683.372
910.6260, 1779.961
911.7520, 1852.998
912.8780, 1849.014
914.0040, 1896.008
915.1290, 2092.980
916.2550, 2084.931
917.3800, 1956.862
918.5050, 2015.772
919.6300, 1784.660
920.7550, 1700.121
921.8800, 1554.324
923.0040, 1326.863
924.1290, 1217.765
925.2530, 1278.089
926.3770, 1125.383
927.5010, 989.6719
928.6250, 1011.433
929.7480, 855.5635
930.8720, 849.2988
931.9950, 859.1973
933.1180, 868.8770
934.2410, 673.9473
935.3640, 601.4355
936.4860, 519.9326
937.6090, 424.3984
938.7310, 369.3311
939.8530, 302.0967
940.9750, 260.0576
942.0970, 205.7969
943.2180, 176.5615
944.3400, 149.4395
945.4610, 80.75391
946.5820, 140.5059
947.7030, 125.2666
948.8240, 119.8682
949.9450, 51.00684
951.0650, 69.29688
952.1860, 105.9932
953.3060, 30.62012
954.4260, 41.07910
955.5460, 184.6377
956.6650, 252.4199
957.7850, 171.8262
958.9040, 224.6543
960.0230, 227.2559
961.1420, 281.8799
962.2610, 514.3623
963.3800, 412.1777
964.4990, 436.7207
965.6170, 434.7285
966.7350, 341.0713
967.8530, 399.0137
968.9710, 430.8301
970.0890, 483.2393
971.2070, 573.3730
972.3240, 705.0645
973.4410, 774.2324
974.5580, 867.9531
975.6750, 949.8643
976.7920, 1006.042
977.9090, 1031.184
979.0250, 1052.600
980.1410, 1109.294
981.2580, 1123.339
982.3740, 1218.594
983.4890, 1282.009
984.6050, 1363.424
985.7200, 1304.840
986.8360, 1426.255
987.9510, 1598.671
989.0660, 1766.087
990.1810, 1956.506
991.2950, 2093.924
992.4100, 2317.345
993.5240, 2530.956
994.6390, 2690.188
995.7530, 3026.613
996.8660, 3158.041
997.9800, 3441.244
999.0940, 3604.710
1000.207, 3789.209
1001.320, 3983.442
1002.433, 4028.689
1003.546, 4078.289
1004.659, 4002.997
1005.772, 3837.653
1006.884, 3752.328
1007.996, 3620.167
1009.108, 3383.463
1010.220, 3419.547
1011.332, 3138.185
1012.444, 3060.442
1013.555, 2709.125
1014.666, 2688.381
1015.777, 2549.475
1016.888, 2452.309
1017.999, 2326.405
1019.110, 2267.709
1020.220, 2281.236
1021.331, 2112.882
1022.441, 2027.965
1023.551, 1956.847
1024.661, 1750.770
1025.770, 1682.990
1026.880, 1698.017
1027.989, 1772.470
1029.098, 1610.298
1030.207, 1586.827
1031.316, 1560.257
1032.425, 1508.478
1033.533, 1465.848
1034.642, 1428.229
1035.750, 1483.542
1036.858, 1558.059
1037.966, 1335.666
1039.073, 1438.961
1040.181, 1297.423
1041.288, 1305.989
1042.396, 1377.859
1043.503, 1304.088
1044.610, 1202.295
1045.716, 1241.190
1046.823, 1187.094
1047.929, 1335.006
1049.036, 1517.929
1050.142, 1299.856
1051.248, 1344.795
1052.353, 1656.740
1053.459, 1797.695
1054.564, 1965.658
1055.670, 2109.657
1056.775, 2462.680
1057.880, 2767.736
1058.985, 2934.842
1060.089, 3415.964
1061.194, 3937.111
1062.298, 4320.286
1063.402, 4874.474
1064.506, 5188.706
1065.610, 5323.981
1066.713, 5388.295
1067.817, 5325.662
1068.920, 4879.066
1070.023, 4593.518
1071.126, 4301.990
1072.229, 3882.479
1073.332, 3576.001
1074.435, 3272.023
1075.537, 2928.105
1076.639, 2681.701
1077.741, 2500.340
1078.843, 2193.009
1079.945, 2199.707
1081.046, 2048.471
1082.148, 2053.260
1083.249, 1732.077
1084.350, 1715.938
1085.451, 1524.803
1086.551, 1488.688
1087.652, 1337.588
1088.752, 1261.493
1089.853, 1204.405
1090.953, 1113.325
1092.053, 1069.455
1093.152, 954.1895
1094.252, 949.1406
1095.351, 833.1035
1096.451, 717.0840
1097.550, 757.0693
1098.649, 665.0557
1099.748, 576.0488
1100.846, 526.0410
1101.945, 556.0352
1103.043, 524.0342
1104.141, 498.0322
1105.239, 466.0332
1106.337, 336.0371
1107.434, 391.0400
1108.532, 333.0459
1109.629, 293.0537
1110.726, 369.0625
1111.823, 424.0713
1112.920, 353.0762
1114.017, 373.0771
1115.113, 349.0762
1116.210, 319.0713
1117.306, 406.0635
1118.402, 449.0557
1119.498, 531.0439
1120.593, 343.0293
1121.689, 489.0098
1122.784, 359.9883
1123.879, 440.9678
1124.974, 448.9473
1126.069, 392.9199
1127.164, 446.8867
1128.259, 474.8486
1129.353, 418.8066
1130.447, 245.7637
1131.541, 298.7217
1132.635, 157.6738
1133.729, 146.6211
1134.822, 128.5693
1135.916, 62.51172
1137.009, 131.4541
1138.102, 101.5693
1139.195, 62.32031
1140.288, 94.24316
1141.380, 0.1650390
1142.473, 64.92383
1143.565, 18.96387
1144.657, 75.15527
1145.749, 22.32129
1146.841, 68.48926
1147.932, 113.7109
1149.024, 168.9619
1150.115, 22.30469
1151.206, 87.65723
1152.297, 238.8838
1153.388, 37.00488
1154.479, 128.9102
1155.569, 92.62109
1156.659, 69.75098
1157.750, 10.38672
1158.839, 20.72656
1159.929, 69.59180
1161.019, 9.603516
1162.108, 117.0674
1163.198, 12.60156
1164.287, 59.13672
1165.376, 60.77051
1166.465, 80.57812
1167.553, 36.20410
1168.642, 19.06348
1169.730, 97.81641
1170.818, 14.42090
1171.906, 41.55762
1172.994, 220.6025
1174.082, 130.1670
1175.170, 140.1328
1176.257, 312.9639
1177.344, 417.6416
1178.431, 409.4531
1179.518, 341.2246
1180.605, 343.6191
1181.691, 368.4658
1182.778, 504.7998
1183.864, 523.4541
1184.950, 544.9629
1186.036, 446.6279
1187.122, 551.3057
1188.207, 637.8008
1189.292, 842.0684
1190.378, 793.4141
1191.463, 895.9980
1192.548, 790.7178
1193.632, 912.2441
1194.717, 858.3643
1195.801, 948.0498
1196.886, 1018.572
1197.970, 981.6113
1199.054, 923.0479
1200.137, 851.6553
1201.221, 955.8730
1202.305, 1073.291
1203.388, 1067.252
1204.471, 1204.738
1205.554, 1387.305
1206.637, 1352.818
1207.719, 1264.365
1208.802, 1556.903
1209.884, 1550.471
1210.966, 1699.451
1212.048, 1733.042
1213.130, 2070.636
1214.212, 2200.123
1215.293, 2601.840
1216.374, 2952.517
1217.456, 3239.463
1218.536, 3504.262
1219.617, 3949.874
1220.698, 4475.915
1221.778, 4753.684
1222.859, 5166.802
1223.939, 5457.754
1225.019, 5709.240
1226.099, 5295.936
1227.178, 5407.812
1228.258, 5023.959
1229.337, 5033.365
1230.417, 4770.041
1231.496, 4679.486
1232.574, 4677.799
1233.653, 4773.459
1234.732, 5037.366
1235.810, 5126.747
1236.888, 5457.635
1237.966, 5737.681
1239.044, 5948.688
1240.122, 6351.773
1241.199, 6273.916
1242.277, 6250.973
1243.354, 5899.920
1244.431, 5423.415
1245.508, 4686.842
1246.585, 4170.938
1247.661, 3551.099
1248.738, 3104.198
1249.814, 2636.405
1250.890, 2382.693
1251.966, 1990.134
1253.042, 1674.540
1254.117, 1542.424
1255.193, 1336.002
1256.268, 1193.241
1257.343, 1216.883
1258.418, 1026.613
1259.493, 1037.538
1260.567, 1077.672
1261.642, 1141.465
1262.716, 1289.466
1263.790, 955.1699
