##NAMES=Beryl
##RRUFFID=R060944
##IDEAL CHEMISTRY=Be_3_Al_2_Si_6_O_18_
##LOCALITY=Habachtal, Salzburg, Austria
##OWNER=RRUFF
##SOURCE=Lawrence W. Snee
##DESCRIPTION=Green hexagonal prisms in a muscovite schist, variety emerald. Note that there are micro inclusions of actinolite. The Raman signal is a mixture of the two phases.
##STATUS=The identification of this mineral has been confirmed by X-ray diffraction and chemical analysis
##URL=rruff.info/R060944
##MEASURED CHEMISTRY=Be_3.00_(Al_1.59_Mg_0.33_Fe^3+^_0.04_Cr^3+^_0.04_)_Σ=2_Si_6.00_O_18_·Na_0.33_ ; bright inclusions are actinolite
##PIN_ID=L01950
##ORIENTATION=Laser parallel to c* (0 0 1). Fiducial mark perpendicular to laser is parallel to -b [0 -1 0]
130.4390, 0.0000000E+00
131.6680, 122.9961
132.8980, 144.2686
134.1270, 18.75000
135.3560, 97.19824
136.5850, 42.83008
137.8140, 257.8574
139.0430, 253.6074
140.2710, 263.8848
141.5000, 142.8564
142.7280, 84.81641
143.9560, 77.16992
145.1840, 12.43750
146.4120, 18.23145
147.6390, 521.2344
148.8670, 570.2764
150.0940, 909.3770
151.3210, 1462.271
152.5490, 2340.696
153.7750, 3636.451
155.0020, 5852.371
156.2290, 9250.330
157.4550, 11858.23
158.6810, 10439.00
159.9080, 7457.547
161.1340, 5153.821
162.3590, 4131.766
163.5850, 3543.328
164.8110, 3148.461
166.0360, 2775.498
167.2610, 2879.576
168.4860, 3144.054
169.7110, 3613.783
170.9360, 4716.624
172.1610, 6097.574
173.3850, 8605.636
174.6100, 12218.81
175.8340, 16092.10
177.0580, 18636.51
178.2820, 17247.06
179.5050, 13075.78
180.7290, 9189.672
181.9520, 6439.761
183.1760, 4826.043
184.3990, 3696.518
185.6220, 3209.180
186.8450, 2818.023
188.0670, 2687.041
189.2900, 2490.227
190.5120, 2614.566
191.7340, 2288.053
192.9560, 2092.676
194.1780, 1818.430
195.4000, 1636.307
196.6220, 1418.299
197.8430, 1551.400
199.0640, 1441.604
200.2860, 1616.906
201.5070, 1855.139
202.7270, 1859.310
203.9480, 1717.599
205.1690, 1711.742
206.3890, 1946.101
207.6090, 2274.035
208.8290, 2644.005
210.0490, 3193.025
211.2690, 3920.006
212.4890, 4782.100
213.7080, 5994.469
214.9280, 7259.763
216.1470, 9123.134
217.3660, 11338.59
218.5850, 14136.12
219.8030, 17272.84
221.0220, 18926.67
222.2400, 19082.60
223.4590, 16608.78
224.6770, 13316.17
225.8950, 10384.88
227.1120, 7688.910
228.3300, 6112.204
229.5480, 5142.809
230.7650, 3630.047
231.9820, 2866.776
233.1990, 2029.988
234.4160, 1628.372
235.6330, 1328.861
236.8490, 971.4277
238.0660, 722.0771
239.2820, 687.7852
240.4980, 386.5957
241.7140, 601.4521
242.9300, 542.3682
244.1460, 757.3164
245.3610, 585.2676
246.5770, 637.2139
247.7920, 712.1611
249.0070, 696.1035
250.2220, 520.0430
251.4370, 410.9785
252.6510, 284.9121
253.8660, 72.84082
255.0800, 63.76465
256.2940, 38.68359
257.5080, 315.5957
258.7220, 225.4131
259.9360, 668.4033
261.1490, 221.2959
262.3630, 87.18262
263.5760, 30.05957
264.7890, 303.9297
266.0020, 358.7910
267.2150, 633.6592
268.4270, 566.5264
269.6400, 70.38770
270.8520, 71.23730
272.0640, 261.9229
273.2760, 158.0977
274.4880, 181.3291
275.7000, 158.6943
276.9120, 188.6592
278.1230, 198.7139
279.3340, 77.96973
280.5450, 125.7500
281.7560, 39.77734
282.9670, 231.6250
284.1780, 258.7529
285.3880, 429.1289
286.5980, 629.7266
287.8090, 711.5225
289.0190, 853.4971
290.2290, 986.6348
291.4380, 1045.922
292.6480, 917.3447
293.8570, 820.8936
295.0670, 805.5576
296.2760, 754.3281
297.4850, 887.1953
298.6930, 1000.152
299.9020, 873.1934
301.1110, 973.3105
302.3190, 832.5000
303.5270, 737.7578
304.7350, 581.0791
305.9430, 620.4609
307.1510, 397.0928
308.3580, 413.1035
309.5660, 579.5166
310.7730, 736.3135
311.9800, 592.2188
313.1870, 798.9873
314.3940, 812.6836
315.6010, 996.9629
316.8070, 1196.060
318.0130, 1463.044
319.2200, 1581.940
320.4260, 2003.909
321.6310, 2127.061
322.8370, 2305.854
324.0430, 2116.758
325.2480, 2101.621
326.4540, 1653.322
327.6590, 1592.965
328.8640, 1253.819
330.0680, 970.5156
331.2730, 792.5195
332.4780, 500.0439
333.6820, 276.6201
334.8860, 267.7979
336.0900, 414.4922
337.2940, 297.1162
338.4980, 329.8457
339.7010, 571.6973
340.9050, 554.9814
342.1080, 623.0645
343.3110, 697.3096
344.5140, 784.6553
345.7170, 804.4658
346.9200, 842.2842
348.1220, 787.5293
349.3240, 777.4717
350.5270, 605.1465
351.7290, 711.0908
352.9310, 593.8535
354.1320, 628.5576
355.3340, 568.6064
356.5350, 605.6377
357.7370, 549.3086
358.9380, 590.8330
360.1390, 652.9219
361.3400, 740.1934
362.5400, 804.6279
363.7410, 982.1475
364.9410, 1037.662
366.1410, 1099.218
367.3410, 1132.726
368.5410, 1098.228
369.7410, 1084.723
370.9400, 1215.209
372.1400, 1135.686
373.3390, 1173.151
374.5380, 1068.604
375.7370, 955.0420
376.9360, 920.4648
378.1350, 1054.872
379.3330, 1035.264
380.5310, 1187.637
381.7300, 1402.992
382.9280, 1466.330
384.1260, 1859.419
385.3230, 2498.947
386.5210, 2745.229
387.7180, 3520.488
388.9160, 4264.727
390.1130, 5078.946
391.3100, 5780.146
392.5060, 6599.326
393.7030, 7269.482
394.9000, 8049.621
396.0960, 8778.739
397.2920, 9226.835
398.4880, 8994.949
399.6840, 8386.261
400.8800, 7499.639
402.0750, 6341.859
403.2710, 5763.689
404.4660, 4883.110
405.6610, 4220.062
406.8560, 3979.378
408.0510, 3690.289
409.2450, 3562.177
410.4400, 3443.046
411.6340, 3320.894
412.8280, 3123.722
414.0220, 2992.527
415.2160, 2701.312
416.4100, 2465.874
417.6030, 2215.428
418.7970, 2050.870
419.9900, 1857.318
421.1830, 1620.886
422.3760, 1529.994
423.5690, 1185.643
424.7610, 1078.520
425.9540, 909.2227
427.1460, 1028.921
428.3380, 850.6113
429.5300, 995.2939
430.7220, 888.9678
431.9140, 868.6299
433.1050, 1080.281
434.2970, 1225.921
435.4880, 1149.546
436.6790, 1132.159
437.8700, 1245.756
439.0610, 1343.339
440.2510, 1205.905
441.4420, 1148.455
442.6320, 919.9883
443.8220, 643.5049
445.0120, 631.0039
446.2020, 326.4844
447.3910, 305.9463
448.5810, 221.3896
449.7700, 70.18555
450.9600, 63.15332
452.1490, 44.46777
453.3370, 118.7529
454.5260, 33.01465
455.7150, 148.2412
456.9030, 127.5527
458.0910, 8.466797
459.2800, 11.56445
460.4670, 145.4512
461.6550, 63.59570
462.8430, 111.8262
464.0300, 82.16895
465.2180, 139.6084
466.4050, 45.17578
467.5920, 91.82129
468.7790, 136.5684
469.9650, 87.44238
471.1520, 106.4189
472.3380, 135.5059
473.5250, 12.71973
474.7110, 35.00391
475.8970, 69.31152
477.0820, 48.28027
478.2680, 39.16406
479.4540, 117.6855
480.6390, 73.67480
481.8240, 27.00391
483.0090, 129.2881
484.1940, 61.45508
485.3780, 139.7129
486.5630, 2.145508
487.7470, 69.93750
488.9320, 24.98633
490.1160, 12.00781
491.3000, 37.06348
492.4830, 122.8047
493.6670, 42.64648
494.8500, 16.54883
496.0340, 172.1924
497.2170, 10.90820
498.4000, 106.5752
499.5820, 182.2129
500.7650, 285.8262
501.9480, 214.4150
503.1300, 198.9805
504.3120, 186.5205
505.4940, 261.0352
506.6760, 307.5254
507.8580, 208.9922
509.0390, 291.4326
510.2210, 427.8496
511.4020, 543.2422
512.5830, 681.6104
513.7640, 851.9551
514.9450, 871.2734
516.1250, 816.5684
517.3060, 795.8379
518.4860, 1048.086
519.6660, 931.3096
520.8460, 940.5176
522.0260, 1092.702
523.2060, 1008.861
524.3850, 1008.998
525.5650, 1163.110
526.7440, 1153.217
527.9230, 1099.303
529.1020, 849.3877
530.2810, 685.4551
531.4590, 627.5146
532.6380, 477.5557
533.8160, 442.5879
534.9940, 401.6143
536.1720, 441.6221
537.3500, 358.7275
538.5270, 339.6113
539.7050, 214.6084
540.8820, 162.5918
542.0590, 40.55566
543.2360, 174.5117
544.4130, 73.46484
545.5900, 117.3877
546.7660, 269.3008
547.9430, 132.1895
549.1190, 321.0791
550.2950, 403.9609
551.4710, 442.8604
552.6470, 450.7617
553.8220, 550.6553
554.9980, 637.5312
556.1730, 931.3945
557.3480, 1007.271
558.5230, 1369.165
559.6980, 1374.086
560.8730, 1545.024
562.0470, 1373.976
563.2220, 1655.934
564.3960, 1612.928
565.5700, 1623.943
566.7440, 1507.970
567.9170, 1525.972
569.0910, 1559.948
570.2640, 1560.918
571.4380, 1437.885
572.6110, 1518.828
573.7840, 1237.752
574.9570, 1354.650
576.1290, 1209.543
577.3020, 1232.416
578.4740, 1151.262
579.6460, 1132.082
580.8180, 1065.890
581.9900, 1026.684
583.1620, 1006.473
584.3330, 971.2441
585.5040, 948.9941
586.6760, 968.7188
587.8470, 920.4346
589.0180, 783.1553
590.1880, 852.8730
591.3590, 618.3711
592.5290, 727.5332
593.7000, 718.3164
594.8700, 762.7344
596.0400, 702.0615
597.2090, 717.5322
598.3790, 646.0752
599.5490, 661.0352
600.7180, 620.0479
601.8870, 533.4854
603.0560, 515.8691
604.2250, 613.1807
605.3940, 529.3066
606.5620, 491.7842
607.7300, 307.1602
608.8990, 549.5693
610.0670, 436.1338
611.2350, 542.7500
612.4020, 522.1445
613.5700, 574.6875
614.7370, 470.9121
615.9050, 441.6055
617.0720, 539.2354
618.2390, 352.2490
619.4060, 309.7334
620.5720, 453.2715
621.7390, 549.6895
622.9050, 365.9707
624.0710, 464.8027
625.2370, 508.8174
626.4030, 413.6533
627.5690, 514.3691
628.7340, 533.6006
629.9000, 576.7129
631.0650, 743.7852
632.2300, 665.2764
633.3950, 761.9277
634.5600, 900.5234
635.7240, 850.2881
636.8890, 1037.095
638.0530, 1102.546
639.2170, 1287.998
640.3810, 1423.797
641.5450, 1682.727
642.7080, 1724.637
643.8720, 1922.457
645.0350, 1960.208
646.1980, 2281.078
647.3610, 2419.933
648.5240, 2685.729
649.6870, 3033.555
650.8490, 3311.365
652.0120, 3607.161
653.1740, 3971.941
654.3360, 4524.705
655.4980, 5004.498
656.6600, 5660.234
657.8210, 6546.309
658.9830, 7608.371
660.1440, 8845.728
661.3050, 10343.69
662.4660, 12593.35
663.6270, 15142.26
664.7870, 18486.13
665.9480, 22757.67
667.1080, 28408.93
668.2680, 34341.90
669.4280, 41367.03
670.5880, 46778.93
671.7480, 49710.39
672.9070, 48854.65
674.0670, 43944.41
675.2260, 38158.79
676.3850, 32470.08
677.5440, 28006.12
678.7030, 25180.06
679.8610, 23972.15
681.0200, 24335.52
682.1780, 25879.91
683.3360, 28685.39
684.4940, 32292.29
685.6520, 34611.14
686.8090, 34803.62
687.9670, 32860.02
689.1240, 28891.77
690.2810, 24284.70
691.4380, 19857.64
692.5950, 16112.62
693.7520, 12872.96
694.9080, 10563.39
696.0650, 8719.005
697.2210, 7522.134
698.3770, 6345.645
699.5330, 5542.820
700.6880, 4917.860
701.8440, 4302.939
702.9990, 3759.598
704.1550, 3363.881
705.3100, 2909.643
706.4650, 2884.695
707.6190, 2262.660
708.7740, 2287.292
709.9290, 1938.242
711.0830, 1930.389
712.2370, 1717.079
713.3910, 1522.026
714.5450, 1348.742
715.6980, 1370.580
716.8520, 1262.308
718.0050, 1212.011
719.1580, 1047.071
720.3110, 926.9707
721.4640, 1063.629
722.6170, 845.4912
723.7700, 873.5156
724.9220, 786.0674
726.0740, 817.6064
727.2260, 630.1172
728.3780, 687.7676
729.5300, 828.2168
730.6810, 691.0059
731.8330, 702.4395
732.9840, 673.8506
734.1350, 677.2383
735.2860, 681.6152
736.4370, 663.9492
737.5880, 700.3135
738.7380, 724.4434
739.8880, 752.4502
741.0390, 800.8613
742.1890, 682.1016
743.3380, 794.4941
744.4880, 754.8984
745.6380, 937.7686
746.7870, 783.2002
747.9360, 758.6455
749.0850, 849.1162
750.2340, 837.5996
751.3830, 757.0996
752.5310, 883.6260
753.6800, 786.1455
754.8280, 809.6465
755.9760, 780.1562
757.1240, 755.6465
758.2720, 669.1357
759.4190, 666.6475
760.5670, 667.1367
761.7140, 542.6104
762.8610, 516.0596
764.0080, 464.5137
765.1550, 412.9453
766.3020, 536.3662
767.4480, 454.7676
768.5950, 481.1523
769.7410, 361.5312
770.8870, 299.9092
772.0330, 417.2646
773.1780, 325.6016
774.3240, 208.9336
775.4690, 358.2412
776.6140, 344.5361
777.7590, 283.8086
778.9040, 320.0566
780.0490, 163.2803
781.1940, 248.4775
782.3380, 163.6514
783.4820, 172.8008
784.6260, 196.9268
785.7700, 216.0273
786.9140, 229.1025
788.0580, 224.5352
789.2010, 301.1826
790.3450, 201.1855
791.4880, 160.1650
792.6310, 145.1191
793.7730, 186.0488
794.9160, 72.95410
796.0590, 71.83301
797.2010, 12.68457
798.3430, 81.49414
799.4850, 152.2783
800.6270, 83.03906
801.7690, 86.77246
802.9100, 25.51758
804.0520, 43.12988
805.1930, 49.25098
806.3340, 12.29688
807.4750, 17.35742
808.6160, 29.25879
809.7560, 24.31934
810.8970, 32.95605
812.0370, 28.34570
813.1770, 42.38477
814.3170, 38.81836
815.4570, 102.0059
816.5960, 9.927734
817.7360, 15.10254
818.8750, 68.90234
820.0140, 52.97754
821.1530, 42.87695
822.2920, 32.29004
823.4310, 74.48828
824.5690, 73.75879
825.7070, 26.08301
826.8460, 125.4590
827.9840, 62.94238
829.1220, 32.49707
830.2590, 8.892578
831.3970, 9.751953
832.5340, 109.4375
833.6710, 113.7803
834.8080, 62.02148
835.9450, 25.89062
837.0820, 24.80957
838.2190, 77.22461
839.3550, 84.76172
840.4910, 111.8262
841.6270, 40.98242
842.7630, 50.80664
843.8990, 63.57715
845.0350, 42.67090
846.1700, 64.97266
847.3060, 11.66211
848.4410, 0.2734380
849.5760, 24.85645
850.7100, 50.57910
851.8450, 6.067383
852.9800, 53.41309
854.1140, 126.8789
855.2480, 29.67285
856.3820, 76.26465
857.5160, 32.08105
858.6500, 62.58984
859.7830, 1.314453
860.9170, 108.9385
862.0500, 61.82324
863.1830, 110.6367
864.3160, 82.52734
865.4480, 117.5225
866.5810, 55.44141
867.7130, 97.55078
868.8460, 7.529297
869.9780, 62.49512
871.1100, 18.44922
872.2410, 17.39062
873.3730, 172.3213
874.5050, 54.75977
875.6360, 133.8789
876.7670, 1.922852
877.8980, 23.28711
879.0290, 122.4824
880.1590, 165.2402
881.2900, 56.01172
882.4200, 77.70215
883.5500, 70.40625
884.6800, 100.0986
885.8100, 191.7832
886.9400, 169.4580
888.0690, 295.1221
889.1990, 240.7773
890.3280, 141.4229
891.4570, 63.06055
892.5860, 344.6885
893.7140, 367.3125
894.8430, 464.9307
895.9710, 410.5400
897.1000, 624.1465
898.2280, 516.7480
899.3560, 669.3428
900.4830, 677.9316
901.6110, 758.5205
902.7380, 798.1045
903.8660, 843.2363
904.9930, 852.2764
906.1200, 932.8594
907.2460, 991.4385
908.3730, 1017.011
909.5000, 1123.577
910.6260, 1245.141
911.7520, 1319.699
912.8780, 1318.252
914.0040, 1391.803
915.1290, 1565.350
916.2550, 1743.884
917.3800, 1858.424
918.5050, 2109.962
919.6300, 2398.497
920.7550, 2790.029
921.8800, 3018.561
923.0040, 3392.089
924.1290, 3925.617
925.2530, 4506.145
926.3770, 4845.670
927.5010, 5325.195
928.6250, 5657.682
929.7480, 5545.207
930.8720, 5098.378
931.9950, 4417.549
933.1180, 3828.409
934.2410, 3222.654
935.3640, 2868.186
936.4860, 2277.453
937.6090, 2067.742
938.7310, 1643.358
939.8530, 1503.242
940.9750, 1408.408
942.0970, 1312.390
943.2180, 1281.600
944.3400, 1248.238
945.4610, 1518.061
946.5820, 1366.365
947.7030, 1370.057
948.8240, 1145.825
949.9450, 1084.828
951.0650, 970.9180
952.1860, 849.8223
953.3060, 793.2637
954.4260, 684.4873
955.5460, 649.8008
956.6650, 677.0566
957.7850, 627.7510
958.9040, 591.2490
960.0230, 613.4287
961.1420, 502.6475
962.2610, 512.6777
963.3800, 377.6836
964.4990, 382.1641
965.6170, 375.9277
966.7350, 413.7695
967.8530, 407.0811
968.9710, 525.8818
970.0890, 589.2939
971.2070, 545.0361
972.3240, 469.9121
973.4410, 615.7441
974.5580, 549.9902
975.6750, 589.6104
976.7920, 686.7490
977.9090, 721.5928
979.0250, 787.1104
980.1410, 831.7793
981.2580, 886.7178
982.3740, 875.4580
983.4890, 922.6514
984.6050, 1019.487
985.7200, 1088.242
986.8360, 1226.795
987.9510, 1363.947
989.0660, 1461.124
990.1810, 1701.941
991.2950, 1942.922
992.4100, 1982.147
993.5240, 2163.181
994.6390, 2447.067
995.7530, 2573.431
996.8660, 2541.811
997.9800, 2874.264
999.0940, 2804.603
1000.207, 2740.195
1001.320, 2992.502
1002.433, 2900.207
1003.546, 2978.939
1004.659, 2690.703
1005.772, 2608.520
1006.884, 2528.383
1007.996, 2581.286
1009.108, 2539.459
1010.220, 2530.780
1011.332, 2560.396
1012.444, 2456.953
1013.555, 2614.049
1014.666, 2606.174
1015.777, 2651.897
1016.888, 2612.096
1017.999, 2746.327
1019.110, 2766.598
1020.220, 2908.917
1021.331, 2886.281
1022.441, 2966.695
1023.551, 3061.143
1024.661, 2908.645
1025.770, 3157.184
1026.880, 2958.869
1027.989, 2896.494
1029.098, 2796.484
1030.207, 2752.867
1031.316, 2749.011
1032.425, 2710.020
1033.533, 2672.087
1034.642, 2718.248
1035.750, 2841.538
1036.858, 2892.385
1037.966, 3121.120
1039.073, 3323.175
1040.181, 3525.265
1041.288, 3967.723
1042.396, 4320.561
1043.503, 4977.767
1044.610, 5567.018
1045.716, 6254.303
1046.823, 7537.627
1047.929, 8744.987
1049.036, 10441.88
1050.142, 12449.81
1051.248, 14485.29
1052.353, 16967.79
1053.459, 19473.34
1054.564, 21078.93
1055.670, 22604.55
1056.775, 22905.21
1057.880, 22023.91
1058.985, 19972.65
1060.089, 17426.43
1061.194, 15515.24
1062.298, 13444.09
1063.402, 12276.98
1064.506, 11326.91
1065.610, 10586.89
1066.713, 9783.917
1067.817, 9412.987
1068.920, 8819.096
1070.023, 8626.243
1071.126, 8091.428
1072.229, 7657.671
1073.332, 7118.953
1074.435, 6515.297
1075.537, 6051.688
1076.639, 5531.131
1077.741, 5025.688
1078.843, 4600.160
1079.945, 4140.762
1081.046, 3780.403
1082.148, 3531.105
1083.249, 3433.850
1084.350, 3094.666
1085.451, 2851.537
1086.551, 2896.451
1087.652, 2516.432
1088.752, 2368.473
1089.853, 2348.554
1090.953, 2141.690
1092.053, 2143.864
1093.152, 1968.105
1094.252, 2060.400
1095.351, 1991.778
1096.451, 1702.220
1097.550, 1731.717
1098.649, 1579.257
1099.748, 1546.847
1100.846, 1328.510
1101.945, 1534.210
1103.043, 1314.975
1104.141, 1317.792
1105.239, 1365.660
1106.337, 1097.566
1107.434, 1017.538
1108.532, 1131.583
1109.629, 1101.682
1110.726, 1040.816
1111.823, 1069.988
1112.920, 978.2129
1114.017, 1240.497
1115.113, 1347.818
1116.210, 1634.181
1117.306, 2001.579
1118.402, 2308.030
1119.498, 2529.523
1120.593, 2824.052
1121.689, 3048.615
1122.784, 3132.225
1123.879, 3047.802
1124.974, 2752.658
1126.069, 2311.268
1127.164, 1935.944
1128.259, 1490.061
1129.353, 1183.998
1130.447, 1095.930
1131.541, 1037.959
1132.635, 1178.810
1133.729, 1053.367
1134.822, 973.7256
1135.916, 974.4453
1137.009, 667.9297
1138.102, 687.7080
1139.195, 473.0566
1140.288, 461.3262
1141.380, 499.1602
1142.473, 330.5430
1143.565, 259.9541
1144.657, 197.3975
1145.749, 176.8711
1146.841, 220.9922
1147.932, 180.1689
1149.024, 180.7744
1150.115, 86.58008
1151.206, 107.8164
1152.297, 142.5215
1153.388, 59.22168
1154.479, 125.0410
1155.569, 242.9355
1156.659, 10.43652
1157.750, 66.42676
1158.839, 107.7686
1159.929, 28.06055
1161.019, 46.88184
1162.108, 31.58691
1163.198, 20.17969
1164.287, 21.29590
1165.376, 71.28906
1166.465, 28.68848
1167.553, 53.70020
1168.642, 113.5713
1169.730, 29.09277
1170.818, 64.19336
1171.906, 39.89648
1172.994, 220.6855
1174.082, 231.5088
1175.170, 235.1992
1176.257, 232.3262
1177.344, 279.6650
1178.431, 312.9092
1179.518, 422.0889
1180.605, 430.0996
1181.691, 487.5986
1182.778, 479.9121
1183.864, 491.9355
1184.950, 501.6904
1186.036, 619.0713
1187.122, 525.9258
1188.207, 480.4609
1189.292, 611.7949
1190.378, 578.2852
1191.463, 480.6426
1192.548, 498.1270
1193.632, 553.2236
1194.717, 478.6123
1195.801, 579.4482
1196.886, 598.6162
1197.970, 691.4023
1199.054, 636.8291
1200.137, 689.4629
1201.221, 760.9062
1202.305, 801.4414
1203.388, 834.9004
1204.471, 806.3662
1205.554, 919.9082
1206.637, 1069.388
1207.719, 1161.063
1208.802, 987.8164
1209.884, 1323.314
1210.966, 1118.818
1212.048, 1370.446
1213.130, 1296.959
1214.212, 1236.477
1215.293, 1364.323
1216.374, 1176.848
1217.456, 1308.377
1218.536, 1170.906
1219.617, 1212.441
1220.698, 1006.983
1221.778, 1042.525
1222.859, 820.0811
1223.939, 962.6357
1225.019, 761.1133
1226.099, 694.6758
1227.178, 631.2305
1228.258, 620.1113
1229.337, 550.6621
1230.417, 516.1826
1231.496, 477.8857
1232.574, 434.1465
1233.653, 392.6875
1234.732, 352.0469
1235.810, 228.2988
1236.888, 227.8262
1237.966, 244.3477
1239.044, 178.8643
1240.122, 214.3740
1241.199, 292.0391
1242.277, 195.5947
1243.354, 139.0820
1244.431, 136.5625
1245.508, 33.03320
1246.585, 51.74414
1247.661, 50.07422
1248.738, 32.51660
1249.814, 36.99902
1250.890, 17.08984
1251.966, 17.05273
1253.042, 14.40039
1254.117, 39.02148
1255.193, 49.67578
1256.268, 11.37012
1257.343, 2.915039
1258.418, 160.8184
1259.493, 78.65332
1260.567, 189.5469
1261.642, 58.55957
1262.716, 126.6230
1263.790, 25.78418
1264.864, 79.89844
1265.938, 76.17480
1267.011, 47.34277
1268.085, 22.58789
1269.158, 35.65137
1270.231, 10.74805
1271.304, 45.83496
1272.377, 31.24121
1273.450, 106.4062
1274.522, 82.75293
1275.594, 11.52148
1276.666, 12.30078
1277.738, 42.26367
1278.810, 4.915039
1279.882, 32.38867
1280.953, 6.579102
1282.025, 36.59082
1283.096, 40.06934
1284.167, 36.51172
1285.238, 23.38770
1286.308, 4.613281
1287.379, 11.37793
1288.449, 13.36328
1289.519, 15.29395
1290.589, 3.282227
1291.659, 36.15820
1292.729, 14.64062
1293.798, 37.74512
1294.868, 52.67188
1295.937, 121.2676
