##NAMES=Beryl
##RRUFFID=R050305
##IDEAL CHEMISTRY=Be_3_Al_2_Si_6_O_18_
##LOCALITY=Conselheiro Pena, Minas Gerais, Brazil
##OWNER=RRUFF
##SOURCE=Eugene Schlepp
##DESCRIPTION=Light blue fragment, variety aquamarine
##STATUS=The identification of this mineral has been confirmed by X-ray diffraction and chemical analysis
##URL=rruff.info/R050305
##MEASURED CHEMISTRY=(Be_0.91_Li_0.09_)_3_(Al_0.99_Fe^3+^_0.01_)_2_Si_6.00_O_18_Î‡Na_0.27_
##PIN_ID=L00797
##ORIENTATION=Laser parallel to c* (0 0 1). Fiducial mark perpendicular to laser is parallel to [-1 -1 0]
95.94800, 0.0000000E+00
97.18200, 11.76758
98.41600, 161.8281
99.64900, 52.16797
100.8830, 108.1846
102.1160, 259.1973
103.3490, 171.2148
104.5820, 342.2627
105.8150, 543.5840
107.0470, 995.1641
108.2800, 1486.482
109.5120, 1985.351
110.7440, 1901.829
111.9760, 1896.205
113.2080, 2126.890
114.4400, 2463.394
115.6710, 2903.294
116.9030, 3084.227
118.1340, 3208.886
119.3650, 3399.988
120.5960, 3205.288
121.8270, 3491.574
123.0580, 3301.665
124.2880, 3552.409
125.5190, 3338.734
126.7490, 3323.676
127.9790, 3218.990
129.2090, 3346.613
130.4390, 3256.480
131.6680, 3453.495
132.8980, 3316.565
134.1270, 3390.580
135.3560, 3383.439
136.5850, 3232.103
137.8140, 3149.628
139.0430, 3091.854
140.2710, 2883.072
141.5000, 2860.045
142.7280, 2518.945
143.9560, 2312.340
145.1840, 2175.206
146.4120, 1882.521
147.6390, 1883.264
148.8670, 1999.412
150.0940, 1985.951
151.3210, 1956.783
152.5490, 1797.237
153.7750, 1819.054
155.0020, 1786.968
156.2290, 1670.539
157.4550, 1921.573
158.6810, 1939.587
159.9080, 1988.445
161.1340, 1755.854
162.3590, 2040.622
163.5850, 1932.923
164.8110, 1991.491
166.0360, 2108.186
167.2610, 2060.004
168.4860, 2056.945
169.7110, 2069.926
170.9360, 2111.689
172.1610, 2087.334
173.3850, 2042.921
174.6100, 2023.355
175.8340, 1968.059
177.0580, 1922.636
178.2820, 1863.229
179.5050, 1800.911
180.7290, 1596.878
181.9520, 1546.210
183.1760, 1635.490
184.3990, 1357.433
185.6220, 1363.470
186.8450, 1308.607
188.0670, 1183.846
189.2900, 1176.186
190.5120, 1079.628
191.7340, 1107.173
192.9560, 1045.820
194.1780, 1013.568
195.4000, 1000.418
196.6220, 879.3682
197.8430, 877.4170
199.0640, 964.5625
200.2860, 760.8037
201.5070, 927.1377
202.7270, 901.5635
203.9480, 592.0781
205.1690, 286.6816
206.3890, 128.3711
207.6090, 12.88379
208.8290, 2.001953
210.0490, 21.06738
211.2690, 44.04297
212.4890, 20.10254
213.7080, 13.39355
214.9280, 34.14844
216.1470, 122.5430
217.3660, 50.16992
218.5850, 70.49609
219.8030, 119.0537
221.0220, 209.7363
222.2400, 362.8408
223.4590, 297.8564
224.6770, 325.2383
225.8950, 544.1592
227.1120, 422.4912
228.3300, 501.6182
229.5480, 398.2236
230.7650, 537.2842
231.9820, 534.2949
233.1990, 479.7734
234.4160, 574.3721
235.6330, 589.0967
236.8490, 539.8955
238.0660, 507.7354
239.2820, 571.6055
240.4980, 531.5020
241.7140, 450.4258
242.9300, 555.2158
244.1460, 476.7842
245.3610, 461.3301
246.5770, 482.7881
247.7920, 410.7363
249.0070, 365.0283
250.2220, 302.2275
251.4370, 224.0977
252.6510, 129.3926
253.8660, 84.07031
255.0800, 74.09375
256.2940, 87.42969
257.5080, 64.94824
258.7220, 12.06738
259.9360, 57.10547
261.1490, 26.39648
262.3630, 88.05371
263.5760, 14.68164
264.7890, 11.40137
266.0020, 84.68262
267.2150, 59.92676
268.4270, 45.31934
269.6400, 71.48340
270.8520, 84.73926
272.0640, 60.31152
273.2760, 160.2207
274.4880, 156.2422
275.7000, 201.3672
276.9120, 203.5908
278.1230, 117.9092
279.3340, 121.3164
280.5450, 247.8057
281.7560, 448.3770
282.9670, 474.0244
284.1780, 622.0225
285.3880, 860.5293
286.5980, 824.3818
287.8090, 1060.299
289.0190, 1172.275
290.2290, 1425.311
291.4380, 1450.400
292.6480, 1711.544
293.8570, 1684.740
295.0670, 1350.985
296.2760, 1345.279
297.4850, 961.6182
298.6930, 928.0020
299.9020, 705.4189
301.1110, 495.8770
302.3190, 514.3535
303.5270, 412.8604
304.7350, 410.3994
305.9430, 553.9648
307.1510, 566.5547
308.3580, 439.1680
309.5660, 554.8018
310.7730, 680.4531
311.9800, 751.1250
313.1870, 968.8125
314.3940, 1058.518
315.6010, 1146.240
316.8070, 1460.981
318.0130, 1779.740
319.2200, 1927.518
320.4260, 2292.313
321.6310, 2468.127
322.8370, 2713.949
324.0430, 2611.701
325.2480, 2604.532
326.4540, 2243.391
327.6590, 1514.187
328.8640, 1347.166
330.0680, 850.9033
331.2730, 617.6133
332.4780, 211.9268
333.6820, 156.6592
334.8860, 70.62012
336.0900, 45.53418
337.2940, 191.6826
338.4980, 264.0801
339.7010, 179.1758
340.9050, 171.3008
342.1080, 87.45703
343.3110, 85.45020
344.5140, 155.9639
345.7170, 99.16113
346.9200, 96.37793
348.1220, 149.6152
349.3240, 162.8770
350.5270, 23.16797
351.7290, 20.53711
352.9310, 151.7109
354.1320, 85.46094
355.3340, 50.97656
356.5350, 83.37891
357.7370, 77.07227
358.9380, 2.289063
360.1390, 87.24121
361.3400, 75.86230
362.5400, 97.81738
363.7410, 72.37207
364.9410, 26.90625
366.1410, 70.59766
367.3410, 345.0586
368.5410, 305.9355
369.7410, 395.6670
370.9400, 431.4395
372.1400, 373.6260
373.3390, 307.2627
374.5380, 673.8037
375.7370, 691.0371
376.9360, 739.9199
378.1350, 978.7988
379.3330, 1032.673
380.5310, 1255.251
381.7300, 1387.402
382.9280, 1715.260
384.1260, 2005.108
385.3230, 2303.954
386.5210, 2888.789
387.7180, 3476.658
388.9160, 4215.570
390.1130, 5284.510
391.3100, 6335.473
392.5060, 7572.456
393.7030, 9136.457
394.9000, 10906.47
396.0960, 12716.50
397.2920, 15058.54
398.4880, 16230.58
399.6840, 16701.63
400.8800, 16123.69
402.0750, 14373.65
403.2710, 12292.56
404.4660, 10302.67
405.6610, 8302.739
406.8560, 6836.068
408.0510, 5466.133
409.2450, 5069.031
410.4400, 4232.088
411.6340, 3918.142
412.8280, 3717.191
414.0220, 3659.234
415.2160, 3466.271
416.4100, 3467.633
417.6030, 3450.325
418.7970, 3455.342
419.9900, 3390.215
421.1830, 3461.344
422.3760, 3197.331
423.5690, 3097.309
424.7610, 2881.275
425.9540, 2411.231
427.1460, 2315.175
428.3380, 1946.108
429.5300, 1703.029
430.7220, 1507.938
431.9140, 1349.894
433.1050, 1219.716
434.2970, 1241.586
435.4880, 1190.440
436.6790, 1282.282
437.8700, 1171.110
439.0610, 1213.922
440.2510, 1163.720
441.4420, 1130.501
442.6320, 1192.268
443.8220, 1194.019
445.0120, 971.7529
446.2020, 980.4707
447.3910, 781.1729
448.5810, 989.8574
449.7700, 726.5244
450.9600, 813.1748
452.1490, 653.8086
453.3370, 472.4238
454.5260, 515.0225
455.7150, 580.6025
456.9030, 359.1641
458.0910, 319.7080
459.2800, 244.6660
460.4670, 351.1738
461.6550, 192.6621
462.8430, 256.1328
464.0300, 197.5850
465.2180, 223.0156
466.4050, 137.4287
467.5920, 227.8799
468.7790, 102.0645
469.9650, 52.18164
471.1520, 73.45312
472.3380, 81.22852
473.5250, 113.4053
474.7110, 71.45410
475.8970, 115.5654
477.0820, 234.5488
478.2680, 36.51074
479.4540, 156.8877
480.6390, 156.1328
481.8240, 207.8965
483.0090, 231.4346
484.1940, 389.3750
485.3780, 134.9941
486.5630, 96.03906
487.7470, 351.4199
488.9320, 163.5527
490.1160, 243.7266
491.3000, 216.7344
492.4830, 273.5488
493.6670, 281.5000
494.8500, 140.0801
496.0340, 94.96875
497.2170, 321.6787
498.4000, 143.4414
499.5820, 139.9648
500.7650, 48.53320
501.9480, 90.12793
503.1300, 1.390625
504.3120, 47.57715
505.4940, 122.3613
506.6760, 22.34082
507.8580, 53.17383
509.0390, 97.98730
510.2210, 89.90137
511.4020, 39.90918
512.5830, 72.98535
513.7640, 0.1464840
514.9450, 23.35254
516.1250, 77.38086
517.3060, 15.09277
518.4860, 216.7656
519.6660, 202.4229
520.8460, 322.0654
522.0260, 316.2695
523.2060, 363.8760
524.3850, 264.8975
525.5650, 392.4805
526.7440, 386.0674
527.9230, 300.6348
529.1020, 170.2285
530.2810, 449.8037
531.4590, 488.3633
532.6380, 363.9062
533.8160, 559.4326
534.9940, 469.9570
536.1720, 493.4688
537.3500, 556.9844
538.5270, 537.5039
539.7050, 388.0225
540.8820, 360.5537
542.0590, 467.0908
543.2360, 549.6396
544.4130, 411.1895
545.5900, 533.7207
546.7660, 497.4980
547.9430, 545.7383
549.1190, 521.2256
550.2950, 582.6934
551.4710, 652.1436
552.6470, 670.5586
553.8220, 748.0049
554.9980, 776.4434
556.1730, 829.8750
557.3480, 919.2900
558.5230, 1007.723
559.6980, 1254.059
560.8730, 1212.414
562.0470, 1280.798
563.2220, 1327.164
564.3960, 1262.532
565.5700, 1240.881
566.7440, 1368.218
567.9170, 1460.536
569.0910, 1615.834
570.2640, 1650.924
571.4380, 1655.435
572.6110, 1739.739
573.7840, 1789.037
574.9570, 1855.313
576.1290, 1795.566
577.3020, 1654.808
578.4740, 1623.027
579.6460, 1705.231
580.8180, 1262.418
581.9900, 1434.583
583.1620, 1148.727
584.3330, 1002.848
585.5040, 1017.951
586.6760, 896.0332
587.8470, 820.0938
589.0180, 681.1309
590.1880, 762.1660
591.3590, 688.1777
592.5290, 838.1797
593.7000, 634.1602
594.8700, 370.1309
596.0400, 351.0781
597.2090, 624.0273
598.3790, 423.9570
599.5490, 120.8633
600.7180, 509.7637
601.8870, 358.6387
603.0560, 216.4922
604.2250, 289.3535
605.3940, 254.1914
606.5620, 311.0293
607.7300, 157.9199
608.8990, 94.71289
610.0670, 41.46484
611.2350, 186.2656
612.4020, 106.8848
613.5700, 351.7383
614.7370, 318.6094
615.9050, 298.8691
617.0720, 265.7422
618.2390, 399.3750
619.4060, 95.04883
620.5720, 166.8398
621.7390, 269.7988
622.9050, 100.4453
624.0710, 275.1074
625.2370, 24.20898
626.4030, 134.9395
627.5690, 195.2754
628.7340, 179.9395
629.9000, 306.6074
631.0650, 28.28125
632.2300, 48.95508
633.3950, 86.63672
634.5600, 39.59375
635.7240, 335.8887
636.8890, 17.00781
638.0530, 297.5684
639.2170, 555.1406
640.3810, 426.3594
641.5450, 382.2754
642.7080, 423.1738
643.8720, 493.9453
645.0350, 439.0586
646.1980, 451.5762
647.3610, 418.1699
648.5240, 385.2578
649.6870, 526.4980
650.8490, 605.2129
652.0120, 644.3633
653.1740, 659.0820
654.3360, 673.3301
655.4980, 556.6035
656.6600, 660.6680
657.8210, 614.6973
658.9830, 630.6211
660.1440, 843.9570
661.3050, 1122.273
662.4660, 1162.574
663.6270, 1386.344
664.7870, 1618.258
665.9480, 1908.086
667.1080, 2204.385
668.2680, 2523.551
669.4280, 3021.748
670.5880, 3588.328
671.7480, 4273.684
672.9070, 5621.023
674.0670, 6429.143
675.2260, 8164.156
676.3850, 10444.91
677.5440, 12824.60
678.7030, 16756.98
679.8610, 21080.32
681.0200, 26138.90
682.1780, 32788.27
683.3360, 39005.18
684.4940, 44712.62
685.6520, 47697.55
686.8090, 47321.55
687.9670, 44372.65
689.1240, 38670.68
690.2810, 31703.53
691.4380, 25411.32
692.5950, 20248.95
693.7520, 16075.88
694.9080, 13092.65
696.0650, 10924.24
697.2210, 8965.957
698.3770, 7676.859
699.5330, 6554.592
700.6880, 5892.777
701.8440, 5100.279
702.9990, 4624.074
704.1550, 4056.650
705.3100, 3387.377
706.4650, 3206.182
707.6190, 3104.684
708.7740, 2709.160
709.9290, 2425.609
711.0830, 2392.643
712.2370, 2141.568
713.3910, 2094.881
714.5450, 1871.688
715.6980, 1967.541
716.8520, 1789.924
718.0050, 1633.496
719.1580, 1679.246
720.3110, 1513.459
721.4640, 1640.646
722.6170, 1333.807
723.7700, 1410.598
724.9220, 1429.818
726.0740, 1302.902
727.2260, 1241.957
728.3780, 1338.938
729.5300, 1337.939
730.6810, 1311.311
731.8330, 1223.387
732.9840, 1216.885
734.1350, 1202.779
735.2860, 1073.152
736.4370, 1182.992
737.5880, 1044.004
738.7380, 868.0840
739.8880, 878.8379
741.0390, 740.5703
742.1890, 949.8125
743.3380, 777.7383
744.4880, 928.9180
745.6380, 886.5352
746.7870, 1023.066
747.9360, 910.8164
749.0850, 953.5762
750.2340, 965.3398
751.3830, 1111.316
752.5310, 927.8301
753.6800, 1137.320
754.8280, 1061.992
755.9760, 1206.484
757.1240, 1217.951
758.2720, 1131.936
759.4190, 1047.371
760.5670, 1096.785
761.7140, 1020.760
762.8610, 856.1152
764.0080, 862.8066
765.1550, 730.7852
766.3020, 657.3223
767.4480, 609.5742
768.5950, 554.7949
769.7410, 633.3809
770.8870, 662.3574
772.0330, 549.8906
773.1780, 630.4258
774.3240, 582.5859
775.4690, 422.4082
776.6140, 511.4336
777.7590, 460.4297
778.9040, 338.4004
780.0490, 362.3750
781.1940, 312.3223
782.3380, 291.2578
783.4820, 333.1738
784.6260, 308.0605
785.7700, 346.9297
786.9140, 295.8008
788.0580, 282.6836
789.2010, 130.5762
790.3450, 224.4629
791.4880, 113.3555
792.6310, 246.2305
793.7730, 134.0996
794.9160, 321.9414
796.0590, 101.7695
797.2010, 262.5605
798.3430, 251.3262
799.4850, 209.0625
800.6270, 14.77539
801.7690, 199.4336
802.9100, 15.92969
804.0520, 150.6387
805.1930, 107.6602
806.3340, 163.7676
807.4750, 109.4023
808.6160, 131.7734
809.7560, 130.1152
810.8970, 9.449219
812.0370, 71.07227
813.1770, 36.66602
814.3170, 20.22852
815.4570, 16.16016
816.5960, 64.09570
817.7360, 35.91602
818.8750, 65.13672
820.0140, 4.826172
821.1530, 88.52148
822.2920, 174.1836
823.4310, 132.9922
824.5690, 107.9492
825.7070, 114.2539
826.8460, 156.0918
827.9840, 49.62500
829.1220, 2.123047
830.2590, 67.43164
831.3970, 2.072266
832.5340, 48.77930
833.6710, 143.0859
834.8080, 89.33594
835.9450, 109.1523
837.0820, 140.6523
838.2190, 40.67188
839.3550, 40.94727
840.4910, 124.6855
841.6270, 5.632813
842.7630, 66.53711
843.8990, 153.4160
845.0350, 89.72852
846.1700, 161.0332
847.3060, 101.2227
848.4410, 11.58203
849.5760, 184.0137
850.7100, 123.5859
851.8450, 8.134766
852.9800, 62.64844
854.1140, 10.13867
855.2480, 27.59766
856.3820, 158.0254
857.5160, 127.4316
858.6500, 213.8203
859.7830, 17.18750
860.9170, 39.52930
862.0500, 265.8457
863.1830, 173.1426
864.3160, 41.57812
865.4480, 137.6465
866.5810, 20.14844
867.7130, 29.01367
868.8460, 23.83984
869.9780, 179.2637
871.1100, 72.65234
872.2410, 47.36523
873.3730, 10.36523
874.5050, 47.65430
875.6360, 93.27539
876.7670, 208.1895
877.8980, 95.91211
879.0290, 3.912109
880.1590, 66.28320
881.2900, 158.4648
882.4200, 49.19922
883.5500, 144.9160
884.6800, 77.62500
885.8100, 19.67383
886.9400, 230.9961
888.0690, 200.6602
889.1990, 128.3105
890.3280, 151.0547
891.4570, 14.49023
892.5860, 93.02148
893.7140, 186.5391
894.8430, 208.0469
895.9710, 189.5391
897.1000, 287.0234
898.2280, 283.5000
899.3560, 246.9609
900.4830, 442.4316
901.6110, 329.8906
902.7380, 360.3418
903.8660, 668.7793
904.9930, 378.2090
906.1200, 404.6387
907.2460, 662.0625
908.3730, 426.4785
909.5000, 491.9102
910.6260, 394.3320
911.7520, 477.7617
912.8780, 351.1836
914.0040, 510.5977
915.1290, 365.0059
916.2550, 461.4062
917.3800, 166.8027
918.5050, 503.1914
919.6300, 523.5762
920.7550, 457.9551
921.8800, 197.3281
923.0040, 297.6973
924.1290, 396.0605
925.2530, 55.08984
926.3770, 189.4434
927.5010, 229.3184
928.6250, 112.6641
929.7480, 261.7461
930.8720, 90.08594
931.9950, 233.8574
933.1180, 173.1914
934.2410, 37.52148
935.3640, 293.8535
936.4860, 77.69141
937.6090, 33.01758
938.7310, 317.1094
939.8530, 8.638672
940.9750, 133.7285
942.0970, 144.9570
943.2180, 31.93359
944.3400, 5.029297
945.4610, 76.87305
946.5820, 16.58398
947.7030, 2.212891
948.8240, 18.59375
949.9450, 28.07031
951.0650, 18.80273
952.1860, 57.99414
953.3060, 59.72070
954.4260, 16.35938
955.5460, 72.98047
956.6650, 87.79883
957.7850, 13.90820
958.9040, 24.66797
960.0230, 27.42383
961.1420, 76.59570
962.2610, 108.9180
963.3800, 102.2891
964.4990, 8.808594
965.6170, 32.73438
966.7350, 36.62305
967.8530, 2.105469
968.9710, 5.275391
970.0890, 39.54297
971.2070, 24.79883
972.3240, 22.32617
973.4410, 31.22070
974.5580, 37.46484
975.6750, 172.9180
976.7920, 200.2090
977.9090, 210.4141
979.0250, 385.9141
980.1410, 442.4297
981.2580, 44.96094
982.3740, 574.9023
983.4890, 421.5430
984.6050, 609.1289
985.7200, 827.7344
986.8360, 880.8281
987.9510, 1149.381
989.0660, 1177.742
990.1810, 1644.914
991.2950, 1790.621
992.4100, 2101.346
993.5240, 2117.102
994.6390, 2394.223
995.7530, 2617.910
996.8660, 2704.730
997.9800, 2915.604
999.0940, 2970.545
1000.207, 3140.465
1001.320, 3132.945
1002.433, 3176.658
1003.546, 3095.309
1004.659, 3119.346
1005.772, 3100.904
1006.884, 2954.994
1007.996, 2793.910
1009.108, 2622.342
1010.220, 2491.543
1011.332, 2383.768
1012.444, 2227.312
1013.555, 2079.957
1014.666, 1940.299
1015.777, 1759.643
1016.888, 1573.037
1017.999, 1421.910
1019.110, 1444.914
1020.220, 1206.176
1021.331, 984.6992
1022.441, 1032.254
1023.551, 772.8418
1024.661, 804.3320
1025.770, 870.0293
1026.880, 819.7617
1027.989, 877.5273
1029.098, 828.3262
1030.207, 846.1680
1031.316, 458.0625
1032.425, 437.0137
1033.533, 615.9980
1034.642, 442.0156
1035.750, 651.0684
1036.858, 610.1562
1037.966, 715.2793
1039.073, 736.5371
1040.181, 458.6289
1041.288, 724.8711
1042.396, 707.1504
1043.503, 675.4629
1044.610, 879.8164
1045.716, 1018.230
1046.823, 774.6855
1047.929, 1207.176
1049.036, 1178.715
1050.142, 1479.293
1051.248, 1696.914
1052.353, 1827.570
1053.459, 2154.264
1054.564, 2458.998
1055.670, 2753.771
1056.775, 3111.582
1057.880, 3474.760
1058.985, 3790.391
1060.089, 4279.391
1061.194, 4757.430
1062.298, 5211.514
1063.402, 5545.641
1064.506, 5876.805
1065.610, 6101.010
1066.713, 6164.258
1067.817, 6684.547
1068.920, 6616.871
1070.023, 6561.248
1071.126, 6747.668
1072.229, 6231.145
1073.332, 6454.506
1074.435, 6030.107
1075.537, 5723.518
1076.639, 5370.203
1077.741, 5242.934
1078.843, 4817.582
1079.945, 4582.137
1081.046, 4205.971
1082.148, 3893.125
1083.249, 3502.623
1084.350, 3310.691
1085.451, 2977.572
1086.551, 2772.781
1087.652, 2679.850
1088.752, 2187.191
1089.853, 2507.574
1090.953, 1861.836
1092.053, 2094.963
1093.152, 1764.477
1094.252, 1960.033
1095.351, 1860.637
1096.451, 1845.285
1097.550, 1801.990
1098.649, 1635.770
1099.748, 1565.062
1100.846, 1610.912
1101.945, 1532.842
1103.043, 1376.221
1104.141, 1495.236
1105.239, 1478.100
1106.337, 1524.254
1107.434, 1290.479
1108.532, 1419.746
1109.629, 1423.066
1110.726, 1294.432
1111.823, 1335.842
1112.920, 1315.328
1114.017, 1263.859
1115.113, 1172.473
1116.210, 1323.143
1117.306, 1113.852
1118.402, 1263.605
1119.498, 1341.412
1120.593, 1134.260
1121.689, 1041.160
1122.784, 1274.107
1123.879, 1255.098
1124.974, 1193.746
1126.069, 1307.824
1127.164, 1529.947
1128.259, 1381.113
1129.353, 1678.041
1130.447, 1275.293
1131.541, 1293.605
1132.635, 1323.066
1133.729, 1661.475
1134.822, 1644.926
1135.916, 1363.086
1137.009, 1312.631
1138.102, 1337.250
1139.195, 1345.059
1140.288, 1409.221
1141.380, 1452.863
1142.473, 1444.715
1143.565, 1430.715
1144.657, 1422.256
1145.749, 1378.334
1146.841, 1342.490
1147.932, 1269.320
1149.024, 1123.605
1150.115, 1247.932
1151.206, 1155.297
1152.297, 1247.459
1153.388, 1042.934
1154.479, 843.4453
1155.569, 1119.484
1156.659, 903.2500
1157.750, 969.9258
1158.839, 582.6445
1159.929, 522.4023
1161.019, 553.2480
1162.108, 491.4551
1163.198, 592.0215
1164.287, 584.9453
1165.376, 487.9023
1166.465, 537.9023
1167.553, 544.9375
1168.642, 738.0469
1169.730, 429.2070
1170.818, 535.4023
1171.906, 637.1934
1172.994, 539.4629
1174.082, 795.7637
1175.170, 717.6230
1176.257, 799.0566
1177.344, 634.5000
1178.431, 812.9766
1179.518, 645.3398
1180.605, 714.8867
1181.691, 941.1797
1182.778, 761.7969
1183.864, 772.4434
1184.950, 899.2461
1186.036, 937.9668
1187.122, 795.7246
1188.207, 921.5117
1189.292, 887.6602
1190.378, 1081.508
1191.463, 1079.385
1192.548, 843.3613
1193.632, 967.2930
1194.717, 890.2520
1195.801, 1084.240
1196.886, 1105.252
1197.970, 970.2949
1199.054, 1109.363
1200.137, 1035.457
1201.221, 1203.578
1202.305, 1073.727
1203.388, 1198.898
1204.471, 1251.100
1205.554, 1015.324
1206.637, 1069.598
1207.719, 1285.896
1208.802, 1148.219
1209.884, 1077.713
1210.966, 1233.098
1212.048, 1002.508
1213.130, 1179.943
1214.212, 1337.400
1215.293, 981.8809
1216.374, 1428.391
1217.456, 1236.922
1218.536, 1229.477
1219.617, 1188.049
1220.698, 1378.648
1221.778, 1114.270
1222.859, 1315.910
1223.939, 1410.572
1225.019, 1366.252
1226.099, 1395.955
1227.178, 1490.674
1228.258, 1315.414
1229.337, 1252.170
1230.417, 1235.949
1231.496, 1183.746
1232.574, 896.6465
1233.653, 895.4805
1234.732, 657.3320
1235.810, 674.3301
1236.888, 593.2148
1237.966, 424.1113
1239.044, 590.0273
1240.122, 442.1230
1241.199, 474.8945
1242.277, 351.8516
1243.354, 180.8242
1244.431, 148.8066
1245.508, 195.8027
1246.585, 297.8105
1247.661, 159.8320
1248.738, 312.8613
1249.814, 334.0332
1250.890, 141.0820
1251.966, 5.171875
1253.042, 157.2383
1254.117, 56.38672
1255.193, 9.679688
1256.268, 137.7559
1257.343, 74.83984
1258.418, 162.0664
1259.493, 177.9707
1260.567, 65.01758
1261.642, 85.93164
1262.716, 57.09766
1263.790, 49.43359
1264.864, 50.52734
1265.938, 20.50195
1267.011, 81.96875
1268.085, 5.203125
1269.158, 84.95312
1270.231, 71.94336
1271.304, 11.48242
1272.377, 154.4688
1273.450, 11.54297
1274.522, 106.1172
1275.594, 30.09961
