##NAMES=Beryl
##RRUFFID=R040002
##IDEAL CHEMISTRY=Be_3_Al_2_Si_6_O_18_
##LOCALITY=Usakos, Namibia
##OWNER=RRUFF
##SOURCE=University of Arizona Mineral Museum
##DESCRIPTION=Light blue hexagonal prism, variety aquamarine
##STATUS=The identification of this mineral has been confirmed by X-ray diffraction and chemical analysis
##URL=rruff.info/R040002
##MEASURED CHEMISTRY=(Be_0.97_Li_0.03_)_3_(Al_0.97_Fe^3+^_0.03_)_2_Si_6_O_18_Î‡Na_0.01_
##PIN_ID=m00036
##ORIENTATION=Laser parallel to a* (1 0 0). Fiducial mark perpendicular to laser is parallel to c [0 0 1]
93.375, 0.000
94.768, 33.326
96.161, 0.819
97.554, 21.151
98.947, 41.359
100.340, 14.211
101.732, 34.368
103.124, 32.594
104.516, 50.644
105.908, 108.362
107.300, 85.660
108.691, 183.550
110.082, 345.100
111.473, 909.984
112.864, 1158.188
114.254, 1772.493
115.644, 1577.089
117.034, 1707.896
118.424, 949.898
119.813, 398.082
121.203, 213.841
122.592, 125.103
123.981, 125.194
125.369, 96.934
126.758, 54.691
128.146, 43.233
129.534, 33.992
130.922, 59.374
132.309, 37.631
133.696, 57.004
135.083, 57.489
136.470, 48.079
137.857, 67.180
139.243, 78.541
140.630, 96.401
142.016, 96.341
143.401, 123.357
144.787, 96.445
146.172, 89.603
147.557, 66.827
148.942, 5.884
150.327, 42.467
151.711, 10.123
153.096, 2.654
154.480, 6.130
155.863, 20.551
157.247, 14.918
158.630, 31.766
160.013, 44.500
161.396, 7.284
162.779, 10.885
164.161, 32.994
165.544, 42.917
166.926, 23.886
168.308, 13.899
169.689, 21.957
171.070, 26.064
172.452, 29.222
173.833, 29.805
175.213, 32.183
176.594, 29.986
177.974, 44.284
179.354, 52.589
180.734, 80.906
182.114, 69.237
183.493, 115.585
184.872, 101.951
186.251, 82.337
187.630, 108.743
189.008, 121.170
190.387, 137.619
191.765, 142.091
193.143, 117.584
194.520, 129.100
195.898, 131.638
197.275, 127.199
198.652, 134.866
200.029, 122.392
201.405, 137.023
202.782, 124.677
204.158, 117.354
205.534, 147.052
206.909, 143.770
208.285, 143.505
209.660, 137.260
211.035, 75.038
212.410, 96.839
213.784, 34.661
215.159, 51.506
216.533, 19.371
217.907, 76.258
219.281, 40.166
220.654, 38.094
222.027, 28.042
223.400, 16.015
224.773, 29.007
226.146, 51.019
227.518, 43.050
228.891, 55.100
230.263, 82.169
231.634, 129.257
233.006, 136.363
234.377, 149.486
235.748, 154.628
237.119, 174.787
238.490, 193.224
239.860, 236.160
241.231, 232.385
242.601, 248.665
243.970, 252.994
245.340, 254.381
246.709, 213.841
248.079, 231.375
249.448, 235.972
250.816, 268.606
252.185, 246.278
253.553, 270.977
254.921, 248.714
256.289, 205.477
257.657, 214.261
259.024, 192.753
260.391, 252.252
261.758, 204.753
263.125, 173.423
264.492, 247.158
265.858, 236.952
267.224, 271.796
268.590, 237.688
269.956, 327.622
271.321, 352.595
272.687, 346.606
274.052, 288.651
275.416, 342.727
276.781, 416.832
278.146, 358.965
279.510, 457.126
280.874, 409.312
282.237, 455.525
283.601, 417.761
284.964, 475.020
286.327, 507.301
287.690, 525.599
289.053, 541.916
290.416, 574.734
291.778, 583.587
293.140, 640.949
294.502, 656.331
295.863, 704.732
297.225, 761.151
298.586, 792.588
299.947, 840.042
301.308, 831.514
302.668, 887.002
304.029, 1004.606
305.389, 1000.125
306.749, 1118.660
308.108, 1303.209
309.468, 1488.773
310.827, 1827.351
312.186, 2190.943
313.545, 2855.478
314.903, 3830.097
316.262, 5224.590
317.620, 7325.213
318.978, 9966.803
320.336, 12452.108
321.693, 12902.561
323.051, 10777.253
324.408, 7348.958
325.765, 4922.671
327.121, 3058.396
328.478, 1965.132
329.834, 1271.879
331.190, 828.637
332.546, 548.404
333.902, 425.181
335.257, 277.968
336.612, 216.764
337.967, 193.569
339.322, 153.383
340.677, 164.206
342.031, 79.038
343.385, 132.878
344.739, 118.727
346.093, 67.584
347.446, 100.450
348.799, 116.324
350.153, 150.467
351.505, 115.358
352.858, 112.256
354.210, 90.163
355.563, 113.077
356.915, 135.999
358.267, 122.928
359.618, 109.865
360.969, 182.810
362.321, 209.761
363.672, 196.720
365.022, 234.686
366.373, 302.659
367.723, 365.639
369.073, 383.625
370.423, 427.618
371.773, 466.618
373.122, 482.624
374.471, 612.637
375.821, 663.656
377.169, 800.681
378.518, 870.712
379.866, 995.749
381.215, 1195.792
382.563, 1486.841
383.910, 1758.462
385.258, 2210.538
386.605, 2954.311
387.952, 3902.674
389.299, 5388.310
390.646, 7072.845
391.992, 9287.190
393.339, 11241.031
394.685, 12295.656
396.031, 11489.872
397.376, 9115.926
398.722, 6587.428
400.067, 4652.923
401.412, 3123.698
402.757, 2201.633
404.101, 1498.032
405.446, 1089.735
406.790, 840.206
408.134, 640.904
409.478, 493.509
410.821, 391.046
412.165, 313.352
413.508, 303.570
414.851, 231.738
416.193, 231.593
417.536, 208.423
418.878, 176.547
420.220, 200.181
421.562, 108.432
422.904, 131.531
424.245, 113.670
425.586, 118.813
426.927, 90.960
428.268, 98.110
429.609, 70.264
430.949, 78.421
432.289, 45.581
433.629, 19.744
434.969, 68.909
436.309, 85.076
437.648, 83.246
438.987, 63.417
440.326, 76.590
441.665, 100.765
443.003, 139.941
444.342, 138.118
445.680, 153.296
447.018, 162.351
448.355, 152.655
449.693, 163.836
451.030, 171.017
452.367, 162.199
453.704, 109.382
455.041, 73.564
456.377, 64.747
457.713, 25.930
459.049, 48.112
460.385, 20.295
461.721, 28.477
463.056, 36.658
464.391, 5.161
465.726, 9.018
467.061, 13.197
468.395, 8.374
469.730, 49.550
471.064, 37.726
472.398, 36.900
473.731, 14.072
475.065, 51.244
476.398, 36.414
477.731, 44.583
479.064, 18.750
480.397, 44.916
481.729, 46.082
483.062, 70.247
484.394, 56.410
485.725, 84.570
487.057, 4.268
488.389, 6.890
489.720, 23.046
491.051, 36.199
492.382, 44.349
493.712, 13.497
495.043, 8.643
496.373, 20.785
497.703, 29.925
499.032, 18.068
500.362, 15.208
501.691, 16.356
503.020, 36.501
504.349, 35.643
505.678, 44.782
507.007, 67.920
508.335, 41.055
509.663, 0.811
510.991, 53.315
512.319, 77.438
513.646, 22.559
514.973, 92.677
516.300, 91.791
517.627, 113.915
518.954, 113.036
520.280, 162.152
521.607, 240.273
522.933, 314.396
524.259, 259.521
525.584, 336.645
526.910, 328.764
528.235, 353.882
529.560, 322.014
530.885, 247.141
532.209, 222.270
533.534, 175.393
534.858, 166.511
536.182, 87.628
537.506, 63.748
538.829, 64.862
540.152, 65.971
541.476, 63.075
542.799, 4.177
544.121, 29.275
545.444, 13.633
546.766, 22.562
548.088, 10.518
549.410, 8.493
550.732, 21.013
552.053, 12.508
553.375, 40.551
554.696, 33.630
556.017, 30.734
557.337, 37.474
558.658, 37.041
559.978, 25.248
561.298, 27.477
562.618, 2.737
563.938, 10.994
565.257, 3.286
566.576, 22.577
567.895, 15.102
569.214, 17.770
570.533, 15.572
571.851, 13.940
573.170, 38.677
574.488, 7.713
575.805, 10.875
577.123, 48.451
578.440, 17.020
579.758, 34.577
581.075, 6.125
582.391, 71.658
583.708, 116.184
585.024, 73.702
586.341, 107.214
587.657, 74.718
588.972, 116.215
590.288, 123.704
591.603, 149.186
592.918, 203.661
594.233, 201.128
595.548, 226.589
596.863, 243.574
598.177, 222.486
599.491, 254.924
600.805, 215.353
602.119, 194.775
603.432, 225.190
604.746, 234.597
606.059, 228.996
607.372, 259.388
608.685, 273.771
609.997, 242.147
611.309, 213.515
612.621, 308.875
613.933, 381.228
615.245, 438.572
616.557, 604.909
617.868, 727.238
619.179, 986.558
620.490, 1372.871
621.801, 1777.176
623.111, 2052.372
624.421, 1985.661
625.731, 1633.942
627.041, 1300.214
628.351, 949.479
629.660, 675.736
630.970, 594.984
632.279, 493.225
633.588, 403.457
634.896, 380.682
636.205, 380.897
637.513, 345.106
638.821, 383.306
640.129, 341.498
641.437, 397.684
642.744, 357.860
644.051, 386.754
645.358, 419.778
646.665, 467.929
647.972, 480.072
649.278, 485.206
650.584, 515.394
651.890, 565.512
653.196, 593.622
654.502, 681.723
655.807, 720.059
657.113, 715.391
658.418, 836.031
659.722, 897.099
661.027, 971.159
662.331, 1060.341
663.636, 1285.941
664.940, 1324.976
666.244, 1719.543
667.547, 1957.300
668.851, 2308.309
670.154, 2765.498
671.457, 3373.834
672.760, 4264.819
674.062, 5437.158
675.365, 7157.124
676.667, 9768.081
677.969, 13551.169
679.271, 19085.453
680.572, 26536.803
681.874, 35481.410
683.175, 41888.328
684.476, 41126.910
685.777, 34526.176
687.077, 25869.061
688.378, 19204.326
689.678, 13834.195
690.978, 10173.057
692.278, 7440.683
693.577, 5910.296
694.877, 4621.129
696.176, 3773.953
697.475, 3056.768
698.774, 2673.580
700.072, 2304.175
701.371, 1939.947
702.669, 1675.016
703.967, 1526.493
705.265, 1331.693
706.562, 1185.990
707.860, 1016.471
709.157, 943.455
710.454, 804.650
711.751, 789.112
713.047, 679.868
714.344, 575.238
715.640, 512.546
716.936, 502.218
718.232, 491.079
719.527, 454.673
720.823, 435.845
722.118, 424.767
723.413, 394.844
724.708, 277.010
726.002, 307.361
727.297, 267.819
728.591, 265.611
729.885, 280.190
731.179, 248.357
732.472, 228.261
733.766, 203.880
735.059, 191.980
736.352, 167.449
737.645, 156.070
738.937, 219.651
740.230, 151.226
741.522, 178.796
742.814, 207.360
744.106, 145.918
745.397, 182.471
746.689, 114.019
747.980, 179.562
749.271, 102.099
750.562, 146.631
751.853, 86.159
753.143, 78.681
754.433, 163.198
755.723, 99.711
757.013, 75.219
758.303, 107.721
759.592, 112.220
760.881, 108.713
762.170, 168.202
763.459, 160.687
764.748, 171.167
766.036, 186.643
767.325, 182.114
768.613, 166.582
769.901, 193.045
771.188, 121.504
772.476, 164.959
773.763, 97.411
775.050, 139.858
776.337, 157.302
777.624, 136.742
778.910, 164.179
780.196, 138.613
781.482, 130.043
782.768, 105.469
784.054, 69.893
785.339, 65.313
786.625, 47.838
787.910, 51.883
789.195, 46.555
790.479, 64.963
791.764, 95.368
793.048, 85.771
794.332, 72.171
795.616, 23.568
796.900, 90.962
798.183, 1.354
799.467, 34.737
800.750, 109.118
802.033, 47.497
803.316, 90.874
804.598, 16.249
805.880, 49.621
807.163, 48.992
808.445, 28.360
809.726, 14.272
811.008, 29.079
812.289, 32.570
813.570, 18.757
814.851, 46.083
816.132, 9.407
817.413, 0.271
818.693, 22.045
819.973, 0.640
821.253, 41.668
822.533, 44.978
823.813, 5.287
825.092, 1.594
826.371, 17.896
827.650, 49.802
828.929, 28.470
830.208, 42.743
831.486, 30.984
832.764, 17.730
834.042, 19.489
835.320, 7.260
836.598, 19.963
837.875, 7.813
839.152, 69.596
840.429, 24.584
841.706, 21.234
842.983, 6.935
844.259, 23.105
845.536, 11.723
846.812, 29.558
848.088, 9.594
849.363, 10.746
850.639, 26.900
851.914, 17.944
853.189, 24.796
854.464, 19.345
855.739, 42.487
857.013, 56.640
858.288, 12.805
859.562, 49.979
860.836, 30.163
862.110, 5.359
863.383, 23.566
864.656, 37.209
865.930, 13.015
867.203, 1.745
868.475, 19.512
869.748, 35.212
871.020, 39.063
872.292, 45.646
873.564, 3.365
874.836, 36.079
876.108, 21.203
877.379, 34.499
878.650, 5.198
879.922, 1.110
881.192, 49.568
882.463, 35.747
883.733, 10.933
885.004, 13.396
886.274, 0.266
887.544, 0.046
888.813, 8.427
890.083, 10.783
891.352, 35.149
892.621, 35.520
893.890, 25.897
895.159, 69.280
896.427, 13.668
897.695, 48.063
898.964, 33.463
900.232, 24.869
901.499, 34.177
902.767, 34.700
904.034, 40.126
905.301, 51.557
906.568, 75.995
907.835, 120.440
909.102, 95.891
910.368, 80.349
911.634, 172.813
912.900, 172.285
914.166, 279.764
915.432, 170.249
916.697, 203.742
917.962, 213.242
919.227, 193.750
920.492, 250.265
921.757, 141.787
923.021, 142.317
924.285, 159.854
925.550, 116.399
926.813, 91.952
928.077, 129.513
929.341, 78.082
930.604, 107.664
931.867, 87.253
933.130, 91.851
934.393, 106.457
935.655, 127.071
936.918, 83.694
938.180, 71.324
939.442, 56.965
940.703, 52.615
941.965, 62.272
943.226, 63.939
944.488, 95.615
945.749, 111.300
947.009, 58.993
948.270, 103.692
949.530, 96.404
950.791, 116.397
952.051, 125.127
953.311, 97.869
954.570, 117.620
955.830, 151.381
957.089, 149.098
958.348, 173.899
959.607, 137.712
960.866, 102.535
962.124, 165.897
963.383, 191.758
964.641, 171.073
965.899, 163.962
967.156, 219.867
968.414, 217.651
969.671, 218.022
970.928, 238.962
972.185, 258.375
973.442, 264.645
974.699, 269.314
975.955, 285.111
977.211, 287.769
978.468, 295.782
979.723, 299.442
980.979, 299.958
982.234, 315.733
983.490, 303.444
984.745, 326.174
986.000, 337.835
987.254, 313.243
988.509, 424.350
989.763, 382.794
991.017, 433.561
992.271, 383.708
993.525, 463.486
994.779, 531.658
996.032, 525.850
997.285, 622.282
998.538, 611.727
999.791, 780.956
1001.044, 732.198
1002.296, 922.453
1003.548, 963.715
1004.800, 1053.630
1006.052, 1202.924
1007.304, 1452.231
1008.555, 1640.550
1009.807, 1795.883
1011.058, 1971.231
1012.309, 2085.591
1013.559, 2056.969
1014.810, 1947.370
1016.060, 1820.934
1017.310, 1745.370
1018.560, 1601.756
1019.810, 1537.218
1021.060, 1519.054
1022.309, 1464.557
1023.558, 1522.875
1024.807, 1480.324
1026.056, 1564.265
1027.305, 1617.839
1028.553, 1659.427
1029.801, 1683.919
1031.049, 1769.555
1032.297, 1845.961
1033.545, 2038.652
1034.793, 2159.088
1036.040, 2320.828
1037.287, 2533.583
1038.534, 2672.355
1039.781, 2878.153
1041.027, 3113.965
1042.274, 3385.790
1043.520, 3776.629
1044.766, 4035.480
1046.012, 4421.344
1047.257, 4883.222
1048.503, 5511.114
1049.748, 6030.019
1050.993, 6934.938
1052.238, 7775.868
1053.483, 8793.812
1054.727, 10168.769
1055.971, 11897.737
1057.216, 13965.722
1058.459, 16486.717
1059.703, 19606.723
1060.947, 23726.744
1062.190, 28624.770
1063.433, 34346.824
1064.676, 40830.871
1065.919, 46772.953
1067.162, 52347.031
1068.404, 53589.129
1069.646, 52778.238
1070.888, 49441.348
1072.130, 43106.488
1073.372, 37353.629
1074.613, 31469.791
1075.855, 26438.963
1077.096, 22434.158
1078.337, 19367.355
1079.578, 16597.465
1080.818, 14610.684
1082.059, 12795.914
1083.299, 11515.157
1084.539, 10210.409
1085.779, 9162.678
1087.018, 8268.959
1088.258, 7399.442
1089.497, 6628.574
1090.736, 5844.061
1091.975, 5315.387
1093.213, 4762.724
1094.452, 4283.074
1095.690, 3771.436
1096.928, 3533.809
1098.166, 3210.193
1099.404, 2916.589
1100.642, 2585.000
1101.879, 2452.832
1103.116, 2224.266
1104.353, 2065.711
1105.590, 1814.026
1106.827, 1772.568
1108.063, 1571.222
1109.299, 1417.712
1110.536, 1342.671
1111.771, 1244.189
1113.007, 1162.012
1114.243, 1073.699
1115.478, 1025.357
1116.713, 967.935
1117.948, 977.222
1119.183, 842.927
1120.418, 908.980
1121.652, 951.643
1122.886, 975.276
1124.120, 912.920
1125.354, 754.696
1126.588, 718.363
1127.821, 680.044
1129.055, 656.745
1130.288, 610.454
1131.521, 617.214
1132.753, 556.951
1133.986, 486.725
1135.218, 640.839
1136.450, 475.642
1137.682, 621.476
1138.914, 587.339
1140.146, 589.165
1141.377, 584.997
1142.609, 603.844
1143.840, 616.136
1145.071, 540.007
1146.301, 456.880
1147.532, 389.768
1148.762, 333.663
1149.992, 287.564
1151.222, 250.473
1152.452, 240.394
1153.682, 149.327
1154.911, 158.267
1156.140, 180.213
1157.369, 98.243
1158.598, 82.462
1159.827, 75.508
1161.055, 58.403
1162.284, 141.983
1163.512, 42.925
1164.740, 122.922
1165.967, 61.925
1167.195, 102.976
1168.422, 73.768
1169.650, 120.310
1170.877, 40.095
1172.103, 84.304
1173.330, 119.818
1174.557, 166.729
1175.783, 109.340
1177.009, 84.435
1178.235, 126.466
1179.461, 93.741
1180.686, 161.188
1181.912, 113.552
1183.137, 206.963
1184.362, 132.757
1185.587, 147.427
1186.811, 153.685
1188.036, 183.798
1189.260, 195.045
1190.484, 203.198
1191.708, 222.321
1192.932, 217.443
1194.155, 241.009
1195.378, 188.135
1196.602, 232.326
1197.825, 142.563
1199.047, 204.694
1200.270, 112.825
1201.492, 155.958
1202.715, 83.093
1203.937, 126.228
1205.159, 175.364
1206.380, 97.501
1207.602, 71.638
1208.823, 40.776
1210.044, 89.915
1211.265, 76.146
1212.486, 102.285
1213.707, 47.425
1214.927, 33.565
1216.147, 30.710
1217.367, 34.855
1218.587, 25.180
1219.807, 39.145
1221.027, 10.289
1222.246, 19.433
1223.465, 0.423
1224.684, 57.719
1225.903, 28.138
1227.121, 39.994
1228.340, 43.125
1229.558, 49.255
1230.776, 48.426
1231.994, 27.554
1233.212, 6.680
1234.429, 9.126
1235.646, 37.994
1236.864, 43.113
1238.081, 54.091
1239.297, 57.249
1240.514, 63.460
1241.730, 41.579
1242.947, 12.700
1244.163, 7.821
1245.378, 26.944
1246.594, 27.065
1247.810, 11.699
1249.025, 68.382
1250.240, 53.457
1251.455, 33.387
1252.670, 52.305
1253.885, 5.119
1255.099, 46.922
1256.313, 72.951
1257.527, 56.122
1258.741, 21.616
1259.955, 2.482
1261.168, 17.280
1262.382, 17.775
1263.595, 10.146
1264.808, 0.141
1266.021, 5.160
1267.233, 3.817
1268.446, 26.793
1269.658, 27.395
1270.870, 14.258
1272.082, 47.968
1273.294, 15.926
1274.505, 25.900
1275.716, 44.828
1276.928, 11.864
1278.139, 29.757
1279.349, 17.643
1280.560, 1.511
1281.770, 19.338
1282.981, 8.874
1284.191, 14.871
1285.401, 39.583
1286.610, 46.289
1287.820, 45.988
1289.029, 13.318
1290.239, 29.361
1291.448, 57.032
1292.656, 39.697
1293.865, 82.356
1295.073, 87.009
1296.282, 93.655
1297.490, 84.295
1298.698, 91.927
1299.906, 85.552
1301.113, 44.170
1302.320, 25.780
1303.528, 13.731
1304.735, 26.977
1305.942, 0.437
1307.148, 26.864
1308.355, 16.310
1309.561, 72.226
1310.767, 77.754
1311.973, 37.274
1313.179, 12.216
1314.384, 7.722
1315.590, 11.245
1316.795, 26.214
1318.000, 12.958
1319.205, 11.902
1320.410, 11.515
1321.614, 30.083
1322.819, 28.719
1324.023, 16.379
1325.227, 34.569
1326.431, 32.968
1327.634, 17.499
1328.838, 39.257
1330.041, 13.958
1331.244, 34.156
1332.447, 72.343
1333.650, 36.519
1334.852, 51.685
1336.055, 59.843
1337.257, 72.064
1338.459, 20.204
1339.661, 117.333
1340.862, 47.452
1342.064, 42.562
1343.265, 78.662
1344.466, 92.753
1345.667, 93.031
1346.868, 114.906
1348.068, 93.968
1349.269, 83.020
1350.469, 79.062
1351.669, 74.095
1352.869, 75.119
1354.069, 95.133
1355.268, 49.154
1356.468, 157.151
1357.667, 153.140
1358.866, 109.122
1360.065, 125.346
1361.263, 110.581
1362.462, 120.269
1363.660, 116.220
1364.858, 102.179
1366.056, 127.116
1367.254, 146.061
1368.451, 111.973
1369.649, 100.893
1370.846, 140.904
1372.043, 133.748
1373.240, 118.581
1374.436, 64.400
1375.633, 126.203
1376.829, 136.122
1378.025, 58.887
1379.221, 135.446
1380.417, 140.156
1381.613, 102.837
1382.808, 124.499
1384.003, 101.289
1385.199, 143.069
1386.393, 93.841
1387.588, 90.179
1388.783, 102.926
1389.977, 72.469
1391.171, 52.965
1392.365, 94.855
1393.559, 83.922
1394.753, 54.306
1395.946, 67.973
1397.140, 47.970
1398.333, 91.483
1399.526, 54.711
1400.719, 62.177
1401.911, 40.588
1403.104, 53.009
1404.296, 7.007
1405.488, 63.104
1406.680, 58.499
1407.872, 72.141
1409.063, 116.486
1410.255, 106.663
1411.446, 134.170
1412.637, 87.496
1413.828, 111.812
1415.018, 43.682
1416.209, 91.661
1417.399, 65.903
1418.589, 91.091
1419.779, 51.810
1420.969, 90.483
1422.159, 89.694
1423.348, 131.404
1424.537, 115.951
1425.726, 75.900
1426.915, 89.600
1428.104, 92.029
1429.293, 79.377
1430.481, 100.670
1431.669, 80.185
1432.857, 109.003
1434.045, 96.716
1435.233, 117.647
1436.420, 87.069
1437.608, 106.470
1438.795, 110.848
1439.982, 99.204
1441.169, 75.381
1442.355, 74.688
1443.542, 91.952
1444.728, 82.190
1445.914, 95.403
1447.100, 79.588
1448.286, 81.754
1449.472, 112.902
1450.657, 190.944
1451.842, 155.901
1453.027, 159.967
1454.212, 191.006
1455.397, 153.989
1456.581, 131.907
1457.766, 183.767
1458.950, 125.408
1460.134, 194.161
1461.318, 159.698
1462.501, 154.349
1463.685, 153.449
1464.868, 142.047
1466.051, 114.314
1467.234, 94.831
1468.417, 115.318
1469.600, 100.672
1470.782, 123.372
1471.965, 100.640
1473.147, 126.717
1474.329, 116.152
1475.510, 74.857
1476.692, 62.889
1477.873, 31.979
1479.055, 12.052
1480.236, 46.117
1481.416, 27.154
1482.597, 76.166
1483.778, 30.157
1484.958, 57.126
1486.138, 76.073
1487.318, 108.999
1488.498, 79.911
1489.678, 137.808
1490.857, 53.694
1492.037, 116.578
1493.216, 55.472
1494.395, 75.392
1495.574, 121.474
1496.752, 19.604
1497.931, 96.807
1499.109, 33.108
1500.287, 37.487
1501.465, 15.104
1502.643, 32.856
1503.820, 124.293
1504.998, 28.770
1506.175, 21.299
1507.352, 112.897
1508.529, 22.582
1509.706, 64.372
1510.882, 103.110
1512.059, 40.090
1513.235, 75.435
1514.411, 14.827
1515.587, 15.643
1516.762, 55.868
1517.938, 0.606
1519.113, 28.070
1520.288, 69.733
1521.463, 23.126
1522.638, 13.525
1523.813, 0.000
##END=



