##NAMES=Beryl
##RRUFFID=R050120
##IDEAL CHEMISTRY=Be_3_Al_2_Si_6_O_18_
##LOCALITY=Cruziero mine, San Jose, Minas Gerais, Brazil
##OWNER=RRUFF
##SOURCE=Carlos and Paulo Vasconcelos
##DESCRIPTION=Yellow gemmy fragment
##STATUS=The identification of this mineral has been confirmed by X-ray diffraction and chemical analysis
##URL=rruff.info/R050120
##MEASURED CHEMISTRY=(Be_2.76_Li_0.24_)_Σ=3_Al_2.00_Si_6.00_O_18_·Na_0.24_
##PIN_ID=L00313
##ORIENTATION=Laser parallel to c* (0 0 1). Fiducial mark perpendicular to laser is parallel to a [1 0 0]
97.554, 0.000
98.947, 108.679
100.340, 11.910
101.732, 108.564
103.124, 118.408
104.516, 208.671
105.908, 591.578
107.300, 638.027
108.691, 1037.844
110.082, 1261.463
111.473, 1541.695
112.864, 1892.749
114.254, 2262.965
115.644, 2790.698
117.034, 3540.449
118.424, 4079.893
119.813, 3959.725
121.203, 2973.637
122.592, 2733.373
123.981, 2594.708
125.369, 2474.636
126.758, 2367.439
128.146, 2257.822
129.534, 2533.334
130.922, 2361.706
132.309, 2472.866
133.696, 2241.755
135.083, 2623.313
136.470, 2213.703
137.857, 2317.211
139.243, 2094.469
140.630, 1975.237
142.016, 1779.350
143.401, 1632.904
144.787, 1498.859
146.172, 1372.071
147.557, 1294.529
148.942, 1236.482
150.327, 1165.143
151.711, 1195.288
153.096, 1259.821
154.480, 1289.943
155.863, 1153.413
157.247, 1424.206
158.630, 1365.715
160.013, 1357.727
161.396, 1502.738
162.779, 1545.904
164.161, 1534.230
165.544, 1501.725
166.926, 1447.385
168.308, 1460.209
169.689, 1358.186
171.070, 1614.312
172.452, 1415.578
173.833, 1337.562
175.213, 1497.043
176.594, 1294.729
177.974, 1332.477
179.354, 1241.414
180.734, 1267.049
182.114, 1076.330
183.493, 1089.570
184.872, 998.809
186.251, 897.154
187.630, 835.766
189.008, 745.725
190.387, 666.984
191.765, 560.354
193.143, 505.799
194.520, 388.324
195.898, 573.928
197.275, 450.615
198.652, 367.385
200.029, 314.234
201.405, 215.199
202.782, 60.252
204.158, 203.451
205.534, 323.814
206.909, 62.670
208.285, 47.982
209.660, 79.783
211.035, 118.385
212.410, 5.496
213.784, 20.555
215.159, 126.553
216.533, 79.539
217.907, 48.342
219.281, 91.373
220.654, 43.605
222.027, 69.123
223.400, 108.191
224.773, 198.467
226.146, 223.857
227.518, 271.400
228.891, 247.092
230.263, 321.996
231.634, 361.113
233.006, 234.426
234.377, 207.797
235.748, 213.174
237.119, 142.674
238.490, 321.203
239.860, 165.717
241.231, 372.242
242.601, 139.820
243.970, 132.404
245.340, 211.990
246.709, 37.568
248.079, 126.139
249.448, 70.301
250.816, 32.246
252.185, 19.215
253.553, 161.691
254.921, 61.822
256.289, 73.691
257.657, 10.232
259.024, 19.160
260.391, 26.490
261.758, 106.158
263.125, 173.842
264.492, 187.621
265.858, 112.895
267.224, 371.170
268.590, 125.965
269.956, 216.193
271.321, 181.791
272.687, 190.707
274.052, 1.900
275.416, 193.338
276.781, 131.992
278.146, 120.158
279.510, 171.844
280.874, 19.004
282.237, 339.309
283.601, 101.740
284.964, 228.291
286.327, 449.953
287.690, 473.711
289.053, 525.570
290.416, 1012.518
291.778, 897.561
293.140, 1085.672
294.502, 916.846
295.863, 1011.076
297.225, 923.359
298.586, 536.695
299.947, 449.076
301.308, 279.500
302.668, 202.176
304.029, 152.947
305.389, 199.471
306.749, 99.631
308.108, 317.922
309.468, 193.525
310.827, 341.830
312.186, 272.479
313.545, 558.361
314.903, 714.945
316.262, 739.855
317.620, 835.508
318.978, 1090.980
320.336, 1275.920
321.693, 1471.086
323.051, 1820.744
324.408, 1421.391
325.765, 1505.047
327.121, 1117.709
328.478, 716.377
329.834, 633.252
331.190, 421.549
332.546, 117.043
333.902, 242.959
335.257, 128.135
336.612, 69.748
337.967, 0.463
339.322, 76.678
340.677, 86.762
342.031, 168.963
343.385, 10.779
344.739, 65.520
346.093, 105.035
347.446, 67.607
348.799, 57.270
350.153, 59.381
351.505, 103.830
352.858, 184.215
354.210, 148.102
355.563, 175.910
356.915, 100.277
358.267, 195.584
359.618, 159.803
360.969, 243.988
362.321, 243.695
363.672, 259.535
365.022, 377.863
366.373, 393.180
367.723, 377.240
369.073, 495.094
370.423, 452.283
371.773, 460.352
373.122, 487.592
374.471, 561.863
375.821, 740.451
377.169, 859.158
378.518, 989.912
379.866, 1061.609
381.215, 1301.826
382.563, 1525.045
383.910, 1759.334
385.258, 2187.209
386.605, 2819.006
387.952, 3102.254
389.299, 4051.006
390.646, 4723.738
391.992, 6135.445
393.339, 7602.129
394.685, 9574.789
396.031, 12226.418
397.376, 13899.020
398.722, 15697.594
400.067, 15682.143
401.412, 14602.660
402.757, 12916.150
404.101, 9972.613
405.446, 7651.043
406.790, 6145.443
408.134, 5021.816
409.478, 4328.158
410.821, 3719.471
412.165, 2836.625
413.508, 3037.877
414.851, 2794.605
416.193, 2510.955
417.536, 2653.117
418.878, 2685.930
420.220, 2596.750
421.562, 2568.238
422.904, 2423.127
424.245, 2332.521
425.586, 1990.527
426.927, 1866.529
428.268, 1438.523
429.609, 1030.506
430.949, 1205.475
432.289, 1102.424
433.629, 718.355
434.969, 882.266
436.309, 638.109
437.648, 953.975
438.987, 684.814
440.326, 558.246
441.665, 602.033
443.003, 728.793
444.342, 576.771
445.680, 607.473
447.018, 661.143
448.355, 440.785
449.693, 432.986
451.030, 466.332
452.367, 465.807
453.704, 423.146
455.041, 366.146
456.377, 322.588
457.713, 258.996
459.049, 215.367
460.385, 261.705
461.721, 265.008
463.056, 60.271
464.391, 146.479
465.726, 274.643
467.061, 125.771
468.395, 7.855
469.730, 316.861
471.064, 22.168
472.398, 302.705
473.731, 2.541
475.065, 83.326
476.398, 11.943
477.731, 123.941
479.064, 133.553
480.397, 191.117
481.729, 156.676
483.062, 258.186
484.394, 277.656
485.725, 326.086
487.057, 340.477
488.389, 312.826
489.720, 227.139
491.051, 164.477
492.382, 104.768
493.712, 90.430
495.043, 235.248
496.373, 128.855
497.703, 133.988
499.032, 250.332
500.362, 148.240
501.691, 106.275
503.020, 28.660
504.349, 22.781
505.678, 51.791
507.007, 29.258
508.335, 38.627
509.663, 5.918
510.991, 80.408
512.319, 1.836
513.646, 105.180
514.973, 147.502
516.300, 284.652
517.627, 43.240
518.954, 121.240
520.280, 95.605
521.607, 128.607
522.933, 34.979
524.259, 106.459
525.584, 53.914
526.910, 65.217
528.235, 113.451
529.560, 267.631
530.885, 173.771
532.209, 121.131
533.534, 153.809
534.858, 40.709
536.182, 166.537
537.506, 150.316
538.829, 209.055
540.152, 94.748
541.476, 273.383
542.799, 13.023
544.121, 356.477
545.444, 338.932
546.766, 82.346
548.088, 456.695
549.410, 413.004
550.732, 751.270
552.053, 614.494
553.375, 350.676
554.696, 626.814
556.017, 704.910
557.337, 754.965
558.658, 730.979
559.978, 702.949
561.298, 835.877
562.618, 729.764
563.938, 772.609
565.257, 990.412
566.576, 658.174
567.895, 1061.891
569.214, 1264.568
570.533, 1003.205
571.851, 1179.809
573.170, 1400.369
574.488, 1261.893
575.805, 1355.400
577.123, 1162.867
578.440, 1041.301
579.758, 1345.697
581.075, 875.053
582.391, 1021.369
583.708, 1085.660
585.024, 799.910
586.341, 910.121
587.657, 1001.289
588.972, 816.416
590.288, 693.500
591.603, 640.543
592.918, 516.545
594.233, 638.506
595.548, 542.086
596.863, 568.301
598.177, 481.137
599.491, 539.951
600.805, 495.723
602.119, 294.453
603.432, 669.141
604.746, 456.785
606.059, 390.391
607.372, 125.957
608.685, 192.385
609.997, 4.928
611.309, 366.307
612.621, 268.645
613.933, 463.938
615.245, 465.189
616.557, 384.799
617.868, 504.969
619.179, 646.102
620.490, 500.193
621.801, 912.025
623.111, 680.762
624.421, 1168.963
625.731, 603.291
627.041, 981.473
628.351, 682.357
629.660, 476.754
630.970, 755.531
632.279, 369.600
633.588, 444.406
634.896, 283.863
636.205, 560.660
637.513, 457.670
638.821, 582.846
640.129, 760.840
641.437, 811.305
642.744, 922.531
644.051, 952.549
645.358, 977.912
646.665, 979.391
647.972, 811.496
649.278, 876.129
650.584, 856.010
651.890, 1036.947
653.196, 1079.865
654.502, 1049.768
655.807, 1128.744
657.113, 1034.809
658.418, 1149.270
659.722, 1020.520
661.027, 996.264
662.331, 916.850
663.636, 1330.273
664.940, 1228.193
666.244, 1869.637
667.547, 1638.832
668.851, 2398.643
670.154, 2450.443
671.457, 2817.355
672.760, 3899.680
674.062, 4421.449
675.365, 5668.203
676.667, 7439.043
677.969, 9475.883
679.271, 12475.219
680.572, 16626.361
681.874, 22497.980
683.175, 28795.568
684.476, 34335.414
685.777, 37985.391
687.077, 36428.750
688.378, 32848.562
689.678, 26656.021
690.978, 20913.514
692.278, 15359.342
693.577, 13103.914
694.877, 9845.252
696.176, 8379.141
697.475, 6451.375
698.774, 5701.475
700.072, 4906.465
701.371, 4062.742
702.669, 3277.996
703.967, 3218.754
705.265, 3192.961
706.562, 2602.145
707.860, 2005.307
709.157, 2112.445
710.454, 1591.561
711.751, 1975.656
713.047, 1551.727
714.344, 1652.773
715.640, 1237.801
716.936, 1320.809
718.232, 1552.793
719.527, 1279.758
720.823, 1117.699
722.118, 1157.623
723.413, 1297.523
724.708, 1092.406
726.002, 1294.268
727.297, 1015.109
728.591, 1137.930
729.885, 1164.732
731.179, 836.516
732.472, 840.281
733.766, 754.027
735.059, 883.752
736.352, 960.459
737.645, 830.150
738.937, 904.820
740.230, 836.814
741.522, 735.109
742.814, 796.729
744.106, 782.328
745.397, 907.912
746.689, 688.480
747.980, 722.029
749.271, 577.564
750.562, 982.084
751.853, 562.586
753.143, 677.074
754.433, 823.545
755.723, 563.002
757.013, 828.443
758.303, 477.621
759.592, 737.033
760.881, 706.428
762.170, 697.811
763.459, 523.588
764.748, 177.174
766.036, 619.586
767.325, 196.914
768.613, 552.879
769.901, 354.182
771.188, 37.475
772.476, 630.752
773.763, 132.018
775.050, 306.271
776.337, 424.516
777.624, 290.760
778.910, 66.994
780.196, 352.217
781.482, 146.432
782.768, 1.658
784.054, 52.861
785.339, 215.084
786.625, 119.703
787.910, 185.449
789.195, 80.396
790.479, 73.498
791.764, 48.611
793.048, 112.281
794.332, 292.750
795.616, 105.777
796.900, 85.795
798.183, 8.809
799.467, 132.809
800.750, 52.801
802.033, 262.215
803.316, 225.619
804.598, 127.549
805.880, 483.211
807.163, 162.977
808.445, 74.262
809.726, 12.547
811.008, 106.262
812.289, 161.039
813.570, 123.572
814.851, 79.188
816.132, 26.484
817.413, 86.844
818.693, 119.756
819.973, 72.268
821.253, 95.076
822.533, 266.221
823.813, 147.850
825.092, 121.500
826.371, 165.797
827.650, 47.445
828.929, 228.090
830.208, 180.684
831.486, 317.965
832.764, 60.693
834.042, 187.486
835.320, 163.314
836.598, 50.191
837.875, 70.078
839.152, 88.979
840.429, 451.887
841.706, 180.795
842.983, 257.705
844.259, 435.672
845.536, 199.646
846.812, 341.635
848.088, 123.631
849.363, 127.771
850.639, 391.639
851.914, 195.654
853.189, 255.676
854.464, 529.727
855.739, 879.779
857.013, 424.838
858.288, 505.908
859.562, 597.980
860.836, 598.059
862.110, 300.141
863.383, 570.227
864.656, 361.314
865.930, 524.410
867.203, 410.508
868.475, 486.613
869.748, 463.482
871.020, 250.836
872.292, 367.955
873.564, 325.080
874.836, 216.213
876.108, 151.350
877.379, 479.494
878.650, 272.645
879.922, 339.801
881.192, 286.965
882.463, 279.137
883.733, 112.314
885.004, 163.502
886.274, 219.695
887.544, 345.896
888.813, 144.105
890.083, 398.324
891.352, 483.551
892.621, 304.787
893.890, 493.029
895.159, 375.283
896.427, 314.547
897.695, 591.820
898.964, 464.104
900.232, 613.396
901.499, 359.699
902.767, 721.014
904.034, 350.336
905.301, 751.668
906.568, 869.012
907.835, 725.367
909.102, 454.730
910.368, 430.109
911.634, 615.500
912.900, 553.902
914.166, 797.316
915.432, 561.738
916.697, 106.184
917.962, 572.641
919.227, 99.137
920.492, 363.641
921.757, 244.160
923.021, 267.695
924.285, 501.840
925.550, 309.398
926.813, 294.969
928.077, 164.555
929.341, 343.152
930.604, 443.762
931.867, 343.742
933.130, 407.680
934.393, 508.441
935.655, 78.074
936.918, 742.496
938.180, 109.184
939.442, 64.348
940.703, 110.066
941.965, 333.797
943.226, 335.203
944.488, 362.797
945.749, 408.832
947.009, 336.625
948.270, 147.434
949.530, 174.219
950.791, 181.684
952.051, 315.543
953.311, 22.266
954.570, 246.137
955.830, 26.043
957.089, 269.488
958.348, 145.434
959.607, 77.398
960.866, 93.379
962.124, 5.805
963.383, 177.230
964.641, 56.977
965.899, 261.141
967.156, 70.668
968.414, 7.656
969.671, 113.344
970.928, 106.414
972.185, 166.816
973.442, 102.949
974.699, 133.297
975.955, 147.598
977.211, 176.730
978.468, 193.562
979.723, 68.840
980.979, 229.820
982.234, 411.457
983.490, 257.211
984.745, 341.035
986.000, 514.332
987.254, 361.656
988.509, 932.957
989.763, 735.355
991.017, 967.781
992.271, 1046.223
993.525, 1319.730
994.779, 1605.262
996.032, 1782.934
997.285, 2128.617
998.538, 1841.328
999.791, 2799.055
1001.044, 2180.809
1002.296, 2631.582
1003.548, 2102.367
1004.800, 1797.184
1006.052, 1660.016
1007.304, 1384.871
1008.555, 1317.750
1009.807, 1293.656
1011.058, 1192.590
1012.309, 1175.547
1013.559, 926.527
1014.810, 657.535
1016.060, 969.582
1017.310, 971.652
1018.560, 487.738
1019.810, 772.840
1021.060, 971.977
1022.309, 589.129
1023.558, 898.379
1024.807, 623.582
1026.056, 678.809
1027.305, 584.047
1028.553, 819.309
1029.801, 577.637
1031.049, 526.984
1032.297, 504.594
1033.545, 449.258
1034.793, 360.145
1036.040, 463.586
1037.287, 453.051
1038.534, 410.539
1039.781, 876.043
1041.027, 433.594
1042.274, 797.172
1043.520, 704.766
1044.766, 548.391
1046.012, 683.035
1047.257, 735.711
1048.503, 1355.406
1049.748, 663.121
1050.993, 1510.859
1052.238, 1421.633
1053.483, 1314.422
1054.727, 1569.227
1055.971, 1622.152
1057.216, 1851.562
1058.459, 2109.746
1059.703, 2410.617
1060.947, 2845.504
1062.190, 3170.406
1063.433, 3234.316
1064.676, 3707.254
1065.919, 4223.207
1067.162, 4299.164
1068.404, 4507.000
1069.646, 4046.125
1070.888, 4499.125
1072.130, 4009.133
1073.372, 3858.156
1074.613, 4160.191
1075.855, 3709.234
1077.096, 3773.289
1078.337, 3763.352
1079.578, 3274.422
1080.818, 3157.504
1082.059, 2834.594
1083.299, 2945.695
1084.539, 2248.805
1085.779, 2263.922
1087.018, 2094.055
1088.258, 1823.188
1089.497, 1754.367
1090.736, 1394.555
1091.975, 1548.773
1093.213, 1224.996
1094.452, 1543.227
1095.690, 1063.492
1096.928, 1099.766
1098.166, 964.758
1099.404, 1357.031
1100.642, 967.312
1101.879, 1126.957
1103.116, 821.246
1104.353, 1116.602
1105.590, 682.555
1106.827, 1142.348
1108.063, 994.914
1109.299, 1078.723
1110.536, 1167.062
1111.771, 724.371
1113.007, 796.785
1114.243, 1054.332
1115.478, 688.469
1116.713, 629.656
1117.948, 966.043
1119.183, 655.762
1120.418, 718.855
1121.652, 899.367
1122.886, 829.203
1124.120, 1055.121
1125.354, 618.039
1126.588, 837.559
1127.821, 597.230
1129.055, 951.559
1130.288, 847.039
1131.521, 847.102
1132.753, 421.148
1133.986, 495.414
1135.218, 1077.504
1136.450, 487.609
1137.682, 1173.043
1138.914, 651.270
1140.146, 837.566
1141.377, 587.828
1142.609, 392.371
1143.840, 844.562
1145.071, 981.609
1146.301, 817.781
1147.532, 849.883
1148.762, 623.703
1149.992, 543.844
1151.222, 501.023
1152.452, 742.062
1153.682, 447.352
1154.911, 805.988
1156.140, 443.438
1157.369, 507.691
1158.598, 384.906
1159.827, 464.586
1161.055, 158.117
1162.284, 415.824
1163.512, 233.082
1164.740, 244.164
1165.967, 332.445
1167.195, 540.812
1168.422, 301.664
1169.650, 385.246
1170.877, 93.281
1172.103, 316.059
1173.330, 368.836
1174.557, 711.734
1175.783, 594.332
1177.009, 216.605
1178.235, 590.211
1179.461, 390.484
1180.686, 511.098
1181.912, 829.949
1183.137, 769.758
1184.362, 860.680
1185.587, 548.809
1186.811, 850.430
1188.036, 610.730
1189.260, 626.027
1190.484, 702.340
1191.708, 906.266
1192.932, 597.539
1194.155, 605.871
1195.378, 810.777
1196.602, 921.781
1197.825, 548.301
1199.047, 1152.332
1200.270, 778.719
1201.492, 1311.234
1202.715, 577.613
1203.937, 891.980
1205.159, 841.121
1206.380, 866.406
1207.602, 925.234
1208.823, 735.973
1210.044, 928.160
1211.265, 847.051
1212.486, 938.094
1213.707, 773.113
1214.927, 1033.090
1216.147, 839.738
1217.367, 1129.719
1218.587, 927.297
1219.807, 883.840
1221.027, 761.352
1222.246, 545.797
1223.465, 934.188
1224.684, 1250.531
1225.903, 865.871
1227.121, 805.082
1228.340, 1024.230
1229.558, 1033.312
1230.776, 853.348
1231.994, 658.195
1233.212, 834.000
1234.429, 600.840
1235.646, 671.480
1236.864, 856.055
1238.081, 515.473
1239.297, 570.781
1240.514, 568.957
1241.730, 555.066
1242.947, 445.285
1244.163, 127.156
1245.378, 573.945
1246.594, 603.652
1247.810, 34.277
1249.025, 558.449
1250.240, 403.879
1251.455, 167.336
1252.670, 216.602
1253.885, 271.812
1255.099, 214.910
1256.313, 41.941
1257.527, 448.957
1258.741, 352.773
1259.955, 313.500
1261.168, 25.043
1262.382, 222.488
1263.595, 106.719
1264.808, 71.004
1266.021, 205.195
1267.233, 96.543
1268.446, 323.562
1269.658, 89.875
1270.870, 230.961
1272.082, 163.707
1273.294, 90.402
1274.505, 138.020
1275.716, 227.504
1276.928, 72.844
1278.139, 204.188
1279.349, 11.539
1280.560, 187.242
1281.770, 48.801
1282.981, 108.871
1284.191, 146.223
1285.401, 131.164
1286.610, 103.852
1287.820, 11.062
1289.029, 370.391
1290.239, 211.250
1291.448, 62.879
1292.656, 210.488
1293.865, 102.070
1295.073, 212.594
1296.282, 209.949
1297.490, 93.520
1298.698, 194.902
1299.906, 146.258
1301.113, 74.492
1302.320, 39.766
1303.528, 99.016
1304.735, 71.117
1305.942, 83.195
1307.148, 163.652
1308.355, 27.805
1309.561, 291.098
1310.767, 362.918
1311.973, 356.684
1313.179, 43.359
1314.384, 639.996
1315.590, 42.555
1316.795, 391.066
1318.000, 189.547
1319.205, 370.000
1320.410, 447.422
1321.614, 123.203
1322.819, 472.148
1324.023, 295.480
1325.227, 605.797
1326.431, 404.098
1327.634, 21.387
1328.838, 237.664
1330.041, 158.938
1331.244, 583.203
1332.447, 1.469
1333.650, 177.738
1334.852, 180.020
1336.055, 138.324
1337.257, 334.520
1338.459, 50.852
1339.661, 429.035
1340.862, 408.438
1342.064, 181.906
1343.265, 96.426
1344.466, 312.801
1345.667, 237.363
1346.868, 730.918
1348.068, 490.750
1349.269, 299.777
1350.469, 788.551
1351.669, 593.824
1352.869, 474.184
1354.069, 760.438
1355.268, 171.477
1356.468, 483.047
1357.667, 576.984
1358.866, 425.707
1360.065, 760.520
1361.263, 312.070
1362.462, 516.047
1363.660, 641.211
1364.858, 550.738
1366.056, 547.672
1367.254, 824.938
1368.451, 505.242
1369.649, 362.184
1370.846, 547.699
1372.043, 395.930
1373.240, 459.590
1374.436, 730.168
1375.633, 489.516
1376.829, 485.539
1378.025, 323.250
1379.221, 563.238
1380.417, 630.934
1381.613, 349.934
1382.808, 723.582
1384.003, 655.508
1385.199, 660.145
1386.393, 209.184
1387.588, 723.906
1388.783, 400.926
1389.977, 516.410
1391.171, 259.855
1392.365, 96.172
1393.559, 438.898
1394.753, 202.109
1395.946, 457.227
1397.140, 210.113
1398.333, 463.500
1399.526, 171.043
1400.719, 479.449
1401.911, 239.301
1403.104, 316.770
1404.296, 274.164
1405.488, 510.340
1406.680, 24.461
1407.872, 178.379
1409.063, 455.512
1410.255, 99.629
1411.446, 579.730
1412.637, 36.984
1413.828, 358.941
1415.018, 218.840
1416.209, 472.332
1417.399, 149.277
1418.589, 494.496
1419.779, 72.016
1420.969, 239.711
1422.159, 4.746
1423.348, 393.996
1424.537, 292.398
1425.726, 45.961
1426.915, 135.078
1428.104, 0.000
##END=



