##NAMES=Beryl
##RRUFFID=R040002
##IDEAL CHEMISTRY=Be_3_Al_2_Si_6_O_18_
##LOCALITY=Usakos, Namibia
##OWNER=RRUFF
##SOURCE=University of Arizona Mineral Museum
##DESCRIPTION=Light blue hexagonal prism, variety aquamarine
##STATUS=The identification of this mineral has been confirmed by X-ray diffraction and chemical analysis
##URL=rruff.info/R040002
##MEASURED CHEMISTRY=(Be_0.97_Li_0.03_)_3_(Al_0.97_Fe^3+^_0.03_)_2_Si_6_O_18_Î‡Na_0.01_
##PIN_ID=M00004
##ORIENTATION=Laser parallel to -c* (0 0 -1). Fiducial mark perpendicular to laser is parallel to a [1 0 0]
98.947, 0.000
100.340, 0.971
101.732, 16.536
103.124, 0.839
104.516, 80.782
105.908, 174.006
107.300, 182.867
108.691, 204.409
110.082, 248.840
111.473, 336.897
112.864, 268.784
114.254, 586.573
115.644, 780.119
117.034, 971.786
118.424, 988.449
119.813, 820.445
121.203, 405.812
122.592, 302.786
123.981, 333.690
125.369, 256.822
126.758, 114.150
128.146, 122.223
129.534, 298.310
130.922, 179.514
132.309, 232.488
133.696, 152.415
135.083, 252.667
136.470, 256.194
137.857, 333.588
139.243, 364.341
140.630, 436.641
142.016, 506.521
143.401, 624.024
144.787, 572.297
146.172, 640.470
147.557, 466.366
148.942, 257.999
150.327, 171.446
151.711, 115.367
153.096, 22.449
154.480, 5.526
155.863, 32.390
157.247, 18.354
158.630, 5.689
160.013, 17.708
161.396, 104.387
162.779, 93.058
164.161, 56.803
165.544, 124.267
166.926, 34.240
168.308, 91.840
169.689, 105.702
171.070, 108.795
172.452, 166.315
173.833, 214.047
175.213, 109.722
176.594, 124.486
177.974, 284.110
179.354, 319.933
180.734, 434.078
182.114, 657.912
183.493, 868.017
184.872, 819.283
186.251, 696.404
187.630, 412.607
189.008, 322.885
190.387, 310.227
191.765, 223.625
193.143, 170.071
194.520, 131.559
195.898, 191.083
197.275, 166.630
198.652, 219.194
200.029, 218.776
201.405, 157.365
202.782, 182.431
204.158, 211.582
205.534, 179.212
206.909, 60.858
208.285, 94.515
209.660, 138.153
211.035, 41.277
212.410, 31.229
213.784, 92.295
215.159, 4.151
216.533, 96.562
217.907, 27.115
219.281, 26.702
220.654, 81.637
222.027, 33.405
223.400, 31.134
224.773, 24.611
226.146, 15.135
227.518, 16.115
228.891, 17.607
230.263, 8.082
231.634, 8.325
233.006, 21.993
234.377, 35.263
235.748, 164.997
237.119, 45.164
238.490, 229.014
239.860, 232.003
241.231, 184.046
242.601, 143.127
243.970, 154.278
245.340, 229.562
246.709, 149.975
248.079, 208.432
249.448, 153.986
250.816, 209.509
252.185, 153.999
253.553, 198.457
254.921, 202.883
256.289, 164.276
257.657, 187.637
259.024, 154.967
260.391, 190.265
261.758, 242.529
263.125, 254.766
264.492, 234.240
265.858, 212.496
267.224, 270.832
268.590, 206.121
269.956, 322.353
271.321, 264.518
272.687, 355.608
274.052, 380.618
275.416, 299.548
276.781, 473.396
278.146, 419.165
279.510, 603.833
280.874, 692.400
282.237, 876.864
283.601, 1038.047
284.964, 959.523
286.327, 1332.729
287.690, 1472.862
289.053, 1503.926
290.416, 1358.916
291.778, 950.772
293.140, 1039.361
294.502, 849.828
295.863, 879.206
297.225, 866.494
298.586, 794.081
299.947, 874.313
301.308, 814.376
302.668, 925.485
304.029, 1124.023
305.389, 1138.954
306.749, 1260.340
308.108, 1460.100
309.468, 1706.217
310.827, 2054.882
312.186, 2658.130
313.545, 3310.762
314.903, 4424.939
316.262, 5358.036
317.620, 6390.262
318.978, 7334.824
320.336, 8560.409
321.693, 8918.778
323.051, 7660.246
324.408, 5108.191
325.765, 3486.886
327.121, 1853.435
328.478, 1306.599
329.834, 767.385
331.190, 471.149
332.546, 321.792
333.902, 300.632
335.257, 88.170
336.612, 152.024
337.967, 163.065
339.322, 152.272
340.677, 215.857
342.031, 158.851
343.385, 175.204
344.739, 163.195
346.093, 158.201
347.446, 162.040
348.799, 273.195
350.153, 367.393
351.505, 290.039
352.858, 367.375
354.210, 313.226
355.563, 341.295
356.915, 243.849
358.267, 316.287
359.618, 193.107
360.969, 244.812
362.321, 151.863
363.672, 227.006
365.022, 296.717
366.373, 274.466
367.723, 234.096
369.073, 229.679
370.423, 160.599
371.773, 147.355
373.122, 151.085
374.471, 180.258
375.821, 160.687
377.169, 372.015
378.518, 245.783
379.866, 313.874
381.215, 623.760
382.563, 792.496
383.910, 1116.300
385.258, 1736.986
386.605, 2557.000
387.952, 3607.755
389.299, 5623.064
390.646, 7713.592
391.992, 10848.410
393.339, 14094.226
394.685, 16596.203
396.031, 16965.783
397.376, 14798.592
398.722, 11784.036
400.067, 8655.228
401.412, 6289.371
402.757, 5034.395
404.101, 3543.210
405.446, 2857.836
406.790, 2298.489
408.134, 1968.435
409.478, 1765.031
410.821, 1769.850
412.165, 1656.418
413.508, 2054.197
414.851, 2060.723
416.193, 2551.410
417.536, 3064.099
418.878, 3806.602
420.220, 4467.179
421.562, 4253.600
422.904, 4195.150
424.245, 3361.856
425.586, 2530.541
426.927, 2123.195
428.268, 1390.727
429.609, 1155.308
430.949, 1010.732
432.289, 1028.244
433.629, 914.722
434.969, 1134.162
436.309, 1278.572
437.648, 1854.946
438.987, 2302.306
440.326, 2916.647
441.665, 3656.957
443.003, 4059.258
444.342, 3737.525
445.680, 2926.775
447.018, 2218.993
448.355, 1477.181
449.693, 1193.336
451.030, 900.459
452.367, 786.551
453.704, 438.611
455.041, 495.643
456.377, 474.643
457.713, 338.615
459.049, 209.558
460.385, 292.468
461.721, 384.348
463.056, 295.200
464.391, 184.023
465.726, 377.814
467.061, 204.576
468.395, 107.306
469.730, 253.999
471.064, 114.663
472.398, 205.291
473.731, 105.887
475.065, 191.448
476.398, 146.978
477.731, 185.474
479.064, 131.953
480.397, 125.085
481.729, 240.841
483.062, 126.266
484.394, 153.670
485.725, 242.050
487.057, 238.427
488.389, 214.779
489.720, 211.110
491.051, 191.258
492.382, 173.703
493.712, 154.960
495.043, 233.189
496.373, 224.719
497.703, 225.489
499.032, 312.280
500.362, 240.003
501.691, 270.973
503.020, 180.682
504.349, 264.429
505.678, 258.110
507.007, 294.786
508.335, 216.450
509.663, 203.454
510.991, 93.431
512.319, 164.373
513.646, 277.291
514.973, 200.184
516.300, 267.046
517.627, 253.552
518.954, 218.961
520.280, 219.197
521.607, 185.926
522.933, 160.234
524.259, 198.829
525.584, 211.499
526.910, 266.140
528.235, 241.676
529.560, 251.165
530.885, 108.340
532.209, 154.425
533.534, 296.496
534.858, 69.693
536.182, 13.777
537.506, 101.218
538.829, 33.370
540.152, 74.027
541.476, 9.233
542.799, 174.542
544.121, 76.437
545.444, 31.411
546.766, 165.443
548.088, 67.614
549.410, 163.867
550.732, 14.256
552.053, 20.698
553.375, 103.198
554.696, 116.799
556.017, 160.487
557.337, 167.745
558.658, 328.972
559.978, 292.177
561.298, 718.354
562.618, 549.507
563.938, 522.635
565.257, 609.824
566.576, 367.902
567.895, 516.656
569.214, 626.685
570.533, 622.687
571.851, 633.087
573.170, 851.465
574.488, 996.394
575.805, 1228.842
577.123, 1455.465
578.440, 1741.207
579.758, 1912.445
581.075, 2074.196
582.391, 2228.093
583.708, 2106.174
585.024, 1898.332
586.341, 1910.036
587.657, 1762.715
588.972, 1483.368
590.288, 1346.998
591.603, 1307.606
592.918, 1219.186
594.233, 1287.103
595.548, 1368.633
596.863, 1284.311
598.177, 1309.601
599.491, 1303.292
600.805, 1134.029
602.119, 1233.446
603.432, 1195.173
604.746, 1272.673
606.059, 1026.302
607.372, 877.610
608.685, 894.896
609.997, 781.155
611.309, 790.392
612.621, 659.603
613.933, 916.789
615.245, 788.953
616.557, 873.094
617.868, 853.746
619.179, 1044.721
620.490, 1069.791
621.801, 1299.730
623.111, 1265.181
624.421, 1419.180
625.731, 1003.670
627.041, 1222.729
628.351, 862.380
629.660, 707.425
630.970, 833.826
632.279, 424.924
633.588, 563.223
634.896, 373.444
636.205, 608.787
637.513, 488.817
638.821, 481.150
640.129, 602.375
641.437, 642.595
642.744, 607.921
644.051, 762.261
645.358, 958.803
646.665, 842.556
647.972, 912.153
649.278, 880.202
650.584, 845.350
651.890, 896.218
653.196, 860.694
654.502, 922.144
655.807, 690.669
657.113, 714.364
658.418, 776.162
659.722, 706.263
661.027, 789.370
662.331, 795.730
663.636, 1053.653
664.940, 1003.896
666.244, 1424.948
667.547, 1498.134
668.851, 2050.615
670.154, 2420.033
671.457, 2879.385
672.760, 3886.146
674.062, 4922.301
675.365, 6448.203
676.667, 8845.941
677.969, 12745.665
679.271, 18157.225
680.572, 25042.521
681.874, 33969.102
683.175, 40840.707
684.476, 41161.520
685.777, 35902.215
687.077, 27634.943
688.378, 20539.043
689.678, 14993.350
690.978, 11448.205
692.278, 8344.012
693.577, 6947.502
694.877, 5328.488
696.176, 4618.074
697.475, 3620.081
698.774, 3304.256
700.072, 2691.907
701.371, 2410.694
702.669, 2010.291
703.967, 1878.457
705.265, 1681.751
706.562, 1359.993
707.860, 1031.616
709.157, 1104.830
710.454, 701.860
711.751, 748.034
713.047, 530.093
714.344, 566.175
715.640, 486.247
716.936, 279.467
718.232, 357.152
719.527, 224.828
720.823, 134.495
722.118, 158.153
723.413, 3.835
724.708, 162.471
726.002, 235.098
727.297, 49.718
728.591, 48.326
729.885, 273.924
731.179, 17.515
732.472, 52.092
733.766, 89.660
735.059, 47.220
736.352, 4.232
737.645, 29.699
738.937, 64.807
740.230, 39.304
741.522, 197.789
742.814, 226.270
744.106, 254.743
745.397, 200.211
746.689, 136.673
747.980, 193.129
749.271, 49.578
750.562, 264.021
751.853, 71.544
753.143, 65.150
754.433, 76.204
755.723, 92.449
757.013, 128.845
758.303, 57.867
759.592, 95.387
760.881, 57.636
762.170, 350.876
763.459, 574.112
764.748, 609.345
766.036, 1057.572
767.325, 1251.795
768.613, 1752.014
769.901, 2068.229
771.188, 2095.439
772.476, 2034.646
773.763, 1546.852
775.050, 1273.054
776.337, 925.252
777.624, 746.447
778.910, 487.641
780.196, 336.601
781.482, 196.020
782.768, 162.209
784.054, 177.427
785.339, 245.614
786.625, 80.800
787.910, 152.117
789.195, 80.305
790.479, 40.512
791.764, 102.947
793.048, 18.111
794.332, 9.727
795.616, 34.444
796.900, 30.869
798.183, 96.957
799.467, 52.146
800.750, 2.546
802.033, 2.757
803.316, 127.846
804.598, 58.733
805.880, 101.355
807.163, 28.621
808.445, 21.852
809.726, 2.373
811.008, 40.448
812.289, 34.479
813.570, 14.424
814.851, 33.621
816.132, 67.335
817.413, 181.320
818.693, 125.611
819.973, 61.543
821.253, 10.475
822.533, 63.400
823.813, 39.669
825.092, 28.244
826.371, 86.155
827.650, 54.068
828.929, 155.982
830.208, 126.899
831.486, 21.178
832.764, 130.742
834.042, 17.333
835.320, 102.591
836.598, 223.518
837.875, 146.460
839.152, 205.404
840.429, 303.371
841.706, 94.355
842.983, 83.370
844.259, 282.410
845.536, 264.466
846.812, 265.549
848.088, 338.652
849.363, 444.779
850.639, 422.970
851.914, 423.210
853.189, 650.473
854.464, 861.824
855.739, 1107.261
857.013, 1158.900
858.288, 1103.300
859.562, 1145.922
860.836, 1207.619
862.110, 1009.349
863.383, 1000.436
864.656, 990.917
865.930, 781.783
867.203, 570.664
868.475, 445.574
869.748, 378.506
871.020, 347.459
872.292, 248.447
873.564, 220.447
874.836, 299.398
876.108, 87.459
877.379, 347.820
878.650, 233.887
879.922, 245.955
881.192, 183.605
882.463, 192.260
883.733, 210.336
885.004, 192.871
886.274, 203.555
887.544, 212.256
888.813, 149.068
890.083, 242.205
891.352, 264.170
892.621, 300.934
893.890, 244.592
895.159, 323.686
896.427, 312.779
897.695, 367.141
898.964, 451.982
900.232, 474.082
901.499, 550.188
902.767, 563.930
904.034, 540.035
905.301, 639.963
906.568, 769.260
907.835, 789.129
909.102, 814.930
910.368, 816.027
911.634, 899.789
912.900, 968.754
914.166, 1068.564
915.432, 796.670
916.697, 913.773
917.962, 953.873
919.227, 635.973
920.492, 658.068
921.757, 506.158
923.021, 512.246
924.285, 458.330
925.550, 497.406
926.813, 444.480
928.077, 301.549
929.341, 416.611
930.604, 407.672
931.867, 260.723
933.130, 244.770
934.393, 423.811
935.655, 118.844
936.918, 389.875
938.180, 259.896
939.442, 98.777
940.703, 130.785
941.965, 275.652
943.226, 60.465
944.488, 192.467
945.749, 231.037
947.009, 131.168
948.270, 71.795
949.530, 132.402
950.791, 158.334
952.051, 87.018
953.311, 88.361
954.570, 161.814
955.830, 189.703
957.089, 62.387
958.348, 101.246
959.607, 110.510
960.866, 41.295
962.124, 170.695
963.383, 179.389
964.641, 179.523
965.899, 207.453
967.156, 210.135
968.414, 213.053
969.671, 287.424
970.928, 259.355
972.185, 345.223
973.442, 217.605
974.699, 346.203
975.955, 258.127
977.211, 159.820
978.468, 372.848
979.723, 284.230
980.979, 323.910
982.234, 641.740
983.490, 314.631
984.745, 630.482
986.000, 552.418
987.254, 514.809
988.509, 882.418
989.763, 686.906
991.017, 845.354
992.271, 988.191
993.525, 988.871
994.779, 1395.264
996.032, 1571.316
997.285, 1810.398
998.538, 1922.143
999.791, 2814.379
1001.044, 2929.406
1002.296, 3315.883
1003.548, 3055.488
1004.800, 2591.949
1006.052, 2666.295
1007.304, 2353.348
1008.555, 2081.299
1009.807, 1925.730
1011.058, 1740.480
1012.309, 1525.627
1013.559, 1523.404
1014.810, 1314.297
1016.060, 1267.637
1017.310, 1275.553
1018.560, 1133.529
1019.810, 1238.848
1021.060, 1279.250
1022.309, 1115.209
1023.558, 1262.049
1024.807, 961.467
1026.056, 1041.154
1027.305, 853.537
1028.553, 1117.512
1029.801, 966.500
1031.049, 827.184
1032.297, 754.131
1033.545, 733.725
1034.793, 728.436
1036.040, 803.236
1037.287, 851.781
1038.534, 940.082
1039.781, 1076.742
1041.027, 872.740
1042.274, 878.867
1043.520, 1034.689
1044.766, 882.395
1046.012, 964.645
1047.257, 919.172
1048.503, 1160.812
1049.748, 1104.311
1050.993, 1353.211
1052.238, 1277.092
1053.483, 1293.221
1054.727, 1416.635
1055.971, 1607.068
1057.216, 1776.320
1058.459, 1963.670
1059.703, 2460.473
1060.947, 2821.363
1062.190, 3444.689
1063.433, 4163.672
1064.676, 4886.682
1065.919, 5218.287
1067.162, 6322.564
1068.404, 6262.945
1069.646, 6069.424
1070.888, 6035.508
1072.130, 5216.451
1073.372, 4460.357
1074.613, 4012.223
1075.855, 3479.801
1077.096, 2943.836
1078.337, 2845.582
1079.578, 2497.289
1080.818, 2404.955
1082.059, 2140.582
1083.299, 2118.166
1084.539, 1916.707
1085.779, 1824.178
1087.018, 1646.637
1088.258, 1437.055
1089.497, 1423.299
1090.736, 1241.631
1091.975, 1081.920
1093.213, 1006.881
1094.452, 991.092
1095.690, 849.264
1096.928, 899.373
1098.166, 771.186
1099.404, 872.201
1100.642, 616.223
1101.879, 733.988
1103.116, 625.711
1104.353, 641.600
1105.590, 556.441
1106.827, 534.902
1108.063, 472.475
1109.299, 609.033
1110.536, 613.250
1111.771, 394.863
1113.007, 590.434
1114.243, 473.996
1115.478, 389.488
1116.713, 349.934
1117.948, 335.367
1119.183, 370.904
1120.418, 395.111
1121.652, 499.418
1122.886, 571.676
1124.120, 615.021
1125.354, 378.195
1126.588, 356.318
1127.821, 238.385
1129.055, 207.398
1130.288, 170.328
1131.521, 153.236
1132.753, 162.064
1133.986, 173.832
1135.218, 269.537
1136.450, 5.180
1137.682, 243.393
1138.914, 23.646
1140.146, 13.600
1141.377, 42.529
1142.609, 38.170
1143.840, 0.016
1145.071, 32.078
1146.301, 45.459
1147.532, 18.135
1148.762, 94.287
1149.992, 5.727
1151.222, 54.701
1152.452, 53.135
1153.682, 130.887
1154.911, 27.246
1156.140, 92.697
1157.369, 20.764
1158.598, 9.879
1159.827, 22.848
1161.055, 38.945
1162.284, 32.613
1163.512, 15.908
1164.740, 30.293
1165.967, 45.943
1167.195, 19.713
1168.422, 21.279
1169.650, 78.094
1170.877, 30.154
1172.103, 85.947
1173.330, 26.781
1174.557, 147.932
1175.783, 238.957
1177.009, 229.146
1178.235, 106.562
1179.461, 225.234
1180.686, 199.637
1181.912, 301.256
1183.137, 307.889
1184.362, 292.840
1185.587, 345.145
1186.811, 251.416
1188.036, 163.842
1189.260, 145.477
1190.484, 194.238
1191.708, 215.854
1192.932, 121.148
1194.155, 87.176
1195.378, 212.629
1196.602, 237.984
1197.825, 150.961
1199.047, 375.258
1200.270, 308.254
1201.492, 470.309
1202.715, 81.896
1203.937, 261.213
1205.159, 230.404
1206.380, 358.576
1207.602, 327.863
1208.823, 218.029
1210.044, 292.016
1211.265, 279.424
1212.486, 367.570
1213.707, 436.369
1214.927, 402.203
1216.147, 368.865
1217.367, 453.990
1218.587, 520.369
1219.807, 559.818
1221.027, 630.564
1222.246, 629.127
1223.465, 797.393
1224.684, 1210.141
1225.903, 1277.498
1227.121, 1188.551
1228.340, 1467.922
1229.558, 1348.859
1230.776, 1357.744
1231.994, 1406.570
1233.212, 1566.840
1234.429, 1619.553
1235.646, 1613.387
1236.864, 2018.209
1238.081, 2149.744
1239.297, 2587.221
1240.514, 3089.635
1241.730, 3596.967
1242.947, 4304.203
1244.163, 4968.352
1245.378, 5243.438
1246.594, 4858.418
1247.810, 3897.652
1249.025, 3424.490
1250.240, 2771.268
1251.455, 2117.953
1252.670, 1771.561
1253.885, 1369.096
1255.099, 1184.906
1256.313, 768.516
1257.527, 652.590
1258.741, 867.625
1259.955, 446.104
1261.168, 629.105
1262.382, 622.982
1263.595, 642.449
1264.808, 606.900
1266.021, 656.459
1267.233, 513.328
1268.446, 533.270
1269.658, 419.350
1270.870, 509.904
1272.082, 573.115
1273.294, 628.143
1274.505, 709.695
1275.716, 628.830
1276.928, 471.787
1278.139, 621.377
1279.349, 492.879
1280.560, 519.268
1281.770, 656.836
1282.981, 280.010
1284.191, 323.123
1285.401, 275.090
1286.610, 242.492
1287.820, 380.160
1289.029, 62.391
1290.239, 257.201
1291.448, 179.912
1292.656, 250.666
1293.865, 354.619
1295.073, 377.688
1296.282, 435.373
1297.490, 169.506
1298.698, 408.740
1299.906, 381.055
1301.113, 113.480
1302.320, 325.195
1303.528, 27.756
1304.735, 46.645
1305.942, 76.996
1307.148, 380.326
1308.355, 39.572
1309.561, 402.178
1310.767, 213.643
1311.973, 366.473
1313.179, 225.729
1314.384, 268.240
1315.590, 287.273
1316.795, 434.516
1318.000, 223.990
1319.205, 486.539
1320.410, 218.746
1321.614, 188.592
1322.819, 338.422
1324.023, 253.383
1325.227, 310.057
1326.431, 235.521
1327.634, 216.990
1328.838, 248.088
1330.041, 143.746
1331.244, 259.957
1332.447, 206.373
1333.650, 141.090
1334.852, 95.008
1336.055, 113.826
1337.257, 23.549
1338.459, 5.826
1339.661, 103.701
1340.862, 110.135
1342.064, 25.467
1343.265, 15.295
1344.466, 147.850
1345.667, 117.889
1346.868, 212.770
1348.068, 260.582
1349.269, 60.271
1350.469, 328.865
1351.669, 188.119
1352.869, 335.488
1354.069, 300.771
1355.268, 15.010
1356.468, 181.154
1357.667, 359.271
1358.866, 219.215
1360.065, 358.561
1361.263, 138.291
1362.462, 249.297
1363.660, 232.064
1364.858, 145.656
1366.056, 172.650
1367.254, 392.213
1368.451, 91.484
1369.649, 164.928
1370.846, 276.619
1372.043, 128.561
1373.240, 269.584
1374.436, 357.773
1375.633, 280.754
1376.829, 92.674
1378.025, 329.230
1379.221, 166.443
1380.417, 153.453
1381.613, 302.658
1382.808, 403.639
1384.003, 356.703
1385.199, 220.201
1386.393, 265.758
1387.588, 318.602
1388.783, 177.055
1389.977, 422.926
1391.171, 102.109
1392.365, 216.412
1393.559, 337.605
1394.753, 168.162
1395.946, 268.365
1397.140, 195.305
1398.333, 85.879
1399.526, 114.740
1400.719, 159.469
1401.911, 34.527
1403.104, 89.627
1404.296, 12.818
1405.488, 240.775
1406.680, 11.689
1407.872, 5.666
1409.063, 270.922
1410.255, 82.527
1411.446, 168.357
1412.637, 8.004
1413.828, 142.859
1415.018, 216.002
1416.209, 260.219
1417.399, 115.816
1418.589, 326.398
1419.779, 80.562
1420.969, 110.934
1422.159, 132.744
1423.348, 68.148
1424.537, 115.057
1425.726, 66.412
1426.915, 156.152
1428.104, 97.646
1429.293, 50.580
1430.481, 0.379
1431.669, 0.000
##END=



