##NAMES=Beryl
##RRUFFID=R060942
##IDEAL CHEMISTRY=Be_3_Al_2_Si_6_O_18_
##LOCALITY=Mingore mine, Swat Valley, Pakistan
##OWNER=RRUFF
##SOURCE=Lawrence W. Snee
##DESCRIPTION=Green hexagonal prisms, variety emerald
##STATUS=The identification of this mineral has been confirmed by X-ray diffraction and chemical analysis
##URL=rruff.info/R060942
##MEASURED CHEMISTRY=(Be_2.94_Li_0.06_)_Σ=3_(Al_1.55_Mg_0.37_Fe^3+^_0.06_Cr^3+^_0.02_)_Σ=2_Si_6.00_O_18_·Na_0.42_; Be and Li not measured but estimated by stoichiometry
##PIN_ID=L01655
##ORIENTATION=Laser parallel to c* (0 0 1). Fiducial mark perpendicular to laser is parallel to [-1 -1 0]
130.4390, 0.0000000E+00
131.6680, 90.74805
132.8980, 9.960938
134.1270, 16.48633
135.3560, 131.5137
136.5850, 17.59375
137.8140, 351.3506
139.0430, 436.0811
140.2710, 424.8652
141.5000, 489.4326
142.7280, 337.5801
143.9560, 423.9248
145.1840, 348.2236
146.4120, 239.7988
147.6390, 262.5283
148.8670, 329.8555
150.0940, 293.8496
151.3210, 494.7725
152.5490, 323.6436
153.7750, 240.2314
155.0020, 128.7861
156.2290, 223.2949
157.4550, 117.8271
158.6810, 190.5635
159.9080, 35.58984
161.1340, 17.11523
162.3590, 139.3740
163.5850, 326.9902
164.8110, 436.6768
166.0360, 444.3926
167.2610, 400.1006
168.4860, 451.3398
169.7110, 420.6191
170.9360, 457.3740
172.1610, 500.5801
173.3850, 476.3799
174.6100, 492.6211
175.8340, 520.3359
177.0580, 416.6045
178.2820, 537.0176
179.5050, 491.3965
180.7290, 452.7363
181.9520, 363.0762
183.1760, 503.9365
184.3990, 495.0059
185.6220, 553.2979
186.8450, 610.1562
188.0670, 614.6562
189.2900, 607.3750
190.5120, 560.9717
191.7340, 743.2812
192.9560, 719.2607
194.1780, 738.9121
195.4000, 950.2500
196.6220, 910.2900
197.8430, 998.0469
199.0640, 1102.533
200.2860, 1161.758
201.5070, 1211.733
202.7270, 1150.467
203.9480, 1004.989
205.1690, 483.3760
206.3890, 311.6475
207.6090, 86.81348
208.8290, 37.11719
210.0490, 41.14160
211.2690, 15.74707
212.4890, 79.55176
213.7080, 137.2734
214.9280, 8.083984
216.1470, 40.82324
217.3660, 118.7725
218.5850, 65.88086
219.8030, 36.80859
221.0220, 27.02734
222.2400, 99.17285
223.4590, 31.24512
224.6770, 139.2471
225.8950, 136.1777
227.1120, 226.0391
228.3300, 121.8408
229.5480, 247.5742
230.7650, 249.2363
231.9820, 334.3242
233.1990, 231.2627
234.4160, 255.6855
235.6330, 261.3525
236.8490, 369.1885
238.0660, 376.3203
239.2820, 515.5635
240.4980, 405.0371
241.7140, 557.5352
242.9300, 387.0918
244.1460, 663.6172
245.3610, 478.2598
246.5770, 470.4873
247.7920, 491.5645
249.0070, 436.1758
250.2220, 508.5762
251.4370, 395.0625
252.6510, 334.8330
253.8660, 410.7246
255.0800, 359.3271
256.2940, 524.8945
257.5080, 815.4229
258.7220, 770.7100
259.9360, 794.5801
261.1490, 980.7715
262.3630, 753.2090
263.5760, 1082.590
264.7890, 1403.926
266.0020, 1906.218
267.2150, 1935.463
268.4270, 2003.660
269.6400, 1835.805
270.8520, 1376.895
272.0640, 1188.930
273.2760, 1026.912
274.4880, 855.8418
275.7000, 817.7207
276.9120, 712.1289
278.1230, 803.8320
279.3340, 757.7100
280.5450, 785.7041
281.7560, 864.7793
282.9670, 938.9121
284.1780, 1016.082
285.3880, 1109.277
286.5980, 1197.487
287.8090, 1233.703
289.0190, 1238.919
290.2290, 1309.127
291.4380, 1254.503
292.6480, 1257.497
293.8570, 1156.652
295.0670, 964.7852
296.2760, 901.8945
297.4850, 734.9736
298.6930, 599.0186
299.9020, 442.0264
301.1110, 332.9980
302.3190, 313.9307
303.5270, 323.8252
304.7350, 281.3682
305.9430, 314.4922
307.1510, 311.0967
308.3580, 383.8213
309.5660, 489.5029
310.7730, 537.1406
311.9800, 739.7344
313.1870, 677.2832
314.3940, 873.7881
315.6010, 983.2246
316.8070, 969.5869
318.0130, 1193.908
319.2200, 1354.398
320.4260, 1441.527
321.6310, 1814.843
322.8370, 2367.215
324.0430, 2228.679
325.2480, 1921.313
326.4540, 1559.472
327.6590, 1170.354
328.8640, 1012.192
330.0680, 758.9824
331.2730, 572.7217
332.4780, 349.4033
333.6820, 298.0244
334.8860, 201.5830
336.0900, 16.07715
337.2940, 78.49121
338.4980, 82.16406
339.7010, 4.076172
340.9050, 36.76367
342.1080, 72.69336
343.3110, 189.7197
344.5140, 59.87500
345.7170, 124.1221
346.9200, 41.47461
348.1220, 108.9131
349.3240, 19.44336
350.5270, 4.951172
351.7290, 6.722656
352.9310, 57.52832
354.1320, 37.69531
355.3340, 128.2500
356.5350, 30.69824
357.7370, 32.36133
358.9380, 78.50293
360.1390, 57.82129
361.3400, 76.45801
362.5400, 9.273438
363.7410, 9.847656
364.9410, 213.2188
366.1410, 127.5068
367.3410, 261.9141
368.5410, 182.0762
369.7410, 252.1426
370.9400, 297.6631
372.1400, 307.8887
373.3390, 372.5166
374.5380, 398.2109
375.7370, 489.3096
376.9360, 555.3643
378.1350, 669.3682
379.3330, 652.2842
380.5310, 762.0596
381.7300, 1226.698
382.9280, 1418.127
384.1260, 1934.801
385.3230, 2321.111
386.5210, 2639.331
387.7180, 3197.640
388.9160, 4193.190
390.1130, 5090.988
391.3100, 6209.863
392.5060, 7685.372
393.7030, 9252.838
394.9000, 11274.27
396.0960, 13646.09
397.2920, 15323.91
398.4880, 16310.58
399.6840, 16423.31
400.8800, 15649.03
402.0750, 14321.89
403.2710, 12020.55
404.4660, 10803.90
405.6610, 9238.098
406.8560, 8042.271
408.0510, 7107.420
409.2450, 6393.545
410.4400, 5860.648
411.6340, 5407.729
412.8280, 4719.789
414.0220, 4590.821
415.2160, 4218.838
416.4100, 3755.829
417.6030, 3510.799
418.7970, 3081.749
419.9900, 3008.677
421.1830, 2687.574
422.3760, 2524.441
423.5690, 2155.271
424.7610, 1993.070
425.9540, 1998.835
427.1460, 1774.564
428.3380, 1878.261
429.5300, 1834.921
430.7220, 1808.547
431.9140, 1958.137
433.1050, 1956.693
434.2970, 2062.215
435.4880, 2128.701
436.6790, 2264.152
437.8700, 2148.570
439.0610, 2074.952
440.2510, 2211.302
441.4420, 2215.615
442.6320, 1849.896
443.8220, 1559.141
445.0120, 1502.152
446.2020, 1310.040
447.3910, 960.9258
448.5810, 748.5918
449.7700, 738.3535
450.9600, 645.0605
452.1490, 619.0303
453.3370, 684.0137
454.5260, 572.9648
455.7150, 427.8848
456.9030, 487.7734
458.0910, 532.6289
459.2800, 388.4541
460.4670, 458.2490
461.6550, 321.0137
462.8430, 381.7451
464.0300, 315.4482
465.2180, 290.1201
466.4050, 256.7607
467.5920, 204.3682
468.7790, 306.9414
469.9650, 476.4834
471.1520, 442.4580
472.3380, 472.4863
473.5250, 450.9453
474.7110, 469.2227
475.8970, 475.4346
477.0820, 505.2412
478.2680, 551.4463
479.4540, 564.7051
480.6390, 592.1895
481.8240, 539.2754
483.0090, 446.7305
484.1940, 515.5830
485.3780, 306.2168
486.5630, 295.3926
487.7470, 345.6836
488.9320, 341.7666
490.1160, 264.1494
491.3000, 312.7920
492.4830, 359.9668
493.6670, 374.0752
494.8500, 266.6025
496.0340, 380.0908
497.2170, 305.6162
498.4000, 188.8184
499.5820, 325.3467
500.7650, 366.2148
501.9480, 272.1709
503.1300, 362.6475
504.3120, 333.6133
505.4940, 352.2549
506.6760, 429.9170
507.8580, 153.7070
509.0390, 278.6377
510.2210, 212.3281
511.4020, 346.8164
512.5830, 287.8350
513.7640, 213.0293
514.9450, 305.2520
516.1250, 207.7324
517.3060, 344.3066
518.4860, 415.0850
519.6660, 307.8506
520.8460, 261.6035
522.0260, 263.3447
523.2060, 130.0742
524.3850, 147.0098
525.5650, 31.50293
526.7440, 81.19922
527.9230, 75.88672
529.1020, 32.43750
530.2810, 12.78125
531.4590, 84.85938
532.6380, 152.5059
533.8160, 497.0547
534.9940, 174.6523
536.1720, 657.2100
537.3500, 7.789063
538.5270, 37.62793
539.7050, 26.93555
540.8820, 4.503906
542.0590, 3.066406
543.2360, 9.380859
544.4130, 1.194336
545.5900, 65.76172
546.7660, 136.6738
547.9430, 147.8838
549.1190, 308.4727
550.2950, 482.0898
551.4710, 486.7197
552.6470, 716.3604
553.8220, 782.9971
554.9980, 1066.644
556.1730, 1292.304
557.3480, 1667.984
558.5230, 1882.685
559.6980, 2156.402
560.8730, 2327.131
562.0470, 2370.858
563.2220, 2312.582
564.3960, 2411.301
565.5700, 2363.019
566.7440, 2190.730
567.9170, 2264.447
569.0910, 2221.160
570.2640, 2164.875
571.4380, 2149.588
572.6110, 2128.300
573.7840, 2088.025
574.9570, 2004.771
576.1290, 1946.531
577.3020, 1871.289
578.4740, 1794.047
579.6460, 1680.803
580.8180, 1693.557
581.9900, 1730.309
583.1620, 1563.080
584.3330, 1654.863
585.5040, 1674.645
586.6760, 1536.442
587.8470, 1489.240
589.0180, 1432.039
590.1880, 1502.858
591.3590, 1413.678
592.5290, 1304.512
593.7000, 1396.364
594.8700, 1312.217
596.0400, 1273.088
597.2090, 1156.959
598.3790, 1103.828
599.5490, 1122.698
600.7180, 867.5674
601.8870, 940.4512
603.0560, 739.1621
604.2250, 812.1064
605.3940, 643.8301
606.5620, 738.4551
607.7300, 1334.971
608.8990, 1275.298
610.0670, 1385.075
611.2350, 1425.521
612.4020, 1272.122
613.5700, 1133.154
614.7370, 933.1865
615.9050, 594.2188
617.0720, 390.2539
618.2390, 221.2920
619.4060, 206.3340
620.5720, 240.4004
621.7390, 107.4785
622.9050, 24.60645
624.0710, 32.75977
625.2370, 2.050781
626.4030, 17.18555
627.5690, 80.49805
628.7340, 35.14648
629.9000, 101.2598
631.0650, 77.29297
632.2300, 21.81445
633.3950, 36.30859
634.5600, 2.784180
635.7240, 102.7686
636.8890, 26.33789
638.0530, 16.05664
639.2170, 181.5518
640.3810, 99.23535
641.5450, 54.95410
642.7080, 93.72070
643.8720, 53.50391
645.0350, 12.30078
646.1980, 190.1201
647.3610, 40.96387
648.5240, 154.7920
649.6870, 26.35156
650.8490, 141.5039
652.0120, 155.3643
653.1740, 236.2285
654.3360, 371.0967
655.4980, 270.9668
656.6600, 407.8389
657.8210, 548.7119
658.9830, 489.5850
660.1440, 725.4580
661.3050, 769.3311
662.4660, 879.2051
663.6270, 1136.066
664.7870, 1361.938
665.9480, 1581.403
667.1080, 2012.084
668.2680, 2327.751
669.4280, 2711.233
670.5880, 3245.445
671.7480, 3779.174
672.9070, 4676.800
674.0670, 5790.359
675.2260, 7186.504
676.3850, 8974.521
677.5440, 11566.44
678.7030, 14561.86
679.8610, 18474.36
681.0200, 23135.14
682.1780, 28674.60
683.3360, 35424.11
684.4940, 42225.09
685.6520, 48543.90
686.8090, 51798.92
687.9670, 51042.64
689.1240, 46576.00
690.2810, 40225.69
691.4380, 32979.67
692.5950, 26399.76
693.7520, 21121.30
694.9080, 16960.33
696.0650, 13727.65
697.2210, 11242.98
698.3770, 9467.448
699.5330, 8077.575
700.6880, 6912.692
701.8440, 6051.507
702.9990, 5270.318
704.1550, 4786.123
705.3100, 4068.922
706.4650, 3673.982
707.6190, 3293.771
708.7740, 2887.389
709.9290, 2782.533
711.0830, 2491.303
712.2370, 2201.736
713.3910, 2000.857
714.5450, 1795.278
715.6980, 1668.021
716.8520, 1523.979
718.0050, 1389.443
719.1580, 1304.292
720.3110, 1167.138
721.4640, 1174.924
722.6170, 1090.262
723.7700, 1075.950
724.9220, 1077.548
726.0740, 988.2197
727.2260, 885.8838
728.3780, 871.1816
729.5300, 851.8281
730.6810, 774.4453
731.8330, 720.3887
732.9840, 685.1162
734.1350, 844.0146
735.2860, 720.6123
736.4370, 732.2002
737.5880, 883.7773
738.7380, 815.5410
739.8880, 828.1182
741.0390, 800.8057
742.1890, 839.9746
743.3380, 910.7852
744.4880, 803.2988
745.6380, 831.7227
746.7870, 818.6094
747.9360, 927.0098
749.0850, 865.6855
750.2340, 875.4941
751.3830, 807.9385
752.5310, 773.3711
753.6800, 760.7900
754.8280, 705.7090
755.9760, 699.5889
757.1240, 622.9678
758.2720, 594.3350
759.4190, 541.6855
760.5670, 586.0254
761.7140, 655.3486
762.8610, 607.6592
764.0080, 723.8809
765.1550, 653.1631
766.3020, 412.4297
767.4480, 624.8252
768.5950, 511.0625
769.7410, 545.7637
770.8870, 512.5059
772.0330, 505.7988
773.1780, 422.9062
774.3240, 479.0645
775.4690, 458.2070
776.6140, 492.0176
777.7590, 402.1270
778.9040, 398.2207
780.0490, 250.2969
781.1940, 306.3564
782.3380, 286.3994
783.4820, 364.4248
784.6260, 357.4336
785.7700, 250.4238
786.9140, 313.3975
788.0580, 258.7500
789.2010, 320.6895
790.3450, 300.6104
791.4880, 307.5137
792.6310, 186.4004
793.7730, 324.2695
794.9160, 125.1221
796.0590, 191.9561
797.2010, 172.7725
798.3430, 227.5723
799.4850, 336.3535
800.6270, 310.1182
801.7690, 131.8652
802.9100, 210.5938
804.0520, 159.3076
805.1930, 153.0049
806.3340, 121.6846
807.4750, 71.35352
808.6160, 110.0078
809.7560, 25.64648
810.8970, 52.70703
812.0370, 48.87207
813.1770, 3.429688
814.3170, 1.964844
815.4570, 96.43164
816.5960, 10.09668
817.7360, 44.33105
818.8750, 85.73926
820.0140, 78.86719
821.1530, 36.44727
822.2920, 64.74219
823.4310, 50.01855
824.5690, 89.48730
825.7070, 84.31543
826.8460, 26.22559
827.9840, 15.18750
829.1220, 42.80469
830.2590, 9.180664
831.3970, 33.25098
832.5340, 54.37402
833.6710, 55.12891
834.8080, 41.62305
835.9450, 20.93555
837.0820, 35.70410
838.2190, 75.32520
839.3550, 81.92969
840.4910, 97.51758
841.6270, 98.08887
842.7630, 8.645508
843.8990, 66.17285
845.0350, 15.68359
846.1700, 26.16992
847.3060, 54.63574
848.4410, 32.91504
849.5760, 60.51367
850.7100, 34.17480
851.8450, 100.1143
852.9800, 25.38770
854.1140, 97.64355
855.2480, 93.88379
856.3820, 57.11035
857.5160, 60.67871
858.6500, 22.52734
859.7830, 49.58496
860.9170, 44.31641
862.0500, 43.73145
863.1830, 84.76562
864.3160, 58.21289
865.4480, 78.75293
866.5810, 33.29395
867.7130, 55.38281
868.8460, 14.47656
869.9780, 56.67871
871.1100, 140.1133
872.2410, 302.8936
873.3730, 550.6611
874.5050, 7.417969
875.6360, 40.84180
876.7670, 171.1416
877.8980, 36.54980
879.0290, 31.99414
880.1590, 102.5283
881.2900, 75.95898
882.4200, 84.50293
883.5500, 46.10547
884.6800, 18.25586
885.8100, 58.39355
886.9400, 9.915039
888.0690, 6.212891
889.1990, 110.5010
890.3280, 84.77930
891.4570, 72.04883
892.5860, 93.31055
893.7140, 127.5635
894.8430, 237.8076
895.9710, 351.0439
897.1000, 374.7686
898.2280, 412.4922
899.3560, 460.7061
900.4830, 489.9131
901.6110, 548.1133
902.7380, 484.3057
903.8660, 550.4980
904.9930, 527.6816
906.1200, 623.8730
907.2460, 625.0605
908.3730, 734.2471
909.5000, 634.4287
910.6260, 664.6055
911.7520, 581.7773
912.8780, 598.9463
914.0040, 539.1104
915.1290, 528.2715
916.2550, 581.4277
917.3800, 533.5811
918.5050, 512.7295
919.6300, 514.8760
920.7550, 552.0195
921.8800, 411.1602
923.0040, 573.2988
924.1290, 483.4365
925.2530, 539.5742
926.3770, 359.7090
927.5010, 359.8438
928.6250, 300.9766
929.7480, 372.1084
930.8720, 271.2393
931.9950, 304.3711
933.1180, 318.5020
934.2410, 234.6318
935.3640, 185.7627
936.4860, 229.8945
937.6090, 280.0264
938.7310, 203.1592
939.8530, 128.2930
940.9750, 181.4287
942.0970, 239.5664
943.2180, 218.5996
944.3400, 202.7402
945.4610, 101.8457
946.5820, 153.3047
947.7030, 23.18164
948.8240, 88.18945
949.9450, 55.87305
951.0650, 100.0322
952.1860, 105.2383
953.3060, 21.06836
954.4260, 120.2334
955.5460, 27.17871
956.6650, 49.83203
957.7850, 12.93945
958.9040, 22.02637
960.0230, 94.32812
961.1420, 33.03418
962.2610, 45.41504
963.3800, 8.520508
964.4990, 4.493164
965.6170, 158.0527
966.7350, 99.12207
967.8530, 151.9023
968.9710, 21.32520
970.0890, 103.3223
971.2070, 119.3115
972.3240, 44.32227
973.4410, 122.6387
974.5580, 170.9678
975.6750, 277.3105
976.7920, 234.6650
977.9090, 233.7656
979.0250, 282.1475
980.1410, 374.7070
981.2580, 415.7471
982.3740, 536.8213
983.4890, 711.9404
984.6050, 778.0303
985.7200, 893.8291
986.8360, 1039.315
987.9510, 1295.596
989.0660, 1414.115
990.1810, 1531.652
991.2950, 1817.206
992.4100, 1988.696
993.5240, 2235.659
994.6390, 2383.281
995.7530, 2504.007
996.8660, 2693.691
997.9800, 2869.405
999.0940, 2849.501
1000.207, 2861.271
1001.320, 2727.088
1002.433, 2614.604
1003.546, 2428.354
1004.659, 2287.961
1005.772, 1958.879
1006.884, 1995.820
1007.996, 1748.784
1009.108, 1746.572
1010.220, 1470.560
1011.332, 1414.457
1012.444, 1240.896
1013.555, 1267.729
1014.666, 1024.873
1015.777, 1187.139
1016.888, 1073.965
1017.999, 1056.316
1019.110, 946.6133
1020.220, 798.3848
1021.331, 841.7354
1022.441, 838.1270
1023.551, 621.5469
1024.661, 728.9990
1025.770, 604.4775
1026.880, 688.9854
1027.989, 748.7998
1029.098, 659.3779
1030.207, 646.8291
1031.316, 561.3672
1032.425, 494.0410
1033.533, 451.7451
1034.642, 416.4766
1035.750, 397.0020
1036.858, 463.0986
1037.966, 433.9629
1039.073, 465.8574
1040.181, 590.7812
1041.288, 471.7354
1042.396, 671.7188
1043.503, 534.7314
1044.610, 706.7754
1045.716, 650.8516
1046.823, 787.9580
1047.929, 782.0986
1049.036, 918.2686
1050.142, 1121.471
1051.248, 1261.705
1052.353, 1379.971
1053.459, 1615.297
1054.564, 1751.653
1055.670, 2019.044
1056.775, 2376.465
1057.880, 2697.565
1058.985, 3227.438
1060.089, 3574.975
1061.194, 4087.544
1062.298, 4680.145
1063.402, 5082.777
1064.506, 5481.444
1065.610, 5875.143
1066.713, 6197.872
1067.817, 6482.633
1068.920, 6679.428
1070.023, 6829.258
1071.126, 6680.116
1072.229, 6657.012
1073.332, 6600.936
1074.435, 6166.894
1075.537, 5678.885
1076.639, 5504.908
1077.741, 5090.963
1078.843, 4869.059
1079.945, 4480.209
1081.046, 4314.396
1082.148, 3996.623
1083.249, 3768.896
1084.350, 3595.203
1085.451, 3493.559
1086.551, 3246.949
1087.652, 3001.372
1088.752, 3064.861
1089.853, 2876.385
1090.953, 2701.941
1092.053, 2774.297
1093.152, 2626.956
1094.252, 2635.680
1095.351, 2431.455
1096.451, 2398.278
1097.550, 2383.093
1098.649, 2114.996
1099.748, 2073.953
1100.846, 2007.968
1101.945, 2112.848
1103.043, 1988.979
1104.141, 1892.162
1105.239, 1835.379
1106.337, 1806.941
1107.434, 1727.916
1108.532, 1779.234
1109.629, 1805.585
1110.726, 1716.977
1111.823, 1709.400
1112.920, 1711.861
1114.017, 1629.358
1115.113, 1897.890
1116.210, 1862.479
1117.306, 1953.124
1118.402, 2160.822
1119.498, 2193.552
1120.593, 2212.323
1121.689, 2212.151
1122.784, 2308.994
1123.879, 2313.869
1124.974, 2222.120
1126.069, 1999.094
1127.164, 1947.106
1128.259, 1891.687
1129.353, 1729.926
1130.447, 1693.542
1131.541, 1558.472
1132.635, 1436.913
1133.729, 1280.671
1134.822, 1252.598
1135.916, 1162.354
1137.009, 1140.802
1138.102, 1079.216
1139.195, 985.6582
1140.288, 944.1426
1141.380, 829.6816
1142.473, 851.8037
1143.565, 768.7441
1144.657, 900.2070
1145.749, 837.3848
1146.841, 686.5547
1147.932, 766.0088
1149.024, 580.3359
1150.115, 621.8359
1151.206, 672.7803
1152.297, 471.7695
1153.388, 597.4619
1154.479, 512.7471
1155.569, 497.9082
1156.659, 273.0020
1157.750, 509.1201
1158.839, 276.5469
1159.929, 352.2266
1161.019, 422.4189
1162.108, 198.4990
1163.198, 293.7432
1164.287, 435.0312
1165.376, 391.3320
1166.465, 398.2764
1167.553, 511.6982
1168.642, 447.4951
1169.730, 499.0264
1170.818, 509.4678
1171.906, 547.9375
1172.994, 686.4512
1174.082, 642.9854
1175.170, 746.5654
1176.257, 940.5244
1177.344, 981.1211
1178.431, 1079.941
1179.518, 1131.091
1180.605, 1212.748
1181.691, 1158.872
1182.778, 1245.570
1183.864, 1114.037
1184.950, 1302.777
1186.036, 1397.987
1187.122, 1354.760
1188.207, 1302.608
1189.292, 1409.415
1190.378, 1364.995
1191.463, 1393.508
1192.548, 1503.791
1193.632, 1436.950
1194.717, 1453.846
1195.801, 1496.757
1196.886, 1518.685
1197.970, 1744.671
1199.054, 2001.631
1200.137, 1727.167
1201.221, 1674.158
1202.305, 1702.162
1203.388, 1844.181
1204.471, 1939.214
1205.554, 1950.262
1206.637, 1967.322
1207.719, 2193.397
1208.802, 2176.484
1209.884, 2186.586
1210.966, 2247.699
1212.048, 2253.826
1213.130, 2261.964
1214.212, 2166.114
1215.293, 2270.866
1216.374, 2004.042
1217.456, 2011.229
1218.536, 1719.429
1219.617, 1561.638
1220.698, 1399.857
1221.778, 1380.106
1222.859, 1061.349
1223.939, 1094.603
1225.019, 971.8789
1226.099, 904.1514
1227.178, 722.4326
1228.258, 680.7217
1229.337, 674.4980
1230.417, 680.9385
1231.496, 601.2119
1232.574, 566.7051
1233.653, 467.7490
1234.732, 411.1152
1235.810, 369.6855
1236.888, 250.0303
1237.966, 300.3809
1239.044, 406.9150
1240.122, 300.2744
1241.199, 234.7197
1242.277, 95.08594
1243.354, 200.8701
1244.431, 137.2432
1245.508, 135.4941
1246.585, 131.4824
1247.661, 40.13281
1248.738, 62.59570
1249.814, 51.55469
1250.890, 0.5390630
1251.966, 24.95605
1253.042, 25.33984
1254.117, 81.27734
1255.193, 46.07617
1256.268, 2.427734
1257.343, 117.2178
1258.418, 54.91504
1259.493, 40.63281
1260.567, 45.36719
1261.642, 54.12012
1262.716, 58.52051
1263.790, 40.35352
1264.864, 73.45312
1265.938, 0.3095700
1267.011, 18.60840
1268.085, 28.10059
1269.158, 18.89355
1270.231, 22.71582
1271.304, 31.07422
1272.377, 43.97168
1273.450, 84.76660
1274.522, 6.175781
1275.594, 60.83984
1276.666, 28.67480
1277.738, 91.44238
1278.810, 6.861328
1279.882, 13.49219
1280.953, 39.98438
1282.025, 43.00000
1283.096, 2.888672
1284.167, 13.29199
1285.238, 51.58496
1286.308, 39.38281
1287.379, 31.83594
1288.449, 17.98047
1289.519, 16.79395
1290.589, 22.26270
1291.659, 25.00586
1292.729, 17.19434
1293.798, 74.65723
1294.868, 109.9863
1295.937, 3.005859
1297.006, 7.656250
1298.075, 19.00000
1299.143, 86.22949
1300.212, 50.42676
