##NAMES=Beryl
##RRUFFID=R050347
##IDEAL CHEMISTRY=Be_3_Al_2_Si_6_O_18_
##LOCALITY=North Keystone, South Dakota, USA
##OWNER=RRUFF
##SOURCE=California Institute of Technology
##DESCRIPTION=Colorless fragment
##STATUS=The identification of this mineral has been confirmed by X-ray diffraction and chemical analysis
##URL=rruff.info/R050347
##MEASURED CHEMISTRY=(Be_0.96_Li_0.04_)_3_Al_2.00_(Si_0.99_Al_0.01_)_6_O_18_ Î‡0.17Na
##PIN_ID=L00581
##ORIENTATION=Laser parallel to c* (0 0 1). Fiducial mark perpendicular to laser is parallel to b [0 1 0]
211.2690, 0.0000000E+00
212.4890, 177.9258
213.7080, 0.6308590
214.9280, 59.20996
216.1470, 56.33301
217.3660, 7.073242
218.5850, 62.73340
219.8030, 80.53125
221.0220, 62.19043
222.2400, 107.2285
223.4590, 132.6680
224.6770, 161.2617
225.8950, 120.3350
227.1120, 182.7773
228.3300, 161.5713
229.5480, 107.8535
230.7650, 277.5391
231.9820, 182.5391
233.1990, 382.7881
234.4160, 191.2344
235.6330, 226.8438
236.8490, 191.5850
238.0660, 151.1094
239.2820, 166.4531
240.4980, 173.6836
241.7140, 143.7764
242.9300, 202.9326
244.1460, 166.1973
245.3610, 186.6826
246.5770, 201.7354
247.7920, 212.8252
249.0070, 203.0059
250.2220, 193.7158
251.4370, 159.4873
252.6510, 139.2422
253.8660, 94.89746
255.0800, 114.4922
256.2940, 70.03613
257.5080, 95.53320
258.7220, 157.9902
259.9360, 107.7617
261.1490, 118.2939
262.3630, 45.17090
263.5760, 93.51465
264.7890, 31.84082
266.0020, 72.15137
267.2150, 4.554688
268.4270, 87.72949
269.6400, 161.0029
270.8520, 90.26758
272.0640, 210.5273
273.2760, 152.7803
274.4880, 254.0293
275.7000, 221.2793
276.9120, 251.9307
278.1230, 226.6035
279.3340, 420.2246
280.5450, 307.9463
281.7560, 429.2832
282.9670, 584.6562
284.1780, 839.0635
285.3880, 1063.490
286.5980, 1193.021
287.8090, 1402.446
289.0190, 1463.234
290.2290, 1721.799
291.4380, 1871.446
292.6480, 2020.201
293.8570, 1684.979
295.0670, 1681.781
296.2760, 1381.605
297.4850, 1210.452
298.6930, 1050.321
299.9020, 901.8232
301.1110, 692.1279
302.3190, 703.0645
303.5270, 723.0215
304.7350, 630.0000
305.9430, 712.8877
307.1510, 863.0166
308.3580, 867.0537
309.5660, 976.1113
310.7730, 1165.188
311.9800, 1387.280
313.1870, 1541.392
314.3940, 1765.521
315.6010, 2041.669
316.8070, 2301.833
318.0130, 2795.014
319.2200, 3215.206
320.4260, 3528.409
321.6310, 3783.625
322.8370, 3926.852
324.0430, 3852.092
325.2480, 3528.344
326.4540, 2765.607
327.6590, 2124.883
328.8640, 1632.172
330.0680, 1062.471
331.2730, 731.7852
332.4780, 477.1113
333.6820, 244.4502
334.8860, 288.8018
336.0900, 46.16504
337.2940, 70.54590
338.4980, 40.96582
339.7010, 16.46094
340.9050, 5.592773
342.1080, 26.19336
343.3110, 59.77832
344.5140, 59.10156
345.7170, 124.4160
346.9200, 103.4014
348.1220, 130.0195
349.3240, 4.687500
350.5270, 9.383789
351.7290, 126.9951
352.9310, 122.5293
354.1320, 114.1123
355.3340, 180.9072
356.5350, 102.1797
357.7370, 239.4756
358.9380, 58.59082
360.1390, 51.89355
361.3400, 18.74316
362.5400, 23.28613
363.7410, 65.12012
364.9410, 170.4688
366.1410, 22.00586
367.3410, 101.5771
368.5410, 70.17871
369.7410, 232.3330
370.9400, 122.9902
372.1400, 264.0410
373.3390, 347.7441
374.5380, 339.4668
375.7370, 360.2090
376.9360, 410.9658
378.1350, 614.7412
379.3330, 797.5293
380.5310, 812.3320
381.7300, 932.1465
382.9280, 1271.975
384.1260, 1613.812
385.3230, 1985.664
386.5210, 2286.525
387.7180, 3050.399
388.9160, 3956.283
390.1130, 4853.176
391.3100, 6169.067
392.5060, 7823.963
393.7030, 9629.862
394.9000, 11759.77
396.0960, 13733.67
397.2920, 15017.58
398.4880, 15637.50
399.6840, 15072.42
400.8800, 13469.35
402.0750, 11698.28
403.2710, 9760.218
404.4660, 7712.162
405.6610, 6175.113
406.8560, 5026.068
408.0510, 4089.031
409.2450, 3603.000
410.4400, 3092.977
411.6340, 2983.905
412.8280, 2835.893
414.0220, 2791.889
415.2160, 2882.892
416.4100, 3068.901
417.6030, 3585.918
418.7970, 3560.941
419.9900, 3858.971
421.1830, 4072.997
422.3760, 3925.975
423.5690, 3937.844
424.7610, 3519.659
425.9540, 3359.485
427.1460, 2669.321
428.3380, 2044.169
429.5300, 1744.028
430.7220, 1548.891
431.9140, 1367.766
433.1050, 1357.650
434.2970, 1159.547
435.4880, 1360.454
436.6790, 1373.371
437.8700, 1379.298
439.0610, 1481.235
440.2510, 1434.082
441.4420, 1375.759
442.6320, 1367.105
443.8220, 1197.083
445.0120, 1096.068
446.2020, 1060.063
447.3910, 1035.069
448.5810, 733.0830
449.7700, 731.1074
450.9600, 626.1396
452.1490, 630.1826
453.3370, 567.2344
454.5260, 391.2939
455.7150, 472.3633
456.9030, 257.4404
458.0910, 355.5273
459.2800, 198.6230
460.4670, 232.7266
461.6550, 175.6680
462.8430, 198.6426
464.0300, 73.77148
465.2180, 300.1318
466.4050, 199.3096
467.5920, 291.4639
468.7790, 118.5879
469.9650, 105.4307
471.1520, 115.8721
472.3380, 217.0566
473.5250, 163.2490
474.7110, 172.7822
475.8970, 222.9893
477.0820, 136.2031
478.2680, 183.4258
479.4540, 292.6543
480.6390, 228.8887
481.8240, 128.1318
483.0090, 243.3799
484.1940, 278.6348
485.3780, 194.7998
486.5630, 243.3652
487.7470, 114.9404
488.9320, 148.2637
490.1160, 152.9170
491.3000, 146.9121
492.4830, 163.2061
493.6670, 161.6699
494.8500, 115.8760
496.0340, 165.1865
497.2170, 105.5029
498.4000, 126.8252
499.5820, 162.1553
500.7650, 173.4922
501.9480, 212.8379
503.1300, 132.1895
504.3120, 134.8623
505.4940, 9.770508
506.6760, 71.39941
507.8580, 66.94238
509.0390, 69.29102
510.2210, 122.6455
511.4020, 65.99316
512.5830, 111.3408
513.7640, 95.31934
514.9450, 105.9775
516.1250, 109.2812
517.3060, 161.5908
518.4860, 39.90527
519.6660, 113.2256
520.8460, 132.5498
522.0260, 109.6611
523.2060, 149.2148
524.3850, 167.5547
525.5650, 225.8984
526.7440, 340.2480
527.9230, 236.6025
529.1020, 412.9600
530.2810, 394.3262
531.4590, 315.7012
532.6380, 514.0820
533.8160, 392.4668
534.9940, 407.8623
536.1720, 328.2637
537.3500, 291.6738
538.5270, 365.0908
539.7050, 424.5166
540.8820, 392.9521
542.0590, 414.4014
543.2360, 322.8623
544.4130, 387.4453
545.5900, 372.8252
546.7660, 480.3223
547.9430, 393.8271
549.1190, 431.3340
550.2950, 549.8486
551.4710, 673.3652
552.6470, 801.8867
553.8220, 849.8135
554.9980, 830.9619
556.1730, 945.5156
557.3480, 943.0771
558.5230, 1012.643
559.6980, 1172.221
560.8730, 1376.800
562.0470, 1258.383
563.2220, 1460.968
564.3960, 1326.558
565.5700, 1455.169
566.7440, 1361.792
567.9170, 1500.419
569.0910, 1543.063
570.2640, 1871.780
571.4380, 1788.520
572.6110, 2048.303
573.7840, 2134.090
574.9570, 2130.905
576.1290, 2020.726
577.3020, 2195.547
578.4740, 2279.411
579.6460, 2075.276
580.8180, 1978.145
581.9900, 1823.015
583.1620, 1594.888
584.3330, 1363.761
585.5040, 1231.642
586.6760, 928.5303
587.8470, 851.4219
589.0180, 695.3154
590.1880, 623.2109
591.3590, 487.1074
592.5290, 361.0059
593.7000, 352.9043
594.8700, 145.8037
596.0400, 73.70508
597.2090, 230.6104
598.3790, 300.5166
599.5490, 23.45312
600.7180, 206.3896
601.8870, 13.65527
603.0560, 29.70898
604.2250, 24.22852
605.3940, 98.83496
606.5620, 1.047852
607.7300, 118.9277
608.8990, 46.19336
610.0670, 57.34180
611.2350, 66.52539
612.4020, 40.25391
613.5700, 40.05664
614.7370, 51.14160
615.9050, 119.6289
617.0720, 214.3975
618.2390, 146.1650
619.4060, 226.9297
620.5720, 90.69336
621.7390, 123.4541
622.9050, 224.2129
624.0710, 362.9707
625.2370, 150.7256
626.4030, 31.51562
627.5690, 14.76855
628.7340, 178.9775
629.9000, 66.75098
631.0650, 85.54688
632.2300, 149.3691
633.3950, 59.80957
634.5600, 59.97168
635.7240, 72.74902
636.8890, 111.5244
638.0530, 61.29688
639.2170, 84.06348
640.3810, 214.8271
641.5450, 48.58789
642.7080, 100.3447
643.8720, 210.0967
645.0350, 158.8477
646.1980, 157.2188
647.3610, 207.1133
648.5240, 178.8525
649.6870, 260.5879
650.8490, 217.3184
652.0120, 253.5195
653.1740, 160.2412
654.3360, 315.5859
655.4980, 367.4287
656.6600, 280.2588
657.8210, 398.9629
658.9830, 397.7236
660.1440, 417.4180
661.3050, 531.1074
662.4660, 716.7910
663.6270, 799.7031
664.7870, 991.4082
665.9480, 1085.151
667.1080, 1249.814
668.2680, 1420.474
669.4280, 1947.053
670.5880, 2404.498
671.7480, 2787.751
672.9070, 3354.387
674.0670, 4351.208
675.2260, 5332.617
676.3850, 7004.012
677.5440, 8633.091
678.7030, 11383.20
679.8610, 14940.89
681.0200, 19383.61
682.1780, 25243.07
683.3360, 31412.35
684.4940, 36980.26
685.6520, 40758.44
686.8090, 40774.59
687.9670, 37435.25
689.1240, 31806.58
690.2810, 25676.13
691.4380, 20203.70
692.5950, 15610.58
693.7520, 12166.91
694.9080, 9910.468
696.0650, 7998.256
697.2210, 6425.847
698.3770, 5701.372
699.5330, 4842.865
700.6880, 4057.461
701.8440, 3684.940
702.9990, 3308.739
704.1550, 3017.184
705.3100, 2665.505
706.4650, 2357.984
707.6190, 2195.591
708.7740, 2137.455
709.9290, 1831.290
711.0830, 1678.607
712.2370, 1680.983
713.3910, 1509.463
714.5450, 1364.812
715.6980, 1265.432
716.8520, 1205.695
718.0050, 1087.003
719.1580, 1199.297
720.3110, 1019.717
721.4640, 855.9834
722.6170, 1035.311
723.7700, 967.4248
724.9220, 751.8359
726.0740, 689.4453
727.2260, 660.7383
728.3780, 890.0166
729.5300, 650.1738
730.6810, 756.3398
731.8330, 725.4648
732.9840, 744.6475
734.1350, 702.1309
735.2860, 670.6641
736.4370, 743.7285
737.5880, 711.7402
738.7380, 874.7715
739.8880, 838.6670
741.0390, 696.2861
742.1890, 797.3037
743.3380, 763.2676
744.4880, 660.9922
745.6380, 615.8906
746.7870, 569.8096
747.9360, 568.7461
749.0850, 609.9512
750.2340, 465.6133
751.3830, 514.0967
752.5310, 482.9268
753.6800, 679.4072
754.8280, 612.2041
755.9760, 616.9844
757.1240, 560.7480
758.2720, 708.4951
759.4190, 828.2246
760.5670, 1006.939
761.7140, 982.6348
762.8610, 985.3154
764.0080, 1042.979
765.1550, 1150.410
766.3020, 1298.866
767.4480, 1184.479
768.5950, 1051.075
769.7410, 884.6543
770.8870, 893.2158
772.0330, 832.6953
773.1780, 775.2227
774.3240, 736.2129
775.4690, 546.2256
776.6140, 583.7012
777.7590, 540.1592
778.9040, 390.6016
780.0490, 445.0254
781.1940, 526.4326
782.3380, 339.8232
783.4820, 305.1963
784.6260, 294.5547
785.7700, 147.9121
786.9140, 413.2539
788.0580, 188.5771
789.2010, 384.8838
790.3450, 197.1895
791.4880, 184.4766
792.6310, 76.77051
793.7730, 77.28613
794.9160, 113.3027
796.0590, 90.54199
797.2010, 196.7637
798.3430, 129.9678
799.4850, 236.1553
800.6270, 60.32520
801.7690, 137.4756
802.9100, 84.60840
804.0520, 164.7227
805.1930, 180.0342
806.3340, 26.11328
807.4750, 30.16797
808.6160, 37.19922
809.7560, 102.2051
810.8970, 17.19531
812.0370, 29.15625
813.1770, 29.09180
814.3170, 43.03125
815.4570, 10.01758
816.5960, 19.28516
817.7360, 1.291016
818.8750, 2.503906
820.0140, 10.50977
821.1530, 16.76367
822.2920, 39.91797
823.4310, 41.57617
824.5690, 74.59961
825.7070, 32.82812
826.8460, 115.4180
827.9840, 108.1270
829.1220, 50.68555
830.2590, 41.77734
831.3970, 87.70312
832.5340, 15.90430
833.6710, 73.59570
834.8080, 1.011719
835.9450, 100.3887
837.0820, 64.71680
838.2190, 89.06250
839.3550, 44.38867
840.4910, 31.30273
841.6270, 1.955078
842.7630, 74.17383
843.8990, 19.62109
845.0350, 231.4609
846.1700, 40.45898
847.3060, 128.5098
848.4410, 97.33789
849.5760, 68.83008
850.7100, 115.9316
851.8450, 35.67773
852.9800, 115.5918
854.1140, 124.0430
855.2480, 183.6621
856.3820, 39.26562
857.5160, 63.85352
858.6500, 44.42578
859.7830, 9.982422
860.9170, 3.515625
862.0500, 20.02148
863.1830, 35.50781
864.3160, 29.97656
865.4480, 58.43164
866.5810, 44.93359
867.7130, 49.30078
868.8460, 29.71094
869.9780, 13.10938
871.1100, 10.48828
872.2410, 63.84570
873.3730, 95.80664
874.5050, 37.46484
875.6360, 55.27539
876.7670, 172.9316
877.8980, 17.87109
879.0290, 117.3066
880.1590, 30.47070
881.2900, 318.6504
882.4200, 21.81836
883.5500, 55.97266
884.6800, 136.1309
885.8100, 7.294922
886.9400, 83.53906
888.0690, 32.56836
889.1990, 93.66406
890.3280, 112.7656
891.4570, 248.8555
892.5860, 206.9336
893.7140, 259.0039
894.8430, 321.0625
895.9710, 133.1113
897.1000, 137.1582
898.2280, 352.1973
899.3560, 419.2305
900.4830, 448.1660
901.6110, 421.2832
902.7380, 503.3086
903.8660, 550.3242
904.9930, 608.4004
906.1200, 415.3340
907.2460, 654.3262
908.3730, 525.3281
909.5000, 619.3223
910.6260, 649.3086
911.7520, 567.2871
912.8780, 430.2598
914.0040, 526.2266
915.1290, 473.1836
916.2550, 619.1367
917.3800, 519.0820
918.5050, 332.0176
919.6300, 446.9512
920.7550, 269.8750
921.8800, 417.7949
923.0040, 216.7090
924.1290, 249.2891
925.2530, 267.5215
926.3770, 303.4199
927.5010, 313.9023
928.6250, 286.0703
929.7480, 287.8301
930.8720, 290.7090
931.9950, 173.5195
933.1180, 76.38867
934.2410, 162.2559
935.3640, 157.1172
936.4860, 118.7129
937.6090, 20.56836
938.7310, 111.3438
939.8530, 10.80664
940.9750, 92.03516
942.0970, 199.9512
943.2180, 146.3828
944.3400, 178.1660
945.4610, 138.0488
946.5820, 89.69141
947.7030, 43.73633
948.8240, 38.21094
949.9450, 5.857422
951.0650, 154.4629
952.1860, 53.18750
953.3060, 16.87891
954.4260, 158.1758
955.5460, 76.91211
956.6650, 77.36133
957.7850, 109.5195
958.9040, 128.7305
960.0230, 73.38672
961.1420, 25.41016
962.2610, 45.82812
963.3800, 179.9258
964.4990, 41.34961
965.6170, 33.31836
966.7350, 165.0527
967.8530, 37.54883
968.9710, 58.23828
970.0890, 5.988281
971.2070, 44.23633
972.3240, 92.42773
973.4410, 93.20312
974.5580, 28.65039
975.6750, 70.44727
976.7920, 259.3633
977.9090, 220.1152
979.0250, 165.7383
980.1410, 399.0918
981.2580, 362.4766
982.3740, 348.3691
983.4890, 548.2012
984.6050, 564.7031
985.7200, 998.7715
986.8360, 649.3457
987.9510, 814.2715
989.0660, 569.1484
990.1810, 811.0371
991.2950, 1051.795
992.4100, 1268.701
993.5240, 1332.543
994.6390, 1618.596
995.7530, 1723.348
996.8660, 2220.896
997.9800, 2348.779
999.0940, 2500.635
1000.207, 2514.625
1001.320, 2683.607
1002.433, 3014.623
1003.546, 2696.582
1004.659, 2709.236
1005.772, 2719.836
1006.884, 2369.906
1007.996, 2276.025
1009.108, 2069.123
1010.220, 2056.908
1011.332, 1931.035
1012.444, 1568.291
1013.555, 1568.453
1014.666, 1385.639
1015.777, 1084.857
1016.888, 1084.113
1017.999, 1002.393
1019.110, 780.7148
1020.220, 704.9902
1021.331, 617.7070
1022.441, 795.0742
1023.551, 398.4609
1024.661, 533.8750
1025.770, 280.3027
1026.880, 415.7500
1027.989, 257.2188
1029.098, 339.6992
1030.207, 341.1465
1031.316, 285.6758
1032.425, 199.6992
1033.533, 334.3027
1034.642, 217.9473
1035.750, 344.6074
1036.858, 284.2891
1037.966, 331.3281
1039.073, 241.0430
1040.181, 291.7793
1041.288, 307.5332
1042.396, 449.3086
1043.503, 441.3535
1044.610, 474.9297
1045.716, 485.7773
1046.823, 503.6445
1047.929, 517.5312
1049.036, 707.4395
1050.142, 890.3652
1051.248, 861.3145
1052.353, 1123.281
1053.459, 1158.271
1054.564, 1519.281
1055.670, 1608.311
1056.775, 1969.373
1057.880, 2113.457
1058.985, 2449.561
1060.089, 2945.688
1061.194, 3204.834
1062.298, 3856.023
1063.402, 4168.240
1064.506, 4580.479
1065.610, 4920.479
1066.713, 5463.020
1067.817, 5388.328
1068.920, 5625.660
1070.023, 5713.018
1071.126, 5362.398
1072.229, 5305.801
1073.332, 4919.041
1074.435, 4691.518
1075.537, 4520.020
1076.639, 4130.549
1077.741, 3764.102
1078.843, 3397.678
1079.945, 3393.283
1081.046, 3165.916
1082.148, 2794.547
1083.249, 2678.139
1084.350, 2112.855
1085.451, 2054.600
1086.551, 1816.377
1087.652, 1772.943
1088.752, 1634.785
1089.853, 1308.666
1090.953, 1474.574
1092.053, 1155.506
1093.152, 1020.465
1094.252, 1076.453
1095.351, 1155.334
1096.451, 884.3691
1097.550, 996.4316
1098.649, 775.5410
1099.748, 881.6738
1100.846, 728.8379
1101.945, 561.0254
1103.043, 673.2520
1104.141, 648.5332
1105.239, 536.8086
1106.337, 441.1055
1107.434, 510.4336
1108.532, 510.8027
1109.629, 345.2031
1110.726, 534.6309
1111.823, 431.0977
1112.920, 565.6621
1114.017, 442.2695
1115.113, 490.9453
1116.210, 650.6445
1117.306, 388.4004
1118.402, 435.1836
1119.498, 522.9922
1120.593, 313.8633
1121.689, 404.7617
1122.784, 303.6836
1123.879, 152.6309
1124.974, 409.6016
1126.069, 392.5996
1127.164, 448.6270
1128.259, 226.6855
1129.353, 431.7676
1130.447, 442.8789
1131.541, 477.0137
1132.635, 518.1719
1133.729, 442.3574
1134.822, 491.5664
1135.916, 532.8008
1137.009, 494.0605
1138.102, 675.3496
1139.195, 544.6621
1140.288, 664.0332
1141.380, 680.0469
1142.473, 882.4863
1143.565, 774.9512
1144.657, 803.6270
1145.749, 716.8711
1146.841, 660.6426
1147.932, 704.5820
1149.024, 501.1445
1150.115, 644.3477
1151.206, 467.9902
1152.297, 630.6562
1153.388, 515.7910
1154.479, 347.1152
1155.569, 358.7441
1156.659, 237.5430
1157.750, 184.8086
1158.839, 218.6504
1159.929, 203.5117
1161.019, 93.60352
1162.108, 142.1836
1163.198, 74.34961
1164.287, 193.5938
1165.376, 241.1738
1166.465, 70.16992
1167.553, 17.19141
1168.642, 27.74219
1169.730, 85.34180
1170.818, 129.4746
1171.906, 222.6250
1172.994, 260.8105
1174.082, 183.0156
1175.170, 137.3711
1176.257, 315.6289
1177.344, 294.9062
1178.431, 99.20508
1179.518, 208.0918
1180.605, 404.8574
1181.691, 221.2129
1182.778, 120.5918
1183.864, 172.0039
1184.950, 457.4336
1186.036, 348.8848
1187.122, 457.9531
1188.207, 651.4355
1189.292, 446.9375
1190.378, 485.4570
1191.463, 621.9961
1192.548, 450.6270
1193.632, 542.7070
1194.717, 364.2910
1195.801, 394.8906
1196.886, 515.5078
1197.970, 509.3594
1199.054, 492.0059
1200.137, 470.6738
1201.221, 553.0059
1202.305, 517.7031
1203.388, 484.6016
1204.471, 594.3262
1205.554, 540.0703
1206.637, 324.8281
1207.719, 482.6133
1208.802, 451.4121
1209.884, 376.2246
1210.966, 463.1797
1212.048, 468.0273
1213.130, 612.9766
1214.212, 673.8574
1215.293, 727.7539
1216.374, 803.6621
1217.456, 813.6562
1218.536, 763.6133
1219.617, 870.6250
1220.698, 888.6562
1221.778, 995.6992
1222.859, 938.7559
1223.939, 1075.824
1225.019, 1114.029
1226.099, 1256.127
1227.178, 1359.234
1228.258, 1371.352
1229.337, 1588.479
1230.417, 1636.617
1231.496, 1821.764
1232.574, 2004.205
1233.653, 1956.373
1234.732, 2001.553
1235.810, 1972.742
1236.888, 2234.939
1237.966, 1962.146
1239.044, 1889.363
1240.122, 1579.588
1241.199, 1850.820
1242.277, 1527.061
1243.354, 1438.596
1244.431, 1156.848
1245.508, 1021.109
1246.585, 983.6699
1247.661, 814.9434
1248.738, 702.2227
1249.814, 703.5039
1250.890, 648.8105
1251.966, 534.1055
1253.042, 497.4043
1254.117, 385.7051
1255.193, 250.0117
1256.268, 176.3203
1257.343, 14.63281
1258.418, 399.9512
1259.493, 215.2676
1260.567, 363.5918
1261.642, 219.9180
1262.716, 162.2461
1263.790, 100.5762
1264.864, 114.9688
1265.938, 68.46875
1267.011, 288.0293
1268.085, 24.59961
1269.158, 24.41016
1270.231, 15.06641
1271.304, 207.2617
1272.377, 56.83203
1273.450, 1.736328
1274.522, 38.40820
1275.594, 85.07422
1276.666, 102.4199
1277.738, 20.40625
1278.810, 104.0273
1279.882, 93.15234
1280.953, 156.3301
1282.025, 311.7754
1283.096, 140.0059
1284.167, 36.02539
1285.238, 236.0957
1286.308, 4.763672
1287.379, 141.5742
1288.449, 33.70117
1289.519, 35.36914
1290.589, 33.56250
1291.659, 156.4688
1292.729, 65.22461
1293.798, 77.57031
1294.868, 160.9805
1295.937, 66.73047
1297.006, 224.0703
1298.075, 110.6660
1299.143, 100.5430
1300.212, 128.5547
1301.280, 105.1816
1302.348, 103.1055
1303.416, 41.84570
1304.484, 145.2715
1305.552, 112.1152
1306.620, 257.1445
1307.687, 244.1367
1308.754, 242.1465
1309.821, 151.9492
1310.888, 93.40820
1311.955, 141.3945
1313.021, 63.02148
1314.088, 139.8809
1315.154, 23.37500
1316.220, 178.3320
1317.286, 272.1855
1318.352, 124.2207
1319.417, 67.93945
1320.483, 59.38281
1321.548, 16.20898
1322.613, 105.7910
1323.678, 145.3691
1324.743, 209.9355
1325.807, 5.541016
1326.872, 412.4395
1327.936, 211.8945
1329.000, 19.40625
1330.064, 103.9082
1331.128, 70.59570
1332.191, 158.8672
1333.255, 166.4922
1334.318, 183.2051
1335.381, 88.85352
1336.444, 306.5469
1337.507, 220.9727
1338.569, 59.03906
1339.632, 282.4512
1340.694, 72.02539
1341.756, 144.4180
1342.818, 290.1484
1343.880, 150.7930
1344.941, 264.4414
1346.003, 133.7988
1347.064, 117.8457
1348.125, 231.8730
1349.186, 417.1914
1350.247, 247.1113
1351.308, 461.4082
1352.368, 90.10742
1353.428, 317.3828
1354.489, 226.6484
1355.549, 276.9668
1356.608, 202.2090
1357.668, 231.4707
1358.727, 278.6855
1359.787, 74.88086
1360.846, 411.0625
1361.905, 317.2324
1362.964, 258.3809
1364.022, 492.5156
1365.081, 232.6387
1366.139, 293.7441
1367.197, 309.8145
1368.255, 301.9766
1369.313, 241.0176
1370.371, 91.06641
1371.428, 434.0352
1372.486, 262.2812
1373.543, 45.15234
1374.600, 301.9492
1375.657, 243.7109
