##NAMES=Beryl
##RRUFFID=R060942
##IDEAL CHEMISTRY=Be_3_Al_2_Si_6_O_18_
##LOCALITY=Mingore mine, Swat Valley, Pakistan
##OWNER=RRUFF
##SOURCE=Lawrence W. Snee
##DESCRIPTION=Green hexagonal prisms, variety emerald
##STATUS=The identification of this mineral has been confirmed by X-ray diffraction and chemical analysis
##URL=rruff.info/R060942
##MEASURED CHEMISTRY=(Be_2.94_Li_0.06_)_Σ=3_(Al_1.55_Mg_0.37_Fe^3+^_0.06_Cr^3+^_0.02_)_Σ=2_Si_6.00_O_18_·Na_0.42_; Be and Li not measured but estimated by stoichiometry
##PIN_ID=L01519
##ORIENTATION=Laser parallel to a* (1 0 0). Fiducial mark perpendicular to laser is parallel to -c [0 0 -1]
119.3650, 0.0000000E+00
120.5960, 44.46436
121.8270, 78.45410
123.0580, 83.56348
124.2880, 79.12891
125.5190, 87.70361
126.7490, 4.310059
127.9790, 0.5834960
129.2090, 31.86475
130.4390, 35.65967
131.6680, 70.19824
132.8980, 50.66943
134.1270, 40.17627
135.3560, 60.79834
136.5850, 33.57617
137.8140, 149.5342
139.0430, 210.9551
140.2710, 150.2861
141.5000, 161.4771
142.7280, 65.00488
143.9560, 30.84424
145.1840, 40.97461
146.4120, 13.48291
147.6390, 65.03809
148.8670, 75.94141
150.0940, 78.07568
151.3210, 87.83936
152.5490, 88.89941
153.7750, 62.74512
155.0020, 62.68945
156.2290, 27.81348
157.4550, 47.89600
158.6810, 52.54980
159.9080, 62.85938
161.1340, 21.86768
162.3590, 139.7231
163.5850, 170.7007
164.8110, 197.7949
166.0360, 308.0010
167.2610, 255.3130
168.4860, 240.7295
169.7110, 340.2544
170.9360, 392.8857
172.1610, 307.6216
173.3850, 382.4595
174.6100, 375.3945
175.8340, 484.4238
177.0580, 488.5439
178.2820, 493.7583
179.5050, 537.0669
180.7290, 656.4570
181.9520, 556.9263
183.1760, 771.4727
184.3990, 693.0942
185.6220, 632.7876
186.8450, 816.5522
188.0670, 891.3857
189.2900, 875.2871
190.5120, 965.4810
191.7340, 932.3013
192.9560, 1010.407
194.1780, 956.5298
195.4000, 973.6714
196.6220, 928.8354
197.8430, 953.0244
199.0640, 971.2437
200.2860, 914.4937
201.5070, 1094.776
202.7270, 919.0923
203.9480, 877.4409
205.1690, 731.8218
206.3890, 588.2373
207.6090, 602.6880
208.8290, 522.1738
210.0490, 536.6963
211.2690, 652.2549
212.4890, 692.8296
213.7080, 729.4258
214.9280, 720.0596
216.1470, 654.7627
217.3660, 697.6104
218.5850, 671.5488
219.8030, 658.5283
221.0220, 736.5723
222.2400, 776.6719
223.4590, 767.8276
224.6770, 788.0132
225.8950, 793.2290
227.1120, 825.4756
228.3300, 737.7520
229.5480, 674.0576
230.7650, 783.3931
231.9820, 780.7573
233.1990, 620.1509
234.4160, 675.5728
235.6330, 716.0229
236.8490, 626.9766
238.0660, 698.6079
239.2820, 532.1353
240.4980, 595.6904
241.7140, 637.2725
242.9300, 655.8818
244.1460, 608.5166
245.3610, 554.1777
246.5770, 526.8652
247.7920, 502.5781
249.0070, 543.3154
250.2220, 484.0776
251.4370, 436.8643
252.6510, 329.6748
253.8660, 326.5093
255.0800, 349.3657
256.2940, 455.2461
257.5080, 512.1494
258.7220, 514.0635
259.9360, 535.8892
261.1490, 523.3105
262.3630, 531.6050
263.5760, 564.0249
264.7890, 550.8745
266.0020, 543.0610
267.2150, 543.2793
268.4270, 484.2642
269.6400, 467.2900
270.8520, 404.3940
272.0640, 476.5693
273.2760, 426.5791
274.4880, 371.8730
275.7000, 255.2290
276.9120, 340.6265
278.1230, 332.0664
279.3340, 254.5493
280.5450, 285.0742
281.7560, 376.6406
282.9670, 439.2480
284.1780, 328.8950
285.3880, 441.5312
286.5980, 383.1440
287.8090, 338.7998
289.0190, 523.4976
290.2290, 393.2344
291.4380, 407.0103
292.6480, 544.8232
293.8570, 479.6729
295.0670, 662.5576
296.2760, 743.4756
297.4850, 617.4268
298.6930, 838.4097
299.9020, 866.4238
301.1110, 990.4683
302.3190, 919.5420
303.5270, 1098.088
304.7350, 1120.218
305.9430, 1245.018
307.1510, 1490.201
308.3580, 1795.411
309.5660, 2373.646
310.7730, 2707.985
311.9800, 2864.269
313.1870, 3736.631
314.3940, 4572.396
315.6010, 5834.561
316.8070, 7013.024
318.0130, 8548.735
319.2200, 9718.151
320.4260, 11166.90
321.6310, 12452.35
322.8370, 13020.83
324.0430, 12641.12
325.2480, 11780.63
326.4540, 10411.16
327.6590, 9000.710
328.8640, 7267.275
330.0680, 5563.858
331.2730, 4069.454
332.4780, 3008.069
333.6820, 1996.699
334.8860, 1335.345
336.0900, 924.0049
337.2940, 704.6802
338.4980, 474.3696
339.7010, 350.0737
340.9050, 257.7920
342.1080, 292.5244
343.3110, 214.2715
344.5140, 158.0317
345.7170, 132.8057
346.9200, 60.59375
348.1220, 97.39453
349.3240, 52.20898
350.5270, 70.03711
351.7290, 28.12207
352.9310, 0.2709960
354.1320, 11.40723
355.3340, 82.46826
356.5350, 24.35596
357.7370, 106.2559
358.9380, 61.16797
360.1390, 48.09131
361.3400, 83.02686
362.5400, 63.97314
363.7410, 81.92969
364.9410, 132.9717
366.1410, 232.8735
367.3410, 184.8594
368.5410, 294.8550
369.7410, 198.3140
370.9400, 486.8735
372.1400, 300.8960
373.3390, 497.9272
374.5380, 570.9668
375.7370, 554.0146
376.9360, 774.0713
378.1350, 991.1357
379.3330, 1075.208
380.5310, 1276.288
381.7300, 1534.373
382.9280, 1974.465
384.1260, 2401.564
385.3230, 3017.671
386.5210, 3720.785
387.7180, 4772.904
388.9160, 6055.030
390.1130, 7152.166
391.3100, 8773.306
392.5060, 10193.45
393.7030, 11940.62
394.9000, 13378.72
396.0960, 14318.35
397.2920, 14385.61
398.4880, 14012.23
399.6840, 13157.94
400.8800, 11693.87
402.0750, 10056.75
403.2710, 8303.837
404.4660, 6523.326
405.6610, 5146.047
406.8560, 3840.823
408.0510, 2835.563
409.2450, 2368.851
410.4400, 1898.374
411.6340, 1397.494
412.8280, 1248.719
414.0220, 997.2686
415.2160, 794.7578
416.4100, 669.8809
417.6030, 535.2520
418.7970, 561.5098
419.9900, 484.7729
421.1830, 436.0400
422.3760, 384.3125
423.5690, 393.5894
424.7610, 358.8706
425.9540, 273.1562
427.1460, 368.4448
428.3380, 198.7373
429.5300, 252.0332
430.7220, 259.3330
431.9140, 270.6367
433.1050, 287.9429
434.2970, 362.2529
435.4880, 271.5654
436.6790, 235.8813
437.8700, 272.1997
439.0610, 96.52051
440.2510, 202.8433
441.4420, 143.1685
442.6320, 123.4951
443.8220, 62.82373
445.0120, 40.26953
446.2020, 12.47363
447.3910, 9.824219
448.5810, 17.83594
449.7700, 7.506348
450.9600, 30.84912
452.1490, 51.19189
453.3370, 38.46436
454.5260, 11.85889
455.7150, 100.8179
456.9030, 74.54688
458.0910, 32.31641
459.2800, 3.896484
460.4670, 7.240723
461.6550, 32.29199
462.8430, 38.47949
464.0300, 34.70410
465.2180, 22.88672
466.4050, 60.93115
467.5920, 73.21582
468.7790, 59.36230
469.9650, 53.50781
471.1520, 90.65234
472.3380, 45.79639
473.5250, 89.93896
474.7110, 143.0801
475.8970, 148.2202
477.0820, 165.3589
478.2680, 154.4971
479.4540, 111.6328
480.6390, 175.7676
481.8240, 237.9014
483.0090, 104.0342
484.1940, 212.1660
485.3780, 177.2954
486.5630, 201.4233
487.7470, 117.5493
488.9320, 142.6738
490.1160, 146.7959
491.3000, 165.9155
492.4830, 77.03369
493.6670, 150.1489
494.8500, 132.8950
496.0340, 226.9883
497.2170, 211.9893
498.4000, 247.0942
499.5820, 178.1958
500.7650, 251.2949
501.9480, 376.3906
503.1300, 334.4839
504.3120, 427.5728
505.4940, 366.6582
506.6760, 306.7402
507.8580, 303.8193
509.0390, 416.8940
510.2210, 361.9648
511.4020, 441.0317
512.5830, 442.0952
513.7640, 528.1553
514.9450, 533.2100
516.1250, 587.2612
517.3060, 597.3076
518.4860, 635.3516
519.6660, 616.3916
520.8460, 581.5547
522.0260, 545.4575
523.2060, 472.4839
524.3850, 393.5049
525.5650, 342.5215
526.7440, 359.5342
527.9230, 216.5430
529.1020, 139.5469
530.2810, 198.5459
531.4590, 180.5459
532.6380, 79.54053
533.8160, 60.52930
534.9940, 48.52344
536.1720, 7.510742
537.3500, 112.5171
538.5270, 28.37988
539.7050, 63.72754
540.8820, 29.11084
542.0590, 36.05615
543.2360, 146.2593
544.4130, 117.5552
545.5900, 59.93408
546.7660, 63.36670
547.9430, 111.8540
549.1190, 47.39551
550.2950, 55.98193
551.4710, 27.62012
552.6470, 12.72900
553.8220, 82.06152
554.9980, 34.38770
556.1730, 38.71045
557.3480, 14.03711
558.5230, 49.35107
559.6980, 120.6572
560.8730, 153.9624
562.0470, 177.2603
563.2220, 208.5503
564.3960, 232.8374
565.5700, 244.4302
566.7440, 278.9443
567.9170, 287.6509
569.0910, 324.9053
570.2640, 402.1528
571.4380, 404.3999
572.6110, 539.6475
573.7840, 615.9009
574.9570, 571.1577
576.1290, 660.4248
577.3020, 615.6831
578.4740, 659.9326
579.6460, 618.1738
580.8180, 652.4062
581.9900, 688.6299
583.1620, 735.8447
584.3330, 630.0498
585.5040, 654.2529
586.6760, 648.4473
587.8470, 680.6401
589.0180, 654.8237
590.1880, 664.2212
591.3590, 758.3936
592.5290, 702.5566
593.7000, 772.7114
594.8700, 774.7773
596.0400, 776.7881
597.2090, 858.0161
598.3790, 819.7173
599.5490, 935.0405
600.7180, 1038.186
601.8870, 1203.947
603.0560, 1374.118
604.2250, 1643.107
605.3940, 1977.170
606.5620, 2308.360
607.7300, 2626.756
608.8990, 3069.940
610.0670, 3273.122
611.2350, 3447.308
612.4020, 3455.496
613.5700, 3249.692
614.7370, 2982.884
615.9050, 2644.083
617.0720, 2213.290
618.2390, 1785.489
619.4060, 1421.679
620.5720, 1171.299
621.7390, 1038.091
622.9050, 822.5771
624.0710, 757.7715
625.2370, 717.9712
626.4030, 579.1602
627.5690, 471.3579
628.7340, 598.5459
629.9000, 423.7236
631.0650, 494.8931
632.2300, 528.0527
633.3950, 448.2036
634.5600, 541.3433
635.7240, 508.4751
636.8890, 532.5957
638.0530, 530.7061
639.2170, 571.8057
640.3810, 661.8945
641.5450, 581.9727
642.7080, 580.0391
643.8720, 682.0947
645.0350, 707.1392
646.1980, 680.1724
647.3610, 795.1943
648.5240, 860.2046
649.6870, 821.2041
650.8490, 833.1919
652.0120, 940.1685
653.1740, 1097.231
654.3360, 1108.184
655.4980, 1134.125
656.6600, 1303.055
657.8210, 1402.406
658.9830, 1543.311
660.1440, 1593.205
661.3050, 1819.261
662.4660, 2096.131
663.6270, 2289.988
664.7870, 2733.875
665.9480, 3055.977
667.1080, 3457.099
668.2680, 3950.908
669.4280, 4576.928
670.5880, 5402.910
671.7480, 6341.731
672.9070, 7436.490
674.0670, 9091.522
675.2260, 11168.24
676.3850, 14087.02
677.5440, 18202.41
678.7030, 22770.57
679.8610, 28455.84
681.0200, 34805.05
682.1780, 41224.86
683.3360, 47569.73
684.4940, 52587.62
685.6520, 55726.95
686.8090, 55256.05
687.9670, 52225.22
689.1240, 47277.55
690.2810, 40806.09
691.4380, 34009.91
692.5950, 27867.56
693.7520, 23410.11
694.9080, 17388.96
696.0650, 13729.15
697.2210, 11247.58
698.3770, 9183.033
699.5330, 7682.916
700.6880, 6584.401
701.8440, 5635.875
702.9990, 4779.136
704.1550, 4226.589
705.3100, 3706.032
706.4650, 3323.463
707.6190, 2881.883
708.7740, 2540.479
709.9290, 2186.365
711.0830, 1982.530
712.2370, 1779.002
713.3910, 1643.979
714.5450, 1458.439
715.6980, 1377.807
716.8520, 1214.135
718.0050, 1186.451
719.1580, 1006.755
720.3110, 928.0469
721.4640, 976.3267
722.6170, 654.5952
723.7700, 758.1475
724.9220, 650.3916
726.0740, 629.2100
727.2260, 588.4297
728.3780, 525.0776
729.5300, 387.2769
730.6810, 413.4639
731.8330, 279.7329
732.9840, 312.8960
734.1350, 394.4595
735.2860, 300.6074
736.4370, 332.2720
737.5880, 318.0674
738.7380, 366.6782
739.8880, 274.2178
741.0390, 218.6694
742.1890, 179.2251
743.3380, 160.1421
744.4880, 161.2827
745.6380, 172.6929
746.7870, 174.7944
747.9360, 206.1353
749.0850, 184.8252
750.2340, 123.4272
751.3830, 171.3418
752.5310, 174.2842
753.6800, 211.8477
754.8280, 191.8462
755.9760, 214.0659
757.1240, 177.9961
758.2720, 203.0464
759.4190, 152.9106
760.5670, 64.83203
761.7140, 147.1050
762.8610, 135.2231
764.0080, 135.0942
765.1550, 184.0918
766.3020, 131.9307
767.4480, 213.7534
768.5950, 195.9492
769.7410, 331.7402
770.8870, 301.5596
772.0330, 223.4956
773.1780, 257.2383
774.3240, 215.9648
775.4690, 131.6743
776.6140, 154.3691
777.7590, 124.0479
778.9040, 118.7100
780.0490, 147.3574
781.1940, 205.9888
782.3380, 228.6040
783.4820, 184.2041
784.6260, 163.7886
785.7700, 138.3579
786.9140, 137.9111
788.0580, 168.4497
789.2010, 144.9722
790.3450, 75.47998
791.4880, 135.9717
792.6310, 98.44775
793.7730, 172.9092
794.9160, 46.35547
796.0590, 156.7832
797.2010, 127.1953
798.3430, 61.59326
799.4850, 99.97412
800.6270, 96.34131
801.7690, 75.78613
802.9100, 51.03027
804.0520, 48.35059
805.1930, 82.65332
806.3340, 51.94238
807.4750, 14.21387
808.6160, 67.46094
809.7560, 106.6929
810.8970, 6.089355
812.0370, 79.09424
813.1770, 80.65088
814.3170, 12.81250
815.4570, 21.98535
816.5960, 64.13916
817.7360, 18.30371
818.8750, 16.44775
820.0140, 15.58643
821.1530, 46.74951
822.2920, 74.93652
823.4310, 73.09863
824.5690, 71.65771
825.7070, 34.52197
826.8460, 52.70605
827.9840, 63.10010
829.1220, 65.04785
830.2590, 94.18799
831.3970, 1.683594
832.5340, 22.58154
833.6710, 12.48340
834.8080, 42.53320
835.9450, 0.5708010
837.0820, 84.58350
838.2190, 88.58398
839.3550, 9.574707
840.4910, 66.54492
841.6270, 47.50488
842.7630, 45.45410
843.8990, 60.39307
845.0350, 72.32080
846.1700, 7.760254
847.3060, 9.867676
848.4410, 31.31445
849.5760, 24.06543
850.7100, 48.38037
851.8450, 29.36768
852.9800, 60.10547
854.1140, 84.83545
855.2480, 89.28809
856.3820, 75.26855
857.5160, 39.97266
858.6500, 48.66846
859.7830, 7.644043
860.9170, 76.02197
862.0500, 13.31934
863.1830, 39.31543
864.3160, 12.05713
865.4480, 54.54834
866.5810, 27.14648
867.7130, 8.737793
868.8460, 35.63086
869.9780, 46.10596
871.1100, 39.43115
872.2410, 1.038086
873.3730, 19.52051
874.5050, 65.02539
875.6360, 96.57617
876.7670, 48.18945
877.8980, 18.83887
879.0290, 106.5088
880.1590, 28.24463
881.2900, 35.00488
882.4200, 5.207031
883.5500, 19.58691
884.6800, 47.39893
885.8100, 36.24365
886.9400, 63.51904
888.0690, 17.02490
889.1990, 59.94922
890.3280, 67.91162
891.4570, 1.086914
892.5860, 2.920898
893.7140, 71.93457
894.8430, 85.98926
895.9710, 51.90869
897.1000, 10.47998
898.2280, 61.59229
899.3560, 58.26318
900.4830, 77.88428
901.6110, 21.92822
902.7380, 4.739746
903.8660, 13.45117
904.9930, 6.351074
906.1200, 8.848145
907.2460, 54.94873
908.3730, 22.74414
909.5000, 85.53955
910.6260, 20.33350
911.7520, 78.12793
912.8780, 132.9224
914.0040, 148.7168
915.1290, 131.5117
916.2550, 186.3076
917.3800, 155.1040
918.5050, 181.9014
919.6300, 110.7002
920.7550, 123.5000
921.8800, 131.3013
923.0040, 193.1050
924.1290, 133.9111
925.2530, 139.7188
926.3770, 148.4297
927.5010, 109.2427
928.6250, 214.0586
929.7480, 147.8774
930.8720, 178.2661
931.9950, 109.0918
933.1180, 184.9214
934.2410, 108.5806
935.3640, 170.4175
936.4860, 51.25928
937.6090, 39.06348
938.7310, 49.64551
939.8530, 96.20117
940.9750, 93.06201
942.0970, 150.7051
943.2180, 37.37988
944.3400, 117.2075
945.4610, 153.0928
946.5820, 61.70117
947.7030, 24.39355
948.8240, 123.5146
949.9450, 43.28418
951.0650, 22.44385
952.1860, 151.3398
953.3060, 124.4258
954.4260, 81.47168
955.5460, 28.51221
956.6650, 70.33252
957.7850, 144.3057
958.9040, 149.2881
960.0230, 122.1274
961.1420, 171.8501
962.2610, 157.8188
963.3800, 145.2881
964.4990, 232.3228
965.6170, 109.3667
966.7350, 207.7930
967.8530, 162.9531
968.9710, 99.25195
970.0890, 163.2954
971.2070, 219.0278
972.3240, 181.1777
973.4410, 227.3501
974.5580, 254.7427
975.6750, 246.9604
976.7920, 351.2119
977.9090, 378.4878
979.0250, 402.8496
980.1410, 383.1431
981.2580, 430.8291
982.3740, 439.5537
983.4890, 491.2427
984.6050, 531.5723
985.7200, 630.9097
986.8360, 699.3569
987.9510, 811.8462
989.0660, 841.3496
990.1810, 869.8877
991.2950, 1056.440
992.4100, 1050.011
993.5240, 1127.597
994.6390, 1257.902
995.7530, 1391.519
996.8660, 1380.565
997.9800, 1491.218
999.0940, 1428.451
1000.207, 1595.144
1001.320, 1630.875
1002.433, 1788.541
1003.546, 1808.316
1004.659, 1859.716
1005.772, 2008.536
1006.884, 2096.871
1007.996, 2095.101
1009.108, 2040.528
1010.220, 2162.032
1011.332, 2216.633
1012.444, 2336.135
1013.555, 2337.203
1014.666, 2316.248
1015.777, 2344.933
1016.888, 2450.948
1017.999, 2555.730
1019.110, 2493.836
1020.220, 2540.708
1021.331, 2584.938
1022.441, 2553.148
1023.551, 2671.744
1024.661, 2684.917
1025.770, 2811.063
1026.880, 2821.130
1027.989, 2920.281
1029.098, 3006.626
1030.207, 3063.921
1031.316, 3172.877
1032.425, 3312.996
1033.533, 3489.673
1034.642, 3631.628
1035.750, 3935.054
1036.858, 4203.502
1037.966, 4473.589
1039.073, 4608.087
1040.181, 5005.388
1041.288, 5423.951
1042.396, 5847.537
1043.503, 6463.152
1044.610, 6898.802
1045.716, 7588.007
1046.823, 8358.757
1047.929, 9121.903
1049.036, 10264.66
1050.142, 11373.43
1051.248, 12802.24
1052.353, 14368.06
1053.459, 16352.92
1054.564, 18416.80
1055.670, 21044.71
1056.775, 23718.64
1057.880, 26758.60
1058.985, 30171.59
1060.089, 33823.62
1061.194, 37167.65
1062.298, 40812.72
1063.402, 43874.81
1064.506, 45978.94
1065.610, 48212.09
1066.713, 49783.28
1067.817, 50458.49
1068.920, 50584.75
1070.023, 50439.02
1071.126, 48687.34
1072.229, 46633.66
1073.332, 44274.03
1074.435, 41427.43
1075.537, 38218.84
1076.639, 35267.29
1077.741, 32093.78
1078.843, 29571.81
1079.945, 26941.36
1081.046, 24765.54
1082.148, 22806.22
1083.249, 21107.85
1084.350, 19730.51
1085.451, 18538.20
1086.551, 17373.92
1087.652, 16345.72
1088.752, 15454.99
1089.853, 14635.62
1090.953, 13986.68
1092.053, 13231.55
1093.152, 12768.46
1094.252, 12222.82
1095.351, 11639.79
1096.451, 11328.89
1097.550, 10776.95
1098.649, 10357.02
1099.748, 9968.687
1100.846, 9478.840
1101.945, 9448.123
1103.043, 9062.330
1104.141, 8812.364
1105.239, 8576.066
1106.337, 8510.392
1107.434, 7986.537
1108.532, 8136.624
1109.629, 7820.000
1110.726, 7813.034
1111.823, 7789.699
1112.920, 7736.578
1114.017, 7903.409
1115.113, 7894.916
1116.210, 8221.463
1117.306, 8393.856
1118.402, 8870.524
1119.498, 8959.173
1120.593, 9125.863
1121.689, 9451.715
1122.784, 9384.436
1123.879, 9407.818
1124.974, 9067.583
1126.069, 8812.364
1127.164, 8436.177
1128.259, 8039.007
1129.353, 7761.776
1130.447, 7438.379
1131.541, 7079.670
1132.635, 6798.865
1133.729, 6433.167
1134.822, 6111.144
1135.916, 5872.297
1137.009, 5629.331
1138.102, 5257.386
1139.195, 5035.467
1140.288, 4709.577
1141.380, 4537.725
1142.473, 4332.922
1143.565, 4097.153
1144.657, 3940.058
1145.749, 3736.365
1146.841, 3588.700
1147.932, 3371.064
1149.024, 3180.448
1150.115, 3050.025
1151.206, 2896.471
1152.297, 2822.946
1153.388, 2567.458
1154.479, 2406.392
1155.569, 2164.592
1156.659, 2032.196
1157.750, 1908.819
1158.839, 1783.189
1159.929, 1508.867
1161.019, 1462.585
1162.108, 1345.640
1163.198, 1298.398
1164.287, 1208.426
1165.376, 1049.234
1166.465, 1058.167
1167.553, 1107.025
1168.642, 864.9009
1169.730, 880.7939
1170.818, 867.7017
1171.906, 768.4722
1172.994, 642.4131
1174.082, 702.9644
1175.170, 716.6982
1176.257, 557.6826
1177.344, 676.8857
1178.431, 452.8994
1179.518, 533.9268
1180.605, 433.9663
1181.691, 429.0195
1182.778, 453.0845
1183.864, 388.1631
1184.950, 359.6440
1186.036, 396.7456
1187.122, 397.9492
1188.207, 310.4458
1189.292, 308.5835
1190.378, 302.7334
1191.463, 251.8940
1192.548, 238.0659
1193.632, 193.4028
1194.717, 225.5957
1195.801, 144.9609
1196.886, 220.3491
1197.970, 255.6904
1199.054, 144.9224
1200.137, 167.3784
1201.221, 191.6294
1202.305, 168.3315
1203.388, 107.6060
1204.471, 98.89014
1205.554, 75.18408
1206.637, 64.48340
1207.719, 170.9766
1208.802, 49.23975
1209.884, 75.06689
1210.966, 67.38086
1212.048, 4.295410
1213.130, 93.12207
1214.212, 44.45752
1215.293, 57.79932
1216.374, 94.43604
1217.456, 1.527344
1218.536, 13.16992
1219.617, 28.18994
1220.698, 9.445801
1221.778, 16.92041
1222.859, 25.29150
1223.939, 14.33350
1225.019, 43.04102
1226.099, 29.58057
1227.178, 17.55811
1228.258, 59.93262
1229.337, 56.19385
1230.417, 23.16357
1231.496, 64.47754
1232.574, 30.01514
1233.653, 74.64697
1234.732, 50.28809
1235.810, 23.00195
1236.888, 72.72412
1237.966, 86.47998
1239.044, 57.23877
1240.122, 99.05322
1241.199, 59.88574
1242.277, 27.16895
1243.354, 92.07520
1244.431, 21.00586
1245.508, 38.62402
1246.585, 31.64697
1247.661, 51.86670
1248.738, 71.32324
1249.814, 6.490234
1250.890, 67.51465
1251.966, 25.44141
1253.042, 6.580078
1254.117, 30.36572
1255.193, 10.31006
1256.268, 18.25098
1257.343, 28.19043
1258.418, 8.871582
1259.493, 4.946289
1260.567, 1.969238
1261.642, 78.08936
1262.716, 31.00977
1263.790, 42.17822
1264.864, 26.60303
1265.938, 45.59912
1267.011, 54.74268
1268.085, 65.94580
1269.158, 100.0376
1270.231, 53.03027
1271.304, 34.96582
1272.377, 47.81787
1273.450, 13.39990
1274.522, 55.35547
1275.594, 58.22900
1276.666, 95.97266
1277.738, 38.77148
1278.810, 17.80078
1279.882, 98.59131
1280.953, 56.30957
1282.025, 56.05859
1283.096, 13.92773
1284.167, 9.778809
1285.238, 34.45410
1286.308, 69.12158
1287.379, 6.709961
1288.449, 128.9243
1289.519, 163.8125
1290.589, 1.450684
