##NAMES=Beryl
##RRUFFID=R060944
##IDEAL CHEMISTRY=Be_3_Al_2_Si_6_O_18_
##LOCALITY=Habachtal, Salzburg, Austria
##OWNER=RRUFF
##SOURCE=Lawrence W. Snee
##DESCRIPTION=Green hexagonal prisms in a muscovite schist, variety emerald. Note that there are micro inclusions of actinolite. The Raman signal is a mixture of the two phases.
##STATUS=The identification of this mineral has been confirmed by X-ray diffraction and chemical analysis
##URL=rruff.info/R060944
##MEASURED CHEMISTRY=Be_3.00_(Al_1.59_Mg_0.33_Fe^3+^_0.04_Cr^3+^_0.04_)_Σ=2_Si_6.00_O_18_·Na_0.33_ ; bright inclusions are actinolite
##PIN_ID=L01278
##ORIENTATION=Laser parallel to a* (1 0 0). Fiducial mark perpendicular to laser is parallel to c [0 0 1]
130.4390, 0.0000000E+00
131.6680, 8.0077998E-02
132.8980, 22.35938
134.1270, 3.164063
135.3560, 50.72266
136.5850, 24.70898
137.8140, 113.8555
139.0430, 100.5469
140.2710, 195.4434
141.5000, 66.25000
142.7280, 70.72266
143.9560, 46.33398
145.1840, 10.08203
146.4120, 136.3398
147.6390, 115.8242
148.8670, 79.27148
150.0940, 187.5996
151.3210, 385.7305
152.5490, 363.5898
153.7750, 503.1191
155.0020, 572.7559
156.2290, 704.9883
157.4550, 696.2520
158.6810, 734.0273
159.9080, 768.2832
161.1340, 701.9922
162.3590, 572.1250
163.5850, 625.6641
164.8110, 581.4336
166.0360, 507.8672
167.2610, 649.5000
168.4860, 678.4512
169.7110, 802.6953
170.9360, 862.2070
172.1610, 1020.162
173.3850, 1121.953
174.6100, 1377.164
175.8340, 1745.584
177.0580, 1977.211
178.2820, 1968.051
179.5050, 1958.107
180.7290, 1615.389
181.9520, 1365.887
183.1760, 1171.592
184.3990, 896.4941
185.6220, 688.5879
186.8450, 782.8574
188.0670, 667.3008
189.2900, 725.9141
190.5120, 803.6855
191.7340, 718.6113
192.9560, 772.2656
194.1780, 591.9023
195.4000, 738.2578
196.6220, 680.7461
197.8430, 600.3633
199.0640, 629.1055
200.2860, 777.9727
201.5070, 845.9648
202.7270, 852.1973
203.9480, 644.4043
205.1690, 790.6035
206.3890, 560.8125
207.6090, 593.0391
208.8290, 638.2891
210.0490, 774.5664
211.2690, 758.8535
212.4890, 904.1797
213.7080, 1034.553
214.9280, 1385.979
216.1470, 1492.455
217.3660, 1879.988
218.5850, 1864.578
219.8030, 2136.225
221.0220, 2419.945
222.2400, 2546.863
223.4590, 2534.891
224.6770, 2331.141
225.8950, 2006.578
227.1120, 1917.217
228.3300, 1878.055
229.5480, 1672.150
230.7650, 1772.371
231.9820, 1755.629
233.1990, 1397.926
234.4160, 1213.260
235.6330, 995.6348
236.8490, 918.0469
238.0660, 914.4980
239.2820, 1006.988
240.4980, 559.5410
241.7140, 811.1328
242.9300, 819.7617
244.1460, 667.4336
245.3610, 853.1426
246.5770, 905.8906
247.7920, 734.6758
249.0070, 829.5000
250.2220, 750.3633
251.4370, 757.2617
252.6510, 622.1992
253.8660, 522.1738
255.0800, 352.1836
256.2940, 307.2324
257.5080, 300.3164
258.7220, 520.4355
259.9360, 559.5918
261.1490, 474.7832
262.3630, 160.0059
263.5760, 310.2656
264.7890, 47.55859
266.0020, 260.8867
267.2150, 377.2539
268.4270, 437.6777
269.6400, 281.2266
270.8520, 288.9043
272.0640, 71.67969
273.2760, 8.511719
274.4880, 216.3223
275.7000, 205.1836
276.9120, 99.06250
278.1230, 191.3750
279.3340, 54.22266
280.5450, 192.1875
281.7560, 194.2949
282.9670, 207.5312
284.1780, 201.7461
285.3880, 167.1055
286.5980, 289.6035
287.8090, 460.2246
289.0190, 377.9668
290.2290, 413.1777
291.4380, 154.9336
292.6480, 348.9922
293.8570, 387.1445
295.0670, 275.3906
296.2760, 383.7227
297.4850, 511.1348
298.6930, 524.6289
299.9020, 438.1992
301.1110, 586.8438
302.3190, 694.5586
303.5270, 653.3398
304.7350, 837.1895
305.9430, 830.1016
307.1510, 687.0781
308.3580, 879.1133
309.5660, 928.2051
310.7730, 1374.482
311.9800, 1348.025
313.1870, 1832.281
314.3940, 2235.379
315.6010, 2754.574
316.8070, 3163.359
318.0130, 3929.068
319.2200, 4970.910
320.4260, 6103.287
321.6310, 7682.322
322.8370, 8873.584
324.0430, 9284.254
325.2480, 8950.191
326.4540, 7490.910
327.6590, 5705.387
328.8640, 4407.209
330.0680, 3152.062
331.2730, 2150.953
332.4780, 1519.877
333.6820, 1384.832
334.8860, 1082.820
336.0900, 654.8398
337.2940, 706.8906
338.4980, 672.9707
339.7010, 742.0820
340.9050, 543.2188
342.1080, 830.3828
343.3110, 675.5781
344.5140, 510.7988
345.7170, 577.0449
346.9200, 800.3164
348.1220, 523.3945
349.3240, 543.7148
350.5270, 453.0625
351.7290, 428.4355
352.9310, 425.8320
354.1320, 448.0547
355.3340, 457.0254
356.5350, 590.2441
357.7370, 540.7402
358.9380, 657.2598
360.1390, 770.8047
361.3400, 710.3711
362.5400, 776.9629
363.7410, 995.5781
364.9410, 1108.215
366.1410, 1126.877
367.3410, 881.5605
368.5410, 1219.264
369.7410, 1056.988
370.9400, 1096.732
372.1400, 1123.498
373.3390, 1051.277
374.5380, 853.0781
375.7370, 857.8906
376.9360, 920.7227
378.1350, 1280.570
379.3330, 1209.434
380.5310, 1348.312
381.7300, 1695.207
382.9280, 1607.119
384.1260, 1734.043
385.3230, 2441.984
386.5210, 2756.941
387.7180, 3270.910
388.9160, 4016.895
390.1130, 4798.895
391.3100, 5832.908
392.5060, 6679.936
393.7030, 7890.977
394.9000, 8985.035
396.0960, 10191.11
397.2920, 10444.19
398.4880, 10618.29
399.6840, 9361.398
400.8800, 8077.840
402.0750, 6625.371
403.2710, 5042.527
404.4660, 4224.246
405.6610, 3434.010
406.8560, 2795.129
408.0510, 2319.336
409.2450, 2133.195
410.4400, 1625.094
411.6340, 1390.332
412.8280, 1138.582
414.0220, 880.4648
415.2160, 826.7383
416.4100, 763.0195
417.6030, 568.2500
418.7970, 498.5488
419.9900, 578.8574
421.1830, 485.1895
422.3760, 544.5488
423.5690, 284.9297
424.7610, 508.3379
425.9540, 367.7676
427.1460, 543.2168
428.3380, 304.6895
429.5300, 384.1836
430.7220, 472.6992
431.9140, 469.2363
433.1050, 568.7910
434.2970, 436.3711
435.4880, 551.9727
436.6790, 501.5898
437.8700, 431.2266
439.0610, 501.8809
440.2510, 229.5508
441.4420, 360.2383
442.6320, 437.9453
443.8220, 337.6641
445.0120, 186.4004
446.2020, 206.1523
447.3910, 86.91797
448.5810, 171.7012
449.7700, 169.4980
450.9600, 85.30859
452.1490, 60.13281
453.3370, 21.02734
454.5260, 168.1895
455.7150, 175.5801
456.9030, 51.63672
458.0910, 12.86719
459.2800, 132.0938
460.4670, 146.3730
461.6550, 21.71484
462.8430, 155.0586
464.0300, 2.468750
465.2180, 218.8730
466.4050, 18.62500
467.5920, 193.8652
468.7790, 68.44336
469.9650, 235.0469
471.1520, 22.24414
472.3380, 277.5449
473.5250, 63.85742
474.7110, 154.1797
475.8970, 137.5117
477.0820, 333.8555
478.2680, 89.20703
479.4540, 175.5703
480.6390, 51.94336
481.8240, 264.3281
483.0090, 194.7188
484.1940, 281.1211
485.3780, 100.5332
486.5630, 132.9570
487.7470, 209.3867
488.9320, 67.82617
490.1160, 22.72461
491.3000, 191.7148
492.4830, 362.1621
493.6670, 187.6211
494.8500, 147.0859
496.0340, 226.5605
497.2170, 14.04297
498.4000, 223.5312
499.5820, 163.0254
500.7650, 166.5352
501.9480, 185.0547
503.1300, 418.5781
504.3120, 424.1113
505.4940, 439.6523
506.6760, 388.1992
507.8580, 598.7539
509.0390, 441.3340
510.2210, 681.9238
511.4020, 799.5195
512.5830, 868.1211
513.7640, 1032.922
514.9450, 1175.348
516.1250, 1243.971
517.3060, 1383.604
518.4860, 1465.238
519.6660, 1441.883
520.8460, 1433.541
522.0260, 1560.209
523.2060, 1432.674
524.3850, 1405.566
525.5650, 1283.254
526.7440, 1135.967
527.9230, 1111.686
529.1020, 711.4102
530.2810, 532.1426
531.4590, 584.8789
532.6380, 415.6562
533.8160, 492.4453
534.9940, 343.2656
536.1720, 292.0918
537.3500, 148.9219
538.5270, 105.7578
539.7050, 52.26367
540.8820, 257.5918
542.0590, 18.52344
543.2360, 16.45312
544.4130, 83.41211
545.5900, 58.62305
546.7660, 24.69531
547.9430, 149.7441
549.1190, 3.875000
550.2950, 120.0137
551.4710, 42.20312
552.6470, 84.57812
553.8220, 73.36328
554.9980, 13.15039
556.1730, 149.9355
557.3480, 157.7520
558.5230, 159.5742
559.6980, 184.4141
560.8730, 102.2578
562.0470, 93.13477
563.2220, 95.01953
564.3960, 209.9043
565.5700, 155.7910
566.7440, 202.6797
567.9170, 91.58398
569.0910, 109.4961
570.2640, 57.41016
571.4380, 347.3262
572.6110, 395.2422
573.7840, 86.16211
574.9570, 389.0840
576.1290, 292.0254
577.3020, 297.9785
578.4740, 370.9316
579.6460, 325.8887
580.8180, 177.8555
581.9900, 359.8281
583.1620, 198.7969
584.3330, 508.7812
585.5040, 234.7637
586.6760, 210.7852
587.8470, 288.8066
589.0180, 237.8281
590.1880, 307.8496
591.3590, 288.8711
592.5290, 263.8906
593.7000, 309.9121
594.8700, 402.8027
596.0400, 346.4824
597.2090, 211.5020
598.3790, 305.7539
599.5490, 369.9570
600.7180, 458.6172
601.8870, 501.4102
603.0560, 298.1133
604.2250, 411.3672
605.3940, 451.0039
606.5620, 562.4570
607.7300, 841.5469
608.8990, 938.4609
610.0670, 1277.645
611.2350, 1212.115
612.4020, 1687.281
613.5700, 1887.451
614.7370, 1898.656
615.9050, 1963.863
617.0720, 1791.078
618.2390, 1365.295
619.4060, 1369.516
620.5720, 815.7383
621.7390, 701.9609
622.9050, 542.1895
624.0710, 345.4160
625.2370, 243.6445
626.4030, 452.8887
627.5690, 373.1348
628.7340, 131.3828
629.9000, 405.6309
631.0650, 309.0996
632.2300, 288.3516
633.3950, 472.6035
634.5600, 286.8555
635.7240, 439.1094
636.8890, 219.3633
638.0530, 448.5430
639.2170, 358.7988
640.3810, 590.2480
641.5450, 575.5039
642.7080, 773.7598
643.8720, 642.0156
645.0350, 758.2734
646.1980, 718.5293
647.3610, 889.7852
648.5240, 801.2617
649.6870, 1056.668
650.8490, 1269.924
652.0120, 1245.176
653.1740, 1586.430
654.3360, 1737.682
655.4980, 1561.006
656.6600, 1891.289
657.8210, 2052.668
658.9830, 2118.916
660.1440, 2725.141
661.3050, 2769.145
662.4660, 3340.389
663.6270, 4053.627
664.7870, 4668.865
665.9480, 5425.670
667.1080, 6560.066
668.2680, 7535.344
669.4280, 8699.572
670.5880, 10261.80
671.7480, 10889.83
672.9070, 11557.73
674.0670, 11929.99
675.2260, 12094.21
676.3850, 12378.41
677.5440, 12967.62
678.7030, 14495.39
679.8610, 16673.51
681.0200, 19363.70
682.1780, 23368.57
683.3360, 27976.47
684.4940, 32912.64
685.6520, 36945.26
686.8090, 37896.82
687.9670, 36423.19
689.1240, 32210.46
690.2810, 26556.22
691.4380, 21299.83
692.5950, 16916.96
693.7520, 12899.09
694.9080, 10479.60
696.0650, 8532.951
697.2210, 6970.602
698.3770, 5694.090
699.5330, 4859.875
700.6880, 4202.176
701.8440, 3446.273
702.9990, 3235.365
704.1550, 2925.449
705.3100, 2369.527
706.4650, 2251.838
707.6190, 2029.076
708.7740, 1753.133
709.9290, 1603.180
711.0830, 1257.221
712.2370, 1263.254
713.3910, 1167.281
714.5450, 854.7754
715.6980, 891.5605
716.8520, 693.5645
718.0050, 694.5586
719.1580, 623.2441
720.3110, 755.2227
721.4640, 669.1914
722.6170, 364.7891
723.7700, 658.7422
724.9220, 409.1777
726.0740, 464.1133
727.2260, 298.0391
728.3780, 461.9590
729.5300, 305.8652
730.6810, 388.7656
731.8330, 464.6562
732.9840, 369.5371
734.1350, 327.4141
735.2860, 491.3242
736.4370, 351.0469
737.5880, 400.9531
738.7380, 401.8535
739.8880, 354.2051
741.0390, 456.1562
742.1890, 504.2480
743.3380, 261.2266
744.4880, 364.1934
745.6380, 383.5527
746.7870, 510.3457
747.9360, 453.1523
749.0850, 452.1406
750.2340, 299.1973
751.3830, 272.2832
752.5310, 393.9121
753.6800, 144.9727
754.8280, 152.9844
755.9760, 383.0234
757.1240, 245.0527
758.2720, 327.1387
759.4190, 341.1426
760.5670, 336.1348
761.7140, 350.2715
762.8610, 321.0781
764.0080, 315.8008
765.1550, 225.7461
766.3020, 187.6777
767.4480, 291.5957
768.5950, 226.5039
769.7410, 343.4082
770.8870, 296.3008
772.0330, 221.1797
773.1780, 178.0488
774.3240, 245.9023
775.4690, 258.7461
776.6140, 266.1309
777.7590, 27.40234
778.9040, 302.2012
780.0490, 384.9863
781.1940, 415.7617
782.3380, 130.5254
783.4820, 109.2734
784.6260, 210.0117
785.7700, 28.26172
786.9140, 76.41406
788.0580, 345.0762
789.2010, 186.8750
790.3450, 125.3633
791.4880, 163.9922
792.6310, 83.60938
793.7730, 88.21289
794.9160, 75.80469
796.0590, 102.3848
797.2010, 5.949219
798.3430, 37.48633
799.4850, 137.0020
800.6270, 248.5078
801.7690, 204.0000
802.9100, 36.51562
804.0520, 68.91602
805.1930, 81.33203
806.3340, 268.7383
807.4750, 148.1309
808.6160, 89.48438
809.7560, 8.822266
810.8970, 61.89844
812.0370, 276.3145
813.1770, 88.51758
814.3170, 162.7090
815.4570, 215.1055
816.5960, 14.06641
817.7360, 206.9375
818.8750, 121.9297
820.0140, 82.08398
821.1530, 207.8301
822.2920, 203.7363
823.4310, 129.3477
824.5690, 56.48633
825.7070, 31.58398
826.8460, 32.55664
827.9840, 53.29297
829.1220, 134.1484
830.2590, 233.9961
831.3970, 86.83203
832.5340, 73.33203
833.6710, 28.54102
834.8080, 10.70312
835.9450, 22.01953
837.0820, 89.27344
838.2190, 105.3633
839.3550, 93.99023
840.4910, 239.6113
841.6270, 114.2227
842.7630, 12.17188
843.8990, 5.404297
845.0350, 125.9570
846.1700, 63.50586
847.3060, 82.04688
848.4410, 467.5820
849.5760, 130.1094
850.7100, 53.36914
851.8450, 8.894531
852.9800, 272.5527
854.1140, 70.99805
855.2480, 26.56445
856.3820, 207.8418
857.5160, 108.2422
858.6500, 27.36328
859.7830, 171.0020
860.9170, 123.6387
862.0500, 123.6426
863.1830, 60.91602
864.3160, 83.18750
865.4480, 194.4531
866.5810, 52.72070
867.7130, 201.9785
868.8460, 83.23633
869.9780, 282.4883
871.1100, 89.73828
872.2410, 73.01562
873.3730, 80.18164
874.5050, 54.38086
875.6360, 17.42578
876.7670, 92.75000
877.8980, 130.0762
879.0290, 146.0195
880.1590, 56.11523
881.2900, 2.787109
882.4200, 175.7031
883.5500, 45.71484
884.6800, 14.75195
885.8100, 114.1953
886.9400, 21.14258
888.0690, 128.9141
889.1990, 51.96289
890.3280, 20.16016
891.4570, 67.69922
892.5860, 85.56250
893.7140, 0.4238280
894.8430, 9.281250
895.9710, 169.1387
897.1000, 162.9980
898.2280, 99.85547
899.3560, 58.28711
900.4830, 121.5449
901.6110, 108.3789
902.7380, 356.2129
903.8660, 258.0449
904.9930, 60.88281
906.1200, 177.7207
907.2460, 215.5605
908.3730, 310.4023
909.5000, 558.2461
910.6260, 175.0898
911.7520, 258.9414
912.8780, 81.79102
914.0040, 279.4512
915.1290, 321.3086
916.2550, 438.1699
917.3800, 393.0332
918.5050, 350.9004
919.6300, 346.7734
920.7550, 568.6504
921.8800, 446.3125
923.0040, 657.0449
924.1290, 771.9395
925.2530, 664.8359
926.3770, 959.7402
927.5010, 536.6484
928.6250, 744.4922
929.7480, 783.3828
930.8720, 705.1797
931.9950, 591.1172
933.1180, 505.0840
934.2410, 597.2754
935.3640, 361.2344
936.4860, 490.2012
937.6090, 268.2324
938.7310, 260.7012
939.8530, 354.5801
940.9750, 365.5879
942.0970, 416.6504
943.2180, 326.7520
944.3400, 188.0508
945.4610, 424.4961
946.5820, 323.5859
947.7030, 176.7461
948.8240, 353.9180
949.9450, 305.0996
951.0650, 392.7227
952.1860, 243.0059
953.3060, 69.22461
954.4260, 182.4570
955.5460, 121.5938
956.6650, 142.8555
957.7850, 68.13477
958.9040, 43.43750
960.0230, 21.39453
961.1420, 126.3750
962.2610, 316.8770
963.3800, 57.08398
964.4990, 62.44922
965.6170, 7.832031
966.7350, 199.2285
967.8530, 99.59375
968.9710, 149.2910
970.0890, 72.34570
971.2070, 107.1211
972.3240, 162.3867
973.4410, 227.8965
974.5580, 88.42773
975.6750, 88.97461
976.7920, 115.2520
977.9090, 191.8867
979.0250, 189.3164
980.1410, 251.9414
981.2580, 327.5859
982.3740, 211.2500
983.4890, 129.9355
984.6050, 524.6504
985.7200, 430.9141
986.8360, 450.9004
987.9510, 471.6953
989.0660, 597.5098
990.1810, 607.6738
991.2950, 854.5625
992.4100, 942.4785
993.5240, 877.7969
994.6390, 1132.787
995.7530, 1080.311
996.8660, 1119.369
997.9800, 1362.463
999.0940, 1245.582
1000.207, 1526.736
1001.320, 1644.916
1002.433, 1682.119
1003.546, 1701.346
1004.659, 1873.613
1005.772, 2002.906
1006.884, 2004.402
1007.996, 2014.750
1009.108, 2065.121
1010.220, 2274.109
1011.332, 2219.551
1012.444, 2363.887
1013.555, 2378.416
1014.666, 2497.975
1015.777, 2426.254
1016.888, 2410.119
1017.999, 2461.047
1019.110, 2335.869
1020.220, 2671.621
1021.331, 2722.398
1022.441, 2657.648
1023.551, 2735.482
1024.661, 2909.387
1025.770, 2729.279
1026.880, 2823.205
1027.989, 3112.086
1029.098, 2946.070
1030.207, 2901.082
1031.316, 2826.125
1032.425, 2757.197
1033.533, 2910.535
1034.642, 2841.666
1035.750, 3083.836
1036.858, 3038.039
1037.966, 3054.270
1039.073, 3257.529
1040.181, 3401.820
1041.288, 3778.143
1042.396, 3669.496
1043.503, 4090.877
1044.610, 4667.293
1045.716, 4730.736
1046.823, 5225.211
1047.929, 6073.729
1049.036, 6518.275
1050.142, 7439.859
1051.248, 8310.471
1052.353, 9288.121
1053.459, 10295.80
1054.564, 11268.51
1055.670, 12866.27
1056.775, 14303.07
1057.880, 15929.96
1058.985, 17881.82
1060.089, 19761.72
1061.194, 22058.98
1062.298, 24131.94
1063.402, 26315.94
1064.506, 28664.95
1065.610, 29969.01
1066.713, 31070.11
1067.817, 31712.23
1068.920, 31611.40
1070.023, 31667.91
1071.126, 30734.13
1072.229, 29836.41
1073.332, 28422.71
1074.435, 26680.05
1075.537, 24953.07
1076.639, 22789.50
1077.741, 20693.96
1078.843, 18686.46
1079.945, 17043.77
1081.046, 15612.38
1082.148, 14320.01
1083.249, 12987.67
1084.350, 12116.43
1085.451, 11068.26
1086.551, 10630.13
1087.652, 9319.023
1088.752, 9038.164
1089.853, 8279.150
1090.953, 7702.168
1092.053, 7565.256
1093.152, 7135.143
1094.252, 6691.295
1095.351, 6382.492
1096.451, 6163.725
1097.550, 5769.986
1098.649, 5555.273
1099.748, 5356.617
1100.846, 5088.914
1101.945, 5018.348
1103.043, 4686.824
1104.141, 4831.340
1105.239, 4501.426
1106.337, 4375.031
1107.434, 4168.662
1108.532, 4058.328
1109.629, 3831.021
1110.726, 4180.756
1111.823, 3815.537
1112.920, 4098.344
1114.017, 3810.182
1115.113, 3817.043
1116.210, 4128.275
1117.306, 3978.195
1118.402, 4241.377
1119.498, 4455.967
1120.593, 4367.996
1121.689, 4456.279
1122.784, 4320.748
1123.879, 4560.818
1124.974, 4703.895
1126.069, 4376.027
1127.164, 4520.240
1128.259, 4319.961
1129.353, 4243.441
1130.447, 4236.770
1131.541, 4044.225
1132.635, 3887.639
1133.729, 3715.039
1134.822, 3573.463
1135.916, 3313.600
1137.009, 3146.980
1138.102, 3111.564
1139.195, 2823.660
1140.288, 2548.223
1141.380, 2567.348
1142.473, 2345.965
1143.565, 2291.506
1144.657, 2050.148
1145.749, 1883.914
1146.841, 1919.695
1147.932, 1642.459
1149.024, 1866.316
1150.115, 1595.182
1151.206, 1418.102
1152.297, 1413.016
1153.388, 1066.943
1154.479, 1132.010
1155.569, 1144.018
1156.659, 1012.053
1157.750, 998.7363
1158.839, 809.7383
1159.929, 843.8320
1161.019, 803.9414
1162.108, 776.0723
1163.198, 585.2188
1164.287, 655.3828
1165.376, 477.5801
1166.465, 521.5918
1167.553, 609.0742
1168.642, 569.3203
1169.730, 457.5879
1170.818, 377.8730
1171.906, 386.6719
1172.994, 263.4883
1174.082, 422.8242
1175.170, 430.1719
1176.257, 474.2090
1177.344, 429.9199
1178.431, 438.4062
1179.518, 238.8184
1180.605, 184.5273
1181.691, 337.9883
1182.778, 443.5488
1183.864, 249.0391
1184.950, 135.5430
1186.036, 263.0605
1187.122, 308.3711
1188.207, 3.078125
1189.292, 439.4824
1190.378, 228.0586
1191.463, 20.35742
1192.548, 131.2402
1193.632, 255.8457
1194.717, 18.46484
1195.801, 278.0977
1196.886, 5.738281
1197.970, 93.39258
1199.054, 238.0566
1200.137, 250.2676
1201.221, 223.3105
1202.305, 311.9023
1203.388, 276.4980
1204.471, 102.1094
1205.554, 152.2734
1206.637, 0.2968750
1207.719, 215.8730
1208.802, 187.4590
1209.884, 97.00195
1210.966, 105.1523
1212.048, 113.7422
1213.130, 37.32617
1214.212, 130.9180
1215.293, 80.85938
1216.374, 72.46484
1217.456, 207.0762
1218.536, 7.267578
1219.617, 98.35156
1220.698, 190.9785
1221.778, 44.60742
1222.859, 10.24414
1223.939, 75.88477
1225.019, 51.53320
1226.099, 139.1836
1227.178, 7.835938
1228.258, 131.4922
1229.337, 19.00391
1230.417, 71.66602
1231.496, 10.62109
1232.574, 59.30078
1233.653, 127.2402
1234.732, 119.0762
1235.810, 77.55273
1236.888, 154.1797
1237.966, 34.11523
1239.044, 147.7461
1240.122, 151.3809
1241.199, 136.3027
1242.277, 75.93359
1243.354, 48.85547
1244.431, 63.19922
1245.508, 40.16797
1246.585, 9.445313
1247.661, 2.052734
1248.738, 41.78125
1249.814, 59.24023
1250.890, 83.18164
1251.966, 18.65039
1253.042, 10.13281
1254.117, 43.63086
1255.193, 43.15625
1256.268, 101.2871
1257.343, 81.27148
1258.418, 27.88477
1259.493, 58.48242
1260.567, 42.15820
1261.642, 351.1699
1262.716, 178.7441
1263.790, 92.06445
1264.864, 47.61914
1265.938, 257.6602
1267.011, 138.9355
1268.085, 6.207031
1269.158, 166.4648
1270.231, 57.28125
1271.304, 102.9277
1272.377, 29.71094
1273.450, 61.54102
1274.522, 24.58203
1275.594, 141.3027
1276.666, 297.7168
1277.738, 28.26758
1278.810, 117.7148
1279.882, 29.79297
1280.953, 53.75781
1282.025, 97.49805
1283.096, 31.41992
1284.167, 99.36133
1285.238, 121.2988
1286.308, 19.22852
1287.379, 55.14258
1288.449, 148.0488
1289.519, 333.9473
1290.589, 265.9648
1291.659, 60.84570
1292.729, 201.7188
1293.798, 134.5820
1294.868, 1.435547
1295.937, 36.26758
