##NAMES=Beryl
##RRUFFID=R050065
##IDEAL CHEMISTRY=Be_3_Al_2_Si_6_O_18_
##LOCALITY=Xuebaoding, Sichuan Province, China
##OWNER=RRUFF
##SOURCE=Rock Currier
##DESCRIPTION=Light blue colored tabular single crystal
##STATUS=The identification of this mineral has been confirmed by X-ray diffraction and chemical analysis
##URL=rruff.info/R050065
##MEASURED CHEMISTRY=(Be_2.78_Li_0.22_)_Σ=3_Al_2.00_Si_6.00_O_18_·Na_0.22_
##PIN_ID=L00371
##ORIENTATION=Laser parallel to c* (0 0 1). Fiducial mark perpendicular to laser is parallel to a [1 0 0]
94.768, 0.000
96.161, 14.605
97.554, 10.583
98.947, 83.938
100.340, 91.497
101.732, 274.489
103.124, 323.515
104.516, 586.212
105.908, 680.232
107.300, 693.050
108.691, 982.506
110.082, 1113.725
111.473, 1340.082
112.864, 1735.003
114.254, 2054.016
115.644, 2365.751
117.034, 2597.932
118.424, 2719.716
119.813, 2709.534
121.203, 2722.493
122.592, 2665.974
123.981, 2382.824
125.369, 2301.391
126.758, 2279.270
128.146, 2181.197
129.534, 2406.091
130.922, 2202.873
132.309, 2313.482
133.696, 2096.857
135.083, 2313.992
136.470, 2192.017
137.857, 2232.831
139.243, 2116.154
140.630, 2057.013
142.016, 1886.286
143.401, 1800.950
144.787, 1701.271
146.172, 1553.361
147.557, 1517.075
148.942, 1366.106
150.327, 1287.443
151.711, 1267.077
153.096, 1373.995
154.480, 1340.045
155.863, 1343.465
157.247, 1524.798
158.630, 1361.321
160.013, 1304.286
161.396, 1416.452
162.779, 1452.824
164.161, 1385.404
165.544, 1376.188
166.926, 1208.171
168.308, 1352.344
169.689, 1187.701
171.070, 1315.234
172.452, 1222.933
173.833, 1134.150
175.213, 1044.264
176.594, 955.088
177.974, 963.462
179.354, 931.445
180.734, 981.808
182.114, 785.660
183.493, 818.535
184.872, 719.929
186.251, 754.859
187.630, 666.858
189.008, 694.930
190.387, 597.081
191.765, 543.315
193.143, 639.637
194.520, 500.048
195.898, 556.550
197.275, 503.142
198.652, 511.826
200.029, 418.603
201.405, 349.469
202.782, 247.425
204.158, 262.494
205.534, 290.685
206.909, 89.002
208.285, 76.403
209.660, 154.883
211.035, 42.438
212.410, 33.928
213.784, 109.219
215.159, 62.438
216.533, 61.935
217.907, 41.065
219.281, 29.800
220.654, 41.044
222.027, 55.914
223.400, 106.988
224.773, 81.305
226.146, 198.857
227.518, 136.596
228.891, 103.585
230.263, 206.719
231.634, 219.997
233.006, 214.380
234.377, 284.867
235.748, 277.645
237.119, 239.061
238.490, 291.679
239.860, 248.359
241.231, 219.108
242.601, 191.890
243.970, 222.689
245.340, 96.503
246.709, 98.359
248.079, 110.166
249.448, 8.016
250.816, 47.875
252.185, 10.256
253.553, 18.540
254.921, 12.495
256.289, 39.605
257.657, 26.716
259.024, 66.833
260.391, 46.435
261.758, 55.223
263.125, 15.323
264.492, 14.533
265.858, 25.797
267.224, 76.581
268.590, 77.076
269.956, 107.273
271.321, 56.091
272.687, 54.178
274.052, 55.493
275.416, 75.048
276.781, 119.788
278.146, 47.711
279.510, 201.802
280.874, 154.049
282.237, 318.439
283.601, 238.963
284.964, 364.610
286.327, 594.375
287.690, 590.247
289.053, 816.224
290.416, 1100.293
291.778, 1126.458
293.140, 1240.711
294.502, 1092.046
295.863, 988.452
297.225, 746.929
298.586, 571.473
299.947, 575.076
301.308, 383.738
302.668, 291.494
304.029, 404.264
305.389, 339.084
306.749, 304.949
308.108, 511.862
309.468, 403.818
310.827, 519.466
312.186, 567.516
313.545, 738.854
314.903, 886.999
316.262, 1102.239
317.620, 1272.431
318.978, 1740.622
320.336, 1999.819
321.693, 1996.037
323.051, 2188.279
324.408, 1994.546
325.765, 1944.834
327.121, 1424.145
328.478, 1023.473
329.834, 787.819
331.190, 516.185
332.546, 269.566
333.902, 284.964
335.257, 34.555
336.612, 26.133
337.967, 62.710
339.322, 112.294
340.677, 49.117
342.031, 77.220
343.385, 73.491
344.739, 88.184
346.093, 110.688
347.446, 141.920
348.799, 43.891
350.153, 128.664
351.505, 132.819
352.858, 164.996
354.210, 142.424
355.563, 183.298
356.915, 130.993
358.267, 192.524
359.618, 170.229
360.969, 303.850
362.321, 226.688
363.672, 246.396
365.022, 220.752
366.373, 318.456
367.723, 353.848
369.073, 353.450
370.423, 405.384
371.773, 342.753
373.122, 496.907
374.471, 724.215
375.821, 697.155
377.169, 848.367
378.518, 929.776
379.866, 962.194
381.215, 1272.917
382.563, 1419.154
383.910, 1674.887
385.258, 2055.202
386.605, 2723.773
387.952, 3176.469
389.299, 4105.547
390.646, 5101.615
391.992, 6727.671
393.339, 8327.714
394.685, 10331.742
396.031, 12670.761
397.376, 14119.762
398.722, 15321.748
400.067, 14936.722
401.412, 13452.680
402.757, 11739.618
404.101, 9327.544
405.446, 7324.450
406.790, 5804.342
408.134, 4732.214
409.478, 4032.070
410.821, 3432.910
412.165, 2839.731
413.508, 3013.533
414.851, 2828.145
416.193, 2772.582
417.536, 2808.115
418.878, 2763.014
420.220, 2880.213
421.562, 2508.285
422.904, 2733.969
424.245, 2496.406
425.586, 2306.859
426.927, 2471.330
428.268, 1610.064
429.609, 1236.798
430.949, 1174.529
432.289, 1144.256
433.629, 934.976
434.969, 1121.688
436.309, 861.032
437.648, 953.727
438.987, 950.410
440.326, 847.081
441.665, 846.825
443.003, 807.742
444.342, 711.488
445.680, 676.432
447.018, 747.838
448.355, 557.418
449.693, 505.484
451.030, 486.028
452.367, 585.650
453.704, 286.031
455.041, 401.332
456.377, 391.798
457.713, 277.421
459.049, 326.843
460.385, 278.242
461.721, 330.618
463.056, 115.717
464.391, 205.045
465.726, 355.351
467.061, 142.631
468.395, 160.676
469.730, 245.907
471.064, 61.854
472.398, 312.192
473.731, 76.329
475.065, 57.571
476.398, 57.622
477.731, 182.625
479.064, 308.603
480.397, 159.551
481.729, 291.472
483.062, 218.363
484.394, 271.227
485.725, 247.062
487.057, 170.868
488.389, 276.646
489.720, 210.394
491.051, 274.110
492.382, 213.798
493.712, 238.456
495.043, 156.083
496.373, 165.182
497.703, 201.556
499.032, 183.512
500.362, 120.326
501.691, 130.710
503.020, 30.118
504.349, 26.041
505.678, 68.531
507.007, 132.009
508.335, 44.325
509.663, 53.446
510.991, 42.618
512.319, 109.374
513.646, 38.500
514.973, 166.686
516.300, 12.965
517.627, 101.543
518.954, 161.922
520.280, 32.547
521.607, 34.763
522.933, 0.974
524.259, 10.779
525.584, 40.341
526.910, 49.397
528.235, 21.045
529.560, 97.321
530.885, 24.800
532.209, 91.006
533.534, 126.764
534.858, 86.478
536.182, 128.146
537.506, 208.795
538.829, 196.428
540.152, 10.031
541.476, 217.559
542.799, 20.052
544.121, 123.473
545.444, 162.849
546.766, 156.189
548.088, 277.527
549.410, 246.832
550.732, 397.113
552.053, 300.359
553.375, 342.604
554.696, 469.814
556.017, 578.992
557.337, 708.138
558.658, 802.249
559.978, 653.327
561.298, 908.369
562.618, 880.380
563.938, 841.355
565.257, 1031.295
566.576, 811.201
567.895, 1035.078
569.214, 1244.921
570.533, 1073.729
571.851, 1239.500
573.170, 1545.240
574.488, 1190.947
575.805, 1487.621
577.123, 1384.502
578.440, 1403.871
579.758, 1295.453
581.075, 1134.004
582.391, 1105.527
583.708, 1023.023
585.024, 751.484
586.341, 796.914
587.657, 761.307
588.972, 856.664
590.288, 557.988
591.603, 455.277
592.918, 458.529
594.233, 403.748
595.548, 364.516
596.863, 292.088
598.177, 303.207
599.491, 251.287
600.805, 219.332
602.119, 245.529
603.432, 342.311
604.746, 241.246
606.059, 303.145
607.372, 199.008
608.685, 337.830
609.997, 110.615
611.309, 172.350
612.621, 176.039
613.933, 287.684
615.245, 236.295
616.557, 279.867
617.868, 337.406
619.179, 385.910
620.490, 181.377
621.801, 517.766
623.111, 302.154
624.421, 533.508
625.731, 177.828
627.041, 379.258
628.351, 181.500
629.660, 105.061
630.970, 500.213
632.279, 245.078
633.588, 281.141
634.896, 350.105
636.205, 328.121
637.513, 277.100
638.821, 357.045
640.129, 323.957
641.437, 359.834
642.744, 401.678
644.051, 476.510
645.358, 481.287
646.665, 436.029
647.972, 462.738
649.278, 462.412
650.584, 512.705
651.890, 568.664
653.196, 648.170
654.502, 732.252
655.807, 807.662
657.113, 759.631
658.418, 878.664
659.722, 883.611
661.027, 903.689
662.331, 1080.369
663.636, 1299.666
664.940, 1247.641
666.244, 1638.256
667.547, 1790.648
668.851, 2061.160
670.154, 2353.629
671.457, 3050.824
672.760, 3667.547
674.062, 4556.430
675.365, 5626.453
676.667, 7304.570
677.969, 9566.803
679.271, 12579.207
680.572, 16722.141
681.874, 22833.582
683.175, 29200.287
684.476, 34795.266
685.777, 38339.020
687.077, 37370.418
688.378, 33460.480
689.678, 27323.609
690.978, 21214.541
692.278, 15817.848
693.577, 12974.250
694.877, 9772.607
696.176, 8301.348
697.475, 6557.090
698.774, 5693.820
700.072, 4764.984
701.371, 4120.512
702.669, 3344.090
703.967, 3141.594
705.265, 3114.203
706.562, 2504.770
707.860, 2242.332
709.157, 2254.865
710.454, 1821.381
711.751, 1873.213
713.047, 1663.678
714.344, 1657.121
715.640, 1384.543
716.936, 1314.939
718.232, 1418.314
719.527, 1157.666
720.823, 1123.996
722.118, 1275.303
723.413, 978.148
724.708, 1018.410
726.002, 1054.650
727.297, 880.869
728.591, 1060.066
729.885, 1005.242
731.179, 958.396
732.472, 923.529
733.766, 830.641
735.059, 892.732
736.352, 752.803
737.645, 868.855
738.937, 904.885
740.230, 568.896
741.522, 635.887
742.814, 742.859
744.106, 777.811
745.397, 649.744
746.689, 606.658
747.980, 620.553
749.271, 631.430
750.562, 1043.287
751.853, 585.125
753.143, 711.947
754.433, 781.750
755.723, 493.451
757.013, 824.945
758.303, 646.578
759.592, 835.312
760.881, 739.891
762.170, 872.592
763.459, 886.771
764.748, 549.441
766.036, 815.996
767.325, 429.758
768.613, 541.562
769.901, 505.168
771.188, 365.582
772.476, 509.160
773.763, 211.721
775.050, 302.270
776.337, 306.061
777.624, 372.580
778.910, 305.090
780.196, 343.609
781.482, 61.305
782.768, 177.771
784.054, 319.752
785.339, 378.027
786.625, 112.467
787.910, 393.760
789.195, 139.193
790.479, 224.625
791.764, 230.047
793.048, 114.457
794.332, 240.855
795.616, 151.246
796.900, 206.627
798.183, 65.996
799.467, 75.354
800.750, 134.705
802.033, 159.047
803.316, 276.379
804.598, 225.123
805.880, 181.018
807.163, 163.324
808.445, 36.377
809.726, 50.117
811.008, 136.875
812.289, 65.920
813.570, 178.234
814.851, 141.383
816.132, 162.439
817.413, 224.322
818.693, 97.641
819.973, 81.176
821.253, 10.814
822.533, 109.830
823.813, 98.852
825.092, 59.922
826.371, 58.998
827.650, 25.137
828.929, 48.289
830.208, 4.254
831.486, 112.348
832.764, 56.174
834.042, 32.023
835.320, 35.875
836.598, 110.273
837.875, 8.434
839.152, 68.602
840.429, 148.785
841.706, 85.025
842.983, 77.148
844.259, 141.326
845.536, 6.494
846.812, 63.312
848.088, 48.158
849.363, 96.969
850.639, 26.098
851.914, 43.246
853.189, 31.396
854.464, 2.566
855.739, 9.639
857.013, 150.084
858.288, 11.018
859.562, 45.877
860.836, 127.209
862.110, 130.703
863.383, 154.324
864.656, 10.643
865.930, 99.385
867.203, 125.418
868.475, 173.451
869.748, 165.623
871.020, 179.535
872.292, 46.582
873.564, 103.635
874.836, 87.840
876.108, 21.248
877.379, 139.812
878.650, 172.881
879.922, 223.953
881.192, 59.033
882.463, 120.119
883.733, 108.211
885.004, 232.309
886.274, 179.416
887.544, 255.533
888.813, 194.658
890.083, 236.789
891.352, 201.928
892.621, 250.076
893.890, 238.236
895.159, 188.404
896.427, 166.582
897.695, 408.771
898.964, 161.971
900.232, 378.180
901.499, 373.396
902.767, 424.627
904.034, 303.867
905.301, 436.117
906.568, 451.381
907.835, 526.656
909.102, 395.941
910.368, 316.242
911.634, 481.555
912.900, 482.879
914.166, 650.217
915.432, 314.566
916.697, 164.934
917.962, 410.312
919.227, 188.713
920.492, 362.131
921.757, 69.566
923.021, 188.016
924.285, 413.477
925.550, 224.955
926.813, 283.445
928.077, 233.949
929.341, 162.473
930.604, 306.010
931.867, 0.438
933.130, 34.127
934.393, 256.557
935.655, 61.844
936.918, 375.760
938.180, 68.391
939.442, 153.035
940.703, 313.695
941.965, 194.375
943.226, 322.996
944.488, 201.771
945.749, 327.496
947.009, 209.234
948.270, 8.990
949.530, 145.764
950.791, 159.527
952.051, 110.330
953.311, 137.760
954.570, 175.988
955.830, 132.842
957.089, 77.715
958.348, 213.604
959.607, 182.512
960.866, 32.895
962.124, 87.508
963.383, 8.438
964.641, 100.084
965.899, 261.066
967.156, 200.070
968.414, 1.113
969.671, 5.896
970.928, 19.045
972.185, 284.107
973.442, 75.951
974.699, 228.076
975.955, 199.227
977.211, 100.396
978.468, 388.590
979.723, 276.807
980.979, 237.043
982.234, 536.010
983.490, 114.949
984.745, 508.492
986.000, 660.639
987.254, 430.631
988.509, 795.014
989.763, 629.426
991.017, 894.861
992.271, 1030.316
993.525, 1297.648
994.779, 1540.180
996.032, 1749.791
997.285, 2066.998
998.538, 1847.145
999.791, 2307.311
1001.044, 1962.062
1002.296, 2147.857
1003.548, 1893.723
1004.800, 1780.609
1006.052, 1733.479
1007.304, 1633.021
1008.555, 1483.811
1009.807, 1385.785
1011.058, 1157.562
1012.309, 1107.631
1013.559, 895.730
1014.810, 718.854
1016.060, 905.691
1017.310, 733.895
1018.560, 559.164
1019.810, 614.469
1021.060, 795.877
1022.309, 486.311
1023.558, 712.766
1024.807, 230.250
1026.056, 526.797
1027.305, 361.801
1028.553, 527.396
1029.801, 449.098
1031.049, 254.820
1032.297, 257.588
1033.545, 255.459
1034.793, 362.225
1036.040, 370.150
1037.287, 414.105
1038.534, 474.086
1039.781, 482.551
1041.027, 425.188
1042.274, 493.316
1043.520, 596.469
1044.766, 537.672
1046.012, 630.893
1047.257, 644.146
1048.503, 1017.424
1049.748, 947.729
1050.993, 1248.055
1052.238, 1398.406
1053.483, 1460.777
1054.727, 1598.170
1055.971, 1966.586
1057.216, 2130.018
1058.459, 2402.479
1059.703, 2747.955
1060.947, 3062.453
1062.190, 3406.973
1063.433, 3892.508
1064.676, 3914.059
1065.919, 4063.629
1067.162, 4723.219
1068.404, 4154.826
1069.646, 4358.449
1070.888, 4679.092
1072.130, 4324.750
1073.372, 4394.426
1074.613, 4025.119
1075.855, 3757.826
1077.096, 3461.553
1078.337, 3281.916
1079.578, 3216.057
1080.818, 3035.832
1082.059, 2637.604
1083.299, 2588.414
1084.539, 2102.238
1085.779, 1983.816
1087.018, 1735.674
1088.258, 1755.547
1089.497, 1545.439
1090.736, 1361.346
1091.975, 1196.266
1093.213, 1105.752
1094.452, 1188.152
1095.690, 1023.117
1096.928, 1014.098
1098.166, 1070.092
1099.404, 993.102
1100.642, 811.125
1101.879, 970.164
1103.116, 809.215
1104.353, 983.387
1105.590, 587.469
1106.827, 912.561
1108.063, 660.670
1109.299, 713.793
1110.536, 648.559
1111.771, 642.963
1113.007, 646.684
1114.243, 582.938
1115.478, 646.402
1116.713, 632.658
1117.948, 646.943
1119.183, 489.900
1120.418, 776.773
1121.652, 747.875
1122.886, 1020.643
1124.120, 815.102
1125.354, 605.568
1126.588, 756.828
1127.821, 524.734
1129.055, 575.799
1130.288, 645.666
1131.521, 552.156
1132.753, 535.461
1133.986, 572.596
1135.218, 595.334
1136.450, 547.689
1137.682, 689.670
1138.914, 730.537
1140.146, 662.826
1141.377, 789.756
1142.609, 586.740
1143.840, 814.895
1145.071, 679.797
1146.301, 880.051
1147.532, 930.781
1148.762, 745.434
1149.992, 652.770
1151.222, 700.486
1152.452, 756.812
1153.682, 422.018
1154.911, 571.869
1156.140, 387.465
1157.369, 417.529
1158.598, 227.221
1159.827, 421.738
1161.055, 104.855
1162.284, 246.193
1163.512, 320.408
1164.740, 250.863
1165.967, 352.885
1167.195, 331.959
1168.422, 332.990
1169.650, 322.934
1170.877, 127.346
1172.103, 145.504
1173.330, 442.570
1174.557, 568.854
1175.783, 414.457
1177.009, 96.646
1178.235, 614.871
1179.461, 302.545
1180.686, 487.764
1181.912, 753.639
1183.137, 614.098
1184.362, 535.184
1185.587, 561.584
1186.811, 630.799
1188.036, 562.512
1189.260, 657.213
1190.484, 678.105
1191.708, 807.904
1192.932, 622.486
1194.155, 595.783
1195.378, 678.443
1196.602, 753.652
1197.825, 709.650
1199.047, 855.105
1200.270, 665.529
1201.492, 1008.695
1202.715, 436.203
1203.937, 939.576
1205.159, 939.355
1206.380, 877.557
1207.602, 548.221
1208.823, 719.379
1210.044, 774.512
1211.265, 962.623
1212.486, 788.715
1213.707, 751.785
1214.927, 921.834
1216.147, 908.859
1217.367, 1095.859
1218.587, 924.838
1219.807, 918.793
1221.027, 1232.895
1222.246, 956.803
1223.465, 930.689
1224.684, 1428.559
1225.903, 1284.549
1227.121, 1006.367
1228.340, 1156.609
1229.558, 1360.389
1230.776, 1195.160
1231.994, 1100.002
1233.212, 1273.811
1234.429, 1087.883
1235.646, 1010.625
1236.864, 1019.359
1238.081, 835.082
1239.297, 948.797
1240.514, 870.498
1241.730, 648.191
1242.947, 537.869
1244.163, 514.535
1245.378, 743.184
1246.594, 584.824
1247.810, 336.445
1249.025, 700.232
1250.240, 202.818
1251.455, 290.383
1252.670, 273.930
1253.885, 384.453
1255.099, 241.949
1256.313, 95.410
1257.527, 359.850
1258.741, 310.242
1259.955, 120.539
1261.168, 200.756
1262.382, 299.912
1263.595, 295.980
1264.808, 127.014
1266.021, 113.000
1267.233, 109.094
1268.446, 194.982
1269.658, 58.797
1270.870, 276.549
1272.082, 91.109
1273.294, 180.627
1274.505, 146.303
1275.716, 197.566
1276.928, 74.783
1278.139, 109.078
1279.349, 22.885
1280.560, 46.803
1281.770, 144.549
1282.981, 4.205
1284.191, 237.791
1285.401, 139.320
1286.610, 227.799
1287.820, 71.674
1289.029, 169.100
1290.239, 246.150
1291.448, 73.516
1292.656, 0.387
1293.865, 22.686
1295.073, 40.289
1296.282, 125.334
1297.490, 161.531
1298.698, 50.348
1299.906, 84.115
1301.113, 115.828
1302.320, 0.490
1303.528, 111.092
1304.735, 5.361
1305.942, 68.115
1307.148, 54.537
1308.355, 62.100
1309.561, 155.176
1310.767, 113.605
1311.973, 14.506
1313.179, 248.453
1314.384, 274.447
1315.590, 161.287
1316.795, 73.059
1318.000, 88.232
1319.205, 188.375
1320.410, 130.918
1321.614, 248.602
1322.819, 196.736
1324.023, 16.986
1325.227, 193.213
1326.431, 67.641
1327.634, 140.582
1328.838, 31.379
1330.041, 148.283
1331.244, 179.135
1332.447, 208.064
1333.650, 43.613
1334.852, 89.240
1336.055, 34.189
1337.257, 311.309
1338.459, 25.760
1339.661, 284.154
1340.862, 63.500
1342.064, 194.793
1343.265, 123.037
1344.466, 323.234
1345.667, 153.391
1346.868, 293.500
1348.068, 320.572
1349.269, 84.605
1350.469, 407.598
1351.669, 235.553
1352.869, 438.477
1354.069, 523.365
1355.268, 445.496
1356.468, 373.059
1357.667, 491.666
1358.866, 369.449
1360.065, 619.211
1361.263, 364.957
1362.462, 484.688
1363.660, 505.410
1364.858, 313.559
1366.056, 400.199
1367.254, 427.961
1368.451, 452.965
1369.649, 319.488
1370.846, 426.451
1372.043, 245.877
1373.240, 362.385
1374.436, 574.854
1375.633, 342.271
1376.829, 351.641
1378.025, 288.967
1379.221, 443.242
1380.417, 541.467
1381.613, 372.064
1382.808, 577.430
1384.003, 691.637
1385.199, 719.826
1386.393, 403.258
1387.588, 531.514
1388.783, 480.842
1389.977, 423.668
1391.171, 612.857
1392.365, 345.570
1393.559, 530.932
1394.753, 502.158
1395.946, 727.521
1397.140, 402.854
1398.333, 831.752
1399.526, 612.328
1400.719, 663.385
1401.911, 394.879
1403.104, 563.318
1404.296, 423.348
1405.488, 612.998
1406.680, 446.031
1407.872, 599.670
1409.063, 676.059
1410.255, 315.568
1411.446, 480.342
1412.637, 425.707
1413.828, 321.045
1415.018, 374.424
1416.209, 568.236
1417.399, 239.465
1418.589, 575.715
1419.779, 263.465
1420.969, 514.996
1422.159, 232.082
1423.348, 341.148
1424.537, 452.805
1425.726, 360.266
1426.915, 349.016
1428.104, 251.082
1429.293, 210.523
1430.481, 171.129
1431.669, 140.531
1432.857, 424.039
1434.045, 157.125
1435.233, 410.965
1436.420, 529.691
1437.608, 431.305
1438.795, 441.812
1439.982, 432.879
1441.169, 573.137
1442.355, 387.953
1443.542, 566.039
1444.728, 245.789
1445.914, 415.996
1447.100, 467.496
1448.286, 625.348
1449.472, 333.883
1450.657, 730.098
1451.842, 377.973
1453.027, 333.512
1454.212, 828.281
1455.397, 515.141
1456.581, 615.680
1457.766, 719.930
1458.950, 321.156
1460.134, 750.582
1461.318, 249.102
1462.501, 501.031
1463.685, 802.301
1464.868, 328.969
1466.051, 731.289
1467.234, 282.000
1468.417, 523.188
1469.600, 616.016
1470.782, 628.516
1471.965, 266.098
1473.147, 538.574
1474.329, 401.633
1475.510, 268.066
1476.692, 342.398
1477.873, 577.660
1479.055, 344.859
1480.236, 678.031
1481.416, 355.211
1482.597, 437.422
1483.778, 204.715
1484.958, 364.184
1486.138, 164.883
1487.318, 165.383
1488.498, 345.164
1489.678, 163.828
1490.857, 226.859
1492.037, 322.160
1493.216, 474.641
1494.395, 146.379
1495.574, 414.379
1496.752, 206.688
1497.931, 324.395
1499.109, 16.422
1500.287, 178.305
1501.465, 108.629
1502.643, 224.578
1503.820, 227.215
1504.998, 175.672
1506.175, 20.109
1507.352, 204.316
1508.529, 76.395
1509.706, 3.098
1510.882, 342.625
1512.059, 100.809
1513.235, 0.000
##END=



