##NAMES=Beryl
##RRUFFID=R050121
##IDEAL CHEMISTRY=Be_3_Al_2_Si_6_O_18_
##LOCALITY=Cruziero mine, San Jose, Minas Gerais, Brazil
##OWNER=RRUFF
##SOURCE=Carlos and Paulo Vasconcelos
##DESCRIPTION=Light blue fragment, variety aquamarine
##STATUS=The identification of this mineral has been confirmed by X-ray diffraction and chemical analysis
##URL=rruff.info/R050121
##MEASURED CHEMISTRY=(Be_0.96_Li_0.04_)_3_Al_2.00_Si_6.00_O_18_Î‡Na_0.09_Mg_0.03_
##PIN_ID=L00353
##ORIENTATION=Laser parallel to a* (1 0 0). Fiducial mark perpendicular to laser is parallel to c [0 0 1]
98.947, 0.000
100.340, 122.549
101.732, 2.645
103.124, 39.505
104.516, 98.165
105.908, 270.115
107.300, 14.614
108.691, 206.122
110.082, 265.214
111.473, 130.988
112.864, 363.640
114.254, 508.540
115.644, 570.327
117.034, 297.060
118.424, 457.790
119.813, 445.262
121.203, 426.107
122.592, 553.549
123.981, 629.959
125.369, 596.696
126.758, 722.713
128.146, 729.968
129.534, 1012.938
130.922, 991.703
132.309, 1142.489
133.696, 1172.529
135.083, 1520.787
136.470, 1481.227
137.857, 1765.815
139.243, 1687.540
140.630, 1684.440
142.016, 1560.562
143.401, 1425.801
144.787, 1328.705
146.172, 1055.513
147.557, 795.309
148.942, 541.206
150.327, 412.379
151.711, 227.117
153.096, 253.334
154.480, 11.063
155.863, 31.786
157.247, 22.507
158.630, 38.771
160.013, 92.054
161.396, 5.855
162.779, 89.702
164.161, 82.432
165.544, 42.469
166.926, 84.566
168.308, 87.620
169.689, 193.580
171.070, 402.443
172.452, 356.214
173.833, 312.893
175.213, 496.492
176.594, 347.013
177.974, 501.458
179.354, 633.542
180.734, 629.878
182.114, 725.643
183.493, 816.496
184.872, 856.803
186.251, 895.603
187.630, 736.772
189.008, 821.359
190.387, 807.703
191.765, 665.637
193.143, 788.662
194.520, 514.220
195.898, 637.766
197.275, 487.302
198.652, 570.826
200.029, 620.348
201.405, 647.866
202.782, 544.405
204.158, 633.951
205.534, 801.507
206.909, 568.077
208.285, 610.701
209.660, 653.340
211.035, 426.989
212.410, 554.634
213.784, 442.300
215.159, 398.976
216.533, 511.650
217.907, 425.854
219.281, 497.898
220.654, 456.877
222.027, 363.988
223.400, 468.490
224.773, 498.473
226.146, 397.268
227.518, 401.297
228.891, 376.098
230.263, 334.833
231.634, 396.192
233.006, 226.891
234.377, 285.010
235.748, 294.847
237.119, 223.928
238.490, 447.429
239.860, 394.901
241.231, 538.343
242.601, 486.764
243.970, 376.163
245.340, 390.553
246.709, 865.927
248.079, 1228.312
249.448, 693.739
250.816, 569.148
252.185, 584.557
253.553, 556.959
254.921, 460.345
256.289, 216.719
257.657, 110.075
259.024, 9.396
260.391, 43.689
261.758, 21.948
263.125, 36.159
264.492, 3.361
265.858, 15.940
267.224, 7.431
268.590, 38.727
269.956, 8.971
271.321, 112.767
272.687, 2.907
274.052, 66.166
275.416, 39.793
276.781, 52.217
278.146, 23.210
279.510, 221.810
280.874, 21.847
282.237, 192.913
283.601, 76.019
284.964, 62.162
286.327, 351.308
287.690, 354.475
289.053, 279.646
290.416, 610.815
291.778, 600.981
293.140, 723.148
294.502, 641.294
295.863, 775.429
297.225, 861.550
298.586, 655.036
299.947, 678.343
301.308, 409.602
302.668, 447.526
304.029, 520.290
305.389, 619.662
306.749, 531.181
308.108, 756.906
309.468, 624.316
310.827, 894.493
312.186, 1089.979
313.545, 1534.190
314.903, 1979.837
316.262, 2355.629
317.620, 3246.489
318.978, 3977.695
320.336, 4722.188
321.693, 5090.824
323.051, 4943.865
324.408, 3839.310
325.765, 2968.935
327.121, 1951.004
328.478, 1209.011
329.834, 951.194
331.190, 454.776
332.546, 209.060
333.902, 366.823
335.257, 116.593
336.612, 114.126
337.967, 1.335
339.322, 1.740
340.677, 20.323
342.031, 33.911
343.385, 12.277
344.739, 108.242
346.093, 34.894
347.446, 25.889
348.799, 52.835
350.153, 16.229
351.505, 49.948
352.858, 36.780
354.210, 5.471
355.563, 58.879
356.915, 70.715
358.267, 2.273
359.618, 70.208
360.969, 36.251
362.321, 65.327
363.672, 39.036
365.022, 89.363
366.373, 2.653
367.723, 179.901
369.073, 114.116
370.423, 149.292
371.773, 277.433
373.122, 151.536
374.471, 382.604
375.821, 271.636
377.169, 668.631
378.518, 457.591
379.866, 676.514
381.215, 1084.397
382.563, 1130.234
383.910, 1311.890
385.258, 1557.625
386.605, 2036.606
387.952, 2569.537
389.299, 3229.411
390.646, 4050.946
391.992, 4978.664
393.339, 6018.324
394.685, 6697.486
396.031, 7110.018
397.376, 6389.668
398.722, 5390.762
400.067, 4154.738
401.412, 3184.734
402.757, 2598.868
404.101, 1925.617
405.446, 1312.921
406.790, 1031.295
408.134, 839.098
409.478, 734.201
410.821, 583.893
412.165, 488.927
413.508, 660.629
414.851, 515.538
416.193, 534.925
417.536, 513.279
418.878, 494.210
420.220, 787.009
421.562, 518.190
422.904, 648.987
424.245, 664.168
425.586, 506.733
426.927, 512.978
428.268, 327.859
429.609, 133.825
430.949, 257.069
432.289, 383.693
433.629, 277.180
434.969, 438.454
436.309, 522.234
437.648, 626.303
438.987, 701.483
440.326, 775.203
441.665, 1022.471
443.003, 1113.395
444.342, 1478.246
445.680, 1685.391
447.018, 1847.940
448.355, 1558.813
449.693, 1674.911
451.030, 1233.221
452.367, 1280.033
453.704, 638.801
455.041, 633.536
456.377, 553.193
457.713, 445.598
459.049, 290.804
460.385, 330.956
461.721, 339.055
463.056, 177.101
464.391, 63.086
465.726, 301.005
467.061, 261.868
468.395, 62.675
469.730, 278.413
471.064, 112.102
472.398, 250.134
473.731, 34.699
475.065, 20.194
476.398, 15.937
477.731, 140.712
479.064, 291.089
480.397, 66.957
481.729, 179.737
483.062, 157.845
484.394, 65.895
485.725, 51.012
487.057, 93.950
488.389, 97.853
489.720, 77.700
491.051, 144.519
492.382, 208.275
493.712, 112.045
495.043, 107.749
496.373, 3.994
497.703, 195.159
499.032, 253.392
500.362, 210.344
501.691, 315.882
503.020, 192.468
504.349, 250.773
505.678, 329.779
507.007, 400.305
508.335, 369.316
509.663, 349.562
510.991, 501.607
512.319, 438.883
513.646, 629.006
514.973, 642.592
516.300, 928.090
517.627, 998.246
518.954, 1286.434
520.280, 1581.992
521.607, 1825.730
522.933, 2042.445
524.259, 2115.078
525.584, 2384.951
526.910, 2435.709
528.235, 2337.846
529.560, 2415.645
530.885, 1822.533
532.209, 1568.820
533.534, 1449.596
534.858, 1235.777
536.182, 934.902
537.506, 948.975
538.829, 680.994
540.152, 554.959
541.476, 696.869
542.799, 41.727
544.121, 451.512
545.444, 297.246
546.766, 29.922
548.088, 222.523
549.410, 117.070
550.732, 86.553
552.053, 83.969
553.375, 58.676
554.696, 17.438
556.017, 66.713
557.337, 138.949
558.658, 38.971
559.978, 4.803
561.298, 109.674
562.618, 8.482
563.938, 80.215
565.257, 259.076
566.576, 11.010
567.895, 90.838
569.214, 157.178
570.533, 22.572
571.851, 136.471
573.170, 317.402
574.488, 193.607
575.805, 192.391
577.123, 31.340
578.440, 230.820
579.758, 362.600
581.075, 239.064
582.391, 353.719
583.708, 264.797
585.024, 266.379
586.341, 227.760
587.657, 347.590
588.972, 298.330
590.288, 165.986
591.603, 49.986
592.918, 6.553
594.233, 10.822
595.548, 74.375
596.863, 13.523
598.177, 80.379
599.491, 70.393
600.805, 36.469
602.119, 77.617
603.432, 86.180
604.746, 101.480
606.059, 32.920
607.372, 12.520
608.685, 177.889
609.997, 74.195
611.309, 16.438
612.621, 69.607
613.933, 281.715
615.245, 328.764
616.557, 438.762
617.868, 677.326
619.179, 676.004
620.490, 795.660
621.801, 1265.582
623.111, 1058.596
624.421, 1256.928
625.731, 664.041
627.041, 909.875
628.351, 413.816
629.660, 254.049
630.970, 624.895
632.279, 376.379
633.588, 269.084
634.896, 47.479
636.205, 321.027
637.513, 188.766
638.821, 34.303
640.129, 414.740
641.437, 459.209
642.744, 305.537
644.051, 387.270
645.358, 443.832
646.665, 405.105
647.972, 425.129
649.278, 394.770
650.584, 397.246
651.890, 418.768
653.196, 580.830
654.502, 483.822
655.807, 376.082
657.113, 451.330
658.418, 637.357
659.722, 582.734
661.027, 574.479
662.331, 417.564
663.636, 844.697
664.940, 557.477
666.244, 1052.211
667.547, 1121.465
668.851, 1420.693
670.154, 1503.920
671.457, 1927.963
672.760, 2464.035
674.062, 3023.682
675.365, 4103.582
676.667, 5607.441
677.969, 7529.281
679.271, 10598.207
680.572, 14216.980
681.874, 19079.947
683.175, 23447.637
684.476, 25083.236
685.777, 24176.838
687.077, 19823.396
688.378, 15799.922
689.678, 11884.391
690.978, 8590.812
692.278, 6033.188
693.577, 5215.516
694.877, 3630.861
696.176, 3106.100
697.475, 2456.289
698.774, 2240.438
700.072, 1745.668
701.371, 1407.725
702.669, 946.389
703.967, 1216.244
705.265, 1158.506
706.562, 972.281
707.860, 544.764
709.157, 699.182
710.454, 372.982
711.751, 555.326
713.047, 277.463
714.344, 430.076
715.640, 100.725
716.936, 339.273
718.232, 366.609
719.527, 303.252
720.823, 253.266
722.118, 226.133
723.413, 216.492
724.708, 81.473
726.002, 425.785
727.297, 150.682
728.591, 125.832
729.885, 317.693
731.179, 130.006
732.472, 74.271
733.766, 167.201
735.059, 79.545
736.352, 140.400
737.645, 78.701
738.937, 202.439
740.230, 66.773
741.522, 100.070
742.814, 212.170
744.106, 284.736
745.397, 151.066
746.689, 123.811
747.980, 169.010
749.271, 138.904
750.562, 350.500
751.853, 5.588
753.143, 52.457
754.433, 295.508
755.723, 19.447
757.013, 286.248
758.303, 37.443
759.592, 228.074
760.881, 197.158
762.170, 275.100
763.459, 219.738
764.748, 265.092
766.036, 354.701
767.325, 370.600
768.613, 480.293
769.901, 539.990
771.188, 447.865
772.476, 395.859
773.763, 252.832
775.050, 261.521
776.337, 217.707
777.624, 303.613
778.910, 223.504
780.196, 345.373
781.482, 179.221
782.768, 5.053
784.054, 210.855
785.339, 198.232
786.625, 59.000
787.910, 121.752
789.195, 1.832
790.479, 65.459
791.764, 172.068
793.048, 23.889
794.332, 82.150
795.616, 38.781
796.900, 113.396
798.183, 86.139
799.467, 107.602
800.750, 40.139
802.033, 136.715
803.316, 336.621
804.598, 277.059
805.880, 195.100
807.163, 108.246
808.445, 56.621
809.726, 121.520
811.008, 15.500
812.289, 199.498
813.570, 20.387
814.851, 35.252
816.132, 138.896
817.413, 65.867
818.693, 1.385
819.973, 4.656
821.253, 19.951
822.533, 17.361
823.813, 18.617
825.092, 15.988
826.371, 68.613
827.650, 8.797
828.929, 228.771
830.208, 198.328
831.486, 193.340
832.764, 49.400
834.042, 205.916
835.320, 18.041
836.598, 165.910
837.875, 20.607
839.152, 239.848
840.429, 350.295
841.706, 58.732
842.983, 301.160
844.259, 309.574
845.536, 205.980
846.812, 218.377
848.088, 35.764
849.363, 96.982
850.639, 251.512
851.914, 190.871
853.189, 349.223
854.464, 462.578
855.739, 638.922
857.013, 329.260
858.288, 407.600
859.562, 661.949
860.836, 718.295
862.110, 336.643
863.383, 568.990
864.656, 418.363
865.930, 416.783
867.203, 271.049
868.475, 512.469
869.748, 178.016
871.020, 334.449
872.292, 296.885
873.564, 251.346
874.836, 145.611
876.108, 225.771
877.379, 414.924
878.650, 259.523
879.922, 382.061
881.192, 312.029
882.463, 366.904
883.733, 296.455
885.004, 239.367
886.274, 275.055
887.544, 409.180
888.813, 281.982
890.083, 308.051
891.352, 576.879
892.621, 394.234
893.890, 453.033
895.159, 278.982
896.427, 309.432
897.695, 540.111
898.964, 521.334
900.232, 501.455
901.499, 409.824
902.767, 577.105
904.034, 408.865
905.301, 658.621
906.568, 503.641
907.835, 537.451
909.102, 606.084
910.368, 467.934
911.634, 829.092
912.900, 634.062
914.166, 988.988
915.432, 680.002
916.697, 420.031
917.962, 854.070
919.227, 645.121
920.492, 802.189
921.757, 523.270
923.021, 693.354
924.285, 780.447
925.550, 480.549
926.813, 500.678
928.077, 402.828
929.341, 561.986
930.604, 525.152
931.867, 293.322
933.130, 337.502
934.393, 696.686
935.655, 350.012
936.918, 677.213
938.180, 264.420
939.442, 294.195
940.703, 421.248
941.965, 420.393
943.226, 454.539
944.488, 458.096
945.749, 481.605
947.009, 381.592
948.270, 414.416
949.530, 333.566
950.791, 573.020
952.051, 288.174
953.311, 111.602
954.570, 500.031
955.830, 314.373
957.089, 319.104
958.348, 312.465
959.607, 369.746
960.866, 211.492
962.124, 181.244
963.383, 392.217
964.641, 241.201
965.899, 142.268
967.156, 381.424
968.414, 240.441
969.671, 366.770
970.928, 133.715
972.185, 350.584
973.442, 194.854
974.699, 325.287
975.955, 352.711
977.211, 191.287
978.468, 408.805
979.723, 475.742
980.979, 215.395
982.234, 716.062
983.490, 135.744
984.745, 651.314
986.000, 474.031
987.254, 521.523
988.509, 720.271
989.763, 544.078
991.017, 669.861
992.271, 715.660
993.525, 959.467
994.779, 1115.307
996.032, 1399.186
997.285, 1663.080
998.538, 1558.990
999.791, 2526.857
1001.044, 2384.803
1002.296, 3046.762
1003.548, 2997.740
1004.800, 3040.734
1006.052, 3611.744
1007.304, 3632.770
1008.555, 4306.812
1009.807, 4937.234
1011.058, 5285.326
1012.309, 5443.504
1013.559, 4967.881
1014.810, 4473.090
1016.060, 4322.635
1017.310, 3881.879
1018.560, 3323.141
1019.810, 3105.416
1021.060, 3118.740
1022.309, 2503.082
1023.558, 2510.727
1024.807, 1988.611
1026.056, 2128.049
1027.305, 1898.449
1028.553, 2148.867
1029.801, 1978.312
1031.049, 1834.779
1032.297, 1787.604
1033.545, 2037.438
1034.793, 1649.949
1036.040, 1911.479
1037.287, 1931.076
1038.534, 1953.861
1039.781, 2194.439
1041.027, 2279.406
1042.274, 2388.629
1043.520, 2575.309
1044.766, 2494.977
1046.012, 2506.545
1047.257, 2886.922
1048.503, 3546.859
1049.748, 3550.588
1050.993, 4530.461
1052.238, 4646.223
1053.483, 5122.232
1054.727, 5885.020
1055.971, 6721.570
1057.216, 7962.934
1058.459, 9258.768
1059.703, 10784.621
1060.947, 12804.418
1062.190, 15031.641
1063.433, 17346.152
1064.676, 19841.699
1065.919, 21427.605
1067.162, 23473.906
1068.404, 23242.207
1069.646, 22972.146
1070.888, 22095.094
1072.130, 19769.043
1073.372, 17967.291
1074.613, 16008.668
1075.855, 13949.344
1077.096, 12132.250
1078.337, 11013.242
1079.578, 9676.391
1080.818, 8657.389
1082.059, 7700.393
1083.299, 7113.402
1084.539, 6294.414
1085.779, 5476.439
1087.018, 5013.465
1088.258, 4341.496
1089.497, 3951.535
1090.736, 3470.578
1091.975, 3136.629
1093.213, 2724.686
1094.452, 2799.742
1095.690, 2212.814
1096.928, 2191.893
1098.166, 2011.973
1099.404, 1826.055
1100.642, 1729.785
1101.879, 1558.311
1103.116, 1411.471
1104.353, 1289.672
1105.590, 1053.875
1106.827, 1254.154
1108.063, 966.439
1109.299, 1025.729
1110.536, 819.643
1111.771, 662.980
1113.007, 817.322
1114.243, 678.076
1115.478, 499.469
1116.713, 688.857
1117.948, 822.285
1119.183, 359.949
1120.418, 719.805
1121.652, 815.555
1122.886, 650.045
1124.120, 701.553
1125.354, 717.078
1126.588, 742.621
1127.821, 727.949
1129.055, 671.062
1130.288, 661.334
1131.521, 502.449
1132.753, 430.057
1133.986, 321.910
1135.218, 849.539
1136.450, 302.332
1137.682, 837.439
1138.914, 540.096
1140.146, 455.293
1141.377, 374.461
1142.609, 318.215
1143.840, 430.025
1145.071, 626.672
1146.301, 561.465
1147.532, 418.404
1148.762, 304.004
1149.992, 63.607
1151.222, 183.219
1152.452, 339.756
1153.682, 101.285
1154.911, 183.818
1156.140, 71.758
1157.369, 60.721
1158.598, 153.779
1159.827, 107.527
1161.055, 10.410
1162.284, 100.893
1163.512, 130.711
1164.740, 187.680
1165.967, 105.189
1167.195, 281.818
1168.422, 85.105
1169.650, 150.492
1170.877, 59.129
1172.103, 5.820
1173.330, 66.484
1174.557, 257.789
1175.783, 220.094
1177.009, 192.693
1178.235, 93.557
1179.461, 9.811
1180.686, 14.059
1181.912, 207.303
1183.137, 304.551
1184.362, 93.080
1185.587, 126.861
1186.811, 272.320
1188.036, 25.568
1189.260, 235.188
1190.484, 99.285
1191.708, 305.473
1192.932, 52.355
1194.155, 16.312
1195.378, 65.848
1196.602, 248.098
1197.825, 93.000
1199.047, 310.090
1200.270, 71.098
1201.492, 325.707
1202.715, 52.309
1203.937, 280.625
1205.159, 193.773
1206.380, 305.637
1207.602, 123.457
1208.823, 57.340
1210.044, 13.133
1211.265, 13.566
1212.486, 243.086
1213.707, 54.594
1214.927, 58.828
1216.147, 173.285
1217.367, 359.637
1218.587, 260.969
1219.807, 85.281
1221.027, 57.520
1222.246, 48.270
1223.465, 35.285
1224.684, 158.039
1225.903, 123.141
1227.121, 242.176
1228.340, 502.129
1229.558, 563.035
1230.776, 465.902
1231.994, 320.707
1233.212, 585.473
1234.429, 580.230
1235.646, 462.902
1236.864, 750.535
1238.081, 467.109
1239.297, 775.641
1240.514, 940.113
1241.730, 720.543
1242.947, 690.938
1244.163, 469.289
1245.378, 548.602
1246.594, 650.867
1247.810, 273.098
1249.025, 496.297
1250.240, 350.453
1251.455, 391.227
1252.670, 344.316
1253.885, 324.551
1255.099, 258.590
1256.313, 16.395
1257.527, 349.590
1258.741, 358.484
1259.955, 58.828
1261.168, 350.734
1262.382, 315.180
1263.595, 193.539
1264.808, 139.516
1266.021, 100.484
1267.233, 132.301
1268.446, 367.438
1269.658, 232.414
1270.870, 354.395
1272.082, 325.367
1273.294, 280.340
1274.505, 336.309
1275.716, 442.266
1276.928, 106.188
1278.139, 526.082
1279.349, 169.977
1280.560, 439.863
1281.770, 195.754
1282.981, 127.641
1284.191, 392.750
1285.401, 121.191
1286.610, 52.137
1287.820, 208.684
1289.029, 18.812
1290.239, 451.617
1291.448, 204.336
1292.656, 173.738
1293.865, 315.926
1295.073, 356.246
1296.282, 403.328
1297.490, 403.395
1298.698, 396.273
1299.906, 324.086
1301.113, 119.656
1302.320, 11.207
1303.528, 241.293
1304.735, 204.375
1305.942, 125.199
1307.148, 246.738
1308.355, 61.316
1309.561, 531.238
1310.767, 330.578
1311.973, 131.707
1313.179, 58.059
1314.384, 406.719
1315.590, 210.938
1316.795, 445.809
1318.000, 259.555
1319.205, 443.539
1320.410, 289.520
1321.614, 10.504
1322.819, 339.469
1324.023, 292.445
1325.227, 439.426
1326.431, 389.406
1327.634, 421.109
1328.838, 200.398
1330.041, 324.414
1331.244, 374.426
1332.447, 77.551
1333.650, 46.480
1334.852, 217.871
1336.055, 3.656
1337.257, 200.098
1338.459, 73.121
1339.661, 197.613
1340.862, 175.000
1342.064, 85.277
1343.265, 211.277
1344.466, 335.758
1345.667, 111.230
1346.868, 560.742
1348.068, 309.582
1349.269, 155.520
1350.469, 326.742
1351.669, 209.211
1352.869, 426.762
1354.069, 564.477
1355.268, 91.051
1356.468, 645.781
1357.667, 415.961
1358.866, 50.586
1360.065, 593.801
1361.263, 207.508
1362.462, 263.109
1363.660, 463.695
1364.858, 345.906
1366.056, 444.660
1367.254, 494.137
1368.451, 466.848
1369.649, 206.664
1370.846, 338.258
1372.043, 262.020
1373.240, 349.035
1374.436, 417.531
1375.633, 381.715
1376.829, 409.520
1378.025, 94.930
1379.221, 350.809
1380.417, 283.086
1381.613, 204.234
1382.808, 437.875
1384.003, 555.430
1385.199, 322.934
1386.393, 371.199
1387.588, 220.281
1388.783, 182.809
1389.977, 194.879
1391.171, 128.406
1392.365, 82.246
1393.559, 493.918
1394.753, 4.605
1395.946, 233.512
1397.140, 10.805
1398.333, 263.453
1399.526, 224.504
1400.719, 187.492
1401.911, 270.465
1403.104, 149.250
1404.296, 211.805
1405.488, 188.391
1406.680, 0.000
##END=



