##NAMES=Beryl
##RRUFFID=R060942
##IDEAL CHEMISTRY=Be_3_Al_2_Si_6_O_18_
##LOCALITY=Mingore mine, Swat Valley, Pakistan
##OWNER=RRUFF
##SOURCE=Lawrence W. Snee
##DESCRIPTION=Green hexagonal prisms, variety emerald
##STATUS=The identification of this mineral has been confirmed by X-ray diffraction and chemical analysis
##URL=rruff.info/R060942
##MEASURED CHEMISTRY=(Be_2.94_Li_0.06_)_Σ=3_(Al_1.55_Mg_0.37_Fe^3+^_0.06_Cr^3+^_0.02_)_Σ=2_Si_6.00_O_18_·Na_0.42_; Be and Li not measured but estimated by stoichiometry
##PIN_ID=L01655
##ORIENTATION=Laser parallel to c* (0 0 1). Fiducial mark perpendicular to laser is parallel to [-1 -1 0]
130.4390, 0.0000000E+00
131.6680, 65.16895
132.8980, 32.54883
134.1270, 61.62109
135.3560, 59.79395
136.5850, 72.23535
137.8140, 229.8555
139.0430, 439.0186
140.2710, 744.1826
141.5000, 515.4697
142.7280, 213.7881
143.9560, 185.3496
145.1840, 318.8398
146.4120, 289.9971
147.6390, 223.7637
148.8670, 303.0303
150.0940, 332.7490
151.3210, 422.2246
152.5490, 456.1113
153.7750, 262.4453
155.0020, 244.1621
156.2290, 163.9766
157.4550, 4.889648
158.6810, 36.33398
159.9080, 58.21484
161.1340, 182.4688
162.3590, 187.3457
163.5850, 473.3135
164.8110, 562.3145
166.0360, 475.3057
167.2610, 426.2529
168.4860, 424.1357
169.7110, 422.6582
170.9360, 553.4414
172.1610, 486.6211
173.3850, 388.9814
174.6100, 559.7617
175.8340, 411.8213
177.0580, 567.2285
178.2820, 500.9883
179.5050, 547.9268
180.7290, 492.4238
181.9520, 502.6104
183.1760, 490.0625
184.3990, 529.4082
185.6220, 650.8311
186.8450, 597.2871
188.0670, 684.5898
189.2900, 608.2578
190.5120, 679.8789
191.7340, 909.2422
192.9560, 831.0049
194.1780, 1009.625
195.4000, 1066.895
196.6220, 1042.834
197.8430, 1240.456
199.0640, 1086.772
200.2860, 1321.799
201.5070, 1420.545
202.7270, 1484.022
203.9480, 1050.266
205.1690, 551.3750
206.3890, 228.3652
207.6090, 70.24707
208.8290, 6.023438
210.0490, 65.29980
211.2690, 33.71973
212.4890, 90.76465
213.7080, 247.1562
214.9280, 82.45801
216.1470, 123.7051
217.3660, 45.16113
218.5850, 49.60156
219.8030, 86.84082
221.0220, 9.791016
222.2400, 64.46680
223.4590, 143.0605
224.6770, 105.5703
225.8950, 78.00000
227.1120, 107.3506
228.3300, 145.6250
229.5480, 157.2158
230.7650, 137.9297
231.9820, 257.5889
233.1990, 243.0508
234.4160, 373.2715
235.6330, 403.0488
236.8490, 394.6777
238.0660, 401.7920
239.2820, 305.4414
240.4980, 376.2607
241.7140, 376.0693
242.9300, 490.5127
244.1460, 444.5010
245.3610, 501.1875
246.5770, 491.2852
247.7920, 390.0254
249.0070, 442.9141
250.2220, 400.3154
251.4370, 506.8623
252.6510, 510.4922
253.8660, 314.4023
255.0800, 444.0908
256.2940, 575.7402
257.5080, 1010.346
258.7220, 1017.093
259.9360, 1038.798
261.1490, 1289.878
262.3630, 978.3076
263.5760, 1219.698
264.7890, 1464.042
266.0020, 1755.345
267.2150, 1835.593
268.4270, 1730.781
269.6400, 1501.909
270.8520, 1446.979
272.0640, 1186.989
273.2760, 1063.940
274.4880, 845.8340
275.7000, 838.6719
276.9120, 805.8535
278.1230, 794.2920
279.3340, 873.8672
280.5450, 802.5254
281.7560, 822.2295
282.9670, 902.9609
284.1780, 977.6992
285.3880, 1129.432
286.5980, 1144.154
287.8090, 1130.861
289.0190, 1163.546
290.2290, 1355.203
291.4380, 1253.771
292.6480, 1261.312
293.8570, 1098.824
295.0670, 985.3057
296.2760, 699.7529
297.4850, 643.1582
298.6930, 623.5205
299.9020, 386.8350
301.1110, 349.1025
302.3190, 256.3213
303.5270, 298.4463
304.7350, 371.5654
305.9430, 343.1895
307.1510, 265.2100
308.3580, 407.1787
309.5660, 469.0947
310.7730, 428.9590
311.9800, 569.7725
313.1870, 687.5361
314.3940, 855.2471
315.6010, 844.9004
316.8070, 1011.399
318.0130, 1159.850
319.2200, 1190.250
320.4260, 1526.707
321.6310, 1620.396
322.8370, 1986.936
324.0430, 1824.073
325.2480, 1768.540
326.4540, 1534.583
327.6590, 1303.714
328.8640, 962.6641
330.0680, 769.5645
331.2730, 441.4082
332.4780, 427.2617
333.6820, 273.0859
334.8860, 184.2646
336.0900, 159.2061
337.2940, 97.71094
338.4980, 58.13672
339.7010, 24.48535
340.9050, 5.756836
342.1080, 84.05664
343.3110, 82.97754
344.5140, 8.004883
345.7170, 12.10742
346.9200, 116.2930
348.1220, 21.57715
349.3240, 128.9482
350.5270, 93.43359
351.7290, 25.02344
352.9310, 38.78125
354.1320, 164.9141
355.3340, 43.99414
356.5350, 140.2383
357.7370, 107.6074
358.9380, 22.53418
360.1390, 29.10059
361.3400, 138.1973
362.5400, 88.05566
363.7410, 74.97070
364.9410, 96.23340
366.1410, 14.02344
367.3410, 71.03418
368.5410, 137.2930
369.7410, 224.3311
370.9400, 268.1895
372.1400, 292.1055
373.3390, 336.1191
374.5380, 466.1201
375.7370, 495.2832
376.9360, 612.8955
378.1350, 677.7500
379.3330, 717.5332
380.5310, 915.2207
381.7300, 1230.762
382.9280, 1497.154
384.1260, 1639.388
385.3230, 2116.457
386.5210, 2670.375
387.7180, 3390.517
388.9160, 4378.436
390.1130, 5269.175
391.3100, 6756.920
392.5060, 7927.407
393.7030, 9478.630
394.9000, 11321.93
396.0960, 13091.10
397.2920, 14562.05
398.4880, 15240.04
399.6840, 15365.26
400.8800, 14657.43
402.0750, 13199.67
403.2710, 11582.63
404.4660, 10224.56
405.6610, 8871.473
406.8560, 7821.357
408.0510, 6910.217
409.2450, 6245.051
410.4400, 5552.863
411.6340, 5289.647
412.8280, 4795.410
414.0220, 4444.147
415.2160, 3941.861
416.4100, 3744.552
417.6030, 3361.221
418.7970, 3049.866
419.9900, 2818.490
421.1830, 2469.077
422.3760, 2523.628
423.5690, 2228.141
424.7610, 2152.615
425.9540, 2008.051
427.1460, 1886.449
428.3380, 2036.808
429.5300, 1952.130
430.7220, 1911.413
431.9140, 1968.657
433.1050, 1960.864
434.2970, 2095.033
435.4880, 2086.162
436.6790, 2096.256
437.8700, 2092.311
439.0610, 2255.330
440.2510, 2263.312
441.4420, 2018.257
442.6320, 1866.167
443.8220, 1609.817
445.0120, 1338.266
446.2020, 1217.280
447.3910, 1009.428
448.5810, 853.8384
449.7700, 815.0981
450.9600, 660.9888
452.1490, 653.4307
453.3370, 576.0303
454.5260, 460.4785
455.7150, 542.0117
456.9030, 463.5122
458.0910, 409.9790
459.2800, 418.4126
460.4670, 438.8145
461.6550, 420.1851
462.8430, 362.5234
464.0300, 345.8301
465.2180, 258.1035
466.4050, 399.3413
467.5920, 302.5488
468.7790, 466.7231
469.9650, 356.8682
471.1520, 457.9814
472.3380, 424.0654
473.5250, 468.1206
474.7110, 363.9604
475.8970, 537.7051
477.0820, 567.7705
478.2680, 459.1230
479.4540, 575.1948
480.6390, 553.3394
481.8240, 534.4678
483.0090, 533.4375
484.1940, 519.2065
485.3780, 559.3696
486.5630, 509.9932
487.7470, 454.5459
488.9320, 469.6846
490.1160, 352.2549
491.3000, 359.1274
492.4830, 299.2358
493.6670, 282.5498
494.8500, 371.5483
496.0340, 298.2500
497.2170, 365.0195
498.4000, 236.5000
499.5820, 328.9883
500.7650, 466.9434
501.9480, 475.7969
503.1300, 417.5869
504.3120, 295.1631
505.4940, 457.7100
506.6760, 385.0361
507.8580, 371.7783
509.0390, 288.9346
510.2210, 227.1436
511.4020, 334.4531
512.5830, 247.5732
513.7640, 353.9844
514.9450, 287.4844
516.1250, 310.1543
517.3060, 530.3564
518.4860, 537.6689
519.6660, 525.9824
520.8460, 375.2842
522.0260, 365.5742
523.2060, 363.8516
524.3850, 391.1172
525.5650, 234.3730
526.7440, 234.6182
527.9230, 178.8545
529.1020, 41.08301
530.2810, 52.30176
531.4590, 78.48926
532.6380, 36.68359
533.8160, 81.84570
534.9940, 22.99316
536.1720, 56.84570
537.3500, 111.2959
538.5270, 18.56836
539.7050, 33.44629
540.8820, 31.33008
542.0590, 74.77051
543.2360, 52.87109
544.4130, 164.9639
545.5900, 228.0762
546.7660, 249.2148
547.9430, 401.3789
549.1190, 514.5420
550.2950, 618.7285
551.4710, 749.8281
552.6470, 743.1279
553.8220, 940.3604
554.9980, 1202.615
556.1730, 1216.870
557.3480, 1742.139
558.5230, 1981.404
559.6980, 2064.671
560.8730, 2209.945
562.0470, 2299.223
563.2220, 2231.535
564.3960, 2352.872
565.5700, 2261.209
566.7440, 2270.544
567.9170, 2338.896
569.0910, 2279.244
570.2640, 2092.602
571.4380, 2166.957
572.6110, 2204.308
573.7840, 1959.666
574.9570, 1903.021
576.1290, 1828.398
577.3020, 1937.809
578.4740, 1702.225
579.6460, 1762.652
580.8180, 1844.107
581.9900, 1646.561
583.1620, 1598.047
584.3330, 1593.531
585.5040, 1498.032
586.6760, 1566.555
587.8470, 1441.084
589.0180, 1443.623
590.1880, 1393.188
591.3590, 1417.767
592.5290, 1356.347
593.7000, 1433.956
594.8700, 1177.562
596.0400, 1269.171
597.2090, 1084.803
598.3790, 1092.432
599.5490, 1064.063
600.7180, 963.6934
601.8870, 828.3252
603.0560, 861.9727
604.2250, 722.4639
605.3940, 711.8574
606.5620, 599.9756
607.7300, 681.6396
608.8990, 571.9277
610.0670, 587.5918
611.2350, 587.1348
612.4020, 488.8096
613.5700, 418.5010
614.7370, 453.1924
615.9050, 370.8154
617.0720, 311.5078
618.2390, 204.2061
619.4060, 257.9102
620.5720, 106.6240
621.7390, 64.34863
622.9050, 44.91016
624.0710, 107.8418
625.2370, 3.621094
626.4030, 107.4512
627.5690, 72.67090
628.7340, 26.78027
629.9000, 81.86621
631.0650, 72.08398
632.2300, 30.06836
633.3950, 117.1152
634.5600, 51.78613
635.7240, 144.3350
636.8890, 13.49707
638.0530, 8.728516
639.2170, 20.00000
640.3810, 86.33594
641.5450, 140.6846
642.7080, 48.06641
643.8720, 97.46875
645.0350, 177.9346
646.1980, 50.41406
647.3610, 38.90625
648.5240, 17.41016
649.6870, 174.9375
650.8490, 121.4785
652.0120, 224.0283
653.1740, 337.5840
654.3360, 398.1426
655.4980, 323.7051
656.6600, 388.2705
657.8210, 446.8359
658.9830, 543.4023
660.1440, 759.9668
661.3050, 908.5317
662.4660, 915.0947
663.6270, 1200.658
664.7870, 1384.319
665.9480, 1550.881
667.1080, 1977.487
668.2680, 2255.048
669.4280, 2840.657
670.5880, 3349.944
671.7480, 3889.256
672.9070, 4579.423
674.0670, 5889.022
675.2260, 7398.748
676.3850, 9328.761
677.5440, 11972.35
678.7030, 15194.04
679.8610, 19410.35
681.0200, 24190.72
682.1780, 29319.34
683.3360, 35481.68
684.4940, 41317.61
685.6520, 46601.22
686.8090, 48927.70
687.9670, 48245.57
689.1240, 43975.82
690.2810, 38062.70
691.4380, 31691.21
692.5950, 25448.62
693.7520, 20446.28
694.9080, 16690.45
696.0650, 13343.63
697.2210, 11098.60
698.3770, 9215.759
699.5330, 7823.623
700.6880, 6631.585
701.8440, 5932.956
702.9990, 5012.593
704.1550, 4471.893
705.3100, 3940.344
706.4650, 3492.375
707.6190, 3264.811
708.7740, 2820.521
709.9290, 2615.043
711.0830, 2163.455
712.2370, 2042.392
713.3910, 1785.820
714.5450, 1884.911
715.6980, 1642.049
716.8520, 1562.017
718.0050, 1488.386
719.1580, 1335.915
720.3110, 1269.700
721.4640, 1153.812
722.6170, 1014.131
723.7700, 988.0762
724.9220, 946.0146
726.0740, 968.1807
727.2260, 881.2783
728.3780, 964.1978
729.5300, 779.0371
730.6810, 798.3652
731.8330, 902.5874
732.9840, 767.7886
734.1350, 842.0908
735.2860, 842.3696
736.4370, 860.5288
737.5880, 801.8096
738.7380, 899.9399
739.8880, 869.0562
741.0390, 695.1572
742.1890, 843.6963
743.3380, 898.7686
744.4880, 788.6333
745.6380, 981.6787
746.7870, 866.8042
747.9360, 795.8208
749.0850, 803.9868
750.2340, 924.9722
751.3830, 918.2075
752.5310, 849.1611
753.6800, 756.0991
754.8280, 785.0215
755.9760, 893.9277
757.1240, 737.8164
758.2720, 713.6899
759.4190, 715.5459
760.5670, 618.3857
761.7140, 664.0303
762.8610, 561.8374
764.0080, 522.5679
765.1550, 675.3403
766.3020, 457.8706
767.4480, 454.9927
768.5950, 609.0986
769.7410, 473.8018
770.8870, 384.4863
772.0330, 308.1533
773.1780, 388.3882
774.3240, 457.0181
775.4690, 444.6294
776.6140, 420.2158
777.7590, 307.7886
778.9040, 352.3428
780.0490, 278.8760
781.1940, 297.3901
782.3380, 362.8848
783.4820, 312.3584
784.6260, 329.7817
785.7700, 244.2456
786.9140, 291.6582
788.0580, 262.0508
789.2010, 228.4233
790.3450, 219.7744
791.4880, 199.1045
792.6310, 242.4146
793.7730, 206.7041
794.9160, 168.9727
796.0590, 156.2202
797.2010, 216.4468
798.3430, 144.6528
799.4850, 164.8384
800.6270, 139.0029
801.7690, 96.14697
802.9100, 140.2690
804.0520, 107.3706
805.1930, 157.4512
806.3340, 47.51025
807.4750, 98.54541
808.6160, 171.5605
809.7560, 135.5703
810.8970, 23.56055
812.0370, 71.51953
813.1770, 33.53955
814.3170, 90.35059
815.4570, 119.2188
816.5960, 7.070313
817.7360, 108.8882
818.8750, 21.69092
820.0140, 93.46191
821.1530, 47.78760
822.2920, 75.10498
823.4310, 73.50488
824.5690, 45.01465
825.7070, 70.49023
826.8460, 33.07471
827.9840, 108.2812
829.1220, 106.3828
830.2590, 63.14404
831.3970, 30.02100
832.5340, 24.84180
833.6710, 34.24268
834.8080, 27.30127
835.9450, 5.667480
837.0820, 8.321777
838.2190, 110.7236
839.3550, 67.86572
840.4910, 18.91846
841.6270, 91.67432
842.7630, 44.58887
843.8990, 88.08789
845.0350, 9.254883
846.1700, 42.36182
847.3060, 118.9585
848.4410, 0.5371090
849.5760, 52.08105
850.7100, 67.39404
851.8450, 100.9380
852.9800, 3.567383
854.1140, 26.23145
855.2480, 85.94141
856.3820, 45.27197
857.5160, 105.5317
858.6500, 40.57861
859.7830, 41.32861
860.9170, 58.28564
862.0500, 0.6977540
863.1830, 15.34619
864.3160, 77.42432
865.4480, 29.56982
866.5810, 13.24365
867.7130, 85.96045
868.8460, 64.76611
869.9780, 8.477539
871.1100, 74.83008
872.2410, 52.80176
873.3730, 4.418945
874.5050, 42.01807
875.6360, 22.60254
876.7670, 62.82617
877.8980, 5.305664
879.0290, 36.19482
880.1590, 47.31787
881.2900, 5.924805
882.4200, 0.4355470
883.5500, 48.98389
884.6800, 41.60791
885.8100, 50.76562
886.9400, 61.87109
888.0690, 11.44971
889.1990, 111.7588
890.3280, 35.05762
891.4570, 77.34570
892.5860, 266.6226
893.7140, 318.8896
894.8430, 175.1470
895.9710, 331.3945
897.1000, 277.6333
898.2280, 261.8682
899.3560, 480.0942
900.4830, 495.3115
901.6110, 552.5205
902.7380, 588.7324
903.8660, 548.9395
904.9930, 640.1504
906.1200, 580.3540
907.2460, 800.5513
908.3730, 693.7412
909.5000, 609.9312
910.6260, 720.1152
911.7520, 652.2925
912.8780, 614.4648
914.0040, 723.6309
915.1290, 497.7915
916.2550, 548.9473
917.3800, 660.0977
918.5050, 667.2432
919.6300, 626.3848
920.7550, 523.5215
921.8800, 521.6548
923.0040, 454.7842
924.1290, 442.9106
925.2530, 434.0337
926.3770, 376.1533
927.5010, 413.2705
928.6250, 428.3862
929.7480, 264.4995
930.8720, 414.6108
931.9950, 316.7207
933.1180, 281.8296
934.2410, 312.9380
935.3640, 224.0454
936.4860, 232.1523
937.6090, 318.1611
938.7310, 216.2676
939.8530, 292.3306
940.9750, 160.4390
942.0970, 129.1001
943.2180, 210.1401
944.3400, 204.2524
945.4610, 202.3662
946.5820, 149.2461
947.7030, 201.1958
948.8240, 148.7280
949.9450, 76.77051
951.0650, 96.89746
952.1860, 155.0190
953.3060, 104.1543
954.4260, 139.4355
955.5460, 98.16309
956.6650, 106.9355
957.7850, 111.0176
958.9040, 8.226563
960.0230, 133.0557
961.1420, 23.51270
962.2610, 43.35156
963.3800, 80.54199
964.4990, 36.84961
965.6170, 13.91016
966.7350, 134.4707
967.8530, 84.01758
968.9710, 144.7939
970.0890, 112.3701
971.2070, 124.2559
972.3240, 246.0459
973.4410, 79.43262
974.5580, 267.5605
975.6750, 36.03223
976.7920, 382.3574
977.9090, 331.1113
979.0250, 366.4648
980.1410, 372.5518
981.2580, 439.8350
982.3740, 684.2354
983.4890, 608.1172
984.6050, 849.5146
985.7200, 1014.259
986.8360, 1041.963
987.9510, 1213.847
989.0660, 1400.377
990.1810, 1684.231
991.2950, 1945.766
992.4100, 2112.539
993.5240, 2207.116
994.6390, 2508.076
995.7530, 2644.057
996.8660, 2791.820
997.9800, 2784.677
999.0940, 2816.758
1000.207, 2828.943
1001.320, 2746.191
1002.433, 2620.476
1003.546, 2508.338
1004.659, 2417.113
1005.772, 2193.922
1006.884, 1938.895
1007.996, 1950.755
1009.108, 1685.808
1010.220, 1777.906
1011.332, 1632.051
1012.444, 1472.788
1013.555, 1301.025
1014.666, 1242.483
1015.777, 1248.782
1016.888, 1056.042
1017.999, 1071.430
1019.110, 996.6943
1020.220, 930.1553
1021.331, 798.3789
1022.441, 1025.896
1023.551, 753.4434
1024.661, 730.0195
1025.770, 922.6250
1026.880, 683.2773
1027.989, 685.9785
1029.098, 713.7119
1030.207, 661.4746
1031.316, 549.2793
1032.425, 540.1348
1033.533, 569.0322
1034.642, 517.9717
1035.750, 570.9414
1036.858, 528.9443
1037.966, 505.9785
1039.073, 591.0439
1040.181, 669.1426
1041.288, 585.2734
1042.396, 721.4355
1043.503, 652.6299
1044.610, 724.8555
1045.716, 665.1143
1046.823, 734.4053
1047.929, 836.7285
1049.036, 944.0840
1050.142, 1034.473
1051.248, 1335.895
1052.353, 1472.349
1053.459, 1708.836
1054.564, 1772.361
1055.670, 2063.919
1056.775, 2324.511
1057.880, 2753.158
1058.985, 3149.839
1060.089, 3598.554
1061.194, 5287.305
1062.298, 5073.328
1063.402, 5627.966
1064.506, 5499.798
1065.610, 5849.711
1066.713, 6226.656
1067.817, 6318.639
1068.920, 6661.652
1070.023, 6889.702
1071.126, 6772.768
1072.229, 7103.906
1073.332, 6418.062
1074.435, 6168.254
1075.537, 5795.482
1076.639, 5478.755
1077.741, 5161.292
1078.843, 4791.408
1079.945, 4542.795
1081.046, 4233.219
1082.148, 4017.697
1083.249, 3870.216
1084.350, 3643.770
1085.451, 3438.369
1086.551, 3347.003
1087.652, 3171.680
1088.752, 3054.391
1089.853, 2881.163
1090.953, 2711.999
1092.053, 2521.902
1093.152, 2645.846
1094.252, 2428.854
1095.351, 2442.918
1096.451, 2301.023
1097.550, 2162.202
1098.649, 2245.443
1099.748, 2172.725
1100.846, 2091.058
1101.945, 1950.430
1103.043, 1950.844
1104.141, 1892.309
1105.239, 1774.455
1106.337, 1919.398
1107.434, 1756.045
1108.532, 1750.731
1109.629, 1704.988
1110.726, 1757.240
1111.823, 1647.056
1112.920, 1632.923
1114.017, 1806.825
1115.113, 1818.765
1116.210, 1953.746
1117.306, 3058.763
1118.402, 2881.842
1119.498, 2709.995
1120.593, 2318.190
1121.689, 2264.436
1122.784, 2377.743
1123.879, 2329.089
1124.974, 2422.980
1126.069, 2155.428
1127.164, 2470.635
1128.259, 2569.578
1129.353, 2166.860
1130.447, 2972.441
1131.541, 1507.945
1132.635, 1367.044
1133.729, 1258.814
1134.822, 1230.905
1135.916, 1104.903
1137.009, 1189.339
1138.102, 918.5039
1139.195, 976.4961
1140.288, 864.7139
1141.380, 1001.059
1142.473, 791.1660
1143.565, 833.8037
1144.657, 759.6895
1145.749, 681.8877
1146.841, 907.6709
1147.932, 717.9863
1149.024, 726.7998
1150.115, 630.8613
1151.206, 457.8301
1152.297, 634.2266
1153.388, 527.6650
1154.479, 420.1299
1155.569, 455.6240
1156.659, 427.1475
1157.750, 418.4531
1158.839, 344.4609
1159.929, 328.1895
1161.019, 199.8164
1162.108, 434.8809
1163.198, 397.2607
1164.287, 335.3311
1165.376, 270.4844
1166.465, 332.9082
1167.553, 422.2393
1168.642, 475.0957
1169.730, 468.9746
1170.818, 538.1699
1171.906, 676.0996
1172.994, 701.0508
1174.082, 638.0273
1175.170, 843.0264
1176.257, 738.0469
1177.344, 804.0889
1178.431, 1094.150
1179.518, 925.2324
1180.605, 1143.336
1181.691, 1162.461
1182.778, 1293.604
1183.864, 1064.772
1184.950, 1291.812
1186.036, 1200.022
1187.122, 1253.307
1188.207, 1346.447
1189.292, 1347.818
1190.378, 1352.104
1191.463, 1504.580
1192.548, 1421.901
1193.632, 1479.820
1194.717, 1396.190
1195.801, 1614.808
1196.886, 1563.211
1197.970, 1585.632
1199.054, 1686.067
1200.137, 1585.519
1201.221, 1748.985
1202.305, 1699.466
1203.388, 1870.964
1204.471, 1837.141
1205.554, 1913.667
1206.637, 2100.567
1207.719, 2035.122
1208.802, 2007.574
1209.884, 2203.156
1210.966, 2319.919
1212.048, 2113.529
1213.130, 2200.881
1214.212, 2229.515
1215.293, 1903.167
1216.374, 1898.824
1217.456, 1858.494
1218.536, 1710.174
1219.617, 1650.957
1220.698, 1487.565
1221.778, 1353.277
1222.859, 1212.573
1223.939, 910.4390
1225.019, 890.1782
1226.099, 726.2183
1227.178, 717.8369
1228.258, 563.6206
1229.337, 604.3960
1230.417, 602.1782
1231.496, 592.0498
1232.574, 438.6304
1233.653, 437.0757
1234.732, 297.9492
1235.810, 256.2363
1236.888, 337.1240
1237.966, 221.0293
1239.044, 191.7520
1240.122, 264.5796
1241.199, 145.4106
1242.277, 175.0728
1243.354, 94.97119
1244.431, 127.0078
1245.508, 155.9292
1246.585, 126.9526
1247.661, 113.0527
1248.738, 48.07178
1249.814, 80.91455
1250.890, 7.000488
1251.966, 59.84180
1253.042, 34.20117
1254.117, 17.95801
1255.193, 44.87549
1256.268, 23.29297
1257.343, 11.52832
1258.418, 81.65381
1259.493, 160.8701
1260.567, 65.16504
1261.642, 10.48926
1262.716, 16.17822
1263.790, 31.15967
1264.864, 16.90186
1265.938, 85.39014
1267.011, 131.7993
1268.085, 54.96973
1269.158, 129.0210
1270.231, 81.53857
1271.304, 76.04834
1272.377, 82.56543
1273.450, 84.79053
1274.522, 11.50391
1275.594, 27.96045
1276.666, 106.6880
1277.738, 20.44922
1278.810, 47.20898
1279.882, 6.064453
1280.953, 16.30127
1282.025, 35.41943
1283.096, 34.75098
1284.167, 73.30371
1285.238, 16.12549
1286.308, 56.47461
1287.379, 66.22363
1288.449, 9.935547
1289.519, 40.90479
1290.589, 31.13818
1291.659, 61.54883
1292.729, 23.42529
1293.798, 22.14209
1294.868, 28.65674
1295.937, 21.54834
1297.006, 67.89111
1298.075, 72.69189
1299.143, 18.68262
1300.212, 85.72754
