##NAMES=Beryl
##RRUFFID=R060943
##IDEAL CHEMISTRY=Be_3_Al_2_Si_6_O_18_
##LOCALITY=Xinjiang, China
##OWNER=RRUFF
##SOURCE=Lawrence W. Snee
##DESCRIPTION=Green hexagonal prisms, variety emerald
##STATUS=The identification of this mineral has been confirmed by X-ray diffraction and chemical analysis
##URL=rruff.info/R060943
##MEASURED CHEMISTRY=(Be_2.96_Li_0.04_)_Σ=3_(Al_1.64_Mg_0.21_V^3+^_0.06_Fe^3+^_0.04_Sc^3+^_0.03_Cr^3+^_0.02_)_Σ=2_Si_6.00_O_18_·Na_0.25_
##PIN_ID=L01186
##ORIENTATION=Laser parallel to -c* (0 0 -1). Fiducial mark perpendicular to laser is parallel to a [1 0 0]
167.3340, 0.0000000E+00
168.5670, 0.2099610
169.8000, 136.0654
171.0320, 168.7461
172.2650, 139.1611
173.4970, 16.54590
174.7290, 173.1064
175.9610, 61.72266
177.1930, 191.9053
178.4240, 242.3174
179.6550, 307.8135
180.8870, 262.5088
182.1170, 313.3154
183.3480, 222.6787
184.5790, 367.7422
185.8090, 340.2500
187.0390, 426.0957
188.2690, 536.1650
189.4990, 625.8477
190.7290, 740.0059
191.9580, 855.7266
193.1870, 917.9395
194.4160, 929.4541
195.6450, 858.1152
196.8740, 795.7363
198.1020, 750.2705
199.3310, 967.6973
200.5590, 956.0020
201.7870, 1149.172
203.0140, 844.2012
204.2420, 558.0859
205.4690, 402.8242
206.6960, 162.4258
207.9230, 120.8965
209.1500, 175.2422
210.3760, 348.4814
211.6030, 164.7832
212.8290, 139.8438
214.0550, 222.7734
215.2810, 255.0674
216.5060, 268.8271
217.7320, 310.3008
218.9570, 362.1230
220.1820, 339.8477
221.4070, 421.6348
222.6320, 385.1045
223.8560, 413.0791
225.0800, 521.3154
226.3040, 506.3037
227.5280, 413.0557
228.7520, 423.5869
229.9760, 549.9121
231.1990, 564.0508
232.4220, 720.0088
233.6450, 660.7949
234.8680, 518.4180
236.0910, 604.8809
237.3130, 699.1924
238.5350, 795.3555
239.7570, 832.3779
240.9790, 915.2842
242.2010, 999.1348
243.4220, 944.9316
244.6430, 927.6592
245.8640, 1114.342
247.0850, 1214.983
248.3060, 1307.586
249.5270, 1121.152
250.7470, 1019.683
251.9670, 962.1787
253.1870, 662.3750
254.4070, 486.0908
255.6260, 230.6045
256.8460, 177.0615
258.0650, 455.6895
259.2840, 196.4258
260.5030, 638.0605
261.7220, 136.2646
262.9400, 120.0527
264.1580, 68.81055
265.3760, 115.7432
266.5940, 186.7715
267.8120, 179.2656
269.0290, 200.8564
270.2470, 210.9404
271.4640, 182.7852
272.6810, 200.3213
273.8980, 182.8525
275.1140, 155.7920
276.3310, 204.8945
277.5470, 214.4033
278.7630, 240.9023
279.9790, 316.3916
281.1940, 436.8711
282.4100, 323.3389
283.6250, 410.7949
284.8400, 502.2383
286.0550, 423.6748
287.2700, 522.1211
288.4850, 699.5371
289.6990, 715.9316
290.9130, 739.4326
292.1270, 787.9297
293.3410, 741.6641
294.5540, 734.2627
295.7680, 683.8252
296.9810, 711.2627
298.1940, 684.8447
299.4070, 714.1113
300.6200, 747.7246
301.8320, 819.1113
303.0450, 903.4629
304.2570, 1032.781
305.4690, 995.0654
306.6800, 1313.316
307.8920, 1370.535
309.1030, 1658.720
310.3150, 1912.874
311.5260, 2257.994
312.7360, 2569.085
313.9470, 3103.775
315.1580, 3889.332
316.3680, 4580.869
317.5780, 5451.238
318.7880, 6482.668
319.9980, 7798.974
321.2070, 8984.484
322.4170, 10082.02
323.6260, 10820.57
324.8350, 10428.14
326.0430, 8967.707
327.2520, 6977.277
328.4610, 4894.844
329.6690, 3424.399
330.8770, 2324.945
332.0850, 1552.476
333.2920, 949.9893
334.5000, 725.4873
335.7070, 434.9648
336.9140, 357.4238
338.1210, 199.8535
339.3280, 153.2480
340.5350, 72.60742
341.7410, 51.92578
342.9470, 60.20312
344.1540, 75.56152
345.3590, 17.39355
346.5650, 62.27930
347.7710, 7.231445
348.9760, 4.767578
350.1810, 76.28027
351.3860, 83.39551
352.5910, 58.58008
353.7950, 88.82617
355.0000, 134.1426
356.2040, 71.54004
357.4080, 154.0029
358.6120, 35.55566
359.8150, 13.82812
361.0190, 10.98633
362.2220, 37.88770
363.4250, 70.13281
364.6280, 30.90527
365.8310, 21.01855
367.0340, 2.796875
368.2360, 132.5498
369.4380, 48.26074
370.6400, 178.9268
371.8420, 222.5547
373.0440, 261.1475
374.2450, 321.7061
375.4470, 353.2305
376.6480, 462.0459
377.8490, 661.1865
379.0490, 715.6172
380.2500, 900.0195
381.4500, 1098.392
382.6510, 1157.736
383.8510, 1397.052
385.0500, 1598.340
386.2500, 1855.601
387.4500, 2151.836
388.6490, 2393.043
389.8480, 2961.225
391.0470, 3439.379
392.2460, 3744.509
393.4440, 4442.611
394.6430, 4941.689
395.8410, 5391.742
397.0390, 5512.768
398.2370, 5390.766
399.4340, 5075.725
400.6320, 4201.938
401.8290, 3387.211
403.0260, 2611.311
404.2230, 2175.371
405.4200, 1662.019
406.6170, 1340.335
407.8130, 1096.557
409.0090, 874.7305
410.2050, 905.3398
411.4010, 696.2373
412.5970, 753.2334
413.7920, 571.2725
414.9880, 786.6133
416.1830, 730.9990
417.3780, 615.4678
418.5730, 532.2803
419.7670, 663.9990
420.9620, 540.9736
422.1560, 527.5820
423.3500, 576.4346
424.5440, 547.2285
425.7380, 563.3477
426.9310, 608.1582
428.1240, 550.7754
429.3180, 678.4395
430.5110, 803.0918
431.7030, 803.7295
432.8960, 881.4053
434.0890, 944.9658
435.2810, 961.5625
436.4730, 1214.146
437.6650, 1338.717
438.8570, 1305.271
440.0480, 1469.812
441.2390, 1498.341
442.4310, 1616.854
443.6220, 1490.354
444.8120, 1338.810
446.0030, 1464.313
447.1940, 894.7744
448.3840, 886.2207
449.5740, 788.6553
450.7640, 654.0762
451.9540, 725.4863
453.1430, 528.8828
454.3330, 590.2666
455.5220, 587.6387
456.7110, 557.9980
457.9000, 515.3359
459.0890, 502.6523
460.2770, 434.9463
461.4650, 428.2197
462.6540, 473.4727
463.8420, 500.7080
465.0290, 426.9219
466.2170, 414.1162
467.4050, 509.2871
468.5920, 569.4355
469.7790, 354.5625
470.9660, 326.5723
472.1530, 444.3730
473.3390, 513.7129
474.5250, 537.2012
475.7120, 377.5820
476.8980, 454.3584
478.0840, 436.3643
479.2690, 414.4541
480.4550, 524.4395
481.6400, 390.8906
482.8250, 411.4229
484.0100, 452.9434
485.1950, 481.1562
486.3800, 424.4580
487.5640, 455.7754
488.7480, 543.5889
489.9320, 448.1055
491.1160, 480.0420
492.3000, 469.6924
493.4840, 432.2227
494.6670, 445.2734
495.8500, 455.8477
497.0330, 467.9121
498.2160, 502.0693
499.3990, 536.9336
500.5810, 587.4023
501.7630, 662.2793
502.9460, 731.1172
504.1280, 772.2080
505.3090, 825.1631
506.4910, 869.1670
507.6720, 878.2412
508.8540, 961.9209
510.0350, 878.0801
511.2160, 1150.629
512.3960, 1295.238
513.5770, 1314.049
514.7570, 1537.027
515.9380, 1883.153
517.1180, 2081.521
518.2970, 2354.896
519.4770, 2396.260
520.6570, 2761.611
521.8360, 2853.952
523.0150, 2882.279
524.1940, 2839.597
525.3730, 2809.901
526.5510, 2605.196
527.7300, 2109.481
528.9080, 1997.756
530.0860, 1703.020
531.2640, 1346.272
532.4420, 1161.522
533.6200, 903.7617
534.7970, 635.9912
535.9740, 544.2100
537.1510, 618.4180
538.3280, 274.6162
539.5050, 155.8105
540.6810, 250.0146
541.8580, 81.23047
543.0340, 39.44629
544.2100, 55.66797
545.3860, 39.87793
546.5610, 70.90137
547.7370, 43.68164
548.9120, 9.541992
550.0870, 20.16895
551.2620, 186.8506
552.4370, 90.62793
553.6120, 110.4580
554.7860, 142.3164
555.9600, 99.24121
557.1340, 14.22168
558.3080, 55.18457
559.4820, 30.84277
560.6560, 21.88281
561.8290, 5.915039
563.0020, 98.93945
564.1750, 62.98145
565.3480, 116.0156
566.5210, 34.04297
567.6930, 118.0684
568.8660, 239.0869
570.0380, 269.0986
571.2100, 170.1162
572.3820, 368.1270
573.5530, 282.1328
574.7250, 244.1494
575.8960, 383.1592
577.0670, 361.1709
578.2380, 386.2041
579.4090, 404.2285
580.5800, 422.2480
581.7500, 452.8916
582.9210, 481.3008
584.0910, 503.3184
585.2610, 496.3291
586.4300, 498.3330
587.6000, 408.3301
588.7690, 467.3271
589.9390, 465.3496
591.1080, 388.3672
592.2770, 285.3789
593.4450, 352.9551
594.6140, 494.4102
595.7820, 439.4307
596.9500, 410.4443
598.1190, 412.4961
599.2860, 434.8789
600.4540, 526.6074
601.6220, 527.6738
602.7890, 516.7344
603.9560, 546.7861
605.1230, 389.8555
606.2900, 519.1865
607.4570, 639.2266
608.6230, 685.2637
609.7890, 925.2969
610.9560, 989.3242
612.1220, 974.3447
613.2870, 1221.358
614.4530, 1288.366
615.6180, 1544.368
616.7840, 1775.362
617.9490, 1748.350
619.1140, 1804.331
620.2790, 1455.306
621.4430, 1301.274
622.6080, 1280.238
623.7720, 1049.197
624.9360, 919.1572
626.1000, 624.1172
627.2640, 593.0771
628.4270, 436.0645
629.5910, 414.0664
630.7540, 441.0928
631.9170, 383.1299
633.0800, 506.1738
634.2430, 376.2490
635.4050, 441.3535
636.5680, 480.4824
637.7300, 426.6445
638.8920, 352.8516
640.0540, 436.0850
641.2150, 451.3701
642.3770, 518.6719
643.5380, 489.9805
644.7000, 474.3008
645.8610, 399.6406
647.0210, 470.9805
648.1820, 444.7539
649.3430, 529.7090
650.5030, 525.0889
651.6630, 484.4668
652.8230, 630.8447
653.9830, 586.2188
655.1430, 806.5879
656.3020, 852.2432
657.4620, 932.6006
658.6210, 1085.105
659.7800, 1222.448
660.9390, 1261.854
662.0970, 1610.183
663.2560, 1719.864
664.4140, 1925.185
665.5720, 2370.492
666.7300, 2740.454
667.8880, 3193.825
669.0460, 3731.188
670.2030, 4293.686
671.3600, 5152.799
672.5180, 6173.226
673.6740, 7548.612
674.8310, 9545.001
675.9880, 11732.41
677.1440, 14908.77
678.3010, 18592.59
679.4570, 22964.20
680.6130, 27919.77
681.7690, 33416.04
682.9240, 39609.66
684.0800, 45134.55
685.2350, 48939.60
686.3900, 48550.20
687.5450, 44944.77
688.7000, 38365.97
689.8540, 30760.16
691.0090, 24268.03
692.1630, 18688.89
693.3170, 14569.12
694.4710, 11637.76
695.6250, 9317.181
696.7780, 7729.512
697.9320, 6531.205
699.0850, 5635.318
700.2380, 4861.017
701.3910, 4180.606
702.5440, 3594.275
703.6970, 3147.995
704.8490, 2766.049
706.0010, 2506.958
707.1530, 2273.886
708.3050, 1990.859
709.4570, 1844.525
710.6090, 1638.667
711.7600, 1552.305
712.9110, 1373.237
714.0620, 1231.148
715.2130, 1221.676
716.3640, 1010.460
717.5150, 1032.334
718.6650, 980.1943
719.8150, 910.7627
720.9650, 831.6025
722.1150, 751.4229
723.2650, 701.4160
724.4150, 607.0225
725.5640, 562.8018
726.7130, 495.6504
727.8630, 343.9619
729.0110, 340.7002
730.1600, 278.4229
731.3090, 404.1318
732.4570, 183.5703
733.6060, 399.2500
734.7540, 257.9150
735.9020, 166.0674
737.0490, 233.6777
738.1970, 262.1260
739.3440, 253.6436
740.4920, 174.2314
741.6390, 223.8037
742.7860, 153.7695
743.9320, 89.30957
745.0790, 240.8301
746.2250, 339.8369
747.3720, 189.8223
748.5180, 179.2939
749.6640, 158.7510
750.8100, 200.1895
751.9550, 207.6133
753.1010, 242.0205
754.2460, 384.4111
755.3910, 366.7314
756.5360, 452.1455
757.6810, 407.4873
758.8250, 495.8125
759.9700, 503.1211
761.1140, 552.4150
762.2580, 492.6924
763.4020, 652.9531
764.5460, 556.1963
765.6900, 696.4248
766.8330, 677.6367
767.9760, 520.8320
769.1200, 621.0107
770.2620, 509.1729
771.4050, 545.3174
772.5480, 540.4463
773.6900, 696.5566
774.8330, 516.6514
775.9750, 562.7275
777.1170, 474.7871
778.2590, 373.8291
779.4000, 473.8525
780.5420, 356.8594
781.6830, 464.8477
782.8240, 193.8184
783.9650, 213.7695
785.1060, 171.7051
786.2470, 159.6211
787.3870, 173.9961
788.5280, 182.3975
789.6680, 185.2578
790.8080, 188.1006
791.9480, 165.9248
793.0870, 60.73047
794.2270, 182.5156
795.3660, 86.28223
796.5060, 193.0293
797.6450, 104.7588
798.7830, 156.4697
799.9220, 52.16406
801.0610, 116.8340
802.1990, 138.4873
803.3370, 38.12305
804.4750, 95.73340
805.6130, 95.32520
806.7510, 59.89844
807.8890, 8.452148
809.0260, 70.97070
810.1630, 77.47070
811.3000, 73.95215
812.4370, 67.01367
813.5740, 73.85645
814.7110, 11.28125
815.8470, 34.04688
816.9830, 49.71191
818.1190, 2.441406
819.2550, 43.21094
820.3910, 73.96191
821.5270, 50.88184
822.6620, 134.1338
823.7970, 91.12891
824.9330, 88.17383
826.0670, 130.6836
827.2020, 17.06738
828.3370, 67.87695
829.4710, 90.34473
830.6060, 17.61914
831.7400, 43.30176
832.8740, 84.97363
834.0080, 58.16211
835.1410, 40.56152
836.2750, 44.98438
837.4080, 51.03223
838.5410, 62.97070
839.6740, 85.48047
840.8070, 38.91602
841.9400, 6.335938
843.0730, 86.72852
844.2050, 126.1074
845.3370, 15.52832
846.4690, 48.79590
847.6010, 70.10645
848.7330, 40.59668
849.8640, 117.6494
850.9960, 4.117188
852.1270, 72.91504
853.2580, 109.2217
854.3890, 47.34570
855.5200, 40.54297
856.6500, 34.52148
857.7810, 96.57422
858.9110, 48.61523
860.0410, 95.64258
861.1710, 60.66016
862.3010, 3.334961
863.4310, 107.3516
864.5600, 25.55273
865.6900, 32.44727
866.8190, 47.33105
867.9480, 97.79492
869.0770, 108.0098
870.2050, 95.80371
871.3340, 160.4102
872.4620, 8.724609
873.5900, 40.05957
874.7180, 42.43066
875.8460, 50.16211
876.9740, 117.7480
878.1010, 20.67578
879.2290, 47.86230
880.3560, 149.1250
881.4830, 5.335938
882.6100, 5.811523
883.7370, 103.7002
884.8630, 58.20508
885.9900, 145.7031
887.1160, 119.1953
888.2420, 95.68164
889.3680, 131.1611
890.4940, 34.63574
891.6200, 51.10449
892.7450, 129.5684
893.8700, 49.02734
894.9960, 209.4824
896.1210, 193.9336
897.2460, 191.3799
898.3700, 317.8223
899.4950, 283.2607
900.6190, 312.6953
901.7430, 322.1270
902.8670, 282.5557
903.9910, 474.9824
905.1150, 444.4062
906.2390, 595.8262
907.3620, 897.2451
908.4850, 1061.662
909.6080, 1172.077
910.7310, 680.4902
911.8540, 1415.902
912.9770, 789.3145
914.0990, 750.7246
915.2210, 865.1348
916.3440, 895.5449
917.4660, 902.9541
918.5870, 954.3633
919.7090, 849.7734
920.8310, 852.1846
921.9520, 686.5957
923.0730, 757.0078
924.1940, 585.4209
925.3150, 586.8359
926.4360, 538.2520
927.5560, 499.6699
928.6770, 469.9707
929.7970, 554.2227
930.9170, 413.4932
932.0370, 374.9229
933.1570, 397.2861
934.2760, 294.7207
935.3960, 240.7988
936.5150, 272.7578
937.6340, 270.6855
938.7530, 281.4756
939.8720, 279.8535
940.9910, 193.2383
942.1090, 193.4854
943.2280, 189.1143
944.3460, 164.4287
945.4640, 214.7822
946.5820, 86.13281
947.6990, 173.4658
948.8170, 91.83984
949.9340, 19.24219
951.0520, 38.87695
952.1690, 60.04102
953.2860, 8.200195
954.4030, 66.83105
955.5190, 64.28320
956.6360, 39.50293
957.7520, 27.48145
958.8680, 0.2021480
959.9840, 42.85352
961.1000, 12.42676
962.2160, 2.527344
963.3310, 164.4502
964.4470, 51.39648
965.5620, 20.04395
966.6770, 45.45117
967.7920, 103.1357
968.9060, 83.88672
970.0210, 97.06445
971.1360, 106.6309
972.2500, 232.2461
973.3640, 187.1807
974.4780, 177.9238
975.5920, 97.56445
976.7050, 146.0293
977.8190, 189.8525
978.9320, 285.6934
980.0450, 415.0029
981.1580, 352.8828
982.2710, 509.8145
983.3840, 454.7578
984.4970, 559.7285
985.6090, 665.1055
986.7210, 805.2549
987.8330, 1059.324
988.9450, 1249.428
990.0570, 1386.846
991.1690, 1551.023
992.2800, 1698.252
993.3920, 1930.502
994.5030, 2062.792
995.6140, 2445.146
996.7250, 2692.450
997.8350, 2764.299
998.9460, 3101.730
1000.056, 3292.217
1001.167, 3505.735
1002.277, 3751.603
1003.387, 3781.158
1004.496, 4175.789
1005.606, 4261.973
1006.715, 4428.708
1007.825, 4252.619
1008.934, 4450.467
1010.043, 4326.228
1011.152, 4569.074
1012.260, 4132.506
1013.369, 3960.378
1014.477, 3845.276
1015.586, 3833.700
1016.694, 3512.156
1017.802, 3406.137
1018.909, 3333.158
1020.017, 2977.217
1021.124, 2924.304
1022.232, 2732.419
1023.339, 2553.562
1024.446, 2507.746
1025.553, 2517.976
1026.659, 2402.238
1027.766, 2370.543
1028.872, 2388.874
1029.979, 2367.234
1031.085, 2407.635
1032.191, 2337.064
1033.296, 2506.522
1034.402, 2500.010
1035.507, 2772.527
1036.613, 2956.073
1037.718, 3093.648
1038.823, 3284.254
1039.928, 3320.890
1041.032, 3543.555
1042.137, 3854.249
1043.241, 4221.973
1044.346, 4715.729
1045.450, 5030.513
1046.554, 5521.328
1047.657, 6169.172
1048.761, 6943.049
1049.864, 7671.955
1050.968, 8502.892
1052.071, 9643.858
1053.174, 11012.85
1054.277, 12653.88
1055.379, 14496.94
1056.482, 16483.04
1057.584, 18753.15
1058.687, 21576.30
1059.789, 24160.49
1060.891, 27363.70
1061.992, 29989.95
1063.094, 32753.24
1064.196, 34723.55
1065.297, 36484.90
1066.398, 37194.29
1067.499, 37104.70
1068.600, 36166.14
1069.701, 34897.61
1070.801, 33126.12
1071.902, 31005.68
1073.002, 29076.28
1074.102, 26822.90
1075.202, 24326.56
1076.302, 21890.28
1077.402, 19909.04
1078.501, 17878.83
1079.600, 16122.65
1080.700, 14753.51
1081.799, 13456.40
1082.898, 12198.04
1083.996, 11373.02
1085.095, 10931.06
1086.193, 10186.14
1087.292, 9210.265
1088.390, 8478.430
1089.488, 7638.996
1090.586, 7022.293
1091.683, 6460.631
1092.781, 6234.420
1093.878, 5911.926
1094.975, 5398.430
1096.073, 5135.004
1097.169, 4951.641
1098.266, 4715.863
1099.363, 4515.689
1100.459, 4576.461
1101.556, 4082.298
1102.652, 4198.186
1103.748, 3920.109
1104.844, 3717.063
1105.940, 3429.076
1107.035, 3316.123
1108.131, 3249.754
1109.226, 3113.468
1110.321, 3037.616
1111.416, 3086.071
1112.511, 2979.738
1113.605, 2815.991
1114.700, 3040.271
1115.794, 3137.813
1116.889, 2907.628
1117.983, 3194.122
1119.077, 3111.575
1120.170, 3200.975
1121.264, 3293.791
1122.357, 3491.338
1123.451, 3528.794
1124.544, 3635.889
1125.637, 3639.645
1126.730, 3615.828
1127.823, 3617.832
1128.915, 3722.559
1130.008, 3701.342
1131.100, 3648.847
1132.192, 3627.197
1133.284, 3458.608
1134.376, 3378.601
1135.467, 3254.545
1136.559, 2916.249
1137.650, 2833.598
1138.742, 2544.688
1139.833, 2408.793
1140.924, 1961.937
1142.014, 2074.161
1143.105, 1735.350
1144.195, 1718.568
1145.286, 1446.814
1146.376, 1381.077
1147.466, 1116.366
1148.556, 1010.680
1149.646, 1047.377
1150.735, 942.1670
1151.825, 685.7734
1152.914, 726.1738
1154.003, 585.5947
1155.092, 563.9609
1156.181, 501.0576
1157.270, 418.6348
1158.358, 420.4932
1159.447, 362.2334
1160.535, 357.5518
1161.623, 384.5762
1162.711, 196.1553
1163.799, 363.7520
1164.886, 202.3682
1165.974, 248.0127
1167.061, 229.6729
1168.148, 211.3525
1169.235, 100.0488
1170.322, 162.7627
1171.409, 220.4932
1172.496, 129.2393
1173.582, 249.0029
1174.669, 168.7832
1175.755, 109.5801
1176.841, 174.3916
1177.927, 62.21973
1179.012, 246.0625
1180.098, 163.9199
1181.183, 250.7920
1182.269, 82.67969
1183.354, 137.5811
1184.439, 116.4980
1185.524, 207.4307
1186.608, 137.3750
1187.693, 75.52246
1188.777, 204.1748
1189.862, 284.4307
1190.946, 318.8486
1192.030, 171.6719
1193.113, 259.5391
1194.197, 252.5762
1195.281, 241.7451
1196.364, 362.8252
1197.447, 240.8379
1198.530, 359.8408
1199.613, 382.6670
1200.696, 451.5498
1201.779, 529.0586
1202.861, 605.3652
1203.944, 551.4561
1205.026, 605.6035
1206.108, 414.8037
1207.190, 580.1748
1208.271, 1028.922
1209.353, 637.1055
1210.435, 750.3604
1211.516, 562.5605
1212.597, 1234.769
1213.678, 892.5566
1214.759, 936.0117
1215.840, 722.4453
1216.920, 513.6846
1218.001, 674.9297
1219.081, 118.1816
1220.161, 125.4893
1221.241, 249.8057
1222.321, 77.07910
1223.401, 87.35938
1224.480, 149.6436
1225.560, 200.9346
1226.639, 234.2295
1227.718, 93.53320
1228.797, 101.8428
1229.876, 69.15430
1230.955, 186.5264
1232.033, 19.85254
1233.112, 55.18164
1234.190, 139.2070
1235.268, 135.5391
1236.346, 41.60254
1237.424, 55.06152
1238.501, 72.75000
1239.579, 22.53027
1240.656, 65.17578
1241.733, 83.91406
1242.811, 65.30762
1243.888, 23.53027
1244.964, 2.250000
1246.041, 45.98730
1247.117, 104.4658
1248.194, 11.79297
1249.270, 50.93359
1250.346, 56.59668
1251.422, 82.50879
1252.498, 87.21875
1253.573, 21.52246
1254.649, 65.48828
1255.724, 150.5693
1256.800, 34.30566
1257.875, 33.49316
1258.950, 55.45703
1260.024, 105.6719
1261.099, 30.43652
1262.173, 49.98730
1263.248, 73.45117
1264.322, 35.94922
1265.396, 97.96289
1266.470, 8.281250
1267.544, 18.59277
1268.617, 72.63965
1269.691, 31.34961
1270.764, 19.50391
1271.837, 103.0811
1272.910, 133.7812
1273.983, 26.02539
1275.056, 193.6104
1276.129, 50.13867
1277.201, 131.7451
1278.273, 34.74219
1279.346, 3.267578
1280.418, 21.62793
1281.489, 57.06836
1282.561, 50.49805
1283.633, 24.08008
1284.704, 34.69434
1285.776, 6.650391
1286.847, 12.95898
1287.918, 50.33301
1288.989, 54.24609
1290.059, 12.64355
1291.130, 95.59570
1292.200, 55.84766
1293.271, 85.67773
1294.341, 54.93066
1295.411, 234.1416
1296.481, 206.4609
1297.551, 88.63281
1298.620, 226.7920
1299.690, 101.9395
1300.759, 155.0742
1301.828, 183.1963
1302.897, 129.3057
1303.966, 236.4033
1305.035, 69.48730
1306.103, 110.5586
1307.172, 100.6162
1308.240, 202.6602
1309.308, 331.6914
1310.376, 95.71094
1311.444, 71.71777
1312.512, 220.7119
1313.580, 127.6895
1314.647, 135.6562
1315.714, 248.6143
1316.781, 105.5596
1317.848, 108.4863
1318.915, 171.4014
1319.982, 23.30664
1321.049, 71.19238
1322.115, 194.0547
1323.181, 183.8916
1324.248, 157.6924
1325.314, 171.4775
1326.380, 134.2490
1327.445, 116.0059
1328.511, 16.74902
1329.576, 73.47070
1330.642, 30.17773
1331.707, 44.86035
1332.772, 147.5264
1333.837, 30.82324
1334.902, 78.79102
