##NAMES=Beryl
##RRUFFID=R060942
##IDEAL CHEMISTRY=Be_3_Al_2_Si_6_O_18_
##LOCALITY=Mingore mine, Swat Valley, Pakistan
##OWNER=RRUFF
##SOURCE=Lawrence W. Snee
##DESCRIPTION=Green hexagonal prisms, variety emerald
##STATUS=The identification of this mineral has been confirmed by X-ray diffraction and chemical analysis
##URL=rruff.info/R060942
##MEASURED CHEMISTRY=(Be_2.94_Li_0.06_)_Σ=3_(Al_1.55_Mg_0.37_Fe^3+^_0.06_Cr^3+^_0.02_)_Σ=2_Si_6.00_O_18_·Na_0.42_; Be and Li not measured but estimated by stoichiometry
##PIN_ID=L01655
##ORIENTATION=Laser parallel to c* (0 0 1). Fiducial mark perpendicular to laser is parallel to [-1 -1 0]
130.4390, 0.0000000E+00
131.6680, 181.3281
132.8980, 110.6768
134.1270, 3.988281
135.3560, 32.28613
136.5850, 281.9355
137.8140, 430.6982
139.0430, 1098.253
140.2710, 1065.041
141.5000, 1041.977
142.7280, 810.6680
143.9560, 691.1377
145.1840, 589.9375
146.4120, 741.1572
147.6390, 578.8828
148.8670, 353.6211
150.0940, 625.9189
151.3210, 422.4434
152.5490, 454.1123
153.7750, 335.4219
155.0020, 366.9521
156.2290, 300.9160
157.4550, 100.2363
158.6810, 64.12695
159.9080, 44.26172
161.1340, 12.86719
162.3590, 247.3428
163.5850, 641.2617
164.8110, 751.8652
166.0360, 608.1348
167.2610, 763.0635
168.4860, 758.6592
169.7110, 703.3174
170.9360, 936.0723
172.1610, 726.6602
173.3850, 520.6201
174.6100, 630.3477
175.8340, 863.1777
177.0580, 903.1797
178.2820, 731.5576
179.5050, 948.7578
180.7290, 726.1748
181.9520, 783.6533
183.1760, 933.0723
184.3990, 818.4023
185.6220, 933.3262
186.8450, 1118.576
188.0670, 1016.195
189.2900, 1024.744
190.5120, 1133.779
191.7340, 1224.559
192.9560, 1413.628
194.1780, 1292.504
195.4000, 1542.971
196.6220, 1568.047
197.8430, 1573.746
199.0640, 1750.085
200.2860, 1911.079
201.5070, 2186.740
202.7270, 2188.081
203.9480, 1658.166
205.1690, 925.1562
206.3890, 390.0537
207.6090, 27.13965
208.8290, 13.57422
210.0490, 32.19727
211.2690, 63.72559
212.4890, 198.1553
213.7080, 189.4854
214.9280, 209.7178
216.1470, 139.5664
217.3660, 45.50391
218.5850, 18.96191
219.8030, 0.8789060
221.0220, 34.90625
222.2400, 61.47461
223.4590, 36.74414
224.6770, 100.9160
225.8950, 128.9873
227.1120, 180.9639
228.3300, 208.8467
229.5480, 259.6318
230.7650, 260.3223
231.9820, 337.9893
233.1990, 174.2734
234.4160, 512.9043
235.6330, 390.6641
236.8490, 635.2461
238.0660, 479.2031
239.2820, 406.7676
240.4980, 538.4082
241.7140, 632.4863
242.9300, 641.7461
244.1460, 648.0127
245.3610, 585.2393
246.5770, 634.1211
247.7920, 523.5947
249.0070, 691.3730
250.2220, 630.6689
251.4370, 605.9678
252.6510, 571.4160
253.8660, 487.8574
255.0800, 483.3545
256.2940, 634.7959
257.5080, 1267.184
258.7220, 1206.198
259.9360, 1247.169
261.1490, 1538.963
262.3630, 1096.090
263.5760, 1317.150
264.7890, 1505.142
266.0020, 1776.062
267.2150, 1931.914
268.4270, 1836.698
269.6400, 1586.414
270.8520, 1430.063
272.0640, 1210.648
273.2760, 1092.167
274.4880, 1004.623
275.7000, 890.2158
276.9120, 1018.637
278.1230, 817.2314
279.3340, 809.7568
280.5450, 889.1006
281.7560, 1082.523
282.9670, 1079.880
284.1780, 1108.150
285.3880, 1179.326
286.5980, 1206.413
287.8090, 1188.411
289.0190, 1314.325
290.2290, 1271.152
291.4380, 1215.760
292.6480, 1208.231
293.8570, 1131.654
295.0670, 1036.996
296.2760, 786.2646
297.4850, 591.4531
298.6930, 450.5615
299.9020, 341.0771
301.1110, 316.5000
302.3190, 276.3301
303.5270, 350.0732
304.7350, 447.5771
305.9430, 344.9883
307.1510, 416.2588
308.3580, 447.6611
309.5660, 413.9824
310.7730, 524.2217
311.9800, 597.3828
313.1870, 777.4688
314.3940, 840.4805
315.6010, 1081.314
316.8070, 1096.028
318.0130, 1294.660
319.2200, 1463.207
320.4260, 1841.662
321.6310, 1749.344
322.8370, 1978.811
324.0430, 2050.355
325.2480, 2064.725
326.4540, 1742.911
327.6590, 1475.994
328.8640, 1230.141
330.0680, 948.7178
331.2730, 628.6670
332.4780, 430.2266
333.6820, 357.7080
334.8860, 106.1084
336.0900, 102.4219
337.2940, 8.648438
338.4980, 52.23145
339.7010, 69.22070
340.9050, 48.32422
342.1080, 10.53418
343.3110, 168.8408
344.5140, 32.27246
345.7170, 1.788086
346.9200, 110.3750
348.1220, 67.07129
349.3240, 6.863281
350.5270, 134.7354
351.7290, 135.7285
352.9310, 54.28516
354.1320, 0.3222660
355.3340, 79.21875
356.5350, 28.54492
357.7370, 100.5293
358.9380, 6.330078
360.1390, 135.8232
361.3400, 26.42090
362.5400, 92.96191
363.7410, 110.8184
364.9410, 1.824219
366.1410, 10.47754
367.3410, 151.6748
368.5410, 36.45020
369.7410, 193.8721
370.9400, 320.4561
372.1400, 420.2773
373.3390, 382.1533
374.5380, 377.1777
375.7370, 403.1416
376.9360, 583.3652
378.1350, 607.8135
379.3330, 724.9893
380.5310, 1050.951
381.7300, 1182.979
382.9280, 1588.497
384.1260, 1829.781
385.3230, 2114.170
386.5210, 2791.357
387.7180, 3445.421
388.9160, 4333.389
390.1130, 5434.227
391.3100, 6659.388
392.5060, 8291.893
393.7030, 9832.517
394.9000, 11633.34
396.0960, 13420.87
397.2920, 14867.39
398.4880, 15855.60
399.6840, 15707.90
400.8800, 14942.29
402.0750, 13479.69
403.2710, 11892.93
404.4660, 10364.16
405.6610, 9067.356
406.8560, 7668.527
408.0510, 6998.674
409.2450, 6496.796
410.4400, 5815.893
411.6340, 5244.965
412.8280, 4732.014
414.0220, 4425.041
415.2160, 4003.043
416.4100, 3820.025
417.6030, 3561.984
418.7970, 3243.922
419.9900, 2890.839
421.1830, 2664.707
422.3760, 2372.528
423.5690, 2316.305
424.7610, 2179.033
425.9540, 2118.716
427.1460, 1929.351
428.3380, 1799.941
429.5300, 1901.486
430.7220, 1991.985
431.9140, 2034.440
433.1050, 2041.850
434.2970, 2206.216
435.4880, 2165.540
436.6790, 2260.821
437.8700, 2180.059
439.0610, 2151.866
440.2510, 2250.410
441.4420, 2009.525
442.6320, 1832.015
443.8220, 1718.001
445.0120, 1390.839
446.2020, 1108.440
447.3910, 1224.329
448.5810, 877.5850
449.7700, 693.3916
450.9600, 711.4629
452.1490, 621.6221
453.3370, 478.5996
454.5260, 598.9980
455.7150, 515.6611
456.9030, 482.2969
458.0910, 569.8984
459.2800, 573.4639
460.4670, 474.9941
461.6550, 460.1016
462.8430, 405.8750
464.0300, 306.3857
465.2180, 329.7793
466.4050, 288.1387
467.5920, 309.4639
468.7790, 334.7539
469.9650, 341.0098
471.1520, 309.2334
472.3380, 351.4248
473.5250, 530.5840
474.7110, 463.7139
475.8970, 475.0605
477.0820, 524.0732
478.2680, 457.0645
479.4540, 654.9736
480.6390, 637.2441
481.8240, 558.9199
483.0090, 408.3008
484.1940, 494.9805
485.3780, 427.0234
486.5630, 491.1621
487.7470, 542.0420
488.9320, 358.5098
490.1160, 353.6787
491.3000, 429.7139
492.4830, 379.3779
493.6670, 429.5957
494.8500, 460.7520
496.0340, 350.7227
497.2170, 269.5293
498.4000, 489.6006
499.5820, 435.7852
500.7650, 462.3037
501.9480, 463.5312
503.1300, 476.8584
504.3120, 400.0684
505.4940, 420.6826
506.6760, 459.5410
507.8580, 357.6816
509.0390, 525.4404
510.2210, 507.8125
511.4020, 462.5479
512.5830, 632.2812
513.7640, 704.7627
514.9450, 737.6553
516.1250, 704.3828
517.3060, 751.0850
518.4860, 723.0801
519.6660, 744.4180
520.8460, 665.9404
522.0260, 667.4512
523.2060, 599.6826
524.3850, 540.4736
525.5650, 519.9248
526.7440, 389.4023
527.9230, 316.8701
529.1020, 199.3330
530.2810, 187.7871
531.4590, 190.2383
532.6380, 19.68359
533.8160, 114.1211
534.9940, 107.5576
536.1720, 41.98828
537.3500, 101.4170
538.5270, 87.83984
539.7050, 67.28418
540.8820, 32.75781
542.0590, 96.25391
543.2360, 84.02441
544.4130, 178.3262
545.5900, 133.9062
546.7660, 239.5420
547.9430, 283.1924
549.1190, 338.8496
550.2950, 499.5234
551.4710, 681.2354
552.6470, 891.9600
553.8220, 1014.741
554.9980, 1232.555
556.1730, 1511.403
557.3480, 1616.280
558.5230, 1946.186
559.6980, 2361.101
560.8730, 2404.012
562.0470, 2491.951
563.2220, 2472.899
564.3960, 2517.845
565.5700, 2535.789
566.7440, 2380.734
567.9170, 2315.678
569.0910, 2285.623
570.2640, 2200.922
571.4380, 2328.533
572.6110, 2147.497
573.7840, 2159.461
574.9570, 2212.424
576.1290, 1899.407
577.3020, 2045.400
578.4740, 1925.391
579.6460, 1602.405
580.8180, 1639.426
581.9900, 1905.445
583.1620, 1628.474
584.3330, 1711.506
585.5040, 1665.542
586.6760, 1520.592
587.8470, 1554.662
589.0180, 1509.747
590.1880, 1474.836
591.3590, 1456.120
592.5290, 1400.771
593.7000, 1382.131
594.8700, 1293.243
596.0400, 1256.361
597.2090, 1181.482
598.3790, 1046.603
599.5490, 1031.733
600.7180, 893.8633
601.8870, 862.9941
603.0560, 756.1445
604.2250, 611.2451
605.3940, 705.9404
606.5620, 682.7617
607.7300, 703.4258
608.8990, 653.1934
610.0670, 636.1846
611.2350, 524.0254
612.4020, 550.8438
613.5700, 566.8682
614.7370, 489.0918
615.9050, 352.3164
617.0720, 337.5459
618.2390, 118.7793
619.4060, 87.02637
620.5720, 46.28809
621.7390, 5.424805
622.9050, 102.9023
624.0710, 111.2744
625.2370, 28.68848
626.4030, 68.86719
627.5690, 97.37012
628.7340, 111.9258
629.9000, 51.36914
631.0650, 55.83008
632.2300, 51.26074
633.3950, 25.32520
634.5600, 46.97266
635.7240, 56.31641
636.8890, 109.4189
638.0530, 27.81934
639.2170, 3.049805
640.3810, 33.75098
641.5450, 48.60449
642.7080, 24.48242
643.8720, 42.68164
645.0350, 16.39258
646.1980, 68.37598
647.3610, 39.37109
648.5240, 118.3896
649.6870, 124.4287
650.8490, 142.4766
652.0120, 115.5400
653.1740, 306.6123
654.3360, 292.6875
655.4980, 395.7637
656.6600, 417.8428
657.8210, 471.9248
658.9830, 645.0078
660.1440, 617.1572
661.3050, 916.2373
662.4660, 1057.327
663.6270, 1129.404
664.7870, 1412.479
665.9480, 1619.047
667.1080, 2005.119
668.2680, 2386.189
669.4280, 2714.258
670.5880, 3406.498
671.7480, 4112.822
672.9070, 5013.467
674.0670, 6262.197
675.2260, 7715.188
676.3850, 9613.581
677.5440, 12306.58
678.7030, 15600.13
679.8610, 19819.31
681.0200, 24548.72
682.1780, 30158.06
683.3360, 36653.11
684.4940, 43132.54
685.6520, 48148.12
686.8090, 50753.22
687.9670, 49883.22
689.1240, 45666.66
690.2810, 39732.64
691.4380, 33069.68
692.5950, 26661.23
693.7520, 21117.07
694.9080, 17007.02
696.0650, 14010.79
697.2210, 11383.86
698.3770, 9532.249
699.5330, 8111.213
700.6880, 6798.631
701.8440, 5956.137
702.9990, 5663.066
704.1550, 4696.736
705.3100, 4288.338
706.4650, 3683.246
707.6190, 3239.902
708.7740, 3229.460
709.9290, 2955.403
711.0830, 2562.818
712.2370, 2681.607
713.3910, 2177.607
714.5450, 1914.882
715.6980, 1718.637
716.8520, 1737.332
718.0050, 1458.461
719.1580, 1563.319
720.3110, 1390.967
721.4640, 1281.380
722.6170, 1175.370
723.7700, 1093.970
724.9220, 1003.317
726.0740, 1092.047
727.2260, 958.9150
728.3780, 982.4453
729.5300, 868.2461
730.6810, 839.8271
731.8330, 942.3047
732.9840, 876.1484
734.1350, 861.3779
735.2860, 914.9814
736.4370, 946.3848
737.5880, 1030.637
738.7380, 774.0039
739.8880, 1037.352
741.0390, 904.7910
742.1890, 830.2393
743.3380, 1022.529
744.4880, 938.1924
745.6380, 954.7744
746.7870, 946.2598
747.9360, 965.9180
749.0850, 1043.348
750.2340, 934.5264
751.3830, 846.4824
752.5310, 878.6211
753.6800, 706.7393
754.8280, 1009.836
755.9760, 841.9121
757.1240, 736.9678
758.2720, 638.0000
759.4190, 1297.012
760.5670, 1455.787
761.7140, 943.7549
762.8610, 526.7012
764.0080, 614.6250
765.1550, 653.4883
766.3020, 581.1514
767.4480, 546.1123
768.5950, 568.5303
769.7410, 461.7715
770.8870, 563.1406
772.0330, 437.9053
773.1780, 527.6465
774.3240, 310.7539
775.4690, 390.4492
776.6140, 373.4199
777.7590, 305.9082
778.9040, 352.5293
780.0490, 295.1289
781.1940, 290.4834
782.3380, 423.7422
783.4820, 493.4258
784.6260, 502.9961
785.7700, 272.3604
786.9140, 351.8311
788.0580, 306.9961
789.2010, 257.0459
790.3450, 380.1006
791.4880, 184.2891
792.6310, 304.5537
793.7730, 298.6221
794.9160, 350.4062
796.0590, 191.8740
797.2010, 134.0977
798.3430, 210.2939
799.4850, 145.4648
800.6270, 210.6104
801.7690, 153.7314
802.9100, 64.82715
804.0520, 189.8916
805.1930, 184.9307
806.3340, 143.9443
807.4750, 97.93359
808.6160, 75.89551
809.7560, 123.8301
810.8970, 52.74023
812.0370, 129.6182
813.1770, 53.37109
814.3170, 121.2930
815.4570, 39.90918
816.5960, 73.18652
817.7360, 52.55566
818.8750, 53.00391
820.0140, 81.53320
821.1530, 70.15723
822.2920, 168.8711
823.4310, 18.72656
824.5690, 15.40723
825.7070, 25.55469
826.8460, 98.57910
827.9840, 20.70703
829.1220, 172.8945
830.2590, 83.22363
831.3970, 101.6455
832.5340, 68.16992
833.6710, 73.77734
834.8080, 0.4707030
835.9450, 78.78809
837.0820, 66.97754
838.2190, 5.823242
839.3550, 70.28418
840.4910, 113.3672
841.6270, 29.42773
842.7630, 56.92773
843.8990, 19.97559
845.0350, 20.44238
846.1700, 21.61133
847.3060, 20.28320
848.4410, 54.14746
849.5760, 28.99121
850.7100, 48.19043
851.8450, 9.433594
852.9800, 113.2803
854.1140, 66.02637
855.2480, 0.5986330
856.3820, 131.1904
857.5160, 11.23730
858.6500, 12.29785
859.7830, 33.80664
860.9170, 14.70215
862.0500, 38.24805
863.1830, 26.10352
864.3160, 67.52148
865.4480, 5.698242
866.5810, 9.151367
867.7130, 68.49512
868.8460, 17.21875
869.9780, 7.964844
871.1100, 2.262695
872.2410, 24.47070
873.3730, 30.33789
874.5050, 36.81934
875.6360, 67.96191
876.7670, 70.91113
877.8980, 22.83594
879.0290, 31.21191
880.1590, 63.75391
881.2900, 29.76465
882.4200, 7.804688
883.5500, 34.15137
884.6800, 49.94434
885.8100, 14.93652
886.9400, 79.19531
888.0690, 22.62598
889.1990, 152.4355
890.3280, 174.2334
891.4570, 169.0195
892.5860, 227.9277
893.7140, 195.7734
894.8430, 281.3203
895.9710, 241.0664
897.1000, 301.8057
898.2280, 517.5352
899.3560, 359.2559
900.4830, 606.9678
901.6110, 569.6816
902.7380, 566.4023
903.8660, 671.7725
904.9930, 646.5234
906.1200, 736.5938
907.2460, 708.3242
908.3730, 698.0479
909.5000, 757.7676
910.6260, 920.4883
911.7520, 804.2041
912.8780, 777.9180
914.0040, 853.6289
915.1290, 742.9053
916.2550, 788.0371
917.3800, 673.7354
918.5050, 686.4287
919.6300, 739.1201
920.7550, 664.0186
921.8800, 609.7139
923.0040, 654.1787
924.1290, 601.1094
925.2530, 532.5391
926.3770, 559.2188
927.5010, 596.8965
928.6250, 530.5732
929.7480, 510.2490
930.8720, 489.0371
931.9950, 461.6045
933.1180, 433.2158
934.2410, 399.8945
935.3640, 394.5635
936.4860, 307.2451
937.6090, 223.9277
938.7310, 466.1201
939.8530, 628.8086
940.9750, 229.4990
942.0970, 399.8242
943.2180, 334.2764
944.3400, 263.1572
945.4610, 321.8066
946.5820, 242.7773
947.7030, 202.4727
948.8240, 216.5010
949.9450, 192.1826
951.0650, 272.2783
952.1860, 178.3145
953.3060, 22.67871
954.4260, 73.04980
955.5460, 170.6689
956.6650, 46.04395
957.7850, 125.2666
958.9040, 5.037109
960.0230, 95.78027
961.1420, 100.1484
962.2610, 89.98828
963.3800, 148.7725
964.4990, 88.06641
965.6170, 106.0527
966.7350, 221.9512
967.8530, 54.02246
968.9710, 201.8154
970.0890, 63.28711
971.2070, 194.1875
972.3240, 372.6436
973.4410, 138.0205
974.5580, 268.9805
975.6750, 370.0234
976.7920, 293.5068
977.9090, 377.5098
979.0250, 470.7734
980.1410, 476.1436
981.2580, 699.1377
982.3740, 755.6670
983.4890, 847.8320
984.6050, 888.7949
985.7200, 1138.493
986.8360, 1365.721
987.9510, 1643.021
989.0660, 1849.646
990.1810, 1886.099
991.2950, 2272.523
992.4100, 2477.234
993.5240, 2656.406
994.6390, 3002.980
995.7530, 3101.821
996.8660, 3160.297
997.9800, 3416.647
999.0940, 3511.349
1000.207, 3384.792
1001.320, 3132.475
1002.433, 3210.311
1003.546, 3064.790
1004.659, 2871.914
1005.772, 2659.712
1006.884, 2595.728
1007.996, 2446.941
1009.108, 2396.053
1010.220, 2132.239
1011.332, 2128.359
1012.444, 1944.517
1013.555, 1715.847
1014.666, 1809.818
1015.777, 1581.888
1016.888, 1699.078
1017.999, 1550.283
1019.110, 1433.403
1020.220, 1369.961
1021.331, 1280.755
1022.441, 1318.401
1023.551, 1119.083
1024.661, 1158.810
1025.770, 1108.573
1026.880, 1003.390
1027.989, 987.2441
1029.098, 995.1602
1030.207, 1042.119
1031.316, 781.1211
1032.425, 716.1611
1033.533, 824.2471
1034.642, 688.3721
1035.750, 722.5352
1036.858, 613.7412
1037.966, 764.9980
1039.073, 682.2920
1040.181, 738.6260
1041.288, 816.0098
1042.396, 875.4316
1043.503, 926.8936
1044.610, 896.4023
1045.716, 895.9502
1046.823, 966.5391
1047.929, 1181.168
1049.036, 1274.836
1050.142, 1444.543
1051.248, 1520.291
1052.353, 1777.078
1053.459, 2026.908
1054.564, 2261.779
1055.670, 2400.697
1056.775, 2923.655
1057.880, 3220.658
1058.985, 3733.702
1060.089, 4160.785
1061.194, 4755.915
1062.298, 5318.088
1063.402, 5828.303
1064.506, 6230.559
1065.610, 6789.856
1066.713, 7169.195
1067.817, 7327.576
1068.920, 7614.000
1070.023, 7605.464
1071.126, 7530.972
1072.229, 7549.521
1073.332, 7293.115
1074.435, 6867.750
1075.537, 6810.427
1076.639, 6261.146
1077.741, 5860.910
1078.843, 5609.715
1079.945, 5151.580
1081.046, 4704.486
1082.148, 4565.439
1083.249, 4232.434
1084.350, 4209.494
1085.451, 3778.634
1086.551, 3782.843
1087.652, 3589.122
1088.752, 3465.479
1089.853, 3448.912
1090.953, 3285.445
1092.053, 3140.988
1093.152, 3023.636
1094.252, 2848.345
1095.351, 2797.139
1096.451, 2723.994
1097.550, 2681.949
1098.649, 2564.980
1099.748, 2425.098
1100.846, 2302.285
1101.945, 2277.548
1103.043, 2198.865
1104.141, 2161.224
1105.239, 2060.654
1106.337, 2122.137
1107.434, 1894.667
1108.532, 2016.240
1109.629, 1969.860
1110.726, 1871.522
1111.823, 1920.234
1112.920, 1788.996
1114.017, 1942.815
1115.113, 2099.683
1116.210, 2026.592
1117.306, 2190.545
1118.402, 2669.567
1119.498, 2587.259
1120.593, 2661.925
1121.689, 2808.912
1122.784, 2772.178
1123.879, 2823.733
1124.974, 2839.797
1126.069, 2722.155
1127.164, 2502.803
1128.259, 2059.724
1129.353, 1928.933
1130.447, 1869.493
1131.541, 1736.193
1132.635, 1599.227
1133.729, 1480.788
1134.822, 1354.560
1135.916, 1281.301
1137.009, 1237.647
1138.102, 1103.983
1139.195, 1141.536
1140.288, 1004.450
1141.380, 997.9951
1142.473, 887.1748
1143.565, 863.2109
1144.657, 729.2959
1145.749, 858.4131
1146.841, 966.5801
1147.932, 782.6240
1149.024, 754.8711
1150.115, 748.4453
1151.206, 738.7744
1152.297, 675.1357
1153.388, 606.4473
1154.479, 621.8975
1155.569, 568.2158
1156.659, 462.7393
1157.750, 440.9785
1158.839, 470.5684
1159.929, 542.0283
1161.019, 432.3564
1162.108, 478.1201
1163.198, 582.8291
1164.287, 402.4883
1165.376, 464.2568
1166.465, 482.0625
1167.553, 518.8555
1168.642, 511.1816
1169.730, 480.0752
1170.818, 606.9971
1171.906, 575.1631
1172.994, 723.1357
1174.082, 867.1318
1175.170, 869.0713
1176.257, 811.1172
1177.344, 982.1865
1178.431, 895.2793
1179.518, 1146.396
1180.605, 1206.535
1181.691, 1213.815
1182.778, 1234.999
1183.864, 1339.314
1184.950, 1363.541
1186.036, 1409.334
1187.122, 1427.602
1188.207, 1458.561
1189.292, 1430.869
1190.378, 1477.198
1191.463, 1496.657
1192.548, 1496.024
1193.632, 1669.665
1194.717, 1585.069
1195.801, 1715.689
1196.886, 1661.131
1197.970, 1723.591
1199.054, 1667.067
1200.137, 1781.628
1201.221, 1925.139
1202.305, 1992.666
1203.388, 1929.209
1204.471, 1987.770
1205.554, 2148.390
1206.637, 2379.979
1207.719, 2397.355
1208.802, 2318.209
1209.884, 2515.524
1210.966, 2476.176
1212.048, 2517.842
1213.130, 2390.520
1214.212, 2233.213
1215.293, 2250.917
1216.374, 2144.635
1217.456, 1962.363
1218.536, 1826.104
1219.617, 1644.856
1220.698, 1454.617
1221.778, 1352.661
1222.859, 1286.184
1223.939, 1109.220
1225.019, 1062.569
1226.099, 896.3799
1227.178, 857.2002
1228.258, 840.0264
1229.337, 692.3701
1230.417, 636.2109
1231.496, 541.1104
1232.574, 538.9629
1233.653, 459.8193
1234.732, 509.7637
1235.810, 487.6289
1236.888, 288.2891
1237.966, 306.1650
1239.044, 256.7998
1240.122, 247.8311
1241.199, 306.0977
1242.277, 156.2598
1243.354, 162.1494
1244.431, 222.8838
1245.508, 115.7773
1246.585, 113.6992
1247.661, 34.06445
1248.738, 23.01074
1249.814, 45.71973
1250.890, 125.9385
1251.966, 74.16992
1253.042, 179.3516
1254.117, 120.6162
1255.193, 15.06738
1256.268, 33.25391
1257.343, 13.58887
1258.418, 18.93555
1259.493, 3.707031
1260.567, 0.6562500
1261.642, 32.02637
1262.716, 159.3916
1263.790, 22.86426
1264.864, 83.64551
1265.938, 181.5557
1267.011, 7.903320
1268.085, 133.0586
1269.158, 30.42969
1270.231, 160.2314
1271.304, 56.02441
1272.377, 116.1016
1273.450, 41.17090
1274.522, 16.60547
1275.594, 13.87012
1276.666, 26.30176
1277.738, 46.89551
1278.810, 32.78418
1279.882, 53.26074
1280.953, 22.43359
1282.025, 54.98340
1283.096, 81.99219
1284.167, 19.35254
1285.238, 24.82324
1286.308, 46.75879
1287.379, 58.69531
1288.449, 78.59766
1289.519, 6.199219
1290.589, 0.5771480
1291.659, 73.29297
1292.729, 11.97070
1293.798, 36.06445
1294.868, 99.43164
1295.937, 7.833008
1297.006, 15.38477
1298.075, 86.57031
1299.143, 44.90918
1300.212, 8.510742
