##NAMES=Beryl
##RRUFFID=R040002
##IDEAL CHEMISTRY=Be_3_Al_2_Si_6_O_18_
##LOCALITY=Usakos, Namibia
##OWNER=RRUFF
##SOURCE=University of Arizona Mineral Museum
##DESCRIPTION=Light blue hexagonal prism, variety aquamarine
##STATUS=The identification of this mineral has been confirmed by X-ray diffraction and chemical analysis
##URL=rruff.info/R040002
##MEASURED CHEMISTRY=(Be_0.97_Li_0.03_)_3_(Al_0.97_Fe^3+^_0.03_)_2_Si_6_O_18_Î‡Na_0.01_
##PIN_ID=M00004
##ORIENTATION=Laser parallel to -c* (0 0 -1). Fiducial mark perpendicular to laser is parallel to a [1 0 0]
94.768, 0.000
96.161, 51.049
97.554, 10.995
98.947, 136.700
100.340, 52.283
101.732, 40.633
103.124, 85.631
104.516, 80.094
105.908, 204.163
107.300, 254.122
108.691, 310.582
110.082, 282.688
111.473, 279.494
112.864, 509.372
114.254, 662.327
115.644, 946.001
117.034, 966.003
118.424, 880.211
119.813, 974.776
121.203, 552.482
122.592, 429.498
123.981, 370.383
125.369, 187.026
126.758, 257.369
128.146, 127.904
129.534, 257.485
130.922, 173.275
132.309, 235.585
133.696, 95.284
135.083, 268.305
136.470, 189.319
137.857, 238.512
139.243, 402.284
140.630, 388.670
142.016, 448.715
143.401, 548.450
144.787, 643.653
146.172, 544.096
147.557, 410.566
148.942, 232.684
150.327, 215.451
151.711, 28.231
153.096, 93.727
154.480, 76.306
155.863, 49.992
157.247, 109.622
158.630, 1.623
160.013, 20.188
161.396, 7.596
162.779, 121.079
164.161, 178.994
165.544, 81.416
166.926, 74.641
168.308, 184.851
169.689, 58.684
171.070, 128.595
172.452, 119.610
173.833, 82.814
175.213, 162.173
176.594, 92.420
177.974, 284.692
179.354, 397.040
180.734, 309.097
182.114, 618.587
183.493, 781.147
184.872, 788.775
186.251, 610.467
187.630, 466.213
189.008, 306.011
190.387, 310.854
191.765, 230.739
193.143, 222.661
194.520, 113.613
195.898, 154.589
197.275, 39.584
198.652, 138.602
200.029, 76.641
201.405, 118.699
202.782, 53.218
204.158, 141.891
205.534, 140.048
206.909, 9.781
208.285, 107.389
209.660, 94.533
211.035, 33.380
212.410, 0.318
213.784, 118.268
215.159, 116.812
216.533, 5.574
217.907, 102.164
219.281, 28.546
220.654, 78.343
222.027, 94.467
223.400, 41.187
224.773, 54.716
226.146, 67.613
227.518, 18.508
228.891, 14.530
230.263, 63.941
231.634, 100.036
233.006, 71.774
234.377, 149.760
235.748, 211.272
237.119, 66.963
238.490, 241.529
239.860, 172.070
241.231, 178.652
242.601, 107.259
243.970, 172.007
245.340, 148.898
246.709, 122.903
248.079, 163.958
249.448, 97.988
250.816, 158.990
252.185, 82.961
253.553, 162.899
254.921, 232.809
256.289, 217.562
257.657, 245.527
259.024, 220.344
260.391, 269.948
261.758, 191.754
263.125, 251.660
264.492, 207.620
265.858, 107.604
267.224, 225.594
268.590, 199.576
269.956, 302.542
271.321, 309.481
272.687, 324.391
274.052, 279.266
275.416, 366.105
276.781, 395.896
278.146, 417.634
279.510, 525.317
280.874, 567.946
282.237, 676.525
283.601, 687.054
284.964, 918.537
286.327, 1156.974
287.690, 1286.364
289.053, 1271.703
290.416, 1336.979
291.778, 882.134
293.140, 916.146
294.502, 614.101
295.863, 679.986
297.225, 715.812
298.586, 743.884
299.947, 837.730
301.308, 813.511
302.668, 893.742
304.029, 1043.812
305.389, 1089.388
306.749, 1156.583
308.108, 1453.808
309.468, 1523.854
310.827, 1912.278
312.186, 2454.463
313.545, 3110.395
314.903, 3862.449
316.262, 4899.303
317.620, 5965.920
318.978, 6921.333
320.336, 7993.046
321.693, 8084.909
323.051, 6754.484
324.408, 4571.967
325.765, 3069.556
327.121, 1688.183
328.478, 1007.816
329.834, 658.779
331.190, 484.429
332.546, 248.542
333.902, 166.823
335.257, 150.828
336.612, 114.767
337.967, 116.701
339.322, 113.918
340.677, 223.611
342.031, 143.925
343.385, 197.422
344.739, 242.707
346.093, 146.000
347.446, 167.916
348.799, 176.225
350.153, 260.574
351.505, 325.244
352.858, 329.203
354.210, 340.093
355.563, 376.845
356.915, 441.855
358.267, 363.083
359.618, 337.522
360.969, 232.371
362.321, 218.269
363.672, 188.492
365.022, 221.060
366.373, 240.525
367.723, 190.735
369.073, 131.339
370.423, 253.536
371.773, 213.437
373.122, 164.359
374.471, 187.532
375.821, 279.898
377.169, 274.964
378.518, 294.146
379.866, 333.374
381.215, 563.436
382.563, 711.420
383.910, 1037.819
385.258, 1497.163
386.605, 2476.191
387.952, 3331.179
389.299, 5125.898
390.646, 7139.941
391.992, 10067.425
393.339, 13069.138
394.685, 15210.356
396.031, 15617.016
397.376, 13337.865
398.722, 10648.134
400.067, 7824.682
401.412, 5586.411
402.757, 4370.885
404.101, 3204.344
405.446, 2478.502
406.790, 2018.911
408.134, 1675.196
409.478, 1418.649
410.821, 1373.238
412.165, 1399.644
413.508, 1612.871
414.851, 2013.753
416.193, 2404.944
417.536, 2678.174
418.878, 3418.381
420.220, 3886.568
421.562, 3742.731
422.904, 3558.865
424.245, 3057.972
425.586, 2281.047
426.927, 1792.088
428.268, 1295.768
429.609, 983.742
430.949, 799.135
432.289, 705.032
433.629, 756.469
434.969, 916.312
436.309, 1164.125
437.648, 1559.902
438.987, 2069.661
440.326, 2623.388
441.665, 3205.082
443.003, 3051.387
444.342, 3280.436
445.680, 2470.065
447.018, 1900.664
448.355, 1270.230
449.693, 872.763
451.030, 629.262
452.367, 605.728
453.704, 420.162
455.041, 318.562
456.377, 351.931
457.713, 358.268
459.049, 246.573
460.385, 288.844
461.721, 294.082
463.056, 178.288
464.391, 208.456
465.726, 323.591
467.061, 162.692
468.395, 148.757
469.730, 183.785
471.064, 90.776
472.398, 132.729
473.731, 5.644
475.065, 135.511
476.398, 134.342
477.731, 210.164
479.064, 202.951
480.397, 286.705
481.729, 253.431
483.062, 219.126
484.394, 176.804
485.725, 253.464
487.057, 223.109
488.389, 276.725
489.720, 92.313
491.051, 149.882
492.382, 154.417
493.712, 204.979
495.043, 128.208
496.373, 132.341
497.703, 94.292
499.032, 282.219
500.362, 216.102
501.691, 402.411
503.020, 277.359
504.349, 371.498
505.678, 319.797
507.007, 167.672
508.335, 309.599
509.663, 296.536
510.991, 216.729
512.319, 144.889
513.646, 158.015
514.973, 187.112
516.300, 122.178
517.627, 177.205
518.954, 14.800
520.280, 233.129
521.607, 104.948
522.933, 199.670
524.259, 35.235
525.584, 247.887
526.910, 255.623
528.235, 155.118
529.560, 246.327
530.885, 67.019
532.209, 57.511
533.534, 135.755
534.858, 107.084
536.182, 86.646
537.506, 24.207
538.829, 74.757
540.152, 76.726
541.476, 53.728
542.799, 153.847
544.121, 73.535
545.444, 15.289
546.766, 72.095
548.088, 98.994
549.410, 95.004
550.732, 103.278
552.053, 100.343
553.375, 58.677
554.696, 68.100
556.017, 18.616
557.337, 152.799
558.658, 213.180
559.978, 270.527
561.298, 482.846
562.618, 513.134
563.938, 520.684
565.257, 513.914
566.576, 481.199
567.895, 514.839
569.214, 580.153
570.533, 735.295
571.851, 938.998
573.170, 1310.056
574.488, 1222.626
575.805, 1082.599
577.123, 1226.876
578.440, 1548.460
579.758, 1787.894
581.075, 1664.310
582.391, 1938.019
583.708, 1806.988
585.024, 1691.148
586.341, 1720.483
587.657, 1610.227
588.972, 1545.941
590.288, 1223.688
591.603, 1145.988
592.918, 1170.922
594.233, 1162.032
595.548, 1175.606
596.863, 1196.499
598.177, 1205.725
599.491, 1240.283
600.805, 1152.589
602.119, 1095.021
603.432, 1057.020
604.746, 1054.945
606.059, 974.394
607.372, 800.914
608.685, 858.209
609.997, 709.474
611.309, 680.712
612.621, 539.923
613.933, 796.106
615.245, 752.262
616.557, 756.390
617.868, 965.196
619.179, 888.151
620.490, 898.100
621.801, 1184.535
623.111, 1127.070
624.421, 1380.039
625.731, 1042.326
627.041, 1318.529
628.351, 812.852
629.660, 682.731
630.970, 767.786
632.279, 492.002
633.588, 509.016
634.896, 331.410
636.205, 599.684
637.513, 368.924
638.821, 542.906
640.129, 684.285
641.437, 758.387
642.744, 826.459
644.051, 736.008
645.358, 842.359
646.665, 820.251
647.972, 765.238
649.278, 795.015
650.584, 895.873
651.890, 924.959
653.196, 804.854
654.502, 798.913
655.807, 704.182
657.113, 693.524
658.418, 849.956
659.722, 770.575
661.027, 654.013
662.331, 667.376
663.636, 930.001
664.940, 927.565
666.244, 1271.819
667.547, 1272.875
668.851, 1799.571
670.154, 2196.081
671.457, 2498.387
672.760, 3502.886
674.062, 4431.244
675.365, 5879.652
676.667, 8090.598
677.969, 11686.794
679.271, 16620.031
680.572, 23095.746
681.874, 31124.943
683.175, 37485.508
684.476, 37984.480
685.777, 32987.605
687.077, 25137.096
688.378, 18791.707
689.678, 13652.209
690.978, 10321.172
692.278, 7428.993
693.577, 6328.691
694.877, 4801.340
696.176, 4189.895
697.475, 3185.523
698.774, 3020.827
700.072, 2450.564
701.371, 2165.319
702.669, 1703.709
703.967, 1553.512
705.265, 1529.608
706.562, 1320.940
707.860, 785.738
709.157, 984.710
710.454, 605.289
711.751, 693.271
713.047, 443.354
714.344, 455.073
715.640, 259.035
716.936, 316.227
718.232, 356.634
719.527, 116.029
720.823, 222.410
722.118, 163.777
723.413, 71.134
724.708, 141.475
726.002, 174.801
727.297, 33.117
728.591, 194.417
729.885, 128.706
731.179, 105.980
732.472, 104.243
733.766, 23.492
735.059, 51.725
736.352, 47.942
737.645, 1.146
738.937, 139.330
740.230, 86.502
741.522, 36.662
742.814, 178.808
744.106, 232.943
745.397, 155.067
746.689, 15.183
747.980, 95.283
749.271, 45.371
750.562, 187.446
751.853, 54.487
753.143, 3.539
754.433, 147.549
755.723, 130.450
757.013, 174.473
758.303, 20.388
759.592, 30.290
760.881, 89.180
762.170, 268.059
763.459, 408.928
764.748, 405.790
766.036, 936.645
767.325, 1063.491
768.613, 1635.330
769.901, 1857.160
771.188, 1832.985
772.476, 1875.802
773.763, 1125.611
775.050, 1048.416
776.337, 793.213
777.624, 565.006
778.910, 424.795
780.196, 403.574
781.482, 200.352
782.768, 214.123
784.054, 182.119
785.339, 166.885
786.625, 34.354
787.910, 263.439
789.195, 116.814
790.479, 180.871
791.764, 139.939
793.048, 39.713
794.332, 212.383
795.616, 7.953
796.900, 28.781
798.183, 27.150
799.467, 93.750
800.750, 11.750
802.033, 66.289
803.316, 174.387
804.598, 243.053
805.880, 107.797
807.163, 20.287
808.445, 24.867
809.726, 7.979
811.008, 100.498
812.289, 6.883
813.570, 63.824
814.851, 54.193
816.132, 112.557
817.413, 48.088
818.693, 158.352
819.973, 17.904
821.253, 169.406
822.533, 204.711
823.813, 98.014
825.092, 38.686
826.371, 230.029
827.650, 92.314
828.929, 171.600
830.208, 378.889
831.486, 1.809
832.764, 79.834
834.042, 54.139
835.320, 292.447
836.598, 208.762
837.875, 32.105
839.152, 160.447
840.429, 277.820
841.706, 233.199
842.983, 204.600
844.259, 411.055
845.536, 297.516
846.812, 216.988
848.088, 416.469
849.363, 482.984
850.639, 631.523
851.914, 571.141
853.189, 666.805
854.464, 761.109
855.739, 1189.328
857.013, 1010.150
858.288, 1123.023
859.562, 1344.969
860.836, 1308.969
862.110, 1015.012
863.383, 1028.105
864.656, 877.250
865.930, 906.445
867.203, 559.668
868.475, 527.949
869.748, 237.230
871.020, 396.520
872.292, 290.807
873.564, 299.807
874.836, 214.121
876.108, 186.354
877.379, 511.201
878.650, 373.350
879.922, 401.646
881.192, 246.354
882.463, 235.678
883.733, 279.791
885.004, 174.811
886.274, 241.824
887.544, 354.512
888.813, 148.316
890.083, 232.104
891.352, 475.570
892.621, 296.742
893.890, 293.695
895.159, 315.439
896.427, 295.750
897.695, 455.059
898.964, 414.309
900.232, 407.973
901.499, 547.975
902.767, 537.766
904.034, 510.064
905.301, 753.010
906.568, 732.598
907.835, 846.814
909.102, 668.256
910.368, 799.539
911.634, 932.256
912.900, 893.016
914.166, 1095.027
915.432, 686.332
916.697, 657.631
917.962, 870.928
919.227, 646.217
920.492, 678.502
921.757, 463.779
923.021, 517.051
924.285, 495.312
925.550, 364.568
926.813, 345.814
928.077, 207.051
929.341, 360.277
930.604, 451.498
931.867, 284.707
933.130, 199.908
934.393, 423.100
935.655, 113.281
936.918, 422.453
938.180, 240.613
939.442, 159.736
940.703, 279.877
941.965, 177.596
943.226, 76.715
944.488, 146.801
945.749, 295.457
947.009, 221.541
948.270, 48.721
949.530, 288.084
950.791, 105.514
952.051, 81.346
953.311, 29.176
954.570, 149.379
955.830, 317.361
957.089, 67.244
958.348, 52.066
959.607, 241.797
960.866, 37.730
962.124, 150.332
963.383, 191.068
964.641, 38.408
965.899, 230.969
967.156, 293.586
968.414, 233.332
969.671, 150.756
970.928, 79.570
972.185, 298.250
973.442, 186.033
974.699, 352.805
975.955, 298.424
977.211, 80.906
978.468, 424.234
979.723, 371.488
980.979, 239.969
982.234, 629.447
983.490, 110.371
984.745, 398.129
986.000, 572.086
987.254, 356.475
988.509, 820.963
989.763, 663.082
991.017, 809.828
992.271, 748.131
993.525, 1040.609
994.779, 1383.328
996.032, 1297.662
997.285, 1689.520
998.538, 1652.346
999.791, 2537.203
1001.044, 2637.656
1002.296, 3231.256
1003.548, 3066.592
1004.800, 2638.393
1006.052, 2419.307
1007.304, 2144.021
1008.555, 2101.877
1009.807, 1680.859
1011.058, 1581.260
1012.309, 1580.533
1013.559, 1321.840
1014.810, 1138.395
1016.060, 1261.730
1017.310, 1215.688
1018.560, 1233.053
1019.810, 1042.646
1021.060, 1287.141
1022.309, 1240.385
1023.558, 1248.334
1024.807, 1000.627
1026.056, 998.570
1027.305, 860.568
1028.553, 832.891
1029.801, 1002.998
1031.049, 879.742
1032.297, 858.623
1033.545, 969.688
1034.793, 843.639
1036.040, 814.863
1037.287, 848.502
1038.534, 963.133
1039.781, 971.137
1041.027, 766.775
1042.274, 963.094
1043.520, 1081.479
1044.766, 822.779
1046.012, 960.180
1047.257, 978.836
1048.503, 1106.652
1049.748, 912.742
1050.993, 1333.283
1052.238, 1215.408
1053.483, 1123.674
1054.727, 1290.184
1055.971, 1658.600
1057.216, 1686.738
1058.459, 1894.674
1059.703, 2254.480
1060.947, 2484.867
1062.190, 3200.051
1063.433, 3686.785
1064.676, 4444.941
1065.919, 4940.129
1067.162, 5997.746
1068.404, 5744.969
1069.646, 5777.773
1070.888, 5688.568
1072.130, 4728.281
1073.372, 4326.949
1074.613, 3815.572
1075.855, 3231.156
1077.096, 2769.693
1078.337, 2529.002
1079.578, 2379.645
1080.818, 2253.055
1082.059, 2257.422
1083.299, 2073.227
1084.539, 1991.023
1085.779, 1790.031
1087.018, 1553.221
1088.258, 1377.365
1089.497, 1324.430
1090.736, 1191.488
1091.975, 1107.533
1093.213, 973.145
1094.452, 897.619
1095.690, 826.256
1096.928, 790.766
1098.166, 715.057
1099.404, 760.832
1100.642, 727.350
1101.879, 785.570
1103.116, 565.846
1104.353, 695.342
1105.590, 501.898
1106.827, 645.055
1108.063, 441.094
1109.299, 565.570
1110.536, 472.516
1111.771, 636.820
1113.007, 521.158
1114.243, 498.885
1115.478, 442.123
1116.713, 523.314
1117.948, 629.455
1119.183, 615.293
1120.418, 523.076
1121.652, 636.100
1122.886, 731.070
1124.120, 668.070
1125.354, 324.941
1126.588, 336.326
1127.821, 104.088
1129.055, 295.783
1130.288, 294.420
1131.521, 280.992
1132.753, 46.164
1133.986, 119.600
1135.218, 305.967
1136.450, 65.729
1137.682, 271.447
1138.914, 53.381
1140.146, 27.682
1141.377, 16.736
1142.609, 131.953
1143.840, 105.664
1145.071, 53.240
1146.301, 55.467
1147.532, 53.934
1148.762, 15.555
1149.992, 113.461
1151.222, 93.305
1152.452, 12.535
1153.682, 86.760
1154.911, 57.436
1156.140, 22.293
1157.369, 56.254
1158.598, 0.627
1159.827, 89.506
1161.055, 25.215
1162.284, 18.143
1163.512, 30.816
1164.740, 116.125
1165.967, 173.578
1167.195, 356.383
1168.422, 59.125
1169.650, 210.752
1170.877, 101.465
1172.103, 32.057
1173.330, 96.012
1174.557, 240.645
1175.783, 106.871
1177.009, 42.148
1178.235, 279.418
1179.461, 239.725
1180.686, 187.678
1181.912, 207.246
1183.137, 373.859
1184.362, 35.438
1185.587, 261.381
1186.811, 404.256
1188.036, 245.502
1189.260, 315.934
1190.484, 297.525
1191.708, 309.383
1192.932, 109.264
1194.155, 209.139
1195.378, 171.250
1196.602, 326.988
1197.825, 212.061
1199.047, 302.635
1200.270, 261.557
1201.492, 433.102
1202.715, 85.602
1203.937, 522.055
1205.159, 311.002
1206.380, 340.738
1207.602, 58.588
1208.823, 231.197
1210.044, 137.641
1211.265, 220.090
1212.486, 440.400
1213.707, 328.646
1214.927, 413.168
1216.147, 263.279
1217.367, 494.773
1218.587, 699.025
1219.807, 544.764
1221.027, 660.205
1222.246, 503.010
1223.465, 835.738
1224.684, 1128.781
1225.903, 1132.670
1227.121, 1039.219
1228.340, 1434.189
1229.558, 1509.619
1230.776, 1213.012
1231.994, 1315.314
1233.212, 1505.559
1234.429, 1411.793
1235.646, 1459.906
1236.864, 1809.270
1238.081, 2020.238
1239.297, 2404.090
1240.514, 2841.875
1241.730, 3268.582
1242.947, 4111.211
1244.163, 4393.758
1245.378, 4756.232
1246.594, 4558.607
1247.810, 3584.918
1249.025, 3185.150
1250.240, 2385.328
1251.455, 2125.871
1252.670, 1610.885
1253.885, 1334.094
1255.099, 1136.900
1256.313, 766.732
1257.527, 929.465
1258.741, 920.127
1259.955, 485.811
1261.168, 677.338
1262.382, 648.680
1263.595, 729.703
1264.808, 643.018
1266.021, 620.262
1267.233, 663.059
1268.446, 930.178
1269.658, 455.881
1270.870, 749.848
1272.082, 634.111
1273.294, 499.354
1274.505, 658.715
1275.716, 804.623
1276.928, 595.205
1278.139, 653.430
1279.349, 668.059
1280.560, 670.152
1281.770, 513.887
1282.981, 588.590
1284.191, 437.797
1285.401, 428.301
1286.610, 280.365
1287.820, 529.775
1289.029, 206.404
1290.239, 507.896
1291.448, 216.008
1292.656, 330.217
1293.865, 352.471
1295.073, 452.305
1296.282, 340.076
1297.490, 472.666
1298.698, 536.947
1299.906, 216.275
1301.113, 179.309
1302.320, 203.350
1303.528, 217.207
1304.735, 44.092
1305.942, 219.336
1307.148, 217.191
1308.355, 269.279
1309.561, 405.186
1310.767, 238.738
1311.973, 287.766
1313.179, 99.752
1314.384, 332.449
1315.590, 294.129
1316.795, 496.811
1318.000, 169.553
1319.205, 237.465
1320.410, 316.109
1321.614, 77.465
1322.819, 269.146
1324.023, 242.791
1325.227, 364.764
1326.431, 149.639
1327.634, 122.414
1328.838, 116.092
1330.041, 249.664
1331.244, 250.139
1332.447, 21.516
1333.650, 94.791
1334.852, 33.033
1336.055, 190.043
1337.257, 169.023
1338.459, 152.443
1339.661, 89.693
1340.862, 151.383
1342.064, 76.967
1343.265, 156.451
1344.466, 76.842
1345.667, 129.131
1346.868, 123.320
1348.068, 116.406
1349.269, 6.691
1350.469, 252.955
1351.669, 250.652
1352.869, 197.279
1354.069, 327.838
1355.268, 45.371
1356.468, 431.922
1357.667, 388.281
1358.866, 17.654
1360.065, 524.518
1361.263, 138.441
1362.462, 180.436
1363.660, 420.555
1364.858, 149.068
1366.056, 314.840
1367.254, 336.635
1368.451, 144.863
1369.649, 167.818
1370.846, 269.904
1372.043, 115.824
1373.240, 436.959
1374.436, 221.910
1375.633, 311.555
1376.829, 230.848
1378.025, 212.518
1379.221, 327.418
1380.417, 147.344
1381.613, 227.811
1382.808, 439.576
1384.003, 484.520
1385.199, 360.055
1386.393, 286.092
1387.588, 490.504
1388.783, 241.449
1389.977, 415.410
1391.171, 376.092
1392.365, 297.727
1393.559, 397.299
1394.753, 81.170
1395.946, 375.266
1397.140, 124.402
1398.333, 333.117
1399.526, 178.494
1400.719, 353.262
1401.911, 211.957
1403.104, 161.547
1404.296, 202.582
1405.488, 354.822
1406.680, 57.414
1407.872, 182.062
1409.063, 420.914
1410.255, 53.836
1411.446, 211.488
1412.637, 64.125
1413.828, 208.092
1415.018, 303.367
1416.209, 314.094
1417.399, 122.033
1418.589, 426.256
1419.779, 88.088
1420.969, 302.553
1422.159, 115.479
1423.348, 277.686
1424.537, 115.449
1425.726, 0.203
1426.915, 224.854
1428.104, 0.000
##END=



