##NAMES=Beryl
##RRUFFID=R060944
##IDEAL CHEMISTRY=Be_3_Al_2_Si_6_O_18_
##LOCALITY=Habachtal, Salzburg, Austria
##OWNER=RRUFF
##SOURCE=Lawrence W. Snee
##DESCRIPTION=Green hexagonal prisms in a muscovite schist, variety emerald. Note that there are micro inclusions of actinolite. The Raman signal is a mixture of the two phases.
##STATUS=The identification of this mineral has been confirmed by X-ray diffraction and chemical analysis
##URL=rruff.info/R060944
##MEASURED CHEMISTRY=Be_3.00_(Al_1.59_Mg_0.33_Fe^3+^_0.04_Cr^3+^_0.04_)_Σ=2_Si_6.00_O_18_·Na_0.33_ ; bright inclusions are actinolite
##PIN_ID=L01950
##ORIENTATION=Laser parallel to c* (0 0 1). Fiducial mark perpendicular to laser is parallel to -b [0 -1 0]
130.4390, 0.0000000E+00
131.6680, 195.7520
132.8980, 81.41309
134.1270, 173.6035
135.3560, 2.656250
136.5850, 75.78125
137.8140, 150.4170
139.0430, 428.5781
140.2710, 521.4268
141.5000, 402.7236
142.7280, 137.1572
143.9560, 198.4756
145.1840, 32.53027
146.4120, 28.03320
147.6390, 78.82422
148.8670, 168.9160
150.0940, 394.1455
151.3210, 702.4072
152.5490, 1107.602
153.7750, 1333.645
155.0020, 2184.465
156.2290, 3055.014
157.4550, 3681.249
158.6810, 3662.130
159.9080, 3003.620
161.1340, 2090.687
162.3590, 1622.293
163.5850, 1273.408
164.8110, 1292.003
166.0360, 1111.051
167.2610, 988.5762
168.4860, 979.5537
169.7110, 1133.877
170.9360, 1483.514
172.1610, 1756.439
173.3850, 2394.639
174.6100, 3284.092
175.8340, 4273.787
177.0580, 4888.717
178.2820, 4698.885
179.5050, 3557.322
180.7290, 2635.039
181.9520, 1831.038
183.1760, 1387.318
184.3990, 959.8652
185.6220, 682.6611
186.8450, 595.6924
188.0670, 580.9453
189.2900, 518.4062
190.5120, 499.0664
191.7340, 483.9131
192.9560, 499.3271
194.1780, 653.1318
195.4000, 546.4834
196.6220, 608.9893
197.8430, 582.6387
199.0640, 503.4258
200.2860, 675.3438
201.5070, 970.3867
202.7270, 1133.551
203.9480, 1087.351
205.1690, 845.8008
206.3890, 635.1240
207.6090, 946.2783
208.8290, 1040.447
210.0490, 1456.636
211.2690, 1929.850
212.4890, 2297.083
213.7080, 3202.359
214.9280, 3883.682
216.1470, 4919.057
217.3660, 6116.484
218.5850, 7808.967
219.8030, 9222.506
221.0220, 10665.10
222.2400, 11158.80
223.4590, 11108.67
224.6770, 11140.74
225.8950, 11617.28
227.1120, 12829.33
228.3300, 14213.75
229.5480, 15354.38
230.7650, 15297.11
231.9820, 13616.17
233.1990, 11421.48
234.4160, 8876.896
235.6330, 6837.346
236.8490, 5494.803
238.0660, 4235.269
239.2820, 3962.741
240.4980, 3311.223
241.7140, 3248.715
242.9300, 3510.215
244.1460, 3911.728
245.3610, 4189.248
246.5770, 4488.779
247.7920, 4479.319
249.0070, 4144.869
250.2220, 3465.427
251.4370, 2895.994
252.6510, 2302.571
253.8660, 1781.157
255.0800, 1322.752
256.2940, 1186.355
257.5080, 1160.968
258.7220, 1924.585
259.9360, 2026.211
261.1490, 1138.844
262.3630, 1054.482
263.5760, 618.1260
264.7890, 814.7754
266.0020, 883.4287
267.2150, 938.0869
268.4270, 755.7500
269.6400, 584.4180
270.8520, 264.0879
272.0640, 245.7607
273.2760, 110.4385
274.4880, 8.598633
275.7000, 36.20020
276.9120, 69.74316
278.1230, 16.38867
279.3340, 26.83496
280.5450, 41.62695
281.7560, 10.14355
282.9670, 149.6396
284.1780, 109.5234
285.3880, 239.5312
286.5980, 275.6973
287.8090, 312.0098
289.0190, 414.4590
290.2290, 511.0371
291.4380, 425.9502
292.6480, 625.2090
293.8570, 325.1250
295.0670, 269.1406
296.2760, 187.2510
297.4850, 308.4502
298.6930, 248.2148
299.9020, 351.1006
301.1110, 277.5449
302.3190, 236.0615
303.5270, 270.6494
304.7350, 151.3037
305.9430, 291.0244
307.1510, 188.8057
308.3580, 218.6455
309.5660, 287.5420
310.7730, 343.4922
311.9800, 480.9102
313.1870, 708.5195
314.3940, 873.5166
315.6010, 990.2764
316.8070, 1111.467
318.0130, 1436.865
319.2200, 1644.747
320.4260, 1802.250
321.6310, 2003.216
322.8370, 2078.711
324.0430, 2086.244
325.2480, 1959.242
326.4540, 1519.436
327.6590, 1215.180
328.8640, 730.6738
330.0680, 628.1299
331.2730, 406.9629
332.4780, 332.9727
333.6820, 554.5967
334.8860, 526.6250
336.0900, 524.0576
337.2940, 768.4023
338.4980, 887.9775
339.7010, 1157.686
340.9050, 1557.407
342.1080, 1735.169
343.3110, 2047.942
344.5140, 2230.739
345.7170, 2119.545
346.9200, 2297.361
348.1220, 2496.266
349.3240, 2013.224
350.5270, 2005.055
351.7290, 1828.894
352.9310, 1727.742
354.1320, 1633.643
355.3340, 1585.750
356.5350, 1744.627
357.7370, 1731.513
358.9380, 2136.406
360.1390, 2193.310
361.3400, 2426.221
362.5400, 3082.138
363.7410, 3293.063
364.9410, 3672.996
366.1410, 3691.936
367.3410, 3716.882
368.5410, 3625.832
369.7410, 3461.787
370.9400, 3296.745
372.1400, 2840.701
373.3390, 2681.016
374.5380, 2424.529
375.7370, 2297.557
376.9360, 2092.501
378.1350, 2228.438
379.3330, 2317.369
380.5310, 2326.293
381.7300, 2869.209
382.9280, 3215.118
384.1260, 3800.020
385.3230, 4479.914
386.5210, 5396.803
387.7180, 6302.682
388.9160, 7822.555
390.1130, 9219.419
391.3100, 10306.27
392.5060, 11194.12
393.7030, 11525.97
394.9000, 11680.79
396.0960, 11783.62
397.2920, 11554.43
398.4880, 11265.24
399.6840, 10484.04
400.8800, 9426.824
402.0750, 8665.605
403.2710, 7365.375
404.4660, 6946.139
405.6610, 6354.920
406.8560, 6117.666
408.0510, 5893.401
409.2450, 5883.128
410.4400, 5937.847
411.6340, 5872.557
412.8280, 5852.259
414.0220, 5448.949
415.2160, 5371.633
416.4100, 4727.309
417.6030, 4542.974
418.7970, 4160.632
419.9900, 3951.924
421.1830, 3535.642
422.3760, 2987.170
423.5690, 2570.841
424.7610, 2452.518
425.9540, 2435.124
427.1460, 2214.818
428.3380, 2186.519
429.5300, 2323.221
430.7220, 2495.928
431.9140, 3027.638
433.1050, 3367.349
434.2970, 3730.062
435.4880, 3682.779
436.6790, 3272.498
437.8700, 2842.219
439.0610, 2421.938
440.2510, 2110.656
441.4420, 1814.371
442.6320, 1459.085
443.8220, 1195.117
445.0120, 889.5059
446.2020, 675.2100
447.3910, 408.9111
448.5810, 221.6084
449.7700, 80.30078
450.9600, 126.9873
452.1490, 112.6709
453.3370, 158.3477
454.5260, 35.01953
455.7150, 22.32227
456.9030, 58.70410
458.0910, 32.85352
459.2800, 42.60449
460.4670, 108.1162
461.6550, 257.7178
462.8430, 202.4873
464.0300, 256.3975
465.2180, 295.4756
466.4050, 119.7451
467.5920, 126.1123
468.7790, 64.58203
469.9650, 24.64062
471.1520, 34.28809
472.3380, 34.32129
473.5250, 166.9873
474.7110, 248.7793
475.8970, 66.73926
477.0820, 40.77344
478.2680, 1.130859
479.4540, 2.997070
480.6390, 41.10352
481.8240, 161.9111
483.0090, 297.7070
484.1940, 204.3389
485.3780, 345.2178
486.5630, 148.7881
487.7470, 185.5381
488.9320, 228.2744
490.1160, 123.1436
491.3000, 109.8545
492.4830, 156.5518
493.6670, 167.2354
494.8500, 214.9072
496.0340, 135.5654
497.2170, 92.21094
498.4000, 369.8408
499.5820, 285.4561
500.7650, 322.0596
501.9480, 432.6484
503.1300, 443.2236
504.3120, 719.7871
505.4940, 665.3359
506.6760, 597.8701
507.8580, 894.3906
509.0390, 1035.897
510.2210, 1442.390
511.4020, 1747.869
512.5830, 1961.333
513.7640, 2183.113
514.9450, 2378.939
516.1250, 2540.469
517.3060, 2686.047
518.4860, 2806.439
519.6660, 2902.818
520.8460, 2971.187
522.0260, 3083.561
523.2060, 3171.919
524.3850, 3191.266
525.5650, 3073.608
526.7440, 3250.939
527.9230, 3181.264
529.1020, 2838.576
530.2810, 2411.875
531.4590, 2032.167
532.6380, 1501.443
533.8160, 1318.713
534.9940, 997.9844
536.1720, 808.2402
537.3500, 697.4814
538.5270, 559.7080
539.7050, 480.9180
540.8820, 385.1152
542.0590, 193.2959
543.2360, 185.4922
544.4130, 198.7168
545.5900, 300.9531
546.7660, 165.1738
547.9430, 300.4150
549.1190, 200.6455
550.2950, 214.8906
551.4710, 415.1836
552.6470, 471.4873
553.8220, 706.7910
554.9980, 811.0967
556.1730, 1015.408
557.3480, 1040.738
558.5230, 1211.077
559.6980, 1503.424
560.8730, 1585.772
562.0470, 1575.123
563.2220, 1646.479
564.3960, 1534.844
565.5700, 1633.216
566.7440, 1548.580
567.9170, 1697.927
569.0910, 1481.271
570.2640, 1554.600
571.4380, 1512.910
572.6110, 1494.224
573.7840, 1597.521
574.9570, 1395.828
576.1290, 1318.167
577.3020, 1395.507
578.4740, 1244.862
579.6460, 1203.217
580.8180, 1253.553
581.9900, 1166.870
583.1620, 1128.171
584.3330, 1052.454
585.5040, 960.7471
586.6760, 918.0312
587.8470, 933.2959
589.0180, 861.5801
590.1880, 825.8457
591.3590, 751.1104
592.5290, 689.3555
593.7000, 631.5811
594.8700, 518.7900
596.0400, 505.5703
597.2090, 476.1982
598.3790, 432.5547
599.5490, 566.0068
600.7180, 373.1436
601.8870, 484.0947
603.0560, 387.5840
604.2250, 308.4727
605.3940, 272.9170
606.5620, 327.8516
607.7300, 248.7637
608.8990, 269.2295
610.0670, 200.5127
611.2350, 379.2607
612.4020, 382.5205
613.5700, 655.3291
614.7370, 358.0195
615.9050, 437.5420
617.0720, 106.4600
618.2390, 132.9785
619.4060, 88.10156
620.5720, 3.685547
621.7390, 96.30176
622.9050, 113.1582
624.0710, 102.9971
625.2370, 20.78320
626.4030, 38.44824
627.5690, 80.28809
628.7340, 94.01270
629.9000, 12.72559
631.0650, 355.3496
632.2300, 339.9014
633.3950, 309.5771
634.5600, 214.2393
635.7240, 310.8896
636.8890, 416.4863
638.0530, 579.8711
639.2170, 705.4854
640.3810, 838.6357
641.5450, 897.6738
642.7080, 1088.249
643.8720, 1276.812
645.0350, 1364.361
646.1980, 1618.898
647.3610, 1639.423
648.5240, 1885.933
649.6870, 2093.432
650.8490, 2143.918
652.0120, 2469.390
653.1740, 2757.848
654.3360, 2960.293
655.4980, 3313.724
656.6600, 3854.445
657.8210, 4250.851
658.9830, 5048.299
660.1440, 5635.520
661.3050, 6970.285
662.4660, 8394.772
663.6270, 10141.37
664.7870, 12690.47
665.9480, 15692.92
667.1080, 19147.14
668.2680, 23813.21
669.4280, 28364.78
670.5880, 32645.46
671.7480, 35426.77
672.9070, 35722.55
674.0670, 34290.43
675.2260, 30780.61
676.3850, 27882.92
677.5440, 25280.19
678.7030, 24372.32
679.8610, 24619.73
681.0200, 26260.97
682.1780, 28800.70
683.3360, 32085.03
684.4940, 35724.00
685.6520, 38562.25
686.8090, 39448.54
687.9670, 37471.65
689.1240, 33691.18
690.2810, 28109.12
691.4380, 23514.82
692.5950, 19011.38
693.7520, 15477.19
694.9080, 12440.13
696.0650, 10393.59
697.2210, 8503.916
698.3770, 7489.116
699.5330, 6342.956
700.6880, 5378.181
701.8440, 4812.418
702.9990, 4341.935
704.1550, 3953.093
705.3100, 3406.256
706.4650, 3173.920
707.6190, 2817.699
708.7740, 2729.395
709.9290, 2294.199
711.0830, 2085.252
712.2370, 1877.797
713.3910, 1819.233
714.5450, 1595.035
715.6980, 1606.531
716.8520, 1376.832
718.0050, 1408.970
719.1580, 1234.409
720.3110, 1220.878
721.4640, 1047.439
722.6170, 1084.754
723.7700, 961.8818
724.9220, 917.0410
726.0740, 968.2734
727.2260, 1018.439
728.3780, 867.6836
729.5300, 1072.252
730.6810, 931.3770
731.8330, 790.4717
732.9840, 1036.172
734.1350, 964.8828
735.2860, 1115.931
736.4370, 1112.935
737.5880, 1340.589
738.7380, 1351.569
739.8880, 1379.648
741.0390, 1468.637
742.1890, 1492.348
743.3380, 1645.756
744.4880, 1653.888
745.6380, 1609.083
746.7870, 1807.293
747.9360, 1873.521
749.0850, 1806.755
750.2340, 1816.169
751.3830, 1615.183
752.5310, 1609.379
753.6800, 1573.606
754.8280, 1421.886
755.9760, 1356.168
757.1240, 1253.448
758.2720, 1167.714
759.4190, 1148.688
760.5670, 1038.918
761.7140, 978.1182
762.8610, 998.4443
764.0080, 923.2461
765.1550, 796.7959
766.3020, 805.8896
767.4480, 761.9551
768.5950, 576.8496
769.7410, 660.8613
770.8870, 619.8467
772.0330, 532.8057
773.1780, 502.7383
774.3240, 501.6436
775.4690, 497.5225
776.6140, 445.3750
777.7590, 394.2021
778.9040, 504.0020
780.0490, 475.7744
781.1940, 305.5215
782.3380, 210.2412
783.4820, 353.5449
784.6260, 207.8506
785.7700, 222.4717
786.9140, 187.8555
788.0580, 175.4434
789.2010, 291.0039
790.3450, 303.5391
791.4880, 279.0479
792.6310, 191.5303
793.7730, 98.98730
794.9160, 210.4150
796.0590, 155.8154
797.2010, 57.19141
798.3430, 19.46777
799.4850, 133.8076
800.6270, 102.0566
801.7690, 5.276367
802.9100, 129.4443
804.0520, 20.58594
805.1930, 53.68262
806.3340, 85.74707
807.4750, 30.78223
808.6160, 139.7793
809.7560, 25.75000
810.8970, 12.31836
812.0370, 165.5518
813.1770, 119.3984
814.3170, 125.2188
815.4570, 155.5244
816.5960, 77.78516
817.7360, 113.5283
818.8750, 62.75293
820.0140, 121.1172
821.1530, 52.59668
822.2920, 92.84863
823.4310, 91.73340
824.5690, 27.58984
825.7070, 65.12207
826.8460, 199.9160
827.9840, 53.86133
829.1220, 20.88086
830.2590, 25.95801
831.3970, 45.09375
832.5340, 86.29785
833.6710, 53.59180
834.8080, 52.82715
835.9450, 32.39355
837.0820, 23.88867
838.2190, 25.43848
839.3550, 63.04199
840.4910, 58.71973
841.6270, 3.534180
842.7630, 152.7500
843.8990, 25.05566
845.0350, 76.08984
846.1700, 41.21387
847.3060, 49.68457
848.4410, 92.35742
849.5760, 90.62109
850.7100, 161.6816
851.8450, 46.85840
852.9800, 109.0918
854.1140, 44.41309
855.2480, 57.21191
856.3820, 40.81738
857.5160, 9.405273
858.6500, 90.96973
859.7830, 100.4824
860.9170, 23.01270
862.0500, 52.42090
863.1830, 138.1631
864.3160, 27.15918
865.4480, 68.53516
866.5810, 133.7148
867.7130, 56.95020
868.8460, 9.827148
869.9780, 11.62891
871.1100, 37.49316
872.2410, 74.68848
873.3730, 50.18262
874.5050, 53.90723
875.6360, 1.6602000E-02
876.7670, 96.04492
877.8980, 266.0947
879.0290, 33.13086
880.1590, 160.1562
881.2900, 37.16895
882.4200, 15.16895
883.5500, 58.78711
884.6800, 57.13184
885.8100, 118.0957
886.9400, 167.0469
888.0690, 245.9873
889.1990, 284.4551
890.3280, 304.0244
891.4570, 361.7393
892.5860, 325.6328
893.7140, 333.5293
894.8430, 360.4150
895.9710, 535.3047
897.1000, 471.1846
898.2280, 460.0566
899.3560, 425.9463
900.4830, 650.8301
901.6110, 713.7168
902.7380, 727.5947
903.8660, 717.4648
904.9930, 787.3291
906.1200, 870.1865
907.2460, 928.0371
908.3730, 1084.882
909.5000, 775.7207
910.6260, 947.5537
911.7520, 1065.380
912.8780, 1021.201
914.0040, 1216.019
915.1290, 1318.831
916.2550, 1441.639
917.3800, 1602.442
918.5050, 1760.513
919.6300, 1981.040
920.7550, 2143.835
921.8800, 2400.626
923.0040, 2634.416
924.1290, 2843.201
925.2530, 3240.987
926.3770, 3910.773
927.5010, 4284.558
928.6250, 4455.340
929.7480, 4451.820
930.8720, 4016.603
931.9950, 3763.328
933.1180, 3198.268
934.2410, 2518.648
935.3640, 2250.300
936.4860, 1900.822
937.6090, 1655.831
938.7310, 1542.484
939.8530, 1275.357
940.9750, 1327.360
942.0970, 1374.851
943.2180, 1205.229
944.3400, 1473.969
945.4610, 1487.214
946.5820, 1329.360
947.7030, 1338.188
948.8240, 1319.886
949.9450, 1215.621
951.0650, 957.4668
952.1860, 953.0293
953.3060, 757.7539
954.4260, 693.9941
955.5460, 578.6133
956.6650, 597.5762
957.7850, 565.2773
958.9040, 369.8809
960.0230, 375.6953
961.1420, 595.0723
962.2610, 348.0449
963.3800, 426.2441
964.4990, 311.5762
965.6170, 121.6523
966.7350, 173.5938
967.8530, 359.0176
968.9710, 180.5625
970.0890, 297.2266
971.2070, 288.2500
972.3240, 252.8848
973.4410, 131.4980
974.5580, 307.8320
975.6750, 217.5195
976.7920, 427.1973
977.9090, 422.3711
979.0250, 403.4258
980.1410, 544.5625
981.2580, 359.5879
982.3740, 542.3613
983.4890, 638.6406
984.6050, 925.0254
985.7200, 997.0449
986.8360, 1052.367
987.9510, 1235.885
989.0660, 1274.564
990.1810, 1547.943
991.2950, 1873.301
992.4100, 1982.576
993.5240, 2095.121
994.6390, 2562.881
995.7530, 2643.631
996.8660, 2820.326
997.9800, 2864.102
999.0940, 3187.836
1000.207, 3059.248
1001.320, 3200.152
1002.433, 3047.117
1003.546, 3323.480
1004.659, 3096.842
1005.772, 3243.881
1006.884, 3079.984
1007.996, 3029.469
1009.108, 3077.654
1010.220, 3242.773
1011.332, 3319.037
1012.444, 3510.334
1013.555, 3682.684
1014.666, 3867.643
1015.777, 4128.266
1016.888, 4376.922
1017.999, 4772.398
1019.110, 5209.918
1020.220, 5768.469
1021.331, 6173.057
1022.441, 6737.676
1023.551, 7368.340
1024.661, 8350.043
1025.770, 8858.789
1026.880, 9141.164
1027.989, 9088.072
1029.098, 8289.758
1030.207, 7442.734
1031.316, 6528.951
1032.425, 5496.029
1033.533, 4539.879
1034.642, 3905.086
1035.750, 3254.328
1036.858, 2757.613
1037.966, 2523.934
1039.073, 2310.559
1040.181, 2443.953
1041.288, 2128.383
1042.396, 2336.848
1043.503, 2480.348
1044.610, 2443.895
1045.716, 2833.496
1046.823, 3138.131
1047.929, 3761.807
1049.036, 4033.520
1050.142, 4618.283
1051.248, 5392.104
1052.353, 6211.963
1053.459, 7081.861
1054.564, 8031.805
1055.670, 8712.824
1056.775, 9391.879
1057.880, 9337.977
1058.985, 10011.11
1060.089, 9097.285
1061.194, 8912.494
1062.298, 8623.742
1063.402, 8705.031
1064.506, 8668.352
1065.610, 8769.711
1066.713, 9079.113
1067.817, 9274.574
1068.920, 9220.070
1070.023, 9240.615
1071.126, 9067.207
1072.229, 8595.836
1073.332, 8195.512
1074.435, 7460.236
1075.537, 7003.998
1076.639, 6146.807
1077.741, 5533.650
1078.843, 5039.545
1079.945, 4485.660
1081.046, 4418.473
1082.148, 3780.492
1083.249, 3605.553
1084.350, 3566.650
1085.451, 3218.785
1086.551, 3095.957
1087.652, 2978.203
1088.752, 2888.529
1089.853, 2752.729
1090.953, 2589.346
1092.053, 2464.846
1093.152, 2366.387
1094.252, 2147.994
1095.351, 2095.703
1096.451, 1886.473
1097.550, 1703.295
1098.649, 1873.168
1099.748, 1595.102
1100.846, 1739.104
1101.945, 1484.164
1103.043, 1345.287
1104.141, 1362.457
1105.239, 1257.682
1106.337, 1231.957
1107.434, 1302.289
1108.532, 1134.688
1109.629, 1117.125
1110.726, 1232.598
1111.823, 1217.123
1112.920, 1115.684
1114.017, 1075.281
1115.113, 1068.932
1116.210, 1230.615
1117.306, 1318.367
1118.402, 1317.199
1119.498, 1463.084
1120.593, 1574.094
1121.689, 1473.393
1122.784, 1686.158
1123.879, 1839.254
1124.974, 1639.109
1126.069, 1458.119
1127.164, 1598.922
1128.259, 1331.816
1129.353, 1357.607
1130.447, 1112.924
1131.541, 918.2539
1132.635, 1124.287
1133.729, 845.9043
1134.822, 885.5527
1135.916, 779.0586
1137.009, 808.7539
1138.102, 766.1484
1139.195, 664.6230
1140.288, 691.7344
1141.380, 468.7539
1142.473, 387.5742
1143.565, 281.4551
1144.657, 379.7500
1145.749, 519.4902
1146.841, 246.2539
1147.932, 347.2031
1149.024, 118.0137
1150.115, 315.4219
1151.206, 170.6270
1152.297, 296.7988
1153.388, 256.7012
1154.479, 93.83984
1155.569, 205.8145
1156.659, 37.31055
1157.750, 131.1328
1158.839, 11.25195
1159.929, 133.4688
1161.019, 41.52734
1162.108, 22.22266
1163.198, 204.8750
1164.287, 52.56445
1165.376, 66.79297
1166.465, 71.25586
1167.553, 83.51953
1168.642, 212.2559
1169.730, 25.55469
1170.818, 144.8242
1171.906, 96.59961
1172.994, 265.7617
1174.082, 150.2168
1175.170, 150.7637
1176.257, 356.1934
1177.344, 233.4199
1178.431, 311.5977
1179.518, 271.2695
1180.605, 559.1387
1181.691, 364.0977
1182.778, 659.8281
1183.864, 445.9355
1184.950, 656.7129
1186.036, 500.7539
1187.122, 635.4219
1188.207, 697.3027
1189.292, 666.6582
1190.378, 555.6250
1191.463, 753.3594
1192.548, 640.9375
1193.632, 734.3867
1194.717, 680.7598
1195.801, 786.2363
1196.886, 712.2402
1197.970, 544.3535
1199.054, 778.7305
1200.137, 823.5918
1201.221, 921.9707
1202.305, 1099.678
1203.388, 923.1523
1204.471, 1049.330
1205.554, 1078.709
1206.637, 994.7402
1207.719, 1207.693
1208.802, 1216.430
1209.884, 1185.102
1210.966, 1452.469
1212.048, 1480.098
1213.130, 1363.256
1214.212, 1552.756
1215.293, 1427.549
1216.374, 1571.215
1217.456, 1466.949
1218.536, 1262.312
1219.617, 1345.215
1220.698, 1199.895
1221.778, 1204.236
1222.859, 958.5723
1223.939, 981.4727
1225.019, 870.7891
1226.099, 959.1016
1227.178, 660.7949
1228.258, 653.0840
1229.337, 642.3633
1230.417, 516.6289
1231.496, 329.8789
1232.574, 411.1191
1233.653, 445.3477
1234.732, 100.5801
1235.810, 364.9902
1236.888, 151.2832
1237.966, 78.05664
1239.044, 205.3730
1240.122, 166.8125
1241.199, 294.8320
1242.277, 65.32422
1243.354, 102.7617
1244.431, 182.2324
1245.508, 180.7383
1246.585, 140.9355
1247.661, 47.72266
1248.738, 76.86328
1249.814, 18.98047
1250.890, 2.273438
1251.966, 27.16016
1253.042, 31.28516
1254.117, 74.45508
1255.193, 106.6934
1256.268, 69.01367
1257.343, 52.40430
1258.418, 32.85156
1259.493, 118.3398
1260.567, 2.923828
1261.642, 141.5449
1262.716, 101.2148
1263.790, 38.02539
1264.864, 0.9707030
1265.938, 17.12305
1267.011, 200.3496
1268.085, 53.96875
1269.158, 58.54492
1270.231, 23.81836
1271.304, 10.05664
1272.377, 69.91602
1273.450, 46.10742
1274.522, 137.8555
1275.594, 146.9121
1276.666, 89.78125
1277.738, 259.2578
1278.810, 8.228516
1279.882, 55.58203
1280.953, 73.45117
1282.025, 193.2246
1283.096, 2.683594
1284.167, 27.32617
1285.238, 17.96875
1286.308, 110.6621
1287.379, 156.5508
1288.449, 99.78125
1289.519, 202.6328
1290.589, 91.16406
1291.659, 84.11914
1292.729, 91.61328
1293.798, 39.99609
1294.868, 86.99219
1295.937, 35.15625
