##NAMES=Beryl
##RRUFFID=R060943
##IDEAL CHEMISTRY=Be_3_Al_2_Si_6_O_18_
##LOCALITY=Xinjiang, China
##OWNER=RRUFF
##SOURCE=Lawrence W. Snee
##DESCRIPTION=Green hexagonal prisms, variety emerald
##STATUS=The identification of this mineral has been confirmed by X-ray diffraction and chemical analysis
##URL=rruff.info/R060943
##MEASURED CHEMISTRY=(Be_2.96_Li_0.04_)_Σ=3_(Al_1.64_Mg_0.21_V^3+^_0.06_Fe^3+^_0.04_Sc^3+^_0.03_Cr^3+^_0.02_)_Σ=2_Si_6.00_O_18_·Na_0.25_
##PIN_ID=L00265
##ORIENTATION=Laser parallel to a* (1 0 0). Fiducial mark perpendicular to laser is parallel to -c [0 0 -1]
167.3340, 0.0000000E+00
168.5670, 53.98926
169.8000, 1.348633
171.0320, 110.0859
172.2650, 147.3584
173.4970, 78.07129
174.7290, 223.4688
175.9610, 301.1025
177.1930, 61.36621
178.4240, 168.5703
179.6550, 78.55859
180.8870, 366.7705
182.1170, 114.0381
183.3480, 310.7559
184.5790, 353.1699
185.8090, 222.5391
187.0390, 379.6504
188.2690, 423.5967
189.4990, 507.1143
190.7290, 458.5264
191.9580, 492.6104
193.1870, 452.9941
194.4160, 506.8506
195.6450, 513.9590
196.8740, 632.6416
198.1020, 572.3242
199.3310, 672.0518
200.5590, 698.8096
201.7870, 601.5859
203.0140, 611.3672
204.2420, 418.1504
205.4690, 382.9277
206.6960, 118.7041
207.9230, 140.4775
209.1500, 5.751953
210.3760, 108.2725
211.6030, 15.09277
212.8290, 7.816406
214.0550, 78.76074
215.2810, 4.182617
216.5060, 34.16211
217.7320, 37.99023
218.9570, 106.7227
220.1820, 99.26953
221.4070, 130.6572
222.6320, 202.8945
223.8560, 143.9932
225.0800, 156.9609
226.3040, 47.81152
227.5280, 236.5625
228.7520, 198.2344
229.9760, 311.8311
231.1990, 204.3574
232.4220, 338.8145
233.6450, 335.2051
234.8680, 252.5283
236.0910, 410.7900
237.3130, 466.9893
238.5350, 308.1289
239.7570, 324.2109
240.9790, 362.2539
242.2010, 346.3008
243.4220, 380.3467
244.6430, 326.3936
245.8640, 306.4424
247.0850, 296.3301
248.3060, 325.5352
249.5270, 237.5723
250.7470, 239.5996
251.9670, 180.2998
253.1870, 365.7637
254.4070, 255.3223
255.6260, 146.4033
256.8460, 133.7979
258.0650, 671.6299
259.2840, 933.8418
260.5030, 709.5000
261.7220, 338.3779
262.9400, 310.4043
264.1580, 374.8564
265.3760, 537.3203
266.5940, 555.7275
267.8120, 674.8008
269.0290, 777.0146
270.2470, 858.8945
271.4640, 857.2197
272.6810, 706.5488
273.8980, 713.8809
275.1140, 600.2148
276.3310, 684.5498
277.5470, 625.8848
278.7630, 695.2217
279.9790, 739.5586
281.1940, 793.8984
282.4100, 994.2441
283.6250, 986.6816
284.8400, 1142.240
286.0550, 1228.974
287.2700, 1247.888
288.4850, 1662.887
289.6990, 1508.856
290.9130, 1961.000
292.1270, 1361.027
293.3410, 1279.027
294.5540, 1109.003
295.7680, 975.9541
296.9810, 724.8789
298.1940, 778.7793
299.4070, 625.6572
300.6200, 667.5098
301.8320, 668.3418
303.0450, 732.1484
304.2570, 780.3838
305.4690, 847.6973
306.6800, 930.5684
307.8920, 1060.157
309.1030, 1188.856
310.3150, 1355.534
311.5260, 1489.190
312.7360, 1608.828
313.9470, 1963.661
315.1580, 2187.117
316.3680, 2280.193
317.5780, 2658.635
318.7880, 3030.056
319.9980, 3191.445
321.2070, 3622.799
322.4170, 3789.123
323.6260, 3969.522
324.8350, 3606.753
326.0430, 3096.926
327.2520, 2348.205
328.4610, 1658.265
329.6690, 983.4316
330.8770, 657.4043
332.0850, 222.3418
333.2920, 363.2432
334.5000, 120.0664
335.7070, 21.83789
336.9140, 83.39648
338.1210, 78.10059
339.3280, 16.27246
340.5350, 5.625000
341.7410, 121.9619
342.9470, 74.72266
344.1540, 86.44238
345.3590, 19.79688
346.5650, 60.02148
347.7710, 62.75488
348.9760, 38.57715
350.1810, 8.572266
351.3860, 2.294922
352.5910, 3.737305
353.7950, 77.16602
355.0000, 39.69629
356.2040, 58.78809
357.4080, 14.41016
358.6120, 13.45508
359.8150, 64.24609
361.0190, 87.28906
362.2220, 136.4746
363.4250, 94.73438
364.6280, 116.4453
365.8310, 46.10156
367.0340, 91.86621
368.2360, 109.6680
369.4380, 123.4473
370.6400, 96.21680
371.8420, 235.4756
373.0440, 361.2148
374.2450, 255.9375
375.4470, 460.6475
376.6480, 552.3438
377.8490, 716.0283
379.0490, 745.6982
380.2500, 1032.356
381.4500, 1189.002
382.6510, 1429.636
383.8510, 1794.257
385.0500, 2446.867
386.2500, 2947.465
387.4500, 3706.053
388.6490, 4628.627
389.8480, 5786.191
391.0470, 6865.758
392.2460, 8481.353
393.4440, 9896.277
394.6430, 11608.80
395.8410, 13131.05
397.0390, 14153.56
398.2370, 14454.76
399.4340, 13915.01
400.6320, 12588.03
401.8290, 10876.10
403.0260, 9182.874
404.2230, 7666.947
405.4200, 6399.836
406.6170, 5475.521
407.8130, 4857.166
409.0090, 4421.799
410.2050, 4202.624
411.4010, 4009.560
412.5970, 3815.401
413.7920, 3802.393
414.9880, 3655.295
416.1830, 3427.190
417.3780, 3454.078
418.5730, 3013.961
419.7670, 2950.836
420.9620, 2535.705
422.1560, 2125.566
423.3500, 1961.423
424.5440, 1767.273
425.7380, 1559.116
426.9310, 1544.952
428.1240, 1358.780
429.3180, 1330.603
430.5110, 1341.416
431.7030, 1353.220
432.8960, 1462.015
434.0890, 1449.800
435.2810, 1545.575
436.4730, 1578.341
437.6650, 1772.097
438.8570, 2016.842
440.0480, 2290.579
441.2390, 2349.309
442.4310, 2352.026
443.6220, 2143.735
444.8120, 1877.435
446.0030, 1524.126
447.1940, 1297.809
448.3840, 961.4844
449.5740, 809.1484
450.7640, 677.8057
451.9540, 578.4541
453.1430, 401.0938
454.3330, 539.7256
455.5220, 384.3486
456.7110, 506.9639
457.9000, 278.5625
459.0890, 239.1455
460.2770, 450.7139
461.4650, 345.2666
462.6540, 350.8047
463.8420, 273.3262
465.0290, 206.8340
466.2170, 179.3252
467.4050, 255.8018
468.5920, 341.2617
469.7790, 166.7080
470.9660, 324.1387
472.1530, 168.5557
473.3390, 294.9570
474.5250, 209.3447
475.7120, 318.7188
476.8980, 332.0801
478.0840, 383.0801
479.2690, 474.2012
480.4550, 332.9570
481.6400, 334.4580
482.8250, 389.4551
484.0100, 519.1768
485.1950, 281.1143
486.3800, 358.8027
487.5640, 354.7510
488.7480, 318.7646
489.9320, 170.2422
491.1160, 353.6641
492.3000, 177.5996
493.4840, 227.3662
494.6670, 304.5703
495.8500, 219.1494
497.0330, 140.6484
498.2160, 314.5215
499.3990, 290.1953
500.5810, 162.0742
501.7630, 334.9385
502.9460, 176.4609
504.1280, 238.1777
505.3090, 366.1084
506.4910, 206.8857
507.6720, 157.7471
508.8540, 238.1367
510.0350, 232.8838
511.2160, 324.6992
512.3960, 286.5654
513.5770, 304.3125
514.7570, 272.4414
515.9380, 389.5645
517.1180, 366.6787
518.2970, 494.7871
519.4770, 302.8984
520.6570, 454.0029
521.8360, 384.1211
523.0150, 558.2344
524.1940, 398.3398
525.3730, 439.4395
526.5510, 411.5322
527.7300, 276.6250
528.9080, 324.7100
530.0860, 333.7900
531.2640, 152.8633
532.4420, 113.9463
533.6200, 104.0420
534.7970, 40.84863
535.9740, 170.2666
537.1510, 6.368164
538.3280, 49.54297
539.5050, 109.4971
540.6810, 1.473633
541.8580, 205.5693
543.0340, 113.7285
544.2100, 74.94727
545.3860, 192.2090
546.5610, 78.57617
547.7370, 60.98926
548.9120, 61.44434
550.0870, 45.94336
551.2620, 49.46973
552.4370, 111.9697
553.6120, 197.4189
554.7860, 365.8760
555.9600, 392.3359
557.1340, 485.8076
558.3080, 642.2764
559.4820, 896.7510
560.6560, 1155.230
561.8290, 1042.733
563.0020, 1100.263
564.1750, 1186.797
565.3480, 1091.327
566.5210, 1091.854
567.6930, 1081.379
568.8660, 1020.900
570.0380, 1158.419
571.2100, 1291.935
572.3820, 1397.446
573.5530, 1417.957
574.7250, 1420.464
575.8960, 1569.967
577.0670, 1506.475
578.2380, 1475.980
579.4090, 1457.482
580.5800, 1329.982
581.7500, 1397.479
582.9210, 1321.975
584.0910, 1302.467
585.2610, 1049.957
586.4300, 1276.444
587.6000, 1114.929
588.7690, 1196.411
589.9390, 1093.892
591.1080, 1137.370
592.2770, 1116.849
593.4450, 1194.326
594.6140, 1202.800
595.7820, 1150.838
596.9500, 1066.757
598.1190, 1030.233
599.2860, 920.7090
600.4540, 860.1816
601.6220, 850.6533
602.7890, 701.1230
603.9560, 784.5918
605.1230, 875.0742
606.2900, 663.5420
607.4570, 642.8965
608.6230, 469.3750
609.7890, 479.8516
610.9560, 556.1592
612.1220, 550.6328
613.2870, 565.9521
614.4530, 559.6836
615.6180, 450.8955
616.7840, 536.3643
617.9490, 427.8330
619.1140, 470.3037
620.2790, 357.7764
621.4430, 287.2529
622.6080, 314.7568
623.7720, 410.2666
624.9360, 320.7822
626.1000, 300.2998
627.2640, 254.8447
628.4270, 239.4209
629.5910, 202.0020
630.7540, 132.5732
631.9170, 142.1025
633.0800, 151.8105
634.2430, 135.4434
635.4050, 232.0859
636.5680, 238.7373
637.7300, 205.3691
638.8920, 354.0674
640.0540, 338.7900
641.2150, 371.5176
642.3770, 405.4111
643.5380, 261.9863
644.7000, 421.7246
645.8610, 406.4639
647.0210, 434.2041
648.1820, 304.9463
649.3430, 342.6904
650.5030, 520.4375
651.6630, 387.1855
652.8230, 411.9336
653.9830, 563.6846
655.1430, 598.4365
656.3020, 526.1875
657.4620, 568.9385
658.6210, 515.7773
659.7800, 771.5293
660.9390, 872.3057
662.0970, 984.0576
663.2560, 1282.809
664.4140, 1543.559
665.5720, 1801.309
666.7300, 1990.360
667.8880, 2364.111
669.0460, 2914.862
670.2030, 3408.612
671.3600, 4165.260
672.5180, 5025.012
673.6740, 6148.311
674.8310, 7978.664
675.9880, 9966.548
677.1440, 12788.62
678.3010, 15981.34
679.4570, 19776.31
680.6130, 24654.24
681.7690, 29633.62
682.9240, 34800.52
684.0800, 40160.70
685.2350, 43687.38
686.3900, 44139.67
687.5450, 41315.57
688.7000, 35749.85
689.8540, 29258.27
691.0090, 22845.25
692.1630, 18039.05
693.3170, 14040.08
694.4710, 11288.14
695.6250, 9252.350
696.7780, 7758.166
697.9320, 6465.083
699.0850, 5765.533
700.2380, 4783.202
701.3910, 4501.986
702.5440, 3912.385
703.6970, 3358.213
704.8490, 3177.041
706.0010, 2835.871
707.1530, 2601.703
708.3050, 2418.536
709.4570, 2078.371
710.6090, 2066.207
711.7600, 1699.044
712.9110, 1484.884
714.0620, 1602.725
715.2130, 1249.894
716.3640, 1258.738
717.5150, 1138.583
718.6650, 1019.431
719.8150, 946.2773
720.9650, 947.1270
722.1150, 780.9805
723.2650, 807.8330
724.4150, 708.6875
725.5640, 671.5439
726.7130, 655.4014
727.8630, 499.2607
729.0110, 593.1221
730.1600, 425.4453
731.3090, 456.3105
732.4570, 380.1768
733.6060, 527.0967
734.7540, 484.4717
735.9020, 485.3428
737.0490, 402.2441
738.1970, 364.1182
739.3440, 483.9951
740.4920, 370.8721
741.6390, 459.7529
742.7860, 257.1533
743.9320, 398.0361
745.0790, 429.9219
746.2250, 532.8076
747.3720, 546.6963
748.5180, 531.5869
749.6640, 452.4785
750.8100, 415.3730
751.9550, 515.2695
753.1010, 563.1670
754.2460, 529.0684
755.3910, 619.9697
756.5360, 680.8740
757.6810, 678.7803
758.8250, 753.6875
759.9700, 902.5977
761.1140, 878.5098
762.2580, 1017.424
763.4020, 970.3398
764.5460, 953.2578
765.6900, 1009.178
766.8330, 876.0996
767.9760, 912.0244
769.1200, 785.9502
770.2620, 631.8770
771.4050, 590.8076
772.5480, 561.7383
773.6900, 590.6709
774.8330, 437.6064
775.9750, 462.5420
777.1170, 264.4814
778.2590, 307.4199
779.4000, 323.3613
780.5420, 329.3037
781.6830, 341.2471
782.8240, 194.1914
783.9650, 259.1387
785.1060, 137.0869
786.2470, 120.0381
787.3870, 213.9893
788.5280, 126.9434
789.6680, 239.8975
790.8080, 118.8535
791.9480, 201.8125
793.0870, 88.77246
794.2270, 58.73438
795.3660, 26.30176
796.5060, 120.6445
797.6450, 76.40723
798.7830, 151.4980
799.9220, 124.4053
801.0610, 251.3154
802.1990, 30.22656
803.3370, 12.85938
804.4750, 76.04297
805.6130, 53.94727
806.7510, 88.85449
807.8890, 57.23633
809.0260, 59.36035
810.1630, 103.5166
811.3000, 35.27051
812.4370, 10.06348
813.5740, 12.85645
814.7110, 81.65430
815.8470, 36.56445
816.9830, 14.75000
818.1190, 13.78125
819.2550, 43.50195
820.3910, 40.80273
821.5270, 21.03516
822.6620, 28.96777
823.7970, 1.498047
824.9330, 12.48438
826.0670, 28.07422
827.2020, 4.569336
828.3370, 37.55859
829.4710, 24.52539
830.6060, 8.005859
831.7400, 44.58789
832.8740, 33.34277
834.0080, 22.72461
835.1410, 14.80762
836.2750, 86.83105
837.4080, 105.9756
838.5410, 14.17871
839.6740, 45.60742
840.8070, 100.3965
841.9400, 81.18848
843.0730, 83.98242
844.2050, 184.7812
845.3370, 53.58203
846.4690, 242.3867
847.6010, 50.19531
848.7330, 46.00879
849.8640, 171.8242
850.9960, 11.35742
852.1270, 241.4551
853.2580, 76.26855
854.3890, 233.0869
855.5200, 70.90820
856.6500, 158.7344
857.7810, 244.5645
858.9110, 62.39844
860.0410, 72.23828
861.1710, 77.08008
862.3010, 54.92773
863.4310, 148.7793
864.5600, 73.63574
865.6900, 2.497070
866.8190, 60.35645
867.9480, 140.2217
869.0770, 8.908203
870.2050, 0.9560550
871.3340, 77.81836
872.4620, 13.68652
873.5900, 71.55762
874.7180, 19.43555
875.8460, 66.31836
876.9740, 37.20605
878.1010, 54.90137
879.2290, 133.9658
880.3560, 63.83691
881.4830, 30.71484
882.6100, 89.59766
883.7370, 22.48828
884.8630, 120.3838
885.9900, 152.2852
887.1160, 48.19336
888.2420, 62.11230
889.3680, 171.0557
890.4940, 198.0117
891.6200, 211.9844
892.7450, 265.9756
893.8700, 238.1934
894.9960, 260.9863
896.1210, 227.0107
897.2460, 250.0410
898.3700, 321.0830
899.4950, 490.1318
900.6190, 428.1885
901.7430, 505.2578
902.8670, 620.3340
903.9910, 625.4170
905.1150, 600.5088
906.2390, 688.6074
907.3620, 666.7148
908.4850, 733.8281
909.6080, 774.9512
910.7310, 775.0820
911.8540, 793.2217
912.9770, 678.3682
914.0990, 648.5234
915.2210, 666.6885
916.3440, 636.8604
917.4660, 774.0410
918.5870, 692.2314
919.7090, 774.4316
920.8310, 787.6396
921.9520, 605.8564
923.0730, 573.0840
924.1940, 526.3203
925.3150, 432.5664
926.4360, 429.8213
927.5560, 379.0859
928.6770, 434.3604
929.7970, 416.6455
930.9170, 409.8516
932.0370, 436.1572
933.1570, 321.4463
934.2760, 417.7725
935.3960, 130.1084
936.5150, 167.4561
937.6340, 228.8145
938.7530, 159.8838
939.8720, 222.2646
940.9910, 239.6562
942.1090, 226.0615
943.2280, 11.58008
944.3460, 56.98730
945.4640, 52.82520
946.5820, 76.27734
947.6990, 86.60352
948.8170, 62.00586
949.9340, 13.50488
951.0520, 24.99512
952.1690, 61.53809
953.2860, 68.54297
954.4030, 75.90039
955.5190, 20.43164
956.6360, 4.862305
957.7520, 43.61133
958.8680, 95.16895
959.9840, 17.42773
961.1000, 86.17188
962.2160, 60.32324
963.3310, 2.096680
964.4470, 1.261719
965.5620, 39.60352
966.6770, 133.8223
967.7920, 72.44824
968.9060, 140.9883
970.0210, 4.986328
971.1360, 46.83594
972.2500, 218.5605
973.3640, 109.6885
974.4780, 93.40527
975.5920, 113.1387
976.7050, 88.88867
977.8190, 114.6553
978.9320, 235.4365
980.0450, 359.2363
981.1580, 466.0527
982.2710, 325.8857
983.3840, 476.7344
984.4970, 429.6016
985.6090, 431.1582
986.7210, 680.0596
987.8330, 753.9785
988.9450, 1000.916
990.0570, 980.8691
991.1690, 1341.841
992.2800, 1390.830
993.3920, 1535.837
994.5030, 1810.861
995.6140, 2109.904
996.7250, 2343.965
997.8350, 2393.045
998.9460, 2558.142
1000.056, 2631.797
1001.167, 2816.931
1002.277, 2690.082
1003.387, 2807.202
1004.496, 2560.887
1005.606, 2643.096
1006.715, 2384.295
1007.825, 2316.541
1008.934, 2292.808
1010.043, 2124.092
1011.152, 2007.396
1012.260, 1861.199
1013.369, 1811.543
1014.477, 1684.905
1015.586, 1562.928
1016.694, 1537.689
1017.802, 1339.111
1018.909, 1279.554
1020.017, 1245.016
1021.124, 994.7891
1022.232, 1094.118
1023.339, 1032.867
1024.446, 928.0859
1025.553, 846.0195
1026.659, 831.7559
1027.766, 781.2861
1028.872, 616.4531
1029.979, 749.2793
1031.085, 634.6357
1032.191, 696.3320
1033.296, 568.2256
1034.402, 493.0488
1035.507, 538.8213
1036.613, 532.6143
1037.718, 465.4277
1038.823, 465.2852
1039.928, 411.1709
1041.032, 426.6338
1042.137, 474.0156
1043.241, 479.9688
1044.346, 534.9414
1045.450, 593.9365
1046.554, 659.9521
1047.657, 810.0146
1048.761, 910.1055
1049.864, 867.2246
1050.968, 874.3652
1052.071, 1100.527
1053.174, 1356.709
1054.277, 1483.923
1055.379, 1946.155
1056.482, 2058.408
1057.584, 2457.698
1058.687, 2730.009
1059.789, 3298.341
1060.891, 3863.701
1061.992, 4302.084
1063.094, 4839.488
1064.196, 5184.922
1065.297, 5434.380
1066.398, 5684.881
1067.499, 5770.414
1068.600, 5894.973
1069.701, 5588.551
1070.801, 5405.152
1071.902, 5253.779
1073.002, 4938.430
1074.102, 5042.100
1075.202, 4387.793
1076.302, 3866.524
1077.402, 3718.304
1078.501, 3488.133
1079.600, 3184.985
1080.700, 2756.860
1081.799, 2514.758
1082.898, 2540.255
1083.996, 2234.195
1085.095, 2157.551
1086.193, 1972.543
1087.292, 1829.570
1088.390, 1739.633
1089.488, 1686.617
1090.586, 1504.240
1091.683, 1628.393
1092.781, 1382.130
1093.878, 1319.835
1094.975, 1245.069
1096.073, 950.2939
1097.169, 994.5859
1098.266, 1127.918
1099.363, 1052.287
1100.459, 952.6777
1101.556, 824.1016
1102.652, 803.4004
1103.748, 743.4404
1104.844, 753.5332
1105.940, 726.1152
1107.035, 720.1094
1108.131, 765.3447
1109.226, 774.9951
1110.321, 722.6650
1111.416, 756.3574
1112.511, 744.1123
1113.605, 640.8076
1114.700, 681.5645
1115.794, 735.3457
1116.889, 557.1455
1117.983, 728.9746
1119.077, 649.8262
1120.170, 672.6982
1121.264, 746.5918
1122.357, 830.5078
1123.451, 868.4453
1124.544, 946.4033
1125.637, 783.3838
1126.730, 829.3848
1127.823, 839.4072
1128.915, 983.4512
1130.008, 993.5166
1131.100, 994.1416
1132.192, 934.7109
1133.284, 893.8418
1134.376, 848.9941
1135.467, 678.1729
1136.559, 553.3750
1137.650, 570.5986
1138.742, 466.8418
1139.833, 433.1172
1140.924, 322.3936
1142.014, 363.7002
1143.105, 311.0273
1144.195, 287.3906
1145.286, 259.7744
1146.376, 134.1787
1147.466, 320.6035
1148.556, 96.04785
1149.646, 190.5127
1150.735, 126.9990
1151.825, 46.49512
1152.914, 103.9824
1154.003, 44.48242
1155.092, 78.97461
1156.181, 72.18750
1157.270, 8.962891
1158.358, 61.43945
1159.447, 23.57520
1160.535, 9.020508
1161.623, 27.41406
1162.711, 46.16406
1163.799, 9.248047
1164.886, 38.64355
1165.974, 30.84766
1167.061, 66.48047
1168.148, 51.13184
1169.235, 41.70215
1170.322, 26.17871
1171.409, 180.9717
1172.496, 313.7412
1173.582, 221.5684
1174.669, 247.4131
1175.755, 167.2783
1176.841, 361.4219
1177.927, 404.0576
1179.012, 429.5156
1180.098, 262.3652
1181.183, 373.3154
1182.269, 340.2822
1183.354, 435.2646
1184.439, 467.0420
1185.524, 302.0566
1186.608, 407.0869
1187.693, 546.3916
1188.777, 385.4551
1189.862, 451.5322
1190.946, 315.3184
1192.030, 461.4268
1193.113, 375.6572
1194.197, 402.8174
1195.281, 321.9707
1196.364, 493.1387
1197.447, 441.3350
1198.530, 603.6973
1199.613, 411.9092
1200.696, 445.1357
1201.779, 515.3740
1202.861, 612.6279
1203.944, 561.8945
1205.026, 606.1768
1206.108, 586.4717
1207.190, 785.5488
1208.271, 814.8701
1209.353, 789.4443
1210.435, 927.1426
1211.516, 842.1543
1212.597, 1042.528
1213.678, 1083.917
1214.759, 1064.318
1215.840, 980.7461
1216.920, 1242.187
1218.001, 1395.639
1219.081, 1327.103
1220.161, 1401.580
1221.241, 1468.078
1222.321, 1678.589
1223.401, 1552.114
1224.480, 1571.666
1225.560, 1483.230
1226.639, 1506.806
1227.718, 1452.053
1228.797, 1492.991
1229.876, 1336.600
1230.955, 1288.223
1232.033, 1175.857
1233.112, 1032.503
1234.190, 1075.158
1235.268, 881.8262
1236.346, 816.5020
1237.424, 694.1875
1238.501, 679.8838
1239.579, 820.5889
1240.656, 535.3027
1241.733, 685.0273
1242.811, 379.7607
1243.888, 423.5020
1244.964, 462.2598
1246.041, 417.0254
1247.117, 376.7988
1248.194, 350.5830
1249.270, 372.3730
1250.346, 292.1729
1251.422, 314.9785
1252.498, 326.7920
1253.573, 264.4834
1254.649, 258.4414
1255.724, 194.2793
1256.800, 186.1250
1257.875, 186.9766
1258.950, 206.8340
1260.024, 294.6992
1261.099, 297.5703
1262.173, 119.4492
1263.248, 226.3330
1264.322, 200.2236
1265.396, 110.1211
1266.470, 211.0234
1267.544, 327.9316
1268.617, 223.8457
1269.691, 235.7783
1270.764, 419.7168
1271.837, 334.6621
1272.910, 237.6113
1273.983, 210.5654
1275.056, 253.5244
1276.129, 178.4893
1277.201, 166.4570
1278.273, 220.4307
1279.346, 104.4082
1280.418, 55.38965
1281.489, 69.08496
1282.561, 20.69629
1283.633, 157.0137
1284.704, 26.89648
1285.776, 67.81738
1286.847, 87.68848
1287.918, 17.22949
1288.989, 29.76855
1290.059, 9.048828
1291.130, 35.35742
1292.200, 34.35156
1293.271, 27.17188
1294.341, 61.91309
1295.411, 37.22461
1296.481, 51.39551
1297.551, 91.01953
1298.620, 20.42578
1299.690, 7.309570
1300.759, 48.59766
1301.828, 134.1699
1302.897, 124.0801
1303.966, 102.4541
1305.035, 14.36719
1306.103, 82.72070
1307.172, 10.85742
1308.240, 16.99805
1309.308, 135.8418
1310.376, 82.69238
1311.444, 130.5352
1312.512, 13.62598
1313.580, 52.19434
1314.647, 126.0195
1315.714, 38.16797
1316.781, 68.62598
1317.848, 96.42285
1318.915, 10.77734
1319.982, 118.0049
1321.049, 25.78809
1322.115, 31.57227
1323.181, 99.36035
1324.248, 38.15137
1325.314, 32.06445
1326.380, 24.70703
1327.445, 121.4814
1328.511, 137.2578
1329.576, 59.03418
1330.642, 344.8145
1331.707, 46.59668
1332.772, 215.3809
1333.837, 126.1660
1334.902, 9.046875
