##NAMES=Beryl
##RRUFFID=R060944
##IDEAL CHEMISTRY=Be_3_Al_2_Si_6_O_18_
##LOCALITY=Habachtal, Salzburg, Austria
##OWNER=RRUFF
##SOURCE=Lawrence W. Snee
##DESCRIPTION=Green hexagonal prisms in a muscovite schist, variety emerald. Note that there are micro inclusions of actinolite. The Raman signal is a mixture of the two phases.
##STATUS=The identification of this mineral has been confirmed by X-ray diffraction and chemical analysis
##URL=rruff.info/R060944
##MEASURED CHEMISTRY=Be_3.00_(Al_1.59_Mg_0.33_Fe^3+^_0.04_Cr^3+^_0.04_)_Σ=2_Si_6.00_O_18_·Na_0.33_ ; bright inclusions are actinolite
##PIN_ID=L01950
##ORIENTATION=Laser parallel to c* (0 0 1). Fiducial mark perpendicular to laser is parallel to -b [0 -1 0]
130.4390, 0.0000000E+00
131.6680, 81.95117
132.8980, 6.377930
134.1270, 13.21875
135.3560, 29.92090
136.5850, 38.13086
137.8140, 95.88965
139.0430, 438.7393
140.2710, 629.2158
141.5000, 398.0469
142.7280, 243.5762
143.9560, 176.2520
145.1840, 154.6182
146.4120, 23.69043
147.6390, 55.02832
148.8670, 95.58203
150.0940, 409.0859
151.3210, 902.3086
152.5490, 1600.979
153.7750, 2424.886
155.0020, 4058.862
156.2290, 5796.792
157.4550, 7516.578
158.6810, 7544.141
159.9080, 5975.412
161.1340, 4071.331
162.3590, 3008.844
163.5850, 2526.900
164.8110, 2047.458
166.0360, 1730.512
167.2610, 1576.497
168.4860, 1758.758
169.7110, 1981.300
170.9360, 2858.841
172.1610, 3893.388
173.3850, 5367.949
174.6100, 7308.533
175.8340, 9477.148
177.0580, 11260.81
178.2820, 11280.56
179.5050, 9152.413
180.7290, 6586.410
181.9520, 4392.564
183.1760, 3181.881
184.3990, 2088.352
185.6220, 1646.969
186.8450, 1287.729
188.0670, 1071.622
189.2900, 850.6396
190.5120, 748.7715
191.7340, 649.6592
192.9560, 799.3438
194.1780, 552.7705
195.4000, 664.2822
196.6220, 597.8711
197.8430, 687.5322
199.0640, 773.2598
200.2860, 766.0508
201.5070, 1173.475
202.7270, 1345.256
203.9480, 1359.100
205.1690, 1627.517
206.3890, 1575.358
207.6090, 1600.285
208.8290, 1777.316
210.0490, 2269.394
211.2690, 2989.524
212.4890, 3644.713
213.7080, 4390.966
214.9280, 5365.285
216.1470, 6709.676
217.3660, 8638.140
218.5850, 10524.67
219.8030, 12601.28
221.0220, 14332.99
222.2400, 14950.90
223.4590, 13543.15
224.6770, 11985.83
225.8950, 10208.84
227.1120, 8778.116
228.3300, 8172.764
229.5480, 7544.778
230.7650, 7025.064
231.9820, 6119.620
233.1990, 4946.383
234.4160, 3694.193
235.6330, 2934.079
236.8490, 2270.990
238.0660, 1770.922
239.2820, 1632.856
240.4980, 1384.793
241.7140, 1415.815
242.9300, 1393.832
244.1460, 1645.831
245.3610, 1823.810
246.5770, 2018.763
247.7920, 2095.691
249.0070, 1986.597
250.2220, 1549.478
251.4370, 1188.338
252.6510, 1104.173
253.8660, 917.9863
255.0800, 754.7754
256.2940, 588.5410
257.5080, 941.2832
258.7220, 1832.002
259.9360, 2014.695
261.1490, 1310.363
262.3630, 1009.008
263.5760, 790.6260
264.7890, 698.2188
266.0020, 806.7861
267.2150, 893.3262
268.4270, 685.8428
269.6400, 462.3320
270.8520, 288.7959
272.0640, 28.76855
273.2760, 152.3594
274.4880, 110.9824
275.7000, 347.7070
276.9120, 174.0049
278.1230, 223.3574
279.3340, 159.8223
280.5450, 172.3672
281.7560, 51.61426
282.9670, 116.4121
284.1780, 200.6836
285.3880, 323.1572
286.5980, 454.8252
287.8090, 573.6670
289.0190, 810.6641
290.2290, 970.8027
291.4380, 876.0693
292.6480, 880.2637
293.8570, 769.7539
295.0670, 608.3428
296.2760, 633.0205
297.4850, 524.7783
298.6930, 416.6104
299.9020, 448.5098
301.1110, 431.4707
302.3190, 408.4902
303.5270, 318.5625
304.7350, 228.6846
305.9430, 398.8525
307.1510, 312.4756
308.3580, 153.8027
309.5660, 411.8066
310.7730, 301.4668
311.9800, 509.7051
313.1870, 702.0752
314.3940, 608.3652
315.6010, 1106.705
316.8070, 1126.226
318.0130, 1446.316
319.2200, 1988.625
320.4260, 1993.299
321.6310, 2241.156
322.8370, 2323.755
324.0430, 2439.203
325.2480, 2386.164
326.4540, 1963.174
327.6590, 1655.125
328.8640, 1202.430
330.0680, 1037.093
331.2730, 755.4551
332.4780, 442.2637
333.6820, 475.1572
334.8860, 343.1230
336.0900, 400.3174
337.2940, 396.0977
338.4980, 727.1426
339.7010, 849.1602
340.9050, 1155.168
342.1080, 1363.294
343.3110, 1674.140
344.5140, 1569.134
345.7170, 1922.270
346.9200, 2064.896
348.1220, 2060.338
349.3240, 2259.344
350.5270, 2379.017
351.7290, 2285.787
352.9310, 2367.819
354.1320, 2346.244
355.3340, 2249.277
356.5350, 2116.258
357.7370, 1910.174
358.9380, 2133.909
360.1390, 2278.638
361.3400, 2197.356
362.5400, 2451.066
363.7410, 2804.768
364.9410, 2774.457
366.1410, 2825.138
367.3410, 3066.807
368.5410, 3190.462
369.7410, 3209.103
370.9400, 3200.725
372.1400, 2980.331
373.3390, 2998.916
374.5380, 2592.479
375.7370, 2528.020
376.9360, 2193.536
378.1350, 2302.028
379.3330, 2338.494
380.5310, 2492.934
381.7300, 2328.348
382.9280, 2548.734
384.1260, 2901.094
385.3230, 3198.428
386.5210, 3925.734
387.7180, 4746.013
388.9160, 5555.264
390.1130, 6469.486
391.3100, 7532.684
392.5060, 8239.853
393.7030, 8955.996
394.9000, 9508.108
396.0960, 10091.19
397.2920, 10345.25
398.4880, 10504.29
399.6840, 9949.292
400.8800, 9332.300
402.0750, 8488.251
403.2710, 7296.208
404.4660, 6470.357
405.6610, 5832.229
406.8560, 5346.072
408.0510, 5206.891
409.2450, 5098.682
410.4400, 5062.447
411.6340, 4858.188
412.8280, 4647.101
414.0220, 4600.587
415.2160, 4069.248
416.4100, 3769.111
417.6030, 3397.091
418.7970, 3237.893
419.9900, 2936.755
421.1830, 2671.580
422.3760, 2488.848
423.5690, 2125.391
424.7610, 1986.311
425.9540, 1804.312
427.1460, 1689.818
428.3380, 1681.312
429.5300, 1630.790
430.7220, 1962.253
431.9140, 1919.699
433.1050, 2309.127
434.2970, 2535.539
435.4880, 2553.930
436.6790, 2407.303
437.8700, 2247.656
439.0610, 2122.988
440.2510, 2053.299
441.4420, 1874.589
442.6320, 1573.856
443.8220, 1198.101
445.0120, 871.3223
446.2020, 633.5205
447.3910, 469.6953
448.5810, 294.8457
449.7700, 219.9736
450.9600, 149.0762
452.1490, 102.1504
453.3370, 29.48145
454.5260, 18.18359
455.7150, 79.87695
456.9030, 94.04395
458.0910, 110.3262
459.2800, 144.7295
460.4670, 201.2754
461.6550, 92.99121
462.8430, 50.82227
464.0300, 21.74414
465.2180, 192.7432
466.4050, 46.91016
467.5920, 278.1660
468.7790, 135.6348
469.9650, 55.24023
471.1520, 92.93945
472.3380, 146.7539
473.5250, 46.70996
474.7110, 165.7568
475.8970, 71.95508
477.0820, 59.74121
478.2680, 113.3984
479.4540, 23.97949
480.6390, 21.56641
481.8240, 54.05859
483.0090, 53.50879
484.1940, 114.9150
485.3780, 59.28906
486.5630, 127.6201
487.7470, 108.9189
488.9320, 195.1816
490.1160, 215.4170
491.3000, 34.62207
492.4830, 52.21680
493.6670, 33.85645
494.8500, 139.8848
496.0340, 177.8838
497.2170, 202.8545
498.4000, 213.7979
499.5820, 226.7139
500.7650, 282.8340
501.9480, 349.3564
503.1300, 429.3066
504.3120, 521.1211
505.4940, 619.3311
506.6760, 735.6758
507.8580, 838.4150
509.0390, 955.1299
510.2210, 1065.960
511.4020, 1271.486
512.5830, 1385.126
513.7640, 1613.740
514.9450, 1921.331
516.1250, 1887.898
517.3060, 2246.465
518.4860, 2347.018
519.6660, 2495.549
520.8460, 2473.058
522.0260, 2719.543
523.2060, 2974.002
524.3850, 2960.439
525.5650, 3077.848
526.7440, 3221.234
527.9230, 3206.597
529.1020, 3038.937
530.2810, 2541.254
531.4590, 2217.554
532.6380, 1914.847
533.8160, 1478.116
534.9940, 1308.367
536.1720, 983.5947
537.3500, 725.8418
538.5270, 719.0859
539.7050, 556.3350
540.8820, 424.5840
542.0590, 244.8223
543.2360, 270.0469
544.4130, 243.2549
545.5900, 190.4443
546.7660, 426.6484
547.9430, 468.8545
549.1190, 402.0420
550.2950, 361.2539
551.4710, 469.4443
552.6470, 682.6367
553.8220, 681.8262
554.9980, 909.0117
556.1730, 903.2217
557.3480, 1331.430
558.5230, 1570.620
559.6980, 1759.817
560.8730, 1759.045
562.0470, 1897.379
563.2220, 1847.735
564.3960, 2031.150
565.5700, 1914.584
566.7440, 2095.073
567.9170, 1982.581
569.0910, 1924.080
570.2640, 1779.555
571.4380, 1825.011
572.6110, 1709.336
573.7840, 1664.854
574.9570, 1592.240
576.1290, 1606.636
577.3020, 1606.024
578.4740, 1427.393
579.6460, 1493.737
580.8180, 1306.058
581.9900, 1398.356
583.1620, 1241.691
584.3330, 1177.551
585.5040, 1063.119
586.6760, 986.3330
587.8470, 1092.579
589.0180, 957.8105
590.1880, 1001.036
591.3590, 833.1445
592.5290, 834.9238
593.7000, 814.3643
594.8700, 737.1582
596.0400, 800.4062
597.2090, 680.5410
598.3790, 556.7441
599.5490, 780.8848
600.7180, 1429.839
601.8870, 1878.247
603.0560, 1930.435
604.2250, 222.2744
605.3940, 239.9160
606.5620, 454.8203
607.7300, 296.8740
608.8990, 378.3984
610.0670, 355.8643
611.2350, 450.3701
612.4020, 314.5068
613.5700, 230.2676
614.7370, 1092.311
615.9050, 908.8896
617.0720, 1116.363
618.2390, 942.7461
619.4060, 1365.878
620.5720, 672.4043
621.7390, 826.6436
622.9050, 1193.889
624.0710, 643.1191
625.2370, 444.2090
626.4030, 188.5547
627.5690, 337.7295
628.7340, 296.7363
629.9000, 298.8281
631.0650, 234.7725
632.2300, 411.5352
633.3950, 490.4766
634.5600, 589.2285
635.7240, 724.4229
636.8890, 791.7656
638.0530, 868.2041
639.2170, 1189.677
640.3810, 1253.192
641.5450, 1548.872
642.7080, 1567.540
643.8720, 1945.255
645.0350, 2174.899
646.1980, 2315.531
647.3610, 2682.153
648.5240, 2744.764
649.6870, 2913.508
650.8490, 3115.111
652.0120, 3281.687
653.1740, 3727.250
654.3360, 3909.032
655.4980, 4487.894
656.6600, 4888.436
657.8210, 5464.682
658.9830, 6447.576
660.1440, 7500.711
661.3050, 8776.319
662.4660, 10482.78
663.6270, 12598.23
664.7870, 15650.67
665.9480, 19018.10
667.1080, 23255.63
668.2680, 28255.43
669.4280, 33745.38
670.5880, 38553.99
671.7480, 41687.94
672.9070, 41775.79
674.0670, 39328.76
675.2260, 35462.65
676.3850, 31263.43
677.5440, 28093.74
678.7030, 26195.13
679.8610, 25827.15
681.0200, 26794.28
682.1780, 29032.29
683.3360, 32656.50
684.4940, 36431.77
685.6520, 39886.25
686.8090, 41821.59
687.9670, 40886.88
689.1240, 36256.24
690.2810, 31445.65
691.4380, 26031.31
692.5950, 21217.78
693.7520, 17354.26
694.9080, 14107.28
696.0650, 11528.79
697.2210, 9611.179
698.3770, 8433.980
699.5330, 7009.077
700.6880, 6203.281
701.8440, 5452.098
702.9990, 4584.726
704.1550, 4338.234
705.3100, 3824.632
706.4650, 3438.242
707.6190, 3018.002
708.7740, 2655.785
709.9290, 2579.309
711.0830, 2346.332
712.2370, 2074.152
713.3910, 1983.070
714.5450, 1851.087
715.6980, 1678.394
716.8520, 1617.540
718.0050, 1311.115
719.1580, 1217.878
720.3110, 1032.690
721.4640, 1296.402
722.6170, 1261.872
723.7700, 1011.670
724.9220, 860.1123
726.0740, 849.7754
727.2260, 976.2139
728.3780, 914.0459
729.5300, 973.5605
730.6810, 748.8457
731.8330, 896.8125
732.9840, 910.1133
734.1350, 950.4805
735.2860, 1045.379
736.4370, 1140.599
737.5880, 1166.045
738.7380, 1184.810
739.8880, 1245.064
741.0390, 1220.862
742.1890, 1244.856
743.3380, 1266.205
744.4880, 1251.857
745.6380, 1399.907
746.7870, 1270.297
747.9360, 1397.203
749.0850, 1422.680
750.2340, 1253.162
751.3830, 1212.658
752.5310, 1479.183
753.6800, 1381.710
754.8280, 1146.270
755.9760, 1118.838
757.1240, 901.3838
758.2720, 949.9043
759.4190, 1116.420
760.5670, 939.9189
761.7140, 828.3955
762.8610, 703.8516
764.0080, 760.2793
765.1550, 836.6846
766.3020, 540.0654
767.4480, 472.4189
768.5950, 695.7432
769.7410, 607.0400
770.8870, 410.3164
772.0330, 530.5938
773.1780, 724.8525
774.3240, 498.0840
775.4690, 462.2871
776.6140, 457.4609
777.7590, 388.6074
778.9040, 400.7246
780.0490, 433.8115
781.1940, 180.8691
782.3380, 201.8965
783.4820, 241.8945
784.6260, 341.8623
785.7700, 261.8008
786.9140, 156.7090
788.0580, 186.5869
789.2010, 204.4336
790.3450, 240.2520
791.4880, 133.0400
792.6310, 110.7979
793.7730, 38.47754
794.9160, 2.118164
796.0590, 91.76562
797.2010, 57.32520
798.3430, 151.8496
799.4850, 207.3438
800.6270, 192.8086
801.7690, 221.2432
802.9100, 179.7480
804.0520, 151.2949
805.1930, 82.37207
806.3340, 57.68652
807.4750, 26.96680
808.6160, 16.79492
809.7560, 61.37891
810.8970, 50.52051
812.0370, 54.62695
813.1770, 111.3018
814.3170, 40.34180
815.4570, 57.98730
816.5960, 52.65625
817.7360, 9.065430
818.8750, 6.261719
820.0140, 29.35645
821.1530, 24.93555
822.2920, 114.5244
823.4310, 45.09668
824.5690, 22.25781
825.7070, 142.4287
826.8460, 79.75977
827.9840, 53.08105
829.1220, 35.00195
830.2590, 35.98926
831.3970, 141.0459
832.5340, 38.22363
833.6710, 48.52930
834.8080, 23.25293
835.9450, 98.06055
837.0820, 180.4717
838.2190, 16.02441
839.3550, 125.6309
840.4910, 13.35059
841.6270, 156.1201
842.7630, 97.01660
843.8990, 21.00684
845.0350, 113.9473
846.1700, 12.87695
847.3060, 38.77246
848.4410, 78.64160
849.5760, 46.48340
850.7100, 96.69922
851.8450, 38.97266
852.9800, 10.69629
854.1140, 112.3330
855.2480, 37.94727
856.3820, 17.53711
857.5160, 32.09961
858.6500, 110.6377
859.7830, 24.84570
860.9170, 68.62305
862.0500, 200.9287
863.1830, 23.61621
864.3160, 47.34766
865.4480, 12.86719
866.5810, 109.0576
867.7130, 3.769531
868.8460, 36.37402
869.9780, 79.50293
871.1100, 73.44434
872.2410, 61.55078
873.3730, 63.52637
874.5050, 28.51367
875.6360, 130.5908
876.7670, 43.75781
877.8980, 112.1279
879.0290, 54.74512
880.1590, 61.56152
881.2900, 51.91699
882.4200, 71.68457
883.5500, 9.731445
884.6800, 169.8281
885.8100, 221.3711
886.9400, 403.8984
888.0690, 401.8867
889.1990, 398.9375
890.3280, 412.3750
891.4570, 337.8340
892.5860, 372.2773
893.7140, 436.7051
894.8430, 907.1172
895.9710, 495.5156
897.1000, 762.8984
898.2280, 563.2832
899.3560, 887.6523
900.4830, 860.0117
901.6110, 863.3574
902.7380, 747.6914
903.8660, 888.0137
904.9930, 896.2930
906.1200, 1052.625
907.2460, 1001.916
908.3730, 1248.193
909.5000, 1202.750
910.6260, 1384.715
911.7520, 1306.959
912.8780, 1401.482
914.0040, 1471.416
915.1290, 1534.629
916.2550, 1751.834
917.3800, 1845.969
918.5050, 2222.154
919.6300, 2295.332
920.7550, 2683.502
921.8800, 2880.662
923.0040, 3198.670
924.1290, 3649.801
925.2530, 4144.941
926.3770, 4818.076
927.5010, 5175.973
928.6250, 5099.771
929.7480, 5284.871
930.8720, 4936.254
931.9950, 4360.969
933.1180, 3780.432
934.2410, 3260.398
935.3640, 2665.498
936.4860, 2284.596
937.6090, 2042.688
938.7310, 1731.777
939.8530, 1827.750
940.9750, 1535.441
942.0970, 1606.953
943.2180, 1378.807
944.3400, 1400.303
945.4610, 1581.887
946.5820, 1505.338
947.7030, 1392.865
948.8240, 1271.473
949.9450, 1345.545
951.0650, 1050.531
952.1860, 898.8711
953.3060, 850.0938
954.4260, 912.3926
955.5460, 705.5137
956.6650, 864.5195
957.7850, 753.0996
958.9040, 520.0684
960.0230, 654.0664
961.1420, 481.9922
962.2610, 502.8477
963.3800, 370.4551
964.4990, 383.2402
965.6170, 517.0059
966.7350, 709.2246
967.8530, 376.9434
968.9710, 485.7852
970.0890, 393.2031
971.2070, 540.3223
972.3240, 516.3242
973.4410, 360.7090
974.5580, 477.2754
975.6750, 388.9551
976.7920, 601.7402
977.9090, 469.3066
979.0250, 578.7168
980.1410, 736.0996
981.2580, 641.7363
982.3740, 923.8691
983.4890, 814.1992
984.6050, 1151.428
985.7200, 1160.557
986.8360, 1209.389
987.9510, 1394.379
989.0660, 1629.938
990.1810, 1824.305
991.2950, 1970.621
992.4100, 2140.041
993.5240, 2529.697
994.6390, 2586.029
995.7530, 3014.732
996.8660, 3338.227
997.9800, 3471.967
999.0940, 3526.383
1000.207, 3489.115
1001.320, 3762.139
1002.433, 3521.492
1003.546, 3530.545
1004.659, 3330.564
1005.772, 3521.072
1006.884, 3271.307
1007.996, 3354.598
1009.108, 3399.195
1010.220, 3571.598
1011.332, 3407.531
1012.444, 3347.320
1013.555, 3717.822
1014.666, 3960.051
1015.777, 4172.961
1016.888, 4385.568
1017.999, 4769.756
1019.110, 5104.434
1020.220, 5217.176
1021.331, 5088.980
1022.441, 5193.820
1023.551, 5465.697
1024.661, 5530.637
1025.770, 5671.631
1026.880, 5534.082
1027.989, 5416.758
1029.098, 5036.020
1030.207, 4636.260
1031.316, 4180.748
1032.425, 3712.004
1033.533, 3411.822
1034.642, 2999.691
1035.750, 2995.090
1036.858, 2810.818
1037.966, 2880.350
1039.073, 2796.658
1040.181, 3053.229
1041.288, 2994.844
1042.396, 3385.494
1043.503, 4010.188
1044.610, 4283.949
1045.716, 4890.750
1046.823, 5602.596
1047.929, 6386.484
1049.036, 7721.430
1050.142, 8976.438
1051.248, 10663.49
1052.353, 12190.59
1053.459, 14396.72
1054.564, 15960.89
1055.670, 17243.12
1056.775, 18024.37
1057.880, 17779.67
1058.985, 16974.01
1060.089, 15644.39
1061.194, 14243.82
1062.298, 12997.30
1063.402, 12025.84
1064.506, 11402.44
1065.610, 10928.07
1066.713, 10570.75
1067.817, 10213.47
1068.920, 10239.23
1070.023, 9867.035
1071.126, 9790.879
1072.229, 8856.762
1073.332, 8367.684
1074.435, 7934.652
1075.537, 7193.664
1076.639, 6699.719
1077.741, 5865.834
1078.843, 5315.994
1079.945, 5012.201
1081.046, 4717.453
1082.148, 4232.787
1083.249, 3989.186
1084.350, 3626.648
1085.451, 3374.186
1086.551, 3369.773
1087.652, 3209.414
1088.752, 3094.100
1089.853, 2834.832
1090.953, 2769.646
1092.053, 2737.525
1093.152, 2570.451
1094.252, 2499.467
1095.351, 2216.523
1096.451, 2096.641
1097.550, 2013.818
1098.649, 1863.059
1099.748, 1819.389
1100.846, 1651.781
1101.945, 1655.213
1103.043, 1636.688
1104.141, 1533.236
1105.239, 1433.885
1106.337, 1436.586
1107.434, 1447.365
1108.532, 1102.199
1109.629, 1408.119
1110.726, 1391.111
1111.823, 1087.158
1112.920, 1090.238
1114.017, 1071.365
1115.113, 1300.535
1116.210, 1370.742
1117.306, 1317.988
1118.402, 1520.309
1119.498, 1554.682
1120.593, 1716.100
1121.689, 1824.555
1122.784, 1756.047
1123.879, 1809.172
1124.974, 1884.738
1126.069, 1715.340
1127.164, 1602.611
1128.259, 1398.412
1129.353, 1239.689
1130.447, 1214.492
1131.541, 1078.422
1132.635, 1134.881
1133.729, 906.1855
1134.822, 908.0879
1135.916, 701.4121
1137.009, 822.7773
1138.102, 585.7637
1139.195, 503.6641
1140.288, 668.0996
1141.380, 445.7852
1142.473, 197.0879
1143.565, 376.3984
1144.657, 456.9785
1145.749, 286.4863
1146.841, 331.1074
1147.932, 242.6816
1149.024, 215.7363
1150.115, 147.5664
1151.206, 175.1270
1152.297, 109.9551
1153.388, 117.0430
1154.479, 92.00977
1155.569, 49.67188
1156.659, 116.7168
1157.750, 79.68164
1158.839, 63.43164
1159.929, 14.78320
1161.019, 6.763672
1162.108, 149.5312
1163.198, 128.8711
1164.287, 41.58984
1165.376, 42.33203
1166.465, 94.12891
1167.553, 27.28516
1168.642, 4.373047
1169.730, 55.02539
1170.818, 50.18945
1171.906, 49.72461
1172.994, 229.8184
1174.082, 386.2617
1175.170, 335.1445
1176.257, 328.5371
1177.344, 238.1406
1178.431, 326.8672
1179.518, 391.0098
1180.605, 608.1992
1181.691, 475.5137
1182.778, 603.0215
1183.864, 524.4980
1184.950, 600.7871
1186.036, 730.9414
1187.122, 802.3184
1188.207, 724.5098
1189.292, 865.4609
1190.378, 815.9512
1191.463, 890.6602
1192.548, 657.7031
1193.632, 771.0039
1194.717, 797.3340
1195.801, 887.9688
1196.886, 892.6992
1197.970, 1033.529
1199.054, 820.8027
1200.137, 843.5742
1201.221, 913.3633
1202.305, 941.6680
1203.388, 1090.346
1204.471, 1133.248
1205.554, 1185.609
1206.637, 1154.379
1207.719, 1468.156
1208.802, 1339.934
1209.884, 1620.459
1210.966, 1561.143
1212.048, 1550.117
1213.130, 1742.414
1214.212, 1607.762
1215.293, 1539.881
1216.374, 1846.570
1217.456, 1666.859
1218.536, 1591.141
1219.617, 1611.678
1220.698, 1468.570
1221.778, 1472.430
1222.859, 1184.688
1223.939, 1177.521
1225.019, 1027.727
1226.099, 1039.969
1227.178, 810.2559
1228.258, 723.8906
1229.337, 661.1230
1230.417, 577.8027
1231.496, 389.0000
1232.574, 607.6113
1233.653, 533.7891
1234.732, 462.4336
1235.810, 300.5840
1236.888, 273.1328
1237.966, 286.3574
1239.044, 278.4609
1240.122, 205.8359
1241.199, 190.9102
1242.277, 301.1660
1243.354, 166.6895
1244.431, 128.7441
1245.508, 241.0293
1246.585, 176.6797
1247.661, 131.3477
1248.738, 119.5625
1249.814, 117.3164
1250.890, 120.7676
1251.966, 87.04102
1253.042, 8.091797
1254.117, 28.74805
1255.193, 55.56445
1256.268, 77.64258
1257.343, 33.91797
1258.418, 88.23828
1259.493, 253.6328
1260.567, 26.80859
1261.642, 211.7754
1262.716, 31.50586
1263.790, 87.28711
1264.864, 76.15039
1265.938, 12.41406
1267.011, 0.4394530
1268.085, 76.04883
1269.158, 23.09180
1270.231, 52.72656
1271.304, 151.8066
1272.377, 6.755859
1273.450, 91.67383
1274.522, 84.09180
1275.594, 7.271484
1276.666, 97.11523
1277.738, 24.61133
1278.810, 57.20508
1279.882, 80.34766
1280.953, 66.99414
1282.025, 33.83398
1283.096, 61.77539
1284.167, 59.48633
1285.238, 48.09180
1286.308, 89.22461
1287.379, 56.27539
1288.449, 166.5449
1289.519, 25.33984
1290.589, 65.62500
1291.659, 0.7226560
1292.729, 63.75781
1293.798, 72.84180
1294.868, 49.37695
1295.937, 20.57031
