##NAMES=Beryl
##RRUFFID=R040002
##IDEAL CHEMISTRY=Be_3_Al_2_Si_6_O_18_
##LOCALITY=Usakos, Namibia
##OWNER=RRUFF
##SOURCE=University of Arizona Mineral Museum
##DESCRIPTION=Light blue hexagonal prism, variety aquamarine
##STATUS=The identification of this mineral has been confirmed by X-ray diffraction and chemical analysis
##URL=rruff.info/R040002
##MEASURED CHEMISTRY=(Be_0.97_Li_0.03_)_3_(Al_0.97_Fe^3+^_0.03_)_2_Si_6_O_18_Î‡Na_0.01_
##PIN_ID=m00036
##ORIENTATION=Laser parallel to a* (1 0 0). Fiducial mark perpendicular to laser is parallel to c [0 0 1]
94.768, 0.000
96.161, 59.330
97.554, 56.506
98.947, 60.101
100.340, 6.441
101.732, 19.631
103.124, 42.507
104.516, 48.654
105.908, 143.654
107.300, 73.201
108.691, 250.062
110.082, 361.054
111.473, 712.117
112.864, 876.608
114.254, 1435.846
115.644, 1151.264
117.034, 1198.299
118.424, 888.895
119.813, 602.003
121.203, 357.577
122.592, 210.580
123.981, 150.978
125.369, 102.741
126.758, 95.847
128.146, 67.139
129.534, 149.800
130.922, 163.755
132.309, 152.988
133.696, 105.484
135.083, 168.232
136.470, 227.220
137.857, 299.429
139.243, 398.840
140.630, 510.437
142.016, 561.208
143.401, 826.143
144.787, 998.233
146.172, 860.470
147.557, 566.847
148.942, 328.360
150.327, 212.001
151.711, 127.769
153.096, 81.658
154.480, 99.665
155.863, 47.784
157.247, 73.034
158.630, 19.417
160.013, 34.092
161.396, 63.505
162.779, 40.237
164.161, 64.080
165.544, 50.025
166.926, 49.068
168.308, 109.199
169.689, 95.424
171.070, 197.750
172.452, 137.180
173.833, 150.708
175.213, 197.333
176.594, 190.048
177.974, 282.828
179.354, 374.600
180.734, 547.372
182.114, 786.154
183.493, 744.401
184.872, 984.782
186.251, 699.636
187.630, 520.522
189.008, 463.444
190.387, 431.402
191.765, 414.398
193.143, 409.434
194.520, 359.510
195.898, 393.626
197.275, 363.785
198.652, 412.985
200.029, 433.228
201.405, 320.513
202.782, 306.840
204.158, 375.210
205.534, 318.652
206.909, 288.136
208.285, 370.661
209.660, 341.226
211.035, 193.827
212.410, 223.469
213.784, 176.150
215.159, 112.872
216.533, 124.729
217.907, 122.665
219.281, 198.754
220.654, 114.000
222.027, 146.097
223.400, 74.227
224.773, 129.389
226.146, 132.584
227.518, 92.933
228.891, 126.737
230.263, 225.385
231.634, 225.684
233.006, 278.634
234.377, 321.669
235.748, 322.564
237.119, 390.974
238.490, 367.413
239.860, 390.921
241.231, 425.556
242.601, 384.324
243.970, 360.283
245.340, 303.390
246.709, 269.655
248.079, 280.237
249.448, 234.330
250.816, 302.686
252.185, 334.054
253.553, 323.433
254.921, 403.824
256.289, 379.227
257.657, 346.640
259.024, 283.064
260.391, 284.812
261.758, 283.706
263.125, 298.696
264.492, 282.851
265.858, 329.867
267.224, 355.291
268.590, 279.828
269.956, 385.467
271.321, 400.201
272.687, 341.020
274.052, 352.921
275.416, 464.896
276.781, 556.942
278.146, 572.054
279.510, 634.228
280.874, 714.461
282.237, 822.750
283.601, 987.094
284.964, 1052.488
286.327, 1415.932
287.690, 1614.423
289.053, 1674.959
290.416, 1484.539
291.778, 1181.162
293.140, 1101.815
294.502, 922.509
295.863, 990.240
297.225, 926.009
298.586, 932.813
299.947, 1028.652
301.308, 983.524
302.668, 1100.429
304.029, 1170.364
305.389, 1217.331
306.749, 1420.327
308.108, 1614.353
309.468, 1793.406
310.827, 2131.487
312.186, 2654.594
313.545, 3543.871
314.903, 4472.031
316.262, 5499.215
317.620, 6827.425
318.978, 8133.659
320.336, 9717.916
321.693, 10184.198
323.051, 8292.498
324.408, 5400.438
325.765, 3237.783
327.121, 1854.149
328.478, 1102.534
329.834, 588.938
331.190, 402.362
332.546, 264.805
333.902, 160.265
335.257, 105.284
336.612, 121.918
337.967, 38.303
339.322, 89.831
340.677, 22.400
342.031, 46.710
343.385, 98.420
344.739, 14.523
346.093, 31.093
347.446, 30.834
348.799, 30.465
350.153, 80.110
351.505, 11.771
352.858, 67.446
354.210, 52.135
355.563, 109.839
356.915, 9.443
358.267, 48.289
359.618, 25.966
360.969, 6.208
362.321, 15.562
363.672, 52.655
365.022, 56.136
366.373, 38.940
367.723, 65.757
369.073, 108.585
370.423, 4.426
371.773, 4.279
373.122, 36.857
374.471, 148.015
375.821, 105.898
377.169, 219.792
378.518, 247.713
379.866, 491.629
381.215, 602.634
382.563, 866.865
383.910, 1134.150
385.258, 1703.280
386.605, 2591.192
387.952, 3693.244
389.299, 5789.763
390.646, 8423.444
391.992, 11809.491
393.339, 15979.020
394.685, 19029.977
396.031, 19491.305
397.376, 16365.634
398.722, 12637.629
400.067, 9061.627
401.412, 6692.632
402.757, 5070.639
404.101, 3737.649
405.446, 2849.662
406.790, 2318.678
408.134, 2079.694
409.478, 1887.711
410.821, 1695.729
412.165, 1612.746
413.508, 1788.764
414.851, 2094.781
416.193, 2402.798
417.536, 2920.815
418.878, 3665.833
420.220, 4413.850
421.562, 4319.865
422.904, 4040.893
424.245, 3254.932
425.586, 2376.982
426.927, 1916.042
428.268, 1313.113
429.609, 1022.192
430.949, 879.280
432.289, 822.375
433.629, 780.477
434.969, 951.585
436.309, 1129.701
437.648, 1570.821
438.987, 2000.948
440.326, 2703.080
441.665, 3604.217
443.003, 4157.358
444.342, 3769.504
445.680, 2949.654
447.018, 2196.808
448.355, 1628.964
449.693, 1270.125
451.030, 901.288
452.367, 783.455
453.704, 533.623
455.041, 460.794
456.377, 410.968
457.713, 335.143
459.049, 267.321
460.385, 251.500
461.721, 353.680
463.056, 168.861
464.391, 241.044
465.726, 277.228
467.061, 82.412
468.395, 72.597
469.730, 122.782
471.064, 44.968
472.398, 119.154
473.731, 21.661
475.065, 129.505
476.398, 138.670
477.731, 398.834
479.064, 118.999
480.397, 255.162
481.729, 187.324
483.062, 197.486
484.394, 174.646
485.725, 93.807
487.057, 157.967
488.389, 89.125
489.720, 73.281
491.051, 151.436
492.382, 116.589
493.712, 65.767
495.043, 86.057
496.373, 29.941
497.703, 7.849
499.032, 91.236
500.362, 41.319
501.691, 26.407
503.020, 18.356
504.349, 0.657
505.678, 9.363
507.007, 37.674
508.335, 82.740
509.663, 78.808
510.991, 144.884
512.319, 118.967
513.646, 138.058
514.973, 139.151
516.300, 300.244
517.627, 233.235
518.954, 161.320
520.280, 387.015
521.607, 373.032
522.933, 467.105
524.259, 552.048
525.584, 693.114
526.910, 812.181
528.235, 805.247
529.560, 784.312
530.885, 692.374
532.209, 557.431
533.534, 451.792
534.858, 359.840
536.182, 191.887
537.506, 63.929
538.829, 70.967
540.152, 15.997
541.476, 16.005
542.799, 99.011
544.121, 0.104
545.444, 28.223
546.766, 157.383
548.088, 100.652
549.410, 55.000
550.732, 76.405
552.053, 83.875
553.375, 74.417
554.696, 96.026
556.017, 19.289
557.337, 111.584
558.658, 107.874
559.978, 269.159
561.298, 532.438
562.618, 494.713
563.938, 503.006
565.257, 564.293
566.576, 512.468
567.895, 398.854
569.214, 479.128
570.533, 483.396
571.851, 502.659
573.170, 742.917
574.488, 879.169
575.805, 975.416
577.123, 1133.657
578.440, 1454.894
579.758, 1789.124
581.075, 1797.349
582.391, 1849.569
583.708, 1818.783
585.024, 1568.991
586.341, 1499.195
587.657, 1448.393
588.972, 1358.584
590.288, 1241.399
591.603, 1203.723
592.918, 1069.127
594.233, 1073.296
595.548, 1202.460
596.863, 1105.619
598.177, 1047.771
599.491, 1037.206
600.805, 957.059
602.119, 908.194
603.432, 925.322
604.746, 850.446
606.059, 794.564
607.372, 599.676
608.685, 684.782
609.997, 499.882
611.309, 546.977
612.621, 407.066
613.933, 498.149
615.245, 400.226
616.557, 518.297
617.868, 537.362
619.179, 578.422
620.490, 580.476
621.801, 585.524
623.111, 585.567
624.421, 620.604
625.731, 448.634
627.041, 445.660
628.351, 297.679
629.660, 161.693
630.970, 359.701
632.279, 151.562
633.588, 116.559
634.896, 148.550
636.205, 256.537
637.513, 110.518
638.821, 253.492
640.129, 300.461
641.437, 338.427
642.744, 368.369
644.051, 360.731
645.358, 350.287
646.665, 335.230
647.972, 319.168
649.278, 335.101
650.584, 263.149
651.890, 521.070
653.196, 419.447
654.502, 806.722
655.807, 553.618
657.113, 432.519
658.418, 599.018
659.722, 632.580
661.027, 720.911
662.331, 791.997
663.636, 1071.703
664.940, 1075.538
666.244, 1555.329
667.547, 1701.691
668.851, 2186.571
670.154, 2721.012
671.457, 3151.896
672.760, 4226.238
674.062, 5185.077
675.365, 6971.911
676.667, 9512.739
677.969, 13602.564
679.271, 19364.385
680.572, 27421.201
681.874, 37835.027
683.175, 46239.777
684.476, 46804.242
685.777, 40254.824
687.077, 30567.627
688.378, 22488.412
689.678, 16120.201
690.978, 12439.981
692.278, 9265.454
693.577, 7781.227
694.877, 6105.117
696.176, 5304.248
697.475, 4305.927
698.774, 3862.380
700.072, 3200.781
701.371, 2815.345
702.669, 2521.129
703.967, 2313.783
705.265, 2025.970
706.562, 1720.002
707.860, 1463.671
709.157, 1279.364
710.454, 1056.617
711.751, 979.072
713.047, 902.417
714.344, 795.155
715.640, 685.896
716.936, 691.637
718.232, 667.381
719.527, 563.566
720.823, 582.314
722.118, 487.062
723.413, 313.268
724.708, 439.019
726.002, 392.772
727.297, 300.529
728.591, 382.287
729.885, 374.047
731.179, 259.809
732.472, 214.572
733.766, 306.339
735.059, 156.106
736.352, 276.878
737.645, 149.651
738.937, 304.425
740.230, 268.204
741.522, 266.984
742.814, 338.767
744.106, 396.553
745.397, 390.340
746.689, 367.132
747.980, 399.925
749.271, 377.721
750.562, 307.521
751.853, 210.323
753.143, 213.129
754.433, 203.937
755.723, 187.748
757.013, 194.563
758.303, 174.382
759.592, 225.203
760.881, 324.028
762.170, 460.855
763.459, 607.687
764.748, 795.521
766.036, 1173.359
767.325, 1249.202
768.613, 1789.048
769.901, 2068.898
771.188, 2023.751
772.476, 2082.609
773.763, 1622.470
775.050, 1275.336
776.337, 978.205
777.624, 772.078
778.910, 619.956
780.196, 551.838
781.482, 332.724
782.768, 386.612
784.054, 286.506
785.339, 260.403
786.625, 121.306
787.910, 211.224
789.195, 172.146
790.479, 174.071
791.764, 146.002
793.048, 49.938
794.332, 194.877
795.616, 146.822
796.900, 207.772
798.183, 69.727
799.467, 126.686
800.750, 73.650
802.033, 53.619
803.316, 124.594
804.598, 102.427
805.880, 124.503
807.163, 94.439
808.445, 27.592
809.726, 51.616
811.008, 46.345
812.289, 30.688
813.570, 75.271
814.851, 24.235
816.132, 97.782
817.413, 84.837
818.693, 0.075
819.973, 19.007
821.253, 48.094
822.533, 40.197
823.813, 50.315
825.092, 22.451
826.371, 11.593
827.650, 44.267
828.929, 53.132
830.208, 98.003
831.486, 77.227
832.764, 45.764
834.042, 17.653
835.320, 16.550
836.598, 23.547
837.875, 17.646
839.152, 20.744
840.429, 80.158
841.706, 10.074
842.983, 10.003
844.259, 118.951
845.536, 20.079
846.812, 37.890
848.088, 5.132
849.363, 12.587
850.639, 135.879
851.914, 50.942
853.189, 66.047
854.464, 180.197
855.739, 214.378
857.013, 142.595
858.288, 82.871
859.562, 126.226
860.836, 192.618
862.110, 156.061
863.383, 204.564
864.656, 178.959
865.930, 136.771
867.203, 93.417
868.475, 122.119
869.748, 16.831
871.020, 75.553
872.292, 106.714
873.564, 83.980
874.836, 78.684
876.108, 17.599
877.379, 158.122
878.650, 197.851
879.922, 132.594
881.192, 193.346
882.463, 131.104
883.733, 227.871
885.004, 79.645
886.274, 98.426
887.544, 275.212
888.813, 123.008
890.083, 136.810
891.352, 127.619
892.621, 213.436
893.890, 126.260
895.159, 104.089
896.427, 202.927
897.695, 353.771
898.964, 279.623
900.232, 345.481
901.499, 367.348
902.767, 413.220
904.034, 397.099
905.301, 569.985
906.568, 641.876
907.835, 735.775
909.102, 728.682
910.368, 766.594
911.634, 916.514
912.900, 994.440
914.166, 1172.372
915.432, 1011.312
916.697, 1005.257
917.962, 1199.209
919.227, 973.166
920.492, 994.132
921.757, 789.102
923.021, 804.078
924.285, 600.061
925.550, 521.050
926.813, 470.045
928.077, 597.045
929.341, 502.051
930.604, 553.064
931.867, 383.082
933.130, 397.105
934.393, 551.135
935.655, 416.170
936.918, 437.211
938.180, 389.257
939.442, 329.308
940.703, 373.365
941.965, 289.426
943.226, 160.492
944.488, 135.566
945.749, 133.123
947.009, 198.726
948.270, 196.812
949.530, 192.903
950.791, 199.001
952.051, 209.102
953.311, 92.208
954.570, 188.318
955.830, 122.434
957.089, 201.433
958.348, 157.558
959.607, 294.688
960.866, 189.318
962.124, 147.594
963.383, 186.738
964.641, 171.258
965.899, 184.990
967.156, 216.564
968.414, 234.053
969.671, 257.377
970.928, 330.462
972.185, 391.717
973.442, 304.401
974.699, 366.565
975.955, 520.170
977.211, 311.328
978.468, 509.031
979.723, 483.235
980.979, 481.444
982.234, 717.658
983.490, 374.876
984.745, 697.254
986.000, 706.765
987.254, 588.997
988.509, 762.861
989.763, 779.441
991.017, 995.664
992.271, 1056.071
993.525, 1121.198
994.779, 1354.183
996.032, 1552.447
997.285, 1692.537
998.538, 1967.291
999.791, 2489.839
1001.044, 2551.539
1002.296, 2853.722
1003.548, 2937.320
1004.800, 3211.479
1006.052, 3454.803
1007.304, 3379.085
1008.555, 3741.096
1009.807, 3773.391
1011.058, 4033.854
1012.309, 3902.943
1013.559, 3700.415
1014.810, 3519.922
1016.060, 2964.610
1017.310, 2653.320
1018.560, 2124.895
1019.810, 1927.975
1021.060, 1725.041
1022.309, 1393.461
1023.558, 1437.581
1024.807, 1119.411
1026.056, 1148.595
1027.305, 1162.564
1028.553, 1142.224
1029.801, 1028.385
1031.049, 972.787
1032.297, 857.350
1033.545, 946.742
1034.793, 836.136
1036.040, 935.528
1037.287, 1002.917
1038.534, 1003.306
1039.781, 1103.688
1041.027, 1099.222
1042.274, 953.447
1043.520, 1102.820
1044.766, 909.188
1046.012, 860.549
1047.257, 902.908
1048.503, 1100.261
1049.748, 1036.607
1050.993, 1252.948
1052.238, 1308.283
1053.483, 1324.611
1054.727, 1543.932
1055.971, 1731.244
1057.216, 2033.550
1058.459, 2349.849
1059.703, 2695.139
1060.947, 3266.625
1062.190, 3830.918
1063.433, 4479.185
1064.676, 5686.444
1065.919, 6431.696
1067.162, 7208.938
1068.404, 7264.174
1069.646, 7325.398
1070.888, 7416.615
1072.130, 6189.822
1073.372, 5331.023
1074.613, 4660.213
1075.855, 3893.394
1077.096, 3339.564
1078.337, 3105.726
1079.578, 2770.879
1080.818, 2429.021
1082.059, 2215.152
1083.299, 2093.275
1084.539, 1844.387
1085.779, 1819.489
1087.018, 1551.582
1088.258, 1372.666
1089.497, 1239.738
1090.736, 1345.802
1091.975, 1213.854
1093.213, 882.895
1094.452, 924.925
1095.690, 642.944
1096.928, 677.953
1098.166, 664.950
1099.404, 598.936
1100.642, 403.911
1101.879, 493.877
1103.116, 404.833
1104.353, 410.778
1105.590, 189.713
1106.827, 321.662
1108.063, 164.602
1109.299, 342.527
1110.536, 154.449
1111.771, 194.373
1113.007, 250.283
1114.243, 236.190
1115.478, 226.083
1116.713, 277.964
1117.948, 344.868
1119.183, 395.129
1120.418, 350.680
1121.652, 525.572
1122.886, 577.462
1124.120, 593.348
1125.354, 361.232
1126.588, 324.220
1127.821, 174.179
1129.055, 302.040
1130.288, 298.875
1131.521, 283.822
1132.753, 127.625
1133.986, 98.503
1135.218, 316.273
1136.450, 43.027
1137.682, 251.839
1138.914, 22.564
1140.146, 1.447
1141.377, 9.525
1142.609, 22.703
1143.840, 26.669
1145.071, 57.892
1146.301, 63.878
1147.532, 0.127
1148.762, 85.407
1149.992, 54.989
1151.222, 77.005
1152.452, 25.435
1153.682, 24.075
1154.911, 7.091
1156.140, 44.272
1157.369, 101.164
1158.598, 11.905
1159.827, 13.054
1161.055, 57.744
1162.284, 89.750
1163.512, 26.286
1164.740, 103.806
1165.967, 150.763
1167.195, 49.597
1168.422, 66.276
1169.650, 31.894
1170.877, 169.187
1172.103, 105.170
1173.330, 13.243
1174.557, 222.778
1175.783, 166.769
1177.009, 14.519
1178.235, 271.972
1179.461, 190.820
1180.686, 246.596
1181.912, 371.909
1183.137, 304.268
1184.362, 250.232
1185.587, 262.716
1186.811, 407.062
1188.036, 273.563
1189.260, 397.177
1190.484, 441.523
1191.708, 441.225
1192.932, 374.630
1194.155, 429.553
1195.378, 306.705
1196.602, 389.245
1197.825, 393.547
1199.047, 455.822
1200.270, 460.889
1201.492, 486.934
1202.715, 489.115
1203.937, 517.956
1205.159, 420.124
1206.380, 343.080
1207.602, 195.014
1208.823, 239.924
1210.044, 370.812
1211.265, 279.940
1212.486, 336.784
1213.707, 347.606
1214.927, 488.408
1216.147, 342.190
1217.367, 498.958
1218.587, 518.705
1219.807, 638.431
1221.027, 622.134
1222.246, 662.816
1223.465, 798.475
1224.684, 952.113
1225.903, 1073.728
1227.121, 1139.070
1228.340, 1177.889
1229.558, 1224.435
1230.776, 1199.957
1231.994, 1212.454
1233.212, 1261.212
1234.429, 1294.929
1235.646, 1269.371
1236.864, 1541.795
1238.081, 1544.385
1239.297, 1823.769
1240.514, 2333.135
1241.730, 2600.481
1242.947, 3173.911
1244.163, 3578.219
1245.378, 3915.508
1246.594, 3636.852
1247.810, 2949.647
1249.025, 2731.171
1250.240, 2020.866
1251.455, 1486.304
1252.670, 1209.598
1253.885, 1004.926
1255.099, 878.051
1256.313, 721.572
1257.527, 656.479
1258.741, 548.593
1259.955, 412.631
1261.168, 369.645
1262.382, 313.896
1263.595, 376.100
1264.808, 294.037
1266.021, 320.952
1267.233, 354.236
1268.446, 309.084
1269.658, 297.692
1270.870, 327.709
1272.082, 232.469
1273.294, 236.139
1274.505, 255.771
1275.716, 343.313
1276.928, 227.831
1278.139, 268.319
1279.349, 236.871
1280.560, 335.018
1281.770, 313.434
1282.981, 240.205
1284.191, 306.546
1285.401, 215.096
1286.610, 173.228
1287.820, 212.618
1289.029, 150.093
1290.239, 257.350
1291.448, 144.025
1292.656, 136.715
1293.865, 194.454
1295.073, 251.793
1296.282, 31.995
1297.490, 153.765
1298.698, 177.952
1299.906, 76.957
1301.113, 184.983
1302.320, 14.739
1303.528, 366.234
1304.735, 235.017
1305.942, 144.438
1307.148, 200.017
1308.355, 5.548
1309.561, 136.012
1310.767, 12.570
1311.973, 52.961
1313.179, 151.049
1314.384, 203.926
1315.590, 18.482
1316.795, 97.942
1318.000, 158.928
1319.205, 188.822
1320.410, 75.275
1321.614, 5.469
1322.819, 250.130
1324.023, 87.523
1325.227, 98.731
1326.431, 24.081
1327.634, 18.410
1328.838, 54.714
1330.041, 7.847
1331.244, 173.260
1332.447, 4.505
1333.650, 97.729
1334.852, 155.934
1336.055, 68.121
1337.257, 130.290
1338.459, 35.442
1339.661, 184.574
1340.862, 80.690
1342.064, 131.787
1343.265, 131.868
1344.466, 284.934
1345.667, 176.981
1346.868, 291.017
1348.068, 233.036
1349.269, 128.043
1350.469, 184.038
1351.669, 204.022
1352.869, 389.793
1354.069, 259.738
1355.268, 107.693
1356.468, 465.639
1357.667, 364.576
1358.866, 224.069
1360.065, 340.178
1361.263, 294.039
1362.462, 251.064
1363.660, 294.173
1364.858, 274.089
1366.056, 315.006
1367.254, 408.925
1368.451, 417.789
1369.649, 383.630
1370.846, 285.061
1372.043, 263.577
1373.240, 253.154
1374.436, 215.494
1375.633, 179.611
1376.829, 94.282
1378.025, 98.917
1379.221, 177.519
1380.417, 230.085
1381.613, 114.620
1382.808, 306.119
1384.003, 201.583
1385.199, 326.005
1386.393, 132.387
1387.588, 240.731
1388.783, 217.040
1389.977, 137.313
1391.171, 42.550
1392.365, 83.728
1393.559, 48.786
1394.753, 92.969
1395.946, 121.906
1397.140, 107.811
1398.333, 221.655
1399.526, 138.510
1400.719, 102.441
1401.911, 136.258
1403.104, 177.498
1404.296, 204.634
1405.488, 271.980
1406.680, 23.027
1407.872, 209.067
1409.063, 171.353
1410.255, 52.137
1411.446, 245.653
1412.637, 303.305
1413.828, 151.190
1415.018, 277.345
1416.209, 135.234
1417.399, 117.510
1418.589, 218.531
1419.779, 131.688
1420.969, 229.683
1422.159, 41.339
1423.348, 237.247
1424.537, 151.277
1425.726, 222.016
1426.915, 247.939
1428.104, 194.458
1429.293, 164.839
1430.481, 127.409
1431.669, 391.611
1432.857, 358.100
1434.045, 181.249
1435.233, 466.694
1436.420, 413.124
1437.608, 377.069
1438.795, 169.447
1439.982, 307.781
1441.169, 306.074
1442.355, 341.340
1443.542, 480.580
1444.728, 325.800
1445.914, 383.002
1447.100, 396.192
1448.286, 352.248
1449.472, 440.324
1450.657, 389.951
1451.842, 462.904
1453.027, 365.578
1454.212, 506.248
1455.397, 385.108
1456.581, 391.078
1457.766, 336.940
1458.950, 269.345
1460.134, 276.844
1461.318, 245.591
1462.501, 258.532
1463.685, 263.731
1464.868, 273.871
1466.051, 409.046
1467.234, 367.171
1468.417, 405.810
1469.600, 368.250
1470.782, 390.551
1471.965, 396.546
1473.147, 348.806
1474.329, 309.973
1475.510, 253.133
1476.692, 177.274
1477.873, 199.394
1479.055, 316.493
1480.236, 309.568
1481.416, 321.142
1482.597, 117.653
1483.778, 314.703
1484.958, 90.756
1486.138, 124.818
1487.318, 309.002
1488.498, 84.285
1489.678, 95.651
1490.857, 106.391
1492.037, 179.305
1493.216, 281.343
1494.395, 215.483
1495.574, 273.729
1496.752, 99.068
1497.931, 214.519
1499.109, 64.106
1500.287, 1.136
1501.465, 26.038
1502.643, 20.351
1503.820, 44.522
1504.998, 32.275
1506.175, 112.296
1507.352, 176.625
1508.529, 172.319
1509.706, 218.565
1510.882, 60.286
1512.059, 171.751
1513.235, 106.704
1514.411, 1.374
1515.587, 24.503
1516.762, 0.000
##END=



