##NAMES=Beryl
##RRUFFID=R050368
##IDEAL CHEMISTRY=Be_3_Al_2_Si_6_O_18_
##LOCALITY=Wah Wah Mountains, Utah, USA
##OWNER=RRUFF
##SOURCE=Eugene Schlepp
##DESCRIPTION=Red-violet hexagonal prism
##STATUS=The identification of this mineral has been confirmed by X-ray diffraction and chemical analysis
##URL=rruff.info/R050368
##MEASURED CHEMISTRY=(Be_0.99_Li_0.01_)_3_(Al_0.95_Fe^3+^_0.05_)_2_Si_6.00_O_18_Î‡K_0.02_Na_0.01_
##PIN_ID=L01133
##ORIENTATION=Laser parallel to -a* (-1 0 0). Fiducial mark perpendicular to laser is parallel to -c [0 0 -1]
82.36700, 0.0000000E+00
83.60200, 120.6099
84.83700, 246.4819
86.07200, 15.17310
87.30800, 134.1606
88.54200, 203.3801
89.77700, 241.0239
91.01200, 427.0498
92.24600, 420.6963
93.48000, 339.3931
94.71400, 484.6934
95.94800, 280.2417
97.18200, 303.7515
98.41600, 258.9888
99.64900, 356.7627
100.8830, 293.9189
102.1160, 200.3267
103.3490, 336.8667
104.5820, 457.4331
105.8150, 691.9326
107.0470, 1006.284
108.2800, 939.4277
109.5120, 1579.272
110.7440, 873.7935
111.9760, 671.9355
113.2080, 645.6577
114.4400, 876.9258
115.6710, 925.7109
116.9030, 793.9883
118.1340, 736.7495
119.3650, 699.9751
120.5960, 589.6250
121.8270, 575.6582
123.0580, 501.7397
124.2880, 549.7515
125.5190, 410.7656
126.7490, 513.0664
127.9790, 535.6387
129.2090, 604.4697
130.4390, 510.5474
131.6680, 648.8608
132.8980, 478.4019
134.1270, 504.1611
135.3560, 443.1313
136.5850, 555.3047
137.8140, 611.6758
139.0430, 662.2373
140.2710, 535.9863
141.5000, 552.9204
142.7280, 364.0420
143.9560, 244.3540
145.1840, 187.8540
146.4120, 277.5371
147.6390, 259.3965
148.8670, 176.4321
150.0940, 146.6582
151.3210, 188.1519
152.5490, 121.9556
153.7750, 122.0127
155.0020, 246.1948
156.2290, 145.4619
157.4550, 157.7046
158.6810, 68.89844
159.9080, 153.0938
161.1340, 183.3047
162.3590, 255.5439
163.5850, 365.8203
164.8110, 321.1392
166.0360, 430.5078
167.2610, 368.9302
168.4860, 481.4106
169.7110, 402.9512
170.9360, 439.5547
172.1610, 502.2231
173.3850, 415.9580
174.6100, 465.7612
175.8340, 425.6338
177.0580, 559.5762
178.2820, 570.5913
179.5050, 563.6792
180.7290, 720.8398
181.9520, 728.0737
183.1760, 809.3789
184.3990, 835.7568
185.6220, 880.2061
186.8450, 1021.727
188.0670, 981.3174
189.2900, 1120.979
190.5120, 1055.708
191.7340, 1215.506
192.9560, 1256.372
194.1780, 1301.305
195.4000, 1330.321
196.6220, 1231.418
197.8430, 1326.641
199.0640, 1235.964
200.2860, 1380.425
201.5070, 1439.048
202.7270, 1532.853
203.9480, 1343.813
205.1690, 990.9067
206.3890, 760.0884
207.6090, 768.3262
208.8290, 673.6094
210.0490, 634.9385
211.2690, 650.3125
212.4890, 632.7295
213.7080, 513.2979
214.9280, 569.0347
216.1470, 427.0239
217.3660, 494.6841
218.5850, 506.1528
219.8030, 505.1270
221.0220, 506.5059
222.2400, 574.3975
223.4590, 595.6875
224.6770, 608.4434
225.8950, 695.1079
227.1120, 730.8076
228.3300, 734.5425
229.5480, 764.7095
230.7650, 890.7007
231.9820, 898.4434
233.1990, 908.7197
234.4160, 1018.060
235.6330, 935.6436
236.8490, 1036.446
238.0660, 1021.446
239.2820, 873.6255
240.4980, 904.9712
241.7140, 836.4717
242.9300, 765.1143
244.1460, 767.8911
245.3610, 823.7935
246.5770, 825.8135
247.7920, 868.9458
249.0070, 818.1846
250.2220, 754.5239
251.4370, 833.9585
252.6510, 707.4849
253.8660, 671.0991
255.0800, 576.7964
256.2940, 572.5747
257.5080, 568.4307
258.7220, 810.3604
259.9360, 911.3623
261.1490, 682.4429
262.3630, 501.5913
263.5760, 454.8130
264.7890, 452.0996
266.0020, 484.4482
267.2150, 538.8789
268.4270, 527.3662
269.6400, 556.9292
270.8520, 518.5767
272.0640, 583.2832
273.2760, 537.0605
274.4880, 434.8882
275.7000, 558.7734
276.9120, 551.7056
278.1230, 578.6875
279.3340, 632.3613
280.5450, 573.7861
281.7560, 673.9009
282.9670, 601.0571
284.1780, 572.2568
285.3880, 726.4971
286.5980, 644.7764
287.8090, 760.0947
289.0190, 721.4502
290.2290, 800.8423
291.4380, 721.2715
292.6480, 933.7354
293.8570, 968.2339
295.0670, 1096.766
296.2760, 1062.330
297.4850, 1186.927
298.6930, 1263.553
299.9020, 1429.208
301.1110, 1583.891
302.3190, 1709.602
303.5270, 1794.342
304.7350, 2202.109
305.9430, 2485.904
307.1510, 2942.689
308.3580, 3578.541
309.5660, 4647.421
310.7730, 5824.730
311.9800, 7322.452
313.1870, 8775.167
314.3940, 10396.49
315.6010, 11903.93
316.8070, 14107.51
318.0130, 15636.71
319.2200, 15962.16
320.4260, 14427.37
321.6310, 12002.76
322.8370, 9485.805
324.0430, 7036.369
325.2480, 5011.763
326.4540, 3213.068
327.6590, 2165.589
328.8640, 1441.499
330.0680, 1074.271
331.2730, 684.5815
332.4780, 477.9106
333.6820, 369.2588
334.8860, 326.6265
336.0900, 226.2134
337.2940, 133.6177
338.4980, 70.04004
339.7010, 99.47998
340.9050, 77.93750
342.1080, 21.41162
343.3110, 7.097656
344.5140, 1.591797
345.7170, 12.07178
346.9200, 23.53809
348.1220, 38.00732
349.3240, 44.43506
350.5270, 36.12988
351.7290, 68.29346
352.9310, 64.71338
354.1320, 75.13037
355.3340, 3.546387
356.5350, 52.95215
357.7370, 74.35400
358.9380, 126.7559
360.1390, 79.16992
361.3400, 61.58691
362.5400, 34.38867
363.7410, 6.441895
364.9410, 52.12207
366.1410, 106.6782
367.3410, 135.2109
368.5410, 112.7402
369.7410, 200.2783
370.9400, 307.8262
372.1400, 498.3828
373.3390, 489.9492
374.5380, 546.5420
375.7370, 770.1606
376.9360, 1011.809
378.1350, 1256.490
379.3330, 1544.197
380.5310, 1975.927
381.7300, 2516.681
382.9280, 3406.457
384.1260, 4445.254
385.3230, 5518.072
386.5210, 6881.908
387.7180, 8298.764
388.9160, 9658.639
390.1130, 11241.53
391.3100, 12326.44
392.5060, 12489.37
393.7030, 11724.31
394.9000, 10189.27
396.0960, 8349.239
397.2920, 6633.227
398.4880, 4873.230
399.6840, 3610.248
400.8800, 2468.279
402.0750, 1747.323
403.2710, 1328.382
404.4660, 999.5098
405.6610, 747.5928
406.8560, 579.5591
408.0510, 461.2241
409.2450, 295.6738
410.4400, 226.1895
411.6340, 207.3291
412.8280, 145.0547
414.0220, 97.33447
415.2160, 145.9961
416.4100, 92.85693
417.6030, 199.0430
418.7970, 164.2021
419.9900, 120.4038
421.1830, 115.3286
422.3760, 101.6538
423.5690, 186.8770
424.7610, 122.1064
425.9540, 42.34180
427.1460, 178.9346
428.3380, 136.1826
429.5300, 252.4370
430.7220, 178.6973
431.9140, 174.9624
433.1050, 281.2324
434.2970, 290.5088
435.4880, 374.7891
436.6790, 324.0747
437.8700, 371.2271
439.0610, 386.6582
440.2510, 386.9561
441.4420, 389.2588
442.6320, 354.5649
443.8220, 223.8745
445.0120, 223.1875
446.2020, 177.5039
447.3910, 190.8232
448.5810, 180.1455
449.7700, 35.52881
450.9600, 138.7720
452.1490, 82.07520
453.3370, 59.61914
454.5260, 11.35107
455.7150, 10.09766
456.9030, 1.859375
458.0910, 39.63330
459.2800, 75.43701
460.4670, 33.28760
461.6550, 105.1660
462.8430, 83.10742
464.0300, 51.10205
465.2180, 61.13379
466.4050, 69.20850
467.5920, 48.32959
468.7790, 10.48828
469.9650, 13.66602
471.1520, 19.13477
472.3380, 23.93018
473.5250, 78.71973
474.7110, 145.5103
475.8970, 86.29980
477.0820, 114.0898
478.2680, 36.87891
479.4540, 69.66357
480.6390, 92.44873
481.8240, 131.2324
483.0090, 155.0156
484.1940, 244.7969
485.3780, 144.5767
486.5630, 220.2583
487.7470, 269.9990
488.9320, 218.5962
490.1160, 94.95850
491.3000, 176.7290
492.4830, 139.4971
493.6670, 189.2642
494.8500, 180.1709
496.0340, 155.1899
497.2170, 272.7944
498.4000, 277.4863
499.5820, 208.8701
500.7650, 162.4370
501.9480, 268.6748
503.1300, 206.9878
504.3120, 275.9722
505.4940, 187.8926
506.6760, 200.5107
507.8580, 288.2524
509.0390, 253.9922
510.2210, 247.7378
511.4020, 286.4897
512.5830, 358.2427
513.7640, 354.9380
514.9450, 319.7480
516.1250, 373.4985
517.3060, 372.2476
518.4860, 339.9951
519.6660, 424.7583
520.8460, 446.9111
522.0260, 558.2817
523.2060, 575.0425
524.3850, 599.8008
525.5650, 669.5562
526.7440, 677.3081
527.9230, 482.0571
529.1020, 434.8252
530.2810, 441.6040
531.4590, 372.3799
532.6380, 425.1670
533.8160, 256.9546
534.9940, 200.7471
536.1720, 166.5488
537.3500, 188.3452
538.5270, 124.1543
539.7050, 190.9844
540.8820, 98.83594
542.0590, 120.6831
543.2360, 69.54297
544.4130, 76.39893
545.5900, 4.749512
546.7660, 80.07959
547.9430, 1.095215
549.1190, 31.72266
550.2950, 41.52930
551.4710, 57.66504
552.6470, 93.08740
553.8220, 44.15479
554.9980, 84.43262
556.1730, 7.222168
557.3480, 45.13232
558.5230, 78.46973
559.6980, 0.9321290
560.8730, 114.6416
562.0470, 30.23096
563.2220, 60.81689
564.3960, 90.40137
565.5700, 115.9785
566.7440, 101.5566
567.9170, 47.15723
569.0910, 297.7490
570.2640, 297.3345
571.4380, 278.9131
572.6110, 276.4873
573.7840, 339.0547
574.9570, 374.6978
576.1290, 403.0039
577.3020, 500.7212
578.4740, 497.2617
579.6460, 524.7969
580.8180, 620.3345
581.9900, 625.8657
583.1620, 766.3892
584.3330, 820.9043
585.5040, 855.4102
586.6760, 969.9067
587.8470, 1042.396
589.0180, 1227.875
590.1880, 1279.359
591.3590, 1351.872
592.5290, 1424.116
593.7000, 1314.791
594.8700, 1450.835
596.0400, 1329.484
597.2090, 1229.158
598.3790, 1304.236
599.5490, 1174.219
600.7180, 1153.079
601.8870, 1121.359
603.0560, 1096.384
604.2250, 973.6562
605.3940, 981.7627
606.5620, 910.2393
607.7300, 880.2861
608.8990, 846.4360
610.0670, 865.6899
611.2350, 817.7686
612.4020, 725.8604
613.5700, 1027.736
614.7370, 1037.196
615.9050, 1001.489
617.0720, 1089.865
618.2390, 1148.201
619.4060, 1206.269
620.5720, 1149.634
621.7390, 1031.908
622.9050, 848.1533
624.0710, 775.3896
625.2370, 703.6182
626.4030, 569.8379
627.5690, 531.0508
628.7340, 505.2549
629.9000, 529.4521
631.0650, 438.6426
632.2300, 423.8242
633.3950, 518.0029
634.5600, 514.1719
635.7240, 561.3989
636.8890, 646.5088
638.0530, 646.6787
639.2170, 741.8394
640.3810, 794.4995
641.5450, 754.2114
642.7080, 852.3813
643.8720, 809.5532
645.0350, 838.7236
646.1980, 837.8892
647.3610, 952.2363
648.5240, 852.4932
649.6870, 1050.288
650.8490, 1123.347
652.0120, 1140.087
653.1740, 1080.722
654.3360, 1196.232
655.4980, 1338.463
656.6600, 1315.745
657.8210, 1625.140
658.9830, 1794.468
660.1440, 2008.912
661.3050, 2292.720
662.4660, 2561.288
663.6270, 2989.466
664.7870, 3469.761
665.9480, 4192.847
667.1080, 4943.111
668.2680, 6070.423
669.4280, 7457.760
670.5880, 9491.118
671.7480, 11967.66
672.9070, 15269.73
674.0670, 19817.69
675.2260, 24717.84
676.3850, 30162.73
677.5440, 35444.83
678.7030, 40366.66
679.8610, 43645.73
681.0200, 43854.00
682.1780, 40725.90
683.3360, 34866.15
684.4940, 29035.45
685.6520, 22884.73
686.8090, 17991.03
687.9670, 13799.78
689.1240, 10647.20
690.2810, 8274.625
691.4380, 6736.254
692.5950, 5438.451
693.7520, 4598.457
694.9080, 3958.430
696.0650, 3214.278
697.2210, 2930.416
698.3770, 2493.737
699.5330, 2239.750
700.6880, 1980.827
701.8440, 1693.126
702.9990, 1434.167
704.1550, 1303.933
705.3100, 1210.306
706.4650, 1158.970
707.6190, 937.8496
708.7740, 910.7017
709.9290, 857.4771
711.0830, 896.8867
712.2370, 671.5068
713.3910, 630.4199
714.5450, 648.9219
715.6980, 587.4761
716.8520, 576.9653
718.0050, 550.0015
719.1580, 508.7480
720.3110, 458.9292
721.4640, 427.5293
722.6170, 383.1606
723.7700, 326.4619
724.9220, 317.8203
726.0740, 214.3770
727.2260, 257.7554
728.3780, 242.1211
729.5300, 296.3521
730.6810, 256.6572
731.8330, 189.8545
732.9840, 237.0830
734.1350, 143.2661
735.2860, 174.4404
736.4370, 247.6060
737.5880, 207.7969
738.7380, 153.9512
739.8880, 102.1123
741.0390, 166.4424
742.1890, 131.6157
743.3380, 198.8950
744.4880, 168.0796
745.6380, 92.26855
746.7870, 130.4629
747.9360, 165.6597
749.0850, 106.8486
750.2340, 47.03076
751.3830, 102.1943
752.5310, 76.34424
753.6800, 179.4746
754.8280, 93.58740
755.9760, 101.6831
757.1240, 148.7598
758.2720, 91.81982
759.4190, 111.8623
760.5670, 162.8877
761.7140, 154.8945
762.8610, 236.8848
764.0080, 262.8579
765.1550, 185.8130
766.3020, 252.6196
767.4480, 270.6719
768.5950, 291.5757
769.7410, 247.4619
770.8870, 280.3301
772.0330, 206.1816
773.1780, 140.0156
774.3240, 316.8320
775.4690, 198.6309
776.6140, 141.4126
777.7590, 168.1768
778.9040, 108.9238
780.0490, 149.6528
781.1940, 222.3638
782.3380, 123.0566
783.4820, 168.7324
784.6260, 77.39014
785.7700, 97.02832
786.9140, 1.351563
788.0580, 5.765625
789.2010, 32.78467
790.3450, 38.31250
791.4880, 46.81641
792.6310, 89.29980
793.7730, 74.76367
794.9160, 54.20850
796.0590, 43.36719
797.2010, 47.00146
798.3430, 23.34912
799.4850, 35.67188
800.6270, 83.97217
801.7690, 57.25391
802.9100, 100.5151
804.0520, 57.75781
805.1930, 61.01904
806.3340, 29.86035
807.4750, 43.25049
808.6160, 33.65918
809.7560, 8.469727
810.8970, 6.492188
812.0370, 25.59326
813.1770, 131.8232
814.3170, 41.26514
815.4570, 69.40674
816.5960, 73.58154
817.7360, 42.13623
818.8750, 38.69824
820.0140, 41.94922
821.1530, 37.57129
822.2920, 33.17188
823.4310, 33.75977
824.5690, 36.64600
825.7070, 73.57959
826.8460, 5.953613
827.9840, 59.03369
829.1220, 13.48828
830.2590, 20.04980
831.3970, 41.36621
832.5340, 17.20703
833.6710, 7.185547
834.8080, 22.57129
835.9450, 44.93408
837.0820, 62.71387
838.2190, 14.42627
839.3550, 1.172363
840.4910, 74.05029
841.6270, 5.745117
842.7630, 90.57373
843.8990, 16.52002
845.0350, 39.59229
846.1700, 49.64648
847.3060, 7.680664
848.4410, 77.69043
849.5760, 24.68359
850.7100, 3.656250
851.8450, 79.60303
852.9800, 90.53271
854.1140, 12.44678
855.2480, 23.66113
856.3820, 17.19141
857.5160, 45.02344
858.6500, 32.83936
859.7830, 140.6372
860.9170, 88.42090
862.0500, 36.18848
863.1830, 73.93994
864.3160, 33.32422
865.4480, 99.36914
866.5810, 80.04883
867.7130, 104.7139
868.8460, 88.36426
869.9780, 129.0010
871.1100, 154.6235
872.2410, 214.2334
873.3730, 87.82861
874.5050, 119.4106
875.6360, 123.9795
876.7670, 52.50146
877.8980, 120.0415
879.0290, 68.56787
880.1590, 166.0801
881.2900, 107.5791
882.4200, 249.9824
883.5500, 185.4546
884.6800, 143.9131
885.8100, 254.3325
886.9400, 271.3467
888.0690, 192.7153
889.1990, 218.9678
890.3280, 235.3667
891.4570, 218.6621
892.5860, 200.9790
893.7140, 228.3428
894.8430, 251.5923
895.9710, 287.9258
897.1000, 263.2686
898.2280, 338.5986
899.3560, 264.9297
900.4830, 327.2495
901.6110, 265.5625
902.7380, 336.8672
903.8660, 354.1611
904.9930, 345.4434
906.1200, 452.7207
907.2460, 582.9858
908.3730, 570.2446
909.5000, 771.5010
910.6260, 752.7471
911.7520, 794.9863
912.8780, 853.2153
914.0040, 812.4336
915.1290, 915.5869
916.2550, 727.7847
917.3800, 841.9727
918.5050, 763.1504
919.6300, 626.3179
920.7550, 532.2861
921.8800, 462.7603
923.0040, 436.8071
924.1290, 343.0049
925.2530, 355.5034
926.3770, 330.0879
927.5010, 200.7778
928.6250, 306.7285
929.7480, 236.6094
930.8720, 195.3589
931.9950, 106.1558
933.1180, 125.8188
934.2410, 64.09961
935.3640, 46.33105
936.4860, 87.47510
937.6090, 60.21338
938.7310, 51.14111
939.8530, 161.8740
940.9750, 54.54248
942.0970, 99.16602
943.2180, 26.74951
944.3400, 47.86230
945.4610, 47.04102
946.5820, 10.12598
947.7030, 0.5771480
948.8240, 15.51123
949.9450, 20.23926
951.0650, 1.263672
952.1860, 33.91748
953.3060, 43.59619
954.4260, 2.251953
955.5460, 4.714355
956.6650, 27.12695
957.7850, 30.47949
958.9040, 1.150879
960.0230, 52.11670
961.1420, 35.46240
962.2610, 23.83545
963.3800, 28.96289
964.4990, 69.33789
965.6170, 63.31592
966.7350, 142.7642
967.8530, 37.94922
968.9710, 17.63818
970.0890, 58.81250
971.2070, 116.3145
972.3240, 138.7017
973.4410, 185.1372
974.5580, 194.6514
975.6750, 103.0786
976.7920, 215.1147
977.9090, 123.8452
979.0250, 145.9961
980.1410, 101.5137
981.2580, 198.0952
982.3740, 285.0283
983.4890, 226.7451
984.6050, 225.1538
985.7200, 381.9600
986.8360, 311.7197
987.9510, 361.5322
989.0660, 345.7852
990.1810, 564.0220
991.2950, 470.4556
992.4100, 705.1387
993.5240, 792.7871
994.6390, 822.7524
995.7530, 789.6484
996.8660, 1025.363
997.9800, 1031.243
999.0940, 1300.125
1000.207, 1350.131
1001.320, 1565.066
1002.433, 1507.099
1003.546, 1735.089
1004.659, 1880.144
1005.772, 1881.204
1006.884, 1950.270
1007.996, 2103.307
1009.108, 2074.384
1010.220, 2107.470
1011.332, 2101.389
1012.444, 1984.488
1013.555, 1846.500
1014.666, 1878.615
1015.777, 1895.737
1016.888, 1638.866
1017.999, 1766.003
1019.110, 1904.146
1020.220, 1813.298
1021.331, 1965.462
1022.441, 1965.936
1023.551, 1935.114
1024.661, 1982.301
1025.770, 2140.871
1026.880, 2135.074
1027.989, 2327.710
1029.098, 2302.030
1030.207, 2553.260
1031.316, 2706.494
1032.425, 2897.504
1033.533, 3038.767
1034.642, 3307.138
1035.750, 3583.161
1036.858, 3661.435
1037.966, 4086.716
1039.073, 4414.259
1040.181, 4725.555
1041.288, 5167.648
1042.396, 5751.919
1043.503, 6252.236
1044.610, 6770.451
1045.716, 7617.786
1046.823, 8398.123
1047.929, 9412.476
1049.036, 10376.83
1050.142, 11820.20
1051.248, 13306.58
1052.353, 15072.97
1053.459, 17300.37
1054.564, 19805.78
1055.670, 22980.20
1056.775, 26756.64
1057.880, 30929.10
1058.985, 35535.58
1060.089, 40628.05
1061.194, 45597.54
1062.298, 50265.05
1063.402, 54055.58
1064.506, 55466.10
1065.610, 56160.66
1066.713, 54871.22
1067.817, 52139.82
1068.920, 48339.43
1070.023, 43888.05
1071.126, 39405.68
1072.229, 34704.32
1073.332, 30423.98
1074.435, 27013.67
1075.537, 23796.40
1076.639, 21116.13
1077.741, 19089.79
1078.843, 17174.72
1079.945, 15534.15
1081.046, 14075.90
1082.148, 12976.72
1083.249, 11784.56
1084.350, 10831.40
1085.451, 9920.308
1086.551, 9041.755
1087.652, 8557.696
1088.752, 7694.811
1089.853, 7096.773
1090.953, 6416.746
1092.053, 6102.703
1093.152, 5758.012
1094.252, 5479.070
1095.351, 5007.595
1096.451, 4517.643
1097.550, 4399.706
1098.649, 4096.789
1099.748, 3958.883
1100.846, 3784.994
1101.945, 3413.119
1103.043, 3322.253
1104.141, 3223.394
1105.239, 2840.565
1106.337, 2950.764
1107.434, 2708.405
1108.532, 2667.834
1109.629, 2443.062
1110.726, 2446.332
1111.823, 2362.470
1112.920, 2274.904
1114.017, 2214.484
1115.113, 2148.258
1116.210, 2093.592
1117.306, 1966.988
1118.402, 1968.814
1119.498, 1885.421
1120.593, 1866.190
1121.689, 1742.689
1122.784, 1727.289
1123.879, 1805.188
1124.974, 1519.721
1126.069, 1512.292
1127.164, 1622.006
1128.259, 1377.994
1129.353, 1350.979
1130.447, 1268.843
1131.541, 1383.878
1132.635, 1229.696
1133.729, 1129.806
1134.822, 1100.807
1135.916, 1017.497
1137.009, 955.1943
1138.102, 1014.255
1139.195, 807.2002
1140.288, 782.8896
1141.380, 669.0410
1142.473, 497.7607
1143.565, 398.9209
1144.657, 338.3779
1145.749, 350.3652
1146.841, 219.2578
1147.932, 173.9697
1149.024, 227.0723
1150.115, 68.93262
1151.206, 173.1309
1152.297, 69.61816
1153.388, 40.27734
1154.479, 57.47949
1155.569, 51.34766
1156.659, 15.52637
1157.750, 15.66504
1158.839, 16.45605
1159.929, 76.18359
1161.019, 40.74121
1162.108, 21.33008
1163.198, 68.54590
1164.287, 1.319336
1165.376, 32.41309
1166.465, 23.36133
1167.553, 31.19727
1168.642, 13.76270
1169.730, 34.66992
1170.818, 45.23535
1171.906, 22.89844
1172.994, 49.23438
1174.082, 62.52832
1175.170, 24.44434
1176.257, 97.41699
1177.344, 134.9043
1178.431, 21.24609
1179.518, 43.36719
1180.605, 48.04688
1181.691, 38.87793
1182.778, 113.1787
1183.864, 161.3496
1184.950, 220.6729
1186.036, 81.37695
1187.122, 195.0596
1188.207, 236.1357
1189.292, 47.34863
1190.378, 108.2197
1191.463, 143.1787
1192.548, 119.4102
1193.632, 222.8223
1194.717, 84.62207
1195.801, 170.1416
1196.886, 183.0293
1197.970, 159.9404
1199.054, 180.2051
1200.137, 139.9629
1201.221, 136.6982
1202.305, 136.0615
1203.388, 61.81348
1204.471, 136.4844
1205.554, 62.89355
1206.637, 64.11426
1207.719, 80.05371
1208.802, 23.82422
1209.884, 105.2207
1210.966, 91.99023
1212.048, 129.8076
1213.130, 134.2520
1214.212, 151.9170
1215.293, 184.8916
1216.374, 159.3184
1217.456, 122.4775
1218.536, 50.92578
1219.617, 237.4102
1220.698, 210.7607
1221.778, 262.5859
1222.859, 199.2939
1223.939, 276.8994
1225.019, 282.2822
1226.099, 192.0820
1227.178, 166.1348
1228.258, 114.0459
1229.337, 203.4297
1230.417, 144.6885
1231.496, 146.6406
1232.574, 170.4727
1233.653, 171.0322
1234.732, 145.0889
1235.810, 119.2686
1236.888, 19.44238
1237.966, 74.24609
1239.044, 164.5303
1240.122, 130.8828
1241.199, 2.653320
1242.277, 105.0127
1243.354, 74.27734
1244.431, 13.31445
1245.508, 141.7139
1246.585, 131.4160
1247.661, 62.76074
1248.738, 89.04395
1249.814, 53.83008
1250.890, 87.58887
1251.966, 5.921875
1253.042, 35.87988
1254.117, 22.27051
1255.193, 120.3779
1256.268, 90.99902
1257.343, 91.51367
1258.418, 37.15234
1259.493, 68.52148
1260.567, 34.62402
1261.642, 89.45020
1262.716, 33.97754
1263.790, 64.60938
