##NAMES=Beryl
##RRUFFID=R050305
##IDEAL CHEMISTRY=Be_3_Al_2_Si_6_O_18_
##LOCALITY=Conselheiro Pena, Minas Gerais, Brazil
##OWNER=RRUFF
##SOURCE=Eugene Schlepp
##DESCRIPTION=Light blue fragment, variety aquamarine
##STATUS=The identification of this mineral has been confirmed by X-ray diffraction and chemical analysis
##URL=rruff.info/R050305
##MEASURED CHEMISTRY=(Be_0.91_Li_0.09_)_3_(Al_0.99_Fe^3+^_0.01_)_2_Si_6.00_O_18_Î‡Na_0.27_
##PIN_ID=L01620
##ORIENTATION=Laser parallel to a* (1 0 0). Fiducial mark perpendicular to laser is parallel to -c [0 0 -1]
100.8830, 0.0000000E+00
102.1160, 5.055664
103.3490, 20.63379
104.5820, 10.50195
105.8150, 483.7471
107.0470, 893.1230
108.2800, 1493.066
109.5120, 2250.592
110.7440, 1992.585
111.9760, 1310.479
113.2080, 1407.097
114.4400, 1743.527
115.6710, 2130.169
116.9030, 2346.494
118.1340, 2383.984
119.3650, 2235.215
120.5960, 2092.851
121.8270, 2233.634
123.0580, 2415.328
124.2880, 2226.724
125.5190, 2354.619
126.7490, 2271.848
127.9790, 2203.464
129.2090, 2287.872
130.4390, 2210.558
131.6680, 2228.240
132.8980, 2189.804
134.1270, 2194.060
135.3560, 2155.984
136.5850, 2063.516
137.8140, 2029.601
139.0430, 2362.204
140.2710, 2147.668
141.5000, 2019.550
142.7280, 1779.905
143.9560, 1621.669
145.1840, 1639.897
146.4120, 1506.404
147.6390, 1360.130
148.8670, 1389.062
150.0940, 1364.196
151.3210, 1299.521
152.5490, 1352.028
153.7750, 1347.715
155.0020, 1456.790
156.2290, 1306.184
157.4550, 1309.434
158.6810, 1248.783
159.9080, 1343.657
161.1340, 1368.412
162.3590, 1343.812
163.5850, 1420.863
164.8110, 1663.373
166.0360, 1652.939
167.2610, 1650.526
168.4860, 1754.138
169.7110, 1577.778
170.9360, 1596.455
172.1610, 1567.170
173.3850, 1597.922
174.6100, 1426.668
175.8340, 1382.255
177.0580, 1420.758
178.2820, 1292.457
179.5050, 1416.125
180.7290, 1162.344
181.9520, 1343.584
183.1760, 1130.969
184.3990, 1117.974
185.6220, 1191.209
186.8450, 1002.727
188.0670, 1045.253
189.2900, 1040.587
190.5120, 1175.327
191.7340, 1034.766
192.9560, 1014.268
194.1780, 995.8320
195.4000, 855.4580
196.6220, 843.1445
197.8430, 929.8906
199.0640, 822.6963
200.2860, 1032.558
201.5070, 1107.477
202.7270, 1016.447
203.9480, 669.4658
205.1690, 389.5361
206.3890, 38.65137
207.6090, 20.81055
208.8290, 128.9873
210.0490, 21.74219
211.2690, 114.4541
212.4890, 129.1250
213.7080, 12.75977
214.9280, 8.653320
216.1470, 85.89648
217.3660, 26.41016
218.5850, 56.11523
219.8030, 76.76855
221.0220, 21.49414
222.2400, 131.5781
223.4590, 111.4229
224.6770, 414.1602
225.8950, 259.9639
227.1120, 307.8027
228.3300, 139.8115
229.5480, 123.5205
230.7650, 352.2393
231.9820, 365.0264
233.1990, 436.8652
234.4160, 446.7139
235.6330, 423.7119
236.8490, 400.5908
238.0660, 361.5557
239.2820, 332.1631
240.4980, 266.6953
241.7140, 261.1123
242.9300, 237.5723
244.1460, 205.9053
245.3610, 234.5107
246.5770, 134.9883
247.7920, 68.90234
249.0070, 11.30371
250.2220, 69.76074
251.4370, 14.20215
252.6510, 7.446289
253.8660, 137.4570
255.0800, 74.99414
256.2940, 39.22949
257.5080, 9.173828
258.7220, 106.1309
259.9360, 95.02930
261.1490, 98.17871
262.3630, 179.2979
263.5760, 37.37012
264.7890, 28.41113
266.0020, 66.06445
267.2150, 43.39062
268.4270, 8.041992
269.6400, 143.6250
270.8520, 130.3867
272.0640, 8.234375
273.2760, 20.83789
274.4880, 55.84375
275.7000, 26.20410
276.9120, 36.27051
278.1230, 9.529297
279.3340, 127.6768
280.5450, 177.9287
281.7560, 174.2236
282.9670, 358.5596
284.1780, 403.9326
285.3880, 403.3408
286.5980, 406.7783
287.8090, 636.2461
289.0190, 613.7402
290.2290, 745.2568
291.4380, 941.7959
292.6480, 993.3564
293.8570, 1040.937
295.0670, 836.5342
296.2760, 880.1504
297.4850, 766.7822
298.6930, 645.4277
299.9020, 663.0898
301.1110, 439.7275
302.3190, 276.3418
303.5270, 347.9316
304.7350, 402.5127
305.9430, 258.1016
307.1510, 251.6748
308.3580, 216.2529
309.5660, 348.8359
310.7730, 401.4189
311.9800, 597.0039
313.1870, 690.5879
314.3940, 649.1719
315.6010, 917.7568
316.8070, 1091.342
318.0130, 1112.926
319.2200, 1508.509
320.4260, 1455.394
321.6310, 1672.975
322.8370, 1713.551
324.0430, 1652.083
325.2480, 1610.596
326.4540, 1425.112
327.6590, 1028.629
328.8640, 926.1338
330.0680, 554.1299
331.2730, 307.6084
332.4780, 296.3223
333.6820, 120.7695
334.8860, 79.36914
336.0900, 73.38281
337.2940, 93.00195
338.4980, 42.34375
339.7010, 204.3154
340.9050, 90.03906
342.1080, 119.2031
343.3110, 201.5596
344.5140, 73.38477
345.7170, 39.24512
346.9200, 107.1299
348.1220, 134.9434
349.3240, 126.2607
350.5270, 49.64941
351.7290, 141.5771
352.9310, 0.4052730
354.1320, 87.72949
355.3340, 116.4580
356.5350, 165.5361
357.7370, 189.1895
358.9380, 149.9375
360.1390, 194.8145
361.3400, 147.4570
362.5400, 86.04590
363.7410, 109.8848
364.9410, 271.0479
366.1410, 177.7773
367.3410, 267.0547
368.5410, 159.1406
369.7410, 229.1611
370.9400, 167.2256
372.1400, 393.7012
373.3390, 531.2012
374.5380, 686.1123
375.7370, 569.4785
376.9360, 827.0576
378.1350, 824.7988
379.3330, 1505.135
380.5310, 2102.199
381.7300, 2226.516
382.9280, 3049.058
384.1260, 2915.353
385.3230, 3147.635
386.5210, 3784.797
387.7180, 4515.057
388.9160, 4938.305
390.1130, 5282.541
391.3100, 6642.799
392.5060, 7885.037
393.7030, 9252.341
394.9000, 10901.22
396.0960, 12303.96
397.2920, 13871.17
398.4880, 15071.98
399.6840, 15265.24
400.8800, 14836.09
402.0750, 13490.91
403.2710, 11803.16
404.4660, 9720.396
405.6610, 7830.627
406.8560, 6351.846
408.0510, 5278.057
409.2450, 4301.063
410.4400, 3648.544
411.6340, 3314.719
412.8280, 2976.315
414.0220, 2762.465
415.2160, 2547.600
416.4100, 2696.595
417.6030, 2622.576
418.7970, 2582.104
419.9900, 2707.182
421.1830, 2492.244
422.3760, 2466.467
423.5690, 2107.498
424.7610, 1951.518
425.9540, 1764.520
427.1460, 1629.504
428.3380, 1552.475
429.5300, 1325.428
430.7220, 1286.633
431.9140, 1035.283
433.1050, 1148.186
434.2970, 1104.070
435.4880, 1040.939
436.6790, 1028.789
437.8700, 958.4609
439.0610, 755.4355
440.2510, 824.2324
441.4420, 800.0098
442.6320, 699.7715
443.8220, 929.5137
445.0120, 776.2383
446.2020, 742.9414
447.3910, 585.6289
448.5810, 743.2969
449.7700, 641.9473
450.9600, 426.5801
452.1490, 651.1934
453.3370, 471.7910
454.5260, 357.3672
455.7150, 555.9258
456.9030, 319.4648
458.0910, 221.9863
459.2800, 324.4902
460.4670, 275.9746
461.6550, 218.4414
462.8430, 141.8867
464.0300, 193.3125
465.2180, 178.2852
466.4050, 240.8301
467.5920, 247.3945
468.7790, 111.5449
469.9650, 258.8652
471.1520, 180.1680
472.3380, 134.4512
473.5250, 183.7109
474.7110, 152.9512
475.8970, 288.1699
477.0820, 141.3711
478.2680, 88.08203
479.4540, 177.0273
480.6390, 179.7832
481.8240, 238.6074
483.0090, 212.1992
484.1940, 312.8789
485.3780, 270.9316
486.5630, 196.7891
487.7470, 278.2070
488.9320, 174.4688
490.1160, 292.7598
491.3000, 48.65039
492.4830, 202.8164
493.6670, 170.6250
494.8500, 86.58594
496.0340, 24.41211
497.2170, 139.4375
498.4000, 13.72656
499.5820, 103.0723
500.7650, 46.87109
501.9480, 4.355469
503.1300, 2.376953
504.3120, 233.0762
505.4940, 45.74414
506.6760, 99.40430
507.8580, 11.94141
509.0390, 127.3320
510.2210, 1.167969
511.4020, 26.63281
512.5830, 48.93359
513.7640, 199.5645
514.9450, 91.66406
516.1250, 64.12305
517.3060, 112.0195
518.4860, 83.14648
519.6660, 46.74609
520.8460, 114.3027
522.0260, 84.66211
523.2060, 125.2910
524.3850, 82.23438
525.5650, 122.1719
526.7440, 130.1172
527.9230, 45.05273
529.1020, 131.9668
530.2810, 178.8672
531.4590, 178.7559
532.6380, 104.6309
533.8160, 383.4941
534.9940, 99.34180
536.1720, 14.17578
537.3500, 188.9844
538.5270, 39.78320
539.7050, 140.5996
540.8820, 298.4277
542.0590, 238.2715
543.2360, 227.1055
544.4130, 301.9316
545.5900, 358.7402
546.7660, 305.5371
547.9430, 402.3203
549.1190, 329.1191
550.2950, 426.9082
551.4710, 370.6855
552.6470, 516.4648
553.8220, 606.2324
554.9980, 436.0293
556.1730, 626.8457
557.3480, 595.7109
558.5230, 733.6055
559.6980, 729.5371
560.8730, 818.4785
562.0470, 722.4062
563.2220, 826.3281
564.3960, 713.2383
565.5700, 901.1348
566.7440, 1049.021
567.9170, 1130.895
569.0910, 1119.754
570.2640, 1131.600
571.4380, 1165.785
572.6110, 1138.258
573.7840, 1215.064
574.9570, 1211.865
576.1290, 1265.652
577.3020, 1179.428
578.4740, 1031.189
579.6460, 947.9414
580.8180, 864.6777
581.9900, 889.4043
583.1620, 734.1172
584.3330, 632.8164
585.5040, 918.5059
586.6760, 718.1816
587.8470, 753.8457
589.0180, 607.4961
590.1880, 433.1367
591.3590, 302.7656
592.5290, 582.3789
593.7000, 433.0156
594.8700, 312.6367
596.0400, 468.2500
597.2090, 362.8477
598.3790, 330.4355
599.5490, 275.0117
600.7180, 183.5762
601.8870, 349.1270
603.0560, 158.6699
604.2250, 267.8945
605.3940, 45.41211
606.5620, 79.91211
607.7300, 195.4004
608.8990, 149.8770
610.0670, 137.3418
611.2350, 136.7969
612.4020, 404.2402
613.5700, 180.1621
614.7370, 261.5859
615.9050, 126.7578
617.0720, 398.1582
618.2390, 276.1309
619.4060, 171.9590
620.5720, 338.3848
621.7390, 179.8320
622.9050, 354.2715
624.0710, 217.7617
625.2370, 204.2734
626.4030, 364.7754
627.5690, 355.3320
628.7340, 242.9043
629.9000, 215.4883
631.0650, 81.90039
632.2300, 63.42578
633.3950, 26.03711
634.5600, 372.4922
635.7240, 211.9043
636.8890, 153.2773
638.0530, 152.8398
639.2170, 170.8730
640.3810, 215.3926
641.5450, 226.0879
642.7080, 293.6992
643.8720, 329.7285
645.0350, 326.8828
646.1980, 171.7930
647.3610, 330.2266
648.5240, 341.3496
649.6870, 362.2285
650.8490, 592.1738
652.0120, 463.1602
653.1740, 482.9688
654.3360, 319.3281
655.4980, 398.6348
656.6600, 482.5137
657.8210, 498.9258
658.9830, 629.1113
660.1440, 678.1191
661.3050, 828.5195
662.4660, 787.1738
663.6270, 1043.033
664.7870, 1217.705
665.9480, 1527.943
667.1080, 1675.201
668.2680, 2106.711
669.4280, 2997.305
670.5880, 3176.816
671.7480, 3553.191
672.9070, 4236.627
674.0670, 5383.994
675.2260, 6739.354
676.3850, 8702.441
677.5440, 11181.17
678.7030, 13635.71
679.8610, 17366.09
681.0200, 21378.74
682.1780, 25298.11
683.3360, 29765.47
684.4940, 33417.83
685.6520, 35489.17
686.8090, 35911.53
687.9670, 33421.70
689.1240, 29376.03
690.2810, 24543.37
691.4380, 19596.70
692.5950, 16021.81
693.7520, 12739.91
694.9080, 10345.40
696.0650, 8440.406
697.2210, 7056.023
698.3770, 6056.795
699.5330, 5160.695
700.6880, 4530.973
701.8440, 3944.170
702.9990, 3529.434
704.1550, 3041.713
705.3100, 2742.986
706.4650, 2575.248
707.6190, 2351.502
708.7740, 2148.936
709.9290, 1945.021
711.0830, 1800.268
712.2370, 1711.506
713.3910, 1587.598
714.5450, 1509.045
715.6980, 1367.025
716.8520, 1322.225
718.0050, 1305.414
719.1580, 1124.594
720.3110, 1245.766
721.4640, 1042.928
722.6170, 1026.078
723.7700, 1106.223
724.9220, 888.3555
726.0740, 1053.480
727.2260, 856.5957
728.3780, 881.7051
729.5300, 1090.803
730.6810, 745.8906
731.8330, 839.2012
732.9840, 901.2734
734.1350, 569.3340
735.2860, 795.3848
736.4370, 643.4277
737.5880, 458.4609
738.7380, 514.4844
739.8880, 670.5020
741.0390, 518.5059
742.1890, 571.5000
743.3380, 614.4902
744.4880, 599.9023
745.6380, 682.7168
746.7870, 585.6797
747.9360, 646.6348
749.0850, 525.6738
750.2340, 526.6133
751.3830, 599.5469
752.5310, 635.4746
753.6800, 488.3887
754.8280, 631.2988
755.9760, 593.1992
757.1240, 649.0918
758.2720, 769.9863
759.4190, 712.4238
760.5670, 801.7480
761.7140, 635.6152
762.8610, 582.4746
764.0080, 447.3223
765.1550, 425.1621
766.3020, 441.9961
767.4480, 484.8164
768.5950, 301.6289
769.7410, 276.5117
770.8870, 293.0859
772.0330, 363.4844
773.1780, 399.2637
774.3240, 375.1055
775.4690, 335.5859
776.6140, 256.5898
777.7590, 239.3672
778.9040, 62.14062
780.0490, 157.9043
781.1940, 211.6738
782.3380, 320.4473
783.4820, 127.2090
784.6260, 176.9707
785.7700, 250.7227
786.9140, 81.48047
788.0580, 118.2754
789.2010, 228.0723
790.3450, 107.8691
791.4880, 173.6816
792.6310, 106.5488
793.7730, 119.4121
794.9160, 147.3730
796.0590, 70.16602
797.2010, 186.0293
798.3430, 139.9121
799.4850, 127.7852
800.6270, 24.68359
801.7690, 19.42969
802.9100, 56.57812
804.0520, 8.224609
805.1930, 62.03320
806.3340, 38.81641
807.4750, 49.83789
808.6160, 107.5996
809.7560, 52.35156
810.8970, 93.89648
812.0370, 56.83008
813.1770, 31.55469
814.3170, 98.63477
815.4570, 121.1855
816.5960, 174.4395
817.7360, 70.94141
818.8750, 90.61328
820.0140, 107.1621
821.1530, 89.69922
822.2920, 117.2285
823.4310, 89.79492
824.5690, 79.69336
825.7070, 176.8770
826.8460, 101.3145
827.9840, 260.4746
829.1220, 22.99805
830.2590, 109.5996
831.3970, 100.2793
832.5340, 188.2383
833.6710, 134.6719
834.8080, 121.6543
835.9450, 12.72852
837.0820, 151.1680
838.2190, 15.05469
839.3550, 186.0703
840.4910, 140.3008
841.6270, 173.3281
842.7630, 270.1738
843.8990, 230.1914
845.0350, 238.2422
846.1700, 162.2129
847.3060, 152.0312
848.4410, 91.83789
849.5760, 21.64062
850.7100, 163.4258
851.8450, 82.58398
852.9800, 147.5137
854.1140, 98.73828
855.2480, 172.4941
856.3820, 252.2441
857.5160, 134.9883
858.6500, 493.7266
859.7830, 264.4570
860.9170, 108.1836
862.0500, 296.9023
863.1830, 393.6133
864.3160, 172.3223
865.4480, 129.0254
866.5810, 171.7227
867.7130, 90.58789
868.8460, 261.0371
869.9780, 320.6543
871.1100, 86.26953
872.2410, 98.87891
873.3730, 137.4844
874.5050, 88.08789
875.6360, 182.6836
876.7670, 142.2773
877.8980, 221.8672
879.0290, 172.4531
880.1590, 206.6543
881.2900, 157.6172
882.4200, 204.1934
883.5500, 128.7695
884.6800, 25.34375
885.8100, 83.02344
886.9400, 126.4805
888.0690, 103.0430
889.1990, 154.6035
890.3280, 109.1621
891.4570, 238.7188
892.5860, 266.2754
893.7140, 268.3184
894.8430, 279.9102
895.9710, 291.9316
897.1000, 168.4805
898.2280, 192.0293
899.3560, 47.57617
900.4830, 244.1211
901.6110, 150.6680
902.7380, 215.2129
903.8660, 299.7578
904.9930, 394.3008
906.1200, 363.8711
907.2460, 232.4414
908.3730, 192.0234
909.5000, 249.6055
910.6260, 417.1895
911.7520, 388.7715
912.8780, 383.3555
914.0040, 524.9414
915.1290, 326.4688
916.2550, 233.0547
917.3800, 517.6445
918.5050, 263.2305
919.6300, 246.8223
920.7550, 240.4121
921.8800, 243.0039
923.0040, 136.5977
924.1290, 191.1914
925.2530, 164.7891
926.3770, 130.3867
927.5010, 203.9902
928.6250, 204.5898
929.7480, 171.1953
930.8720, 78.80078
931.9950, 278.4102
933.1180, 188.0195
934.2410, 220.6309
935.3640, 65.24414
936.4860, 192.3926
937.6090, 133.4844
938.7310, 232.2500
939.8530, 38.01172
940.9750, 151.5781
942.0970, 62.03320
943.2180, 17.42578
944.3400, 193.0156
945.4610, 44.51172
946.5820, 12.10938
947.7030, 54.65625
948.8240, 137.0938
949.9450, 50.54688
951.0650, 82.54297
952.1860, 72.08008
953.3060, 116.9258
954.4260, 35.89258
955.5460, 39.44727
956.6650, 173.0059
957.7850, 27.42773
958.9040, 38.13672
960.0230, 2.121094
961.1420, 81.45508
962.2610, 67.96094
963.3800, 1.527344
964.4990, 21.40430
965.6170, 53.21094
966.7350, 10.37500
967.8530, 66.52539
968.9710, 41.81836
970.0890, 15.95898
971.2070, 38.97070
972.3240, 112.6133
973.4410, 47.66602
974.5580, 162.0117
975.6750, 11.40039
976.7920, 167.2227
977.9090, 12.13867
979.0250, 122.4922
980.1410, 9.867188
981.2580, 163.7676
982.3740, 276.4160
983.4890, 341.0801
984.6050, 431.8906
985.7200, 590.5859
986.8360, 556.2949
987.9510, 811.0176
989.0660, 843.7559
990.1810, 747.5117
991.2950, 887.2832
992.4100, 960.1074
993.5240, 1103.945
994.6390, 1369.801
995.7530, 1711.672
996.8660, 1839.561
997.9800, 2016.607
999.0940, 2117.418
1000.207, 2261.432
1001.320, 2303.459
1002.433, 2346.611
1003.546, 2384.367
1004.659, 2305.480
1005.772, 2225.611
1006.884, 2043.760
1007.996, 2052.936
1009.108, 1939.127
1010.220, 2006.340
1011.332, 1971.574
1012.444, 1893.834
1013.555, 1748.111
1014.666, 1687.406
1015.777, 1561.725
1016.888, 1460.094
1017.999, 1283.484
1019.110, 1191.523
1020.220, 1190.273
1021.331, 997.7422
1022.441, 943.2344
1023.551, 908.7441
1024.661, 791.2754
1025.770, 714.6309
1026.880, 657.4316
1027.989, 569.0410
1029.098, 536.6719
1030.207, 612.3242
1031.316, 570.9961
1032.425, 609.6914
1033.533, 535.4062
1034.642, 379.1445
1035.750, 416.9043
1036.858, 425.6875
1037.966, 517.4902
1039.073, 520.3164
1040.181, 555.1660
1041.288, 658.0352
1042.396, 687.0391
1043.503, 674.8457
1044.610, 807.7852
1045.716, 654.7441
1046.823, 680.7305
1047.929, 891.7363
1049.036, 1094.766
1050.142, 1071.820
1051.248, 1223.895
1052.353, 1178.996
1053.459, 1435.119
1054.564, 1578.266
1055.670, 1747.436
1056.775, 2025.631
1057.880, 2264.850
1058.985, 2357.090
1060.089, 2896.357
1061.194, 3142.645
1062.298, 3243.959
1063.402, 3828.299
1064.506, 4002.660
1065.610, 4149.047
1066.713, 4311.457
1067.817, 4330.895
1068.920, 4438.354
1070.023, 4412.844
1071.126, 4371.367
1072.229, 4160.938
1073.332, 4272.512
1074.435, 3971.141
1075.537, 3870.539
1076.639, 3602.217
1077.741, 3705.922
1078.843, 3247.652
1079.945, 3107.406
1081.046, 3005.188
1082.148, 2703.641
1083.249, 2484.010
1084.350, 2465.914
1085.451, 2230.842
1086.551, 1990.828
1087.652, 1951.842
1088.752, 1635.879
1089.853, 1743.941
1090.953, 1647.988
1092.053, 1450.107
1093.152, 1458.156
1094.252, 1376.359
1095.351, 1247.857
1096.451, 1442.010
1097.550, 1208.299
1098.649, 1222.654
1099.748, 943.8203
1100.846, 1277.322
1101.945, 1009.898
1103.043, 1175.561
1104.141, 1139.260
1105.239, 945.9980
1106.337, 1049.621
1107.434, 1140.074
1108.532, 1035.758
1109.629, 1023.639
1110.726, 821.3711
1111.823, 1077.084
1112.920, 844.9121
1114.017, 852.9102
1115.113, 1107.938
1116.210, 969.9961
1117.306, 1072.109
1118.402, 895.2539
1119.498, 934.4238
1120.593, 1076.869
1121.689, 1018.098
1122.784, 888.3574
1123.879, 812.1230
1124.974, 751.4414
1126.069, 736.5020
1127.164, 756.8145
1128.259, 795.5527
1129.353, 822.0977
1130.447, 909.7578
1131.541, 855.5449
1132.635, 936.0547
1133.729, 812.5918
1134.822, 1148.615
1135.916, 899.2480
1137.009, 699.9102
1138.102, 823.6191
1139.195, 1033.424
1140.288, 952.1895
1141.380, 930.8125
1142.473, 902.6328
1143.565, 995.4863
1144.657, 976.3633
1145.749, 1005.264
1146.841, 922.2344
1147.932, 718.9434
1149.024, 1000.928
1150.115, 770.2891
1151.206, 870.3555
1152.297, 654.4492
1153.388, 901.5742
1154.479, 567.7285
1155.569, 667.9102
1156.659, 479.5371
1157.750, 468.7637
1158.839, 337.0176
1159.929, 326.2949
1161.019, 198.5938
1162.108, 380.9199
1163.198, 176.2734
1164.287, 324.6523
1165.376, 130.0508
1166.465, 245.4785
1167.553, 65.94141
1168.642, 113.4316
1169.730, 447.9453
1170.818, 273.4824
1171.906, 96.04297
1172.994, 230.6289
1174.082, 110.2344
1175.170, 313.8613
1176.257, 251.5117
1177.344, 266.1855
1178.431, 346.8809
1179.518, 219.5996
1180.605, 261.3398
1181.691, 299.1016
1182.778, 410.8848
1183.864, 321.6895
1184.950, 349.5156
1186.036, 416.3633
1187.122, 366.2344
1188.207, 532.1250
1189.292, 263.0371
1190.378, 606.9707
1191.463, 462.9238
1192.548, 355.8984
1193.632, 329.8926
1194.717, 591.9082
1195.801, 482.9434
1196.886, 651.9980
1197.970, 557.5254
1199.054, 474.1699
1200.137, 404.2832
1201.221, 483.4180
1202.305, 580.5703
1203.388, 241.7441
1204.471, 513.9473
1205.554, 304.1699
1206.637, 493.4258
1207.719, 549.6992
1208.802, 432.9922
1209.884, 481.3027
1210.966, 438.6328
1212.048, 630.9844
1213.130, 648.3828
1214.212, 633.8105
1215.293, 547.2578
1216.374, 528.7227
1217.456, 551.2031
1218.536, 355.7012
1219.617, 569.2148
1220.698, 508.7480
1221.778, 674.3008
1222.859, 630.8730
1223.939, 658.4609
1225.019, 807.0664
1226.099, 825.6992
1227.178, 678.3496
1228.258, 812.0156
1229.337, 682.6992
1230.417, 463.3965
1231.496, 591.1094
1232.574, 409.6621
1233.653, 358.4102
1234.732, 507.7598
1235.810, 378.5352
1236.888, 68.94141
1237.966, 293.6426
1239.044, 172.4883
1240.122, 421.3477
1241.199, 445.2305
1242.277, 111.1309
1243.354, 235.8691
1244.431, 57.82031
1245.508, 25.83594
1246.585, 71.43555
1247.661, 113.4648
1248.738, 8.535156
1249.814, 10.38477
1250.890, 39.76172
1251.966, 171.8613
1253.042, 176.0293
1254.117, 80.01172
1255.193, 12.07227
1256.268, 129.1387
1257.343, 124.2188
1258.418, 3.681641
1259.493, 149.5742
1260.567, 184.5176
1261.642, 168.4688
1262.716, 155.4648
1263.790, 149.7500
1264.864, 300.2031
1265.938, 83.15820
1267.011, 86.85156
1268.085, 26.27734
1269.158, 153.6895
1270.231, 19.95117
1271.304, 27.02148
1272.377, 23.32617
1273.450, 7.652344
1274.522, 61.63867
1275.594, 2.759766
1276.666, 145.0859
1277.738, 22.03320
1278.810, 86.03125
