##NAMES=Beryl
##RRUFFID=R050305
##IDEAL CHEMISTRY=Be_3_Al_2_Si_6_O_18_
##LOCALITY=Conselheiro Pena, Minas Gerais, Brazil
##OWNER=RRUFF
##SOURCE=Eugene Schlepp
##DESCRIPTION=Light blue fragment, variety aquamarine
##STATUS=The identification of this mineral has been confirmed by X-ray diffraction and chemical analysis
##URL=rruff.info/R050305
##MEASURED CHEMISTRY=(Be_0.91_Li_0.09_)_3_(Al_0.99_Fe^3+^_0.01_)_2_Si_6.00_O_18_Î‡Na_0.27_
##PIN_ID=L00797
##ORIENTATION=Laser parallel to c* (0 0 1). Fiducial mark perpendicular to laser is parallel to [-1 -1 0]
95.94800, 0.0000000E+00
97.18200, 8.577148
98.41600, 61.03809
99.64900, 76.76562
100.8830, 39.20312
102.1160, 249.4502
103.3490, 67.67090
104.5820, 258.7285
105.8150, 517.4580
107.0470, 884.2588
108.2800, 1583.924
109.5120, 2099.501
110.7440, 1863.279
111.9760, 1682.840
113.2080, 2072.689
114.4400, 2407.385
115.6710, 2622.557
116.9030, 2731.965
118.1340, 3030.359
119.3650, 2905.493
120.5960, 3117.165
121.8270, 3190.208
123.0580, 3077.479
124.2880, 3049.887
125.5190, 2930.050
126.7490, 2929.482
127.9790, 2921.596
129.2090, 2930.111
130.4390, 2996.310
131.6680, 3018.129
132.8980, 3059.516
134.1270, 2931.410
135.3560, 3013.800
136.5850, 3001.297
137.8140, 3144.242
139.0430, 2892.474
140.2710, 2886.975
141.5000, 2535.730
142.7280, 2377.731
143.9560, 1972.967
145.1840, 1837.426
146.4120, 1741.101
147.6390, 1616.982
148.8670, 1403.061
150.0940, 1569.331
151.3210, 1407.783
152.5490, 1567.324
153.7750, 1581.158
155.0020, 1600.879
156.2290, 1590.341
157.4550, 1554.467
158.6810, 1603.383
159.9080, 1613.234
161.1340, 1697.186
162.3590, 1720.249
163.5850, 1794.381
164.8110, 1835.076
166.0360, 1770.783
167.2610, 1896.064
168.4860, 1926.406
169.7110, 1908.754
170.9360, 1997.957
172.1610, 1933.084
173.3850, 1764.178
174.6100, 1770.593
175.8340, 1909.738
177.0580, 1583.801
178.2820, 1572.567
179.5050, 1678.391
180.7290, 1475.274
181.9520, 1308.223
183.1760, 1369.238
184.3990, 1262.322
185.6220, 1069.477
186.8450, 1093.703
188.0670, 1098.998
189.2900, 916.3652
190.5120, 924.7988
191.7340, 901.3018
192.9560, 884.8711
194.1780, 871.5049
195.4000, 669.2031
196.6220, 845.9639
197.8430, 758.7861
199.0640, 659.6641
200.2860, 724.5977
201.5070, 707.5820
202.7270, 801.6172
203.9480, 496.6982
205.1690, 303.8271
206.3890, 31.00000
207.6090, 26.78418
208.8290, 0.4765630
210.0490, 52.22461
211.2690, 83.86914
212.4890, 121.4346
213.7080, 195.9609
214.9280, 10.55566
216.1470, 64.61328
217.3660, 172.9492
218.5850, 25.53223
219.8030, 3.123047
221.0220, 158.9092
222.2400, 118.4639
223.4590, 238.3779
224.6770, 248.3770
225.8950, 232.4932
227.1120, 342.1943
228.3300, 346.8193
229.5480, 430.6738
230.7650, 350.5742
231.9820, 378.6377
233.1990, 430.8350
234.4160, 436.1289
235.6330, 353.4971
236.8490, 309.9658
238.0660, 317.6289
239.2820, 291.3359
240.4980, 269.6260
241.7140, 230.1729
242.9300, 221.0498
244.1460, 144.9473
245.3610, 113.3330
246.5770, 135.3984
247.7920, 46.00684
249.0070, 82.07129
250.2220, 12.52246
251.4370, 108.3086
252.6510, 41.61230
253.8660, 136.2803
255.0800, 108.7412
256.2940, 103.0127
257.5080, 29.11035
258.7220, 180.9541
259.9360, 391.1699
261.1490, 234.5264
262.3630, 390.0088
263.5760, 127.6094
264.7890, 121.3154
266.0020, 224.1211
267.2150, 161.0156
268.4270, 204.9961
269.6400, 34.05469
270.8520, 271.1855
272.0640, 86.38086
273.2760, 251.6328
274.4880, 147.9375
275.7000, 228.2891
276.9120, 185.6855
278.1230, 230.1250
279.3340, 306.6016
280.5450, 217.1162
281.7560, 431.6641
282.9670, 568.2402
284.1780, 577.8438
285.3880, 741.4717
286.5980, 820.1240
287.8090, 979.7969
289.0190, 1167.492
290.2290, 1505.207
291.4380, 1727.939
292.6480, 1738.690
293.8570, 1738.457
295.0670, 1611.238
296.2760, 1453.034
297.4850, 1282.844
298.6930, 1084.659
299.9020, 868.4561
301.1110, 578.1758
302.3190, 548.8896
303.5270, 517.5654
304.7350, 342.2461
305.9430, 353.9268
307.1510, 467.6094
308.3580, 403.2910
309.5660, 522.9736
310.7730, 652.6543
311.9800, 771.3330
313.1870, 784.0107
314.3940, 1149.687
315.6010, 1317.359
316.8070, 1347.031
318.0130, 1612.767
319.2200, 1896.436
320.4260, 2072.090
321.6310, 2245.699
322.8370, 2331.238
324.0430, 2162.107
325.2480, 2086.238
326.4540, 1647.369
327.6590, 1363.294
328.8640, 1054.828
330.0680, 663.5332
331.2730, 422.0967
332.4780, 318.6201
333.6820, 100.5664
334.8860, 64.58984
336.0900, 21.89648
337.2940, 85.16406
338.4980, 181.3682
339.7010, 111.9609
340.9050, 183.5967
342.1080, 193.2949
343.3110, 85.05859
344.5140, 6.566406
345.7170, 76.25586
346.9200, 5.886719
348.1220, 141.8545
349.3240, 102.7881
350.5270, 35.40820
351.7290, 7.671875
352.9310, 32.41992
354.1320, 61.15820
355.3340, 86.29297
356.5350, 37.85742
357.7370, 75.13965
358.9380, 6.408203
360.1390, 104.3223
361.3400, 87.53613
362.5400, 95.57422
363.7410, 169.5117
364.9410, 234.8623
366.1410, 376.4854
367.3410, 431.1006
368.5410, 421.3809
369.7410, 413.4102
370.9400, 576.6768
372.1400, 534.7324
373.3390, 591.2148
374.5380, 667.6289
375.7370, 873.8037
376.9360, 999.2637
378.1350, 1190.267
379.3330, 1428.422
380.5310, 1605.466
381.7300, 1983.258
382.9280, 2246.335
384.1260, 2613.372
385.3230, 3112.072
386.5210, 3802.431
387.7180, 4615.168
388.9160, 5574.498
390.1130, 6892.844
391.3100, 8504.064
392.5060, 9985.228
393.7030, 11495.57
394.9000, 13118.58
396.0960, 14858.59
397.2920, 16405.38
398.4880, 17165.39
399.6840, 17437.50
400.8800, 16672.20
402.0750, 14800.20
403.2710, 12474.10
404.4660, 10194.99
405.6610, 8515.856
406.8560, 6887.701
408.0510, 5745.524
409.2450, 5023.325
410.4400, 4498.105
411.6340, 4135.860
412.8280, 4175.594
414.0220, 3963.303
415.2160, 3918.987
416.4100, 3988.648
417.6030, 3908.284
418.7970, 3920.895
419.9900, 4093.478
421.1830, 3923.036
422.3760, 3905.567
423.5690, 3703.074
424.7610, 3427.555
425.9540, 3082.008
427.1460, 2723.434
428.3380, 2322.833
429.5300, 2086.205
430.7220, 1893.550
431.9140, 1805.866
433.1050, 1586.155
434.2970, 1509.415
435.4880, 1421.647
436.6790, 1206.852
437.8700, 1330.026
439.0610, 1179.903
440.2510, 1127.389
441.4420, 1054.378
442.6320, 995.4365
443.8220, 917.4668
445.0120, 838.4668
446.2020, 928.4375
447.3910, 826.3809
448.5810, 831.2930
449.7700, 553.1768
450.9600, 815.0322
452.1490, 538.8564
453.3370, 540.6504
454.5260, 488.4160
455.7150, 555.1514
456.9030, 495.8564
458.0910, 381.5312
459.2800, 395.1777
460.4670, 229.7920
461.6550, 345.3750
462.8430, 346.9287
464.0300, 245.4521
465.2180, 257.9443
466.4050, 135.5957
467.5920, 177.0146
468.7790, 59.39844
469.9650, 195.9814
471.1520, 299.2686
472.3380, 226.5244
473.5250, 155.7480
474.7110, 355.9316
475.8970, 138.0830
477.0820, 211.1924
478.2680, 281.1016
479.4540, 81.21484
480.6390, 285.2021
481.8240, 405.1006
483.0090, 273.9824
484.1940, 318.4971
485.3780, 258.2832
486.5630, 154.4443
487.7470, 274.4072
488.9320, 263.8857
490.1160, 195.6855
491.3000, 319.1260
492.4830, 171.7793
493.6670, 153.6250
494.8500, 191.2471
496.0340, 101.8672
497.2170, 217.2471
498.4000, 166.7852
499.5820, 60.50684
500.7650, 140.9922
501.9480, 83.10059
503.1300, 124.2715
504.3120, 98.61621
505.4940, 153.0557
506.6760, 19.86914
507.8580, 71.75293
509.0390, 56.73047
510.2210, 13.20215
511.4020, 17.91895
512.5830, 38.10547
513.7640, 52.62695
514.9450, 26.68066
516.1250, 10.06348
517.3060, 54.50977
518.4860, 171.0430
519.6660, 68.72559
520.8460, 150.4971
522.0260, 66.69141
523.2060, 67.15430
524.3850, 136.0928
525.5650, 98.84082
526.7440, 123.7598
527.9230, 162.6572
529.1020, 119.5488
530.2810, 173.4092
531.4590, 76.26172
532.6380, 199.0781
533.8160, 210.8682
534.9940, 167.6494
536.1720, 264.4424
537.3500, 304.2090
538.5270, 227.9668
539.7050, 289.7002
540.8820, 420.4346
542.0590, 153.1660
543.2360, 482.8984
544.4130, 308.6367
545.5900, 492.3613
546.7660, 565.0859
547.9430, 508.7959
549.1190, 539.4805
550.2950, 706.1592
551.4710, 719.8340
552.6470, 716.5283
553.8220, 958.1982
554.9980, 901.8643
556.1730, 1072.514
557.3480, 1062.145
558.5230, 1318.750
559.6980, 1382.332
560.8730, 1344.890
562.0470, 1472.431
563.2220, 1649.968
564.3960, 1529.510
565.5700, 1613.050
566.7440, 1718.572
567.9170, 1651.069
569.0910, 1886.559
570.2640, 1828.024
571.4380, 1888.463
572.6110, 2056.883
573.7840, 2039.276
574.9570, 2096.935
576.1290, 2083.008
577.3020, 2079.337
578.4740, 1912.644
579.6460, 1804.924
580.8180, 1731.181
581.9900, 1680.411
583.1620, 1567.408
584.3330, 1363.798
585.5040, 1321.953
586.6760, 1237.082
587.8470, 1010.186
589.0180, 1002.264
590.1880, 772.3164
591.3590, 895.3438
592.5290, 803.3467
593.7000, 680.3232
594.8700, 598.2754
596.0400, 644.2178
597.2090, 596.1328
598.3790, 635.0381
599.5490, 429.9180
600.7180, 519.7725
601.8870, 625.5371
603.0560, 337.3418
604.2250, 329.1201
605.3940, 477.8613
606.5620, 206.6074
607.7300, 287.9980
608.8990, 281.1016
610.0670, 185.1777
611.2350, 444.4521
612.4020, 398.1006
613.5700, 580.5527
614.7370, 425.1152
615.9050, 312.6924
617.0720, 457.8174
618.2390, 441.0137
619.4060, 362.5400
620.5720, 523.2549
621.7390, 330.7393
622.9050, 333.2529
624.0710, 397.7803
625.2370, 439.3359
626.4030, 391.9268
627.5690, 462.0967
628.7340, 450.6797
629.9000, 417.8262
631.0650, 378.7031
632.2300, 328.2988
633.3950, 367.7324
634.5600, 296.0615
635.7240, 383.5410
636.8890, 280.3027
638.0530, 449.8398
639.2170, 340.1387
640.3810, 483.0469
641.5450, 483.1240
642.7080, 407.7373
643.8720, 352.6367
645.0350, 546.1768
646.1980, 488.3320
647.3610, 392.8457
648.5240, 676.1914
649.6870, 471.3418
650.8490, 618.9062
652.0120, 655.9697
653.1740, 495.2520
654.3360, 739.8613
655.4980, 751.9785
656.6600, 785.2383
657.8210, 806.5537
658.9830, 945.6719
660.1440, 976.9941
661.3050, 1197.976
662.4660, 1268.596
663.6270, 1427.271
664.7870, 1586.919
665.9480, 1900.957
667.1080, 2156.292
668.2680, 2703.367
669.4280, 3140.751
670.5880, 3701.381
671.7480, 4563.617
672.9070, 5597.543
674.0670, 7035.830
675.2260, 8921.883
676.3850, 11311.97
677.5440, 14330.37
678.7030, 18052.29
679.8610, 22435.69
681.0200, 27009.93
682.1780, 31985.66
683.3360, 36825.52
684.4940, 40684.33
685.6520, 42543.23
686.8090, 42012.50
687.9670, 38031.36
689.1240, 32519.97
690.2810, 26682.60
691.4380, 21562.90
692.5950, 17056.38
693.7520, 14010.82
694.9080, 11233.90
696.0650, 9366.884
697.2210, 7538.902
698.3770, 6765.141
699.5330, 5780.050
700.6880, 4884.723
701.8440, 4527.336
702.9990, 3846.808
704.1550, 3478.936
705.3100, 3370.377
706.4650, 2948.001
707.6190, 2772.478
708.7740, 2572.225
709.9290, 2261.701
711.0830, 2222.381
712.2370, 1929.813
713.3910, 1970.596
714.5450, 1717.981
715.6980, 1649.345
716.8520, 1611.557
718.0050, 1539.874
719.1580, 1409.252
720.3110, 1482.523
721.4640, 1503.970
722.6170, 1543.195
723.7700, 1451.398
724.9220, 1354.579
726.0740, 1264.737
727.2260, 1332.871
728.3780, 1255.983
729.5300, 1082.086
730.6810, 1284.152
731.8330, 1171.196
732.9840, 1102.218
734.1350, 836.5010
735.2860, 969.4766
736.4370, 947.3330
737.5880, 931.2637
738.7380, 975.9404
739.8880, 852.0557
741.0390, 956.9170
742.1890, 864.7568
743.3380, 791.9873
744.4880, 781.7803
745.6380, 810.3633
746.7870, 825.1348
747.9360, 862.8789
749.0850, 924.7627
750.2340, 938.3545
751.3830, 1053.073
752.5310, 810.7334
753.6800, 1095.378
754.8280, 1236.000
755.9760, 1129.604
757.1240, 965.1875
758.2720, 1044.746
759.4190, 1088.299
760.5670, 1045.824
761.7140, 1027.328
762.8610, 967.8086
764.0080, 1019.268
765.1550, 826.7012
766.3020, 780.1133
767.4480, 560.5020
768.5950, 649.8672
769.7410, 542.2090
770.8870, 366.5273
772.0330, 335.8242
773.1780, 465.0957
774.3240, 403.3438
775.4690, 385.5742
776.6140, 275.7793
777.7590, 277.9629
778.9040, 390.1289
780.0490, 194.2734
781.1940, 221.4316
782.3380, 189.5723
783.4820, 424.6914
784.6260, 171.8438
785.7700, 25.99609
786.9140, 306.1504
788.0580, 123.3125
789.2010, 69.46094
790.3450, 179.6055
791.4880, 131.7539
792.6310, 134.8848
793.7730, 127.0156
794.9160, 123.0801
796.0590, 112.2715
797.2010, 178.4414
798.3430, 100.6211
799.4850, 204.7793
800.6270, 99.91992
801.7690, 55.07227
802.9100, 40.75391
804.0520, 14.63672
805.1930, 58.63281
806.3340, 138.4414
807.4750, 51.57227
808.6160, 49.34766
809.7560, 117.2461
810.8970, 44.87891
812.0370, 124.0625
813.1770, 109.0000
814.3170, 28.31250
815.4570, 123.3223
816.5960, 47.55469
817.7360, 8.699219
818.8750, 22.71875
820.0140, 66.18359
821.1530, 18.17188
822.2920, 67.79688
823.4310, 7.601563
824.5690, 121.6562
825.7070, 40.68945
826.8460, 41.24414
827.9840, 127.9727
829.1220, 46.01367
830.2590, 36.03125
831.3970, 1.048828
832.5340, 21.89648
833.6710, 70.63672
834.8080, 50.57227
835.9450, 77.90234
837.0820, 11.03711
838.2190, 37.26953
839.3550, 67.64062
840.4910, 47.09375
841.6270, 11.38086
842.7630, 244.8164
843.8990, 24.76953
845.0350, 69.58789
846.1700, 167.9219
847.3060, 21.23438
848.4410, 165.5137
849.5760, 1.228516
850.7100, 122.9883
851.8450, 163.1836
852.9800, 25.35742
854.1140, 204.5039
855.2480, 86.63086
856.3820, 234.7363
857.5160, 53.82227
858.6500, 226.8867
859.7830, 122.9355
860.9170, 331.9609
862.0500, 230.9707
863.1830, 226.9609
864.3160, 113.9316
865.4480, 79.88281
866.5810, 82.82031
867.7130, 96.73828
868.8460, 116.6387
869.9780, 27.48047
871.1100, 165.3555
872.2410, 22.82812
873.3730, 78.94531
874.5050, 185.7012
875.6360, 139.4434
876.7670, 74.16602
877.8980, 153.8750
879.0290, 35.43359
880.1590, 82.21094
881.2900, 87.84180
882.4200, 37.45703
883.5500, 36.05664
884.6800, 55.35742
885.8100, 15.81445
886.9400, 21.67578
888.0690, 52.16016
889.1990, 111.6289
890.3280, 175.0859
891.4570, 155.5293
892.5860, 135.9609
893.7140, 124.3770
894.8430, 321.7832
895.9710, 364.1738
897.1000, 363.5547
898.2280, 519.9219
899.3560, 364.2812
900.4830, 390.6250
901.6110, 599.9590
902.7380, 405.2832
903.8660, 605.5938
904.9930, 724.8965
906.1200, 550.1855
907.2460, 562.4668
908.3730, 834.7383
909.5000, 336.0020
910.6260, 742.2539
911.7520, 556.4961
912.8780, 638.7305
914.0040, 440.9570
915.1290, 362.1719
916.2550, 426.3809
917.3800, 534.5781
918.5050, 376.7715
919.6300, 372.9551
920.7550, 293.1152
921.8800, 185.1602
923.0040, 66.32227
924.1290, 274.2734
925.2530, 382.9180
926.3770, 223.0586
927.5010, 254.0371
928.6250, 131.0293
929.7480, 222.9844
930.8720, 242.9238
931.9950, 209.8145
933.1180, 160.9160
934.2410, 174.7559
935.3640, 131.1328
936.4860, 86.67773
937.6090, 116.2129
938.7310, 33.03320
939.8530, 95.49023
940.9750, 162.1855
942.0970, 189.1777
943.2180, 97.32031
944.3400, 46.81641
945.4610, 65.72852
946.5820, 129.3047
947.7030, 66.08398
948.8240, 19.77148
949.9450, 59.28906
951.0650, 22.78516
952.1860, 73.30273
953.3060, 35.68555
954.4260, 23.99219
955.5460, 53.95312
956.6650, 85.92969
957.7850, 109.1914
958.9040, 4.289063
960.0230, 198.8457
961.1420, 14.79297
962.2610, 160.7676
963.3800, 117.5391
964.4990, 50.65625
965.6170, 12.20703
966.7350, 67.27734
967.8530, 73.16211
968.9710, 36.65625
970.0890, 71.61523
971.2070, 175.8008
972.3240, 107.9785
973.4410, 134.8008
974.5580, 192.7539
975.6750, 91.04102
976.7920, 148.0020
977.9090, 191.8418
979.0250, 341.6641
980.1410, 462.2812
981.2580, 398.1602
982.3740, 533.8242
983.4890, 555.7227
984.6050, 714.2637
985.7200, 741.1895
986.8360, 720.1270
987.9510, 732.2070
989.0660, 1180.174
990.1810, 1607.074
991.2950, 1507.070
992.4100, 1838.883
993.5240, 2060.906
994.6390, 2346.947
995.7530, 2621.004
996.8660, 2601.072
997.9800, 2930.166
999.0940, 3129.275
1000.207, 3242.387
1001.320, 2935.529
1002.433, 3121.689
1003.546, 2684.877
1004.659, 2688.805
1005.772, 2499.037
1006.884, 2274.387
1007.996, 1956.660
1009.108, 1923.980
1010.220, 1878.318
1011.332, 1607.678
1012.444, 1348.078
1013.555, 1284.084
1014.666, 1125.523
1015.777, 1197.982
1016.888, 963.4473
1017.999, 1187.938
1019.110, 978.0430
1020.220, 750.7246
1021.331, 633.3086
1022.441, 816.9512
1023.551, 604.6504
1024.661, 639.0645
1025.770, 610.1230
1026.880, 561.8926
1027.989, 582.7051
1029.098, 514.5410
1030.207, 435.4023
1031.316, 376.2871
1032.425, 329.1953
1033.533, 316.6699
1034.642, 390.0898
1035.750, 338.0762
1036.858, 387.0859
1037.966, 428.1230
1039.073, 431.9785
1040.181, 495.0254
1041.288, 499.4082
1042.396, 608.5566
1043.503, 669.7324
1044.610, 758.9961
1045.716, 596.1680
1046.823, 928.4297
1047.929, 858.7168
1049.036, 948.0332
1050.142, 1143.400
1051.248, 1348.795
1052.353, 1465.221
1053.459, 1565.678
1054.564, 1904.162
1055.670, 2092.682
1056.775, 2244.232
1057.880, 2638.811
1058.985, 2878.424
1060.089, 3318.066
1061.194, 3806.738
1062.298, 3828.445
1063.402, 4404.180
1064.506, 4723.945
1065.610, 4922.742
1066.713, 5110.572
1067.817, 5217.434
1068.920, 5305.557
1070.023, 5221.252
1071.126, 5352.211
1072.229, 5195.219
1073.332, 5122.273
1074.435, 4852.385
1075.537, 4632.527
1076.639, 4444.723
1077.741, 4055.955
1078.843, 3659.262
1079.945, 3723.619
1081.046, 3378.713
1082.148, 3321.193
1083.249, 2883.723
1084.350, 2818.664
1085.451, 2542.701
1086.551, 2241.311
1087.652, 2241.381
1088.752, 2002.135
1089.853, 1911.941
1090.953, 1694.912
1092.053, 1535.818
1093.152, 1582.346
1094.252, 1450.068
1095.351, 1699.959
1096.451, 1446.100
1097.550, 1459.281
1098.649, 1339.332
1099.748, 1271.617
1100.846, 1172.018
1101.945, 1085.664
1103.043, 1194.066
1104.141, 1080.113
1105.239, 1210.613
1106.337, 1224.176
1107.434, 1093.801
1108.532, 1070.492
1109.629, 1181.227
1110.726, 978.9980
1111.823, 987.8223
1112.920, 1157.689
1114.017, 1153.596
1115.113, 1012.545
1116.210, 1147.531
1117.306, 998.5645
1118.402, 942.6367
1119.498, 903.7461
1120.593, 887.9004
1121.689, 974.0918
1122.784, 1205.318
1123.879, 1015.584
1124.974, 951.8984
1126.069, 1127.250
1127.164, 887.6836
1128.259, 1115.109
1129.353, 1106.455
1130.447, 907.9531
1131.541, 1038.486
1132.635, 1160.066
1133.729, 1068.676
1134.822, 1167.705
1135.916, 1146.547
1137.009, 1143.492
1138.102, 1162.799
1139.195, 1163.490
1140.288, 1112.506
1141.380, 1147.393
1142.473, 1036.334
1143.565, 992.2617
1144.657, 1012.045
1145.749, 899.1055
1146.841, 994.2012
1147.932, 1117.332
1149.024, 973.4961
1150.115, 1009.695
1151.206, 1001.402
1152.297, 841.7285
1153.388, 898.1328
1154.479, 791.0273
1155.569, 705.2188
1156.659, 583.0020
1157.750, 523.5352
1158.839, 443.9355
1159.929, 363.5488
1161.019, 479.1934
1162.108, 692.8730
1163.198, 511.5898
1164.287, 417.4023
1165.376, 584.2461
1166.465, 343.1211
1167.553, 454.0605
1168.642, 630.0566
1169.730, 703.2402
1170.818, 403.3438
1171.906, 851.4961
1172.994, 612.6777
1174.082, 649.8867
1175.170, 891.1387
1176.257, 726.4238
1177.344, 946.7656
1178.431, 980.1367
1179.518, 906.5371
1180.605, 898.8359
1181.691, 823.2949
1182.778, 986.7754
1183.864, 1116.600
1184.950, 775.1348
1186.036, 948.6973
1187.122, 1102.287
1188.207, 1017.902
1189.292, 1091.543
1190.378, 1085.209
1191.463, 1181.953
1192.548, 1063.670
1193.632, 977.4121
1194.717, 1216.178
1195.801, 1249.967
1196.886, 1116.781
1197.970, 982.6211
1199.054, 1235.484
1200.137, 1123.373
1201.221, 1431.285
1202.305, 1091.219
1203.388, 1043.285
1204.471, 1062.311
1205.554, 1279.398
1206.637, 1214.094
1207.719, 1209.471
1208.802, 1160.061
1209.884, 1132.750
1210.966, 1125.590
1212.048, 1149.730
1213.130, 1101.891
1214.212, 1265.070
1215.293, 1179.275
1216.374, 1397.184
1217.456, 1339.523
1218.536, 1249.805
1219.617, 1415.744
1220.698, 1463.164
1221.778, 1461.516
1222.859, 1336.180
1223.939, 1424.744
1225.019, 1617.051
1226.099, 1445.537
1227.178, 1406.039
1228.258, 1292.717
1229.337, 1460.252
1230.417, 1320.803
1231.496, 1113.648
1232.574, 1097.254
1233.653, 850.8711
1234.732, 936.9355
1235.810, 780.6074
1236.888, 791.2949
1237.966, 672.4043
1239.044, 689.1699
1240.122, 523.8945
1241.199, 370.6309
1242.277, 595.0957
1243.354, 390.8516
1244.431, 328.4062
1245.508, 47.29492
1246.585, 429.3125
1247.661, 398.1074
1248.738, 379.9102
1249.814, 231.3574
1250.890, 285.1758
1251.966, 267.9961
1253.042, 156.8262
1254.117, 91.09766
1255.193, 50.93750
1256.268, 1.931641
1257.343, 116.6328
1258.418, 38.51367
1259.493, 100.3398
1260.567, 129.1953
1261.642, 2.054688
1262.716, 19.28906
1263.790, 74.84570
1264.864, 68.88086
1265.938, 63.73633
1267.011, 17.43359
1268.085, 12.60742
1269.158, 147.5078
1270.231, 69.26172
1271.304, 3.1250000E-02
1272.377, 117.3340
1273.450, 72.59961
1274.522, 115.3340
