##NAMES=Beryl
##RRUFFID=R060943
##IDEAL CHEMISTRY=Be_3_Al_2_Si_6_O_18_
##LOCALITY=Xinjiang, China
##OWNER=RRUFF
##SOURCE=Lawrence W. Snee
##DESCRIPTION=Green hexagonal prisms, variety emerald
##STATUS=The identification of this mineral has been confirmed by X-ray diffraction and chemical analysis
##URL=rruff.info/R060943
##MEASURED CHEMISTRY=(Be_2.96_Li_0.04_)_Σ=3_(Al_1.64_Mg_0.21_V^3+^_0.06_Fe^3+^_0.04_Sc^3+^_0.03_Cr^3+^_0.02_)_Σ=2_Si_6.00_O_18_·Na_0.25_
##PIN_ID=L01186
##ORIENTATION=Laser parallel to -c* (0 0 -1). Fiducial mark perpendicular to laser is parallel to a [1 0 0]
167.3340, 0.0000000E+00
168.5670, 72.45801
169.8000, 0.9892580
171.0320, 299.6914
172.2650, 163.2051
173.4970, 260.9248
174.7290, 91.41797
175.9610, 76.29980
177.1930, 8.846680
178.4240, 237.0605
179.6550, 163.9639
180.8870, 237.7246
182.1170, 362.1504
183.3480, 342.9795
184.5790, 448.9639
185.8090, 454.9365
187.0390, 501.7832
188.2690, 442.8184
189.4990, 537.4873
190.7290, 600.1904
191.9580, 682.7559
193.1870, 729.2715
194.4160, 790.4043
195.6450, 728.1406
196.8740, 619.4395
198.1020, 592.1006
199.3310, 726.1523
200.5590, 720.6250
201.7870, 768.5449
203.0140, 579.9375
204.2420, 256.8262
205.4690, 332.2490
206.6960, 183.2441
207.9230, 107.8438
209.1500, 71.08301
210.3760, 108.3018
211.6030, 39.51172
212.8290, 180.7861
214.0550, 70.45508
215.2810, 3.194336
216.5060, 383.1123
217.7320, 332.0186
218.9570, 408.4326
220.1820, 341.0811
221.4070, 434.8145
222.6320, 414.4199
223.8560, 425.8984
225.0800, 528.2129
226.3040, 579.0703
227.5280, 592.6074
228.7520, 658.8555
229.9760, 710.8291
231.1990, 572.5449
232.4220, 690.0068
233.6450, 695.2256
234.8680, 922.2070
236.0910, 1054.961
237.3130, 855.4961
238.5350, 1035.819
239.7570, 1201.936
240.9790, 1203.901
242.2010, 1310.834
243.4220, 1305.729
244.6430, 1467.593
245.8640, 1700.430
247.0850, 1649.231
248.3060, 1734.014
249.5270, 1741.761
250.7470, 1522.472
251.9670, 1442.887
253.1870, 1093.973
254.4070, 705.6406
255.6260, 220.1475
256.8460, 81.31934
258.0650, 395.6553
259.2840, 715.0088
260.5030, 511.2764
261.7220, 199.1074
262.9400, 83.67285
264.1580, 64.93164
265.3760, 88.61523
266.5940, 57.42383
267.8120, 28.64062
269.0290, 167.4551
270.2470, 212.1914
271.4640, 287.7305
272.6810, 262.4131
273.8980, 36.93359
275.1140, 108.6914
276.3310, 96.28613
277.5470, 156.8486
278.7630, 273.3789
279.9790, 184.8760
281.1940, 359.3389
282.4100, 394.7676
283.6250, 496.1611
284.8400, 478.5195
286.0550, 737.8945
287.2700, 818.4473
288.4850, 1076.035
289.6990, 1232.644
290.9130, 1058.277
292.1270, 976.9102
293.3410, 946.5088
294.5540, 919.9521
295.7680, 851.2910
296.9810, 738.5439
298.1940, 675.7207
299.4070, 827.8359
300.6200, 536.8906
301.8320, 786.8848
303.0450, 714.8193
304.2570, 793.6973
305.4690, 855.5166
306.6800, 915.2803
307.8920, 1095.985
309.1030, 1165.637
310.3150, 1253.232
311.5260, 1418.773
312.7360, 1518.262
313.9470, 1867.396
315.1580, 2009.899
316.3680, 2413.763
317.5780, 2886.637
318.7880, 3286.408
319.9980, 3910.508
321.2070, 4445.575
322.4170, 5079.354
323.6260, 5531.107
324.8350, 5283.047
326.0430, 4846.725
327.2520, 3769.012
328.4610, 2776.547
329.6690, 1993.252
330.8770, 1477.137
332.0850, 770.1035
333.2920, 557.7344
334.5000, 253.1729
335.7070, 349.6592
336.9140, 282.0957
338.1210, 66.71387
339.3280, 34.39746
340.5350, 9.376953
341.7410, 13.26758
342.9470, 9.047852
344.1540, 5.098633
345.3590, 43.31445
346.5650, 54.14160
347.7710, 98.75195
348.9760, 189.4814
350.1810, 102.3486
351.3860, 152.3311
352.5910, 7.439453
353.7950, 4.723633
355.0000, 86.26172
356.2040, 171.7666
357.4080, 79.71191
358.6120, 69.63965
359.8150, 7.432617
361.0190, 165.8809
362.2220, 138.7705
363.4250, 83.49609
364.6280, 33.10840
365.8310, 247.6201
367.0340, 230.9541
368.2360, 263.1807
369.4380, 265.3213
370.6400, 266.3955
371.8420, 427.4102
373.0440, 329.3721
374.2450, 385.2793
375.4470, 669.1348
376.6480, 701.9414
377.8490, 1063.699
379.0490, 1285.410
380.2500, 1341.076
381.4500, 1746.696
382.6510, 1872.272
383.8510, 2117.805
385.0500, 2418.294
386.2500, 2726.741
387.4500, 3167.146
388.6490, 3925.509
389.8480, 4509.830
391.0470, 5383.110
392.2460, 6544.348
393.4440, 7697.544
394.6430, 9028.699
395.8410, 10164.81
397.0390, 11006.87
398.2370, 11330.82
399.4340, 10644.76
400.6320, 9889.809
401.8290, 8593.293
403.0260, 7220.613
404.2230, 6052.158
405.4200, 5006.492
406.6170, 4086.418
407.8130, 3507.275
409.0090, 3237.432
410.2050, 3016.030
411.4010, 2701.109
412.5970, 2739.143
413.7920, 2665.062
414.9880, 2504.820
416.1830, 2358.014
417.3780, 2415.500
418.5730, 2106.545
419.7670, 2027.757
420.9620, 1854.799
422.1560, 1637.455
423.3500, 1523.867
424.5440, 1455.718
425.7380, 1442.442
426.9310, 1372.962
428.1240, 1340.452
429.3180, 1336.589
430.5110, 1337.699
431.7030, 1390.784
432.8960, 1466.783
434.0890, 1569.546
435.2810, 1712.882
436.4730, 1895.861
437.6650, 2096.814
438.8570, 2386.741
440.0480, 2645.644
441.2390, 2918.520
442.4310, 3037.372
443.6220, 2557.200
444.8120, 2490.005
446.0030, 1941.784
447.1940, 1865.540
448.3840, 1409.271
449.5740, 1224.980
450.7640, 1197.666
451.9540, 812.3301
453.1430, 701.9707
454.3330, 653.5889
455.5220, 690.1855
456.7110, 631.7588
457.9000, 398.2881
459.0890, 480.7734
460.2770, 454.2188
461.4650, 327.6230
462.6540, 523.9805
463.8420, 539.2969
465.0290, 299.5723
466.2170, 448.7998
467.4050, 560.9873
468.5920, 284.1348
469.7790, 362.2344
470.9660, 286.2900
472.1530, 500.3008
473.3390, 408.2705
474.5250, 371.1992
475.7120, 435.0850
476.8980, 530.9307
478.0840, 428.7402
479.2690, 420.9082
480.4550, 478.7490
481.6400, 438.5908
482.8250, 514.9805
484.0100, 437.4629
485.1950, 548.0811
486.3800, 481.4033
487.5640, 659.8955
488.7480, 413.2373
489.9320, 499.5127
491.1160, 523.9414
492.3000, 644.6309
493.4840, 585.7471
494.6670, 608.2051
495.8500, 478.6797
497.0330, 594.8096
498.2160, 593.7861
499.3990, 616.3613
500.5810, 515.6846
501.7630, 682.0850
502.9460, 941.8867
504.1280, 936.2617
505.3090, 801.3867
506.4910, 946.8682
507.6720, 924.4590
508.8540, 947.3438
510.0350, 1159.137
511.2160, 1325.042
512.3960, 1646.934
513.5770, 1740.810
514.7570, 1954.338
515.9380, 2287.437
517.1180, 2574.747
518.2970, 2802.566
519.4770, 3316.365
520.6570, 3443.145
521.8360, 3822.903
523.0150, 4019.641
524.1940, 3782.359
525.3730, 3585.058
526.5510, 3569.736
527.7300, 2991.396
528.9080, 2482.035
530.0860, 2122.656
531.2640, 1764.260
532.4420, 1380.882
533.6200, 1180.485
534.7970, 725.0713
535.9740, 677.6484
537.1510, 384.2080
538.3280, 484.7490
539.5050, 396.2734
540.6810, 227.7871
541.8580, 63.29102
543.0340, 19.82227
544.2100, 160.6523
545.3860, 152.1963
546.5610, 167.8340
547.7370, 24.41602
548.9120, 126.2988
550.0870, 114.0674
551.2620, 235.8613
552.4370, 9.782227
553.6120, 154.7119
554.7860, 71.70605
555.9600, 100.2598
557.1340, 65.75977
558.3080, 391.1875
559.4820, 402.1445
560.6560, 357.1250
561.8290, 476.1191
563.0020, 455.1338
564.1750, 461.9727
565.3480, 545.2041
566.5210, 442.2402
567.6930, 603.2793
568.8660, 584.3125
570.0380, 541.3477
571.2100, 720.3750
572.3820, 596.3926
573.5530, 683.4004
574.7250, 749.4023
575.8960, 1013.396
577.0670, 788.3799
578.2380, 768.3721
579.4090, 648.3555
580.5800, 989.3301
581.7500, 921.3037
582.9210, 967.2695
584.0910, 836.2256
585.2610, 717.1729
586.4300, 727.1152
587.6000, 643.0488
588.7690, 682.9795
589.9390, 647.9004
591.1080, 607.8232
592.2770, 551.7607
593.4450, 657.6895
594.6140, 760.6104
595.7820, 573.5342
596.9500, 554.4492
598.1190, 474.3623
599.2860, 501.9062
600.4540, 592.7949
601.6220, 580.5918
602.7890, 394.8633
603.9560, 506.7754
605.1230, 567.6816
606.2900, 298.8340
607.4570, 465.6123
608.6230, 414.5127
609.7890, 600.6357
610.9560, 600.0859
612.1220, 653.2197
613.2870, 615.1152
614.4530, 758.7617
615.6180, 934.2559
616.7840, 890.0186
617.9490, 886.8926
619.1140, 1066.639
620.2790, 894.3574
621.4430, 848.2266
622.6080, 679.0947
623.7720, 598.0078
624.9360, 330.9238
626.1000, 384.8643
627.2640, 366.8193
628.4270, 319.7939
629.5910, 395.7295
630.7540, 134.7441
631.9170, 347.8037
633.0800, 119.9307
634.2430, 229.1016
635.4050, 429.3320
636.5680, 357.5820
637.7300, 343.8525
638.8920, 473.1631
640.0540, 210.5391
641.2150, 404.9541
642.3770, 575.3789
643.5380, 418.8223
644.7000, 377.2725
645.8610, 350.7275
647.0210, 397.1914
648.1820, 425.6670
649.3430, 554.1455
650.5030, 524.6260
651.6630, 483.1094
652.8230, 599.5947
653.9830, 549.0820
655.1430, 600.5693
656.3020, 595.0586
657.4620, 786.5459
658.6210, 704.0322
659.7800, 1046.518
660.9390, 1255.001
662.0970, 1352.482
663.2560, 1448.962
664.4140, 1681.439
665.5720, 1827.917
666.7300, 2209.392
667.8880, 2625.865
669.0460, 2976.337
670.2030, 3456.808
671.3600, 4180.004
672.5180, 4920.471
673.6740, 5904.938
674.8310, 7312.441
675.9880, 9427.904
677.1440, 11373.36
678.3010, 14405.96
679.4570, 17684.55
680.6130, 21793.21
681.7690, 26183.20
682.9240, 31812.15
684.0800, 36329.65
685.2350, 39856.88
686.3900, 40702.09
687.5450, 38202.68
688.7000, 33630.85
689.8540, 28060.10
691.0090, 22304.49
692.1630, 17391.45
693.3170, 13808.91
694.4710, 10862.78
695.6250, 8731.137
696.7780, 7346.328
697.9320, 6188.574
699.0850, 5333.438
700.2380, 4593.325
701.3910, 4010.198
702.5440, 3442.713
703.6970, 3088.942
704.8490, 2729.373
706.0010, 2456.031
707.1530, 2201.585
708.3050, 1996.962
709.4570, 1862.364
710.6090, 1701.783
711.7600, 1535.199
712.9110, 1451.860
714.0620, 1295.453
715.2130, 1017.863
716.3640, 927.1758
717.5150, 823.5820
718.6650, 909.9844
719.8150, 916.9150
720.9650, 838.3135
722.1150, 739.7080
723.2650, 533.1006
724.4150, 609.9443
725.5640, 575.3320
726.7130, 486.5293
727.8630, 538.9121
729.0110, 426.2002
730.1600, 260.4102
731.3090, 221.8057
732.4570, 462.1777
733.6060, 449.6172
734.7540, 257.9844
735.9020, 480.1367
737.0490, 269.4492
738.1970, 382.8096
739.3440, 343.6797
740.4920, 302.4678
741.6390, 436.8203
742.7860, 286.1699
743.9320, 423.5166
745.0790, 479.8633
746.2250, 243.3027
747.3720, 449.7148
748.5180, 489.0547
749.6640, 364.3936
750.8100, 446.7314
751.9550, 480.0664
753.1010, 582.3984
754.2460, 487.7305
755.3910, 525.0586
756.5360, 597.3828
757.6810, 797.7051
758.8250, 758.0244
759.9700, 852.3408
761.1140, 1059.654
762.2580, 1082.965
763.4020, 1081.271
764.5460, 1209.576
765.6900, 1083.876
766.8330, 1084.173
767.9760, 1032.466
769.1200, 928.7568
770.2620, 1055.045
771.4050, 871.3281
772.5480, 862.6084
773.6900, 835.8828
774.8330, 720.1543
775.9750, 790.4219
777.1170, 723.6855
778.2590, 622.9434
779.4000, 529.1973
780.5420, 615.4482
781.6830, 529.6924
782.8240, 530.9336
783.9650, 448.1689
785.1060, 419.3994
786.2470, 400.6260
787.3870, 375.8477
788.5280, 312.0654
789.6680, 276.3574
790.8080, 244.4854
791.9480, 220.6875
793.0870, 143.8867
794.2270, 224.0811
795.3660, 245.2715
796.5060, 166.4570
797.6450, 291.6396
798.7830, 171.8174
799.9220, 243.2607
801.0610, 75.16113
802.1990, 290.3271
803.3370, 197.4902
804.4750, 130.6484
805.6130, 73.80371
806.7510, 192.9551
807.8890, 119.8965
809.0260, 146.1719
810.1630, 89.23535
811.3000, 11.70312
812.4370, 92.33398
813.5740, 235.3701
814.7110, 31.40137
815.8470, 3.428711
816.9830, 0.4394530
818.1190, 163.5664
819.2550, 22.66895
820.3910, 141.7949
821.5270, 13.96191
822.6620, 61.93457
823.7970, 179.1631
824.9330, 70.36426
826.0670, 41.57715
827.2020, 2.790039
828.3370, 3.046875
829.4710, 54.12109
830.6060, 23.28613
831.7400, 74.45215
832.8740, 39.10547
834.0080, 47.65137
835.1410, 14.34766
836.2750, 41.92090
837.4080, 59.22363
838.5410, 53.56641
839.6740, 49.20801
840.8070, 36.63477
841.9400, 22.78320
843.0730, 20.77832
844.2050, 30.66406
845.3370, 12.86914
846.4690, 76.39648
847.6010, 183.9248
848.7330, 13.45312
849.8640, 14.97656
850.9960, 69.49902
852.1270, 56.97852
853.2580, 78.50781
854.3890, 176.9961
855.5200, 15.51270
856.6500, 78.96289
857.7810, 79.43945
858.9110, 229.9170
860.0410, 3.396484
861.1710, 129.8730
862.3010, 4.651367
863.4310, 221.8203
864.5600, 26.70801
865.6900, 80.25195
866.8190, 12.16406
867.9480, 95.57910
869.0770, 32.00000
870.2050, 27.40137
871.3340, 8.193359
872.4620, 50.04395
873.5900, 80.58203
874.7180, 80.03809
875.8460, 2.696289
876.9740, 44.64453
878.1010, 15.98926
879.2290, 224.3389
880.3560, 169.6914
881.4830, 57.94922
882.6100, 76.61426
883.7370, 27.68848
884.8630, 131.9961
885.9900, 109.3096
887.1160, 193.6289
888.2420, 171.9541
889.3680, 231.2852
890.4940, 268.6260
891.6200, 281.9424
892.7450, 303.6182
893.8700, 331.6934
894.9960, 309.0654
896.1210, 323.4580
897.2460, 323.8643
898.3700, 348.0479
899.4950, 374.7207
900.6190, 436.1016
901.7430, 533.6211
902.8670, 632.1172
903.9910, 797.6250
905.1150, 858.1426
906.2390, 862.6729
907.3620, 926.2129
908.4850, 1205.765
909.6080, 1071.326
910.7310, 970.9004
911.8540, 1233.484
912.9770, 1101.081
914.0990, 1210.690
915.2210, 1199.312
916.3440, 1220.945
917.4660, 1259.211
918.5870, 1257.631
919.7090, 1250.922
920.8310, 1243.606
921.9520, 1149.305
923.0730, 1049.019
924.1940, 1077.745
925.3150, 1060.485
926.4360, 881.2402
927.5560, 871.0098
928.6770, 889.7939
929.7970, 804.5928
930.9170, 718.4082
932.0370, 545.2383
933.1570, 606.0840
934.2760, 512.9453
935.3960, 641.8232
936.5150, 565.8379
937.6340, 332.6289
938.7530, 443.5566
939.8720, 529.5000
940.9910, 401.4629
942.1090, 142.4414
943.2280, 185.7109
944.3460, 142.7266
945.4640, 166.7578
946.5820, 164.7715
947.6990, 113.8418
948.8170, 219.9316
949.9340, 92.90820
951.0520, 7.902344
952.1690, 115.7617
953.2860, 23.62695
954.4030, 101.2207
955.5190, 193.5430
956.6360, 2.277344
957.7520, 56.97656
958.8680, 140.0918
959.9840, 37.08398
961.1000, 16.80664
962.2160, 6.794922
963.3310, 139.1387
964.4470, 110.2578
965.5620, 62.22461
966.6770, 200.2383
967.7920, 145.3711
968.9060, 38.95117
970.0210, 21.13281
971.1360, 186.2168
972.2500, 49.33789
973.3640, 172.8438
974.4780, 212.6602
975.5920, 221.2988
976.7050, 306.7363
977.8190, 278.3047
978.9320, 280.4141
980.0450, 541.8438
981.1580, 568.6250
982.2710, 717.4316
983.3840, 879.0234
984.4970, 802.7090
985.6090, 862.6035
986.7210, 1113.623
987.8330, 1243.576
988.9450, 1523.561
990.0570, 1703.043
991.1690, 1871.088
992.2800, 2229.162
993.3920, 2445.266
994.5030, 2849.949
995.6140, 3187.117
996.7250, 3355.504
997.8350, 3795.734
998.9460, 4007.086
1000.056, 4199.545
1001.167, 4462.852
1002.277, 4790.211
1003.387, 4839.533
1004.496, 4817.957
1005.606, 4898.629
1006.715, 5152.170
1007.825, 5104.697
1008.934, 5218.742
1010.043, 5077.900
1011.152, 4887.527
1012.260, 4741.191
1013.369, 4592.889
1014.477, 4114.621
1015.586, 3768.289
1016.694, 3539.020
1017.802, 3477.854
1018.909, 3200.727
1020.017, 3086.631
1021.124, 2919.578
1022.232, 2829.562
1023.339, 2660.457
1024.446, 2206.164
1025.553, 2266.969
1026.659, 2169.119
1027.766, 1814.367
1028.872, 2000.941
1029.979, 1721.199
1031.085, 1754.695
1032.191, 1766.154
1033.296, 1624.684
1034.402, 1838.123
1035.507, 1845.012
1036.613, 1714.965
1037.718, 1812.740
1038.823, 1868.100
1039.928, 1807.975
1041.032, 1992.887
1042.137, 2065.852
1043.241, 2405.873
1044.346, 2442.975
1045.450, 2799.121
1046.554, 2918.336
1047.657, 3246.586
1048.761, 3629.896
1049.864, 4048.242
1050.968, 4475.625
1052.071, 5201.043
1053.174, 5656.500
1054.277, 6712.990
1055.379, 7529.518
1056.482, 8600.086
1057.584, 9743.686
1058.687, 11142.34
1059.789, 12730.04
1060.891, 14396.77
1061.992, 16203.55
1063.094, 17699.40
1064.196, 19078.29
1065.297, 20040.22
1066.398, 20881.19
1067.499, 20603.20
1068.600, 20581.23
1069.701, 19864.32
1070.801, 19124.43
1071.902, 17905.58
1073.002, 16579.79
1074.102, 15686.03
1075.202, 14163.31
1076.302, 12812.66
1077.402, 11719.05
1078.501, 10450.48
1079.600, 9648.955
1080.700, 8613.461
1081.799, 8055.004
1082.898, 7320.584
1083.996, 6829.207
1085.095, 6251.893
1086.193, 5566.621
1087.292, 5273.420
1088.390, 4739.297
1089.488, 4407.178
1090.586, 4159.137
1091.683, 3918.188
1092.781, 3565.297
1093.878, 3392.459
1094.975, 3068.660
1096.073, 2857.904
1097.169, 3013.203
1098.266, 2689.547
1099.363, 2603.953
1100.459, 2587.408
1101.556, 2418.414
1102.652, 2343.076
1103.748, 2200.553
1104.844, 2115.201
1105.940, 1998.902
1107.035, 1893.658
1108.131, 1834.445
1109.226, 1906.277
1110.321, 1788.148
1111.416, 1718.066
1112.511, 1695.023
1113.605, 1577.012
1114.700, 1536.033
1115.794, 1580.500
1116.889, 1808.182
1117.983, 1690.305
1119.077, 1790.482
1120.170, 1818.691
1121.264, 1846.934
1122.357, 1952.213
1123.451, 1938.527
1124.544, 2037.871
1125.637, 2254.248
1126.730, 2153.350
1127.823, 1947.104
1128.915, 2121.582
1130.008, 2096.090
1131.100, 2207.641
1132.192, 2021.688
1133.284, 1905.320
1134.376, 1847.986
1135.467, 1811.688
1136.559, 1589.773
1137.650, 1602.543
1138.742, 1452.354
1139.833, 1236.195
1140.924, 1182.086
1142.014, 1097.008
1143.105, 1086.959
1144.195, 883.9395
1145.286, 767.9453
1146.376, 650.9824
1147.466, 522.0605
1148.556, 460.1875
1149.646, 492.3379
1150.735, 226.5156
1151.825, 184.7246
1152.914, 129.9570
1154.003, 38.78516
1155.092, 147.8477
1156.181, 46.87305
1157.270, 130.4512
1158.358, 32.80078
1159.447, 128.8223
1160.535, 53.56836
1161.623, 94.17188
1162.711, 59.35547
1163.799, 136.4961
1164.886, 79.85938
1165.974, 185.7793
1167.061, 17.62695
1168.148, 159.5391
1169.235, 31.92578
1170.322, 111.4941
1171.409, 174.4219
1172.496, 106.7227
1173.582, 206.3457
1174.669, 33.24609
1175.755, 136.8398
1176.841, 198.4414
1177.927, 205.0234
1179.012, 266.9043
1180.098, 288.5176
1181.183, 196.1426
1182.269, 333.7852
1183.354, 242.4395
1184.439, 173.1094
1185.524, 188.8418
1186.608, 158.4961
1187.693, 378.8145
1188.777, 221.3867
1189.862, 286.1230
1190.946, 392.8047
1192.030, 289.0332
1193.113, 210.7734
1194.197, 286.5586
1195.281, 401.0820
1196.364, 355.5859
1197.447, 401.4023
1198.530, 317.4727
1199.613, 394.3105
1200.696, 181.1582
1201.779, 316.3223
1202.861, 313.3223
1203.944, 377.1973
1205.026, 398.0781
1206.108, 423.3203
1207.190, 468.0566
1208.271, 507.7734
1209.353, 550.6875
1210.435, 654.6074
1211.516, 728.5332
1212.597, 875.4648
1213.678, 737.4082
1214.759, 831.3574
1215.840, 840.3105
1216.920, 692.2676
1218.001, 939.2305
1219.081, 1098.197
1220.161, 902.8535
1221.241, 1001.828
1222.321, 1032.059
1223.401, 969.0410
1224.480, 963.0254
1225.560, 899.0137
1226.639, 987.0020
1227.718, 977.9941
1228.797, 900.9844
1229.876, 786.9922
1230.955, 753.0020
1232.033, 692.0137
1233.112, 668.0293
1234.190, 610.1309
1235.268, 538.0508
1236.346, 486.0605
1237.424, 535.1172
1238.501, 442.1230
1239.579, 405.2539
1240.656, 433.5605
1241.733, 262.5586
1242.811, 148.5566
1243.888, 431.5488
1244.964, 179.5371
1246.041, 282.5234
1247.117, 247.5059
1248.194, 199.9492
1249.270, 349.9219
1250.346, 172.8906
1251.422, 299.8535
1252.498, 247.8125
1253.573, 197.7656
1254.649, 167.7148
1255.724, 206.6543
1256.800, 137.5898
1257.875, 146.5176
1258.950, 96.43945
1260.024, 81.70312
1261.099, 14.26172
1262.173, 57.16992
1263.248, 87.07422
1264.322, 83.96680
1265.396, 20.85352
1266.470, 122.7246
1267.544, 244.5879
1268.617, 109.4785
1269.691, 96.32422
1270.764, 280.1602
1271.837, 129.9844
1272.910, 245.8008
1273.983, 168.6074
1275.056, 193.4023
1276.129, 199.1855
1277.201, 213.9590
1278.273, 200.7188
1279.346, 99.46875
1280.418, 22.20703
1281.489, 76.92188
1282.561, 80.62891
1283.633, 31.18555
1284.704, 27.47852
1285.776, 119.5859
1286.847, 182.4336
1287.918, 85.03906
1288.989, 37.78906
1290.059, 28.73828
1291.130, 105.9961
1292.200, 82.71094
1293.271, 105.5078
1294.341, 39.76758
1295.411, 54.38672
1296.481, 85.60938
1297.551, 62.34961
1298.620, 56.26953
1299.690, 45.59180
1300.759, 20.56836
1301.828, 24.77344
1302.897, 123.8145
1303.966, 9.843750
1305.035, 69.55469
1306.103, 236.9707
1307.172, 40.51758
1308.240, 161.9316
1309.308, 116.4121
1310.376, 100.8340
1311.444, 184.2441
1312.512, 199.6348
1313.580, 87.01172
1314.647, 57.36914
1315.714, 196.6973
1316.781, 12.99414
1317.848, 293.2383
1318.915, 47.88281
1319.982, 11.07422
1321.049, 76.76367
1322.115, 193.3496
1323.181, 58.83398
1324.248, 60.89062
1325.314, 159.9316
1326.380, 85.95508
1327.445, 172.9629
1328.511, 265.9531
1329.576, 84.92773
1330.642, 12.11523
1331.707, 226.8027
1332.772, 283.6992
1333.837, 204.5820
1334.902, 171.4453
