##NAMES=Beryl
##RRUFFID=R050120
##IDEAL CHEMISTRY=Be_3_Al_2_Si_6_O_18_
##LOCALITY=Cruziero mine, San Jose, Minas Gerais, Brazil
##OWNER=RRUFF
##SOURCE=Carlos and Paulo Vasconcelos
##DESCRIPTION=Yellow gemmy fragment
##STATUS=The identification of this mineral has been confirmed by X-ray diffraction and chemical analysis
##URL=rruff.info/R050120
##MEASURED CHEMISTRY=(Be_2.76_Li_0.24_)_Σ=3_Al_2.00_Si_6.00_O_18_·Na_0.24_
##PIN_ID=L00313
##ORIENTATION=Laser parallel to c* (0 0 1). Fiducial mark perpendicular to laser is parallel to a [1 0 0]
98.947, 0.000
100.340, 8.755
101.732, 74.169
103.124, 64.008
104.516, 150.819
105.908, 369.065
107.300, 496.205
108.691, 745.263
110.082, 951.203
111.473, 1188.579
112.864, 1502.272
114.254, 2015.469
115.644, 2382.487
117.034, 2736.758
118.424, 2505.845
119.813, 2831.520
121.203, 2416.522
122.592, 2187.564
123.981, 2255.364
125.369, 2087.691
126.758, 2225.355
128.146, 2017.667
129.534, 2252.074
130.922, 2053.435
132.309, 2213.687
133.696, 1989.741
135.083, 2229.525
136.470, 1867.975
137.857, 2096.442
139.243, 1889.216
140.630, 1693.191
142.016, 1580.470
143.401, 1385.189
144.787, 1276.187
146.172, 1226.853
147.557, 1078.434
148.942, 1056.175
150.327, 1019.071
151.711, 999.121
153.096, 1148.329
154.480, 1068.699
155.863, 988.998
157.247, 1158.107
158.630, 1177.354
160.013, 1282.386
161.396, 1279.068
162.779, 1316.191
164.161, 1247.406
165.544, 1282.713
166.926, 1320.119
168.308, 1257.626
169.689, 1276.231
171.070, 1426.930
172.452, 1448.717
173.833, 1312.591
175.213, 1240.672
176.594, 1082.566
177.974, 1075.135
179.354, 1099.037
180.734, 1098.961
182.114, 977.539
183.493, 1028.758
184.872, 783.935
186.251, 791.106
187.630, 566.296
189.008, 442.293
190.387, 754.314
191.765, 556.396
193.143, 613.542
194.520, 270.754
195.898, 431.036
197.275, 434.391
198.652, 363.819
200.029, 229.322
201.405, 338.896
202.782, 145.554
204.158, 249.350
205.534, 235.313
206.909, 87.441
208.285, 52.734
209.660, 68.134
211.035, 88.404
212.410, 51.890
213.784, 34.321
215.159, 6.705
216.533, 18.042
217.907, 5.633
219.281, 22.393
220.654, 28.029
222.027, 70.706
223.400, 139.254
224.773, 105.343
226.146, 181.104
227.518, 112.058
228.891, 137.135
230.263, 103.293
231.634, 188.569
233.006, 254.986
234.377, 162.513
235.748, 141.131
237.119, 108.797
238.490, 277.446
239.860, 216.090
241.231, 163.750
242.601, 48.451
243.970, 44.176
245.340, 109.906
246.709, 19.628
248.079, 111.337
249.448, 68.970
250.816, 49.711
252.185, 79.624
253.553, 116.976
254.921, 19.341
256.289, 65.725
257.657, 80.145
259.024, 196.620
260.391, 4.146
261.758, 165.756
263.125, 25.442
264.492, 114.719
265.858, 51.829
267.224, 388.286
268.590, 127.349
269.956, 178.897
271.321, 275.848
272.687, 86.138
274.052, 171.282
275.416, 93.522
276.781, 105.551
278.146, 68.227
279.510, 104.163
280.874, 95.708
282.237, 171.396
283.601, 177.213
284.964, 92.144
286.327, 396.179
287.690, 480.308
289.053, 528.530
290.416, 844.831
291.778, 856.208
293.140, 1180.650
294.502, 951.185
295.863, 890.740
297.225, 697.559
298.586, 568.208
299.947, 438.898
301.308, 229.626
302.668, 217.389
304.029, 268.080
305.389, 143.060
306.749, 177.864
308.108, 272.111
309.468, 133.973
310.827, 248.844
312.186, 265.735
313.545, 561.019
314.903, 653.502
316.262, 762.013
317.620, 984.540
318.978, 1087.924
320.336, 1337.925
321.693, 1386.832
323.051, 1658.908
324.408, 1327.730
325.765, 1534.723
327.121, 933.631
328.478, 730.811
329.834, 661.105
331.190, 454.277
332.546, 127.168
333.902, 181.348
335.257, 13.688
336.612, 129.576
337.967, 51.656
339.322, 147.871
340.677, 81.898
342.031, 66.332
343.385, 0.705
344.739, 75.006
346.093, 69.658
347.446, 59.168
348.799, 24.119
350.153, 147.367
351.505, 100.516
352.858, 136.033
354.210, 249.215
355.563, 150.195
356.915, 81.828
358.267, 201.855
359.618, 114.584
360.969, 221.219
362.321, 223.840
363.672, 215.152
365.022, 361.426
366.373, 202.709
367.723, 365.309
369.073, 394.213
370.423, 443.625
371.773, 382.180
373.122, 599.482
374.471, 691.771
375.821, 595.043
377.169, 853.057
378.518, 841.148
379.866, 956.244
381.215, 1301.682
382.563, 1399.951
383.910, 1529.367
385.258, 1929.283
386.605, 2421.053
387.952, 2821.398
389.299, 3663.084
390.646, 4312.051
391.992, 5676.691
393.339, 6966.309
394.685, 8806.900
396.031, 11420.467
397.376, 13139.008
398.722, 14852.521
400.067, 14805.008
401.412, 13726.469
402.757, 12018.898
404.101, 9396.301
405.446, 7307.680
406.790, 5837.027
408.134, 4722.348
409.478, 3949.639
410.821, 3383.902
412.165, 2926.217
413.508, 2805.422
414.851, 2745.271
416.193, 2507.625
417.536, 2397.299
418.878, 2526.521
420.220, 2505.176
421.562, 2100.785
422.904, 2329.664
424.245, 2227.586
425.586, 1739.902
426.927, 1808.844
428.268, 1344.781
429.609, 1134.707
430.949, 1005.621
432.289, 1063.518
433.629, 855.396
434.969, 804.256
436.309, 683.617
437.648, 789.432
438.987, 670.225
440.326, 479.818
441.665, 713.572
443.003, 780.613
444.342, 521.936
445.680, 540.594
447.018, 595.223
448.355, 350.822
449.693, 354.535
451.030, 403.072
452.367, 518.822
453.704, 197.863
455.041, 192.816
456.377, 289.285
457.713, 155.727
459.049, 233.066
460.385, 330.371
461.721, 356.639
463.056, 323.701
464.391, 103.590
465.726, 184.744
467.061, 65.861
468.395, 6.980
469.730, 274.000
471.064, 78.953
472.398, 276.955
473.731, 4.262
475.065, 54.812
476.398, 6.475
477.731, 139.783
479.064, 96.342
480.397, 234.111
481.729, 281.580
483.062, 221.010
484.394, 127.398
485.725, 246.742
487.057, 330.055
488.389, 205.344
489.720, 179.607
491.051, 210.838
492.382, 280.025
493.712, 211.252
495.043, 85.438
496.373, 190.146
497.703, 123.271
499.032, 163.355
500.362, 225.049
501.691, 134.199
503.020, 61.039
504.349, 24.955
505.678, 14.783
507.007, 35.500
508.335, 1.156
509.663, 9.434
510.991, 129.982
512.319, 151.518
513.646, 74.824
514.973, 62.885
516.300, 201.299
517.627, 82.441
518.954, 58.473
520.280, 29.502
521.607, 7.410
522.933, 19.764
524.259, 51.016
525.584, 3.381
526.910, 104.172
528.235, 45.312
529.560, 241.109
530.885, 31.488
532.209, 71.809
533.534, 314.080
534.858, 295.320
536.182, 203.523
537.506, 126.686
538.829, 242.801
540.152, 63.875
541.476, 242.887
542.799, 25.143
544.121, 292.732
545.444, 346.564
546.766, 99.355
548.088, 367.096
549.410, 240.795
550.732, 489.453
552.053, 472.074
553.375, 393.656
554.696, 489.199
556.017, 570.703
557.337, 580.166
558.658, 724.594
559.978, 626.979
561.298, 811.326
562.618, 727.633
563.938, 775.900
565.257, 950.133
566.576, 761.334
567.895, 988.494
569.214, 1064.617
570.533, 1113.703
571.851, 1190.457
573.170, 1181.232
574.488, 1184.762
575.805, 1136.729
577.123, 1045.658
578.440, 987.557
579.758, 1162.430
581.075, 712.297
582.391, 932.121
583.708, 826.939
585.024, 637.717
586.341, 731.459
587.657, 909.160
588.972, 760.824
590.288, 642.449
591.603, 485.035
592.918, 538.582
594.233, 567.088
595.548, 472.584
596.863, 485.041
598.177, 365.459
599.491, 326.848
600.805, 252.197
602.119, 184.506
603.432, 374.770
604.746, 395.994
606.059, 341.180
607.372, 76.326
608.685, 471.416
609.997, 124.467
611.309, 194.469
612.621, 207.426
613.933, 315.309
615.245, 313.184
616.557, 525.107
617.868, 347.906
619.179, 458.781
620.490, 205.504
621.801, 591.186
623.111, 398.031
624.421, 514.467
625.731, 303.059
627.041, 607.600
628.351, 296.305
629.660, 118.764
630.970, 510.170
632.279, 224.029
633.588, 293.789
634.896, 160.643
636.205, 399.488
637.513, 245.275
638.821, 318.621
640.129, 596.781
641.437, 578.736
642.744, 411.910
644.051, 394.350
645.358, 535.773
646.665, 760.760
647.972, 342.273
649.278, 663.914
650.584, 644.514
651.890, 950.062
653.196, 779.789
654.502, 830.691
655.807, 591.217
657.113, 781.322
658.418, 1044.320
659.722, 772.162
661.027, 877.396
662.331, 988.100
663.636, 1243.893
664.940, 1203.693
666.244, 1609.145
667.547, 1644.664
668.851, 2057.432
670.154, 2295.773
671.457, 2694.637
672.760, 3660.684
674.062, 4304.980
675.365, 5381.652
676.667, 6827.578
677.969, 9113.590
679.271, 12189.551
680.572, 15643.059
681.874, 21348.395
683.175, 27659.568
684.476, 33162.656
685.777, 36720.918
687.077, 35562.840
688.378, 31761.736
689.678, 25783.744
690.978, 20215.811
692.278, 15106.965
693.577, 12563.555
694.877, 9311.521
696.176, 8077.219
697.475, 6417.725
698.774, 5592.355
700.072, 4655.750
701.371, 3972.529
702.669, 3160.354
703.967, 3185.520
705.265, 3069.293
706.562, 2580.736
707.860, 1918.461
709.157, 2353.658
710.454, 1680.330
711.751, 2008.979
713.047, 1444.604
714.344, 1655.203
715.640, 1109.779
716.936, 1309.332
718.232, 1502.861
719.527, 1220.367
720.823, 1149.016
722.118, 1249.207
723.413, 1132.641
724.708, 980.053
726.002, 1243.934
727.297, 933.299
728.591, 1073.643
729.885, 1159.967
731.179, 913.266
732.472, 647.543
733.766, 805.797
735.059, 817.031
736.352, 737.242
737.645, 707.436
738.937, 787.604
740.230, 603.752
741.522, 722.879
742.814, 675.982
744.106, 778.070
745.397, 745.135
746.689, 549.178
747.980, 797.199
749.271, 571.205
750.562, 997.189
751.853, 490.154
753.143, 790.102
754.433, 781.029
755.723, 525.922
757.013, 881.482
758.303, 534.719
759.592, 735.570
760.881, 590.400
762.170, 776.219
763.459, 483.871
764.748, 317.652
766.036, 565.172
767.325, 246.350
768.613, 332.564
769.901, 293.217
771.188, 88.844
772.476, 363.523
773.763, 129.188
775.050, 170.834
776.337, 158.949
777.624, 126.566
778.910, 165.172
780.196, 211.762
781.482, 48.252
782.768, 93.846
784.054, 173.318
785.339, 170.836
786.625, 36.570
787.910, 197.637
789.195, 105.854
790.479, 89.998
791.764, 158.828
793.048, 74.055
794.332, 131.795
795.616, 157.262
796.900, 219.715
798.183, 17.840
799.467, 33.428
800.750, 32.059
802.033, 11.729
803.316, 379.570
804.598, 280.139
805.880, 157.984
807.163, 174.684
808.445, 135.205
809.726, 31.883
811.008, 117.814
812.289, 5.205
813.570, 117.756
814.851, 134.709
816.132, 108.336
817.413, 96.438
818.693, 53.412
819.973, 12.281
821.253, 97.158
822.533, 140.047
823.813, 98.930
825.092, 7.137
826.371, 8.213
827.650, 40.729
828.929, 140.662
830.208, 85.596
831.486, 73.160
832.764, 99.104
834.042, 30.029
835.320, 49.953
836.598, 72.965
837.875, 49.006
839.152, 42.006
840.429, 218.994
841.706, 32.006
842.983, 31.018
844.259, 263.957
845.536, 26.928
846.812, 291.895
848.088, 35.859
849.363, 321.828
850.639, 251.793
851.914, 120.768
853.189, 39.746
854.464, 238.748
855.739, 446.748
857.013, 182.746
858.288, 336.752
859.562, 194.758
860.836, 387.762
862.110, 6.230
863.383, 236.771
864.656, 209.773
865.930, 133.775
867.203, 134.777
868.475, 283.785
869.748, 63.791
871.020, 246.799
872.292, 257.811
873.564, 0.178
874.836, 40.164
876.108, 42.836
877.379, 213.834
878.650, 12.160
879.922, 97.842
881.192, 94.748
882.463, 62.707
883.733, 109.871
885.004, 154.889
886.274, 123.910
887.544, 276.938
888.813, 131.969
890.083, 134.006
891.352, 355.049
892.621, 275.098
893.890, 211.152
895.159, 19.209
896.427, 252.275
897.695, 158.125
898.964, 281.424
900.232, 274.510
901.499, 263.602
902.767, 426.701
904.034, 344.805
905.301, 478.920
906.568, 574.041
907.835, 724.168
909.102, 396.305
910.368, 467.449
911.634, 428.605
912.900, 337.770
914.166, 604.943
915.432, 306.125
916.697, 154.324
917.962, 452.533
919.227, 225.756
920.492, 354.988
921.757, 126.234
923.021, 451.488
924.285, 416.455
925.550, 263.730
926.813, 250.898
928.077, 218.193
929.341, 160.500
930.604, 404.711
931.867, 112.039
933.130, 134.377
934.393, 360.314
935.655, 132.459
936.918, 536.830
938.180, 120.219
939.442, 132.744
940.703, 270.152
941.965, 198.430
943.226, 85.322
944.488, 119.102
945.749, 18.068
947.009, 200.736
948.270, 29.193
949.530, 6.664
950.791, 175.680
952.051, 79.764
953.311, 7.994
954.570, 167.549
955.830, 196.084
957.089, 50.908
958.348, 38.525
959.607, 129.051
960.866, 24.871
962.124, 197.248
963.383, 189.330
964.641, 149.422
965.899, 117.002
967.156, 135.559
968.414, 12.508
969.671, 11.164
970.928, 6.652
972.185, 212.908
973.442, 47.635
974.699, 359.385
975.955, 74.150
977.211, 27.707
978.468, 228.264
979.723, 145.898
980.979, 218.742
982.234, 559.605
983.490, 81.531
984.745, 640.369
986.000, 643.008
987.254, 380.834
988.509, 950.824
989.763, 882.594
991.017, 960.887
992.271, 1049.010
993.525, 1312.047
994.779, 1660.197
996.032, 1851.541
997.285, 2023.764
998.538, 1807.178
999.791, 2511.539
1001.044, 2117.008
1002.296, 2363.496
1003.548, 1957.004
1004.800, 1976.504
1006.052, 1898.076
1007.304, 1541.674
1008.555, 1458.299
1009.807, 1295.004
1011.058, 1296.730
1012.309, 1360.521
1013.559, 832.840
1014.810, 826.674
1016.060, 908.531
1017.310, 1001.406
1018.560, 686.301
1019.810, 849.217
1021.060, 974.176
1022.309, 685.152
1023.558, 1007.148
1024.807, 522.998
1026.056, 575.314
1027.305, 555.387
1028.553, 892.473
1029.801, 791.146
1031.049, 484.328
1032.297, 483.529
1033.545, 750.752
1034.793, 526.992
1036.040, 597.264
1037.287, 586.555
1038.534, 651.865
1039.781, 1027.195
1041.027, 536.555
1042.274, 799.936
1043.520, 1028.338
1044.766, 774.764
1046.012, 870.209
1047.257, 752.676
1048.503, 1355.158
1049.748, 814.658
1050.993, 1525.176
1052.238, 1519.709
1053.483, 1327.260
1054.727, 1682.826
1055.971, 2100.410
1057.216, 2121.008
1058.459, 2364.627
1059.703, 2641.262
1060.947, 2970.908
1062.190, 3119.572
1063.433, 3478.250
1064.676, 3727.947
1065.919, 3632.660
1067.162, 4336.387
1068.404, 3727.127
1069.646, 4156.879
1070.888, 4438.643
1072.130, 3911.420
1073.372, 3965.209
1074.613, 4116.008
1075.855, 3633.820
1077.096, 3197.641
1078.337, 3600.473
1079.578, 3223.311
1080.818, 3154.160
1082.059, 2749.018
1083.299, 2707.883
1084.539, 2232.760
1085.779, 2214.643
1087.018, 1981.533
1088.258, 1844.436
1089.497, 1714.363
1090.736, 1596.297
1091.975, 1403.271
1093.213, 1244.916
1094.452, 1184.137
1095.690, 1109.623
1096.928, 1110.615
1098.166, 1107.676
1099.404, 1155.674
1100.642, 973.684
1101.879, 1034.953
1103.116, 847.000
1104.353, 1019.367
1105.590, 686.762
1106.827, 1230.805
1108.063, 729.969
1109.299, 997.148
1110.536, 962.188
1111.771, 998.867
1113.007, 872.488
1114.243, 1017.156
1115.478, 625.289
1116.713, 876.348
1117.948, 1049.047
1119.183, 736.941
1120.418, 566.367
1121.652, 807.980
1122.886, 949.508
1124.120, 996.312
1125.354, 664.656
1126.588, 821.617
1127.821, 782.957
1129.055, 841.223
1130.288, 1038.281
1131.521, 788.781
1132.753, 616.094
1133.986, 731.914
1135.218, 943.336
1136.450, 541.410
1137.682, 994.898
1138.914, 695.719
1140.146, 746.043
1141.377, 848.781
1142.609, 741.367
1143.840, 786.746
1145.071, 946.715
1146.301, 814.617
1147.532, 963.289
1148.762, 732.922
1149.992, 730.445
1151.222, 647.152
1152.452, 846.355
1153.682, 479.375
1154.911, 585.098
1156.140, 460.266
1157.369, 335.457
1158.598, 407.578
1159.827, 598.930
1161.055, 240.180
1162.284, 559.824
1163.512, 273.297
1164.740, 546.742
1165.967, 144.566
1167.195, 495.648
1168.422, 295.211
1169.650, 482.703
1170.877, 258.402
1172.103, 335.422
1173.330, 428.117
1174.557, 676.984
1175.783, 865.941
1177.009, 245.840
1178.235, 489.848
1179.461, 494.445
1180.686, 407.961
1181.912, 726.156
1183.137, 706.223
1184.362, 595.406
1185.587, 744.574
1186.811, 823.125
1188.036, 562.648
1189.260, 919.789
1190.484, 717.559
1191.708, 869.996
1192.932, 647.438
1194.155, 596.590
1195.378, 751.039
1196.602, 931.488
1197.825, 829.359
1199.047, 832.770
1200.270, 924.336
1201.492, 1131.719
1202.715, 1080.562
1203.937, 1110.457
1205.159, 955.203
1206.380, 964.543
1207.602, 937.691
1208.823, 899.152
1210.044, 927.438
1211.265, 877.230
1212.486, 895.281
1213.707, 811.168
1214.927, 890.266
1216.147, 792.824
1217.367, 1032.492
1218.587, 933.965
1219.807, 964.340
1221.027, 1008.664
1222.246, 657.801
1223.465, 900.789
1224.684, 1225.727
1225.903, 1058.617
1227.121, 805.406
1228.340, 1125.230
1229.558, 862.887
1230.776, 773.492
1231.994, 719.895
1233.212, 718.383
1234.429, 852.508
1235.646, 784.680
1236.864, 872.754
1238.081, 605.742
1239.297, 646.629
1240.514, 821.453
1241.730, 493.199
1242.947, 333.914
1244.163, 293.512
1245.378, 545.145
1246.594, 561.566
1247.810, 257.891
1249.025, 360.566
1250.240, 244.695
1251.455, 239.969
1252.670, 105.922
1253.885, 177.535
1255.099, 91.316
1256.313, 11.926
1257.527, 282.668
1258.741, 227.207
1259.955, 218.309
1261.168, 16.402
1262.382, 127.633
1263.595, 222.047
1264.808, 183.164
1266.021, 103.129
1267.233, 142.984
1268.446, 132.754
1269.658, 129.828
1270.870, 128.191
1272.082, 153.656
1273.294, 111.008
1274.505, 119.727
1275.716, 146.938
1276.928, 1.785
1278.139, 215.055
1279.349, 199.785
1280.560, 97.316
1281.770, 104.348
1282.981, 62.695
1284.191, 83.324
1285.401, 6.648
1286.610, 189.516
1287.820, 97.105
1289.029, 323.367
1290.239, 205.125
1291.448, 73.406
1292.656, 12.988
1293.865, 117.281
1295.073, 135.434
1296.282, 117.594
1297.490, 79.543
1298.698, 17.445
1299.906, 129.484
1301.113, 43.391
1302.320, 158.770
1303.528, 104.977
1304.735, 94.371
1305.942, 102.250
1307.148, 359.801
1308.355, 94.312
1309.561, 416.762
1310.767, 154.160
1311.973, 275.508
1313.179, 7.188
1314.384, 424.090
1315.590, 184.328
1316.795, 306.535
1318.000, 34.703
1319.205, 352.840
1320.410, 335.938
1321.614, 113.004
1322.819, 331.031
1324.023, 223.047
1325.227, 456.043
1326.431, 299.027
1327.634, 71.004
1328.838, 307.969
1330.041, 315.934
1331.244, 465.898
1332.447, 101.848
1333.650, 189.809
1334.852, 314.785
1336.055, 212.785
1337.257, 279.703
1338.459, 344.375
1339.661, 570.949
1340.862, 567.027
1342.064, 417.398
1343.265, 559.859
1344.466, 488.434
1345.667, 548.707
1346.868, 790.895
1348.068, 606.742
1349.269, 446.777
1350.469, 750.914
1351.669, 690.383
1352.869, 563.867
1354.069, 846.930
1355.268, 397.438
1356.468, 620.617
1357.667, 748.223
1358.866, 346.234
1360.065, 698.422
1361.263, 399.688
1362.462, 567.051
1363.660, 613.973
1364.858, 661.730
1366.056, 548.160
1367.254, 534.930
1368.451, 719.160
1369.649, 409.223
1370.846, 476.367
1372.043, 344.500
1373.240, 634.906
1374.436, 520.883
1375.633, 363.422
1376.829, 284.695
1378.025, 43.242
1379.221, 486.199
1380.417, 572.109
1381.613, 525.047
1382.808, 492.695
1384.003, 510.016
1385.199, 383.289
1386.393, 259.699
1387.588, 470.785
1388.783, 225.453
1389.977, 559.480
1391.171, 341.516
1392.365, 122.977
1393.559, 390.324
1394.753, 159.340
1395.946, 444.496
1397.140, 51.832
1398.333, 212.105
1399.526, 174.938
1400.719, 329.090
1401.911, 402.914
1403.104, 146.410
1404.296, 69.164
1405.488, 379.145
1406.680, 84.062
1407.872, 128.422
1409.063, 346.094
1410.255, 166.246
1411.446, 441.055
1412.637, 12.289
1413.828, 238.160
1415.018, 221.016
1416.209, 250.848
1417.399, 12.898
1418.589, 86.844
1419.779, 47.035
1420.969, 86.867
1422.159, 179.820
1423.348, 241.590
1424.537, 126.969
1425.726, 0.605
1426.915, 0.000
##END=



