##NAMES=Beryl
##RRUFFID=R050347
##IDEAL CHEMISTRY=Be_3_Al_2_Si_6_O_18_
##LOCALITY=North Keystone, South Dakota, USA
##OWNER=RRUFF
##SOURCE=California Institute of Technology
##DESCRIPTION=Colorless fragment
##STATUS=The identification of this mineral has been confirmed by X-ray diffraction and chemical analysis
##URL=rruff.info/R050347
##MEASURED CHEMISTRY=(Be_0.96_Li_0.04_)_3_Al_2.00_(Si_0.99_Al_0.01_)_6_O_18_ Î‡0.17Na
##PIN_ID=L00581
##ORIENTATION=Laser parallel to c* (0 0 1). Fiducial mark perpendicular to laser is parallel to b [0 1 0]
211.2690, 0.0000000E+00
212.4890, 36.40820
213.7080, 42.62988
214.9280, 56.55957
216.1470, 31.24609
217.3660, 24.00098
218.5850, 61.24512
219.8030, 169.3730
221.0220, 5.726563
222.2400, 276.9209
223.4590, 52.69727
224.6770, 176.4502
225.8950, 101.4980
227.1120, 163.3203
228.3300, 256.0957
229.5480, 202.9121
230.7650, 245.7324
231.9820, 195.5176
233.1990, 299.2422
234.4160, 205.8877
235.6330, 298.4463
236.8490, 314.9150
238.0660, 263.8018
239.2820, 438.6152
240.4980, 466.4590
241.7140, 357.3203
242.9300, 401.6514
244.1460, 212.1963
245.3610, 379.3604
246.5770, 214.8682
247.7920, 407.1152
249.0070, 240.1826
250.2220, 405.0996
251.4370, 502.8477
252.6510, 223.4307
253.8660, 333.8652
255.0800, 68.16699
256.2940, 170.3486
257.5080, 215.4199
258.7220, 430.3896
259.9360, 600.2666
261.1490, 258.0586
262.3630, 81.76855
263.5760, 87.59668
264.7890, 19.03027
266.0020, 27.46777
267.2150, 59.90527
268.4270, 126.2852
269.6400, 37.61133
270.8520, 212.8857
272.0640, 150.1123
273.2760, 12.70508
274.4880, 151.4541
275.7000, 184.8242
276.9120, 294.4258
278.1230, 337.7949
279.3340, 372.0537
280.5450, 568.5898
281.7560, 509.1963
282.9670, 664.8447
284.1780, 893.8389
285.3880, 1051.817
286.5980, 1222.021
287.8090, 1422.989
289.0190, 1930.709
290.2290, 2264.759
291.4380, 2358.838
292.6480, 2304.942
293.8570, 1989.070
295.0670, 1807.221
296.2760, 1520.392
297.4850, 1234.580
298.6930, 1051.784
299.9020, 877.2988
301.1110, 801.1787
302.3190, 708.4678
303.5270, 776.7188
304.7350, 868.9766
305.9430, 922.2441
307.1510, 1183.519
308.3580, 980.7998
309.5660, 1274.089
310.7730, 1483.310
311.9800, 1783.528
313.1870, 1991.756
314.3940, 2460.989
315.6010, 2678.219
316.8070, 3203.451
318.0130, 3625.686
319.2200, 4103.920
320.4260, 4454.150
321.6310, 4768.378
322.8370, 4773.604
324.0430, 4304.830
325.2480, 3626.054
326.4540, 2604.273
327.6590, 1769.494
328.8640, 1396.713
330.0680, 891.9307
331.2730, 645.1484
332.4780, 334.3623
333.6820, 302.5771
334.8860, 149.7930
336.0900, 164.0059
337.2940, 54.17285
338.4980, 30.85156
339.7010, 30.23145
340.9050, 73.91504
342.1080, 88.02344
343.3110, 124.0869
344.5140, 81.45508
345.7170, 8.888672
346.9200, 95.22949
348.1220, 6.197266
349.3240, 76.84180
350.5270, 84.54492
351.7290, 121.5928
352.9310, 111.6201
354.1320, 149.8105
355.3340, 54.24707
356.5350, 186.3857
357.7370, 188.2168
358.9380, 64.05371
360.1390, 5.965820
361.3400, 71.92383
362.5400, 88.08496
363.7410, 168.3604
364.9410, 26.73438
366.1410, 173.7891
367.3410, 153.8516
368.5410, 256.9170
369.7410, 249.2041
370.9400, 226.2559
372.1400, 429.2988
373.3390, 259.3311
374.5380, 336.3545
375.7370, 602.3672
376.9360, 537.3691
378.1350, 632.3613
379.3330, 950.3447
380.5310, 1200.318
381.7300, 1316.283
382.9280, 1570.089
384.1260, 1845.893
385.3230, 2270.693
386.5210, 2818.492
387.7180, 3561.272
388.9160, 4337.047
390.1130, 5573.811
391.3100, 6859.559
392.5060, 8067.295
393.7030, 9275.019
394.9000, 10723.73
396.0960, 12144.44
397.2920, 12319.13
398.4880, 12077.81
399.6840, 11125.49
400.8800, 9369.154
402.0750, 7888.812
403.2710, 6531.466
404.4660, 5162.111
405.6610, 4017.751
406.8560, 3328.385
408.0510, 3034.620
409.2450, 2997.139
410.4400, 2554.758
411.6340, 2528.373
412.8280, 2623.982
414.0220, 2828.588
415.2160, 3063.190
416.4100, 3546.789
417.6030, 3846.617
418.7970, 4404.208
419.9900, 4461.765
421.1830, 4643.199
422.3760, 4795.492
423.5690, 4270.783
424.7610, 3555.006
425.9540, 3351.232
427.1460, 2737.463
428.3380, 2369.694
429.5300, 1806.928
430.7220, 1513.152
431.9140, 1619.380
433.1050, 1489.604
434.2970, 1617.832
435.4880, 1749.062
436.6790, 1734.292
437.8700, 1704.523
439.0610, 1877.759
440.2510, 2049.995
441.4420, 1737.231
442.6320, 1857.472
443.8220, 1625.711
445.0120, 1708.953
446.2020, 1653.196
447.3910, 1493.440
448.5810, 1417.687
449.7700, 1199.932
450.9600, 986.1787
452.1490, 700.4287
453.3370, 761.6777
454.5260, 511.9287
455.7150, 563.1807
456.9030, 446.4336
458.0910, 509.6875
459.2800, 167.9443
460.4670, 284.4258
461.6550, 236.8633
462.8430, 107.4131
464.0300, 191.7549
465.2180, 209.7744
466.4050, 131.0254
467.5920, 233.2881
468.7790, 135.6289
469.9650, 107.0967
471.1520, 157.3223
472.3380, 57.91211
473.5250, 162.6934
474.7110, 71.99219
475.8970, 46.25586
477.0820, 169.5195
478.2680, 223.7832
479.4540, 201.0488
480.6390, 204.3086
481.8240, 128.4629
483.0090, 0.4160160
484.1940, 49.76953
485.3780, 85.48242
486.5630, 120.7422
487.7470, 14.30859
488.9320, 81.26562
490.1160, 175.4453
491.3000, 99.36133
492.4830, 230.6191
493.6670, 37.95898
494.8500, 4.732422
496.0340, 83.72461
497.2170, 75.00586
498.4000, 37.74805
499.5820, 34.34766
500.7650, 151.4434
501.9480, 171.5117
503.1300, 78.42773
504.3120, 19.51562
505.4940, 17.40430
506.6760, 18.60352
507.8580, 160.0742
509.0390, 79.12305
510.2210, 199.1641
511.4020, 5.205078
512.5830, 125.2383
513.7640, 104.2676
514.9450, 168.2949
516.1250, 102.3164
517.3060, 386.3359
518.4860, 511.3555
519.6660, 481.3672
520.8460, 521.3789
522.0260, 595.4355
523.2060, 667.3906
524.3850, 692.3887
525.5650, 838.4102
526.7440, 838.4297
527.9230, 725.4883
529.1020, 867.5449
530.2810, 815.5957
531.4590, 879.6445
532.6380, 778.6934
533.8160, 668.7500
534.9940, 698.8086
536.1720, 680.8672
537.3500, 638.9258
538.5270, 703.9805
539.7050, 693.0430
540.8820, 483.1016
542.0590, 571.1582
543.2360, 472.2695
544.4130, 468.3906
545.5900, 588.5137
546.7660, 342.6641
547.9430, 485.8184
549.1190, 448.9668
550.2950, 400.1445
551.4710, 502.3242
552.6470, 706.5020
553.8220, 754.6777
554.9980, 848.8535
556.1730, 818.0254
557.3480, 952.8906
558.5230, 867.4141
559.6980, 1160.652
560.8730, 1375.902
562.0470, 1466.152
563.2220, 1346.402
564.3960, 1261.660
565.5700, 1481.916
566.7440, 1519.174
567.9170, 1544.430
569.0910, 1509.697
570.2640, 1656.969
571.4380, 1792.236
572.6110, 1990.527
573.7840, 2316.832
574.9570, 2222.135
576.1290, 2358.465
577.3020, 2523.838
578.4740, 2239.209
579.6460, 2260.578
580.8180, 2125.967
581.9900, 1887.354
583.1620, 1616.734
584.3330, 1451.115
585.5040, 1322.492
586.6760, 1034.867
587.8470, 758.2363
589.0180, 769.6016
590.1880, 434.9648
591.3590, 399.3203
592.5290, 410.6738
593.7000, 318.0234
594.8700, 374.3711
596.0400, 322.7168
597.2090, 251.7773
598.3790, 170.3926
599.5490, 131.7227
600.7180, 21.05469
601.8870, 32.37695
603.0560, 7.707031
604.2250, 63.97266
605.3940, 58.67188
606.5620, 30.40039
607.7300, 97.84375
608.8990, 59.08398
610.0670, 30.31641
611.2350, 45.45703
612.4020, 6.734375
613.5700, 4.195313
614.7370, 71.95703
615.9050, 86.04688
617.0720, 214.0195
618.2390, 336.1895
619.4060, 268.3516
620.5720, 390.5059
621.7390, 296.6543
622.9050, 271.7969
624.0710, 356.7578
625.2370, 232.7852
626.4030, 189.9746
627.5690, 163.1953
628.7340, 101.8945
629.9000, 59.60352
631.0650, 27.58789
632.2300, 103.7773
633.3950, 41.98438
634.5600, 231.5566
635.7240, 9.787109
636.8890, 7.109375
638.0530, 43.10156
639.2170, 98.65039
640.3810, 166.6855
641.5450, 153.0605
642.7080, 201.9492
643.8720, 87.07227
645.0350, 84.02539
646.1980, 13.11719
647.3610, 232.6465
648.5240, 275.7324
649.6870, 210.9844
650.8490, 256.0566
652.0120, 175.8945
653.1740, 217.5000
654.3360, 253.5645
655.4980, 245.0312
656.6600, 390.3945
657.8210, 337.7305
658.9830, 457.8555
660.1440, 435.8574
661.3050, 833.8496
662.4660, 827.8340
663.6270, 998.8105
664.7870, 1292.885
665.9480, 1275.961
667.1080, 1775.166
668.2680, 2051.344
669.4280, 2478.303
670.5880, 3174.250
671.7480, 3821.686
672.9070, 4748.207
674.0670, 5861.363
675.2260, 7477.053
676.3850, 9763.324
677.5440, 12648.21
678.7030, 16086.99
679.8610, 20253.15
681.0200, 25620.02
682.1780, 31512.72
683.3360, 37813.15
684.4940, 41631.02
685.6520, 43256.68
686.8090, 40340.69
687.9670, 34430.01
689.1240, 28318.50
690.2810, 22000.27
691.4380, 17319.22
692.5950, 13299.43
693.7520, 10671.64
694.9080, 8589.570
696.0650, 7330.508
697.2210, 5892.752
698.3770, 5205.025
699.5330, 4352.393
700.6880, 3920.910
701.8440, 3443.146
702.9990, 2983.881
704.1550, 2639.736
705.3100, 2679.865
706.4650, 2264.688
707.6190, 2119.162
708.7740, 1853.338
709.9290, 1715.840
711.0830, 1561.311
712.2370, 1468.270
713.3910, 1399.990
714.5450, 1200.469
715.6980, 1183.596
716.8520, 935.9844
718.0050, 1055.299
719.1580, 1057.617
720.3110, 1070.945
721.4640, 988.2930
722.6170, 941.5801
723.7700, 992.2949
724.9220, 1029.820
726.0740, 873.0840
727.2260, 830.3887
728.3780, 636.5742
729.5300, 736.7363
730.6810, 647.0879
731.8330, 733.1875
732.9840, 669.4785
734.1350, 626.2520
735.2860, 759.3105
736.4370, 675.4727
737.5880, 508.4844
738.7380, 580.6465
739.8880, 888.3906
741.0390, 626.8125
742.1890, 731.4473
743.3380, 829.2930
744.4880, 545.9180
745.6380, 704.7852
746.7870, 573.6230
747.9360, 741.4004
749.0850, 712.9902
750.2340, 588.0508
751.3830, 734.4785
752.5310, 751.6895
753.6800, 646.3613
754.8280, 728.0469
755.9760, 671.3223
757.1240, 1007.965
758.2720, 831.5820
759.4190, 1231.180
760.5670, 1029.752
761.7140, 1320.303
762.8610, 1240.838
764.0080, 1401.352
765.1550, 1475.840
766.3020, 1593.309
767.4480, 1502.758
768.5950, 1317.256
769.7410, 1365.420
770.8870, 1191.803
772.0330, 1050.977
773.1780, 860.3223
774.3240, 674.8672
775.4690, 780.6152
776.6140, 599.8027
777.7590, 474.1172
778.9040, 657.4082
780.0490, 519.6797
781.1940, 464.9258
782.3380, 449.1465
783.4820, 330.3477
784.6260, 485.7969
785.7700, 286.9609
786.9140, 139.1074
788.0580, 196.2246
789.2010, 269.3223
790.3450, 314.3965
791.4880, 358.4473
792.6310, 263.4766
793.7730, 97.48047
794.9160, 100.4590
796.0590, 149.4121
797.2010, 248.3398
798.3430, 218.2441
799.4850, 347.1270
800.6270, 184.9863
801.7690, 52.17773
802.9100, 142.5840
804.0520, 102.6797
805.1930, 111.9512
806.3340, 217.0645
807.4750, 248.6504
808.6160, 78.21094
809.7560, 6.744141
810.8970, 39.23242
812.0370, 57.68359
813.1770, 88.17773
814.3170, 188.6250
815.4570, 19.99609
816.5960, 105.6055
817.7360, 190.9102
818.8750, 170.7832
820.0140, 8.357422
821.1530, 47.44922
822.2920, 76.48633
823.4310, 119.4844
824.5690, 69.42773
825.7070, 25.20508
826.8460, 176.0820
827.9840, 114.9355
829.1220, 70.76758
830.2590, 68.58008
831.3970, 106.3574
832.5340, 34.72070
833.6710, 106.5625
834.8080, 43.95117
835.9450, 13.71289
837.0820, 43.77148
838.2190, 54.22656
839.3550, 10.65234
840.4910, 83.03516
841.6270, 53.39453
842.7630, 79.72852
843.8990, 20.96484
845.0350, 45.28711
846.1700, 187.5098
847.3060, 55.28906
848.4410, 16.16016
849.5760, 66.91602
850.7100, 74.03320
851.8450, 133.0645
852.9800, 148.7930
854.1140, 26.62695
855.2480, 43.56641
856.3820, 151.1738
857.5160, 108.8965
858.6500, 176.5957
859.7830, 37.27344
860.9170, 46.92969
862.0500, 100.5645
863.1830, 83.17773
864.3160, 122.9219
865.4480, 103.0938
866.5810, 168.8984
867.7130, 53.43164
868.8460, 49.94922
869.9780, 17.44336
871.1100, 147.9121
872.2410, 59.36328
873.3730, 112.7949
874.5050, 4.208984
875.6360, 149.5918
876.7670, 21.04297
877.8980, 77.28516
879.0290, 60.40430
880.1590, 5.138672
881.2900, 150.1152
882.4200, 192.3594
883.5500, 55.58789
884.6800, 140.8008
885.8100, 12.99609
886.9400, 116.1875
888.0690, 56.36523
889.1990, 100.5293
890.3280, 139.6777
891.4570, 47.18750
892.5860, 229.9004
893.7140, 300.9746
894.8430, 93.03320
895.9710, 250.0859
897.1000, 451.1250
898.2280, 246.1504
899.3560, 386.1680
900.4830, 551.1738
901.6110, 413.1660
902.7380, 623.1445
903.8660, 442.1094
904.9930, 563.0820
906.1200, 572.0430
907.2460, 541.9922
908.3730, 775.9316
909.5000, 663.8574
910.6260, 950.7754
911.7520, 539.6875
912.8780, 609.5879
914.0040, 556.4766
915.1290, 556.3555
916.2550, 641.2227
917.3800, 636.0820
918.5050, 620.9277
919.6300, 598.3555
920.7550, 472.5977
921.8800, 503.4180
923.0040, 352.0586
924.1290, 343.8613
925.2530, 337.6562
926.3770, 239.4434
927.5010, 322.2207
928.6250, 213.9902
929.7480, 283.4160
930.8720, 146.8516
931.9950, 89.48438
933.1180, 239.2246
934.2410, 20.95508
935.3640, 292.6816
936.4860, 92.39844
937.6090, 221.0020
938.7310, 381.5859
939.8530, 135.0293
940.9750, 154.5195
942.0970, 162.1055
943.2180, 108.7285
944.3400, 63.84570
945.4610, 27.86328
946.5820, 93.23047
947.7030, 3.947266
948.8240, 39.72070
949.9450, 111.8691
951.0650, 91.45508
952.1860, 233.8184
953.3060, 40.62891
954.4260, 99.08203
955.5460, 81.03125
956.6650, 3.546875
957.7850, 105.2344
958.9040, 16.57812
960.0230, 41.41211
961.1420, 110.4141
962.2610, 28.95117
963.3800, 24.29102
964.4990, 2.361328
965.6170, 56.41797
966.7350, 34.25391
967.8530, 82.05273
968.9710, 39.03516
970.0890, 40.02148
971.2070, 285.8145
972.3240, 116.4863
973.4410, 271.4297
974.5580, 234.8633
975.6750, 274.1641
976.7920, 243.1797
977.9090, 284.8125
979.0250, 321.1445
980.1410, 387.0820
981.2580, 425.6816
982.3740, 526.3027
983.4890, 299.4238
984.6050, 787.7734
985.7200, 643.3574
986.8360, 592.2832
987.9510, 909.9395
989.0660, 1210.660
990.1810, 1275.369
991.2950, 1576.057
992.4100, 1802.805
993.5240, 1967.426
994.6390, 2243.701
995.7530, 2574.160
996.8660, 2654.869
997.9800, 2965.527
999.0940, 3418.312
1000.207, 3565.113
1001.320, 3568.926
1002.433, 3831.564
1003.546, 3813.211
1004.659, 3689.389
1005.772, 3792.279
1006.884, 3802.061
1007.996, 3646.996
1009.108, 3667.777
1010.220, 3561.742
1011.332, 3545.072
1012.444, 3446.070
1013.555, 3205.062
1014.666, 2896.596
1015.777, 2704.752
1016.888, 2390.734
1017.999, 2163.799
1019.110, 1825.922
1020.220, 1495.820
1021.331, 1439.014
1022.441, 1298.246
1023.551, 1338.496
1024.661, 1170.770
1025.770, 991.4648
1026.880, 799.7891
1027.989, 784.1328
1029.098, 846.0254
1030.207, 561.4082
1031.316, 681.8086
1032.425, 617.5781
1033.533, 426.0195
1034.642, 581.4824
1035.750, 618.9668
1036.858, 465.4688
1037.966, 684.9980
1039.073, 454.5645
1040.181, 630.1543
1041.288, 862.7617
1042.396, 605.3926
1043.503, 684.0449
1044.610, 894.7168
1045.716, 815.4102
1046.823, 953.1289
1047.929, 1264.867
1049.036, 1142.652
1050.142, 1363.461
1051.248, 1413.289
1052.353, 1794.141
1053.459, 1831.020
1054.564, 2222.914
1055.670, 2535.838
1056.775, 2924.785
1057.880, 3720.756
1058.985, 3883.750
1060.089, 4584.770
1061.194, 5298.809
1062.298, 5625.891
1063.402, 6218.996
1064.506, 6987.127
1065.610, 7257.307
1066.713, 7464.514
1067.817, 7829.744
1068.920, 7680.998
1070.023, 7611.281
1071.126, 7272.617
1072.229, 7027.980
1073.332, 6554.404
1074.435, 6239.354
1075.537, 5633.830
1076.639, 5127.346
1077.741, 4595.891
1078.843, 4307.471
1079.945, 4098.084
1081.046, 3711.656
1082.148, 3454.275
1083.249, 3062.975
1084.350, 2908.430
1085.451, 2597.188
1086.551, 2355.951
1087.652, 2129.828
1088.752, 1812.742
1089.853, 1557.684
1090.953, 1669.689
1092.053, 1483.725
1093.152, 1352.932
1094.252, 1262.033
1095.351, 1104.160
1096.451, 999.3164
1097.550, 995.4922
1098.649, 1087.707
1099.748, 834.3359
1100.846, 929.6152
1101.945, 797.9629
1103.043, 942.6660
1104.141, 735.1074
1105.239, 781.5820
1106.337, 635.0898
1107.434, 497.6328
1108.532, 618.2090
1109.629, 486.8145
1110.726, 479.4512
1111.823, 394.1309
1112.920, 734.8438
1114.017, 298.5820
1115.113, 572.3770
1116.210, 485.2168
1117.306, 310.1016
1118.402, 543.0430
1119.498, 515.0605
1120.593, 588.1074
1121.689, 555.1875
1122.784, 476.3164
1123.879, 485.4844
1124.974, 405.6816
1126.069, 462.9082
1127.164, 479.1641
1128.259, 342.4512
1129.353, 407.7637
1130.447, 459.7656
1131.541, 509.1367
1132.635, 447.5332
1133.729, 466.9570
1134.822, 635.4102
1135.916, 731.0332
1137.009, 620.5430
1138.102, 585.0820
1139.195, 814.1055
1140.288, 675.7012
1141.380, 796.3457
1142.473, 878.1094
1143.565, 873.8301
1144.657, 742.5781
1145.749, 733.8418
1146.841, 782.8340
1147.932, 577.7988
1149.024, 777.6074
1150.115, 744.5527
1151.206, 436.1562
1152.297, 498.7930
1153.388, 727.4121
1154.479, 551.4766
1155.569, 396.7344
1156.659, 200.3750
1157.750, 113.5293
1158.839, 115.7090
1159.929, 82.08594
1161.019, 107.1250
1162.108, 160.3652
1163.198, 75.30273
1164.287, 97.97461
1165.376, 210.2754
1166.465, 73.64453
1167.553, 22.03711
1168.642, 125.1875
1169.730, 233.7695
1170.818, 90.23047
1171.906, 164.7129
1172.994, 337.2188
1174.082, 147.7480
1175.170, 293.2988
1176.257, 297.8750
1177.344, 355.4844
1178.431, 299.1523
1179.518, 198.0879
1180.605, 349.7715
1181.691, 257.4727
1182.778, 344.1953
1183.864, 284.0938
1184.950, 487.8574
1186.036, 286.6445
1187.122, 407.7793
1188.207, 365.5664
1189.292, 459.4141
1190.378, 451.2793
1191.463, 375.1621
1192.548, 553.3984
1193.632, 422.3203
1194.717, 563.2637
1195.801, 474.1934
1196.886, 581.1699
1197.970, 605.2383
1199.054, 505.2539
1200.137, 402.3008
1201.221, 473.4082
1202.305, 552.5039
1203.388, 512.6152
1204.471, 535.7637
1205.554, 537.9180
1206.637, 493.8672
1207.719, 457.0781
1208.802, 446.3008
1209.884, 366.5410
1210.966, 589.8027
1212.048, 630.0801
1213.130, 546.3848
1214.212, 588.7031
1215.293, 579.0527
1216.374, 594.7500
1217.456, 760.1777
1218.536, 957.5859
1219.617, 871.0059
1220.698, 1021.438
1221.778, 1000.887
1222.859, 1181.344
1223.939, 1214.816
1225.019, 1329.303
1226.099, 1375.803
1227.178, 1505.895
1228.258, 1789.842
1229.337, 1808.381
1230.417, 1967.932
1231.496, 2195.494
1232.574, 2119.068
1233.653, 2252.654
1234.732, 2284.271
1235.810, 2181.021
1236.888, 2032.738
1237.966, 2205.383
1239.044, 2192.227
1240.122, 2163.887
1241.199, 1657.680
1242.277, 1386.359
1243.354, 1188.047
1244.431, 1268.740
1245.508, 1024.498
1246.585, 917.1133
1247.661, 758.8262
1248.738, 700.8047
1249.814, 844.3730
1250.890, 597.0996
1251.966, 618.0000
1253.042, 454.0352
1254.117, 248.5996
1255.193, 352.3418
1256.268, 176.0898
1257.343, 253.8398
1258.418, 201.5957
1259.493, 69.64844
1260.567, 85.08398
1261.642, 54.81836
1262.716, 52.55469
1263.790, 192.2930
1264.864, 113.9688
1265.938, 33.93164
1267.011, 115.6270
1268.085, 80.20312
1269.158, 137.4629
1270.231, 43.09961
1271.304, 0.9609380
1272.377, 12.22266
1273.450, 38.88477
1274.522, 9.728516
1275.594, 25.96289
1276.666, 45.32422
1277.738, 19.45703
1278.810, 60.35156
1279.882, 54.27539
1280.953, 103.6504
1282.025, 86.03320
1283.096, 32.64648
1284.167, 22.35938
1285.238, 48.90820
1286.308, 146.7871
1287.379, 84.27734
1288.449, 45.77344
1289.519, 332.7656
1290.589, 37.70508
1291.659, 4.902344
1292.729, 101.9355
1293.798, 74.05078
1294.868, 82.08398
1295.937, 102.4473
1297.006, 6.736328
1298.075, 64.26562
1299.143, 285.0293
1300.212, 56.38867
1301.280, 58.76953
1302.348, 167.7148
1303.416, 49.42773
1304.484, 41.06250
1305.552, 54.83594
1306.620, 16.55273
1307.687, 74.21875
1308.754, 116.4434
1309.821, 236.5918
1310.888, 78.96289
1311.955, 16.17578
1313.021, 165.6602
1314.088, 76.33398
1315.154, 14.80273
1316.220, 54.25195
1317.286, 259.5391
1318.352, 61.57617
1319.417, 114.6797
1320.483, 33.83594
1321.548, 96.11133
1322.613, 228.3887
1323.678, 73.69922
1324.743, 66.18164
1325.807, 40.72070
1326.872, 66.75977
1327.936, 9.167969
1329.000, 55.00000
1330.064, 75.57227
1331.128, 143.3906
1332.191, 320.2012
1333.255, 124.0059
1334.318, 13.90234
1335.381, 151.9004
1336.444, 159.7559
1337.507, 120.2734
1338.569, 203.3516
1339.632, 263.0879
1340.694, 191.7969
1341.756, 352.6621
1342.818, 144.7207
1343.880, 46.82031
1344.941, 100.5977
1346.003, 374.4746
1347.064, 325.1348
1348.125, 474.7598
1349.186, 377.7891
1350.247, 241.3887
1351.308, 179.0059
1352.368, 187.5605
1353.428, 275.8770
1354.489, 253.4082
1355.549, 193.8477
1356.608, 422.5586
1357.668, 318.0488
1358.727, 220.5195
1359.787, 333.9531
1360.846, 276.3555
1361.905, 244.0820
1362.964, 121.5742
1364.022, 133.9316
1365.081, 248.2051
1366.139, 111.4395
1367.197, 159.6562
1368.255, 131.7988
1369.313, 175.2480
1370.371, 336.4043
1371.428, 171.5391
1372.486, 155.6738
1373.543, 8.306641
1374.600, 317.6777
1375.657, 260.0020
