##NAMES=Beryl
##RRUFFID=R050368
##IDEAL CHEMISTRY=Be_3_Al_2_Si_6_O_18_
##LOCALITY=Wah Wah Mountains, Utah, USA
##OWNER=RRUFF
##SOURCE=Eugene Schlepp
##DESCRIPTION=Red-violet hexagonal prism
##STATUS=The identification of this mineral has been confirmed by X-ray diffraction and chemical analysis
##URL=rruff.info/R050368
##MEASURED CHEMISTRY=(Be_0.99_Li_0.01_)_3_(Al_0.95_Fe^3+^_0.05_)_2_Si_6.00_O_18_Î‡K_0.02_Na_0.01_
##PIN_ID=L01802
##ORIENTATION=Laser parallel to -c* (0 0 -1). Fiducial mark perpendicular to laser is parallel to b [0 1 0]
82.36700, 0.0000000E+00
83.60200, 294.3809
84.83700, 373.5332
86.07200, 247.2012
87.30800, 106.2100
88.54200, 355.9873
89.77700, 439.3320
91.01200, 826.2646
92.24600, 1058.637
93.48000, 754.1475
94.71400, 787.8936
95.94800, 768.6621
97.18200, 711.6875
98.41600, 599.4570
99.64900, 816.6191
100.8830, 623.7158
102.1160, 481.3145
103.3490, 319.7578
104.5820, 451.4678
105.8150, 817.6445
107.0470, 1367.438
108.2800, 2229.957
109.5120, 2470.289
110.7440, 1315.498
111.9760, 351.6299
113.2080, 272.7188
114.4400, 415.7930
115.6710, 697.8760
116.9030, 487.9834
118.1340, 384.2129
119.3650, 220.9443
120.5960, 144.2373
121.8270, 183.5039
123.0580, 145.6475
124.2880, 149.8330
125.5190, 246.8691
126.7490, 253.1689
127.9790, 313.8359
129.2090, 390.8408
130.4390, 594.1592
131.6680, 576.7646
132.8980, 751.6367
134.1270, 653.7588
135.3560, 832.1133
136.5850, 828.6846
137.8140, 1045.456
139.0430, 1223.405
140.2710, 1281.511
141.5000, 1252.765
142.7280, 1180.159
143.9560, 1128.688
145.1840, 815.3486
146.4120, 495.1348
147.6390, 437.0410
148.8670, 211.0596
150.0940, 110.1865
151.3210, 101.4531
152.5490, 10.22559
153.7750, 40.04395
155.0020, 43.30664
156.2290, 208.8174
157.4550, 199.1465
158.6810, 275.4756
159.9080, 196.8564
161.1340, 150.2734
162.3590, 59.28613
163.5850, 267.8311
164.8110, 295.3652
166.0360, 451.8945
167.2610, 491.4180
168.4860, 537.9395
169.7110, 711.4600
170.9360, 876.9795
172.1610, 803.5000
173.3850, 831.0234
174.6100, 915.5488
175.8340, 1076.064
177.0580, 1169.567
178.2820, 1519.061
179.5050, 1605.545
180.7290, 1851.022
181.9520, 2185.495
183.1760, 2193.965
184.3990, 2518.431
185.6220, 2569.896
186.8450, 2526.359
188.0670, 2633.822
189.2900, 2788.288
190.5120, 2808.756
191.7340, 3009.215
192.9560, 3000.598
194.1780, 3042.770
195.4000, 3017.751
196.6220, 3180.711
197.8430, 2923.684
199.0640, 2980.669
200.2860, 3120.666
201.5070, 3201.674
202.7270, 3122.692
203.9480, 2896.741
205.1690, 2366.857
206.3890, 2039.017
207.6090, 1878.185
208.8290, 1682.359
210.0490, 1580.401
211.2690, 1606.730
212.4890, 1511.926
213.7080, 1606.128
214.9280, 1659.338
216.1470, 1675.554
217.3660, 1747.775
218.5850, 1679.004
219.8030, 1593.528
221.0220, 1835.975
222.2400, 1765.806
223.4590, 1849.771
224.6770, 1931.357
225.8950, 1810.990
227.1120, 1942.376
228.3300, 1871.805
229.5480, 1839.497
230.7650, 1886.625
231.9820, 1756.644
233.1990, 1830.476
234.4160, 1878.660
235.6330, 1847.113
236.8490, 1717.786
238.0660, 1785.643
239.2820, 1688.651
240.4980, 1452.785
241.7140, 1340.022
242.9300, 1224.351
244.1460, 1160.757
245.3610, 1238.234
246.5770, 1293.777
247.7920, 1329.369
249.0070, 1323.973
250.2220, 1423.585
251.4370, 1336.208
252.6510, 1598.845
253.8660, 1580.497
255.0800, 1449.165
256.2940, 1499.848
257.5080, 1442.549
258.7220, 1758.267
259.9360, 1697.492
261.1490, 1809.754
262.3630, 1770.526
263.5760, 1713.325
264.7890, 1723.128
266.0020, 1952.784
267.2150, 2140.133
268.4270, 2429.287
269.6400, 2981.478
270.8520, 3041.700
272.0640, 2823.953
273.2760, 2567.235
274.4880, 2492.544
275.7000, 2507.879
276.9120, 2435.237
278.1230, 2480.619
279.3340, 2329.021
280.5450, 2531.444
281.7560, 2396.888
282.9670, 2486.348
284.1780, 2530.826
285.3880, 2322.320
286.5980, 2251.831
287.8090, 1934.356
289.0190, 1787.896
290.2290, 1762.450
291.4380, 1599.018
292.6480, 1695.598
293.8570, 1817.189
295.0670, 1762.794
296.2760, 1870.408
297.4850, 1959.034
298.6930, 2113.668
299.9020, 2290.061
301.1110, 2344.342
302.3190, 2627.248
303.5270, 2918.601
304.7350, 3040.921
305.9430, 3386.315
307.1510, 3896.979
308.3580, 4487.594
309.5660, 5350.205
310.7730, 6361.813
311.9800, 7586.420
313.1870, 8656.025
314.3940, 9830.628
315.6010, 10947.23
316.8070, 12425.82
318.0130, 14437.42
319.2200, 16015.01
320.4260, 15887.60
321.6310, 13735.19
322.8370, 11063.78
324.0430, 7721.393
325.2480, 5439.846
326.4540, 3793.566
327.6590, 2631.571
328.8640, 1852.148
330.0680, 1447.723
331.2730, 1246.294
332.4780, 1059.864
333.6820, 1027.433
334.8860, 884.9980
336.0900, 834.5605
337.2940, 814.1221
338.4980, 746.6816
339.7010, 712.2393
340.9050, 759.7979
342.1080, 654.3564
343.3110, 625.9150
344.5140, 446.4736
345.7170, 451.0322
346.9200, 532.5918
348.1220, 441.1494
349.3240, 290.7090
350.5270, 348.2666
351.7290, 226.8242
352.9310, 269.3799
354.1320, 188.9355
355.3340, 8.491211
356.5350, 44.02930
357.7370, 14.44238
358.9380, 88.93457
360.1390, 212.4697
361.3400, 170.0781
362.5400, 139.7490
363.7410, 93.47559
364.9410, 61.26074
366.1410, 228.1113
367.3410, 120.1582
368.5410, 167.3730
369.7410, 295.7256
370.9400, 140.2979
372.1400, 127.0791
373.3390, 89.01074
374.5380, 113.0059
375.7370, 2.083008
376.9360, 27.81543
378.1350, 475.6992
379.3330, 606.5889
380.5310, 831.4854
381.7300, 1294.384
382.9280, 2042.288
384.1260, 3166.195
385.3230, 4190.105
386.5210, 5489.018
387.7180, 6926.934
388.9160, 9055.852
390.1130, 11484.77
391.3100, 14270.69
392.5060, 17183.62
393.7030, 18552.54
394.9000, 18223.47
396.0960, 16119.40
397.2920, 13430.33
398.4880, 10688.27
399.6840, 8611.206
400.8800, 6886.148
402.0750, 5542.094
403.2710, 4766.041
404.4660, 4119.992
405.6610, 3831.654
406.8560, 3710.156
408.0510, 3719.284
409.2450, 3776.397
410.4400, 4063.461
411.6340, 4133.050
412.8280, 4542.188
414.0220, 4647.169
415.2160, 4949.155
416.4100, 5015.148
417.6030, 4814.145
418.7970, 4578.146
419.9900, 4429.154
421.1830, 4163.166
422.3760, 3600.186
423.5690, 3411.209
424.7610, 2954.236
425.9540, 2787.270
427.1460, 2447.309
428.3380, 2422.352
429.5300, 2430.399
430.7220, 2742.452
431.9140, 2997.510
433.1050, 3352.572
434.2970, 4011.641
435.4880, 4601.713
436.6790, 5147.791
437.8700, 6228.873
439.0610, 7101.961
440.2510, 7704.055
441.4420, 7633.150
442.6320, 7179.254
443.8220, 5833.379
445.0120, 4580.519
446.2020, 3576.729
447.3910, 2688.883
448.5810, 2028.307
449.7700, 1445.674
450.9600, 1063.074
452.1490, 884.5020
453.3370, 697.9668
454.5260, 580.4902
455.7150, 479.7881
456.9030, 360.6074
458.0910, 335.1787
459.2800, 371.7568
460.4670, 285.3398
461.6550, 276.9287
462.8430, 207.5254
464.0300, 127.1279
465.2180, 81.73828
466.4050, 29.64648
467.5920, 10.05566
468.7790, 15.48047
469.9650, 2.922852
471.1520, 53.59180
472.3380, 86.17578
473.5250, 188.4922
474.7110, 239.0840
475.8970, 325.8701
477.0820, 366.4482
478.2680, 389.0312
479.4540, 467.6201
480.6390, 446.2148
481.8240, 595.8164
483.0090, 677.4248
484.1940, 708.0381
485.3780, 796.6582
486.5630, 954.2861
487.7470, 821.9199
488.9320, 943.5586
490.1160, 806.2051
491.3000, 879.8574
492.4830, 662.5156
493.6670, 648.1807
494.8500, 590.8516
496.0340, 644.5293
497.2170, 596.2129
498.4000, 656.8066
499.5820, 773.0420
500.7650, 682.2852
501.9480, 758.1016
503.1300, 786.1582
504.3120, 816.8740
505.4940, 814.4922
506.6760, 797.0176
507.8580, 912.5342
509.0390, 878.6221
510.2210, 958.5010
511.4020, 878.4395
512.5830, 938.3506
513.7640, 1113.057
514.9450, 1049.641
516.1250, 1140.674
517.3060, 1154.274
518.4860, 1222.639
519.6660, 1401.683
520.8460, 1394.775
522.0260, 1444.928
523.2060, 1651.141
524.3850, 1674.419
525.5650, 1696.743
526.7440, 1683.107
527.9230, 1422.497
529.1020, 1299.950
530.2810, 1201.454
531.4590, 1054.020
532.6380, 987.6387
533.8160, 765.2861
534.9940, 737.9531
536.1720, 612.6641
537.3500, 460.4541
538.5270, 490.2783
539.7050, 348.1504
540.8820, 347.0586
542.0590, 241.0098
543.2360, 172.9805
544.4130, 138.9980
545.5900, 30.03613
546.7660, 47.90234
547.9430, 80.64844
549.1190, 125.9766
550.2950, 125.6250
551.4710, 124.5303
552.6470, 83.44336
553.8220, 14.35547
554.9980, 74.75879
556.1730, 186.8926
557.3480, 175.0410
558.5230, 398.2100
559.6980, 314.3955
560.8730, 528.5986
562.0470, 562.8193
563.2220, 463.0566
564.3960, 621.3086
565.5700, 574.5791
566.7440, 714.8643
567.9170, 765.1650
569.0910, 893.4814
570.2640, 1143.812
571.4380, 1327.154
572.6110, 1476.514
573.7840, 1818.885
574.9570, 2176.270
576.1290, 2424.670
577.3020, 2740.083
578.4740, 3013.512
579.6460, 3298.951
580.8180, 3645.404
581.9900, 4009.870
583.1620, 4341.350
584.3330, 4515.920
585.5040, 5009.980
586.6760, 5172.318
587.8470, 5569.250
589.0180, 6094.086
590.1880, 6426.996
591.3590, 6681.755
592.5290, 7096.754
593.7000, 7112.902
594.8700, 6978.649
596.0400, 6908.637
597.2090, 6906.578
598.3790, 6558.027
599.5490, 6109.652
600.7180, 5880.404
601.8870, 5686.045
603.0560, 5431.811
604.2250, 4938.883
605.3940, 4759.668
606.5620, 4357.335
607.7300, 4077.021
608.8990, 4152.830
610.0670, 4000.378
611.2350, 3896.688
612.4020, 3886.390
613.5700, 4085.099
614.7370, 4131.906
615.9050, 4164.627
617.0720, 4223.354
618.2390, 4304.086
619.4060, 4116.824
620.5720, 4095.566
621.7390, 3986.315
622.9050, 3522.070
624.0710, 3088.828
625.2370, 2412.592
626.4030, 1834.361
627.5690, 1807.135
628.7340, 1388.912
629.9000, 1195.693
631.0650, 1083.479
632.2300, 987.2705
633.3950, 978.0635
634.5600, 1006.860
635.7240, 1020.660
636.8890, 1054.465
638.0530, 1203.271
639.2170, 1275.099
640.3810, 1385.936
641.5450, 1327.799
642.7080, 1425.704
643.8720, 1425.684
645.0350, 1395.729
646.1980, 1485.830
647.3610, 1452.120
648.5240, 1464.300
649.6870, 1222.268
650.8490, 1248.433
652.0120, 1179.582
653.1740, 1168.464
654.3360, 1087.062
655.4980, 1185.527
656.6600, 1206.267
657.8210, 1430.025
658.9830, 1744.223
660.1440, 1856.675
661.3050, 2295.792
662.4660, 2701.188
663.6270, 3111.479
664.7870, 3776.127
665.9480, 4514.076
667.1080, 5048.773
668.2680, 6019.633
669.4280, 7389.680
670.5880, 9071.003
671.7480, 11396.15
672.9070, 14209.54
674.0670, 17820.66
675.2260, 22144.80
676.3850, 27321.13
677.5440, 33448.14
678.7030, 40131.83
679.8610, 46450.36
681.0200, 50549.88
682.1780, 50464.14
683.3360, 46080.57
684.4940, 38546.59
685.6520, 30937.47
686.8090, 24030.58
687.9670, 18815.44
689.1240, 14770.74
690.2810, 11971.79
691.4380, 9740.961
692.5950, 8115.403
693.7520, 6886.400
694.9080, 5966.387
696.0650, 5085.169
697.2210, 4305.104
698.3770, 3821.623
699.5330, 3283.550
700.6880, 2882.259
701.8440, 2450.932
702.9990, 2131.474
704.1550, 1881.102
705.3100, 1624.270
706.4650, 1382.025
707.6190, 1266.154
708.7740, 1105.315
709.9290, 951.1279
711.0830, 728.4697
712.2370, 695.5156
713.3910, 597.5420
714.5450, 496.5469
715.6980, 501.5303
716.8520, 384.4912
718.0050, 295.4307
719.1580, 358.3477
720.3110, 194.2422
721.4640, 183.1162
722.6170, 15.03418
723.7700, 16.77148
724.9220, 73.41406
726.0740, 40.28613
727.2260, 16.03906
728.3780, 55.58691
729.5300, 96.18652
730.6810, 48.23926
731.8330, 97.73145
732.9840, 170.3145
734.1350, 61.94824
735.2860, 73.26367
736.4370, 14.86914
737.5880, 172.4072
738.7380, 130.9062
739.8880, 219.0049
741.0390, 134.0791
742.1890, 65.12598
743.3380, 137.3496
744.4880, 176.3408
745.6380, 161.3066
746.7870, 187.9512
747.9360, 202.0186
749.0850, 165.1299
750.2340, 217.3115
751.3830, 187.1953
752.5310, 158.0527
753.6800, 259.8838
754.8280, 396.6875
755.9760, 548.4658
757.1240, 748.2168
758.2720, 922.9424
759.4190, 1380.642
760.5670, 1752.314
761.7140, 2102.962
762.8610, 2703.583
764.0080, 3388.178
765.1550, 3955.746
766.3020, 4805.289
767.4480, 5079.802
768.5950, 5262.291
769.7410, 4846.754
770.8870, 4351.188
772.0330, 3376.598
773.1780, 2805.978
774.3240, 2267.332
775.4690, 1628.658
776.6140, 1367.958
777.7590, 949.2305
778.9040, 667.4746
780.0490, 639.6914
781.1940, 466.8789
782.3380, 284.0400
783.4820, 350.1709
784.6260, 191.2725
785.7700, 278.3438
786.9140, 65.38379
788.0580, 53.38867
789.2010, 60.35449
790.3450, 27.28125
791.4880, 11.16504
792.6310, 2.006836
793.7730, 53.23633
794.9160, 52.55371
796.0590, 74.95996
797.2010, 126.4639
798.3430, 105.0957
799.4850, 109.4541
800.6270, 123.7070
801.7690, 65.69727
802.9100, 22.78320
804.0520, 14.05859
805.1930, 117.1533
806.3340, 72.48633
807.4750, 124.9199
808.6160, 74.47852
809.7560, 0.8632810
810.8970, 126.1445
812.0370, 43.61133
813.1770, 190.4512
814.3170, 10.44922
815.4570, 69.51465
816.5960, 19.62598
817.7360, 51.85645
818.8750, 71.82617
820.0140, 67.53125
821.1530, 123.0176
822.2920, 25.53027
823.4310, 158.9941
824.5690, 85.57324
825.7070, 8.764648
826.8460, 13.06445
827.9840, 50.33008
829.1220, 80.67090
830.2590, 5.220703
831.3970, 89.93164
832.5340, 134.0449
833.6710, 93.12305
834.8080, 187.1641
835.9450, 85.17090
837.0820, 132.1416
838.2190, 136.0752
839.3550, 161.9736
840.4910, 136.8369
841.6270, 258.6670
842.7630, 95.46484
843.8990, 300.2246
845.0350, 226.9541
846.1700, 363.6533
847.3060, 314.3203
848.4410, 297.9561
849.5760, 317.5605
850.7100, 338.1367
851.8450, 371.6807
852.9800, 336.1943
854.1140, 445.6777
855.2480, 288.1299
856.3820, 408.5527
857.5160, 316.9463
858.6500, 351.3086
859.7830, 374.5635
860.9170, 220.3125
862.0500, 258.7637
863.1830, 371.6045
864.3160, 256.5254
865.4480, 226.3525
866.5810, 231.3135
867.7130, 215.0176
868.8460, 269.5508
869.9780, 176.4707
871.1100, 230.1357
872.2410, 88.82715
873.3730, 95.99512
874.5050, 97.96875
875.6360, 203.7979
876.7670, 195.7295
877.8980, 217.5176
879.0290, 134.9941
880.1590, 210.7617
881.2900, 244.6475
882.4200, 369.4961
883.5500, 195.3760
884.6800, 245.2559
885.8100, 114.1104
886.9400, 230.9824
888.0690, 295.8311
889.1990, 272.5605
890.3280, 301.3604
891.4570, 335.1396
892.5860, 210.9189
893.7140, 484.7100
894.8430, 321.5166
895.9710, 511.3467
897.1000, 547.1602
898.2280, 777.9824
899.3560, 1131.794
900.4830, 1240.588
901.6110, 1075.362
902.7380, 925.1191
903.8660, 1004.869
904.9930, 1254.600
906.1200, 1331.311
907.2460, 1516.007
908.3730, 1603.684
909.5000, 1649.340
910.6260, 1971.979
911.7520, 1992.597
912.8780, 2213.196
914.0040, 2158.776
915.1290, 2220.336
916.2550, 2179.875
917.3800, 2043.394
918.5050, 1999.893
919.6300, 1978.373
920.7550, 1930.688
921.8800, 1627.127
923.0040, 1554.840
924.1290, 1377.388
925.2530, 1351.994
926.3770, 1084.943
927.5010, 1082.214
928.6250, 1195.649
929.7480, 938.8350
930.8720, 871.0303
931.9950, 805.7861
933.1180, 833.2812
934.2410, 748.0918
935.3640, 639.6064
936.4860, 424.2080
937.6090, 490.4346
938.7310, 412.3408
939.8530, 302.4834
940.9750, 328.4434
942.0970, 147.1992
943.2180, 251.6602
944.3400, 190.2842
945.4610, 113.6367
946.5820, 131.2520
947.7030, 137.8193
948.8240, 106.1738
949.9450, 49.83594
951.0650, 3.799805
952.1860, 156.9062
953.3060, 175.0049
954.4260, 82.34863
955.5460, 212.4951
956.6650, 86.04492
957.7850, 167.6895
958.9040, 236.3857
960.0230, 197.4785
961.1420, 373.5010
962.2610, 312.7617
963.3800, 452.9336
964.4990, 227.2949
965.6170, 344.5430
966.7350, 448.9443
967.8530, 659.5303
968.9710, 498.9443
970.0890, 730.7539
971.2070, 950.1367
972.3240, 798.7158
973.4410, 678.3135
974.5580, 805.0225
975.6750, 751.6270
976.7920, 947.6699
977.9090, 949.1055
979.0250, 1026.148
980.1410, 1025.140
981.2580, 1115.184
982.3740, 1185.228
983.4890, 1305.273
984.6050, 1351.318
985.7200, 1491.364
986.8360, 1582.412
987.9510, 1687.461
989.0660, 1847.511
990.1810, 1992.022
991.2950, 2160.055
992.4100, 2348.668
993.5240, 2599.724
994.6390, 2800.791
995.7530, 3040.068
996.8660, 3390.930
997.9800, 3551.037
999.0940, 3768.155
1000.207, 4087.279
1001.320, 4200.406
1002.433, 4198.557
1003.546, 4387.039
1004.659, 4280.746
1005.772, 4011.470
1006.884, 3963.803
1007.996, 3811.093
1009.108, 3606.610
1010.220, 3465.659
1011.332, 3347.593
1012.444, 3168.712
1013.555, 2924.062
1014.666, 2891.265
1015.777, 2675.603
1016.888, 2583.325
1017.999, 2378.163
1019.110, 2265.211
1020.220, 2181.408
1021.331, 2171.728
1022.441, 2141.048
1023.551, 1974.372
1024.661, 2007.258
1025.770, 1799.966
1026.880, 1828.382
1027.989, 1791.489
1029.098, 1772.622
1030.207, 1774.312
1031.316, 1715.401
1032.425, 1599.619
1033.533, 1619.035
1034.642, 1557.385
1035.750, 1526.732
1036.858, 1641.777
1037.966, 1471.339
1039.073, 1437.343
1040.181, 1555.337
1041.288, 1413.992
1042.396, 1339.796
1043.503, 1387.998
1044.610, 1209.599
1045.716, 1252.770
1046.823, 1199.255
1047.929, 1237.432
1049.036, 1466.257
1050.142, 1410.772
1051.248, 1572.299
1052.353, 1712.832
1053.459, 1837.373
1054.564, 1963.936
1055.670, 2283.484
1056.775, 2486.094
1057.880, 3007.693
1058.985, 3387.305
1060.089, 3848.932
1061.194, 4180.574
1062.298, 4706.242
1063.402, 5030.943
1064.506, 5295.679
1065.610, 5678.457
1066.713, 5698.293
1067.817, 5367.176
1068.920, 4888.109
1070.023, 4758.091
1071.126, 4277.112
1072.229, 3880.156
1073.332, 3461.215
1074.435, 3157.530
1075.537, 2903.463
1076.639, 2688.656
1077.741, 2450.887
1078.843, 2380.133
1079.945, 2362.385
1081.046, 2211.662
1082.148, 2026.003
1083.249, 1816.362
1084.350, 1576.704
1085.451, 1531.113
1086.551, 1560.551
1087.652, 1442.990
1088.752, 1327.463
1089.853, 1101.935
1090.953, 1063.414
1092.053, 1237.897
1093.152, 1053.664
1094.252, 1151.938
1095.351, 940.4688
1096.451, 833.0000
1097.550, 793.5332
1098.649, 671.0762
1099.748, 578.6221
1100.846, 477.1670
1101.945, 509.7139
1103.043, 417.2578
1104.141, 521.8027
1105.239, 491.3467
1106.337, 284.8877
1107.434, 389.4277
1108.532, 303.9668
1109.629, 395.5000
1110.726, 456.0312
1111.823, 318.5625
1112.920, 305.0918
1114.017, 250.6172
1115.113, 244.0986
1116.210, 281.9404
1117.306, 281.1592
1118.402, 390.6641
1119.498, 408.1631
1120.593, 462.6602
1121.689, 383.1533
1122.784, 400.8105
1123.879, 528.1201
1124.974, 371.5908
1126.069, 415.0527
1127.164, 447.5068
1128.259, 349.9570
1129.353, 307.3994
1130.447, 242.8389
1131.541, 231.2686
1132.635, 251.6875
1133.729, 246.1260
1134.822, 107.5576
1135.916, 50.98535
1137.009, 75.40625
1138.102, 71.83203
1139.195, 94.24805
1140.288, 46.64746
1141.380, 24.96973
1142.473, 43.40234
1143.565, 25.24219
1144.657, 94.91211
1145.749, 87.64258
1146.841, 89.43457
1147.932, 77.28516
1149.024, 97.17676
1150.115, 166.1328
1151.206, 180.8105
1152.297, 603.7373
1153.388, 903.1230
1154.479, 599.5293
1155.569, 94.20117
1156.659, 90.18262
1157.750, 134.8369
1158.839, 145.0820
1159.929, 176.6426
1161.019, 4.786133
1162.108, 118.7910
1163.198, 27.82617
1164.287, 5.035156
1165.376, 16.88867
1166.465, 20.57422
1167.553, 52.79395
1168.642, 216.4004
1169.730, 120.4102
1170.818, 6.343750
1171.906, 222.0684
1172.994, 191.0459
1174.082, 100.7773
1175.170, 248.7949
1176.257, 116.6914
1177.344, 328.3447
1178.431, 367.2197
1179.518, 357.3271
1180.605, 487.1230
1181.691, 492.6416
1182.778, 598.6553
1183.864, 658.7539
1184.950, 629.3896
1186.036, 701.0723
1187.122, 643.8447
1188.207, 715.6426
1189.292, 863.8027
1190.378, 864.5107
1191.463, 843.0439
1192.548, 949.3877
1193.632, 939.3740
1194.717, 890.7295
1195.801, 999.9062
1196.886, 980.8066
1197.970, 1002.737
1199.054, 1012.849
1200.137, 981.2598
1201.221, 1039.339
1202.305, 1134.018
1203.388, 1305.812
1204.471, 1292.463
1205.554, 1305.215
1206.637, 1229.036
1207.719, 1465.711
1208.802, 1527.148
1209.884, 1656.562
1210.966, 1766.584
1212.048, 2076.352
1213.130, 2128.594
1214.212, 2362.215
1215.293, 2845.272
1216.374, 3114.957
1217.456, 3441.422
1218.536, 3942.783
1219.617, 4375.010
1220.698, 4750.662
1221.778, 4917.815
1222.859, 5432.342
1223.939, 5650.328
1225.019, 5690.445
1226.099, 5579.373
1227.178, 5356.682
1228.258, 5246.746
1229.337, 5132.281
1230.417, 4992.641
1231.496, 4750.871
1232.574, 4864.858
1233.653, 4952.871
1234.732, 5177.088
1235.810, 5375.594
1236.888, 5740.814
1237.966, 5992.695
1239.044, 6343.855
1240.122, 6569.877
1241.199, 6602.313
1242.277, 6433.648
1243.354, 6053.402
1244.431, 5447.955
1245.508, 4715.900
1246.585, 4151.467
1247.661, 3556.591
1248.738, 3061.957
1249.814, 2646.944
1250.890, 2316.641
1251.966, 1935.112
1253.042, 1607.172
1254.117, 1521.060
1255.193, 1377.365
1256.268, 1322.203
1257.343, 1149.146
1258.418, 1081.937
1259.493, 1149.834
1260.567, 1109.645
1261.642, 962.8984
1262.716, 831.3643
1263.790, 741.4180
