##NAMES=Bikitaite
##RRUFFID=R050160
##IDEAL CHEMISTRY=LiAlSi_2_O_6_&#183;H_2_O
##LOCALITY=Foote mine, Kings Mountain, Cleveland County, North Carolina, USA
##OWNER=RRUFF
##SOURCE=Jim McGlasson
##DESCRIPTION=Colorless prismatic crystals
##STATUS=The identification of this mineral has been confirmed by X-ray diffraction and chemical analysis
##URL=rruff.info/R050160
##MEASURED CHEMISTRY=Li_1.00_Si_2.00_O_6_Â·1.25H_2_O ; Li not measured but estimated by stoichiometry
##PIN_ID=M00247
##ORIENTATION=Laser parallel to -b* (0 -1 0). Fiducial mark perpendicular to laser is parallel to c [0 0 1]
61.962, 0.000
63.360, 99.872
64.758, 179.448
66.157, 249.388
67.554, 401.934
68.952, 495.336
70.349, 326.568
71.747, 79.486
73.144, 12.108
74.540, 16.306
75.937, 104.929
77.333, 30.452
78.729, 341.989
80.125, 1424.713
81.521, 2984.896
82.916, 5126.788
84.311, 6939.702
85.706, 7910.992
87.101, 7509.074
88.496, 6239.483
89.890, 5322.070
91.284, 4847.624
92.678, 5029.697
94.071, 5391.020
95.465, 6127.396
96.858, 6905.505
98.251, 7916.115
99.644, 9276.965
101.036, 10476.803
102.428, 11913.441
103.820, 13309.681
105.212, 14987.301
106.604, 16700.107
107.995, 18468.859
109.387, 20537.424
110.777, 22310.682
112.168, 24794.555
113.559, 26024.982
114.949, 26657.391
116.339, 26269.707
117.729, 24973.846
119.119, 23134.287
120.508, 20760.598
121.897, 18837.770
123.286, 17543.799
124.675, 15761.000
126.063, 14395.484
127.452, 13235.450
128.840, 11991.036
130.228, 11011.249
131.615, 10030.732
133.003, 9657.483
134.390, 8855.809
135.777, 8518.726
137.164, 8017.239
138.550, 8148.354
139.937, 7679.074
141.323, 7647.404
142.709, 7394.345
144.094, 7308.898
145.480, 7087.913
146.865, 7016.911
148.250, 6908.871
149.635, 7103.769
151.019, 7402.586
152.403, 7797.284
153.788, 8371.094
155.171, 9129.140
156.555, 9806.476
157.939, 10250.115
159.322, 10536.101
160.705, 10704.472
162.088, 10491.230
163.470, 10294.411
164.853, 9982.599
166.235, 9880.070
167.617, 9587.703
168.998, 9491.525
170.380, 8899.947
171.761, 8320.402
173.142, 7553.723
174.523, 7015.487
175.904, 6182.074
177.284, 5194.177
178.664, 4526.793
180.044, 3713.919
181.424, 3384.549
182.803, 2757.687
184.183, 2289.329
185.562, 1944.194
186.940, 1803.350
188.319, 1553.647
189.698, 1435.490
191.076, 1285.584
192.454, 1321.581
193.831, 1362.096
195.209, 1470.134
196.586, 1756.687
197.963, 2047.754
199.340, 2539.503
200.717, 3031.044
202.093, 3677.238
203.470, 4011.705
204.846, 4304.666
206.221, 4157.117
207.597, 3817.051
208.972, 3443.463
210.347, 2590.340
211.722, 2243.681
213.097, 2040.484
214.472, 1908.741
215.846, 2119.447
217.220, 2238.595
218.594, 2446.183
219.967, 2664.208
221.341, 2597.667
222.714, 2468.555
224.087, 2255.866
225.460, 2032.600
226.832, 1604.751
228.204, 1377.738
229.577, 1103.474
230.948, 854.831
232.320, 625.870
233.692, 532.174
235.063, 579.730
236.434, 445.627
237.805, 545.353
239.175, 655.875
240.545, 740.121
241.916, 976.908
243.286, 1142.916
244.655, 1393.437
246.025, 1575.820
247.394, 1781.027
248.763, 2144.018
250.132, 2261.763
251.501, 2544.203
252.869, 2487.324
254.237, 2478.085
255.605, 2303.493
256.973, 1935.486
258.340, 1595.056
259.708, 1097.168
261.075, 726.833
262.442, 495.006
263.808, 310.669
265.175, 87.845
266.541, 31.517
267.907, 113.438
269.273, 312.387
270.639, 159.159
272.004, 21.251
273.369, 20.386
274.734, 29.235
276.099, 164.875
277.463, 267.751
278.828, 67.408
280.192, 169.818
281.556, 101.002
282.919, 89.042
284.283, 237.359
285.646, 176.415
287.009, 125.241
288.372, 385.213
289.734, 983.491
291.097, 1175.064
292.459, 1353.927
293.821, 1608.078
295.183, 1501.515
296.544, 1562.232
297.905, 1502.265
299.266, 1553.573
300.627, 1382.163
301.988, 1032.072
303.348, 670.268
304.709, 48.780
306.069, 149.375
307.428, 225.848
308.788, 267.267
310.147, 272.413
311.507, 177.600
312.865, 100.548
314.224, 197.203
315.583, 218.573
316.941, 168.693
318.299, 20.520
319.657, 50.968
321.015, 623.793
322.372, 954.934
323.729, 1426.449
325.086, 1869.274
326.443, 2213.431
327.800, 1847.888
329.156, 1726.654
330.512, 901.566
331.868, 438.648
333.224, 86.933
334.579, 188.652
335.935, 34.414
337.290, 201.427
338.645, 188.691
339.999, 21.294
341.354, 146.546
342.708, 469.119
344.062, 737.985
345.416, 1024.113
346.769, 1104.544
348.123, 1026.267
349.476, 1078.094
350.829, 1029.958
352.182, 976.981
353.534, 950.092
354.887, 731.382
356.239, 747.900
357.591, 767.647
358.942, 843.621
360.294, 1085.813
361.645, 1326.222
362.996, 1498.771
364.347, 2169.415
365.698, 2540.189
367.048, 3262.174
368.398, 4055.367
369.748, 4941.769
371.098, 6148.373
372.448, 7474.181
373.797, 9123.190
375.146, 10608.394
376.495, 13162.804
377.844, 15807.400
379.192, 18150.189
380.540, 21339.174
381.889, 23097.336
383.236, 25303.691
384.584, 26904.234
385.932, 27228.953
387.279, 27071.861
388.626, 26639.957
389.973, 26741.215
391.319, 25942.727
392.666, 26837.492
394.012, 26966.514
395.358, 27882.805
396.704, 28311.359
398.049, 27843.498
399.394, 26600.523
400.740, 23755.898
402.084, 21178.828
403.429, 18343.844
404.774, 16054.936
406.118, 14736.488
407.462, 13143.509
408.806, 12165.896
410.150, 11820.739
411.493, 11671.497
412.836, 11659.578
414.179, 11992.884
415.522, 12095.921
416.865, 13097.167
418.207, 13340.416
419.549, 13345.923
420.891, 13543.559
422.233, 13307.501
423.575, 12609.493
424.916, 11148.674
426.257, 10270.393
427.598, 9191.923
428.939, 7804.631
430.279, 6939.411
431.619, 5701.507
432.959, 4788.580
434.299, 4472.742
435.639, 4223.771
436.978, 3550.213
438.318, 3629.471
439.657, 3241.692
440.996, 3188.271
442.334, 2805.079
443.673, 2391.134
445.011, 2125.020
446.349, 1921.956
447.687, 1713.017
449.024, 1757.098
450.361, 1798.326
451.699, 1747.701
453.036, 1999.218
454.372, 2191.880
455.709, 2509.024
457.045, 2378.966
458.381, 2413.185
459.717, 2176.731
461.053, 2085.760
462.388, 1846.029
463.724, 1786.614
465.059, 2106.640
466.394, 2130.217
467.728, 2488.261
469.063, 3173.182
470.397, 3734.145
471.731, 4677.795
473.065, 6061.650
474.398, 7007.938
475.732, 9018.591
477.065, 10060.749
478.398, 11537.741
479.731, 12896.705
481.063, 14000.990
482.396, 14791.446
483.728, 16236.802
485.060, 18148.709
486.391, 20356.213
487.723, 23758.486
489.054, 27487.674
490.385, 31553.604
491.716, 35404.148
493.047, 37943.469
494.377, 39630.945
495.708, 40482.559
497.038, 39190.316
498.368, 36659.742
499.697, 33523.141
501.027, 30921.098
502.356, 28061.904
503.685, 25104.490
505.014, 22918.354
506.342, 20290.299
507.671, 18770.525
508.999, 16667.840
510.327, 15098.251
511.655, 13392.627
512.982, 11757.869
514.310, 10717.826
515.637, 9251.507
516.964, 8228.636
518.291, 7175.829
519.617, 6479.141
520.944, 5874.503
522.270, 4763.917
523.596, 4512.381
524.921, 3948.891
526.247, 3674.449
527.572, 3266.081
528.897, 2961.758
530.222, 2997.476
531.547, 2821.237
532.871, 2788.035
534.196, 2486.875
535.520, 2404.755
536.844, 2696.686
538.167, 2687.650
539.491, 2524.668
540.814, 2536.719
542.137, 2386.808
543.460, 2217.925
544.783, 2022.072
546.105, 1456.247
547.427, 1343.451
548.749, 926.679
550.071, 542.931
551.393, 614.213
552.714, 286.529
554.035, 276.864
555.356, 85.214
556.677, 22.401
557.998, 79.029
559.318, 24.300
560.638, 10.636
561.958, 35.026
563.278, 74.032
564.597, 19.455
565.917, 2.776
567.236, 55.153
568.555, 82.909
569.874, 49.029
571.192, 7.852
572.511, 51.869
573.829, 3.065
575.147, 74.188
576.464, 131.867
577.782, 18.275
579.099, 43.563
580.416, 58.612
581.733, 60.164
583.050, 111.924
584.366, 78.319
585.683, 235.350
586.999, 185.000
588.315, 114.649
589.630, 210.301
590.946, 261.014
592.261, 379.768
593.576, 330.534
594.891, 93.310
596.206, 419.109
597.520, 396.936
598.834, 379.802
600.148, 307.679
601.462, 357.578
602.776, 379.487
604.089, 416.407
605.402, 430.362
606.715, 345.326
608.028, 450.254
609.341, 274.157
610.653, 240.020
611.965, 236.852
613.277, 68.649
614.589, 124.399
615.901, 55.896
617.212, 89.678
618.523, 13.208
619.834, 30.267
621.145, 9.025
622.456, 57.455
623.766, 106.541
625.076, 16.901
626.386, 53.117
627.696, 43.416
629.006, 163.988
630.315, 21.299
631.624, 84.851
632.933, 140.069
634.242, 22.438
635.551, 143.243
636.859, 70.200
638.167, 117.359
639.475, 5.268
640.783, 256.248
642.090, 5.944
643.398, 89.012
644.705, 31.734
646.012, 59.441
647.318, 51.906
648.625, 22.566
649.931, 34.406
651.237, 41.567
652.543, 22.582
653.849, 98.977
655.155, 52.979
656.460, 12.589
657.765, 39.560
659.070, 68.592
660.375, 15.496
661.679, 82.682
662.984, 4.911
664.288, 23.438
665.592, 117.199
666.895, 193.033
668.199, 22.438
669.502, 173.682
670.805, 61.891
672.108, 376.873
673.411, 351.771
674.713, 356.634
676.016, 532.357
677.318, 535.000
678.620, 701.565
679.921, 614.052
681.223, 749.581
682.524, 722.502
683.825, 717.275
685.126, 1086.480
686.427, 1111.563
687.727, 1063.563
689.028, 1179.482
690.328, 1131.318
691.628, 1320.811
692.927, 1362.810
694.227, 1436.395
695.526, 1221.686
696.825, 1823.764
698.124, 1750.117
699.423, 1721.493
700.721, 1787.814
702.020, 1692.154
703.318, 1723.679
704.616, 1667.634
705.913, 1411.443
707.211, 1390.153
708.508, 1534.429
709.805, 1453.268
711.102, 1145.725
712.399, 1327.720
713.695, 961.702
714.992, 1077.031
716.288, 923.370
717.584, 982.271
718.879, 841.121
720.175, 673.376
721.470, 998.944
722.765, 786.429
724.060, 693.438
725.355, 782.269
726.649, 726.822
727.944, 662.684
729.238, 809.639
730.532, 629.428
731.825, 976.040
733.119, 1048.017
734.412, 959.136
735.705, 974.017
736.998, 1224.634
738.291, 1210.284
739.584, 1318.215
740.876, 1347.335
742.168, 1468.721
743.460, 1361.023
744.752, 1666.235
746.043, 1964.362
747.334, 2276.645
748.626, 2563.599
749.916, 2781.466
751.207, 3396.978
752.498, 4013.427
753.788, 4929.027
755.078, 5521.242
756.368, 6658.661
757.658, 7446.992
758.947, 8388.233
760.237, 9605.384
761.526, 10048.441
762.815, 10718.418
764.104, 10728.720
765.392, 10724.517
766.680, 10485.045
767.969, 9537.024
769.257, 9157.198
770.544, 8072.634
771.832, 7432.837
773.119, 6351.613
774.406, 5629.099
775.693, 5211.254
776.980, 4356.271
778.267, 4106.888
779.553, 3640.999
780.839, 3310.205
782.125, 2935.011
783.411, 3011.479
784.697, 2351.337
785.982, 2209.780
787.267, 2100.585
788.552, 1912.915
789.837, 1566.170
791.122, 1615.861
792.406, 1341.615
793.690, 1308.401
794.974, 1220.039
796.258, 1121.812
797.542, 1139.045
798.825, 927.713
800.108, 902.642
801.391, 725.683
802.674, 790.992
803.957, 600.706
805.239, 512.676
806.522, 711.509
807.804, 413.737
809.085, 635.164
810.367, 519.708
811.649, 422.056
812.930, 398.654
814.211, 360.276
815.492, 248.122
816.772, 358.710
818.053, 338.229
819.333, 603.479
820.613, 143.657
821.893, 305.752
823.173, 204.887
824.452, 169.176
825.732, 320.755
827.011, 278.618
828.290, 162.048
829.568, 210.420
830.847, 173.682
832.125, 186.897
833.403, 256.069
834.681, 133.196
835.959, 64.281
837.236, 29.431
838.514, 145.450
839.791, 274.990
841.068, 151.020
842.345, 172.838
843.621, 224.617
844.898, 30.358
846.174, 25.950
847.450, 173.675
848.726, 32.741
850.001, 24.772
851.277, 2.241
852.552, 92.665
853.827, 82.051
855.102, 59.398
856.376, 23.710
857.651, 97.982
858.925, 114.221
860.199, 16.574
861.473, 25.420
862.746, 36.678
864.020, 110.739
865.293, 1.907
866.566, 80.737
867.839, 62.686
869.112, 21.634
870.384, 27.549
871.656, 57.438
872.928, 2.315
874.200, 110.194
875.472, 13.942
876.744, 134.911
878.015, 18.772
879.286, 14.349
880.557, 124.446
881.828, 77.277
883.098, 41.993
884.369, 25.026
885.639, 80.837
886.909, 29.420
888.178, 17.290
889.448, 38.321
890.717, 134.998
891.987, 24.451
893.256, 23.243
894.524, 142.861
895.793, 24.540
897.061, 86.022
898.330, 57.567
899.598, 25.518
900.865, 186.535
902.133, 30.006
903.401, 35.941
904.668, 7.124
905.935, 64.270
907.202, 6.353
908.468, 60.003
909.735, 135.360
911.001, 81.702
912.267, 40.033
913.533, 25.350
914.799, 53.660
916.064, 33.246
917.330, 202.248
918.595, 24.484
919.860, 17.243
921.124, 151.977
922.389, 52.193
923.653, 91.400
924.918, 23.189
926.182, 13.872
927.445, 3.939
928.709, 53.390
929.972, 127.548
931.236, 153.259
932.499, 55.551
933.761, 183.046
935.024, 9.411
936.286, 14.832
937.549, 215.824
938.811, 12.518
940.073, 158.285
941.334, 8.862
942.596, 75.042
943.857, 166.043
945.118, 220.114
946.379, 149.272
947.640, 166.491
948.900, 413.834
950.161, 411.256
951.421, 460.759
952.681, 693.324
953.940, 807.964
955.200, 1097.679
956.459, 1417.486
957.719, 2028.362
958.978, 2524.326
960.236, 3067.362
961.495, 3146.494
962.753, 3351.668
964.012, 3064.914
965.270, 3281.216
966.527, 3906.607
967.785, 4669.057
969.043, 5768.570
970.300, 6345.163
971.557, 6107.829
972.814, 5571.201
974.071, 4348.925
975.327, 3674.700
976.583, 2693.443
977.840, 2270.309
979.095, 1670.207
980.351, 1272.088
981.607, 1069.054
982.862, 1062.034
984.117, 762.024
985.372, 1138.025
986.627, 760.933
987.882, 1258.382
989.136, 1430.912
990.390, 1860.949
991.644, 2609.058
992.898, 3093.203
994.152, 3034.367
995.405, 2520.543
996.659, 2044.999
997.912, 1693.876
999.165, 1235.156
1000.417, 1043.657
1001.670, 508.301
1002.922, 761.619
1004.174, 377.863
1005.426, 428.111
1006.678, 320.292
1007.930, 236.220
1009.181, 340.667
1010.432, 251.191
1011.683, 437.772
1012.934, 349.718
1014.185, 500.029
1015.435, 671.671
1016.685, 579.703
1017.935, 437.345
1019.185, 524.949
1020.435, 525.389
1021.684, 133.909
1022.934, 297.584
1024.183, 269.004
1025.432, 101.810
1026.680, 177.386
1027.929, 66.230
1029.177, 94.930
1030.425, 27.315
1031.673, 262.029
1032.921, 39.130
1034.169, 42.555
1035.416, 3.607
1036.663, 123.520
1037.911, 48.157
1039.157, 44.341
1040.404, 44.442
1041.650, 48.002
1042.897, 196.638
1044.143, 28.656
1045.389, 24.711
1046.634, 269.785
1047.880, 128.896
1049.125, 61.024
1050.371, 20.072
1051.615, 329.087
1052.860, 96.261
1054.105, 264.718
1055.349, 234.165
1056.593, 208.392
1057.837, 212.934
1059.081, 415.104
1060.325, 335.381
1061.568, 468.677
1062.812, 543.988
1064.055, 538.503
1065.298, 527.853
1066.540, 660.790
1067.783, 754.172
1069.025, 701.738
1070.267, 1153.776
1071.509, 914.364
1072.751, 1086.805
1073.993, 1510.261
1075.234, 1699.044
1076.475, 1840.938
1077.716, 2240.519
1078.957, 2493.953
1080.198, 2785.316
1081.438, 3465.953
1082.679, 3727.414
1083.919, 4285.568
1085.159, 4641.304
1086.398, 5244.709
1087.638, 5564.790
1088.877, 6345.839
1090.116, 6981.617
1091.355, 7789.580
1092.594, 8362.926
1093.833, 8807.587
1095.071, 8467.716
1096.309, 8163.521
1097.547, 7930.263
1098.785, 7099.430
1100.023, 6668.757
1101.260, 6114.985
1102.498, 5863.998
1103.735, 5018.172
1104.972, 4892.716
1106.208, 4574.445
1107.445, 4468.637
1108.681, 3746.860
1109.918, 3572.691
1111.154, 3004.645
1112.389, 2760.738
1113.625, 2388.408
1114.860, 1929.356
1116.096, 1886.753
1117.331, 1676.321
1118.566, 1392.943
1119.800, 1434.249
1121.035, 1367.989
1122.269, 1122.509
1123.503, 1272.746
1124.737, 1145.742
1125.971, 1182.805
1127.205, 1394.859
1128.438, 1339.595
1129.671, 1503.702
1130.904, 1584.062
1132.137, 1876.416
1133.370, 1807.521
1134.602, 1933.891
1135.834, 1782.264
1137.066, 1749.634
1138.298, 1706.680
1139.530, 1217.003
1140.762, 1373.739
1141.993, 997.584
1143.224, 831.944
1144.455, 695.680
1145.686, 702.531
1146.917, 724.476
1148.147, 798.518
1149.377, 635.846
1150.607, 650.357
1151.837, 614.884
1153.067, 596.423
1154.296, 637.039
1155.526, 731.041
1156.755, 628.612
1157.984, 1016.261
1159.213, 837.368
1160.441, 864.943
1161.670, 1052.255
1162.898, 1179.879
1164.126, 1386.568
1165.354, 1398.292
1166.581, 1363.548
1167.809, 1523.696
1169.036, 1263.502
1170.263, 1469.505
1171.490, 1383.752
1172.717, 1229.477
1173.943, 938.138
1175.170, 911.315
1176.396, 866.390
1177.622, 925.400
1178.848, 653.616
1180.073, 445.310
1181.299, 571.493
1182.524, 529.112
1183.749, 471.398
1184.974, 437.824
1186.199, 369.469
1187.423, 302.182
1188.648, 284.967
1189.872, 439.762
1191.096, 218.398
1192.320, 315.451
1193.543, 308.210
1194.767, 300.821
1195.990, 233.405
1197.213, 196.894
1198.436, 146.432
1199.659, 195.867
1200.881, 138.312
1202.104, 315.637
1203.326, 164.132
1204.548, 258.448
1205.770, 37.502
1206.991, 237.608
1208.213, 238.231
1209.434, 275.072
1210.655, 62.989
1211.876, 29.286
1213.096, 114.973
1214.317, 113.280
1215.537, 121.053
1216.757, 118.734
1217.977, 81.900
1219.197, 152.535
1220.417, 142.264
1221.636, 8.933
1222.855, 12.368
1224.074, 5.261
1225.293, 3.399
1226.512, 17.349
1227.731, 117.054
1228.949, 3.036
1230.167, 4.144
1231.385, 159.404
1232.603, 291.962
1233.820, 37.172
1235.038, 50.345
1236.255, 119.489
1237.472, 124.593
1238.689, 13.122
1239.906, 160.902
1241.122, 53.905
1242.338, 133.934
1243.555, 153.879
1244.771, 1.471
1245.986, 21.666
1247.202, 48.493
1248.417, 103.290
1249.633, 68.055
1250.848, 20.580
1252.063, 201.433
1253.277, 32.946
1254.492, 68.706
1255.706, 0.735
1256.920, 2.250
1258.134, 107.157
1259.348, 4.500
1260.562, 145.842
1261.775, 40.120
1262.988, 30.703
1264.201, 14.456
1265.414, 66.536
1266.627, 235.747
1267.839, 31.049
1269.052, 86.914
1270.264, 14.862
1271.476, 129.374
1272.688, 28.685
1273.899, 12.984
1275.111, 31.266
1276.322, 59.398
1277.533, 60.756
1278.744, 120.047
1279.955, 5.223
1281.165, 56.471
1282.376, 57.606
1283.586, 13.303
1284.796, 31.445
1286.006, 24.775
1287.215, 4.502
1288.425, 62.267
1289.634, 9.019
1290.843, 179.608
1292.052, 137.829
1293.261, 134.665
1294.469, 69.098
1295.678, 5.154
1296.886, 27.374
1298.094, 32.551
1299.302, 19.320
1300.509, 1.382
1301.717, 15.750
1302.924, 27.460
1304.131, 42.389
1305.338, 35.298
1306.545, 67.131
1307.752, 4.963
1308.958, 19.636
1310.164, 192.305
1311.370, 2.069
1312.576, 83.504
1313.782, 163.031
1314.987, 111.510
1316.193, 11.308
1317.398, 171.302
1318.603, 17.615
1319.807, 70.876
1321.012, 81.090
1322.216, 88.251
1323.421, 67.365
1324.625, 11.433
1325.829, 145.450
1327.032, 53.427
1328.236, 316.368
1329.439, 3.733
1330.642, 9.231
1331.845, 29.897
1333.048, 30.359
1334.251, 109.339
1335.453, 15.011
1336.656, 66.587
1337.858, 106.142
1339.060, 0.047
1340.261, 139.113
1341.463, 16.529
1342.664, 152.902
1343.866, 160.239
1345.067, 152.543
1346.267, 178.808
1347.468, 133.036
1348.669, 170.231
1349.869, 228.386
1351.069, 199.598
1352.269, 83.689
1353.469, 354.745
1354.668, 227.771
1355.868, 317.578
1357.067, 139.540
1358.266, 109.613
1359.465, 230.519
1360.664, 328.891
1361.862, 130.780
1363.061, 322.063
1364.259, 224.887
1365.457, 200.691
1366.655, 288.344
1367.852, 115.197
1369.050, 366.134
1370.247, 386.969
1371.444, 266.878
1372.641, 142.438
1373.838, 264.076
1375.035, 253.013
1376.231, 170.501
1377.427, 294.623
1378.623, 262.319
1379.819, 246.775
1381.015, 278.490
1382.211, 196.918
1383.406, 309.478
1384.601, 308.356
1385.796, 238.449
1386.991, 278.477
1388.185, 421.769
1389.380, 256.347
1390.574, 404.687
1391.768, 385.906
1392.962, 403.061
1394.156, 250.355
1395.350, 257.958
1396.543, 329.923
1397.736, 226.538
1398.929, 234.618
1400.122, 292.661
1401.315, 398.126
1402.507, 382.693
1403.700, 402.766
1404.892, 299.038
1406.084, 380.566
1407.276, 230.584
1408.467, 315.771
1409.659, 148.702
1410.850, 119.619
1412.041, 453.588
1413.232, 313.780
1414.423, 299.417
1415.614, 219.938
1416.804, 251.094
1417.994, 311.234
1419.184, 698.878
1420.374, 330.703
1421.564, 394.111
1422.753, 292.888
1423.943, 352.648
1425.132, 315.308
1426.321, 379.417
1427.510, 202.628
1428.698, 297.081
1429.887, 296.912
1431.075, 308.986
1432.263, 288.707
1433.451, 315.421
1434.639, 344.280
1435.827, 450.588
1437.014, 329.770
1438.201, 483.421
1439.388, 479.163
1440.575, 357.231
1441.762, 406.624
1442.949, 500.570
1444.135, 533.659
1445.321, 536.292
1446.507, 562.624
1447.693, 403.188
1448.879, 619.785
1450.064, 578.484
1451.250, 558.323
1452.435, 373.683
1453.620, 661.947
1454.805, 592.723
1455.989, 621.670
1457.174, 723.563
1458.358, 462.375
1459.542, 489.036
1460.726, 565.631
1461.910, 480.950
1463.093, 584.298
1464.277, 433.753
1465.460, 427.126
1466.643, 761.554
1467.826, 401.530
1469.009, 683.303
1470.191, 396.288
1471.373, 419.472
1472.556, 483.751
1473.738, 622.052
1474.919, 263.399
1476.101, 519.724
1477.283, 459.137
1478.464, 186.920
