##NAMES=Bikitaite
##RRUFFID=R050160
##IDEAL CHEMISTRY=LiAlSi_2_O_6_&#183;H_2_O
##LOCALITY=Foote mine, Kings Mountain, Cleveland County, North Carolina, USA
##OWNER=RRUFF
##SOURCE=Jim McGlasson
##DESCRIPTION=Colorless prismatic crystals
##STATUS=The identification of this mineral has been confirmed by X-ray diffraction and chemical analysis
##URL=rruff.info/R050160
##MEASURED CHEMISTRY=Li_1.00_Si_2.00_O_6_Â·1.25H_2_O ; Li not measured but estimated by stoichiometry
##PIN_ID=M00294
##ORIENTATION=Laser parallel to (1 0 1). Fiducial mark perpendicular to laser is parallel to -b [0 -1 0]
87.30800, 0.0000000E+00
88.54200, 6.768555
89.77700, 418.6768
91.01200, 945.2285
92.24600, 1495.150
93.48000, 1635.711
94.71400, 2099.516
95.94800, 2688.139
97.18200, 3070.785
98.41600, 3606.121
99.64900, 3767.371
100.8830, 4338.438
102.1160, 4536.180
103.3490, 4348.266
104.5820, 4678.553
105.8150, 4591.635
107.0470, 4821.061
108.2800, 4734.777
109.5120, 4686.230
110.7440, 4164.568
111.9760, 3781.164
113.2080, 3788.562
114.4400, 3886.264
115.6710, 3780.084
116.9030, 3743.703
118.1340, 3033.678
119.3650, 2287.500
120.5960, 1750.562
121.8270, 1167.195
123.0580, 820.6816
124.2880, 545.2715
125.5190, 140.1758
126.7490, 72.41211
127.9790, 474.6953
129.2090, 562.6602
130.4390, 1045.623
131.6680, 1621.371
132.8980, 2600.428
134.1270, 3605.387
135.3560, 4794.330
136.5850, 5967.072
137.8140, 7175.662
139.0430, 8412.752
140.2710, 9532.324
141.5000, 10113.36
142.7280, 11018.86
143.9560, 11692.79
145.1840, 11979.15
146.4120, 11880.93
147.6390, 11434.07
148.8670, 10669.52
150.0940, 9992.545
151.3210, 9392.836
152.5490, 8436.370
153.7750, 7944.147
155.0020, 7311.176
156.2290, 6714.451
157.4550, 6221.980
158.6810, 5694.766
159.9080, 5602.801
161.1340, 5257.051
162.3590, 4792.492
163.5850, 4375.246
164.8110, 3815.367
166.0360, 3479.881
167.2610, 2901.793
168.4860, 2300.215
169.7110, 1899.809
170.9360, 1149.893
172.1610, 659.3438
173.3850, 419.1484
174.6100, 75.71680
175.8340, 438.2695
177.0580, 702.5293
178.2820, 725.5098
179.5050, 850.6562
180.7290, 642.9336
181.9520, 373.0508
183.1760, 477.6660
184.3990, 244.0586
185.6220, 211.2891
186.8450, 335.6309
188.0670, 786.7090
189.2900, 1330.945
190.5120, 2010.342
191.7340, 3075.906
192.9560, 4099.641
194.1780, 5503.543
195.4000, 6568.617
196.6220, 7817.863
197.8430, 8821.283
199.0640, 9916.871
200.2860, 10789.63
201.5070, 11556.56
202.7270, 11450.66
203.9480, 11366.93
205.1690, 10374.08
206.3890, 9371.488
207.6090, 8173.996
208.8290, 6949.957
210.0490, 6245.738
211.2690, 5811.641
212.4890, 5573.133
213.7080, 5698.184
214.9280, 6114.447
216.1470, 6094.924
217.3660, 6321.611
218.5850, 6499.504
219.8030, 6330.602
221.0220, 5938.896
222.2400, 5123.393
223.4590, 4746.086
224.6770, 3918.969
225.8950, 3131.045
227.1120, 2485.311
228.3300, 1973.760
229.5480, 1471.396
230.7650, 1124.217
231.9820, 988.2168
233.1990, 1137.395
234.4160, 1082.299
235.6330, 1079.303
236.8490, 1335.311
238.0660, 1505.697
239.2820, 1936.115
240.4980, 2489.328
241.7140, 3038.170
242.9300, 3852.508
244.1460, 4460.244
245.3610, 5465.316
246.5770, 6453.641
247.7920, 7285.156
249.0070, 8041.814
250.2220, 8808.586
251.4370, 9259.445
252.6510, 9367.383
253.8660, 9437.344
255.0800, 8957.367
256.2940, 8530.434
257.5080, 7749.418
258.7220, 6626.244
259.9360, 5939.922
261.1490, 4236.479
262.3630, 3137.934
263.5760, 2145.305
264.7890, 1528.607
266.0020, 1062.857
267.2150, 563.0645
268.4270, 234.2383
269.6400, 109.6094
270.8520, 182.5078
272.0640, 313.4531
273.2760, 231.5293
274.4880, 115.5996
275.7000, 160.6836
276.9120, 158.2012
278.1230, 497.5605
279.3340, 832.7285
280.5450, 1388.684
281.7560, 1839.891
282.9670, 2360.732
284.1780, 2977.744
285.3880, 3272.926
286.5980, 4021.301
287.8090, 4199.855
289.0190, 4287.596
290.2290, 4299.520
291.4380, 4230.590
292.6480, 3640.857
293.8570, 3179.266
295.0670, 2630.887
296.2760, 1949.654
297.4850, 1925.545
298.6930, 1285.592
299.9020, 1005.803
301.1110, 830.1426
302.3190, 1351.586
303.5270, 1220.137
304.7350, 1465.795
305.9430, 1624.557
307.1510, 1520.432
308.3580, 1840.406
309.5660, 2136.480
310.7730, 2394.654
311.9800, 2318.939
313.1870, 2385.363
314.3940, 2332.898
315.6010, 2251.555
316.8070, 2167.324
318.0130, 1790.188
319.2200, 1459.141
320.4260, 1389.973
321.6310, 1109.465
322.8370, 1298.170
324.0430, 1134.701
325.2480, 1081.250
326.4540, 1038.914
327.6590, 695.1387
328.8640, 422.5371
330.0680, 72.90625
331.2730, 89.52930
332.4780, 164.1719
333.6820, 188.7578
334.8860, 5.710938
336.0900, 73.74414
337.2940, 77.87109
338.4980, 561.5664
339.7010, 1171.338
340.9050, 1433.184
342.1080, 1996.105
343.3110, 2300.105
344.5140, 2775.176
345.7170, 2963.320
346.9200, 3393.539
348.1220, 3598.826
349.3240, 3648.184
350.5270, 3585.613
351.7290, 3601.115
352.9310, 3320.695
354.1320, 3103.357
355.3340, 2984.086
356.5350, 2843.838
357.7370, 2785.658
358.9380, 2692.559
360.1390, 2716.539
361.3400, 2803.594
362.5400, 3282.729
363.7410, 3653.934
364.9410, 4409.217
366.1410, 5210.572
367.3410, 6164.000
368.5410, 7336.500
369.7410, 8742.068
370.9400, 10098.71
372.1400, 11858.41
373.3390, 13784.18
374.5380, 15548.03
375.7370, 17370.93
376.9360, 19518.90
378.1350, 21421.94
379.3330, 23414.06
380.5310, 24846.27
381.7300, 26287.57
382.9280, 27635.93
384.1260, 28991.34
385.3230, 29763.83
386.5210, 30679.36
387.7180, 31488.97
388.9160, 31711.62
390.1130, 31858.33
391.3100, 31650.09
392.5060, 31232.88
393.7030, 30347.70
394.9000, 29131.55
396.0960, 27229.44
397.2920, 24609.35
398.4880, 21708.28
399.6840, 18788.25
400.8800, 15802.25
402.0750, 13251.27
403.2710, 10554.32
404.4660, 8866.398
405.6610, 7160.516
406.8560, 6196.664
408.0510, 5029.848
409.2450, 4493.061
410.4400, 3864.305
411.6340, 3537.576
412.8280, 3180.879
414.0220, 2911.023
415.2160, 2795.016
416.4100, 2623.771
417.6030, 2641.557
418.7970, 2675.627
419.9900, 2399.613
421.1830, 2367.828
422.3760, 2511.945
423.5690, 2390.926
424.7610, 2318.445
425.9540, 2394.629
427.1460, 2138.650
428.3380, 2303.055
429.5300, 2142.125
430.7220, 1924.441
431.9140, 2051.916
433.1050, 2005.293
434.2970, 2142.107
435.4880, 2374.197
436.6790, 2192.221
437.8700, 2427.182
439.0610, 2505.131
440.2510, 2500.631
441.4420, 2403.855
442.6320, 2532.162
443.8220, 2563.141
445.0120, 2663.230
446.2020, 2437.955
447.3910, 2463.006
448.5810, 2517.619
449.7700, 2469.883
450.9600, 2541.154
452.1490, 2568.412
453.3370, 2861.781
454.5260, 3277.877
455.7150, 3878.736
456.9030, 4386.336
458.0910, 4825.578
459.2800, 5390.764
460.4670, 5879.658
461.6550, 6403.695
462.8430, 6890.629
464.0300, 7364.070
465.2180, 7811.832
466.4050, 8090.109
467.5920, 8504.293
468.7790, 8989.836
469.9650, 9237.441
471.1520, 9967.225
472.3380, 10104.61
473.5250, 10945.37
474.7110, 11817.79
475.8970, 12941.48
477.0820, 13950.26
478.2680, 15279.14
479.4540, 16798.78
480.6390, 18196.74
481.8240, 19892.70
483.0090, 21813.66
484.1940, 23477.60
485.3780, 25760.54
486.5630, 28068.48
487.7470, 30626.41
488.9320, 33302.33
490.1160, 36087.24
491.3000, 38599.16
492.4830, 41135.04
493.6670, 42609.93
494.8500, 44057.81
496.0340, 44025.67
497.2170, 43683.51
498.4000, 42137.34
499.5820, 39638.16
500.7650, 36414.97
501.9480, 32621.76
503.1300, 28534.54
504.3120, 24647.29
505.4940, 21062.03
506.6760, 17939.76
507.8580, 15078.46
509.0390, 12724.14
510.2210, 10844.81
511.4020, 9411.453
512.5830, 8159.078
513.7640, 7174.682
514.9450, 6004.262
516.1250, 5571.822
517.3060, 4799.359
518.4860, 4402.867
519.6660, 3635.355
520.8460, 3254.945
522.0260, 3060.293
523.2060, 2881.486
524.3850, 2710.912
525.5650, 2556.975
526.7440, 2362.104
527.9230, 2336.463
529.1020, 2231.064
530.2810, 2241.535
531.4590, 2035.553
532.6380, 2209.445
533.8160, 2129.027
534.9940, 2102.340
536.1720, 2277.943
537.3500, 2234.996
538.5270, 2134.016
539.7050, 2035.994
540.8820, 1818.943
542.0590, 1714.855
543.2360, 1459.158
544.4130, 1359.461
545.5900, 1176.002
546.7660, 948.9863
547.9430, 702.7734
549.1190, 489.4688
550.2950, 627.1602
551.4710, 334.1992
552.6470, 293.7520
553.8220, 427.2637
554.9980, 8.732422
556.1730, 37.81836
557.3480, 171.5996
558.5230, 93.93359
559.6980, 43.51562
560.8730, 20.84961
562.0470, 185.7949
563.2220, 245.6152
564.3960, 304.6465
565.5700, 55.92188
566.7440, 239.3086
567.9170, 90.90820
569.0910, 110.6406
570.2640, 214.5215
571.4380, 152.6035
572.6110, 184.8613
573.7840, 181.3027
574.9570, 58.93555
576.1290, 236.6914
577.3020, 42.66797
578.4740, 326.7617
579.6460, 54.12695
580.8180, 2.380859
581.9900, 119.2051
583.1620, 150.9590
584.3330, 16.89062
585.5040, 146.0664
586.6760, 102.9609
587.8470, 44.78320
589.0180, 116.5234
590.1880, 42.19336
591.3590, 84.81641
592.5290, 156.2871
593.7000, 85.73047
594.8700, 27.09570
596.0400, 98.36719
597.2090, 2.519531
598.3790, 38.40234
599.5490, 8.525391
600.7180, 75.33008
601.8870, 110.3203
603.0560, 260.6230
604.2250, 206.0176
605.3940, 223.9082
606.5620, 143.2930
607.7300, 76.60156
608.8990, 185.8145
610.0670, 40.04688
611.2350, 40.05859
612.4020, 163.7793
613.5700, 93.53711
614.7370, 351.1973
615.9050, 416.8008
617.0720, 749.3535
618.2390, 911.8652
619.4060, 982.3105
620.5720, 1267.693
621.7390, 1514.006
622.9050, 1773.248
624.0710, 2190.424
625.2370, 2327.527
626.4030, 2288.561
627.5690, 2113.523
628.7340, 1813.416
629.9000, 1224.236
631.0650, 1093.986
632.2300, 832.6680
633.3950, 825.2754
634.5600, 634.8145
635.7240, 620.7715
636.8890, 462.6758
638.0530, 694.0000
639.2170, 748.2539
640.3810, 937.4375
641.5450, 981.5469
642.7080, 1126.586
643.8720, 1214.553
645.0350, 1323.850
646.1980, 1436.293
647.3610, 1477.057
648.5240, 1550.789
649.6870, 1449.461
650.8490, 1565.062
652.0120, 1228.633
653.1740, 1296.137
654.3360, 1169.572
655.4980, 970.9355
656.6600, 768.2266
657.8210, 571.4453
658.9830, 489.5938
660.1440, 253.6719
661.3050, 58.66797
662.4660, 38.55078
663.6270, 265.3086
664.7870, 168.9902
665.9480, 10.63672
667.1080, 264.9941
668.2680, 11.36719
669.4280, 244.6035
670.5880, 3.761719
671.7480, 206.0137
672.9070, 227.9453
674.0670, 422.7930
675.2260, 351.6543
676.3850, 583.4688
677.5440, 585.0996
678.7030, 648.6621
679.8610, 475.3945
681.0200, 486.7695
682.1780, 372.3730
683.3360, 362.6504
684.4940, 306.8555
685.6520, 248.9824
686.8090, 267.0293
687.9670, 272.3906
689.1240, 267.8887
690.2810, 364.6992
691.4380, 529.4395
692.5950, 609.1133
693.7520, 790.7148
694.9080, 917.4863
696.0650, 1208.168
697.2210, 1560.475
698.3770, 1835.248
699.5330, 2191.992
700.6880, 2289.320
701.8440, 2464.746
702.9990, 2661.227
704.1550, 2615.816
705.3100, 2589.840
706.4650, 2405.178
707.6190, 2042.658
708.7740, 1940.734
709.9290, 1975.129
711.0830, 1438.250
712.2370, 1227.195
713.3910, 1224.215
714.5450, 899.7715
715.6980, 960.0293
716.8520, 856.3320
718.0050, 864.6699
719.1580, 825.9941
720.3110, 872.7441
721.4640, 798.7422
722.6170, 756.6309
723.7700, 729.1016
724.9220, 674.6055
726.0740, 672.2637
727.2260, 577.3008
728.3780, 606.7441
729.5300, 549.5098
730.6810, 571.2344
731.8330, 249.9434
732.9840, 253.5176
734.1350, 94.32617
735.2860, 5.341797
736.4370, 1.417969
737.5880, 50.85742
738.7380, 114.6230
739.8880, 71.04883
741.0390, 93.90234
742.1890, 33.25977
743.3380, 13.88086
744.4880, 163.1074
745.6380, 209.3652
746.7870, 152.2031
747.9360, 427.8926
749.0850, 258.6836
750.2340, 714.3945
751.3830, 814.6309
752.5310, 951.5469
753.6800, 1055.068
754.8280, 1345.799
755.9760, 1543.498
757.1240, 1769.162
758.2720, 1957.178
759.4190, 2055.396
760.5670, 2247.277
761.7140, 2365.305
762.8610, 2416.012
764.0080, 2469.486
765.1550, 2443.934
766.3020, 2385.729
767.4480, 2248.824
768.5950, 2148.094
769.7410, 1880.420
770.8870, 1669.721
772.0330, 1505.992
773.1780, 1365.236
774.3240, 1077.455
775.4690, 993.6445
776.6140, 756.8242
777.7590, 854.9785
778.9040, 768.1309
780.0490, 667.2617
781.1940, 695.3633
782.3380, 604.1230
783.4820, 545.3477
784.6260, 477.3770
785.7700, 517.8672
786.9140, 402.1328
788.0580, 462.5840
789.2010, 265.3184
790.3450, 348.5566
791.4880, 369.5117
792.6310, 278.4629
793.7730, 334.4004
794.9160, 226.3320
796.0590, 274.3086
797.2010, 280.2617
798.3430, 216.0957
799.4850, 119.1523
800.6270, 287.3359
801.7690, 222.2734
802.9100, 0.9609380
804.0520, 37.30078
805.1930, 146.5840
806.3340, 271.1816
807.4750, 75.86328
808.6160, 48.05273
809.7560, 52.10742
810.8970, 88.52930
812.0370, 88.82812
813.1770, 5.539063
814.3170, 33.25195
815.4570, 148.0312
816.5960, 49.19922
817.7360, 11.45312
818.8750, 21.27539
820.0140, 197.5684
821.1530, 196.8145
822.2920, 140.7734
823.4310, 295.2422
824.5690, 246.8594
825.7070, 320.5195
826.8460, 234.1367
827.9840, 114.3594
829.1220, 264.0156
830.2590, 297.6680
831.3970, 271.3125
832.5340, 339.9648
833.6710, 121.6387
834.8080, 339.3066
835.9450, 568.0117
837.0820, 354.7383
838.2190, 390.4746
839.3550, 515.2734
840.4910, 567.1523
841.6270, 426.1270
842.7630, 557.1328
843.8990, 552.2207
845.0350, 742.3496
846.1700, 791.5273
847.3060, 847.7812
848.4410, 681.0938
849.5760, 796.4785
850.7100, 714.9316
851.8450, 845.4238
852.9800, 1024.000
854.1140, 1190.613
855.2480, 1182.336
856.3820, 1603.098
857.5160, 1599.887
858.6500, 1980.730
859.7830, 1932.643
860.9170, 1845.586
862.0500, 1750.537
863.1830, 1642.572
864.3160, 1389.484
865.4480, 1360.479
866.5810, 1164.490
867.7130, 955.5195
868.8460, 1081.559
869.9780, 687.6152
871.1100, 739.4297
872.2410, 735.7930
873.3730, 639.0977
874.5050, 692.0977
875.6360, 536.2480
876.7670, 722.2012
877.8980, 516.7793
879.0290, 506.2129
880.1590, 651.0938
881.2900, 488.4277
882.4200, 496.7773
883.5500, 459.1543
884.6800, 455.5469
885.8100, 330.9902
886.9400, 619.4883
888.0690, 423.0059
889.1990, 510.5469
890.3280, 334.1016
891.4570, 551.6699
892.5860, 273.2480
893.7140, 476.8398
894.8430, 524.4453
895.9710, 634.0645
897.1000, 565.6953
898.2280, 568.8906
899.3560, 414.9980
900.4830, 453.6719
901.6110, 499.3574
902.7380, 441.0586
903.8660, 463.7754
904.9930, 489.5039
906.1200, 405.2500
907.2460, 252.0098
908.3730, 222.7852
909.5000, 204.5781
910.6260, 165.0527
911.7520, 409.6133
912.8780, 225.4512
914.0040, 271.9297
915.1290, 405.7988
916.2550, 136.6855
917.3800, 61.41211
918.5050, 115.4902
919.6300, 65.40820
920.7550, 209.6582
921.8800, 70.79297
923.0040, 21.92969
924.1290, 197.0547
925.2530, 45.63281
926.3770, 157.8047
927.5010, 66.88281
928.6250, 220.9551
929.7480, 142.1758
930.8720, 23.24609
931.9950, 250.1484
933.1180, 281.5703
934.2410, 373.6543
935.3640, 415.0215
936.4860, 369.2598
937.6090, 283.4531
938.7310, 406.8691
939.8530, 633.0801
940.9750, 668.2148
942.0970, 494.4043
943.2180, 785.6133
944.3400, 882.6387
945.4610, 1088.945
946.5820, 1236.275
947.7030, 1846.568
948.8240, 2377.857
949.9450, 3168.275
951.0650, 4122.709
952.1860, 5334.924
953.3060, 7078.188
954.4260, 8768.676
955.5460, 10582.19
956.6650, 11914.72
957.7850, 12664.27
958.9040, 13017.85
960.0230, 12367.45
961.1420, 11380.07
962.2610, 9404.715
963.3800, 7763.383
964.4990, 6089.068
965.6170, 4730.775
966.7350, 3670.500
967.8530, 3139.246
968.9710, 2707.010
970.0890, 2463.795
971.2070, 2111.602
972.3240, 1898.055
973.4410, 1603.264
974.5580, 1569.127
975.6750, 1304.004
976.7920, 1229.902
977.9090, 836.8164
979.0250, 596.7520
980.1410, 569.7012
981.2580, 379.6699
982.3740, 320.6562
983.4890, 194.6562
984.6050, 353.6758
985.7200, 575.7109
986.8360, 701.7637
987.9510, 778.3711
989.0660, 809.9160
990.1810, 847.0156
991.2950, 819.1309
992.4100, 807.2637
993.5240, 1280.408
994.6390, 1484.568
995.7530, 2261.746
996.8660, 2848.936
997.9800, 3390.143
999.0940, 4157.363
1000.207, 4835.598
1001.320, 5453.848
1002.433, 5737.113
1003.546, 5029.395
1004.659, 4045.689
1005.772, 3239.000
1006.884, 2787.330
1007.996, 2537.682
1009.108, 2479.061
1010.220, 2674.486
1011.332, 2973.947
1012.444, 3306.447
1013.555, 3912.975
1014.666, 4492.518
1015.777, 5147.074
1016.888, 5869.645
1017.999, 6339.230
1019.110, 6232.832
1020.220, 6460.445
1021.331, 6320.070
1022.441, 6110.711
1023.551, 5516.365
1024.661, 4794.033
1025.770, 4211.715
1026.880, 3836.412
1027.989, 3314.125
1029.098, 2686.848
1030.207, 2067.586
1031.316, 1689.340
1032.425, 1384.105
1033.533, 1021.885
1034.642, 836.6797
1035.750, 644.4863
1036.858, 533.3066
1037.966, 490.1426
1039.073, 279.9922
1040.181, 358.8535
1041.288, 391.7305
1042.396, 248.6191
1043.503, 168.5215
1044.610, 38.55859
1045.716, 50.33984
1046.823, 78.74609
1047.929, 118.1328
1049.036, 206.0215
1050.142, 235.9258
1051.248, 119.9922
1052.353, 105.9219
1053.459, 96.86523
1054.564, 52.34570
1055.670, 100.0352
1056.775, 62.53320
1057.880, 32.26367
1058.985, 194.5859
1060.089, 63.68164
1061.194, 4.802734
1062.298, 46.91992
1063.402, 253.0547
1064.506, 62.69141
1065.610, 104.5430
1066.713, 97.82422
1067.817, 47.14453
1068.920, 117.4824
1070.023, 2.869141
1071.126, 84.25195
1072.229, 185.3301
1073.332, 224.9316
1074.435, 317.0195
1075.537, 503.6484
1076.639, 664.2910
1077.741, 590.7383
1078.843, 947.4180
1079.945, 1078.240
1081.046, 908.3457
1082.148, 1239.092
1083.249, 1155.852
1084.350, 1152.648
1085.451, 1127.439
1086.551, 1050.248
1087.652, 1026.070
1088.752, 1100.906
1089.853, 1077.033
1090.953, 1080.303
1092.053, 1013.768
1093.152, 1103.656
1094.252, 1153.555
1095.351, 1260.582
1096.451, 1405.510
1097.550, 1681.889
1098.649, 1916.842
1099.748, 2074.809
1100.846, 2264.785
1101.945, 2360.043
1103.043, 2544.057
1104.141, 2657.080
1105.239, 2603.127
1106.337, 2693.188
1107.434, 2292.260
1108.532, 2084.344
1109.629, 1942.453
1110.726, 1664.572
1111.823, 1475.709
1112.920, 1364.855
1114.017, 1442.014
1115.113, 1115.188
1116.210, 1454.375
1117.306, 1550.574
1118.402, 1445.787
1119.498, 1455.014
1120.593, 1565.252
1121.689, 1734.506
1122.784, 2036.771
1123.879, 2234.051
1124.974, 2465.344
1126.069, 2485.650
1127.164, 2638.971
1128.259, 2410.303
1129.353, 2353.650
1130.447, 2229.010
1131.541, 1890.385
1132.635, 1875.771
1133.729, 1416.174
1134.822, 1378.588
1135.916, 1339.016
1137.009, 1024.459
1138.102, 1057.914
1139.195, 900.3809
1140.288, 949.8652
1141.380, 1042.365
1142.473, 778.8789
1143.565, 976.4082
1144.657, 846.9512
1145.749, 982.5059
1146.841, 1076.076
1147.932, 1230.666
1149.024, 1179.266
1150.115, 1416.883
1151.206, 1384.512
1152.297, 1860.154
1153.388, 2024.811
1154.479, 2079.480
1155.569, 2465.162
1156.659, 2506.861
1157.750, 2505.570
1158.839, 3145.299
1159.929, 3205.031
1161.019, 3055.773
1162.108, 2801.525
1163.198, 2906.289
1164.287, 2589.059
1165.376, 2567.842
1166.465, 2234.631
1167.553, 2129.436
1168.642, 2169.246
1169.730, 2084.066
1170.818, 1770.900
1171.906, 1634.742
1172.994, 1636.596
1174.082, 1546.459
1175.170, 1283.336
1176.257, 1172.812
1177.344, 1080.711
1178.431, 982.9922
1179.518, 884.4961
1180.605, 823.8516
1181.691, 697.8008
1182.778, 701.7656
1183.864, 620.7461
1184.950, 759.7109
1186.036, 594.6934
1187.122, 502.6973
1188.207, 631.7188
1189.292, 556.1797
1190.378, 315.6543
1191.463, 256.5156
1192.548, 268.4160
1193.632, 541.2012
1194.717, 103.1602
1195.801, 98.32422
1196.886, 273.9922
1197.970, 70.04102
1199.054, 98.85547
1200.137, 243.8613
1201.221, 390.9453
1202.305, 49.79297
1203.388, 104.0645
1204.471, 39.64648
1205.554, 54.65430
1206.637, 107.9668
1207.719, 107.6973
1208.802, 109.6309
1209.884, 151.0234
1210.966, 11.88672
1212.048, 122.4609
1213.130, 320.8242
1214.212, 1.207031
1215.293, 207.6035
1216.374, 214.0176
1217.456, 115.4512
1218.536, 135.9004
1219.617, 9.632813
1220.698, 144.8496
1221.778, 65.34766
1222.859, 12.86523
1223.939, 17.39844
1225.019, 4.050781
1226.099, 82.51758
1227.178, 14.89648
1228.258, 39.70312
1229.337, 54.32227
1230.417, 198.9570
1231.496, 9.365234
1232.574, 261.3066
1233.653, 294.9980
1234.732, 436.1660
1235.810, 606.8945
1236.888, 484.6445
1237.966, 555.4141
1239.044, 570.8984
1240.122, 503.7109
1241.199, 446.5449
1242.277, 305.3984
1243.354, 355.2773
1244.431, 509.1777
1245.508, 413.1016
1246.585, 365.0469
1247.661, 601.0176
1248.738, 262.0137
1249.814, 676.0293
1250.890, 539.0293
1251.966, 438.0566
1253.042, 483.1035
1254.117, 378.1738
1255.193, 344.2715
1256.268, 373.3555
1257.343, 440.5410
1258.418, 407.7148
1259.493, 431.9160
1260.567, 427.1211
1261.642, 501.3516
1262.716, 481.5566
1263.790, 586.7891
1264.864, 610.0039
1265.938, 1000.242
