##NAMES=Bikitaite
##RRUFFID=R050160
##IDEAL CHEMISTRY=LiAlSi_2_O_6_&#183;H_2_O
##LOCALITY=Foote mine, Kings Mountain, Cleveland County, North Carolina, USA
##OWNER=RRUFF
##SOURCE=Jim McGlasson
##DESCRIPTION=Colorless prismatic crystals
##STATUS=The identification of this mineral has been confirmed by X-ray diffraction and chemical analysis
##URL=rruff.info/R050160
##MEASURED CHEMISTRY=Li_1.00_Si_2.00_O_6_Â·1.25H_2_O ; Li not measured but estimated by stoichiometry
##PIN_ID=M00374
##ORIENTATION=Laser parallel to c* (0 0 1). Fiducial mark perpendicular to laser is parallel to a [1 0 0]
53.566, 0.000
54.966, 354.588
56.365, 593.713
57.765, 288.797
59.164, 34.881
60.563, 126.541
61.962, 281.440
63.360, 352.634
64.758, 558.729
66.157, 1094.256
67.554, 2264.355
68.952, 4227.668
70.349, 5183.250
71.747, 5576.539
73.144, 5797.309
74.540, 6756.480
75.937, 7751.078
77.333, 8957.205
78.729, 10110.054
80.125, 10846.923
81.521, 11865.206
82.916, 12648.390
84.311, 12861.014
85.706, 12640.676
87.101, 12339.039
88.496, 12435.022
89.890, 12813.620
91.284, 13419.534
92.678, 13724.436
94.071, 14509.050
95.465, 14995.116
96.858, 15763.340
98.251, 16778.391
99.644, 17603.037
101.036, 18091.080
102.428, 18918.371
103.820, 19541.777
105.212, 20163.180
106.604, 20591.502
107.995, 21043.652
109.387, 20381.555
110.777, 19941.232
112.168, 18530.551
113.559, 16965.439
114.949, 15358.854
116.339, 14032.751
117.729, 12351.088
119.119, 11073.820
120.508, 9667.471
121.897, 9177.634
123.286, 7883.469
124.675, 7067.420
126.063, 6638.486
127.452, 5931.361
128.840, 5705.040
130.228, 5469.520
131.615, 5574.790
133.003, 5631.853
134.390, 5983.696
135.777, 6124.312
137.164, 6871.451
138.550, 7132.352
139.937, 7566.974
141.323, 8021.400
142.709, 8330.892
144.094, 8272.538
145.480, 8323.414
146.865, 8180.578
148.250, 8024.089
149.635, 7772.980
151.019, 7342.291
152.403, 7413.057
153.788, 6978.294
155.171, 7151.031
156.555, 6752.282
157.939, 6739.064
159.322, 6612.391
160.705, 6233.264
162.088, 5899.697
163.470, 5540.691
164.853, 5233.248
166.235, 4701.109
167.617, 4241.918
168.998, 3985.162
170.380, 3644.979
171.761, 3182.365
173.142, 3016.321
174.523, 2734.839
175.904, 2407.916
177.284, 2337.549
178.664, 2009.729
180.044, 2033.452
181.424, 1887.712
182.803, 1876.507
184.183, 1746.829
185.562, 1831.656
186.940, 1881.162
188.319, 2103.187
189.698, 2216.670
191.076, 2658.357
192.454, 3066.893
193.831, 3533.756
195.209, 4172.287
196.586, 4911.647
197.963, 5757.527
199.340, 6449.924
200.717, 7200.829
202.093, 7682.238
203.470, 7800.145
204.846, 7461.541
206.221, 7161.412
207.597, 6791.746
208.972, 5818.533
210.347, 5782.767
211.722, 5903.446
213.097, 6224.562
214.472, 6724.117
215.846, 7075.098
217.220, 7319.506
218.594, 7728.336
219.967, 7554.000
221.341, 7022.881
222.714, 6259.895
224.087, 5614.914
225.460, 4762.180
226.832, 4133.469
228.204, 3538.176
229.577, 3272.404
230.948, 3040.031
232.320, 2956.955
233.692, 3303.088
235.063, 3254.365
236.434, 3510.742
237.805, 3914.121
239.175, 4286.469
240.545, 5128.736
241.916, 5767.900
243.286, 6812.916
244.655, 7479.760
246.025, 8364.391
247.394, 9250.781
248.763, 9711.941
250.132, 10771.816
251.501, 10786.352
252.869, 11449.602
254.237, 11685.500
255.605, 11864.021
256.973, 11425.186
258.340, 10143.926
259.708, 8469.262
261.075, 6739.180
262.442, 5373.594
263.808, 3790.537
265.175, 2932.963
266.541, 1984.840
267.907, 1343.246
269.273, 851.131
270.639, 490.432
272.004, 345.150
273.369, 145.322
274.734, 142.926
276.099, 84.049
277.463, 16.428
278.828, 153.273
280.192, 14.541
281.556, 218.211
282.919, 691.236
284.283, 1012.660
285.646, 1255.502
287.009, 1732.672
288.372, 2483.176
289.734, 2944.977
291.097, 3213.135
292.459, 3876.572
293.821, 3822.297
295.183, 3990.299
296.544, 3406.572
297.905, 3456.117
299.266, 3564.924
300.627, 3173.992
301.988, 3033.320
303.348, 2132.906
304.709, 1762.758
306.069, 1537.871
307.428, 1358.246
308.788, 1036.889
310.147, 1112.789
311.507, 737.953
312.865, 364.373
314.224, 56.053
315.583, 67.012
316.941, 473.834
318.299, 654.469
319.657, 660.943
321.015, 645.266
322.372, 709.436
323.729, 713.471
325.086, 685.371
326.443, 837.135
327.800, 518.797
329.156, 904.301
330.512, 887.730
331.868, 590.078
333.224, 409.289
334.579, 331.336
335.935, 149.785
337.290, 270.127
338.645, 692.684
339.999, 977.455
341.354, 1106.441
342.708, 1491.646
344.062, 1411.061
345.416, 1727.693
346.769, 1884.551
348.123, 1860.740
349.476, 2027.137
350.829, 2127.645
352.182, 2266.123
353.534, 2379.615
354.887, 2147.084
356.239, 2065.510
357.591, 2103.891
358.942, 1910.340
360.294, 2138.986
361.645, 2125.832
362.996, 2529.865
364.347, 2700.088
365.698, 3245.494
367.048, 3920.082
368.398, 4300.852
369.748, 5517.799
371.098, 6490.922
372.448, 7648.217
373.797, 8997.684
375.146, 10624.320
376.495, 12727.129
377.844, 14029.098
379.192, 16165.229
380.540, 16861.527
381.889, 18051.980
383.236, 18436.336
384.584, 18719.023
385.932, 18892.932
387.279, 18958.061
388.626, 18914.578
389.973, 18762.488
391.319, 18502.018
392.666, 18139.826
394.012, 18000.756
395.358, 17647.381
396.704, 16913.760
398.049, 16123.994
399.394, 14027.787
400.740, 12675.855
402.084, 10773.367
403.429, 9440.057
404.774, 8860.473
406.118, 7652.277
407.462, 6847.926
408.806, 6248.512
410.150, 5842.203
411.493, 5612.941
412.836, 5302.914
414.179, 4805.932
415.522, 5005.363
416.865, 4776.949
418.207, 4593.467
419.549, 4452.047
420.891, 4379.953
422.233, 4051.230
423.575, 3418.184
424.916, 3596.242
426.257, 3322.148
427.598, 2759.850
428.939, 2942.771
430.279, 2561.891
431.619, 2327.953
432.959, 2488.209
434.299, 2580.486
435.639, 2532.426
436.978, 2856.848
438.318, 2820.756
439.657, 2993.549
440.996, 3142.348
442.334, 3368.041
443.673, 3561.078
445.011, 3911.291
446.349, 4165.314
447.687, 3951.320
449.024, 4122.055
450.361, 3684.734
451.699, 3648.734
453.036, 3353.789
454.372, 3121.736
455.709, 2531.973
457.045, 2441.395
458.381, 2474.807
459.717, 2468.293
461.053, 2545.867
462.388, 3045.512
463.724, 3438.232
465.059, 3481.021
466.394, 4289.877
467.728, 4999.797
469.063, 5419.773
470.397, 6017.811
471.731, 6962.906
473.065, 7191.055
474.398, 8334.262
475.732, 8538.520
477.065, 9159.246
478.398, 9508.648
479.731, 10191.295
481.063, 10994.477
482.396, 12033.422
483.728, 13871.605
485.060, 15267.545
486.391, 17026.469
487.723, 18379.004
489.054, 19427.051
490.385, 19787.564
491.716, 18783.680
493.047, 17631.850
494.377, 16540.838
495.708, 14870.453
497.038, 13054.559
498.368, 11984.711
499.697, 10902.955
501.027, 9981.543
502.356, 8942.582
503.685, 8037.711
505.014, 7074.516
506.342, 6345.363
507.671, 5808.939
508.999, 5211.559
510.327, 4606.898
511.655, 4271.598
512.982, 4150.402
514.310, 3607.930
515.637, 3436.141
516.964, 2893.148
518.291, 3070.281
519.617, 2725.871
520.944, 2239.949
522.270, 2332.729
523.596, 2205.527
524.921, 2098.338
526.247, 1652.164
527.572, 1830.998
528.897, 1960.838
530.222, 1866.686
531.547, 1883.535
532.871, 1798.387
534.196, 2030.240
535.520, 2107.090
536.844, 2281.936
538.167, 2214.777
539.491, 2351.617
540.814, 2184.447
542.137, 2171.270
543.460, 1978.082
544.783, 1525.883
546.105, 1200.668
547.427, 920.439
548.749, 692.193
550.071, 649.928
551.393, 421.641
552.714, 582.332
554.035, 186.998
555.356, 92.631
556.677, 11.799
557.998, 165.670
559.318, 44.281
560.638, 63.623
561.958, 58.510
563.278, 29.955
564.597, 87.248
565.917, 61.012
567.236, 55.115
568.555, 231.512
569.874, 67.160
571.192, 25.539
572.511, 290.326
573.829, 85.949
575.147, 84.717
576.464, 233.902
577.782, 40.430
579.099, 197.367
580.416, 182.494
581.733, 110.154
583.050, 81.789
584.366, 51.602
585.683, 233.775
586.999, 220.082
588.315, 49.354
589.630, 360.654
590.946, 176.629
592.261, 40.830
593.576, 2.088
594.891, 32.449
596.206, 163.930
597.520, 291.027
598.834, 64.361
600.148, 5.381
601.462, 204.547
602.776, 24.418
604.089, 155.836
605.402, 185.391
606.715, 85.852
608.028, 172.021
609.341, 95.668
610.653, 428.643
611.965, 177.920
613.277, 502.762
614.589, 275.766
615.901, 754.543
617.212, 635.693
618.523, 911.910
619.834, 1097.008
621.145, 1380.242
622.456, 1418.744
623.766, 1867.389
625.076, 1732.123
626.386, 1875.773
627.696, 1309.340
629.006, 1200.186
630.315, 882.576
631.624, 428.885
632.933, 947.102
634.242, 491.734
635.551, 480.787
636.859, 269.725
638.167, 473.285
639.475, 397.047
640.783, 659.205
642.090, 783.594
643.398, 1122.711
644.705, 804.135
646.012, 1115.330
647.318, 1003.242
648.625, 1166.730
649.931, 1074.117
651.237, 516.965
652.543, 745.926
653.849, 945.641
655.155, 656.336
656.460, 564.074
657.765, 335.887
659.070, 298.463
660.375, 420.801
661.679, 187.199
662.984, 90.713
664.288, 331.406
665.592, 114.580
666.895, 275.361
668.199, 305.785
669.502, 122.047
670.805, 69.471
672.108, 156.658
673.411, 42.939
674.713, 592.441
676.016, 494.541
677.318, 426.812
678.620, 981.809
679.921, 1281.996
681.223, 1022.691
682.524, 1249.213
683.825, 1358.764
685.126, 1352.980
686.427, 1317.773
687.727, 1056.463
689.028, 1015.582
690.328, 1231.590
691.628, 1094.641
692.927, 1259.436
694.227, 958.121
695.526, 1651.703
696.825, 1232.174
698.124, 1999.539
699.423, 1412.791
700.721, 1898.938
702.020, 1779.979
703.318, 1589.910
704.616, 1473.730
705.913, 1751.443
707.211, 1853.047
708.508, 1490.543
709.805, 1237.930
711.102, 1596.740
712.399, 1226.918
713.695, 1324.350
714.992, 800.332
716.288, 914.141
717.584, 371.605
718.879, 737.670
720.175, 667.396
721.470, 367.822
722.765, 538.559
724.060, 394.125
725.355, 380.947
726.649, 435.705
727.944, 544.135
729.238, 405.334
730.532, 200.787
731.825, 446.156
733.119, 60.434
734.412, 67.695
735.705, 115.680
736.998, 33.344
738.291, 192.725
739.584, 59.145
740.876, 174.160
742.168, 90.490
743.460, 88.260
744.752, 43.984
746.043, 85.266
747.334, 40.348
748.626, 19.463
749.916, 16.816
751.207, 88.969
752.498, 65.695
753.788, 269.678
755.078, 288.188
756.368, 11.158
757.658, 62.916
758.947, 158.963
760.237, 98.414
761.526, 120.383
762.815, 27.203
764.104, 14.551
765.392, 73.182
766.680, 58.254
767.969, 270.910
769.257, 1.738
770.544, 102.809
771.832, 389.029
773.119, 38.004
774.406, 367.867
775.693, 135.471
776.980, 477.602
778.267, 426.223
779.553, 663.338
780.839, 764.164
782.125, 916.420
783.411, 546.857
784.697, 640.912
785.982, 652.725
787.267, 694.699
788.552, 523.207
789.837, 739.514
791.122, 195.664
792.406, 520.504
793.690, 476.307
794.974, 383.088
796.258, 332.086
797.542, 403.043
798.825, 332.959
800.108, 62.838
801.391, 95.641
802.674, 39.584
803.957, 53.121
805.239, 265.777
806.522, 107.697
807.804, 126.818
809.085, 263.287
810.367, 5.287
811.649, 84.027
812.930, 223.004
814.211, 210.467
815.492, 216.947
816.772, 395.691
818.053, 9.398
819.333, 239.629
820.613, 559.254
821.893, 25.555
823.173, 176.268
824.452, 236.975
825.732, 519.947
827.011, 71.238
828.290, 352.721
829.568, 186.076
830.847, 358.973
832.125, 399.375
833.403, 330.062
834.681, 424.723
835.959, 204.357
837.236, 669.980
838.514, 469.580
839.791, 548.188
841.068, 549.791
842.345, 804.387
843.621, 756.004
844.898, 633.631
846.174, 846.281
847.450, 794.936
848.726, 711.568
850.001, 841.197
851.277, 845.811
852.552, 921.396
853.827, 760.953
855.102, 921.482
856.376, 1462.971
857.651, 1888.422
858.925, 1435.826
860.199, 1667.184
861.473, 1384.492
862.746, 1533.756
864.020, 1158.975
865.293, 1325.146
866.566, 882.293
867.839, 1065.428
869.112, 742.336
870.384, 963.420
871.656, 564.883
872.928, 824.539
874.200, 848.918
875.472, 717.654
876.744, 555.625
878.015, 487.770
879.286, 858.996
880.557, 550.750
881.828, 612.111
883.098, 472.156
884.369, 711.869
885.639, 1231.084
886.909, 1512.174
888.178, 815.439
889.448, 852.018
890.717, 325.354
891.987, 624.428
893.256, 737.764
894.524, 811.791
895.793, 649.008
897.061, 623.859
898.330, 643.740
899.598, 978.275
900.865, 594.975
902.133, 713.133
903.401, 591.865
904.668, 809.916
905.935, 454.389
907.202, 874.623
908.468, 701.941
909.735, 1045.674
911.001, 666.693
912.267, 546.516
913.533, 761.898
914.799, 700.369
916.064, 1015.668
917.330, 403.590
918.595, 422.838
919.860, 770.520
921.124, 332.219
922.389, 847.766
923.653, 468.264
924.918, 752.867
926.182, 770.150
927.445, 585.273
928.709, 479.180
929.972, 566.170
931.236, 675.363
932.499, 733.410
933.761, 619.469
935.024, 804.545
936.286, 885.262
937.549, 693.361
938.811, 883.678
940.073, 749.146
941.334, 788.293
942.596, 818.041
943.857, 853.738
945.118, 895.211
946.379, 1176.301
947.640, 1564.320
948.900, 1579.590
950.161, 1746.158
951.421, 2228.039
952.681, 2865.176
953.940, 3808.900
955.200, 4363.395
956.459, 5545.387
957.719, 6879.088
958.978, 7478.367
960.236, 8812.508
961.495, 9939.938
962.753, 11073.781
964.012, 11494.424
965.270, 11438.686
966.527, 10861.691
967.785, 10543.340
969.043, 9233.943
970.300, 7611.816
971.557, 6467.465
972.814, 5205.484
974.071, 5183.488
975.327, 3886.543
976.583, 3966.145
977.840, 3129.408
979.095, 2177.934
980.351, 2403.643
981.607, 1728.879
982.862, 1754.455
984.117, 2068.777
985.372, 1510.506
986.627, 2150.637
987.882, 2269.971
989.136, 2315.975
990.390, 2967.648
991.644, 2939.592
992.898, 3976.305
994.152, 5121.912
995.405, 6794.891
996.659, 9356.672
997.912, 11643.234
999.165, 14245.236
1000.417, 14202.523
1001.670, 14010.957
1002.922, 10834.633
1004.174, 8967.135
1005.426, 6339.025
1006.678, 4883.363
1007.930, 4317.547
1009.181, 3602.775
1010.432, 3549.990
1011.683, 3300.156
1012.934, 3188.270
1014.185, 3458.365
1015.435, 3412.383
1016.685, 3519.305
1017.935, 3781.154
1019.185, 3626.895
1020.435, 3237.000
1021.684, 3125.461
1022.934, 3118.098
1024.183, 2422.141
1025.432, 3046.334
1026.680, 1919.188
1027.929, 1948.324
1029.177, 1724.250
1030.425, 1951.656
1031.673, 1658.389
1032.921, 1329.389
1034.169, 1266.504
1035.416, 1496.143
1036.663, 1182.527
1037.911, 1086.811
1039.157, 1184.387
1040.404, 1233.922
1041.650, 1215.180
1042.897, 1023.891
1044.143, 1325.443
1045.389, 1198.830
1046.634, 1054.947
1047.880, 1256.172
1049.125, 1009.584
1050.371, 1472.428
1051.615, 1063.537
1052.860, 1375.850
1054.105, 1306.408
1055.349, 894.898
1056.593, 1023.994
1057.837, 1477.521
1059.081, 1143.770
1060.325, 810.584
1061.568, 1359.123
1062.812, 946.039
1064.055, 934.250
1065.298, 1137.902
1066.540, 1164.051
1067.783, 781.662
1069.025, 1364.102
1070.267, 865.076
1071.509, 1009.590
1072.751, 1529.117
1073.993, 1415.021
1075.234, 1373.863
1076.475, 1677.590
1077.716, 1708.016
1078.957, 1500.979
1080.198, 2403.078
1081.438, 2248.078
1082.679, 2364.574
1083.919, 2565.719
1085.159, 2561.312
1086.398, 2434.094
1087.638, 2243.645
1088.877, 2017.047
1090.116, 1998.533
1091.355, 2164.707
1092.594, 1712.719
1093.833, 1526.564
1095.071, 1783.496
1096.309, 1605.961
1097.547, 1418.439
1098.785, 1509.764
1100.023, 1398.207
1101.260, 1787.498
1102.498, 1089.570
1103.735, 1511.396
1104.972, 1368.957
1106.208, 1489.801
1107.445, 1670.205
1108.681, 1483.041
1109.918, 1471.986
1111.154, 1645.002
1112.389, 1405.654
1113.625, 1505.279
1114.860, 1416.145
1116.096, 1444.068
1117.331, 1433.877
1118.566, 1452.801
1119.800, 1682.629
1121.035, 1182.098
1122.269, 1512.734
1123.503, 1558.797
1124.737, 1662.711
1125.971, 1580.496
1127.205, 1483.152
1128.438, 1622.250
1129.671, 1481.453
1130.904, 1558.832
1132.137, 1635.953
1133.370, 1653.910
1134.602, 1588.977
1135.834, 1350.531
1137.066, 1738.629
1138.298, 1250.562
1139.530, 1408.961
1140.762, 1486.395
1141.993, 1233.105
1143.224, 1369.902
1144.455, 1186.672
1145.686, 1507.676
1146.917, 1850.332
1148.147, 1531.602
1149.377, 1818.598
1150.607, 2036.762
1151.837, 1970.828
1153.067, 2027.676
1154.296, 2390.879
1155.526, 2284.504
1156.755, 2862.891
1157.984, 2583.453
1159.213, 2862.555
1160.441, 3004.285
1161.670, 3178.855
1162.898, 2636.086
1164.126, 2737.941
1165.354, 2677.684
1166.581, 2716.742
1167.809, 2316.273
1169.036, 2363.168
1170.263, 2265.953
1171.490, 2391.348
1172.717, 2007.059
1173.943, 1798.727
1175.170, 2156.621
1176.396, 2129.965
1177.622, 2080.492
1178.848, 1553.188
1180.073, 1782.496
1181.299, 1619.141
1182.524, 1571.004
1183.749, 1897.133
1184.974, 1857.953
1186.199, 1792.375
1187.423, 1744.906
1188.648, 1898.793
1189.872, 1685.562
1191.096, 1794.414
1192.320, 1540.898
1193.543, 1905.184
1194.767, 1431.840
1195.990, 1595.840
1197.213, 1769.344
1198.436, 1724.176
1199.659, 1803.680
1200.881, 1922.891
1202.104, 1851.680
1203.326, 2241.238
1204.548, 1482.367
1205.770, 1810.359
1206.991, 1664.844
1208.213, 2000.754
1209.434, 1476.117
1210.655, 1779.961
1211.876, 1967.391
1213.096, 2058.977
1214.317, 1984.879
1215.537, 1804.434
1216.757, 2318.391
1217.977, 2043.945
1219.197, 1961.277
1220.417, 2022.363
1221.636, 1789.742
1222.855, 2120.797
1224.074, 1630.867
1225.293, 1963.289
1226.512, 2569.461
1227.731, 2032.715
1228.949, 2078.148
1230.167, 2076.465
1231.385, 2288.551
1232.603, 2099.113
1233.820, 2216.477
1235.038, 2405.426
1236.255, 2463.117
1237.472, 2595.840
1238.689, 2586.098
1239.906, 2511.336
1241.122, 2602.969
1242.338, 2360.039
1243.555, 2279.688
1244.771, 2108.125
1245.986, 2160.668
1247.202, 2746.367
1248.417, 2295.805
1249.633, 2124.605
1250.848, 2199.395
1252.063, 2015.984
1253.277, 2081.855
1254.492, 2130.672
1255.706, 1958.652
1256.920, 1843.824
1258.134, 1871.125
1259.348, 1919.570
1260.562, 1977.949
1261.775, 1616.941
1262.988, 2190.961
1264.201, 1979.691
1265.414, 2292.855
1266.627, 2042.930
1267.839, 2112.172
1269.052, 2168.000
1270.264, 2473.039
1271.476, 1958.504
1272.688, 2203.672
1273.899, 2288.109
1275.111, 2229.660
1276.322, 2035.105
1277.533, 2153.227
1278.744, 1739.008
1279.955, 1886.055
1281.165, 1731.527
1282.376, 1759.016
1283.586, 1478.121
1284.796, 1238.629
1286.006, 1101.902
1287.215, 1298.223
1288.425, 1193.227
1289.634, 1330.883
1290.843, 947.031
1292.052, 1370.969
1293.261, 1478.828
1294.469, 1355.934
1295.678, 1452.391
1296.886, 1370.055
1298.094, 1068.520
1299.302, 1086.070
1300.509, 1189.691
1301.717, 874.875
1302.924, 834.465
1304.131, 1062.477
1305.338, 1039.906
1306.545, 755.836
1307.752, 1181.316
1308.958, 1401.309
1310.164, 1079.906
1311.370, 1420.156
1312.576, 1283.059
1313.782, 1484.254
1314.987, 1025.922
1316.193, 1092.609
1317.398, 1136.508
1318.603, 1360.238
1319.807, 802.191
1321.012, 1121.121
1322.216, 961.914
1323.421, 547.266
1324.625, 740.402
1325.829, 461.449
1327.032, 906.730
1328.236, 370.406
1329.439, 4.492
1330.642, 1.387
1331.845, 3.520
1333.048, 79.551
1334.251, 451.176
1335.453, 266.586
1336.656, 426.469
1337.858, 463.785
1339.060, 446.215
1340.261, 765.609
1341.463, 425.812
1342.664, 255.395
1343.866, 518.711
1345.067, 389.281
1346.267, 743.074
1347.468, 430.293
1348.669, 226.941
1349.869, 381.621
1351.069, 814.652
1352.269, 449.754
1353.469, 669.336
1354.668, 569.719
1355.868, 579.336
1357.067, 1167.410
1358.266, 782.824
1359.465, 875.328
1360.664, 908.934
1361.862, 1004.699
1363.061, 1196.449
1364.259, 955.371
1365.457, 805.895
1366.655, 1143.516
1367.852, 819.074
1369.050, 861.938
1370.247, 868.422
1371.444, 1270.727
1372.641, 1007.207
1373.838, 913.199
1375.035, 964.039
1376.231, 716.625
1377.427, 934.379
1378.623, 949.113
1379.819, 723.199
1381.015, 744.855
1382.211, 414.160
1383.406, 291.930
1384.601, 362.805
1385.796, 40.023
1386.991, 115.891
1388.185, 23.953
1389.380, 536.699
1390.574, 195.176
1391.768, 139.684
1392.962, 12.605
1394.156, 164.203
1395.350, 93.094
1396.543, 69.031
1397.736, 188.402
1398.929, 77.770
1400.122, 129.145
1401.315, 336.285
1402.507, 20.000
1403.700, 345.305
1404.892, 99.703
1406.084, 429.324
1407.276, 51.637
1408.467, 378.547
1409.659, 302.711
1410.850, 311.379
1412.041, 268.949
1413.232, 252.547
1414.423, 703.316
1415.614, 67.758
1416.804, 23.012
1417.994, 160.098
1419.184, 585.555
1420.374, 103.895
1421.564, 383.438
1422.753, 32.156
1423.943, 317.453
1425.132, 22.004
1426.321, 359.793
1427.510, 34.895
1428.698, 127.969
1429.887, 43.785
1431.075, 153.215
1432.263, 185.754
1433.451, 61.895
1434.639, 310.398
1435.827, 427.984
1437.014, 888.387
1438.201, 1278.434
1439.388, 789.020
1440.575, 1398.043
1441.762, 1682.234
1442.949, 1821.000
1444.135, 1698.664
1445.321, 2355.570
1446.507, 1908.312
