##NAMES=Bikitaite
##RRUFFID=R050160
##IDEAL CHEMISTRY=LiAlSi_2_O_6_&#183;H_2_O
##LOCALITY=Foote mine, Kings Mountain, Cleveland County, North Carolina, USA
##OWNER=RRUFF
##SOURCE=Jim McGlasson
##DESCRIPTION=Colorless prismatic crystals
##STATUS=The identification of this mineral has been confirmed by X-ray diffraction and chemical analysis
##URL=rruff.info/R050160
##MEASURED CHEMISTRY=Li_1.00_Si_2.00_O_6_Â·1.25H_2_O ; Li not measured but estimated by stoichiometry
##PIN_ID=M00456
##ORIENTATION=Laser parallel to a* (1 0 0). Fiducial mark perpendicular to laser is parallel to b [0 1 0]
91.284, 0.000
92.678, 18.532
94.071, 22.847
95.465, 407.730
96.858, 665.322
98.251, 1274.188
99.644, 1950.300
101.036, 2653.466
102.428, 3580.673
103.820, 4394.897
105.212, 5593.441
106.604, 6713.624
107.995, 7830.734
109.387, 9090.854
110.777, 10179.870
112.168, 11527.623
113.559, 11908.872
114.949, 12140.799
116.339, 11916.906
117.729, 11308.066
119.119, 10210.201
120.508, 9189.729
121.897, 7744.820
123.286, 6413.463
124.675, 4443.471
126.063, 2834.508
127.452, 1830.353
128.840, 1102.060
130.228, 774.180
131.615, 693.100
133.003, 1024.157
134.390, 1444.797
135.777, 2327.876
137.164, 3120.656
138.550, 4568.599
139.937, 5453.389
141.323, 6616.132
142.709, 7062.658
144.094, 7084.951
145.480, 6961.248
146.865, 6610.581
148.250, 6173.978
149.635, 5918.458
151.019, 5539.045
152.403, 5238.757
153.788, 5059.608
155.171, 4836.583
156.555, 4661.621
157.939, 4262.650
159.322, 4182.641
160.705, 3858.614
162.088, 3265.593
163.470, 2770.558
164.853, 2420.209
166.235, 2129.918
167.617, 1758.718
168.998, 1342.616
170.380, 972.624
171.761, 555.749
173.142, 170.003
174.523, 16.348
175.904, 406.195
177.284, 414.911
178.664, 354.296
180.044, 31.952
181.424, 122.115
182.803, 179.467
184.183, 200.926
185.562, 62.825
186.940, 104.163
188.319, 59.244
189.698, 21.159
191.076, 274.774
192.454, 225.787
193.831, 153.967
195.209, 756.258
196.586, 1474.034
197.963, 2005.205
199.340, 2781.681
200.717, 3400.419
202.093, 4044.407
203.470, 4518.645
204.846, 4789.126
206.221, 4658.854
207.597, 4187.816
208.972, 3624.016
210.347, 2606.453
211.722, 2075.118
213.097, 1849.012
214.472, 1677.130
215.846, 1861.470
217.220, 1992.558
218.594, 2191.012
219.967, 2439.743
221.341, 2357.629
222.714, 2205.810
224.087, 1933.353
225.460, 1588.671
226.832, 1180.240
228.204, 889.058
229.577, 528.119
230.948, 290.422
232.320, 112.961
233.692, 197.733
235.063, 42.266
236.434, 71.039
237.805, 29.410
239.175, 79.078
240.545, 252.962
241.916, 579.057
243.286, 885.365
244.655, 1257.880
246.025, 1529.580
247.394, 1993.399
248.763, 2547.416
250.132, 2929.633
251.501, 3533.047
252.869, 3616.672
254.237, 3888.502
255.605, 3843.541
256.973, 3570.537
258.340, 3397.963
259.708, 2818.212
261.075, 2241.691
262.442, 1645.256
263.808, 1080.368
265.175, 399.681
266.541, 157.902
267.907, 192.142
269.273, 448.679
270.639, 245.773
272.004, 108.700
273.369, 106.448
274.734, 31.002
276.099, 28.637
277.463, 31.475
278.828, 235.417
280.192, 409.042
281.556, 339.732
282.919, 38.494
284.283, 313.452
285.646, 868.160
287.009, 1182.660
288.372, 1560.981
289.734, 2137.146
291.097, 2167.194
292.459, 2346.136
293.821, 2314.974
295.183, 2086.723
296.544, 1966.398
297.905, 1578.004
299.266, 1379.542
300.627, 1151.803
301.988, 795.649
303.348, 869.029
304.709, 513.187
306.069, 442.237
307.428, 477.017
308.788, 432.870
310.147, 440.800
311.507, 796.808
312.865, 1031.889
314.224, 1314.081
315.583, 1495.368
316.941, 1650.730
318.299, 1808.200
319.657, 1887.778
321.015, 2197.489
322.372, 2342.293
323.729, 2389.232
325.086, 2669.283
326.443, 2823.437
327.800, 2645.650
329.156, 2424.915
330.512, 1789.291
331.868, 1268.778
333.224, 867.346
334.579, 568.014
335.935, 596.802
337.290, 581.698
338.645, 653.715
339.999, 833.484
341.354, 1014.468
342.708, 1247.833
344.062, 1648.571
345.416, 1825.913
346.769, 2199.749
348.123, 2228.432
349.476, 2150.084
350.829, 2030.404
352.182, 2066.725
353.534, 1891.131
354.887, 1610.989
356.239, 1467.591
357.591, 1342.936
358.942, 1206.362
360.294, 1223.867
361.645, 1260.448
362.996, 1282.106
364.347, 1818.839
365.698, 2007.645
367.048, 2608.521
368.398, 3107.469
369.748, 3843.488
371.098, 4678.574
372.448, 5669.728
373.797, 6985.946
375.146, 7986.231
376.495, 9576.575
377.844, 11414.984
379.192, 12437.461
380.540, 14082.989
381.889, 14616.589
383.236, 15433.254
384.584, 16067.991
385.932, 15956.800
387.279, 15891.699
388.626, 15983.665
389.973, 16288.720
391.319, 16177.831
392.666, 17106.031
394.012, 17396.309
395.358, 17864.650
396.704, 18000.068
398.049, 17367.607
399.394, 16713.680
400.740, 14862.064
402.084, 13330.752
403.429, 11445.508
404.774, 9851.327
406.118, 8958.204
407.462, 7850.148
408.806, 6742.154
410.150, 6264.220
411.493, 5700.617
412.836, 5500.798
414.179, 5055.039
415.522, 4467.336
416.865, 4507.340
418.207, 4176.747
419.549, 4014.291
420.891, 3684.885
422.233, 3699.025
423.575, 3418.487
424.916, 3015.191
426.257, 3026.149
427.598, 2762.731
428.939, 2713.507
430.279, 2606.530
431.619, 2154.290
432.959, 1947.989
434.299, 1995.987
435.639, 1910.040
436.978, 1784.137
438.318, 1807.782
439.657, 1600.487
440.996, 1695.466
442.334, 1564.733
443.673, 1491.403
445.011, 1406.100
446.349, 1502.399
447.687, 1566.665
449.024, 1535.899
450.361, 1724.097
451.699, 1668.577
453.036, 2037.142
454.372, 2166.235
455.709, 2620.361
457.045, 2394.377
458.381, 2681.354
459.717, 2604.605
461.053, 2820.485
462.388, 2824.950
463.724, 2945.194
465.059, 3163.375
466.394, 3158.835
467.728, 3508.046
469.063, 4056.277
470.397, 4594.524
471.731, 5254.677
473.065, 6218.958
474.398, 6998.774
475.732, 8246.840
477.065, 8888.618
478.398, 9944.119
479.731, 10578.907
481.063, 11020.654
482.396, 11453.797
483.728, 11795.775
485.060, 12899.728
486.391, 13827.454
487.723, 15583.929
489.054, 17276.611
490.385, 19739.012
491.716, 22181.535
493.047, 24239.148
494.377, 26016.920
495.708, 27803.344
497.038, 28420.395
498.368, 27714.592
499.697, 26359.037
501.027, 24654.742
502.356, 22263.791
503.685, 19326.965
505.014, 16884.031
506.342, 14084.064
507.671, 12146.081
508.999, 10299.781
510.327, 8816.930
511.655, 7539.065
512.982, 6466.752
514.310, 5815.341
515.637, 4666.860
516.964, 4264.484
518.291, 3642.106
519.617, 3367.724
520.944, 3154.341
522.270, 2480.951
523.596, 2564.557
524.921, 2055.159
526.247, 2034.752
527.572, 1923.347
528.897, 1866.934
530.222, 1921.511
531.547, 1846.081
532.871, 2029.652
534.196, 2063.211
535.520, 2013.770
536.844, 2343.327
538.167, 2293.872
539.491, 2350.418
540.814, 2284.953
542.137, 2118.486
543.460, 1812.001
544.783, 1641.506
546.105, 1342.010
547.427, 1111.508
548.749, 927.989
550.071, 691.451
551.393, 612.904
552.714, 603.347
554.035, 420.771
555.356, 388.172
556.677, 343.599
557.998, 158.025
559.318, 351.455
560.638, 218.875
561.958, 201.270
563.278, 89.641
564.597, 163.998
565.917, 131.328
567.236, 90.642
568.555, 140.929
569.874, 52.813
571.192, 34.384
572.511, 68.562
573.829, 19.712
575.147, 56.170
576.464, 99.890
577.782, 120.071
579.099, 89.133
580.416, 105.155
581.733, 99.516
583.050, 6.144
584.366, 75.222
585.683, 65.325
586.999, 56.162
588.315, 96.516
589.630, 69.333
590.946, 71.882
592.261, 53.357
593.576, 55.747
594.891, 4.297
596.206, 67.952
597.520, 88.490
598.834, 54.635
600.148, 37.833
601.462, 36.750
602.776, 77.545
604.089, 31.325
605.402, 12.052
606.715, 10.705
608.028, 75.296
609.341, 85.108
610.653, 71.642
611.965, 37.696
613.277, 32.997
614.589, 0.209
615.901, 24.345
617.212, 41.429
618.523, 22.807
619.834, 88.736
621.145, 147.234
622.456, 242.689
623.766, 112.102
625.076, 308.469
626.386, 264.793
627.696, 343.072
629.006, 44.308
630.315, 291.490
631.624, 1.762
632.933, 18.352
634.242, 110.579
635.551, 30.430
636.859, 6.233
638.167, 154.157
639.475, 0.318
640.783, 159.280
642.090, 43.013
643.398, 0.844
644.705, 33.731
646.012, 93.707
647.318, 54.808
648.625, 58.009
649.931, 40.391
651.237, 8.953
652.543, 109.728
653.849, 52.854
655.155, 124.620
656.460, 6.221
657.765, 55.558
659.070, 87.397
660.375, 51.968
661.679, 27.133
662.984, 19.257
664.288, 55.971
665.592, 72.113
666.895, 108.533
668.199, 125.526
669.502, 103.293
670.805, 278.882
672.108, 406.367
673.411, 488.331
674.713, 454.597
676.016, 773.354
677.318, 830.079
678.620, 974.549
679.921, 1188.957
681.223, 1324.478
682.524, 1422.878
683.825, 1483.571
685.126, 1631.721
686.427, 1600.805
687.727, 1400.846
689.028, 1288.278
690.328, 1396.168
691.628, 1251.885
692.927, 1054.855
694.227, 1007.551
695.526, 796.394
696.825, 1201.174
698.124, 1050.547
699.423, 1236.980
700.721, 1116.608
702.020, 1194.562
703.318, 1090.090
704.616, 1101.256
705.913, 1029.356
707.211, 1181.908
708.508, 1317.811
709.805, 1205.729
711.102, 957.559
712.399, 1150.062
713.695, 974.988
714.992, 1075.615
716.288, 1010.173
717.584, 1044.664
718.879, 824.128
720.175, 789.172
721.470, 997.459
722.765, 893.987
724.060, 885.136
725.355, 879.218
726.649, 845.958
727.944, 787.130
729.238, 1013.007
730.532, 626.814
731.825, 766.900
733.119, 735.758
734.412, 631.222
735.705, 549.942
736.998, 651.679
738.291, 519.207
739.584, 590.987
740.876, 664.892
742.168, 854.096
743.460, 802.681
744.752, 852.284
746.043, 1037.096
747.334, 1230.614
748.626, 1262.247
749.916, 1455.463
751.207, 1843.983
752.498, 2134.963
753.788, 2639.613
755.078, 2714.525
756.368, 3306.967
757.658, 3712.361
758.947, 3951.706
760.237, 4497.354
761.526, 4385.345
762.815, 4553.560
764.104, 4517.731
765.392, 4310.542
766.680, 4149.317
767.969, 3637.280
769.257, 3714.223
770.544, 3114.201
771.832, 2845.146
773.119, 2478.413
774.406, 2174.312
775.693, 2167.565
776.980, 1783.982
778.267, 1684.411
779.553, 1569.518
780.839, 1409.835
782.125, 1327.094
783.411, 1403.297
784.697, 1172.555
785.982, 1190.645
787.267, 1168.165
788.552, 1285.395
789.837, 1079.868
791.122, 1131.584
792.406, 867.960
793.690, 783.350
794.974, 789.293
796.258, 726.358
797.542, 659.412
798.825, 502.644
800.108, 580.094
801.391, 244.290
802.674, 344.724
803.957, 263.994
805.239, 101.127
806.522, 478.045
807.804, 5.714
809.085, 337.832
810.367, 234.194
811.649, 162.270
812.930, 157.106
814.211, 119.744
815.492, 86.371
816.772, 91.237
818.053, 92.267
819.333, 144.480
820.613, 39.149
821.893, 152.602
823.173, 86.166
824.452, 128.320
825.732, 137.713
827.011, 153.315
828.290, 57.882
829.568, 42.413
830.847, 35.912
832.125, 113.377
833.403, 126.807
834.681, 33.207
835.959, 41.572
837.236, 9.094
838.514, 72.195
839.791, 72.453
841.068, 56.681
842.345, 14.048
843.621, 85.025
844.898, 16.858
846.174, 20.789
847.450, 183.231
848.726, 26.828
850.001, 13.161
851.277, 20.887
852.552, 51.925
853.827, 5.754
855.102, 35.128
856.376, 9.260
857.651, 42.998
858.925, 92.672
860.199, 29.677
861.473, 23.073
862.746, 18.492
864.020, 161.032
865.293, 149.458
866.566, 0.958
867.839, 35.340
869.112, 3.318
870.384, 127.024
871.656, 8.327
872.928, 36.715
874.200, 18.850
875.472, 10.655
876.744, 45.264
878.015, 120.550
879.286, 140.358
880.557, 22.465
881.828, 22.868
883.098, 18.923
884.369, 13.461
885.639, 23.043
886.909, 15.905
888.178, 26.179
889.448, 45.711
890.717, 113.206
891.987, 38.740
893.256, 19.283
894.524, 86.318
895.793, 13.660
897.061, 12.683
898.330, 5.401
899.598, 28.453
900.865, 161.519
902.133, 50.403
903.401, 19.341
904.668, 107.756
905.935, 52.897
907.202, 57.062
908.468, 139.241
909.735, 159.456
911.001, 68.704
912.267, 44.015
913.533, 47.107
914.799, 25.593
916.064, 7.945
917.330, 187.329
918.595, 31.169
919.860, 24.775
921.124, 224.771
922.389, 55.321
923.653, 50.908
924.918, 35.471
926.182, 85.167
927.445, 69.835
928.709, 30.504
929.972, 35.189
931.236, 38.882
932.499, 110.575
933.761, 230.278
935.024, 15.993
936.286, 43.711
937.549, 156.439
938.811, 56.182
940.073, 291.964
941.334, 103.771
942.596, 215.586
943.857, 354.455
945.118, 319.365
946.379, 282.347
947.640, 574.349
948.900, 824.426
950.161, 913.546
951.421, 1115.716
952.681, 1451.928
953.940, 2072.195
955.200, 2906.510
956.459, 3466.895
957.719, 4690.993
958.978, 5606.431
960.236, 6548.114
961.495, 7180.664
962.753, 8058.275
964.012, 7999.932
965.270, 7796.623
966.527, 7734.326
967.785, 7248.973
969.043, 6708.708
970.300, 5858.503
971.557, 5628.361
972.814, 4241.889
974.071, 3487.789
975.327, 2440.683
976.583, 1989.653
977.840, 1750.634
979.095, 1364.669
980.351, 993.611
981.607, 839.508
982.862, 580.386
984.117, 580.469
985.372, 664.561
986.627, 221.507
987.882, 533.535
989.136, 499.234
990.390, 405.424
991.644, 635.647
992.898, 729.884
994.152, 929.698
995.405, 1131.000
996.659, 1276.448
997.912, 1660.606
999.165, 1808.009
1000.417, 2001.215
1001.670, 1659.451
1002.922, 1706.067
1004.174, 1266.573
1005.426, 979.832
1006.678, 850.732
1007.930, 717.016
1009.181, 616.609
1010.432, 515.219
1011.683, 427.365
1012.934, 491.122
1014.185, 504.827
1015.435, 667.590
1016.685, 654.632
1017.935, 577.198
1019.185, 743.034
1020.435, 1341.890
1021.684, 855.760
1022.934, 694.604
1024.183, 750.839
1025.432, 409.780
1026.680, 689.428
1027.929, 535.404
1029.177, 637.399
1030.425, 703.424
1031.673, 1002.242
1032.921, 1094.304
1034.169, 1150.382
1035.416, 1630.489
1036.663, 2012.422
1037.911, 2174.640
1039.157, 2199.577
1040.404, 2287.935
1041.650, 1941.150
1042.897, 1610.828
1044.143, 1201.101
1045.389, 971.392
1046.634, 924.052
1047.880, 619.542
1049.125, 501.914
1050.371, 405.305
1051.615, 506.715
1052.860, 266.272
1054.105, 388.098
1055.349, 317.581
1056.593, 249.109
1057.837, 84.628
1059.081, 389.693
1060.325, 278.240
1061.568, 359.805
1062.812, 330.037
1064.055, 335.178
1065.298, 191.956
1066.540, 311.738
1067.783, 209.163
1069.025, 274.008
1070.267, 466.188
1071.509, 296.863
1072.751, 429.893
1073.993, 687.821
1075.234, 539.959
1076.475, 787.734
1077.716, 916.550
1078.957, 968.923
1080.198, 1218.254
1081.438, 1660.021
1082.679, 1748.800
1083.919, 2285.625
1085.159, 2461.426
1086.398, 3099.392
1087.638, 3149.005
1088.877, 3390.279
1090.116, 3421.439
1091.355, 3434.290
1092.594, 3212.035
1093.833, 2867.917
1095.071, 2378.220
1096.309, 2093.257
1097.547, 2093.146
1098.785, 1800.227
1100.023, 1841.417
1101.260, 1688.518
1102.498, 1927.605
1103.735, 1630.860
1104.972, 1845.429
1106.208, 1742.362
1107.445, 1600.754
1108.681, 1426.132
1109.918, 1323.655
1111.154, 952.126
1112.389, 1078.568
1113.625, 722.089
1114.860, 741.425
1116.096, 759.939
1117.331, 734.695
1118.566, 642.851
1119.800, 848.330
1121.035, 951.583
1122.269, 925.895
1123.503, 1112.928
1124.737, 1110.499
1125.971, 1081.817
1127.205, 1274.990
1128.438, 919.426
1129.671, 1042.865
1130.904, 749.951
1132.137, 840.450
1133.370, 567.734
1134.602, 694.661
1135.834, 470.714
1137.066, 392.286
1138.298, 572.483
1139.530, 219.079
1140.762, 570.681
1141.993, 478.290
1143.224, 507.670
1144.455, 381.302
1145.686, 449.949
1146.917, 724.625
1148.147, 815.983
1149.377, 761.667
1150.607, 765.697
1151.837, 1033.825
1153.067, 1069.090
1154.296, 1135.073
1155.526, 1217.493
1156.755, 1057.699
1157.984, 1290.253
1159.213, 1172.198
1160.441, 1132.714
1161.670, 1188.595
1162.898, 1259.337
1164.126, 980.860
1165.354, 975.139
1166.581, 969.912
1167.809, 973.147
1169.036, 532.509
1170.263, 703.516
1171.490, 678.274
1172.717, 601.176
1173.943, 356.335
1175.170, 307.448
1176.396, 354.779
1177.622, 389.989
1178.848, 284.107
1180.073, 152.913
1181.299, 269.010
1182.524, 224.603
1183.749, 218.324
1184.974, 320.580
1186.199, 251.805
1187.423, 215.924
1188.648, 137.097
1189.872, 192.461
1191.096, 137.134
1192.320, 77.282
1193.543, 150.007
1194.767, 138.299
1195.990, 62.351
1197.213, 112.626
1198.436, 89.518
1199.659, 193.297
1200.881, 31.125
1202.104, 212.132
1203.326, 55.086
1204.548, 143.755
1205.770, 3.851
1206.991, 145.846
1208.213, 75.662
1209.434, 91.983
1210.655, 10.371
1211.876, 35.622
1213.096, 39.868
1214.317, 49.381
1215.537, 6.837
1216.757, 0.263
1217.977, 100.440
1219.197, 6.528
1220.417, 35.901
1221.636, 23.785
1222.855, 37.778
1224.074, 77.205
1225.293, 2.567
1226.512, 14.935
1227.731, 157.933
1228.949, 20.774
1230.167, 35.976
1231.385, 171.783
1232.603, 7.412
1233.820, 31.707
1235.038, 7.952
1236.255, 39.119
1237.472, 249.798
1238.689, 1.858
1239.906, 117.959
1241.122, 20.478
1242.338, 87.979
1243.555, 145.458
1244.771, 84.913
1245.986, 21.671
1247.202, 86.692
1248.417, 93.031
1249.633, 56.345
1250.848, 28.777
1252.063, 138.748
1253.277, 31.879
1254.492, 38.153
1255.706, 9.209
1256.920, 23.202
1258.134, 33.146
1259.348, 9.614
1260.562, 61.813
1261.775, 21.531
1262.988, 12.460
1264.201, 109.819
1265.414, 34.343
1266.627, 3.168
1267.839, 81.226
1269.052, 148.555
1270.264, 71.717
1271.476, 81.987
1272.688, 96.850
1273.899, 54.147
1275.111, 54.142
1276.322, 139.100
1277.533, 40.005
1278.744, 90.871
1279.955, 12.337
1281.165, 12.569
1282.376, 14.906
1283.586, 112.720
1284.796, 24.980
1286.006, 30.431
1287.215, 2.846
1288.425, 68.421
1289.634, 28.538
1290.843, 16.834
1292.052, 2.914
1293.261, 73.073
1294.469, 0.535
1295.678, 27.407
1296.886, 129.997
1298.094, 94.866
1299.302, 10.307
1300.509, 3.536
1301.717, 109.188
1302.924, 27.867
1304.131, 88.714
1305.338, 17.936
1306.545, 32.434
1307.752, 3.499
1308.958, 28.390
1310.164, 87.727
1311.370, 35.364
1312.576, 92.252
1313.782, 61.441
1314.987, 142.580
1316.193, 1.359
1317.398, 162.716
1318.603, 97.713
1319.807, 107.668
1321.012, 51.585
1322.216, 27.906
1323.421, 94.249
1324.625, 167.390
1325.829, 92.835
1327.032, 9.445
1328.236, 176.236
1329.439, 46.884
1330.642, 39.504
1331.845, 74.064
1333.048, 59.599
1334.251, 24.108
1335.453, 19.837
1336.656, 54.016
1337.858, 150.420
1339.060, 8.201
1340.261, 9.293
1341.463, 22.663
1342.664, 92.884
1343.866, 114.136
1345.067, 31.486
1346.267, 12.186
1347.468, 54.378
1348.669, 116.532
1349.869, 203.704
1351.069, 97.335
1352.269, 63.500
1353.469, 262.664
1354.668, 162.831
1355.868, 182.726
1357.067, 270.745
1358.266, 35.943
1359.465, 214.378
1360.664, 298.534
1361.862, 86.387
1363.061, 267.717
1364.259, 94.995
1365.457, 103.209
1366.655, 316.615
1367.852, 233.578
1369.050, 175.170
1370.247, 212.306
1371.444, 200.722
1372.641, 60.284
1373.838, 252.522
1375.035, 198.023
1376.231, 144.498
1377.427, 177.129
1378.623, 218.470
1379.819, 38.293
1381.015, 152.364
1382.211, 192.933
1383.406, 319.670
1384.601, 213.287
1385.796, 339.764
1386.991, 323.587
1388.185, 249.360
1389.380, 219.656
1390.574, 416.349
1391.768, 290.186
1392.962, 350.913
1394.156, 156.372
1395.350, 216.368
1396.543, 260.503
1397.736, 101.910
1398.929, 353.626
1400.122, 253.423
1401.315, 334.273
1402.507, 288.398
1403.700, 322.540
1404.892, 158.994
1406.084, 90.664
1407.276, 210.686
1408.467, 335.648
1409.659, 111.254
1410.850, 185.731
1412.041, 382.413
1413.232, 125.354
1414.423, 287.416
1415.614, 79.495
1416.804, 210.463
1417.994, 224.961
1419.184, 322.773
1420.374, 133.126
1421.564, 273.359
1422.753, 230.286
1423.943, 216.148
1425.132, 152.235
1426.321, 404.640
1427.510, 317.920
1428.698, 337.486
1429.887, 305.724
1431.075, 299.722
1432.263, 147.284
1433.451, 112.527
1434.639, 269.729
1435.827, 328.131
1437.014, 133.604
1438.201, 523.960
1439.388, 458.692
1440.575, 293.399
1441.762, 459.062
1442.949, 497.119
1444.135, 537.131
1445.321, 432.175
1446.507, 378.883
1447.693, 406.634
1448.879, 391.013
1450.064, 492.435
1451.250, 514.773
1452.435, 277.926
1453.620, 744.041
1454.805, 567.025
1455.989, 404.131
1457.174, 769.773
1458.358, 364.834
1459.542, 348.047
1460.726, 530.481
1461.910, 454.014
1463.093, 644.791
1464.277, 569.897
1465.460, 328.278
1466.643, 589.776
1467.826, 310.312
1469.009, 510.947
1470.191, 277.711
1471.373, 496.703
1472.556, 411.998
1473.738, 445.657
1474.919, 219.570
1476.101, 346.605
1477.283, 341.748
1478.464, 265.045
1479.645, 182.502
1480.826, 248.133
1482.007, 189.974
1483.187, 655.088
1484.368, 267.485
1485.548, 187.208
1486.728, 156.317
1487.908, 89.851
1489.088, 92.832
1490.268, 391.273
1491.447, 218.192
1492.626, 133.629
1493.805, 302.646
1494.984, 318.269
1496.163, 168.534
1497.341, 199.529
1498.520, 221.351
1499.698, 3.112
1500.876, 230.939
1502.054, 9.974
1503.232, 105.362
1504.409, 102.316
1505.586, 49.082
1506.763, 189.002
1507.940, 149.703
1509.117, 10.029
