##NAMES=Bikitaite
##RRUFFID=R050160
##IDEAL CHEMISTRY=LiAlSi_2_O_6_&#183;H_2_O
##LOCALITY=Foote mine, Kings Mountain, Cleveland County, North Carolina, USA
##OWNER=RRUFF
##SOURCE=Jim McGlasson
##DESCRIPTION=Colorless prismatic crystals
##STATUS=The identification of this mineral has been confirmed by X-ray diffraction and chemical analysis
##URL=rruff.info/R050160
##MEASURED CHEMISTRY=Li_1.00_Si_2.00_O_6_Â·1.25H_2_O ; Li not measured but estimated by stoichiometry
##PIN_ID=M00081
##ORIENTATION=Laser parallel to (-1 -1 0). Fiducial mark perpendicular to laser is parallel to -c [0 0 -1]
73.144, 0.000
74.540, 29.554
75.937, 45.217
77.333, 1190.567
78.729, 3136.542
80.125, 6044.543
81.521, 8589.982
82.916, 11866.216
84.311, 14430.884
85.706, 15187.315
87.101, 12263.697
88.496, 7659.115
89.890, 4502.885
91.284, 2742.343
92.678, 1920.193
94.071, 1728.155
95.465, 2146.127
96.858, 2549.843
98.251, 3443.102
99.644, 4532.823
101.036, 5644.417
102.428, 7779.378
103.820, 8491.821
105.212, 10200.506
106.604, 12321.443
107.995, 14436.020
109.387, 16709.541
110.777, 18556.281
112.168, 20964.881
113.559, 21723.502
114.949, 21487.344
116.339, 19870.602
117.729, 17201.988
119.119, 13917.954
120.508, 10853.859
121.897, 8078.656
123.286, 6490.149
124.675, 4775.167
126.063, 3584.748
127.452, 3129.378
128.840, 2467.679
130.228, 2124.232
131.615, 1703.722
133.003, 1689.886
134.390, 1451.488
135.777, 1231.752
137.164, 948.465
138.550, 1134.676
139.937, 1002.432
141.323, 1066.768
142.709, 1120.685
144.094, 1179.146
145.480, 1285.109
146.865, 1496.578
148.250, 1732.586
149.635, 2018.172
151.019, 2299.259
152.403, 2622.088
153.788, 2999.683
155.171, 3441.410
156.555, 3857.732
157.939, 4014.012
159.322, 4041.622
160.705, 3748.656
162.088, 3581.241
163.470, 3350.457
164.853, 2893.340
166.235, 2591.905
167.617, 2353.151
168.998, 2069.281
170.380, 1911.521
171.761, 1479.175
173.142, 1141.366
174.523, 992.118
175.904, 486.978
177.284, 190.363
178.664, 72.078
180.044, 505.648
181.424, 553.066
182.803, 309.197
184.183, 0.518
185.562, 116.121
186.940, 78.664
188.319, 187.149
189.698, 107.579
191.076, 180.957
192.454, 31.715
193.831, 212.436
195.209, 518.204
196.586, 58.564
197.963, 496.368
199.340, 1136.324
200.717, 1890.432
202.093, 2767.685
203.470, 3180.083
204.846, 3474.618
206.221, 3201.263
207.597, 2829.992
208.972, 2334.746
210.347, 1607.932
211.722, 1179.339
213.097, 1112.952
214.472, 1053.730
215.846, 1341.717
217.220, 1599.034
218.594, 1774.288
219.967, 1892.687
221.341, 1731.224
222.714, 1547.897
224.087, 1057.701
225.460, 614.634
226.832, 118.693
228.204, 144.124
229.577, 485.823
230.948, 275.861
232.320, 138.517
233.692, 145.261
235.063, 89.332
236.434, 99.215
237.805, 235.778
239.175, 356.961
240.545, 509.991
241.916, 61.074
243.286, 116.508
244.655, 415.663
246.025, 833.628
247.394, 1193.845
248.763, 1743.887
250.132, 2140.437
251.501, 2558.226
252.869, 2761.038
254.237, 3021.685
255.605, 2918.994
256.973, 2683.827
258.340, 2239.094
259.708, 1604.722
261.075, 943.633
262.442, 538.761
263.808, 68.049
265.175, 238.526
266.541, 292.890
267.907, 246.350
269.273, 5.679
270.639, 54.238
272.004, 154.420
273.369, 93.901
274.734, 22.662
276.099, 48.649
277.463, 46.861
278.828, 163.715
280.192, 319.172
281.556, 187.650
282.919, 254.115
284.283, 544.662
285.646, 982.034
287.009, 1299.225
288.372, 1806.193
289.734, 2278.922
291.097, 2353.320
292.459, 2534.488
293.821, 2743.409
295.183, 2598.102
296.544, 2832.551
297.905, 2853.876
299.266, 3171.212
300.627, 3071.529
301.988, 2726.826
303.348, 2106.079
304.709, 1548.298
306.069, 1145.501
307.428, 973.655
308.788, 997.766
310.147, 984.830
311.507, 1263.888
312.865, 1412.940
314.224, 1667.996
315.583, 1799.978
316.941, 2079.299
318.299, 2280.994
319.657, 2660.075
321.015, 3235.587
322.372, 3884.794
323.729, 4527.088
325.086, 5174.429
326.443, 5363.810
327.800, 4711.233
329.156, 4208.697
330.512, 3115.167
331.868, 2367.642
333.224, 1642.102
334.579, 1317.115
335.935, 947.576
337.290, 972.468
338.645, 956.796
339.999, 1070.577
341.354, 1341.846
342.708, 1553.527
344.062, 1857.110
345.416, 2074.530
346.769, 2318.785
348.123, 2355.108
349.476, 2197.852
350.829, 2140.982
352.182, 2004.370
353.534, 1921.787
354.887, 1662.646
356.239, 1486.481
357.591, 1404.498
358.942, 1388.734
360.294, 1408.225
361.645, 1513.723
362.996, 1802.226
364.347, 2091.733
365.698, 2428.242
367.048, 2986.755
368.398, 3464.267
369.748, 4152.780
371.098, 5026.296
372.448, 5927.809
373.797, 7374.324
375.146, 8568.848
376.495, 10323.379
377.844, 12300.918
379.192, 13488.480
380.540, 15620.061
381.889, 16714.656
383.236, 17710.264
384.584, 18371.895
385.932, 18467.547
387.279, 18435.209
388.626, 18249.887
389.973, 18847.576
391.319, 18899.412
392.666, 20188.176
394.012, 20807.883
395.358, 21388.105
396.704, 21870.447
398.049, 21253.902
399.394, 19814.461
400.740, 17430.898
402.084, 15246.824
403.429, 13171.750
404.774, 11524.729
406.118, 10721.727
407.462, 9474.708
408.806, 8739.656
410.150, 8298.565
411.493, 8036.862
412.836, 7775.664
414.179, 7248.401
415.522, 6799.634
416.865, 6593.589
418.207, 6023.106
419.549, 5371.201
420.891, 4837.960
422.233, 4365.244
423.575, 3852.199
424.916, 3161.292
426.257, 2937.881
427.598, 2552.545
428.939, 2190.658
430.279, 1982.518
431.619, 1678.093
432.959, 1556.504
434.299, 1499.985
435.639, 1446.920
436.978, 1255.542
438.318, 1384.973
439.657, 1109.329
440.996, 1092.477
442.334, 1009.460
443.673, 819.915
445.011, 671.177
446.349, 639.259
447.687, 454.583
449.024, 477.453
450.361, 501.720
451.699, 363.918
453.036, 434.513
454.372, 465.565
455.709, 531.994
457.045, 589.346
458.381, 860.716
459.717, 1025.849
461.053, 1317.266
462.388, 1740.346
463.724, 2237.892
465.059, 2888.498
466.394, 3454.381
467.728, 4126.588
469.063, 5039.902
470.397, 5814.144
471.731, 6721.234
473.065, 7954.805
474.398, 8937.155
475.732, 10360.381
477.065, 11132.682
478.398, 12072.320
479.731, 12637.312
481.063, 13015.977
482.396, 13451.362
483.728, 14207.293
485.060, 15362.246
486.391, 16704.391
487.723, 18930.164
489.054, 21312.598
490.385, 24826.889
491.716, 28109.416
493.047, 30961.289
494.377, 34117.664
495.708, 36290.031
497.038, 37097.855
498.368, 35941.254
499.697, 33945.641
501.027, 31594.725
502.356, 28239.500
503.685, 24466.355
505.014, 21379.342
506.342, 18110.531
507.671, 15664.437
508.999, 13436.837
510.327, 11602.347
511.655, 9855.119
512.982, 8619.510
514.310, 7675.443
515.637, 6538.710
516.964, 5936.881
518.291, 5093.446
519.617, 4685.774
520.944, 4177.079
522.270, 3477.359
523.596, 3409.613
524.921, 2943.843
526.247, 2720.047
527.572, 2653.225
528.897, 2247.376
530.222, 2180.503
531.547, 2090.600
532.871, 2094.674
534.196, 1947.721
535.520, 2112.738
536.844, 2311.728
538.167, 2237.689
539.491, 2265.625
540.814, 2288.531
542.137, 2110.408
543.460, 1922.256
544.783, 1636.074
546.105, 1278.863
547.427, 1167.620
548.749, 926.347
550.071, 674.042
551.393, 644.753
552.714, 513.586
554.035, 471.553
555.356, 325.652
556.677, 208.881
557.998, 222.241
559.318, 189.736
560.638, 205.362
561.958, 99.119
563.278, 14.835
564.597, 123.036
565.917, 47.869
567.236, 118.668
568.555, 135.438
569.874, 53.823
571.192, 40.857
572.511, 40.499
573.829, 22.895
575.147, 3.341
576.464, 147.168
577.782, 23.357
579.099, 64.936
580.416, 43.590
581.733, 24.304
583.050, 42.928
584.366, 89.872
585.683, 59.240
586.999, 29.587
588.315, 319.701
589.630, 8.864
590.946, 2.287
592.261, 21.578
593.576, 71.732
594.891, 2.788
596.206, 102.289
597.520, 57.508
598.834, 2.870
600.148, 104.852
601.462, 51.060
602.776, 7.457
604.089, 33.543
605.402, 77.454
606.715, 2.084
608.028, 35.764
609.341, 61.511
610.653, 14.767
611.965, 4.277
613.277, 11.369
614.589, 46.102
615.901, 47.200
617.212, 44.618
618.523, 33.149
619.834, 60.220
621.145, 8.471
622.456, 35.181
623.766, 64.259
625.076, 128.149
626.386, 13.225
627.696, 113.254
629.006, 38.547
630.315, 48.608
631.624, 63.254
632.933, 142.230
634.242, 29.362
635.551, 151.586
636.859, 94.972
638.167, 218.487
639.475, 72.196
640.783, 162.022
642.090, 1.991
643.398, 29.779
644.705, 29.873
646.012, 38.183
647.318, 25.964
648.625, 61.058
649.931, 147.107
651.237, 5.118
652.543, 34.097
653.849, 24.108
655.155, 26.947
656.460, 27.630
657.765, 19.603
659.070, 29.893
660.375, 69.304
661.679, 54.126
662.984, 7.448
664.288, 26.990
665.592, 16.174
666.895, 29.345
668.199, 38.467
669.502, 110.033
670.805, 37.788
672.108, 189.452
673.411, 251.067
674.713, 194.680
676.016, 362.199
677.318, 442.671
678.620, 458.096
679.921, 578.557
681.223, 575.886
682.524, 565.169
683.825, 724.404
685.126, 938.841
686.427, 1051.981
687.727, 1016.124
689.028, 1133.350
690.328, 1188.351
691.628, 1338.399
692.927, 1403.302
694.227, 1318.160
695.526, 1052.285
696.825, 1259.049
698.124, 1096.764
699.423, 1225.433
700.721, 945.055
702.020, 1020.630
703.318, 930.158
704.616, 881.647
705.913, 706.089
707.211, 679.494
708.508, 805.850
709.805, 832.160
711.102, 560.421
712.399, 737.631
713.695, 569.793
714.992, 626.122
716.288, 459.181
717.584, 570.189
718.879, 319.144
720.175, 446.541
721.470, 489.388
722.765, 395.181
724.060, 461.513
725.355, 420.294
726.649, 398.422
727.944, 447.011
729.238, 686.546
730.532, 400.471
731.825, 680.560
733.119, 623.206
734.412, 551.902
735.705, 549.836
736.998, 595.629
738.291, 605.075
739.584, 744.566
740.876, 768.452
742.168, 914.524
743.460, 899.277
744.752, 1053.648
746.043, 1378.896
747.334, 1721.237
748.626, 1941.139
749.916, 2186.124
751.207, 2921.086
752.498, 3327.729
753.788, 4000.439
755.078, 4583.000
756.368, 5534.863
757.658, 6259.942
758.947, 6794.945
760.237, 7489.669
761.526, 7676.335
762.815, 7935.370
764.104, 7747.891
765.392, 7505.360
766.680, 6993.680
767.969, 6266.346
769.257, 5908.256
770.544, 5067.454
771.832, 4518.053
773.119, 3960.591
774.406, 3458.146
775.693, 3226.956
776.980, 2713.460
778.267, 2483.872
779.553, 2227.631
780.839, 2077.982
782.125, 1801.147
783.411, 1685.262
784.697, 1488.485
785.982, 1376.147
787.267, 1246.946
788.552, 1180.790
789.837, 1049.478
791.122, 925.067
792.406, 723.908
793.690, 694.014
794.974, 713.323
796.258, 540.020
797.542, 543.640
798.825, 488.995
800.108, 503.636
801.391, 310.575
802.674, 371.580
803.957, 221.282
805.239, 166.565
806.522, 323.284
807.804, 58.944
809.085, 276.098
810.367, 220.613
811.649, 128.066
812.930, 133.797
814.211, 68.756
815.492, 15.624
816.772, 124.465
818.053, 21.228
819.333, 81.404
820.613, 7.216
821.893, 116.052
823.173, 64.752
824.452, 20.111
825.732, 166.844
827.011, 106.509
828.290, 53.393
829.568, 155.004
830.847, 90.980
832.125, 117.928
833.403, 39.752
834.681, 112.458
835.959, 148.497
837.236, 149.864
838.514, 12.712
839.791, 54.355
841.068, 40.842
842.345, 18.585
843.621, 120.302
844.898, 26.996
846.174, 64.664
847.450, 81.309
848.726, 1.931
850.001, 58.526
851.277, 60.099
852.552, 130.650
853.827, 91.179
855.102, 107.686
856.376, 90.172
857.651, 227.429
858.925, 360.873
860.199, 164.252
861.473, 209.653
862.746, 193.035
864.020, 211.396
865.293, 85.737
866.566, 89.058
867.839, 15.641
869.112, 68.631
870.384, 92.883
871.656, 26.118
872.928, 0.956
874.200, 59.363
875.472, 41.535
876.744, 6.901
878.015, 15.236
879.286, 25.428
880.557, 44.938
881.828, 167.999
883.098, 73.472
884.369, 44.584
885.639, 1.855
886.909, 37.153
888.178, 13.497
889.448, 11.920
890.717, 87.162
891.987, 1.851
893.256, 8.116
894.524, 104.099
895.793, 165.069
897.061, 18.964
898.330, 47.394
899.598, 7.884
900.865, 78.783
902.133, 8.319
903.401, 17.587
904.668, 22.486
905.935, 0.376
907.202, 22.747
908.468, 86.110
909.735, 44.999
911.001, 66.896
912.267, 25.208
913.533, 41.364
914.799, 51.500
916.064, 147.410
917.330, 79.451
918.595, 29.337
919.860, 3.973
921.124, 105.286
922.389, 20.735
923.653, 28.735
924.918, 9.713
926.182, 29.342
927.445, 15.433
928.709, 3.424
929.972, 10.718
931.236, 50.933
932.499, 32.148
933.761, 114.381
935.024, 31.367
936.286, 14.866
937.549, 198.135
938.811, 15.439
940.073, 186.790
941.334, 90.204
942.596, 5.345
943.857, 185.168
945.118, 248.733
946.379, 187.383
947.640, 270.080
948.900, 495.845
950.161, 624.642
951.421, 715.468
952.681, 892.347
953.940, 1418.257
955.200, 1726.176
956.459, 2461.132
957.719, 3234.087
958.978, 3890.057
960.236, 4539.757
961.495, 4339.799
962.753, 3947.852
964.012, 3188.934
965.270, 2875.097
966.527, 2874.131
967.785, 3283.939
969.043, 3943.235
970.300, 4440.206
971.557, 4662.557
972.814, 4588.517
974.071, 4008.927
975.327, 3588.354
976.583, 2836.779
977.840, 2137.251
979.095, 1542.727
980.351, 979.161
981.607, 852.647
982.862, 622.137
984.117, 374.630
985.372, 392.041
986.627, 185.545
987.882, 302.052
989.136, 457.561
990.390, 315.778
991.644, 430.237
992.898, 374.868
994.152, 347.241
995.405, 338.794
996.659, 265.258
997.912, 351.828
999.165, 242.403
1000.417, 324.668
1001.670, 96.252
1002.922, 453.840
1004.174, 206.434
1005.426, 117.034
1006.678, 40.668
1007.930, 23.293
1009.181, 67.933
1010.432, 14.169
1011.683, 56.186
1012.934, 22.811
1014.185, 124.443
1015.435, 163.079
1016.685, 108.721
1017.935, 108.368
1019.185, 184.803
1020.435, 160.458
1021.684, 106.119
1022.934, 13.784
1024.183, 118.083
1025.432, 22.759
1026.680, 55.439
1027.929, 11.892
1029.177, 40.118
1030.425, 28.871
1031.673, 48.553
1032.921, 25.759
1034.169, 31.853
1035.416, 3.932
1036.663, 39.993
1037.911, 40.348
1039.157, 40.451
1040.404, 22.611
1041.650, 57.036
1042.897, 101.373
1044.143, 14.136
1045.389, 54.846
1046.634, 155.575
1047.880, 152.929
1049.125, 41.716
1050.371, 93.679
1051.615, 264.707
1052.860, 232.870
1054.105, 315.975
1055.349, 449.796
1056.593, 386.502
1057.837, 500.139
1059.081, 682.977
1060.325, 720.823
1061.568, 781.674
1062.812, 848.852
1064.055, 1007.934
1065.298, 850.119
1066.540, 1078.264
1067.783, 1118.339
1069.025, 1041.885
1070.267, 1177.376
1071.509, 1183.498
1072.751, 1089.405
1073.993, 1418.658
1075.234, 1354.068
1076.475, 1579.141
1077.716, 1979.551
1078.957, 2000.328
1080.198, 2374.344
1081.438, 3043.562
1082.679, 3401.001
1083.919, 3974.849
1085.159, 4271.825
1086.398, 4867.032
1087.638, 5082.357
1088.877, 4987.861
1090.116, 4939.988
1091.355, 4430.128
1092.594, 4148.093
1093.833, 3612.040
1095.071, 3320.226
1096.309, 2924.553
1097.547, 2836.675
1098.785, 2572.723
1100.023, 2604.972
1101.260, 2687.604
1102.498, 2889.920
1103.735, 2659.966
1104.972, 2797.669
1106.208, 2617.663
1107.445, 2308.822
1108.681, 2072.076
1109.918, 1861.117
1111.154, 1601.431
1112.389, 1502.088
1113.625, 1281.583
1114.860, 1166.756
1116.096, 1284.578
1117.331, 1283.216
1118.566, 1267.249
1119.800, 1282.120
1121.035, 1422.138
1122.269, 1105.226
1123.503, 1211.253
1124.737, 936.099
1125.971, 794.647
1127.205, 751.731
1128.438, 570.562
1129.671, 580.887
1130.904, 444.350
1132.137, 417.175
1133.370, 482.082
1134.602, 403.042
1135.834, 216.821
1137.066, 349.838
1138.298, 496.102
1139.530, 210.331
1140.762, 385.379
1141.993, 325.086
1143.224, 384.132
1144.455, 382.111
1145.686, 433.512
1146.917, 507.624
1148.147, 463.301
1149.377, 553.259
1150.607, 461.467
1151.837, 359.291
1153.067, 439.161
1154.296, 563.302
1155.526, 580.999
1156.755, 650.171
1157.984, 782.005
1159.213, 887.903
1160.441, 982.568
1161.670, 1070.676
1162.898, 1184.570
1164.126, 1264.231
1165.354, 1318.735
1166.581, 1271.227
1167.809, 1323.711
1169.036, 1129.252
1170.263, 1300.758
1171.490, 1117.200
1172.717, 1053.637
1173.943, 871.058
1175.170, 774.465
1176.396, 620.915
1177.622, 718.306
1178.848, 608.691
1180.073, 310.184
1181.299, 362.112
1182.524, 303.256
1183.749, 320.047
1184.974, 272.610
1186.199, 230.892
1187.423, 143.906
1188.648, 206.978
1189.872, 132.604
1191.096, 29.361
1192.320, 161.192
1193.543, 297.567
1194.767, 128.613
1195.990, 9.379
1197.213, 27.568
1198.436, 26.750
1199.659, 101.902
1200.881, 15.471
1202.104, 114.816
1203.326, 91.027
1204.548, 3.756
1205.770, 94.672
1206.991, 142.649
1208.213, 149.444
1209.434, 7.652
1210.655, 46.853
1211.876, 16.316
1213.096, 27.719
1214.317, 53.370
1215.537, 94.319
1216.757, 17.742
1217.977, 49.129
1219.197, 27.034
1220.417, 63.032
1221.636, 77.216
1222.855, 68.083
1224.074, 14.832
1225.293, 44.442
1226.512, 14.489
1227.731, 38.201
1228.949, 18.680
1230.167, 35.476
1231.385, 127.199
1232.603, 44.772
1233.820, 17.541
1235.038, 3.083
1236.255, 66.723
1237.472, 64.351
1238.689, 30.846
1239.906, 114.328
1241.122, 54.774
1242.338, 21.170
1243.555, 70.550
1244.771, 87.914
1245.986, 40.243
1247.202, 36.301
1248.417, 23.666
1249.633, 87.812
1250.848, 52.434
1252.063, 99.022
1253.277, 59.076
1254.492, 35.111
1255.706, 86.128
1256.920, 21.119
1258.134, 5.406
1259.348, 112.698
1260.562, 50.840
1261.775, 23.341
1262.988, 51.275
1264.201, 3.841
1265.414, 122.857
1266.627, 81.523
1267.839, 64.598
1269.052, 77.194
1270.264, 172.769
1271.476, 9.677
1272.688, 59.853
1273.899, 178.362
1275.111, 12.854
1276.322, 4.326
1277.533, 113.778
1278.744, 92.214
1279.955, 3.372
1281.165, 143.012
1282.376, 59.369
1283.586, 18.328
1284.796, 18.094
1286.006, 45.055
1287.215, 0.889
1288.425, 40.140
1289.634, 53.130
1290.843, 9.906
1292.052, 22.027
1293.261, 160.931
1294.469, 46.811
1295.678, 6.667
1296.886, 72.470
1298.094, 58.240
1299.302, 47.106
1300.509, 92.674
1301.717, 26.339
1302.924, 52.988
1304.131, 44.612
1305.338, 86.220
1306.545, 4.804
1307.752, 25.358
1308.958, 76.887
1310.164, 236.392
1311.370, 133.875
1312.576, 284.333
1313.782, 91.771
1314.987, 96.187
1316.193, 127.580
1317.398, 166.952
1318.603, 166.301
1319.807, 105.630
1321.012, 105.936
1322.216, 187.230
1323.421, 148.496
1324.625, 74.741
1325.829, 107.966
1327.032, 2.826
1328.236, 154.369
1329.439, 41.550
1330.642, 9.292
1331.845, 10.179
1333.048, 117.968
1334.251, 16.073
1335.453, 15.342
1336.656, 24.735
1337.858, 30.910
1339.060, 20.900
1340.261, 37.231
1341.463, 133.654
1342.664, 91.339
1343.866, 93.007
1345.067, 24.101
1346.267, 38.479
1347.468, 65.346
1348.669, 18.207
1349.869, 152.710
1351.069, 2.564
1352.269, 30.415
1353.469, 47.267
1354.668, 20.139
1355.868, 96.812
1357.067, 119.362
1358.266, 39.032
1359.465, 83.662
1360.664, 95.541
1361.862, 8.412
1363.061, 105.548
1364.259, 57.206
1365.457, 12.047
1366.655, 146.984
1367.852, 83.928
1369.050, 69.593
1370.247, 186.926
1371.444, 70.586
1372.641, 88.369
1373.838, 160.875
1375.035, 38.991
1376.231, 138.120
1377.427, 11.649
1378.623, 185.046
1379.819, 34.622
1381.015, 34.460
1382.211, 191.935
1383.406, 134.528
1384.601, 138.138
1385.796, 114.616
1386.991, 191.117
1388.185, 143.413
1389.380, 46.510
1390.574, 187.014
1391.768, 95.579
1392.962, 113.687
1394.156, 119.632
1395.350, 147.778
1396.543, 148.829
1397.736, 78.510
1398.929, 28.954
1400.122, 41.622
1401.315, 135.487
1402.507, 128.521
1403.700, 141.987
1404.892, 12.258
1406.084, 78.557
1407.276, 64.122
1408.467, 148.084
1409.659, 1.169
1410.850, 12.027
1412.041, 180.975
1413.232, 27.758
1414.423, 133.725
1415.614, 40.355
1416.804, 139.864
1417.994, 181.381
1419.184, 140.947
1420.374, 150.491
1421.564, 224.017
1422.753, 175.343
1423.943, 185.513
1425.132, 153.567
1426.321, 138.962
1427.510, 196.066
1428.698, 160.921
1429.887, 186.157
1431.075, 222.831
1432.263, 230.487
1433.451, 167.507
1434.639, 291.524
1435.827, 394.873
1437.014, 263.526
1438.201, 474.913
1439.388, 521.633
1440.575, 537.094
1441.762, 405.009
1442.949, 585.493
1444.135, 720.438
1445.321, 778.523
1446.507, 741.595
1447.693, 859.515
1448.879, 700.112
1450.064, 805.554
1451.250, 772.375
1452.435, 714.263
1453.620, 1011.127
1454.805, 863.115
1455.989, 868.385
1457.174, 1039.592
1458.358, 802.768
1459.542, 858.898
1460.726, 1003.028
1461.910, 804.185
1463.093, 1019.334
1464.277, 718.469
1465.460, 679.513
1466.643, 813.721
1467.826, 566.864
1469.009, 578.938
1470.191, 475.929
1471.373, 569.862
1472.556, 554.903
1473.738, 507.407
1474.919, 314.533
1476.101, 487.808
1477.283, 449.163
1478.464, 302.606
1479.645, 346.357
1480.826, 337.250
1482.007, 268.270
1483.187, 513.416
1484.368, 293.732
1485.548, 222.229
1486.728, 359.909
1487.908, 261.778
1489.088, 306.853
1490.268, 338.164
1491.447, 164.742
1492.626, 163.683
1493.805, 97.975
1494.984, 221.687
1496.163, 297.869
1497.341, 224.494
1498.520, 190.597
