##NAMES=Bikitaite
##RRUFFID=R050160
##IDEAL CHEMISTRY=LiAlSi_2_O_6_&#183;H_2_O
##LOCALITY=Foote mine, Kings Mountain, Cleveland County, North Carolina, USA
##OWNER=RRUFF
##SOURCE=Jim McGlasson
##DESCRIPTION=Colorless prismatic crystals
##STATUS=The identification of this mineral has been confirmed by X-ray diffraction and chemical analysis
##URL=rruff.info/R050160
##MEASURED CHEMISTRY=Li_1.00_Si_2.00_O_6_Â·1.25H_2_O ; Li not measured but estimated by stoichiometry
##PIN_ID=M00081
##ORIENTATION=Laser parallel to (-1 -1 0). Fiducial mark perpendicular to laser is parallel to -c [0 0 -1]
74.540, 0.000
75.937, 25.295
77.333, 917.888
78.729, 2733.160
80.125, 5349.226
81.521, 7704.593
82.916, 10211.876
84.311, 11681.563
85.706, 11900.162
87.101, 9280.338
88.496, 5374.872
89.890, 2376.680
91.284, 1130.464
92.678, 586.986
94.071, 639.838
95.465, 1020.122
96.858, 1496.385
98.251, 2291.231
99.644, 3409.607
101.036, 4467.249
102.428, 5863.719
103.820, 7239.998
105.212, 9278.149
106.604, 11260.285
107.995, 13295.878
109.387, 15761.503
110.777, 17419.633
112.168, 19336.646
113.559, 19802.760
114.949, 19290.055
116.339, 17726.352
117.729, 15056.540
119.119, 12062.865
120.508, 8984.859
121.897, 6646.974
123.286, 5187.496
124.675, 3640.871
126.063, 2530.854
127.452, 2019.013
128.840, 1417.421
130.228, 1204.618
131.615, 928.758
133.003, 1082.940
134.390, 892.220
135.777, 678.690
137.164, 539.029
138.550, 601.691
139.937, 397.729
141.323, 598.184
142.709, 467.092
144.094, 630.434
145.480, 828.159
146.865, 1047.224
148.250, 1274.652
149.635, 1474.485
151.019, 1761.664
152.403, 2083.449
153.788, 2542.099
155.171, 2892.210
156.555, 3305.146
157.939, 3372.141
159.322, 3432.010
160.705, 3322.749
162.088, 3054.021
163.470, 2687.938
164.853, 2361.563
166.235, 2092.914
167.617, 1902.998
168.998, 1554.793
170.380, 1261.147
171.761, 1085.799
173.142, 802.096
174.523, 555.579
175.904, 245.147
177.284, 48.683
178.664, 254.151
180.044, 328.029
181.424, 209.323
182.803, 34.793
184.183, 143.572
185.562, 330.805
186.940, 258.981
188.319, 352.153
189.698, 313.321
191.076, 342.490
192.454, 28.660
193.831, 162.167
195.209, 428.136
196.586, 26.431
197.963, 488.125
199.340, 1205.911
200.717, 1827.764
202.093, 2497.689
203.470, 2807.679
204.846, 2939.732
206.221, 2643.837
207.597, 2375.967
208.972, 1793.071
210.347, 1039.754
211.722, 649.603
213.097, 746.468
214.472, 542.204
215.846, 803.803
217.220, 972.569
218.594, 1130.901
219.967, 1135.321
221.341, 1084.831
222.714, 907.424
224.087, 523.100
225.460, 264.856
226.832, 41.314
228.204, 346.410
229.577, 297.774
230.948, 99.429
232.320, 11.101
233.692, 13.191
235.063, 47.269
236.434, 70.308
237.805, 25.266
239.175, 272.710
240.545, 438.749
241.916, 130.967
243.286, 101.404
244.655, 415.393
246.025, 900.824
247.394, 1393.909
248.763, 1857.078
250.132, 2136.914
251.501, 2592.073
252.869, 2633.301
254.237, 2881.386
255.605, 2834.127
256.973, 2408.358
258.340, 2091.962
259.708, 1516.837
261.075, 954.935
262.442, 510.174
263.808, 98.480
265.175, 139.162
266.541, 292.920
267.907, 313.316
269.273, 209.015
270.639, 221.327
272.004, 42.289
273.369, 183.831
274.734, 148.046
276.099, 146.923
277.463, 100.474
278.828, 158.095
280.192, 103.885
281.556, 68.865
282.919, 378.246
284.283, 768.319
285.646, 1271.107
287.009, 1387.625
288.372, 1759.875
289.734, 2242.833
291.097, 2233.422
292.459, 2105.960
293.821, 2315.187
295.183, 2433.848
296.544, 2606.901
297.905, 3016.384
299.266, 3117.795
300.627, 2759.743
301.988, 2479.605
303.348, 2047.370
304.709, 1520.035
306.069, 1162.601
307.428, 1136.072
308.788, 1097.447
310.147, 1180.732
311.507, 1413.961
312.865, 1601.104
314.224, 1871.195
315.583, 2037.214
316.941, 2294.574
318.299, 2659.191
319.657, 3044.082
321.015, 3738.325
322.372, 4515.925
323.729, 5194.474
325.086, 5557.021
326.443, 5724.554
327.800, 4896.068
329.156, 4354.564
330.512, 3265.028
331.868, 2512.459
333.224, 1923.855
334.579, 1471.079
335.935, 1134.685
337.290, 1247.628
338.645, 1236.901
339.999, 1401.537
341.354, 1487.354
342.708, 1755.549
344.062, 2007.427
345.416, 2075.696
346.769, 2212.987
348.123, 2317.947
349.476, 2247.141
350.829, 2096.787
352.182, 1958.561
353.534, 1894.706
354.887, 1644.979
356.239, 1454.861
357.591, 1296.420
358.942, 1257.525
360.294, 1443.406
361.645, 1534.359
362.996, 1652.285
364.347, 2015.185
365.698, 2238.058
367.048, 2739.901
368.398, 3213.717
369.748, 3939.503
371.098, 4801.261
372.448, 5632.989
373.797, 6898.690
375.146, 8120.364
376.495, 9660.021
377.844, 11478.661
379.192, 12679.295
380.540, 14590.913
381.889, 15426.529
383.236, 16260.148
384.584, 17049.754
385.932, 17085.350
387.279, 17054.945
388.626, 17004.535
389.973, 17658.432
391.319, 17946.229
392.666, 19289.967
394.012, 19923.498
395.358, 21099.588
396.704, 21053.523
398.049, 19738.170
399.394, 18484.943
400.740, 15955.538
402.084, 14114.928
403.429, 11941.867
404.774, 10508.066
406.118, 9744.646
407.462, 8622.178
408.806, 7942.648
410.150, 7534.045
411.493, 7099.046
412.836, 6882.262
414.179, 6536.377
415.522, 6000.385
416.865, 5945.461
418.207, 5332.243
419.549, 4805.933
420.891, 4402.541
422.233, 3904.940
423.575, 3492.634
424.916, 2852.806
426.257, 2647.745
427.598, 2386.576
428.939, 1945.988
430.279, 1868.002
431.619, 1426.982
432.959, 1203.607
434.299, 1157.590
435.639, 1188.791
436.978, 973.795
438.318, 1176.252
439.657, 844.502
440.996, 860.605
442.334, 776.004
443.673, 614.782
445.011, 505.432
446.349, 551.671
447.687, 460.765
449.024, 425.718
450.361, 402.531
451.699, 356.204
453.036, 385.566
454.372, 451.971
455.709, 756.496
457.045, 680.237
458.381, 974.408
459.717, 1064.339
461.053, 1410.166
462.388, 1747.062
463.724, 2355.003
465.059, 2798.562
466.394, 3406.970
467.728, 4119.217
469.063, 4986.408
470.397, 5707.549
471.731, 6621.281
473.065, 7974.613
474.398, 8782.863
475.732, 10321.420
477.065, 10999.262
478.398, 11795.859
479.731, 12285.472
481.063, 12566.024
482.396, 12924.802
483.728, 13573.138
485.060, 14887.679
486.391, 16288.027
487.723, 18325.037
489.054, 20868.219
490.385, 23991.836
491.716, 27121.324
493.047, 29872.803
494.377, 32528.283
495.708, 34457.160
497.038, 35067.383
498.368, 33695.020
499.697, 31731.387
501.027, 29106.289
502.356, 26296.648
503.685, 22577.117
505.014, 19846.766
506.342, 16665.381
507.671, 14518.983
508.999, 12431.359
510.327, 10772.991
511.655, 9289.172
512.982, 8067.096
514.310, 7126.771
515.637, 6106.588
516.964, 5540.202
518.291, 4928.976
519.617, 4405.289
520.944, 3886.701
522.270, 3252.951
523.596, 3170.170
524.921, 2849.355
526.247, 2668.508
527.572, 2269.627
528.897, 2169.722
530.222, 2153.781
531.547, 2014.809
532.871, 2099.802
534.196, 1960.762
535.520, 1963.687
536.844, 2182.579
538.167, 2189.439
539.491, 2196.264
540.814, 2201.054
542.137, 2023.809
543.460, 1755.531
544.783, 1514.218
546.105, 1317.871
547.427, 1068.488
548.749, 908.071
550.071, 553.637
551.393, 535.280
552.714, 398.056
554.035, 487.968
555.356, 290.014
556.677, 278.198
557.998, 181.518
559.318, 250.972
560.638, 226.687
561.958, 135.404
563.278, 10.911
564.597, 141.144
565.917, 105.928
567.236, 87.063
568.555, 212.106
569.874, 28.222
571.192, 76.573
572.511, 118.389
573.829, 76.922
575.147, 23.519
576.464, 195.977
577.782, 31.601
579.099, 48.755
580.416, 99.926
581.733, 64.714
583.050, 147.413
584.366, 84.486
585.683, 10.517
586.999, 54.442
588.315, 24.328
589.630, 109.921
590.946, 125.329
592.261, 6.898
593.576, 34.620
594.891, 46.498
596.206, 42.485
597.520, 52.656
598.834, 45.960
600.148, 19.642
601.462, 72.198
602.776, 78.808
604.089, 61.862
605.402, 64.482
606.715, 43.099
608.028, 69.691
609.341, 28.283
610.653, 60.164
611.965, 71.293
613.277, 83.235
614.589, 39.884
615.901, 31.614
617.212, 2.436
618.523, 47.703
619.834, 35.026
621.145, 46.002
622.456, 116.997
623.766, 142.970
625.076, 309.923
626.386, 217.848
627.696, 250.747
629.006, 54.380
630.315, 111.400
631.624, 17.872
632.933, 94.975
634.242, 9.660
635.551, 31.433
636.859, 11.753
638.167, 181.142
639.475, 21.392
640.783, 85.250
642.090, 18.405
643.398, 52.463
644.705, 96.298
646.012, 14.103
647.318, 174.865
648.625, 193.598
649.931, 192.306
651.237, 179.987
652.543, 21.639
653.849, 13.451
655.155, 128.095
656.460, 14.057
657.765, 18.401
659.070, 73.729
660.375, 91.766
661.679, 12.180
662.984, 122.952
664.288, 73.233
665.592, 179.585
666.895, 9.402
668.199, 109.159
669.502, 41.604
670.805, 9.217
672.108, 75.103
673.411, 122.381
674.713, 118.618
676.016, 301.813
677.318, 225.970
678.620, 315.088
679.921, 351.169
681.223, 394.214
682.524, 371.221
683.825, 506.191
685.126, 662.750
686.427, 775.646
687.727, 854.505
689.028, 941.328
690.328, 1091.114
691.628, 1007.862
692.927, 1023.574
694.227, 984.253
695.526, 789.895
696.825, 992.501
698.124, 732.071
699.423, 1011.610
700.721, 719.115
702.020, 687.583
703.318, 613.026
704.616, 630.432
705.913, 466.803
707.211, 585.147
708.508, 614.453
709.805, 499.723
711.102, 393.956
712.399, 487.150
713.695, 286.314
714.992, 434.445
716.288, 251.536
717.584, 310.585
718.879, 105.592
720.175, 227.120
721.470, 319.033
722.765, 190.913
724.060, 204.935
725.355, 316.724
726.649, 237.783
727.944, 224.497
729.238, 423.166
730.532, 259.795
731.825, 412.210
733.119, 467.772
734.412, 285.267
735.705, 367.724
736.998, 410.208
738.291, 363.285
739.584, 599.263
740.876, 581.724
742.168, 692.506
743.460, 726.039
744.752, 923.621
746.043, 1240.820
747.334, 1573.979
748.626, 1752.394
749.916, 2153.220
751.207, 2570.470
752.498, 3103.338
753.788, 3879.078
755.078, 4324.732
756.368, 5226.958
757.658, 5897.221
758.947, 6392.833
760.237, 7077.747
761.526, 7073.645
762.815, 7405.548
764.104, 7147.321
765.392, 6951.241
766.680, 6486.535
767.969, 5763.214
769.257, 5412.907
770.544, 4648.911
771.832, 4173.770
773.119, 3625.869
774.406, 3069.666
775.693, 2869.219
776.980, 2349.928
778.267, 2210.441
779.553, 1872.134
780.839, 1614.253
782.125, 1467.337
783.411, 1537.548
784.697, 1115.918
785.982, 1083.600
787.267, 1095.583
788.552, 967.863
789.837, 751.862
791.122, 712.765
792.406, 704.752
793.690, 496.717
794.974, 574.392
796.258, 363.432
797.542, 454.202
798.825, 384.094
800.108, 330.266
801.391, 222.185
802.674, 245.612
803.957, 200.082
805.239, 187.511
806.522, 301.852
807.804, 20.743
809.085, 297.221
810.367, 1.764
811.649, 116.432
812.930, 20.058
814.211, 86.192
815.492, 7.219
816.772, 155.209
818.053, 69.336
819.333, 4.604
820.613, 28.758
821.893, 183.830
823.173, 36.954
824.452, 15.334
825.732, 76.828
827.011, 42.005
828.290, 23.514
829.568, 117.983
830.847, 26.001
832.125, 58.876
833.403, 89.861
834.681, 94.828
835.959, 78.779
837.236, 20.714
838.514, 29.368
839.791, 65.518
841.068, 147.390
842.345, 131.245
843.621, 238.086
844.898, 76.911
846.174, 42.722
847.450, 226.033
848.726, 41.816
850.001, 33.583
851.277, 54.336
852.552, 158.527
853.827, 177.252
855.102, 158.962
856.376, 230.965
857.651, 355.651
858.925, 416.323
860.199, 416.624
861.473, 367.270
862.746, 360.903
864.020, 357.525
865.293, 208.133
866.566, 318.277
867.839, 99.647
869.112, 194.221
870.384, 82.654
871.656, 97.205
872.928, 202.893
874.200, 149.199
875.472, 71.296
876.744, 2.574
878.015, 18.597
879.286, 104.093
880.557, 96.998
881.828, 64.242
883.098, 114.723
884.369, 24.166
885.639, 187.011
886.909, 278.466
888.178, 9.942
889.448, 30.660
890.717, 10.163
891.987, 19.387
893.256, 136.136
894.524, 71.892
895.793, 110.388
897.061, 75.899
898.330, 233.416
899.598, 99.927
900.865, 165.455
902.133, 86.982
903.401, 23.495
904.668, 28.030
905.935, 105.570
907.202, 20.128
908.468, 124.682
909.735, 189.272
911.001, 111.887
912.267, 10.538
913.533, 52.223
914.799, 57.994
916.064, 12.194
917.330, 165.644
918.595, 55.305
919.860, 24.426
921.124, 98.349
922.389, 64.667
923.653, 9.344
924.918, 111.768
926.182, 25.177
927.445, 23.140
928.709, 11.530
929.972, 22.387
931.236, 21.153
932.499, 25.746
933.761, 68.830
935.024, 0.052
936.286, 62.064
937.549, 150.215
938.811, 2.622
940.073, 123.572
941.334, 1.819
942.596, 10.918
943.857, 153.372
945.118, 80.696
946.379, 67.097
947.640, 197.518
948.900, 295.988
950.161, 327.481
951.421, 488.980
952.681, 610.485
953.940, 971.002
955.200, 1104.520
956.459, 1434.045
957.719, 2088.571
958.978, 2415.104
960.236, 2686.349
961.495, 2754.917
962.753, 2577.938
964.012, 2094.545
965.270, 2262.004
966.527, 2538.728
967.785, 2904.251
969.043, 3733.051
970.300, 4253.907
971.557, 4313.647
972.814, 4404.791
974.071, 3620.794
975.327, 3328.571
976.583, 2478.862
977.840, 2008.958
979.095, 1357.064
980.351, 931.177
981.607, 737.298
982.862, 515.424
984.117, 224.557
985.372, 389.695
986.627, 102.838
987.882, 154.986
989.136, 259.140
990.390, 112.672
991.644, 387.837
992.898, 248.010
994.152, 309.187
995.405, 284.373
996.659, 174.565
997.912, 7.007
999.165, 186.934
1000.417, 289.742
1001.670, 306.286
1002.922, 21.744
1004.174, 95.188
1005.426, 33.798
1006.678, 34.893
1007.930, 46.481
1009.181, 61.702
1010.432, 17.495
1011.683, 44.148
1012.934, 33.374
1014.185, 19.607
1015.435, 41.847
1016.685, 22.908
1017.935, 21.096
1019.185, 200.558
1020.435, 230.791
1021.684, 362.032
1022.934, 123.279
1024.183, 139.535
1025.432, 23.200
1026.680, 121.057
1027.929, 90.134
1029.177, 16.407
1030.425, 13.741
1031.673, 104.956
1032.921, 13.233
1034.169, 22.061
1035.416, 20.208
1036.663, 37.060
1037.911, 26.165
1039.157, 32.634
1040.404, 26.093
1041.650, 39.113
1042.897, 153.795
1044.143, 2.906
1045.389, 42.394
1046.634, 209.702
1047.880, 119.020
1049.125, 25.524
1050.371, 118.805
1051.615, 351.395
1052.860, 125.968
1054.105, 430.036
1055.349, 360.488
1056.593, 412.827
1057.837, 460.283
1059.081, 681.943
1060.325, 913.490
1061.568, 879.883
1062.812, 1014.693
1064.055, 1110.452
1065.298, 1086.173
1066.540, 1117.178
1067.783, 1141.880
1069.025, 1045.476
1070.267, 1235.388
1071.509, 994.273
1072.751, 1206.275
1073.993, 1452.111
1075.234, 1410.599
1076.475, 1586.359
1077.716, 1783.703
1078.957, 2070.806
1080.198, 2310.302
1081.438, 2912.558
1082.679, 3256.032
1083.919, 3639.087
1085.159, 3930.927
1086.398, 4342.028
1087.638, 4412.887
1088.877, 4306.438
1090.116, 4148.028
1091.355, 3768.602
1092.594, 3403.565
1093.833, 3102.148
1095.071, 2756.819
1096.309, 2544.616
1097.547, 2341.420
1098.785, 2098.075
1100.023, 2287.972
1101.260, 2354.880
1102.498, 2558.446
1103.735, 2392.008
1104.972, 2522.059
1106.208, 2311.611
1107.445, 2112.191
1108.681, 1800.111
1109.918, 1816.074
1111.154, 1386.689
1112.389, 1333.693
1113.625, 1267.826
1114.860, 1114.366
1116.096, 1153.989
1117.331, 1039.748
1118.566, 1078.380
1119.800, 1179.901
1121.035, 1253.551
1122.269, 1058.067
1123.503, 1069.576
1124.737, 963.088
1125.971, 871.602
1127.205, 738.215
1128.438, 542.714
1129.671, 531.206
1130.904, 322.689
1132.137, 411.164
1133.370, 461.630
1134.602, 411.088
1135.834, 328.539
1137.066, 263.982
1138.298, 433.414
1139.530, 188.846
1140.762, 409.681
1141.993, 324.252
1143.224, 327.655
1144.455, 377.560
1145.686, 250.943
1146.917, 331.471
1148.147, 462.833
1149.377, 393.185
1150.607, 479.673
1151.837, 429.550
1153.067, 376.870
1154.296, 544.859
1155.526, 619.849
1156.755, 422.351
1157.984, 684.739
1159.213, 637.490
1160.441, 828.109
1161.670, 1010.345
1162.898, 1174.685
1164.126, 901.897
1165.354, 1180.551
1166.581, 1119.953
1167.809, 1057.127
1169.036, 1008.291
1170.263, 1064.438
1171.490, 926.576
1172.717, 908.699
1173.943, 676.239
1175.170, 685.336
1176.396, 547.420
1177.622, 606.492
1178.848, 444.954
1180.073, 208.100
1181.299, 401.130
1182.524, 246.453
1183.749, 239.075
1184.974, 271.229
1186.199, 241.746
1187.423, 84.719
1188.648, 54.471
1189.872, 182.300
1191.096, 111.249
1192.320, 116.903
1193.543, 79.258
1194.767, 130.071
1195.990, 42.521
1197.213, 10.115
1198.436, 34.535
1199.659, 44.130
1200.881, 36.717
1202.104, 86.878
1203.326, 10.375
1204.548, 185.336
1205.770, 19.120
1206.991, 81.659
1208.213, 7.215
1209.434, 22.318
1210.655, 116.225
1211.876, 11.408
1213.096, 20.112
1214.317, 10.177
1215.537, 49.149
1216.757, 40.398
1217.977, 32.164
1219.197, 28.973
1220.417, 48.501
1221.636, 108.201
1222.855, 119.849
1224.074, 13.419
1225.293, 21.194
1226.512, 21.734
1227.731, 51.842
1228.949, 11.581
1230.167, 36.591
1231.385, 34.457
1232.603, 17.382
1233.820, 16.718
1235.038, 72.038
1236.255, 137.033
1237.472, 119.882
1238.689, 87.757
1239.906, 246.580
1241.122, 116.387
1242.338, 86.179
1243.555, 83.955
1244.771, 119.715
1245.986, 61.458
1247.202, 58.134
1248.417, 205.970
1249.633, 209.615
1250.848, 28.333
1252.063, 190.946
1253.277, 135.545
1254.492, 53.127
1255.706, 42.694
1256.920, 125.245
1258.134, 34.779
1259.348, 86.599
1260.562, 191.737
1261.775, 127.199
1262.988, 93.614
1264.201, 123.166
1265.414, 178.548
1266.627, 117.079
1267.839, 207.423
1269.052, 247.750
1270.264, 252.093
1271.476, 239.385
1272.688, 125.813
1273.899, 318.072
1275.111, 231.314
1276.322, 322.540
1277.533, 160.749
1278.744, 263.941
1279.955, 203.117
1281.165, 231.274
1282.376, 266.447
1283.586, 178.530
1284.796, 172.557
1286.006, 55.563
1287.215, 116.503
1288.425, 204.393
1289.634, 41.215
1290.843, 256.977
1292.052, 23.718
1293.261, 319.419
1294.469, 222.090
1295.678, 119.741
1296.886, 163.338
1298.094, 334.900
1299.302, 23.407
1300.509, 187.887
1301.717, 102.323
1302.924, 126.739
1304.131, 122.113
1305.338, 65.471
1306.545, 190.800
1307.752, 126.107
1308.958, 215.393
1310.164, 296.657
1311.370, 209.907
1312.576, 389.145
1313.782, 198.361
1314.987, 232.554
1316.193, 166.727
1317.398, 454.876
1318.603, 289.973
1319.807, 373.052
1321.012, 199.107
1322.216, 336.137
1323.421, 271.143
1324.625, 126.132
1325.829, 299.095
1327.032, 59.033
1328.236, 260.952
1329.439, 109.851
1330.642, 34.276
1331.845, 82.559
1333.048, 11.380
1334.251, 7.144
1335.453, 36.402
1336.656, 163.665
1337.858, 44.386
1339.060, 5.089
1340.261, 12.126
1341.463, 26.745
1342.664, 14.955
1343.866, 8.663
1345.067, 33.303
1346.267, 44.032
1347.468, 30.905
1348.669, 73.130
1349.869, 134.612
1351.069, 106.887
1352.269, 19.728
1353.469, 1.191
1354.668, 58.907
1355.868, 98.082
1357.067, 78.302
1358.266, 4.191
1359.465, 120.640
1360.664, 6.180
1361.862, 9.853
1363.061, 112.758
1364.259, 7.598
1365.457, 64.898
1366.655, 79.365
1367.852, 27.272
1369.050, 160.030
1370.247, 124.982
1371.444, 112.874
1372.641, 24.143
1373.838, 92.203
1375.035, 39.951
1376.231, 148.809
1377.427, 138.594
1378.623, 7.142
1379.819, 54.086
1381.015, 139.471
1382.211, 76.458
1383.406, 223.450
1384.601, 118.478
1385.796, 139.310
1386.991, 292.613
1388.185, 87.053
1389.380, 150.730
1390.574, 223.174
1391.768, 34.899
1392.962, 130.825
1394.156, 55.687
1395.350, 178.674
1396.543, 317.509
1397.736, 83.435
1398.929, 156.334
1400.122, 76.205
1401.315, 81.045
1402.507, 33.010
1403.700, 135.938
1404.892, 69.052
1406.084, 104.925
1407.276, 38.615
1408.467, 153.093
1409.659, 33.845
1410.850, 74.169
1412.041, 104.426
1413.232, 65.491
1414.423, 257.873
1415.614, 36.389
1416.804, 123.888
1417.994, 161.365
1419.184, 169.824
1420.374, 175.265
1421.564, 238.689
1422.753, 275.945
1423.943, 350.761
1425.132, 49.936
1426.321, 266.490
1427.510, 179.455
1428.698, 265.800
1429.887, 270.394
1431.075, 347.199
1432.263, 238.069
1433.451, 279.005
1434.639, 400.159
1435.827, 451.244
1437.014, 365.581
1438.201, 593.889
1439.388, 812.757
1440.575, 617.942
1441.762, 762.750
1442.949, 862.610
1444.135, 934.037
1445.321, 1001.333
1446.507, 918.007
1447.693, 1080.984
1448.879, 1143.540
1450.064, 1170.515
1451.250, 1186.604
1452.435, 1071.707
1453.620, 1282.739
1454.805, 1355.811
1455.989, 1348.521
1457.174, 1349.342
1458.358, 1207.282
1459.542, 1329.135
1460.726, 1348.541
1461.910, 1244.011
1463.093, 1250.079
1464.277, 936.996
1465.460, 829.257
1466.643, 1071.325
1467.826, 762.934
1469.009, 870.837
1470.191, 652.604
1471.373, 672.236
1472.556, 776.742
1473.738, 511.593
1474.919, 457.722
1476.101, 726.307
1477.283, 609.036
1478.464, 465.850
1479.645, 404.929
1480.826, 550.338
1482.007, 438.017
1483.187, 676.883
1484.368, 406.856
1485.548, 410.877
1486.728, 523.953
1487.908, 465.110
1489.088, 242.350
1490.268, 491.036
1491.447, 263.928
1492.626, 141.055
1493.805, 116.486
1494.984, 290.267
1496.163, 257.471
