##NAMES=Bikitaite
##RRUFFID=R050160
##IDEAL CHEMISTRY=LiAlSi_2_O_6_&#183;H_2_O
##LOCALITY=Foote mine, Kings Mountain, Cleveland County, North Carolina, USA
##OWNER=RRUFF
##SOURCE=Jim McGlasson
##DESCRIPTION=Colorless prismatic crystals
##STATUS=The identification of this mineral has been confirmed by X-ray diffraction and chemical analysis
##URL=rruff.info/R050160
##MEASURED CHEMISTRY=Li_1.00_Si_2.00_O_6_Â·1.25H_2_O ; Li not measured but estimated by stoichiometry
##PIN_ID=M00374
##ORIENTATION=Laser parallel to c* (0 0 1). Fiducial mark perpendicular to laser is parallel to a [1 0 0]
80.125, 0.000
81.521, 467.898
82.916, 703.645
84.311, 891.072
85.706, 1110.152
87.101, 1335.287
88.496, 1380.256
89.890, 1449.006
91.284, 1869.752
92.678, 2085.617
94.071, 2350.268
95.465, 2396.572
96.858, 2928.510
98.251, 3209.709
99.644, 3476.186
101.036, 3741.207
102.428, 3582.344
103.820, 3771.871
105.212, 3714.387
106.604, 3252.258
107.995, 3222.316
109.387, 2646.494
110.777, 2727.939
112.168, 2101.883
113.559, 1965.371
114.949, 1990.422
116.339, 1964.045
117.729, 1872.258
119.119, 1525.070
120.508, 825.504
121.897, 823.574
123.286, 224.301
124.675, 89.291
126.063, 85.840
127.452, 1.207
128.840, 174.529
130.228, 203.891
131.615, 374.398
133.003, 331.186
134.390, 727.516
135.777, 825.656
137.164, 1388.012
138.550, 1514.230
139.937, 2237.098
141.323, 2749.340
142.709, 3187.812
144.094, 3439.297
145.480, 3956.551
146.865, 3982.561
148.250, 3986.324
149.635, 4029.838
151.019, 3905.104
152.403, 3854.146
153.788, 4069.982
155.171, 4248.621
156.555, 4390.076
157.939, 4750.359
159.322, 5116.484
160.705, 5252.457
162.088, 5271.289
163.470, 4950.971
164.853, 4559.514
166.235, 3988.031
167.617, 3424.574
168.998, 2952.180
170.380, 2179.854
171.761, 1616.609
173.142, 1417.449
174.523, 840.650
175.904, 398.988
177.284, 181.838
178.664, 237.164
180.044, 34.098
181.424, 126.250
182.803, 226.416
184.183, 329.559
185.562, 361.592
186.940, 304.527
188.319, 17.438
189.698, 63.703
191.076, 315.900
192.454, 890.148
193.831, 1355.449
195.209, 2044.791
196.586, 2672.176
197.963, 3429.580
199.340, 4360.211
200.717, 5435.500
202.093, 5972.941
203.470, 6195.645
204.846, 5413.859
206.221, 5314.693
207.597, 4560.279
208.972, 3324.621
210.347, 3274.002
211.722, 3259.416
213.097, 3205.678
214.472, 3832.750
215.846, 4098.414
217.220, 4366.754
218.594, 4743.105
219.967, 4617.492
221.341, 4454.918
222.714, 3391.377
224.087, 3116.871
225.460, 2270.389
226.832, 1835.932
228.204, 1330.500
229.577, 991.090
230.948, 831.703
232.320, 637.340
233.692, 673.994
235.063, 564.672
236.434, 591.367
237.805, 860.084
239.175, 532.818
240.545, 1157.590
241.916, 1226.398
243.286, 1487.285
244.655, 1869.293
246.025, 2207.963
247.394, 2502.238
248.763, 2872.129
250.132, 3677.074
251.501, 3412.793
252.869, 3578.104
254.237, 3510.908
255.605, 3231.074
256.973, 2932.553
258.340, 2508.258
259.708, 1911.133
261.075, 1302.137
262.442, 1205.238
263.808, 671.420
265.175, 466.662
266.541, 339.951
267.907, 47.236
269.273, 73.541
270.639, 331.367
272.004, 85.412
273.369, 86.557
274.734, 279.799
276.099, 446.188
277.463, 84.766
278.828, 174.438
280.192, 227.227
281.556, 72.141
282.919, 148.855
284.283, 413.812
285.646, 351.732
287.009, 630.615
288.372, 1004.465
289.734, 1204.160
291.097, 1072.941
292.459, 1551.639
293.821, 1364.258
295.183, 1778.303
296.544, 1573.301
297.905, 2019.656
299.266, 2126.672
300.627, 1916.662
301.988, 2010.635
303.348, 1230.590
304.709, 865.527
306.069, 792.434
307.428, 653.314
308.788, 532.164
310.147, 551.988
311.507, 191.785
312.865, 50.555
314.224, 87.723
315.583, 65.918
316.941, 0.479
318.299, 277.932
319.657, 14.516
321.015, 115.156
322.372, 55.119
323.729, 58.352
325.086, 342.547
326.443, 86.723
327.800, 538.865
329.156, 88.988
330.512, 92.080
331.868, 126.139
333.224, 279.170
334.579, 266.184
335.935, 653.174
337.290, 579.146
338.645, 993.080
339.999, 1170.789
341.354, 1402.324
342.708, 1736.035
344.062, 1961.383
345.416, 2235.938
346.769, 2162.859
348.123, 2133.617
349.476, 2302.361
350.829, 2455.768
352.182, 2666.213
353.534, 2713.871
354.887, 2726.771
356.239, 2689.740
357.591, 2842.777
358.942, 2894.822
360.294, 3288.955
361.645, 3477.008
362.996, 3937.023
364.347, 4493.855
365.698, 4967.578
367.048, 5727.277
368.398, 6686.953
369.748, 7880.586
371.098, 8945.209
372.448, 10740.824
373.797, 12192.438
375.146, 14241.047
376.495, 16775.648
377.844, 18514.250
379.192, 21172.840
380.540, 22581.434
381.889, 24135.021
383.236, 25219.604
384.584, 25544.182
385.932, 25559.762
387.279, 25649.336
388.626, 26024.906
389.973, 25327.473
391.319, 25834.033
392.666, 25195.588
394.012, 24844.141
395.358, 23902.680
396.704, 22285.500
398.049, 20767.604
399.394, 17488.941
400.740, 15106.361
402.084, 12640.434
403.429, 10541.996
404.774, 9552.301
406.118, 8064.451
407.462, 7018.613
408.806, 6202.836
410.150, 5543.059
411.493, 5192.926
412.836, 4905.963
414.179, 4276.719
415.522, 4364.760
416.865, 4090.734
418.207, 3669.574
419.549, 3485.277
420.891, 3307.525
422.233, 3154.119
423.575, 2610.004
424.916, 2668.352
426.257, 2802.598
427.598, 2584.799
428.939, 2603.434
430.279, 2339.750
431.619, 2281.879
432.959, 2662.660
434.299, 2807.699
435.639, 2807.555
436.978, 3447.207
438.318, 3764.219
439.657, 4529.752
440.996, 5066.547
442.334, 5619.879
443.673, 6629.797
445.011, 7643.754
446.349, 8268.732
447.687, 8595.680
449.024, 8901.594
450.361, 8319.467
451.699, 7763.510
453.036, 6869.318
454.372, 6503.420
455.709, 5227.172
457.045, 4717.914
458.381, 4130.619
459.717, 3904.293
461.053, 3897.936
462.388, 3661.549
463.724, 3969.139
465.059, 3723.695
466.394, 4050.223
467.728, 4347.719
469.063, 4247.186
470.397, 4772.621
471.731, 5288.021
473.065, 5288.396
474.398, 6353.688
475.732, 6465.611
477.065, 7600.436
478.398, 8751.703
479.731, 10537.480
481.063, 12365.730
482.396, 14873.602
483.728, 17588.631
485.060, 19990.744
486.391, 22811.822
487.723, 24775.947
489.054, 26147.973
490.385, 26236.059
491.716, 24888.213
493.047, 23450.396
494.377, 21488.309
495.708, 19380.191
497.038, 17189.049
498.368, 15655.879
499.697, 14257.684
501.027, 13030.676
502.356, 11507.422
503.685, 10575.209
505.014, 9169.227
506.342, 8527.277
507.671, 7489.885
508.999, 6605.674
510.327, 6004.031
511.655, 5462.479
512.982, 5138.498
514.310, 4230.436
515.637, 4170.246
516.964, 3721.516
518.291, 3994.453
519.617, 3545.816
520.944, 2814.479
522.270, 3036.449
523.596, 2630.145
524.921, 2486.484
526.247, 2123.541
527.572, 2270.410
528.897, 2259.344
530.222, 2038.164
531.547, 2136.340
532.871, 1840.793
534.196, 1790.297
535.520, 2167.766
536.844, 2044.203
538.167, 2087.602
539.491, 2041.969
540.814, 2124.301
542.137, 1566.596
543.460, 1815.855
544.783, 1109.080
546.105, 1126.270
547.427, 858.424
548.749, 659.539
550.071, 575.621
551.393, 429.666
552.714, 357.676
554.035, 345.645
555.356, 45.580
556.677, 25.465
557.998, 123.299
559.318, 101.086
560.638, 183.830
561.958, 159.064
563.278, 129.633
564.597, 120.857
565.917, 57.473
567.236, 146.818
568.555, 217.934
569.874, 227.879
571.192, 182.201
572.511, 42.184
573.829, 124.674
575.147, 225.123
576.464, 59.125
577.782, 8.768
579.099, 29.211
580.416, 77.973
581.733, 219.930
583.050, 101.016
584.366, 401.480
585.683, 492.990
586.999, 248.227
588.315, 536.285
589.630, 577.002
590.946, 675.416
592.261, 410.988
593.576, 400.883
594.891, 375.170
596.206, 674.920
597.520, 758.283
598.834, 433.346
600.148, 612.756
601.462, 716.350
602.776, 570.504
604.089, 569.088
605.402, 744.428
606.715, 810.785
608.028, 439.559
609.341, 374.830
610.653, 656.051
611.965, 345.164
613.277, 655.293
614.589, 751.471
615.901, 1081.510
617.212, 1167.506
618.523, 1727.459
619.834, 2043.365
621.145, 2397.305
622.456, 2536.121
623.766, 3370.895
625.076, 2929.623
626.386, 2937.307
627.696, 1862.945
629.006, 2074.539
630.315, 1348.090
631.624, 1184.594
632.933, 1456.076
634.242, 964.600
635.551, 1072.066
636.859, 877.520
638.167, 1405.037
639.475, 1035.547
640.783, 1592.076
642.090, 2087.582
643.398, 2119.061
644.705, 2172.496
646.012, 2212.768
647.318, 2340.131
648.625, 2110.465
649.931, 1927.230
651.237, 1449.500
652.543, 1398.684
653.849, 1457.865
655.155, 1117.000
656.460, 1129.121
657.765, 393.170
659.070, 461.174
660.375, 586.197
661.679, 4.113
662.984, 3.945
664.288, 11.689
665.592, 236.354
666.895, 269.035
668.199, 120.348
669.502, 199.328
670.805, 71.199
672.108, 213.195
673.411, 205.393
674.713, 6.215
676.016, 288.262
677.318, 54.977
678.620, 76.809
679.921, 9.768
681.223, 92.184
682.524, 39.076
683.825, 398.902
685.126, 374.682
686.427, 154.418
687.727, 299.098
689.028, 224.730
690.328, 739.314
691.628, 641.857
692.927, 942.357
694.227, 578.816
695.526, 1475.234
696.825, 1195.611
698.124, 1640.947
699.423, 1670.240
700.721, 1747.490
702.020, 1744.701
703.318, 1549.873
704.616, 1024.004
705.913, 1285.096
707.211, 1730.145
708.508, 1430.154
709.805, 1123.123
711.102, 1702.051
712.399, 826.658
713.695, 1329.936
714.992, 890.938
716.288, 746.803
717.584, 326.971
718.879, 140.600
720.175, 766.441
721.470, 542.383
722.765, 450.268
724.060, 517.059
725.355, 205.805
726.649, 311.848
727.944, 623.658
729.238, 371.312
730.532, 490.256
731.825, 480.826
733.119, 66.459
734.412, 55.848
735.705, 30.791
736.998, 9.828
738.291, 200.070
739.584, 96.777
740.876, 313.510
742.168, 29.793
743.460, 219.617
744.752, 56.146
746.043, 294.248
747.334, 33.611
748.626, 252.068
749.916, 83.926
751.207, 170.949
752.498, 114.969
753.788, 192.141
755.078, 108.605
756.368, 72.312
757.658, 7.000
758.947, 300.633
760.237, 107.234
761.526, 561.801
762.815, 217.340
764.104, 473.852
765.392, 525.168
766.680, 98.660
767.969, 887.785
769.257, 296.242
770.544, 647.684
771.832, 489.090
773.119, 410.473
774.406, 645.824
775.693, 52.145
776.980, 600.430
778.267, 387.680
779.553, 710.906
780.839, 356.102
782.125, 949.273
783.411, 382.414
784.697, 350.523
785.982, 536.609
787.267, 510.664
788.552, 285.691
789.837, 804.691
791.122, 321.668
792.406, 439.613
793.690, 408.539
794.974, 333.441
796.258, 501.320
797.542, 386.250
798.825, 843.160
800.108, 71.039
801.391, 497.887
802.674, 414.715
803.957, 161.512
805.239, 708.277
806.522, 40.020
807.804, 500.734
809.085, 492.418
810.367, 19.086
811.649, 429.715
812.930, 596.105
814.211, 243.785
815.492, 620.445
816.772, 525.852
818.053, 586.258
819.333, 576.125
820.613, 876.859
821.893, 586.086
823.173, 651.262
824.452, 1282.832
825.732, 738.438
827.011, 808.133
828.290, 1026.324
829.568, 533.805
830.847, 1159.883
832.125, 1003.617
833.403, 669.992
834.681, 576.598
835.959, 571.590
837.236, 804.871
838.514, 1082.289
839.791, 1208.680
841.068, 1020.137
842.345, 1899.289
843.621, 1286.207
844.898, 1100.051
846.174, 1536.957
847.450, 1252.855
848.726, 1348.738
850.001, 1637.602
851.277, 1472.457
852.552, 1934.293
853.827, 1950.117
855.102, 1715.922
856.376, 2739.711
857.651, 3017.492
858.925, 3063.254
860.199, 2780.000
861.473, 2905.734
862.746, 2692.449
864.020, 2021.160
865.293, 2318.848
866.566, 1933.527
867.839, 1892.203
869.112, 1882.867
870.384, 1649.516
871.656, 1074.750
872.928, 1522.285
874.200, 1323.953
875.472, 1427.652
876.744, 1532.363
878.015, 1259.062
879.286, 1325.078
880.557, 1385.523
881.828, 1386.258
883.098, 1002.785
884.369, 1148.547
885.639, 1084.301
886.909, 1038.824
888.178, 1030.742
889.448, 1717.273
890.717, 1367.566
891.987, 986.672
893.256, 1155.355
894.524, 1187.941
895.793, 1213.762
897.061, 1037.695
898.330, 1016.980
899.598, 1370.480
900.865, 1472.891
902.133, 966.531
903.401, 1405.219
904.668, 1036.496
905.935, 1085.035
907.202, 1155.602
908.468, 1219.449
909.735, 1210.715
911.001, 883.023
912.267, 959.777
913.533, 1183.711
914.799, 806.289
916.064, 1154.301
917.330, 747.277
918.595, 459.965
919.860, 763.969
921.124, 445.445
922.389, 284.465
923.653, 307.434
924.918, 347.980
926.182, 345.984
927.445, 708.004
928.709, 587.000
929.972, 499.070
931.236, 411.125
932.499, 838.176
933.761, 330.227
935.024, 293.270
936.286, 1473.297
937.549, 150.320
938.811, 901.332
940.073, 610.328
941.334, 667.285
942.596, 869.262
943.857, 882.039
945.118, 224.195
946.379, 757.207
947.640, 1358.133
948.900, 1171.707
950.161, 1372.523
951.421, 1321.793
952.681, 1607.805
953.940, 1409.898
955.200, 1642.738
956.459, 2713.117
957.719, 2903.930
958.978, 3601.520
960.236, 4269.309
961.495, 4975.879
962.753, 5566.988
964.012, 5962.152
965.270, 7099.477
966.527, 7653.211
967.785, 7670.766
969.043, 6917.789
970.300, 6122.801
971.557, 5451.133
972.814, 4817.742
974.071, 4675.648
975.327, 4084.949
976.583, 3783.453
977.840, 2860.402
979.095, 1974.344
980.351, 1838.680
981.607, 1388.523
982.862, 901.332
984.117, 649.902
985.372, 907.238
986.627, 1694.188
987.882, 1943.613
989.136, 1704.656
990.390, 2533.414
991.644, 2531.383
992.898, 3361.898
994.152, 4357.309
995.405, 5641.902
996.659, 8443.895
997.912, 10738.086
999.165, 13546.938
1000.417, 13919.715
1001.670, 14052.465
1002.922, 10947.180
1004.174, 8474.863
1005.426, 6147.516
1006.678, 5105.137
1007.930, 4377.723
1009.181, 3872.277
1010.432, 3926.797
1011.683, 4003.285
1012.934, 4219.738
1014.185, 4554.164
1015.435, 4499.551
1016.685, 4027.906
1017.935, 4250.227
1019.185, 4111.512
1020.435, 3335.766
1021.684, 3379.984
1022.934, 3226.168
1024.183, 2389.316
1025.432, 2275.438
1026.680, 1708.520
1027.929, 1221.875
1029.177, 1445.844
1030.425, 1497.297
1031.673, 1386.859
1032.921, 859.734
1034.169, 862.707
1035.416, 1123.086
1036.663, 445.984
1037.911, 537.848
1039.157, 576.324
1040.404, 793.527
1041.650, 1160.996
1042.897, 542.129
1044.143, 774.766
1045.389, 925.641
1046.634, 561.301
1047.880, 334.355
1049.125, 517.910
1050.371, 1035.262
1051.615, 218.516
1052.860, 916.375
1054.105, 436.227
1055.349, 12.160
1056.593, 4.398
1057.837, 359.172
1059.081, 57.160
1060.325, 320.738
1061.568, 108.918
1062.812, 436.070
1064.055, 50.312
1065.298, 76.059
1066.540, 102.297
1067.783, 27.793
1069.025, 554.668
1070.267, 107.621
1071.509, 4.242
1072.751, 558.180
1073.993, 338.070
1075.234, 543.273
1076.475, 943.727
1077.716, 704.070
1078.957, 899.855
1080.198, 1176.426
1081.438, 1123.188
1082.679, 1538.477
1083.919, 1245.145
1085.159, 1605.543
1086.398, 1270.930
1087.638, 1197.145
1088.877, 771.254
1090.116, 822.309
1091.355, 576.309
1092.594, 321.258
1093.833, 229.141
1095.071, 51.094
1096.309, 570.840
1097.547, 235.469
1098.785, 75.008
1100.023, 436.906
1101.260, 705.250
1102.498, 235.547
1103.735, 661.965
1104.972, 293.137
1106.208, 638.250
1107.445, 121.512
1108.681, 556.500
1109.918, 110.426
1111.154, 452.285
1112.389, 206.578
1113.625, 272.688
1114.860, 77.809
1116.096, 11.273
1117.331, 59.406
1118.566, 240.785
1119.800, 162.902
1121.035, 103.949
1122.269, 283.926
1123.503, 425.828
1124.737, 152.676
1125.971, 530.445
1127.205, 13.156
1128.438, 468.766
1129.671, 206.684
1130.904, 376.645
1132.137, 414.914
1133.370, 281.113
1134.602, 236.762
1135.834, 84.863
1137.066, 564.879
1138.298, 249.441
1139.530, 646.996
1140.762, 309.625
1141.993, 228.520
1143.224, 40.648
1144.455, 190.906
1145.686, 249.629
1146.917, 563.090
1148.147, 689.488
1149.377, 635.828
1150.607, 943.102
1151.837, 673.316
1153.067, 1074.477
1154.296, 1459.570
1155.526, 1102.605
1156.755, 1895.570
1157.984, 1714.480
1159.213, 2085.332
1160.441, 2172.121
1161.670, 2428.848
1162.898, 1799.520
1164.126, 1770.129
1165.354, 1840.676
1166.581, 1605.160
1167.809, 952.590
1169.036, 1416.957
1170.263, 1618.266
1171.490, 1322.512
1172.717, 824.699
1173.943, 657.828
1175.170, 689.902
1176.396, 1048.914
1177.622, 1014.867
1178.848, 246.762
1180.073, 829.586
1181.299, 636.352
1182.524, 461.055
1183.749, 855.699
1184.974, 799.699
1186.199, 417.230
1187.423, 235.695
1188.648, 404.094
1189.872, 65.133
1191.096, 119.457
1192.320, 279.645
1193.543, 642.758
1194.767, 235.016
1195.990, 350.141
1197.213, 150.066
1198.436, 401.926
1199.659, 264.227
1200.881, 500.953
1202.104, 557.625
1203.326, 801.445
1204.548, 154.512
1205.770, 520.809
1206.991, 206.500
1208.213, 9.520
1209.434, 437.457
1210.655, 312.613
1211.876, 191.363
1213.096, 208.336
1214.317, 593.781
1215.537, 339.574
1216.757, 367.555
1217.977, 66.566
1219.197, 64.836
1220.417, 133.934
1221.636, 166.594
1222.855, 18.375
1224.074, 193.438
1225.293, 227.324
1226.512, 504.035
1227.731, 204.695
1228.949, 84.293
1230.167, 437.828
1231.385, 488.336
1232.603, 477.789
1233.820, 264.188
1235.038, 985.523
1236.255, 956.797
1237.472, 610.004
1238.689, 1009.160
1239.906, 540.453
1241.122, 475.297
1242.338, 993.219
1243.555, 548.156
1244.771, 536.391
1245.986, 368.309
1247.202, 867.711
1248.417, 938.434
1249.633, 433.875
1250.848, 843.496
1252.063, 619.059
1253.277, 425.582
1254.492, 624.316
1255.706, 750.742
1256.920, 969.312
1258.134, 112.266
1259.348, 736.129
1260.562, 881.766
1261.775, 432.879
1262.988, 529.168
1264.201, 1042.949
1265.414, 935.715
1266.627, 1048.105
1267.839, 1381.176
1269.052, 1229.988
1270.264, 1160.352
1271.476, 920.531
1272.688, 1519.246
1273.899, 1342.996
1275.111, 1152.367
1276.322, 965.195
1277.533, 1190.105
1278.744, 988.137
1279.955, 1287.570
1281.165, 980.262
1282.376, 741.438
1283.586, 663.953
1284.796, 874.695
1286.006, 924.168
1287.215, 691.047
1288.425, 380.977
1289.634, 463.668
1290.843, 326.898
1292.052, 821.879
1293.261, 932.145
1294.469, 980.434
1295.678, 769.691
1296.886, 838.938
1298.094, 323.129
1299.302, 847.305
1300.509, 948.461
1301.717, 802.594
1302.924, 846.711
1304.131, 765.812
1305.338, 945.895
1306.545, 768.969
1307.752, 879.031
1308.958, 1582.082
1310.164, 1266.117
1311.370, 1689.145
1312.576, 1330.160
1313.782, 1590.172
1314.987, 998.172
1316.193, 1800.164
1317.398, 1265.152
1318.603, 1673.137
1319.807, 1184.121
1321.012, 1646.102
1322.216, 1763.082
1323.421, 1052.059
1324.625, 1384.695
1325.829, 1080.680
1327.032, 1301.664
1328.236, 882.215
1329.439, 134.219
1330.642, 305.227
1331.845, 859.617
1333.048, 616.262
1334.251, 59.629
1335.453, 209.312
1336.656, 438.469
1337.858, 279.367
1339.060, 176.469
1340.261, 181.223
1341.463, 434.488
1342.664, 432.945
1343.866, 207.492
1345.067, 365.492
1346.267, 610.523
1347.468, 462.832
1348.669, 798.188
1349.869, 533.383
1351.069, 229.688
1352.269, 815.758
1353.469, 493.566
1354.668, 561.402
1355.868, 621.168
1357.067, 150.555
1358.266, 301.305
1359.465, 552.926
1360.664, 59.117
1361.862, 579.508
1363.061, 115.219
1364.259, 232.430
1365.457, 450.746
1366.655, 241.562
1367.852, 405.426
1369.050, 597.789
1370.247, 633.996
1371.444, 443.461
1372.641, 464.602
1373.838, 202.070
1375.035, 489.758
1376.231, 646.121
1377.427, 490.488
1378.623, 550.371
1379.819, 352.336
1381.015, 827.441
1382.211, 729.543
1383.406, 502.469
1384.601, 372.520
1385.796, 683.219
1386.991, 887.316
1388.185, 768.188
1389.380, 973.027
1390.574, 637.062
1391.768, 1007.461
1392.962, 588.535
1394.156, 607.656
1395.350, 1071.914
1396.543, 561.168
1397.736, 560.410
1398.929, 428.648
1400.122, 695.898
1401.315, 415.312
1402.507, 580.719
1403.700, 524.371
1404.892, 528.172
1406.084, 270.188
1407.276, 703.582
1408.467, 550.215
1409.659, 683.863
1410.850, 762.520
1412.041, 663.188
1413.232, 865.863
1414.423, 592.551
1415.614, 931.254
1416.804, 829.973
1417.994, 1014.703
1419.184, 439.449
1420.374, 1255.211
1421.564, 751.992
1422.753, 941.797
1423.943, 689.617
1425.132, 937.473
1426.321, 1146.344
1427.510, 1106.633
1428.698, 1218.562
1429.887, 1251.359
1431.075, 1691.395
1432.263, 1188.883
1433.451, 1961.000
1434.639, 2047.074
1435.827, 1999.273
1437.014, 2720.590
1438.201, 2949.039
1439.388, 2756.812
1440.575, 3537.398
1441.762, 3982.551
1442.949, 4334.652
1444.135, 4430.340
1445.321, 4545.699
1446.507, 4046.258
1447.693, 4720.977
1448.879, 4905.785
1450.064, 5104.605
1451.250, 4985.543
1452.435, 6015.664
1453.620, 5597.934
1454.805, 5437.359
1455.989, 6438.945
1457.174, 5331.684
1458.358, 5696.629
1459.542, 5492.742
1460.726, 5121.039
1461.910, 5342.523
1463.093, 4478.195
1464.277, 4379.074
1465.460, 4584.137
1466.643, 3605.367
1467.826, 4238.789
1469.009, 3324.402
1470.191, 3454.223
1471.373, 3325.262
1472.556, 3218.531
1473.738, 2613.043
1474.919, 2918.809
1476.101, 2714.863
1477.283, 2171.238
1478.464, 2185.941
