##NAMES=Bikitaite
##RRUFFID=R050160
##IDEAL CHEMISTRY=LiAlSi_2_O_6_&#183;H_2_O
##LOCALITY=Foote mine, Kings Mountain, Cleveland County, North Carolina, USA
##OWNER=RRUFF
##SOURCE=Jim McGlasson
##DESCRIPTION=Colorless prismatic crystals
##STATUS=The identification of this mineral has been confirmed by X-ray diffraction and chemical analysis
##URL=rruff.info/R050160
##MEASURED CHEMISTRY=Li_1.00_Si_2.00_O_6_Â·1.25H_2_O ; Li not measured but estimated by stoichiometry
##PIN_ID=M00456
##ORIENTATION=Laser parallel to a* (1 0 0). Fiducial mark perpendicular to laser is parallel to b [0 1 0]
94.071, 0.000
95.465, 15.225
96.858, 18.801
98.251, 166.337
99.644, 765.061
101.036, 1264.479
102.428, 2172.166
103.820, 3132.664
105.212, 4326.155
106.604, 5672.665
107.995, 7225.366
109.387, 8611.525
110.777, 9750.422
112.168, 10908.089
113.559, 11209.385
114.949, 11068.903
116.339, 10457.344
117.729, 9573.926
119.119, 8094.804
120.508, 6624.599
121.897, 5226.331
123.286, 4574.235
124.675, 3435.336
126.063, 2517.507
127.452, 1939.457
128.840, 1331.708
130.228, 948.310
131.615, 495.897
133.003, 557.445
134.390, 329.384
135.777, 620.017
137.164, 929.453
138.550, 1774.554
139.937, 2294.460
141.323, 3229.622
142.709, 3775.709
144.094, 4165.871
145.480, 4467.462
146.865, 4785.737
148.250, 4986.763
149.635, 5186.588
151.019, 5247.255
152.403, 5281.797
153.788, 5224.247
155.171, 5279.630
156.555, 5387.971
157.939, 5077.247
159.322, 4835.403
160.705, 4662.389
162.088, 4350.204
163.470, 4048.274
164.853, 3763.422
166.235, 3432.845
167.617, 3038.820
168.998, 2683.869
170.380, 2049.000
171.761, 1692.205
173.142, 990.482
174.523, 669.838
175.904, 148.284
177.284, 246.185
178.664, 423.669
180.044, 51.398
181.424, 100.865
182.803, 200.523
184.183, 234.117
185.562, 242.148
186.940, 180.592
188.319, 182.061
189.698, 66.004
191.076, 127.273
192.454, 199.220
193.831, 387.546
195.209, 868.855
196.586, 1536.678
197.963, 2320.988
199.340, 3181.722
200.717, 3922.784
202.093, 4477.102
203.470, 4663.653
204.846, 4682.429
206.221, 4408.430
207.597, 3858.649
208.972, 3192.083
210.347, 2391.732
211.722, 1930.588
213.097, 1766.634
214.472, 1742.858
215.846, 2131.257
217.220, 2440.828
218.594, 2892.492
219.967, 2449.656
221.341, 2240.143
222.714, 2049.751
224.087, 1687.523
225.460, 1324.625
226.832, 877.457
228.204, 541.492
229.577, 260.729
230.948, 11.835
232.320, 203.206
233.692, 239.384
235.063, 224.375
236.434, 248.183
237.805, 177.808
239.175, 127.746
240.545, 240.477
241.916, 645.379
243.286, 915.450
244.655, 1517.690
246.025, 1872.992
247.394, 2543.127
248.763, 2885.115
250.132, 3049.216
251.501, 3739.490
252.869, 3671.931
254.237, 3819.565
255.605, 3636.384
256.973, 3141.407
258.340, 2608.675
259.708, 2055.552
261.075, 1247.288
262.442, 812.094
263.808, 316.404
265.175, 111.430
266.541, 215.948
267.907, 384.848
269.273, 115.392
270.639, 173.911
272.004, 82.638
273.369, 68.567
274.734, 93.532
276.099, 8.677
277.463, 135.831
278.828, 273.027
280.192, 103.280
281.556, 254.327
282.919, 741.671
284.283, 1203.640
285.646, 1954.316
287.009, 2519.721
288.372, 2942.885
289.734, 3024.818
291.097, 2879.553
292.459, 2671.161
293.821, 2571.598
295.183, 1942.891
296.544, 1633.047
297.905, 1033.079
299.266, 897.994
300.627, 527.564
301.988, 383.900
303.348, 293.869
304.709, 282.240
306.069, 426.241
307.428, 689.127
308.788, 931.682
310.147, 1190.268
311.507, 1737.922
312.865, 2014.613
314.224, 2339.395
315.583, 2491.248
316.941, 2788.148
318.299, 2863.128
319.657, 2743.177
321.015, 2841.351
322.372, 2766.575
323.729, 2826.895
325.086, 2743.285
326.443, 2872.731
327.800, 2262.019
329.156, 2112.990
330.512, 1466.705
331.868, 1018.478
333.224, 665.310
334.579, 675.197
335.935, 219.158
337.290, 404.201
338.645, 412.301
339.999, 717.457
341.354, 993.187
342.708, 1231.623
344.062, 1584.422
345.416, 2016.216
346.769, 2169.121
348.123, 2204.730
349.476, 2144.359
350.829, 2103.393
352.182, 1997.136
353.534, 1806.404
354.887, 1341.150
356.239, 1308.466
357.591, 1023.070
358.942, 1040.740
360.294, 1090.474
361.645, 1044.265
362.996, 1277.115
364.347, 1532.023
365.698, 1879.985
367.048, 2329.000
368.398, 2859.068
369.748, 3402.187
371.098, 4425.356
372.448, 5328.576
373.797, 6494.844
375.146, 7628.158
376.495, 9273.516
377.844, 10811.924
379.192, 11795.368
380.540, 13745.867
381.889, 14294.392
383.236, 15146.971
384.584, 15759.604
385.932, 16002.274
387.279, 16158.011
388.626, 16705.801
389.973, 17596.648
391.319, 17971.561
392.666, 19459.520
394.012, 19850.895
395.358, 20345.525
396.704, 20334.145
398.049, 19628.482
399.394, 17972.906
400.740, 15352.048
402.084, 13340.376
403.429, 10876.765
404.774, 9003.198
406.118, 7792.677
407.462, 6500.207
408.806, 5470.784
410.150, 4978.405
411.493, 4442.218
412.836, 4243.939
414.179, 3936.704
415.522, 3537.513
416.865, 3632.398
418.207, 3436.297
419.549, 3159.187
420.891, 3192.625
422.233, 3105.463
423.575, 2899.667
424.916, 2562.298
426.257, 2519.029
427.598, 2390.820
428.939, 2233.001
430.279, 2078.741
431.619, 1756.894
432.959, 1532.086
434.299, 1383.110
435.639, 1507.745
436.978, 1170.277
438.318, 1307.880
439.657, 1071.067
440.996, 1229.550
442.334, 1164.941
443.673, 1155.769
445.011, 1047.524
446.349, 1425.667
447.687, 1443.226
449.024, 1638.810
450.361, 1928.417
451.699, 2135.163
453.036, 2593.621
454.372, 2970.481
455.709, 3533.185
457.045, 3513.216
458.381, 3715.201
459.717, 3643.290
461.053, 3632.313
462.388, 3401.107
463.724, 3410.049
465.059, 3538.877
466.394, 3415.321
467.728, 3711.560
469.063, 4220.036
470.397, 4641.334
471.731, 4996.094
473.065, 6064.642
474.398, 6422.146
475.732, 7624.731
477.065, 8044.164
478.398, 9103.608
479.731, 9746.088
481.063, 10785.200
482.396, 11703.614
483.728, 13224.411
485.060, 15189.712
486.391, 17192.445
487.723, 20338.225
489.054, 23437.783
490.385, 27487.248
491.716, 31212.197
493.047, 34715.082
494.377, 38032.859
495.708, 40509.828
497.038, 41597.707
498.368, 40276.699
499.697, 38097.719
501.027, 35365.480
502.356, 31795.174
503.685, 27391.688
505.014, 23754.635
506.342, 19759.246
507.671, 16971.508
508.999, 14211.907
510.327, 12186.911
511.655, 10427.006
512.982, 8719.351
514.310, 7919.957
515.637, 6520.903
516.964, 5852.235
518.291, 4963.318
519.617, 4628.303
520.944, 3939.280
522.270, 3232.248
523.596, 3133.203
524.921, 2658.150
526.247, 2533.085
527.572, 2182.009
528.897, 2060.923
530.222, 1903.824
531.547, 1891.711
532.871, 2005.586
534.196, 1829.446
535.520, 1870.292
536.844, 2191.125
538.167, 2184.940
539.491, 2097.742
540.814, 2027.525
542.137, 1952.292
543.460, 1733.044
544.783, 1509.778
546.105, 1292.493
547.427, 1161.189
548.749, 929.866
550.071, 799.524
551.393, 609.163
552.714, 711.779
554.035, 567.389
555.356, 474.047
556.677, 381.765
557.998, 333.536
559.318, 344.366
560.638, 267.229
561.958, 240.066
563.278, 141.879
564.597, 257.829
565.917, 57.602
567.236, 79.348
568.555, 134.074
569.874, 77.226
571.192, 82.397
572.511, 67.992
573.829, 93.559
575.147, 106.531
576.464, 53.876
577.782, 128.727
579.099, 61.435
580.416, 92.192
581.733, 128.110
583.050, 1.121
584.366, 54.327
585.683, 106.656
586.999, 117.636
588.315, 67.233
589.630, 10.078
590.946, 10.008
592.261, 34.058
593.576, 108.626
594.891, 26.515
596.206, 20.308
597.520, 56.044
598.834, 30.509
600.148, 94.166
601.462, 57.052
602.776, 13.200
604.089, 83.227
605.402, 43.509
606.715, 1.105
608.028, 52.865
609.341, 67.026
610.653, 175.265
611.965, 40.712
613.277, 86.452
614.589, 77.160
615.901, 61.998
617.212, 39.065
618.523, 69.088
619.834, 66.467
621.145, 36.366
622.456, 46.156
623.766, 2.096
625.076, 218.595
626.386, 133.256
627.696, 179.879
629.006, 11.251
630.315, 128.971
631.624, 115.674
632.933, 39.986
634.242, 4.968
635.551, 69.762
636.859, 3.270
638.167, 225.838
639.475, 3.151
640.783, 127.382
642.090, 19.697
643.398, 3.597
644.705, 101.722
646.012, 35.999
647.318, 15.222
648.625, 71.383
649.931, 80.497
651.237, 109.565
652.543, 1.587
653.849, 19.162
655.155, 77.372
656.460, 75.164
657.765, 7.484
659.070, 91.813
660.375, 11.944
661.679, 51.463
662.984, 38.813
664.288, 126.636
665.592, 3.271
666.895, 100.581
668.199, 52.556
669.502, 108.468
670.805, 98.324
672.108, 279.125
673.411, 211.873
674.713, 271.570
676.016, 473.213
677.318, 402.962
678.620, 540.517
679.921, 546.029
681.223, 601.492
682.524, 729.903
683.825, 606.261
685.126, 671.570
686.427, 831.845
687.727, 540.068
689.028, 518.241
690.328, 350.360
691.628, 579.429
692.927, 560.447
694.227, 640.413
695.526, 361.326
696.825, 781.190
698.124, 766.000
699.423, 901.760
700.721, 837.468
702.020, 940.125
703.318, 947.729
704.616, 900.283
705.913, 778.784
707.211, 834.234
708.508, 1098.632
709.805, 679.978
711.102, 587.272
712.399, 877.537
713.695, 573.727
714.992, 616.867
716.288, 469.953
717.584, 576.987
718.879, 500.968
720.175, 309.063
721.470, 638.935
722.765, 543.755
724.060, 511.038
725.355, 546.751
726.649, 414.270
727.944, 395.877
729.238, 498.432
730.532, 261.933
731.825, 526.403
733.119, 554.081
734.412, 436.891
735.705, 410.020
736.998, 529.451
738.291, 528.500
739.584, 661.081
740.876, 849.507
742.168, 988.550
743.460, 1036.750
744.752, 1286.174
746.043, 1472.378
747.334, 2053.679
748.626, 2252.319
749.916, 2554.599
751.207, 3316.832
752.498, 3933.744
753.788, 4640.196
755.078, 5384.471
756.368, 6411.792
757.658, 7049.092
758.947, 8016.384
760.237, 9183.625
761.526, 8566.783
762.815, 8898.014
764.104, 8614.924
765.392, 8378.840
766.680, 7891.799
767.969, 7112.430
769.257, 6816.184
770.544, 5783.798
771.832, 5187.527
773.119, 4527.497
774.406, 4157.633
775.693, 3677.766
776.980, 3078.852
778.267, 2829.994
779.553, 2390.529
780.839, 2357.117
782.125, 1901.482
783.411, 1934.757
784.697, 1617.129
785.982, 1651.304
787.267, 1573.200
788.552, 1387.267
789.837, 1288.116
791.122, 1218.522
792.406, 1018.582
793.690, 1073.962
794.974, 1028.004
796.258, 767.620
797.542, 855.695
798.825, 675.302
800.108, 747.817
801.391, 385.514
802.674, 524.279
803.957, 461.509
805.239, 439.762
806.522, 523.095
807.804, 227.203
809.085, 420.346
810.367, 422.366
811.649, 208.305
812.930, 230.465
814.211, 290.721
815.492, 141.265
816.772, 191.480
818.053, 239.165
819.333, 126.348
820.613, 5.567
821.893, 215.367
823.173, 116.239
824.452, 170.024
825.732, 272.684
827.011, 80.139
828.290, 73.281
829.568, 164.642
830.847, 13.076
832.125, 278.326
833.403, 212.709
834.681, 85.076
835.959, 206.421
837.236, 82.743
838.514, 110.047
839.791, 233.243
841.068, 183.505
842.345, 134.748
843.621, 202.971
844.898, 198.175
846.174, 165.359
847.450, 223.526
848.726, 63.673
850.001, 162.803
851.277, 73.915
852.552, 100.008
853.827, 152.085
855.102, 127.145
856.376, 78.190
857.651, 312.217
858.925, 276.229
860.199, 239.225
861.473, 126.207
862.746, 180.172
864.020, 324.124
865.293, 18.060
866.566, 281.982
867.839, 104.293
869.112, 150.188
870.384, 76.069
871.656, 48.939
872.928, 11.871
874.200, 109.463
875.472, 81.273
876.744, 20.928
878.015, 84.844
879.286, 30.605
880.557, 50.380
881.828, 118.144
883.098, 99.898
884.369, 5.281
885.639, 18.944
886.909, 21.190
888.178, 3.417
889.448, 30.364
890.717, 227.180
891.987, 64.029
893.256, 71.875
894.524, 131.756
895.793, 11.630
897.061, 87.538
898.330, 36.076
899.598, 20.546
900.865, 52.321
902.133, 156.225
903.401, 14.838
904.668, 35.883
905.935, 37.079
907.202, 11.025
908.468, 10.967
909.735, 129.979
911.001, 168.025
912.267, 22.922
913.533, 0.823
914.799, 41.292
916.064, 42.893
917.330, 155.644
918.595, 42.005
919.860, 80.417
921.124, 3.320
922.389, 27.697
923.653, 34.651
924.918, 45.791
926.182, 73.548
927.445, 44.426
928.709, 65.362
929.972, 40.823
931.236, 0.297
932.499, 32.198
933.761, 129.298
935.024, 7.091
936.286, 31.906
937.549, 171.805
938.811, 59.320
940.073, 210.942
941.334, 40.520
942.596, 21.825
943.857, 104.823
945.118, 205.505
946.379, 108.279
947.640, 160.070
948.900, 375.925
950.161, 291.817
951.421, 549.731
952.681, 730.650
953.940, 973.579
955.200, 1328.523
956.459, 1579.476
957.719, 2507.437
958.978, 2979.403
960.236, 3680.408
961.495, 4301.449
962.753, 4646.505
964.012, 4358.581
965.270, 3646.719
966.527, 3179.910
967.785, 2401.134
969.043, 2062.407
970.300, 1492.693
971.557, 1145.040
972.814, 807.106
974.071, 691.499
975.327, 933.905
976.583, 670.324
977.840, 469.750
979.095, 380.187
980.351, 87.631
981.607, 281.082
982.862, 47.617
984.117, 34.170
985.372, 370.266
986.627, 211.712
987.882, 100.166
989.136, 56.629
990.390, 41.784
991.644, 206.541
992.898, 33.992
994.152, 113.451
995.405, 277.916
996.659, 275.395
997.912, 387.888
999.165, 564.427
1000.417, 629.975
1001.670, 371.536
1002.922, 720.104
1004.174, 382.678
1005.426, 314.260
1006.678, 71.902
1007.930, 20.554
1009.181, 79.209
1010.432, 57.875
1011.683, 15.549
1012.934, 66.229
1014.185, 104.927
1015.435, 164.633
1016.685, 150.326
1017.935, 8.956
1019.185, 118.766
1020.435, 215.496
1021.684, 40.230
1022.934, 129.971
1024.183, 275.559
1025.432, 163.322
1026.680, 289.095
1027.929, 93.357
1029.177, 243.143
1030.425, 184.938
1031.673, 442.737
1032.921, 410.548
1034.169, 307.364
1035.416, 373.136
1036.663, 691.682
1037.911, 724.104
1039.157, 599.675
1040.404, 728.750
1041.650, 605.703
1042.897, 704.588
1044.143, 296.867
1045.389, 350.764
1046.634, 338.793
1047.880, 85.724
1049.125, 107.667
1050.371, 123.057
1051.615, 316.516
1052.860, 86.558
1054.105, 280.895
1055.349, 157.059
1056.593, 341.331
1057.837, 451.166
1059.081, 345.213
1060.325, 345.346
1061.568, 410.471
1062.812, 291.337
1064.055, 469.549
1065.298, 434.306
1066.540, 441.674
1067.783, 334.599
1069.025, 426.771
1070.267, 747.170
1071.509, 521.567
1072.751, 800.516
1073.993, 1028.710
1075.234, 1088.558
1076.475, 1208.447
1077.716, 1512.954
1078.957, 1569.898
1080.198, 1958.952
1081.438, 2462.225
1082.679, 2790.003
1083.919, 3389.514
1085.159, 3809.225
1086.398, 4230.876
1087.638, 4586.844
1088.877, 4967.106
1090.116, 5119.094
1091.355, 4992.503
1092.594, 4672.595
1093.833, 4224.570
1095.071, 3851.008
1096.309, 3567.570
1097.547, 3406.780
1098.785, 2845.970
1100.023, 3125.462
1101.260, 3087.549
1102.498, 3304.765
1103.735, 3255.897
1104.972, 3400.621
1106.208, 3130.539
1107.445, 2996.452
1108.681, 2544.373
1109.918, 2451.857
1111.154, 1978.307
1112.389, 1935.774
1113.625, 1597.126
1114.860, 1429.213
1116.096, 1443.332
1117.331, 1454.802
1118.566, 1328.070
1119.800, 1533.946
1121.035, 1539.329
1122.269, 1627.372
1123.503, 1674.916
1124.737, 1928.257
1125.971, 1973.031
1127.205, 1973.852
1128.438, 1801.096
1129.671, 1629.147
1130.904, 1210.873
1132.137, 1320.408
1133.370, 1086.605
1134.602, 928.314
1135.834, 665.470
1137.066, 702.831
1138.298, 620.081
1139.530, 721.322
1140.762, 740.690
1141.993, 601.852
1143.224, 511.728
1144.455, 542.339
1145.686, 687.450
1146.917, 673.808
1148.147, 946.791
1149.377, 946.096
1150.607, 1178.022
1151.837, 1128.896
1153.067, 1137.472
1154.296, 1324.916
1155.526, 1521.909
1156.755, 1351.323
1157.984, 1527.652
1159.213, 1390.445
1160.441, 1342.089
1161.670, 1480.048
1162.898, 1414.878
1164.126, 1200.586
1165.354, 1236.876
1166.581, 1228.302
1167.809, 1105.560
1169.036, 817.914
1170.263, 1061.536
1171.490, 843.729
1172.717, 734.909
1173.943, 598.679
1175.170, 520.023
1176.396, 442.658
1177.622, 600.359
1178.848, 381.446
1180.073, 148.286
1181.299, 439.335
1182.524, 335.648
1183.749, 199.654
1184.974, 269.631
1186.199, 317.542
1187.423, 63.479
1188.648, 95.410
1189.872, 254.317
1191.096, 22.766
1192.320, 126.947
1193.543, 86.503
1194.767, 127.191
1195.990, 34.177
1197.213, 71.153
1198.436, 7.074
1199.659, 109.212
1200.881, 55.341
1202.104, 161.004
1203.326, 46.881
1204.548, 254.493
1205.770, 47.369
1206.991, 99.934
1208.213, 103.829
1209.434, 67.280
1210.655, 6.080
1211.876, 35.293
1213.096, 104.803
1214.317, 18.026
1215.537, 150.257
1216.757, 55.896
1217.977, 47.776
1219.197, 95.104
1220.417, 3.607
1221.636, 26.720
1222.855, 10.376
1224.074, 22.073
1225.293, 81.604
1226.512, 17.878
1227.731, 7.931
1228.949, 13.202
1230.167, 33.703
1231.385, 40.635
1232.603, 18.569
1233.820, 34.418
1235.038, 23.942
1236.255, 172.820
1237.472, 137.706
1238.689, 69.304
1239.906, 174.854
1241.122, 52.381
1242.338, 21.882
1243.555, 106.361
1244.771, 109.814
1245.986, 37.247
1247.202, 133.636
1248.417, 102.001
1249.633, 121.294
1250.848, 3.564
1252.063, 186.770
1253.277, 178.947
1254.492, 34.801
1255.706, 32.383
1256.920, 39.929
1258.134, 30.022
1259.348, 24.255
1260.562, 121.911
1261.775, 112.816
1262.988, 58.262
1264.201, 73.664
1265.414, 165.431
1266.627, 42.119
1267.839, 121.768
1269.052, 17.386
1270.264, 46.373
1271.476, 200.860
1272.688, 1.313
1273.899, 61.717
1275.111, 105.090
1276.322, 180.434
1277.533, 18.071
1278.744, 63.203
1279.955, 2.451
1281.165, 66.662
1282.376, 27.835
1283.586, 6.975
1284.796, 130.079
1286.006, 23.131
1287.215, 50.152
1288.425, 115.135
1289.634, 9.949
1290.843, 4.089
1292.052, 77.688
1293.261, 75.470
1294.469, 6.821
1295.678, 81.844
1296.886, 90.477
1298.094, 158.075
1299.302, 128.619
1300.509, 50.105
1301.717, 218.538
1302.924, 8.936
1304.131, 85.294
1305.338, 116.619
1306.545, 16.091
1307.752, 63.161
1308.958, 87.375
1310.164, 205.558
1311.370, 49.709
1312.576, 181.828
1313.782, 153.919
1314.987, 84.976
1316.193, 9.000
1317.398, 306.988
1318.603, 43.944
1319.807, 134.866
1321.012, 61.752
1322.216, 45.605
1323.421, 187.425
1324.625, 24.212
1325.829, 286.968
1327.032, 112.689
1328.236, 205.379
1329.439, 6.045
1330.642, 32.044
1331.845, 6.257
1333.048, 192.606
1334.251, 180.056
1335.453, 48.555
1336.656, 102.637
1337.858, 30.079
1339.060, 34.845
1340.261, 149.737
1341.463, 14.530
1342.664, 127.554
1343.866, 68.342
1345.067, 65.531
1346.267, 170.467
1347.468, 116.694
1348.669, 206.547
1349.869, 239.736
1351.069, 82.268
1352.269, 64.272
1353.469, 202.269
1354.668, 114.095
1355.868, 130.158
1357.067, 203.491
1358.266, 2.425
1359.465, 240.570
1360.664, 74.685
1361.862, 28.369
1363.061, 142.073
1364.259, 96.074
1365.457, 51.512
1366.655, 262.885
1367.852, 76.047
1369.050, 125.762
1370.247, 184.883
1371.444, 216.037
1372.641, 89.668
1373.838, 322.886
1375.035, 137.317
1376.231, 109.975
1377.427, 321.635
1378.623, 101.280
1379.819, 223.757
1381.015, 50.137
1382.211, 114.279
1383.406, 244.292
1384.601, 170.572
1385.796, 168.390
1386.991, 343.947
1388.185, 194.669
1389.380, 206.003
1390.574, 341.864
1391.768, 170.687
1392.962, 214.800
1394.156, 205.130
1395.350, 108.971
1396.543, 252.963
1397.736, 79.488
1398.929, 86.435
1400.122, 0.813
1401.315, 225.297
1402.507, 233.041
1403.700, 134.620
1404.892, 163.006
1406.084, 119.076
1407.276, 61.237
1408.467, 324.974
1409.659, 101.309
1410.850, 136.411
1412.041, 319.582
1413.232, 6.985
1414.423, 130.343
1415.614, 102.909
1416.804, 144.202
1417.994, 235.993
1419.184, 298.503
1420.374, 18.995
1421.564, 385.402
1422.753, 124.364
1423.943, 252.843
1425.132, 96.704
1426.321, 207.189
1427.510, 285.592
1428.698, 272.588
1429.887, 661.213
1431.075, 627.445
1432.263, 222.331
1433.451, 212.911
1434.639, 327.212
1435.827, 471.710
1437.014, 256.507
1438.201, 561.101
1439.388, 642.553
1440.575, 471.053
1441.762, 547.707
1442.949, 724.129
1444.135, 586.896
1445.321, 727.497
1446.507, 762.757
1447.693, 680.466
1448.879, 744.073
1450.064, 732.065
1451.250, 763.826
1452.435, 623.706
1453.620, 792.114
1454.805, 843.098
1455.989, 868.982
1457.174, 1139.765
1458.358, 670.520
1459.542, 792.371
1460.726, 962.309
1461.910, 786.771
1463.093, 889.469
1464.277, 621.220
1465.460, 554.928
1466.643, 609.213
1467.826, 371.133
1469.009, 661.986
1470.191, 408.172
1471.373, 468.411
1472.556, 546.121
1473.738, 620.355
1474.919, 357.609
1476.101, 726.861
1477.283, 390.330
1478.464, 331.935
1479.645, 260.778
1480.826, 403.682
1482.007, 260.649
1483.187, 585.699
1484.368, 163.857
1485.548, 340.149
1486.728, 334.531
1487.908, 169.001
1489.088, 348.573
1490.268, 646.250
1491.447, 208.042
1492.626, 239.964
1493.805, 187.066
1494.984, 252.358
1496.163, 323.856
1497.341, 187.604
1498.520, 248.567
1499.698, 77.774
1500.876, 292.241
1502.054, 10.415
1503.232, 132.972
1504.409, 24.277
1505.586, 3.907
1506.763, 60.897
1507.940, 127.296
1509.117, 5.389
1510.294, 160.507
1511.470, 85.414
1512.647, 45.928
