##NAMES=Bikitaite
##RRUFFID=R050160
##IDEAL CHEMISTRY=LiAlSi_2_O_6_&#183;H_2_O
##LOCALITY=Foote mine, Kings Mountain, Cleveland County, North Carolina, USA
##OWNER=RRUFF
##SOURCE=Jim McGlasson
##DESCRIPTION=Colorless prismatic crystals
##STATUS=The identification of this mineral has been confirmed by X-ray diffraction and chemical analysis
##URL=rruff.info/R050160
##MEASURED CHEMISTRY=Li_1.00_Si_2.00_O_6_Â·1.25H_2_O ; Li not measured but estimated by stoichiometry
##PIN_ID=M00456
##ORIENTATION=Laser parallel to a* (1 0 0). Fiducial mark perpendicular to laser is parallel to b [0 1 0]
88.496, 0.000
89.890, 45.757
91.284, 759.860
92.678, 2015.816
94.071, 3619.397
95.465, 5138.705
96.858, 6772.067
98.251, 8160.024
99.644, 9752.464
101.036, 10913.280
102.428, 12195.605
103.820, 13713.090
105.212, 15188.468
106.604, 16422.047
107.995, 18141.268
109.387, 19748.855
110.777, 21077.387
112.168, 22654.385
113.559, 22583.189
114.949, 21561.148
116.339, 19277.719
117.729, 16378.311
119.119, 13274.904
120.508, 10573.134
121.897, 8027.348
123.286, 6508.650
124.675, 4643.969
126.063, 3135.104
127.452, 1990.741
128.840, 1170.479
130.228, 707.834
131.615, 503.799
133.003, 1173.563
134.390, 1838.024
135.777, 2945.143
137.164, 4094.442
138.550, 5711.885
139.937, 6509.410
141.323, 7623.852
142.709, 8606.928
144.094, 9496.618
145.480, 10065.895
146.865, 10552.732
148.250, 10638.118
149.635, 10474.033
151.019, 10061.455
152.403, 9755.359
153.788, 9217.630
155.171, 8919.134
156.555, 8309.801
157.939, 7811.635
159.322, 7004.648
160.705, 6191.854
162.088, 5063.261
163.470, 4063.877
164.853, 3125.711
166.235, 2348.768
167.617, 1831.052
168.998, 1382.570
170.380, 937.326
171.761, 570.314
173.142, 158.702
174.523, 36.754
175.904, 365.437
177.284, 701.833
178.664, 784.439
180.044, 1083.275
181.424, 939.963
182.803, 974.255
184.183, 851.851
185.562, 693.889
186.940, 586.152
188.319, 473.178
189.698, 131.628
191.076, 91.461
192.454, 577.062
193.831, 1341.127
195.209, 2426.543
196.586, 3795.186
197.963, 4949.995
199.340, 6390.968
200.717, 7575.104
202.093, 8764.404
203.470, 9587.869
204.846, 9709.507
206.221, 9172.312
207.597, 8258.291
208.972, 6819.441
210.347, 5137.765
211.722, 4327.259
213.097, 4068.924
214.472, 3692.596
215.846, 4065.615
217.220, 4355.366
218.594, 4769.672
219.967, 5050.643
221.341, 5438.617
222.714, 5193.193
224.087, 5035.957
225.460, 4663.986
226.832, 4217.278
228.204, 3730.826
229.577, 3401.627
230.948, 2894.676
232.320, 2570.967
233.692, 2377.500
235.063, 2299.268
236.434, 2182.269
237.805, 2117.499
239.175, 2106.955
240.545, 2130.634
241.916, 2515.535
243.286, 2544.652
244.655, 2703.988
246.025, 2938.537
247.394, 3302.298
248.763, 3735.265
250.132, 3927.439
251.501, 4525.814
252.869, 4646.392
254.237, 5069.150
255.605, 5513.121
256.973, 5565.873
258.340, 5389.346
259.708, 4879.746
261.075, 4224.537
262.442, 3549.329
263.808, 2935.854
265.175, 2195.918
266.541, 1639.320
267.907, 1141.892
269.273, 635.523
270.639, 267.133
272.004, 28.319
273.369, 137.910
274.734, 331.684
276.099, 492.727
277.463, 594.334
278.828, 384.711
280.192, 252.805
281.556, 155.483
282.919, 220.322
284.283, 484.711
285.646, 1028.795
287.009, 1313.611
288.372, 1781.196
289.734, 2491.519
291.097, 2769.669
292.459, 2948.661
293.821, 3195.491
295.183, 3196.185
296.544, 3082.408
297.905, 2814.020
299.266, 2635.385
300.627, 2470.511
301.988, 2242.648
303.348, 2297.320
304.709, 1878.481
306.069, 1691.760
307.428, 1439.154
308.788, 1176.661
310.147, 1248.278
311.507, 1508.031
312.865, 1543.890
314.224, 1639.907
315.583, 1740.088
316.941, 1748.384
318.299, 1522.854
319.657, 1244.474
321.015, 1073.266
322.372, 745.171
323.729, 705.227
325.086, 456.417
326.443, 485.720
327.800, 299.144
329.156, 504.674
330.512, 457.302
331.868, 479.019
333.224, 872.827
334.579, 1131.729
335.935, 1482.736
337.290, 2267.490
338.645, 2750.529
339.999, 3508.821
341.354, 4239.461
342.708, 4941.365
344.062, 5472.934
345.416, 6028.641
346.769, 6465.918
348.123, 6670.098
349.476, 6577.514
350.829, 6505.166
352.182, 6332.372
353.534, 6225.460
354.887, 5737.637
356.239, 5457.155
357.591, 5175.751
358.942, 4985.418
360.294, 5151.162
361.645, 5081.976
362.996, 5443.860
364.347, 5982.816
365.698, 6645.844
367.048, 7661.938
368.398, 8654.102
369.748, 9783.331
371.098, 11800.630
372.448, 13677.993
373.797, 16207.422
375.146, 18538.910
376.495, 21782.467
377.844, 24989.088
379.192, 27363.771
380.540, 30640.527
381.889, 31703.359
383.236, 33277.270
384.584, 33998.285
385.932, 33396.371
387.279, 32568.562
388.626, 32088.830
389.973, 31958.182
391.319, 31075.629
392.666, 32028.154
394.012, 32049.758
395.358, 32812.453
396.704, 32791.219
398.049, 32097.066
399.394, 31114.990
400.740, 28231.998
402.084, 25922.076
403.429, 23304.229
404.774, 20978.453
406.118, 19446.748
407.462, 17328.119
408.806, 15492.556
410.150, 14257.064
411.493, 12790.637
412.836, 11781.281
414.179, 10535.987
415.522, 9340.760
416.865, 9157.601
418.207, 8312.482
419.549, 7562.383
420.891, 7262.287
422.233, 6881.186
423.575, 6438.072
424.916, 5928.941
426.257, 5839.789
427.598, 5372.611
428.939, 5295.613
430.279, 5284.018
431.619, 4864.762
432.959, 4809.574
434.299, 4906.857
435.639, 5028.963
436.978, 4617.330
438.318, 4702.984
439.657, 4300.919
440.996, 4197.967
442.334, 3750.627
443.673, 3338.238
445.011, 2956.461
446.349, 2911.663
447.687, 2621.433
449.024, 2605.751
450.361, 2546.619
451.699, 2435.478
453.036, 2682.478
454.372, 2835.023
455.709, 3309.953
457.045, 3277.491
458.381, 3788.198
459.717, 3720.054
461.053, 4041.391
462.388, 4170.295
463.724, 4461.816
465.059, 4913.613
466.394, 5181.521
467.728, 5844.154
469.063, 6999.824
470.397, 8134.751
471.731, 9419.265
473.065, 11471.363
474.398, 13190.590
475.732, 15732.823
477.065, 17050.766
478.398, 18605.994
479.731, 19624.648
481.063, 20052.674
482.396, 19430.533
483.728, 19337.477
485.060, 19795.193
486.391, 20126.414
487.723, 21700.006
489.054, 23178.906
490.385, 25939.975
491.716, 28321.617
493.047, 30223.750
494.377, 32091.863
495.708, 33803.773
497.038, 34220.484
498.368, 32853.191
499.697, 30905.781
501.027, 28959.826
502.356, 25989.906
503.685, 22318.559
505.014, 19343.283
506.342, 16303.799
507.671, 14188.400
508.999, 11822.361
510.327, 10316.220
511.655, 10152.676
512.982, 7868.027
514.310, 7029.530
515.637, 6042.107
516.964, 5556.699
518.291, 5020.299
519.617, 4769.912
520.944, 4256.543
522.270, 3785.184
523.596, 3804.830
524.921, 3602.489
526.247, 3637.164
527.572, 3554.845
528.897, 3673.531
530.222, 3989.219
531.547, 4226.913
532.871, 4544.605
534.196, 4743.301
535.520, 4895.998
536.844, 5562.707
538.167, 5618.417
539.491, 5570.126
540.814, 5270.836
542.137, 5066.547
543.460, 4350.259
544.783, 3712.965
546.105, 3032.669
547.427, 2840.368
548.749, 2725.062
550.071, 1911.749
551.393, 1828.428
552.714, 1551.098
554.035, 1352.761
555.356, 1184.414
556.677, 1190.058
557.998, 891.689
559.318, 963.311
560.638, 1048.920
561.958, 824.516
563.278, 790.098
564.597, 820.667
565.917, 659.222
567.236, 604.762
568.555, 644.284
569.874, 494.791
571.192, 473.280
572.511, 579.753
573.829, 361.204
575.147, 278.639
576.464, 378.052
577.782, 172.444
579.099, 254.817
580.416, 90.168
581.733, 93.497
583.050, 188.804
584.366, 140.088
585.683, 197.351
586.999, 42.409
588.315, 51.571
589.630, 76.872
590.946, 17.411
592.261, 73.516
593.576, 94.042
594.891, 185.167
596.206, 113.907
597.520, 94.272
598.834, 110.876
600.148, 212.662
601.462, 147.088
602.776, 12.220
604.089, 246.399
605.402, 237.204
606.715, 243.585
608.028, 11.086
609.341, 247.679
610.653, 215.903
611.965, 110.967
613.277, 146.811
614.589, 138.550
615.901, 155.041
617.212, 123.449
618.523, 49.259
619.834, 63.527
621.145, 191.838
622.456, 114.417
623.766, 100.582
625.076, 292.014
626.386, 237.937
627.696, 135.558
629.006, 47.664
630.315, 118.833
631.624, 149.706
632.933, 179.392
634.242, 2.932
635.551, 238.508
636.859, 131.488
638.167, 230.973
639.475, 2.898
640.783, 145.767
642.090, 92.438
643.398, 2.956
644.705, 37.821
646.012, 6.866
647.318, 45.732
648.625, 133.287
649.931, 90.471
651.237, 59.551
652.543, 3.812
653.849, 95.765
655.155, 202.749
656.460, 115.264
657.765, 201.329
659.070, 84.164
660.375, 209.140
661.679, 284.883
662.984, 115.513
664.288, 131.576
665.592, 241.093
666.895, 363.857
668.199, 264.132
669.502, 490.526
670.805, 423.359
672.108, 677.221
673.411, 752.369
674.713, 869.491
676.016, 1152.978
677.318, 1351.066
678.620, 1555.693
679.921, 1752.213
681.223, 2098.286
682.524, 2388.365
683.825, 2276.150
685.126, 2545.592
686.427, 2470.872
687.727, 2230.000
689.028, 2034.067
690.328, 1780.070
691.628, 1796.168
692.927, 1618.637
694.227, 1547.451
695.526, 1333.550
696.825, 1911.365
698.124, 1651.345
699.423, 1815.903
700.721, 1990.398
702.020, 2008.368
703.318, 2029.734
704.616, 2001.035
705.913, 1770.272
707.211, 1948.444
708.508, 1875.551
709.805, 1750.594
711.102, 1640.570
712.399, 1854.527
713.695, 1574.374
714.992, 1733.154
716.288, 1535.870
717.584, 1689.521
718.879, 1447.104
720.175, 1226.961
721.470, 1545.415
722.765, 1436.803
724.060, 1369.125
725.355, 1496.381
726.649, 1397.586
727.944, 1415.711
729.238, 1445.770
730.532, 1062.764
731.825, 1191.690
733.119, 980.551
734.412, 755.346
735.705, 656.076
736.998, 558.739
738.291, 536.338
739.584, 494.870
740.876, 472.336
742.168, 519.738
743.460, 299.866
744.752, 382.495
746.043, 354.692
747.334, 531.725
748.626, 357.788
749.916, 307.782
751.207, 426.987
752.498, 352.444
753.788, 456.907
755.078, 260.103
756.368, 380.673
757.658, 297.129
758.947, 299.726
760.237, 440.487
761.526, 240.603
762.815, 215.098
764.104, 224.967
765.392, 319.772
766.680, 230.365
767.969, 163.339
769.257, 344.858
770.544, 100.703
771.832, 162.308
773.119, 221.701
774.406, 60.567
775.693, 161.818
776.980, 115.417
778.267, 180.718
779.553, 123.883
780.839, 221.299
782.125, 302.657
783.411, 238.737
784.697, 357.205
785.982, 295.065
787.267, 276.777
788.552, 213.452
789.837, 137.402
791.122, 203.029
792.406, 60.212
793.690, 17.986
794.974, 53.900
796.258, 193.693
797.542, 113.688
798.825, 19.846
800.108, 22.203
801.391, 9.913
802.674, 16.422
803.957, 82.326
805.239, 125.301
806.522, 34.028
807.804, 239.484
809.085, 60.124
810.367, 28.279
811.649, 54.548
812.930, 84.162
814.211, 24.621
815.492, 38.424
816.772, 58.994
818.053, 15.095
819.333, 50.020
820.613, 13.934
821.893, 77.455
823.173, 32.473
824.452, 20.223
825.732, 188.026
827.011, 43.235
828.290, 33.405
829.568, 2.467
830.847, 33.384
832.125, 102.638
833.403, 111.624
834.681, 22.428
835.959, 24.530
837.236, 4.313
838.514, 63.117
839.791, 84.885
841.068, 211.617
842.345, 137.316
843.621, 141.982
844.898, 59.615
846.174, 46.787
847.450, 148.755
848.726, 7.266
850.001, 57.740
851.277, 26.817
852.552, 206.582
853.827, 180.950
855.102, 6.713
856.376, 231.590
857.651, 236.862
858.925, 204.106
860.199, 168.322
861.473, 127.508
862.746, 259.667
864.020, 316.799
865.293, 48.902
866.566, 241.979
867.839, 142.031
869.112, 162.055
870.384, 195.054
871.656, 165.026
872.928, 7.024
874.200, 194.896
875.472, 132.793
876.744, 158.666
878.015, 113.516
879.286, 29.341
880.557, 134.145
881.828, 122.927
883.098, 283.686
884.369, 158.423
885.639, 133.141
886.909, 94.837
888.178, 58.514
889.448, 151.170
890.717, 417.807
891.987, 142.425
893.256, 185.024
894.524, 225.609
895.793, 122.177
897.061, 199.098
898.330, 230.361
899.598, 184.489
900.865, 334.020
902.133, 242.146
903.401, 111.048
904.668, 252.521
905.935, 302.721
907.202, 191.296
908.468, 225.127
909.735, 263.646
911.001, 385.877
912.267, 212.116
913.533, 287.872
914.799, 294.114
916.064, 184.372
917.330, 324.675
918.595, 203.498
919.860, 172.058
921.124, 249.322
922.389, 269.399
923.653, 270.152
924.918, 233.734
926.182, 385.646
927.445, 274.898
928.709, 273.598
929.972, 272.030
931.236, 229.839
932.499, 410.341
933.761, 410.317
935.024, 423.585
936.286, 329.655
937.549, 666.941
938.811, 445.237
940.073, 719.591
941.334, 507.835
942.596, 716.787
943.857, 837.161
945.118, 953.948
946.379, 906.059
947.640, 1220.052
948.900, 1689.752
950.161, 1930.215
951.421, 2450.969
952.681, 3366.100
953.940, 4638.996
955.200, 6173.151
956.459, 7938.664
957.719, 10275.235
958.978, 11668.578
960.236, 12811.170
961.495, 13691.696
962.753, 14761.651
964.012, 15004.009
965.270, 15163.569
966.527, 15624.938
967.785, 15987.487
969.043, 15447.146
970.300, 13472.317
971.557, 11000.981
972.814, 8922.345
974.071, 7116.150
975.327, 5979.783
976.583, 4757.924
977.840, 3979.982
979.095, 3071.702
980.351, 2435.394
981.607, 2078.668
982.862, 1668.291
984.117, 1460.340
985.372, 1381.441
986.627, 1054.952
987.882, 1364.402
989.136, 1367.108
990.390, 1356.136
991.644, 1605.275
992.898, 1709.513
994.152, 2175.759
995.405, 2552.029
996.659, 2883.152
997.912, 3411.855
999.165, 3987.173
1000.417, 4336.151
1001.670, 4132.361
1002.922, 4201.357
1004.174, 3205.720
1005.426, 2617.094
1006.678, 2120.939
1007.930, 1784.335
1009.181, 1550.741
1010.432, 1379.159
1011.683, 1370.589
1012.934, 1401.029
1014.185, 1551.480
1015.435, 1607.945
1016.685, 1725.375
1017.935, 1910.864
1019.185, 2050.375
1020.435, 1969.897
1021.684, 1700.432
1022.934, 1606.977
1024.183, 1494.209
1025.432, 1366.787
1026.680, 1430.380
1027.929, 1218.980
1029.177, 1368.595
1030.425, 1626.205
1031.673, 1938.843
1032.921, 2075.492
1034.169, 2411.154
1035.416, 2964.827
1036.663, 3657.710
1037.911, 4027.406
1039.157, 4102.121
1040.404, 4085.945
1041.650, 3557.835
1042.897, 3076.589
1044.143, 2470.995
1045.389, 1975.059
1046.634, 1653.857
1047.880, 1452.676
1049.125, 1138.507
1050.371, 890.482
1051.615, 945.637
1052.860, 585.732
1054.105, 821.692
1055.349, 570.604
1056.593, 509.780
1057.837, 516.718
1059.081, 641.335
1060.325, 298.395
1061.568, 379.486
1062.812, 377.853
1064.055, 366.971
1065.298, 411.707
1066.540, 425.871
1067.783, 365.937
1069.025, 291.124
1070.267, 564.574
1071.509, 375.939
1072.751, 387.009
1073.993, 648.128
1075.234, 589.407
1076.475, 704.798
1077.716, 948.610
1078.957, 989.112
1080.198, 1095.399
1081.438, 1368.851
1082.679, 1426.365
1083.919, 1868.808
1085.159, 2023.524
1086.398, 2240.871
1087.638, 2439.991
1088.877, 2514.630
1090.116, 2545.199
1091.355, 2531.640
1092.594, 2244.149
1093.833, 1957.375
1095.071, 1749.903
1096.309, 1476.146
1097.547, 1338.424
1098.785, 1145.162
1100.023, 975.892
1101.260, 713.690
1102.498, 700.123
1103.735, 489.398
1104.972, 554.117
1106.208, 500.403
1107.445, 496.294
1108.681, 316.295
1109.918, 252.491
1111.154, 71.332
1112.389, 388.110
1113.625, 217.534
1114.860, 185.252
1116.096, 111.742
1117.331, 214.904
1118.566, 255.656
1119.800, 213.345
1121.035, 236.242
1122.269, 89.041
1123.503, 206.526
1124.737, 145.170
1125.971, 295.945
1127.205, 280.805
1128.438, 181.437
1129.671, 161.948
1130.904, 75.009
1132.137, 189.227
1133.370, 165.281
1134.602, 127.009
1135.834, 44.850
1137.066, 108.864
1138.298, 340.085
1139.530, 330.738
1140.762, 330.628
1141.993, 82.404
1143.224, 172.569
1144.455, 140.696
1145.686, 121.609
1146.917, 315.104
1148.147, 378.728
1149.377, 301.857
1150.607, 426.011
1151.837, 483.070
1153.067, 537.815
1154.296, 654.835
1155.526, 757.470
1156.755, 712.175
1157.984, 850.863
1159.213, 915.671
1160.441, 885.455
1161.670, 928.982
1162.898, 1063.034
1164.126, 917.906
1165.354, 957.471
1166.581, 856.578
1167.809, 782.872
1169.036, 536.555
1170.263, 404.095
1171.490, 459.731
1172.717, 467.577
1173.943, 339.768
1175.170, 285.989
1176.396, 259.614
1177.622, 303.811
1178.848, 301.124
1180.073, 82.713
1181.299, 287.869
1182.524, 161.012
1183.749, 11.154
1184.974, 255.662
1186.199, 100.243
1187.423, 41.773
1188.648, 31.497
1189.872, 130.550
1191.096, 14.589
1192.320, 6.427
1193.543, 126.055
1194.767, 114.254
1195.990, 129.436
1197.213, 46.082
1198.436, 48.170
1199.659, 31.263
1200.881, 72.452
1202.104, 108.678
1203.326, 30.944
1204.548, 155.064
1205.770, 128.685
1206.991, 73.254
1208.213, 70.363
1209.434, 9.026
1210.655, 69.190
1211.876, 9.604
1213.096, 69.957
1214.317, 165.603
1215.537, 87.125
1216.757, 28.629
1217.977, 53.804
1219.197, 26.663
1220.417, 147.313
1221.636, 28.168
1222.855, 63.210
1224.074, 18.908
1225.293, 140.587
1226.512, 100.688
1227.731, 64.891
1228.949, 10.932
1230.167, 72.788
1231.385, 10.290
1232.603, 101.344
1233.820, 33.627
1235.038, 9.329
1236.255, 55.642
1237.472, 88.562
1238.689, 74.455
1239.906, 205.477
1241.122, 75.461
1242.338, 151.593
1243.555, 141.417
1244.771, 33.227
1245.986, 36.990
1247.202, 26.730
1248.417, 115.438
1249.633, 156.111
1250.848, 81.232
1252.063, 156.338
1253.277, 28.888
1254.492, 17.415
1255.706, 21.079
1256.920, 55.393
1258.134, 74.836
1259.348, 22.550
1260.562, 102.799
1261.775, 161.069
1262.988, 111.649
1264.201, 103.844
1265.414, 121.978
1266.627, 72.066
1267.839, 98.123
1269.052, 190.151
1270.264, 136.152
1271.476, 107.128
1272.688, 87.291
1273.899, 142.207
1275.111, 171.094
1276.322, 6.940
1277.533, 27.247
1278.744, 51.507
1279.955, 18.769
1281.165, 96.916
1282.376, 22.430
1283.586, 89.146
1284.796, 19.885
1286.006, 86.193
1287.215, 112.069
1288.425, 23.415
1289.634, 46.536
1290.843, 76.882
1292.052, 27.805
1293.261, 146.444
1294.469, 47.660
1295.678, 45.840
1296.886, 55.985
1298.094, 114.100
1299.302, 60.126
1300.509, 138.119
1301.717, 119.078
1302.924, 122.000
1304.131, 90.887
1305.338, 94.743
1306.545, 154.568
1307.752, 53.362
1308.958, 73.124
1310.164, 138.853
1311.370, 3.451
1312.576, 202.202
1313.782, 103.821
1314.987, 140.410
1316.193, 1.033
1317.398, 296.481
1318.603, 142.965
1319.807, 238.419
1321.012, 102.841
1322.216, 279.229
1323.421, 171.588
1324.625, 102.912
1325.829, 268.207
1327.032, 254.474
1328.236, 200.707
1329.439, 109.712
1330.642, 26.888
1331.845, 98.025
1333.048, 69.037
1334.251, 218.966
1335.453, 19.013
1336.656, 247.393
1337.858, 73.095
1339.060, 37.048
1340.261, 153.969
1341.463, 85.860
1342.664, 265.595
1343.866, 80.140
1345.067, 7.021
1346.267, 110.666
1347.468, 97.198
1348.669, 127.674
1349.869, 92.377
1351.069, 140.391
1352.269, 94.950
1353.469, 287.467
1354.668, 163.701
1355.868, 261.172
1357.067, 217.016
1358.266, 89.574
1359.465, 338.928
1360.664, 289.750
1361.862, 58.854
1363.061, 183.426
1364.259, 77.955
1365.457, 172.377
1366.655, 252.639
1367.852, 78.887
1369.050, 199.619
1370.247, 172.664
1371.444, 212.996
1372.641, 207.074
1373.838, 205.863
1375.035, 181.828
1376.231, 260.525
1377.427, 220.326
1378.623, 103.812
1379.819, 172.162
1381.015, 240.277
1382.211, 196.234
1383.406, 143.812
1384.601, 149.336
1385.796, 110.727
1386.991, 208.932
1388.185, 274.594
1389.380, 302.068
1390.574, 208.807
1391.768, 273.912
1392.962, 267.695
1394.156, 285.732
1395.350, 186.176
1396.543, 222.668
1397.736, 174.453
1398.929, 368.039
1400.122, 342.488
1401.315, 337.627
1402.507, 111.557
1403.700, 180.160
1404.892, 289.531
1406.084, 139.213
1407.276, 65.867
1408.467, 310.902
1409.659, 195.045
1410.850, 264.549
1412.041, 349.549
1413.232, 226.633
1414.423, 269.938
1415.614, 87.869
1416.804, 228.697
1417.994, 256.586
1419.184, 340.697
1420.374, 288.613
1421.564, 367.625
1422.753, 159.945
1423.943, 311.973
1425.132, 254.746
1426.321, 418.252
1427.510, 411.109
1428.698, 365.650
1429.887, 326.986
1431.075, 376.475
1432.263, 418.818
1433.451, 362.752
1434.639, 338.955
1435.827, 401.635
1437.014, 381.330
1438.201, 593.092
1439.388, 532.287
1440.575, 655.930
1441.762, 615.863
1442.949, 582.477
1444.135, 548.680
1445.321, 589.990
1446.507, 700.445
1447.693, 620.779
1448.879, 621.223
1450.064, 690.680
1451.250, 761.127
1452.435, 621.910
1453.620, 836.332
1454.805, 707.117
1455.989, 830.732
1457.174, 868.877
1458.358, 656.012
1459.542, 832.129
1460.726, 890.316
1461.910, 681.402
1463.093, 805.404
1464.277, 546.943
1465.460, 615.115
1466.643, 685.602
1467.826, 482.945
1469.009, 701.260
1470.191, 453.957
1471.373, 510.180
1472.556, 651.436
1473.738, 570.721
1474.919, 346.963
1476.101, 540.154
1477.283, 545.371
1478.464, 397.654
1479.645, 458.971
1480.826, 424.395
1482.007, 352.844
1483.187, 510.482
1484.368, 339.342
1485.548, 324.291
1486.728, 337.281
1487.908, 382.299
1489.088, 254.367
1490.268, 588.510
1491.447, 268.727
1492.626, 222.012
1493.805, 231.379
