##NAMES=Bikitaite
##RRUFFID=R050160
##IDEAL CHEMISTRY=LiAlSi_2_O_6_&#183;H_2_O
##LOCALITY=Foote mine, Kings Mountain, Cleveland County, North Carolina, USA
##OWNER=RRUFF
##SOURCE=Jim McGlasson
##DESCRIPTION=Colorless prismatic crystals
##STATUS=The identification of this mineral has been confirmed by X-ray diffraction and chemical analysis
##URL=rruff.info/R050160
##MEASURED CHEMISTRY=Li_1.00_Si_2.00_O_6_Â·1.25H_2_O ; Li not measured but estimated by stoichiometry
##PIN_ID=M00247
##ORIENTATION=Laser parallel to -b* (0 -1 0). Fiducial mark perpendicular to laser is parallel to c [0 0 1]
61.962, 0.000
63.360, 60.215
64.758, 181.543
66.157, 220.326
67.554, 345.238
68.952, 484.088
70.349, 259.973
71.747, 51.569
73.144, 10.746
74.540, 10.196
75.937, 136.183
77.333, 16.808
78.729, 502.550
80.125, 1613.985
81.521, 3185.668
82.916, 5203.843
84.311, 6856.820
85.706, 7773.958
87.101, 7500.674
88.496, 6210.546
89.890, 5349.480
91.284, 5015.250
92.678, 5180.400
94.071, 5560.641
95.465, 6363.802
96.858, 7183.545
98.251, 8261.638
99.644, 9594.812
101.036, 10720.820
102.428, 12357.470
103.820, 14108.564
105.212, 15566.915
106.604, 17400.285
107.995, 19315.482
109.387, 21358.373
110.777, 23135.842
112.168, 25706.809
113.559, 26965.373
114.949, 27675.396
116.339, 27410.383
117.729, 25962.113
119.119, 23674.812
120.508, 21218.246
121.897, 19132.406
123.286, 17900.303
124.675, 16143.039
126.063, 14462.187
127.452, 13350.737
128.840, 12021.767
130.228, 11064.322
131.615, 9970.910
133.003, 9601.704
134.390, 8608.971
135.777, 8319.714
137.164, 7754.947
138.550, 7648.677
139.937, 7218.909
141.323, 7230.650
142.709, 6936.904
144.094, 6800.673
145.480, 6486.822
146.865, 6462.920
148.250, 6537.949
149.635, 6814.891
151.019, 7072.722
152.403, 7407.429
153.788, 8067.221
155.171, 8747.210
156.555, 9559.439
157.939, 10078.952
159.322, 10290.776
160.705, 10591.921
162.088, 10418.426
163.470, 10246.301
164.853, 9869.862
166.235, 9732.314
167.617, 9507.578
168.998, 9290.633
170.380, 8885.055
171.761, 8382.987
173.142, 7532.011
174.523, 6828.829
175.904, 5951.298
177.284, 5266.238
178.664, 4454.649
180.044, 3666.526
181.424, 3235.867
182.803, 2689.667
184.183, 2158.689
185.562, 1845.621
186.940, 1675.717
188.319, 1433.755
189.698, 1331.419
191.076, 1144.383
192.454, 1215.727
193.831, 1195.550
195.209, 1356.850
196.586, 1688.625
197.963, 1960.867
199.340, 2404.358
200.717, 2829.014
202.093, 3460.035
203.470, 3728.514
204.846, 3991.443
206.221, 3818.816
207.597, 3678.628
208.972, 3194.868
210.347, 2495.532
211.722, 2153.615
213.097, 2018.610
214.472, 1884.019
215.846, 1980.330
217.220, 2077.041
218.594, 2297.148
219.967, 2428.648
221.341, 2472.538
222.714, 2379.815
224.087, 2052.475
225.460, 1779.514
226.832, 1613.928
228.204, 1233.801
229.577, 1031.313
230.948, 814.479
232.320, 510.312
233.692, 492.446
235.063, 511.344
236.434, 479.753
237.805, 459.827
239.175, 634.687
240.545, 745.318
241.916, 978.472
243.286, 1088.487
244.655, 1345.608
246.025, 1498.547
247.394, 1809.249
248.763, 2044.655
250.132, 2064.772
251.501, 2398.530
252.869, 2418.917
254.237, 2336.897
255.605, 2132.480
256.973, 1811.604
258.340, 1354.252
259.708, 983.400
261.075, 704.034
262.442, 363.134
263.808, 152.683
265.175, 5.332
266.541, 136.930
267.907, 233.152
269.273, 323.038
270.639, 245.891
272.004, 37.064
273.369, 80.479
274.734, 80.849
276.099, 92.964
277.463, 221.871
278.828, 114.587
280.192, 169.092
281.556, 105.401
282.919, 51.514
284.283, 154.575
285.646, 147.386
287.009, 16.375
288.372, 270.414
289.734, 732.724
291.097, 889.296
292.459, 1007.120
293.821, 1341.197
295.183, 1317.524
296.544, 1380.096
297.905, 1272.951
299.266, 1348.063
300.627, 1132.436
301.988, 943.098
303.348, 525.049
304.709, 8.713
306.069, 174.184
307.428, 116.991
308.788, 138.639
310.147, 99.577
311.507, 247.822
312.865, 235.417
314.224, 241.367
315.583, 170.675
316.941, 149.739
318.299, 39.111
319.657, 138.786
321.015, 610.013
322.372, 1123.529
323.729, 1600.359
325.086, 2030.476
326.443, 2322.880
327.800, 1984.574
329.156, 1779.511
330.512, 1030.513
331.868, 517.621
333.224, 129.882
334.579, 87.752
335.935, 147.837
337.290, 183.727
338.645, 207.221
339.999, 69.754
341.354, 256.877
342.708, 478.283
344.062, 784.949
345.416, 906.842
346.769, 1154.977
348.123, 1140.340
349.476, 1000.789
350.829, 1064.332
352.182, 1018.912
353.534, 1013.543
354.887, 851.305
356.239, 792.279
357.591, 907.456
358.942, 1005.834
360.294, 1289.408
361.645, 1565.179
362.996, 1718.102
364.347, 2298.074
365.698, 2679.160
367.048, 3380.434
368.398, 4198.899
369.748, 5096.548
371.098, 6357.383
372.448, 7564.402
373.797, 9426.600
375.146, 11039.972
376.495, 13508.527
377.844, 16276.258
379.192, 18532.174
380.540, 21585.246
381.889, 23272.496
383.236, 25607.902
384.584, 27291.488
385.932, 27367.230
387.279, 27170.152
388.626, 26949.223
389.973, 26936.447
391.319, 26007.920
392.666, 27045.607
394.012, 27090.539
395.358, 27977.691
396.704, 28451.094
398.049, 27959.723
399.394, 26756.592
400.740, 23823.713
402.084, 21449.064
403.429, 18469.662
404.774, 16157.336
406.118, 14807.279
407.462, 13312.711
408.806, 12397.205
410.150, 11974.844
411.493, 11968.417
412.836, 12272.527
414.179, 12389.074
415.522, 12729.806
416.865, 13475.877
418.207, 13907.606
419.549, 13851.742
420.891, 14027.815
422.233, 13787.087
423.575, 12970.485
424.916, 11439.043
426.257, 10685.899
427.598, 9286.521
428.939, 8025.747
430.279, 7041.115
431.619, 5645.694
432.959, 4881.065
434.299, 4418.745
435.639, 4185.555
436.978, 3452.728
438.318, 3425.708
439.657, 3022.587
440.996, 2836.271
442.334, 2478.343
443.673, 2176.761
445.011, 1862.036
446.349, 1766.310
447.687, 1682.901
449.024, 1682.082
450.361, 1760.397
451.699, 1702.842
453.036, 1912.418
454.372, 2131.125
455.709, 2249.960
457.045, 2066.919
458.381, 2370.673
459.717, 2113.068
461.053, 2070.146
462.388, 1805.406
463.724, 1831.906
465.059, 2070.535
466.394, 2256.818
467.728, 2590.827
469.063, 3433.229
470.397, 3982.312
471.731, 4916.151
473.065, 6240.310
474.398, 7413.612
475.732, 9284.253
477.065, 10389.178
478.398, 11937.253
479.731, 13200.827
481.063, 14496.404
482.396, 15273.136
483.728, 16603.137
485.060, 18763.211
486.391, 21707.256
487.723, 24999.617
489.054, 28025.031
490.385, 32419.736
491.716, 36513.145
493.047, 38588.789
494.377, 40277.273
495.708, 40672.172
497.038, 39621.285
498.368, 36830.609
499.697, 33909.445
501.027, 31383.250
502.356, 28679.070
503.685, 25482.768
505.014, 23312.365
506.342, 20596.885
507.671, 18997.062
508.999, 16831.805
510.327, 15222.589
511.655, 13506.554
512.982, 12032.047
514.310, 10911.531
515.637, 9238.576
516.964, 8418.638
518.291, 7259.491
519.617, 6703.394
520.944, 5816.344
522.270, 5004.338
523.596, 4693.381
524.921, 4264.464
526.247, 3678.595
527.572, 3364.768
528.897, 3126.982
530.222, 3223.237
531.547, 2879.528
532.871, 2784.860
534.196, 2646.229
535.520, 2621.633
536.844, 2793.072
538.167, 2619.544
539.491, 2745.066
540.814, 2675.626
542.137, 2565.229
543.460, 2294.859
544.783, 2120.518
546.105, 1644.203
547.427, 1442.916
548.749, 1048.654
550.071, 759.413
551.393, 663.207
552.714, 463.024
554.035, 291.862
555.356, 186.717
556.677, 136.625
557.998, 44.547
559.318, 43.498
560.638, 20.477
561.958, 85.465
563.278, 117.537
564.597, 51.600
565.917, 81.912
567.236, 69.865
568.555, 22.920
569.874, 104.826
571.192, 11.444
572.511, 42.842
573.829, 4.837
575.147, 86.300
576.464, 114.172
577.782, 6.757
579.099, 19.328
580.416, 6.099
581.733, 101.465
583.050, 120.016
584.366, 9.556
585.683, 154.081
586.999, 121.595
588.315, 91.127
589.630, 265.699
590.946, 233.338
592.261, 315.035
593.576, 291.753
594.891, 183.504
596.206, 215.276
597.520, 288.072
598.834, 292.907
600.148, 368.774
601.462, 260.671
602.776, 373.588
604.089, 346.513
605.402, 311.472
606.715, 385.450
608.028, 327.398
609.341, 286.312
610.653, 159.194
611.965, 208.040
613.277, 107.860
614.589, 102.644
615.901, 61.610
617.212, 4.989
618.523, 19.440
619.834, 77.772
621.145, 69.462
622.456, 35.101
623.766, 95.346
625.076, 5.707
626.386, 58.746
627.696, 8.309
629.006, 183.790
630.315, 42.378
631.624, 181.624
632.933, 71.422
634.242, 54.971
635.551, 125.634
636.859, 24.941
638.167, 183.620
639.475, 59.569
640.783, 135.327
642.090, 50.551
643.398, 3.331
644.705, 51.033
646.012, 96.587
647.318, 50.354
648.625, 48.852
649.931, 43.361
651.237, 36.601
652.543, 15.065
653.849, 10.551
655.155, 23.978
656.460, 34.026
657.765, 29.186
659.070, 25.386
660.375, 6.074
661.679, 142.227
662.984, 26.433
664.288, 37.508
665.592, 117.455
666.895, 87.297
668.199, 87.024
669.502, 144.634
670.805, 193.141
672.108, 276.573
673.411, 359.924
674.713, 443.133
676.016, 526.330
677.318, 561.448
678.620, 628.494
679.921, 692.470
681.223, 719.408
682.524, 698.270
683.825, 825.148
685.126, 983.837
686.427, 1187.650
687.727, 1037.193
689.028, 1117.850
690.328, 1198.243
691.628, 1328.837
692.927, 1317.339
694.227, 1450.507
695.526, 1399.141
696.825, 1722.410
698.124, 1660.904
699.423, 1732.783
700.721, 1675.599
702.020, 1737.843
703.318, 1629.795
704.616, 1569.500
705.913, 1310.973
707.211, 1367.148
708.508, 1423.435
709.805, 1318.294
711.102, 1061.564
712.399, 1256.227
713.695, 958.227
714.992, 1199.953
716.288, 962.624
717.584, 961.523
718.879, 722.655
720.175, 740.208
721.470, 866.967
722.765, 737.424
724.060, 716.928
725.355, 716.191
726.649, 709.865
727.944, 701.889
729.238, 963.591
730.532, 570.205
731.825, 833.328
733.119, 1007.148
734.412, 990.790
735.705, 1074.535
736.998, 1084.764
738.291, 1060.278
739.584, 1233.751
740.876, 1237.922
742.168, 1506.213
743.460, 1379.410
744.752, 1609.525
746.043, 1961.565
747.334, 2321.951
748.626, 2448.829
749.916, 2832.500
751.207, 3631.212
752.498, 4132.862
753.788, 5044.406
755.078, 5783.237
756.368, 6849.616
757.658, 7721.908
758.947, 8717.115
760.237, 9904.785
761.526, 10346.799
762.815, 10958.780
764.104, 11168.652
765.392, 11126.439
766.680, 10608.139
767.969, 9700.930
769.257, 9249.462
770.544, 8159.907
771.832, 7413.605
773.119, 6555.753
774.406, 5821.202
775.693, 5286.507
776.980, 4406.608
778.267, 4101.618
779.553, 3607.341
780.839, 3327.699
782.125, 2935.479
783.411, 2705.693
784.697, 2327.733
785.982, 2221.090
787.267, 2054.865
788.552, 1865.883
789.837, 1610.933
791.122, 1625.410
792.406, 1514.173
793.690, 1343.579
794.974, 1226.853
796.258, 998.880
797.542, 1058.868
798.825, 986.892
800.108, 848.629
801.391, 868.321
802.674, 775.738
803.957, 858.487
805.239, 931.001
806.522, 733.698
807.804, 402.676
809.085, 600.490
810.367, 510.952
811.649, 391.235
812.930, 428.688
814.211, 394.149
815.492, 309.733
816.772, 317.442
818.053, 307.236
819.333, 242.382
820.613, 278.976
821.893, 256.533
823.173, 268.930
824.452, 214.800
825.732, 322.692
827.011, 248.028
828.290, 188.359
829.568, 301.903
830.847, 174.404
832.125, 299.865
833.403, 232.282
834.681, 142.659
835.959, 141.995
837.236, 118.291
838.514, 160.545
839.791, 94.758
841.068, 196.930
842.345, 93.064
843.621, 248.158
844.898, 75.213
846.174, 75.228
847.450, 205.205
848.726, 28.856
850.001, 13.986
851.277, 18.173
852.552, 115.580
853.827, 109.298
855.102, 27.983
856.376, 46.628
857.651, 72.236
858.925, 269.810
860.199, 24.648
861.473, 2.165
862.746, 8.277
864.020, 67.683
865.293, 79.456
866.566, 144.324
867.839, 31.965
869.112, 35.145
870.384, 44.846
871.656, 3.926
872.928, 39.566
874.200, 38.004
875.472, 16.227
876.744, 17.256
878.015, 21.598
879.286, 9.774
880.557, 316.741
881.828, 78.350
883.098, 129.297
884.369, 30.162
885.639, 57.569
886.909, 17.464
888.178, 35.645
889.448, 28.912
890.717, 156.874
891.987, 31.651
893.256, 6.606
894.524, 29.108
895.793, 81.802
897.061, 92.477
898.330, 64.810
899.598, 4.309
900.865, 114.049
902.133, 12.926
903.401, 58.185
904.668, 14.719
905.935, 194.237
907.202, 28.300
908.468, 74.204
909.735, 181.656
911.001, 103.093
912.267, 18.485
913.533, 25.090
914.799, 11.275
916.064, 65.629
917.330, 250.970
918.595, 24.300
919.860, 28.056
921.124, 50.908
922.389, 87.187
923.653, 63.457
924.918, 6.759
926.182, 99.072
927.445, 50.403
928.709, 104.781
929.972, 93.209
931.236, 21.313
932.499, 109.216
933.761, 63.765
935.024, 96.375
936.286, 12.037
937.549, 235.796
938.811, 28.123
940.073, 262.482
941.334, 44.435
942.596, 27.446
943.857, 124.550
945.118, 184.714
946.379, 154.981
947.640, 243.310
948.900, 502.728
950.161, 352.211
951.421, 434.757
952.681, 651.390
953.940, 858.110
955.200, 934.902
956.459, 1327.785
957.719, 1940.740
958.978, 2348.758
960.236, 2903.850
961.495, 2984.014
962.753, 3056.252
964.012, 3034.582
965.270, 3181.990
966.527, 3891.473
967.785, 4616.006
969.043, 5762.591
970.300, 6243.213
971.557, 5905.871
972.814, 5418.559
974.071, 4373.272
975.327, 3624.021
976.583, 2562.794
977.840, 2088.584
979.095, 1524.414
980.351, 1203.271
981.607, 1109.131
982.862, 808.003
984.117, 722.882
985.372, 1071.768
986.627, 661.633
987.882, 1224.511
989.136, 1483.316
990.390, 1679.250
991.644, 2388.009
992.898, 2564.977
994.152, 2627.765
995.405, 2313.762
996.659, 1780.514
997.912, 1489.343
999.165, 1045.453
1000.417, 900.039
1001.670, 358.924
1002.922, 657.539
1004.174, 269.709
1005.426, 417.876
1006.678, 325.569
1007.930, 242.490
1009.181, 313.593
1010.432, 235.877
1011.683, 452.398
1012.934, 367.765
1014.185, 548.491
1015.435, 649.746
1016.685, 533.555
1017.935, 464.963
1019.185, 481.594
1020.435, 436.211
1021.684, 63.537
1022.934, 265.562
1024.183, 159.264
1025.432, 3.353
1026.680, 190.962
1027.929, 20.333
1029.177, 0.865
1030.425, 15.790
1031.673, 42.225
1032.921, 18.350
1034.169, 42.448
1035.416, 6.520
1036.663, 118.378
1037.911, 22.471
1039.157, 47.995
1040.404, 53.352
1041.650, 11.896
1042.897, 86.588
1044.143, 38.301
1045.389, 61.962
1046.634, 151.672
1047.880, 25.867
1049.125, 49.163
1050.371, 113.494
1051.615, 176.267
1052.860, 42.177
1054.105, 247.372
1055.349, 286.165
1056.593, 209.998
1057.837, 267.476
1059.081, 380.625
1060.325, 349.501
1061.568, 463.638
1062.812, 305.996
1064.055, 425.057
1065.298, 590.330
1066.540, 554.274
1067.783, 734.378
1069.025, 658.542
1070.267, 1016.357
1071.509, 989.516
1072.751, 1074.695
1073.993, 1562.843
1075.234, 1468.918
1076.475, 1768.762
1077.716, 2308.856
1078.957, 2463.365
1080.198, 2722.482
1081.438, 3443.016
1082.679, 3695.341
1083.919, 4244.943
1085.159, 4690.361
1086.398, 5442.881
1087.638, 5743.522
1088.877, 6371.734
1090.116, 7159.008
1091.355, 7809.673
1092.594, 8359.372
1093.833, 8621.845
1095.071, 8747.634
1096.309, 8257.958
1097.547, 8124.184
1098.785, 7018.746
1100.023, 6551.514
1101.260, 5964.330
1102.498, 5511.137
1103.735, 4979.833
1104.972, 4900.081
1106.208, 4459.632
1107.445, 4170.936
1108.681, 3634.800
1109.918, 3482.510
1111.154, 2819.537
1112.389, 2529.693
1113.625, 2265.540
1114.860, 1972.987
1116.096, 1880.761
1117.331, 1641.069
1118.566, 1421.510
1119.800, 1348.952
1121.035, 1276.383
1122.269, 1104.322
1123.503, 1179.017
1124.737, 1164.818
1125.971, 1258.465
1127.205, 1297.797
1128.438, 1399.299
1129.671, 1532.845
1130.904, 1538.556
1132.137, 1632.625
1133.370, 1879.280
1134.602, 1869.589
1135.834, 1784.386
1137.066, 1635.617
1138.298, 1699.732
1139.530, 1245.394
1140.762, 1340.619
1141.993, 861.188
1143.224, 787.364
1144.455, 860.935
1145.686, 653.217
1146.917, 637.966
1148.147, 750.159
1149.377, 577.152
1150.607, 681.575
1151.837, 548.044
1153.067, 539.910
1154.296, 631.595
1155.526, 719.268
1156.755, 685.333
1157.984, 851.197
1159.213, 875.853
1160.441, 971.977
1161.670, 1063.761
1162.898, 1134.006
1164.126, 1263.057
1165.354, 1268.341
1166.581, 1443.268
1167.809, 1397.557
1169.036, 1228.023
1170.263, 1409.577
1171.490, 1224.492
1172.717, 1177.106
1173.943, 990.953
1175.170, 969.029
1176.396, 757.411
1177.622, 792.897
1178.848, 656.392
1180.073, 463.466
1181.299, 498.478
1182.524, 493.696
1183.749, 322.929
1184.974, 481.041
1186.199, 461.369
1187.423, 315.189
1188.648, 278.505
1189.872, 304.644
1191.096, 254.246
1192.320, 243.437
1193.543, 309.327
1194.767, 332.204
1195.990, 131.472
1197.213, 291.841
1198.436, 160.619
1199.659, 179.755
1200.881, 0.218
1202.104, 122.722
1203.326, 178.087
1204.548, 284.135
1205.770, 18.922
1206.991, 308.496
1208.213, 32.335
1209.434, 251.755
1210.655, 68.377
1211.876, 6.763
1213.096, 182.123
1214.317, 66.071
1215.537, 56.774
1216.757, 143.059
1217.977, 68.700
1219.197, 68.955
1220.417, 81.279
1221.636, 90.888
1222.855, 3.934
1224.074, 109.306
1225.293, 15.436
1226.512, 113.537
1227.731, 104.614
1228.949, 75.024
1230.167, 13.053
1231.385, 62.399
1232.603, 38.371
1233.820, 17.312
1235.038, 21.778
1236.255, 113.096
1237.472, 11.691
1238.689, 25.891
1239.906, 77.003
1241.122, 6.745
1242.338, 119.469
1243.555, 149.154
1244.771, 69.819
1245.986, 23.706
1247.202, 5.927
1248.417, 19.797
1249.633, 49.247
1250.848, 54.581
1252.063, 88.009
1253.277, 16.681
1254.492, 10.256
1255.706, 56.987
1256.920, 32.430
1258.134, 20.419
1259.348, 28.506
1260.562, 125.740
1261.775, 48.721
1262.988, 66.323
1264.201, 130.632
1265.414, 23.376
1266.627, 18.267
1267.839, 21.894
1269.052, 71.479
1270.264, 46.003
1271.476, 83.467
1272.688, 31.868
1273.899, 27.250
1275.111, 106.445
1276.322, 66.639
1277.533, 9.974
1278.744, 79.083
1279.955, 0.155
1281.165, 43.177
1282.376, 12.868
1283.586, 5.032
1284.796, 14.641
1286.006, 176.672
1287.215, 93.410
1288.425, 22.907
1289.634, 15.820
1290.843, 106.573
1292.052, 8.261
1293.261, 1.629
1294.469, 19.188
1295.678, 12.018
1296.886, 2.277
1298.094, 34.888
1299.302, 15.539
1300.509, 58.068
1301.717, 9.084
1302.924, 2.500
1304.131, 55.970
1305.338, 21.711
1306.545, 40.641
1307.752, 12.605
1308.958, 28.900
1310.164, 142.746
1311.370, 9.878
1312.576, 138.891
1313.782, 2.610
1314.987, 72.839
1316.193, 23.245
1317.398, 59.606
1318.603, 6.923
1319.807, 177.195
1321.012, 8.576
1322.216, 69.605
1323.421, 72.743
1324.625, 34.158
1325.829, 176.887
1327.032, 9.105
1328.236, 163.864
1329.439, 142.801
1330.642, 31.304
1331.845, 29.538
1333.048, 87.353
1334.251, 122.129
1335.453, 16.128
1336.656, 104.568
1337.858, 22.232
1339.060, 12.826
1340.261, 148.387
1341.463, 56.910
1342.664, 180.400
1343.866, 89.856
1345.067, 112.279
1346.267, 127.280
1347.468, 46.639
1348.669, 90.966
1349.869, 150.262
1351.069, 195.244
1352.269, 126.483
1353.469, 277.451
1354.668, 168.640
1355.868, 226.695
1357.067, 306.461
1358.266, 75.586
1359.465, 127.543
1360.664, 300.435
1361.862, 132.501
1363.061, 355.750
1364.259, 200.633
1365.457, 126.668
1366.655, 323.597
1367.852, 205.190
1369.050, 316.171
1370.247, 318.787
1371.444, 276.816
1372.641, 10.767
1373.838, 237.426
1375.035, 144.800
1376.231, 260.137
1377.427, 335.284
1378.623, 290.513
1379.819, 374.139
1381.015, 138.202
1382.211, 263.264
1383.406, 192.925
1384.601, 241.623
1385.796, 248.619
1386.991, 394.660
1388.185, 241.813
1389.380, 157.288
1390.574, 283.451
1391.768, 278.749
1392.962, 220.351
1394.156, 281.297
1395.350, 380.883
1396.543, 286.883
1397.736, 171.061
1398.929, 326.359
1400.122, 172.830
1401.315, 240.060
1402.507, 137.770
1403.700, 235.290
1404.892, 282.578
1406.084, 281.831
1407.276, 165.174
1408.467, 305.560
1409.659, 124.945
1410.850, 267.542
1412.041, 305.076
1413.232, 187.304
1414.423, 330.806
1415.614, 311.933
1416.804, 205.729
1417.994, 197.618
1419.184, 449.129
1420.374, 95.776
1421.564, 410.926
1422.753, 257.463
1423.943, 338.042
1425.132, 217.378
1426.321, 421.131
1427.510, 342.261
1428.698, 411.927
1429.887, 249.191
1431.075, 335.707
1432.263, 354.158
1433.451, 261.758
1434.639, 340.774
1435.827, 415.485
1437.014, 304.219
1438.201, 487.436
1439.388, 548.573
1440.575, 228.917
1441.762, 491.502
1442.949, 428.365
1444.135, 341.144
1445.321, 393.568
1446.507, 493.624
1447.693, 537.731
1448.879, 484.195
1450.064, 434.410
1451.250, 484.186
1452.435, 366.885
1453.620, 546.784
1454.805, 402.033
1455.989, 392.389
1457.174, 704.083
1458.358, 467.328
1459.542, 593.627
1460.726, 596.910
1461.910, 478.698
1463.093, 570.613
1464.277, 386.014
1465.460, 390.961
1466.643, 465.767
1467.826, 295.619
1469.009, 461.031
1470.191, 266.637
1471.373, 285.350
1472.556, 462.697
1473.738, 352.513
1474.919, 290.417
1476.101, 456.404
1477.283, 385.533
1478.464, 339.949
1479.645, 235.591
