##NAMES=Bikitaite
##RRUFFID=R050160
##IDEAL CHEMISTRY=LiAlSi_2_O_6_&#183;H_2_O
##LOCALITY=Foote mine, Kings Mountain, Cleveland County, North Carolina, USA
##OWNER=RRUFF
##SOURCE=Jim McGlasson
##DESCRIPTION=Colorless prismatic crystals
##STATUS=The identification of this mineral has been confirmed by X-ray diffraction and chemical analysis
##URL=rruff.info/R050160
##MEASURED CHEMISTRY=Li_1.00_Si_2.00_O_6_Â·1.25H_2_O ; Li not measured but estimated by stoichiometry
##PIN_ID=M00075
##ORIENTATION=Laser parallel to (0 1 1). Fiducial mark perpendicular to laser is parallel to a [1 0 0]
93.48000, 0.0000000E+00
94.71400, 313.9785
95.94800, 682.8662
97.18200, 1021.319
98.41600, 1691.285
99.64900, 2331.404
100.8830, 2877.726
102.1160, 3187.574
103.3490, 4022.563
104.5820, 4335.856
105.8150, 4603.143
107.0470, 4439.377
108.2800, 4330.400
109.5120, 4237.207
110.7440, 3668.470
111.9760, 2726.490
113.2080, 2250.641
114.4400, 2050.441
115.6710, 1921.583
116.9030, 1571.361
118.1340, 1342.507
119.3650, 896.5410
120.5960, 437.0791
121.8270, 31.18555
123.0580, 137.4238
124.2880, 127.8037
125.5190, 257.5254
126.7490, 290.7637
127.9790, 4.339844
129.2090, 179.6650
130.4390, 537.1074
131.6680, 1050.553
132.8980, 1573.401
134.1270, 2251.404
135.3560, 3032.070
136.5850, 3895.754
137.8140, 4933.491
139.0430, 6078.124
140.2710, 7293.480
141.5000, 8487.717
142.7280, 9686.859
143.9560, 10299.94
145.1840, 11049.99
146.4120, 10843.03
147.6390, 10652.09
148.8670, 10276.19
150.0940, 9793.383
151.3210, 9500.547
152.5490, 8864.414
153.7750, 8510.281
155.0020, 8150.168
156.2290, 8290.086
157.4550, 8282.049
158.6810, 8308.066
159.9080, 8368.152
161.1340, 8579.316
162.3590, 8318.562
163.5850, 8133.902
164.8110, 7707.346
166.0360, 6913.893
167.2610, 6777.467
168.4860, 5798.895
169.7110, 4951.289
170.9360, 4194.697
172.1610, 3312.150
173.3850, 2709.668
174.6100, 2058.266
175.8340, 1507.932
177.0580, 1056.672
178.2820, 669.5039
179.5050, 306.4355
180.7290, 230.4141
181.9520, 351.0586
183.1760, 343.2949
184.3990, 587.2207
185.6220, 423.7812
186.8450, 771.6641
188.0670, 1087.779
189.2900, 1516.137
190.5120, 2050.729
191.7340, 2663.557
192.9560, 3522.615
194.1780, 4396.902
195.4000, 5196.418
196.6220, 6269.158
197.8430, 7113.119
199.0640, 8349.305
200.2860, 9368.711
201.5070, 10185.34
202.7270, 11315.18
203.9480, 11363.23
205.1690, 11085.50
206.3890, 10274.18
207.6090, 9371.145
208.8290, 8959.949
210.0490, 8719.125
211.2690, 8446.998
212.4890, 8916.770
213.7080, 9497.711
214.9280, 10190.83
216.1470, 11406.12
217.3660, 12060.59
218.5850, 12731.24
219.8030, 12758.05
221.0220, 12500.04
222.2400, 11586.20
223.4590, 10453.52
224.6770, 8847.012
225.8950, 7114.662
227.1120, 5519.469
228.3300, 4279.436
229.5480, 3318.559
230.7650, 2466.840
231.9820, 1914.273
233.1990, 1634.863
234.4160, 1256.605
235.6330, 1225.500
236.8490, 1367.547
238.0660, 1249.744
239.2820, 1398.092
240.4980, 1706.465
241.7140, 1838.398
242.9300, 2179.844
244.1460, 2264.877
245.3610, 2826.713
246.5770, 3269.146
247.7920, 3598.016
249.0070, 3472.523
250.2220, 3934.451
251.4370, 3668.748
252.6510, 3553.324
253.8660, 3716.189
255.0800, 3217.061
256.2940, 3311.678
257.5080, 2752.201
258.7220, 2478.043
259.9360, 1948.180
261.1490, 1199.598
262.3630, 721.2812
263.5760, 395.2109
264.7890, 143.3730
266.0020, 343.2441
267.2150, 378.7422
268.4270, 527.2012
269.6400, 551.1660
270.8520, 414.6191
272.0640, 511.0918
273.2760, 386.8047
274.4880, 334.9805
275.7000, 202.0098
276.9120, 129.9473
278.1230, 67.22656
279.3340, 534.5391
280.5450, 894.9863
281.7560, 1155.568
282.9670, 1812.281
284.1780, 2179.109
285.3880, 2770.027
286.5980, 2974.039
287.8090, 3760.195
289.0190, 4208.471
290.2290, 4358.832
291.4380, 4682.279
292.6480, 4595.809
293.8570, 4487.426
295.0670, 4187.154
296.2760, 4004.967
297.4850, 3458.926
298.6930, 3075.068
299.9020, 2816.318
301.1110, 2672.688
302.3190, 2121.164
303.5270, 1989.768
304.7350, 1400.480
305.9430, 972.3418
307.1510, 921.3086
308.3580, 704.3672
309.5660, 750.5625
310.7730, 611.8438
311.9800, 657.2305
313.1870, 549.7266
314.3940, 213.3047
315.6010, 253.9570
316.8070, 155.6855
318.0130, 13.50977
319.2200, 58.61719
320.4260, 243.6719
321.6310, 226.7129
322.8370, 111.7168
324.0430, 201.6797
325.2480, 16.37695
326.4540, 84.26758
327.6590, 200.8066
328.8640, 255.1250
330.0680, 183.2695
331.2730, 367.4062
332.4780, 635.6367
333.6820, 589.9961
334.8860, 669.4922
336.0900, 1125.082
337.2940, 1305.770
338.4980, 1759.557
339.7010, 2088.432
340.9050, 2420.410
342.1080, 2916.475
343.3110, 3235.629
344.5140, 3814.865
345.7170, 4011.186
346.9200, 4524.590
348.1220, 4479.080
349.3240, 4680.664
350.5270, 4705.344
351.7290, 4622.098
352.9310, 4714.824
354.1320, 4604.510
355.3340, 4625.195
356.5350, 4722.936
357.7370, 4514.814
358.9380, 4943.742
360.1390, 5135.754
361.3400, 5276.844
362.5400, 5919.016
363.7410, 6604.275
364.9410, 7431.621
366.1410, 8338.064
367.3410, 9728.582
368.5410, 10808.17
369.7410, 12465.83
370.9400, 14477.58
372.1400, 16785.40
373.3390, 18846.32
374.5380, 21461.33
375.7370, 24023.40
376.9360, 26891.55
378.1350, 29561.77
379.3330, 32082.06
380.5310, 34460.42
381.7300, 36427.83
382.9280, 37934.56
384.1260, 38935.86
385.3230, 39926.51
386.5210, 40034.25
387.7180, 40077.09
388.9160, 39843.00
390.1130, 39496.00
391.3100, 39135.06
392.5060, 38430.20
393.7030, 37237.41
394.9000, 35773.91
396.0960, 34037.02
397.2920, 31627.42
398.4880, 28880.89
399.6840, 25796.42
400.8800, 22138.02
402.0750, 19320.68
403.2710, 16646.40
404.4660, 14393.19
405.6610, 12756.03
406.8560, 11780.93
408.0510, 9980.896
409.2450, 9343.916
410.4400, 8910.592
411.6340, 7969.473
412.8280, 7663.369
414.0220, 7334.188
415.2160, 7362.648
416.4100, 7189.268
417.6030, 7122.100
418.7970, 7215.592
419.9900, 7335.818
421.1830, 7464.678
422.3760, 7578.438
423.5690, 7430.260
424.7610, 7493.133
425.9540, 7157.061
427.1460, 7128.434
428.3380, 6622.463
429.5300, 6199.910
430.7220, 5894.879
431.9140, 5515.215
433.1050, 5120.926
434.2970, 4841.201
435.4880, 4556.525
436.6790, 4651.891
437.8700, 4593.723
439.0610, 4940.914
440.2510, 5082.033
441.4420, 5699.789
442.6320, 6398.330
443.8220, 7101.801
445.0120, 8042.689
446.2020, 9034.891
447.3910, 10052.82
448.5810, 11102.79
449.7700, 11890.09
450.9600, 12478.88
452.1490, 12400.17
453.3370, 12001.69
454.5260, 11129.47
455.7150, 9797.711
456.9030, 8535.014
458.0910, 7137.195
459.2800, 6241.246
460.4670, 5589.324
461.6550, 5178.713
462.8430, 4568.445
464.0300, 4497.080
465.2180, 4380.684
466.4050, 4650.059
467.5920, 4714.691
468.7790, 5316.803
469.9650, 5686.561
471.1520, 6215.055
472.3380, 6967.750
473.5250, 7758.783
474.7110, 8601.645
475.8970, 9684.984
477.0820, 10911.84
478.2680, 12389.18
479.4540, 13987.28
480.6390, 15701.51
481.8240, 17849.03
483.0090, 20108.26
484.1940, 22689.87
485.3780, 25505.10
486.5630, 28349.15
487.7470, 30465.79
488.9320, 32526.82
490.1160, 33814.93
491.3000, 34025.79
492.4830, 33679.19
493.6670, 32915.53
494.8500, 30902.85
496.0340, 29121.98
497.2170, 27190.46
498.4000, 25838.34
499.5820, 24379.94
500.7650, 23507.58
501.9480, 22891.46
503.1300, 22605.05
504.3120, 22253.54
505.4940, 22066.53
506.6760, 22088.34
507.8580, 21673.99
509.0390, 20819.23
510.2210, 19689.24
511.4020, 18603.67
512.5830, 17207.38
513.7640, 15696.68
514.9450, 14163.95
516.1250, 12511.12
517.3060, 11245.84
518.4860, 10024.17
519.6660, 8692.900
520.8460, 7792.859
522.0260, 6792.742
523.2060, 6120.262
524.3850, 5411.139
525.5650, 4732.656
526.7440, 4309.918
527.9230, 3974.844
529.1020, 3573.508
530.2810, 3546.387
531.4590, 3290.043
532.6380, 3172.920
533.8160, 3112.795
534.9940, 2719.660
536.1720, 2692.578
537.3500, 2825.486
538.5270, 2576.389
539.7050, 2479.281
540.8820, 2226.168
542.0590, 2194.047
543.2360, 2035.912
544.4130, 1841.768
545.5900, 1505.609
546.7660, 1224.463
547.9430, 1095.301
549.1190, 838.1289
550.2950, 805.9434
551.4710, 659.7402
552.6470, 486.6113
553.8220, 371.5586
554.9980, 394.6172
556.1730, 433.7910
557.3480, 367.0469
558.5230, 213.4043
559.6980, 115.8359
560.8730, 187.3242
562.0470, 121.8438
563.2220, 162.3906
564.3960, 243.9199
565.5700, 215.4414
566.7440, 217.5820
567.9170, 17.41797
569.0910, 86.86328
570.2640, 7.716797
571.4380, 208.3418
572.6110, 100.0996
573.7840, 28.06836
574.9570, 118.2207
576.1290, 240.3477
577.3020, 190.7852
578.4740, 63.48438
579.6460, 28.50000
580.8180, 206.5527
581.9900, 357.7676
583.1620, 81.21875
584.3330, 109.7656
585.5040, 82.37109
586.6760, 133.0742
587.8470, 78.90234
589.0180, 236.8301
590.1880, 48.93750
591.3590, 7.132813
592.5290, 188.3867
593.7000, 24.19727
594.8700, 65.27344
596.0400, 86.84570
597.2090, 97.47852
598.3790, 115.7598
599.5490, 248.0020
600.7180, 168.2051
601.8870, 40.62305
603.0560, 127.4941
604.2250, 128.5918
605.3940, 13.28516
606.5620, 128.8320
607.7300, 177.9395
608.8990, 195.9434
610.0670, 66.00391
611.2350, 149.1035
612.4020, 34.63281
613.5700, 106.6992
614.7370, 136.8301
615.9050, 60.69141
617.0720, 99.32227
618.2390, 117.9297
619.4060, 39.13281
620.5720, 75.29297
621.7390, 119.3926
622.9050, 41.43945
624.0710, 122.4121
625.2370, 151.8730
626.4030, 171.2793
627.5690, 227.1309
628.7340, 181.9375
629.9000, 109.6875
631.0650, 37.37891
632.2300, 23.99023
633.3950, 27.51758
634.5600, 179.9629
635.7240, 201.3496
636.8890, 175.6797
638.0530, 146.9570
639.2170, 173.0293
640.3810, 173.3223
641.5450, 157.4160
642.7080, 184.4473
643.8720, 76.41992
645.0350, 58.01758
646.1980, 67.15234
647.3610, 0.1035160
648.5240, 151.5352
649.6870, 272.1094
650.8490, 144.6270
652.0120, 130.0762
653.1740, 59.53320
654.3360, 36.17578
655.4980, 110.9863
656.6600, 138.0742
657.8210, 163.0859
658.9830, 141.0352
660.1440, 128.9082
661.3050, 526.7070
662.4660, 241.5664
663.6270, 358.4707
664.7870, 162.0977
665.9480, 281.0117
667.1080, 348.6621
668.2680, 158.6230
669.4280, 406.5215
670.5880, 240.8223
671.7480, 454.5898
672.9070, 469.9199
674.0670, 603.0410
675.2260, 535.1250
676.3850, 652.7754
677.5440, 654.2598
678.7030, 875.3008
679.8610, 793.5859
681.0200, 1025.422
682.1780, 814.5605
683.3360, 994.0352
684.4940, 1168.609
685.6520, 1083.271
686.8090, 1317.369
687.9670, 1236.801
689.1240, 1494.324
690.2810, 1485.223
691.4380, 1536.736
692.5950, 1597.035
693.7520, 1788.264
694.9080, 2000.328
696.0650, 2141.414
697.2210, 2330.551
698.3770, 2454.424
699.5330, 2614.117
700.6880, 2640.533
701.8440, 2667.336
702.9990, 2801.396
704.1550, 2888.125
705.3100, 3059.541
706.4650, 3236.527
707.6190, 3401.865
708.7740, 3366.082
709.9290, 3459.242
711.0830, 3336.115
712.2370, 3214.873
713.3910, 3317.846
714.5450, 2977.961
715.6980, 2755.281
716.8520, 2485.236
718.0050, 2503.623
719.1580, 2159.494
720.3110, 1996.541
721.4640, 2082.285
722.6170, 1869.977
723.7700, 1962.492
724.9220, 2299.992
726.0740, 2203.143
727.2260, 2168.105
728.3780, 2169.504
729.5300, 2450.051
730.6810, 2386.918
731.8330, 2494.506
732.9840, 2151.738
734.1350, 2064.035
735.2860, 1884.891
736.4370, 1685.523
737.5880, 1370.320
738.7380, 1283.871
739.8880, 1113.486
741.0390, 790.1465
742.1890, 873.3691
743.3380, 864.9785
744.4880, 707.8809
745.6380, 490.8320
746.7870, 625.9688
747.9360, 638.0820
749.0850, 529.4609
750.2340, 558.2422
751.3830, 357.7891
752.5310, 560.9688
753.6800, 485.2910
754.8280, 591.7383
755.9760, 647.9785
757.1240, 647.0566
758.2720, 734.4355
759.4190, 711.1953
760.5670, 922.1387
761.7140, 1006.865
762.8610, 1154.473
764.0080, 1206.125
765.1550, 1250.926
766.3020, 1069.102
767.4480, 1000.877
768.5950, 852.4980
769.7410, 920.3477
770.8870, 836.2793
772.0330, 901.0078
773.1780, 816.2812
774.3240, 862.6973
775.4690, 901.7402
776.6140, 959.3320
777.7590, 915.7500
778.9040, 922.9258
780.0490, 812.3965
781.1940, 769.1230
782.3380, 709.3867
783.4820, 746.6270
784.6260, 654.0098
785.7700, 774.5098
786.9140, 807.3887
788.0580, 729.4395
789.2010, 496.0371
790.3450, 253.3105
791.4880, 430.9492
792.6310, 503.5781
793.7730, 375.2578
794.9160, 439.4375
796.0590, 390.9219
797.2010, 320.7695
798.3430, 322.4824
799.4850, 218.2246
800.6270, 191.2910
801.7690, 71.94336
802.9100, 44.62695
804.0520, 201.0840
805.1930, 33.53320
806.3340, 114.1914
807.4750, 241.5898
808.6160, 7.158203
809.7560, 47.44727
810.8970, 355.6855
812.0370, 178.1172
813.1770, 89.91602
814.3170, 99.90625
815.4570, 180.8477
816.5960, 22.75000
817.7360, 195.5977
818.8750, 107.4043
820.0140, 55.16992
821.1530, 245.8867
822.2920, 43.43164
823.4310, 71.16211
824.5690, 30.71484
825.7070, 153.2227
826.8460, 65.68750
827.9840, 120.1133
829.1220, 154.4961
830.2590, 153.8438
831.3970, 175.1562
832.5340, 173.4297
833.6710, 91.66797
834.8080, 175.8672
835.9450, 190.0352
837.0820, 328.1641
838.2190, 18.73633
839.3550, 54.30273
840.4910, 42.69727
841.6270, 255.2363
842.7630, 31.13477
843.8990, 50.99805
845.0350, 154.8281
846.1700, 62.62695
847.3060, 38.59766
848.4410, 59.82422
849.5760, 54.50000
850.7100, 85.58008
851.8450, 25.21875
852.9800, 85.82227
854.1140, 103.3965
855.2480, 173.9668
856.3820, 99.51758
857.5160, 12.89844
858.6500, 66.75000
859.7830, 198.5938
860.9170, 12.96094
862.0500, 15.47656
863.1830, 132.0918
864.3160, 18.33203
865.4480, 142.2812
866.5810, 26.09961
867.7130, 80.49023
868.8460, 117.1211
869.9780, 12.73438
871.1100, 20.64258
872.2410, 26.98242
873.3730, 7.585938
874.5050, 278.1641
875.6360, 37.27930
876.7670, 83.76172
877.8980, 153.7188
879.0290, 26.82227
880.1590, 69.39648
881.2900, 150.9980
882.4200, 93.37305
883.5500, 93.73242
884.6800, 14.85938
885.8100, 167.5293
886.9400, 168.9609
888.0690, 105.3867
889.1990, 182.8438
890.3280, 36.71289
891.4570, 79.26367
892.5860, 30.82227
893.7140, 119.4023
894.8430, 145.9570
895.9710, 9.689453
897.1000, 235.6484
898.2280, 185.0137
899.3560, 43.22461
900.4830, 118.4570
901.6110, 127.6758
902.7380, 14.88086
903.8660, 223.0801
904.9930, 122.0020
906.1200, 0.5332030
907.2460, 90.66797
908.3730, 148.8750
909.5000, 164.7070
910.6260, 158.2676
911.7520, 127.4531
912.8780, 119.0664
914.0040, 26.81641
915.1290, 43.99023
916.2550, 21.16016
917.3800, 69.67383
918.5050, 287.4727
919.6300, 82.62891
920.7550, 205.7871
921.8800, 177.9707
923.0040, 41.15039
924.1290, 177.3281
925.2530, 105.5078
926.3770, 149.6094
927.5010, 344.8008
928.6250, 312.0254
929.7480, 537.2578
930.8720, 256.4922
931.9950, 644.7285
933.1180, 401.9707
934.2410, 438.2207
935.3640, 600.3477
936.4860, 371.3711
937.6090, 717.6152
938.7310, 631.5000
939.8530, 953.5938
940.9750, 990.3242
942.0970, 1045.055
943.2180, 1144.320
944.3400, 1383.061
945.4610, 1657.180
946.5820, 2317.451
947.7030, 2610.697
948.8240, 3494.326
949.9450, 4301.059
951.0650, 5418.180
952.1860, 6903.996
953.3060, 8984.227
954.4260, 11497.10
955.5460, 13960.60
956.6650, 16546.94
957.7850, 19172.14
958.9040, 21202.86
960.0230, 21965.17
961.1420, 21855.36
962.2610, 20412.12
963.3800, 18117.20
964.4990, 15437.44
965.6170, 13725.70
966.7350, 11799.06
967.8530, 10677.43
968.9710, 9274.494
970.0890, 7977.930
971.2070, 6545.410
972.3240, 5299.922
973.4410, 4412.590
974.5580, 3533.635
975.6750, 3072.963
976.7920, 2313.547
977.9090, 1877.521
979.0250, 1534.723
980.1410, 1625.391
981.2580, 1307.695
982.3740, 1131.760
983.4890, 1244.561
984.6050, 1008.770
985.7200, 1273.262
986.8360, 1275.492
987.9510, 1235.035
989.0660, 1505.674
990.1810, 1629.455
991.2950, 1781.129
992.4100, 2152.457
993.5240, 2179.053
994.6390, 2201.881
995.7530, 2030.297
996.8660, 1844.748
997.9800, 1523.643
999.0940, 1231.051
1000.207, 1172.998
1001.320, 991.1133
1002.433, 769.0020
1003.546, 805.9922
1004.659, 485.6484
1005.772, 921.2676
1006.884, 771.0391
1007.996, 578.7559
1009.108, 1077.828
1010.220, 1026.795
1011.332, 1192.924
1012.444, 1460.055
1013.555, 1736.740
1014.666, 1661.994
1015.777, 1644.172
1016.888, 1476.369
1017.999, 1419.586
1019.110, 917.9805
1020.220, 519.2305
1021.331, 548.5312
1022.441, 613.8516
1023.551, 482.1973
1024.661, 472.9258
1025.770, 408.3320
1026.880, 398.4023
1027.989, 381.6875
1029.098, 389.4805
1030.207, 382.8555
1031.316, 393.3359
1032.425, 398.5547
1033.533, 295.0742
1034.642, 296.6133
1035.750, 330.1719
1036.858, 509.7227
1037.966, 545.3164
1039.073, 750.9492
1040.181, 1106.512
1041.288, 843.1992
1042.396, 1342.910
1043.503, 1577.637
1044.610, 1706.383
1045.716, 2045.152
1046.823, 2249.438
1047.929, 2637.746
1049.036, 2765.574
1050.142, 2939.418
1051.248, 3195.824
1052.353, 3540.711
1053.459, 3306.613
1054.564, 3558.539
1055.670, 3485.488
1056.775, 3530.449
1057.880, 3117.438
1058.985, 2908.441
1060.089, 2746.469
1061.194, 2424.516
1062.298, 2161.582
1063.402, 1891.672
1064.506, 1707.777
1065.610, 1435.902
1066.713, 1129.051
1067.817, 817.2227
1068.920, 790.4062
1070.023, 273.6172
1071.126, 432.8516
1072.229, 380.1133
1073.332, 649.6875
1074.435, 509.9961
1075.537, 297.3281
1076.639, 213.6797
1077.741, 413.0781
1078.843, 266.4922
1079.945, 354.9258
1081.046, 275.4336
1082.148, 466.9688
1083.249, 444.2188
1084.350, 459.1055
1085.451, 516.4453
1086.551, 539.0977
1087.652, 598.4688
1088.752, 581.1406
1089.853, 292.2812
1090.953, 314.0156
1092.053, 385.7773
1093.152, 183.2070
1094.252, 270.0156
1095.351, 156.8398
1096.451, 485.6914
1097.550, 342.5547
1098.649, 316.4492
1099.748, 710.3555
1100.846, 472.0859
1101.945, 635.0391
1103.043, 611.5039
1104.141, 596.0781
1105.239, 799.0859
1106.337, 501.2773
1107.434, 757.5625
1108.532, 489.7656
1109.629, 513.3945
1110.726, 349.7227
1111.823, 517.0508
1112.920, 552.2188
1114.017, 592.4023
1115.113, 336.6172
1116.210, 671.8711
1117.306, 440.1680
1118.402, 554.4766
1119.498, 841.8047
1120.593, 955.1523
1121.689, 976.6758
1122.784, 1108.059
1123.879, 1504.520
1124.974, 1569.652
1126.069, 1846.090
1127.164, 1852.598
1128.259, 2062.656
1129.353, 2082.207
1130.447, 2236.016
1131.541, 2429.812
1132.635, 2536.457
1133.729, 2791.133
1134.822, 2960.812
1135.916, 3131.750
1137.009, 3412.484
1138.102, 3554.496
1139.195, 3694.414
1140.288, 3957.145
1141.380, 3829.723
1142.473, 3725.531
1143.565, 3607.227
1144.657, 3094.102
1145.749, 2634.004
1146.841, 2411.934
1147.932, 2000.156
1149.024, 1907.219
1150.115, 1875.195
1151.206, 1451.188
1152.297, 1454.828
1153.388, 1281.027
1154.479, 1127.113
1155.569, 1190.152
1156.659, 1053.285
1157.750, 912.3711
1158.839, 824.4727
1159.929, 961.6094
1161.019, 831.8672
1162.108, 893.0273
1163.198, 1099.668
1164.287, 1036.297
1165.376, 1121.121
1166.465, 1121.367
1167.553, 1191.266
1168.642, 1030.875
1169.730, 1333.742
1170.818, 1451.496
1171.906, 1451.996
1172.994, 1269.293
1174.082, 1104.656
1175.170, 1081.023
1176.257, 1153.406
1177.344, 849.8086
1178.431, 969.2227
1179.518, 837.6367
1180.605, 592.0508
1181.691, 929.4766
1182.778, 505.9219
1183.864, 343.3750
1184.950, 709.8711
1186.036, 463.3320
1187.122, 389.7969
1188.207, 375.2695
1189.292, 430.7422
1190.378, 459.2305
1191.463, 377.7227
1192.548, 340.2227
1193.632, 264.7227
1194.717, 365.3203
1195.801, 169.8320
1196.886, 209.3711
1197.970, 224.9141
1199.054, 103.4609
1200.137, 10.01172
1201.221, 41.75391
1202.305, 156.3047
1203.388, 65.14062
1204.471, 407.4297
1205.554, 116.0156
1206.637, 278.0195
1207.719, 1.609375
1208.802, 144.2070
1209.884, 78.80078
1210.966, 30.39844
1212.048, 76.21875
1213.130, 108.8125
1214.212, 6.410156
1215.293, 98.99219
1216.374, 0.5585940
1217.456, 96.89062
1218.536, 92.62109
1219.617, 14.87109
1220.698, 30.63281
1221.778, 193.3750
1222.859, 57.12109
1223.939, 87.34766
1225.019, 125.8203
1226.099, 44.67969
1227.178, 209.1523
1228.258, 739.8633
1229.337, 741.3516
1230.417, 54.18359
1231.496, 418.9102
1232.574, 95.66016
1233.653, 80.27344
1234.732, 87.06641
1235.810, 87.59766
1236.888, 39.30859
1237.966, 3.957031
1239.044, 58.88672
1240.122, 116.5703
1241.199, 35.41797
1242.277, 66.70703
1243.354, 156.8242
1244.431, 246.9375
1245.508, 167.1094
1246.585, 201.7344
1247.661, 269.7188
1248.738, 108.4102
1249.814, 109.4922
1250.890, 14.86719
1251.966, 106.9336
1253.042, 42.22266
1254.117, 18.73047
1255.193, 131.3516
1256.268, 251.3672
1257.343, 29.53125
1258.418, 225.0742
1259.493, 208.7109
1260.567, 68.99609
1261.642, 150.9453
1262.716, 112.8555
1263.790, 216.7227
1264.864, 34.46094
1265.938, 88.42969
1267.011, 1.296875
1268.085, 69.39062
1269.158, 407.7891
1270.231, 12.61328
1271.304, 184.1992
