##NAMES=Bobdownsite
##RRUFFID=R050109
##IDEAL CHEMISTRY=Ca_9_Mg(PO_4_)_6_(PO_3_F)
##LOCALITY=Big Fish River, Yukon Territory, Canada
##OWNER=RRUFF
##SOURCE=Rock Currier
##DESCRIPTION=Colorless hexagonal tabular crystals, type sample
##STATUS=The identification of this mineral is confirmed by single-crystal X-ray diffraction and chemical analysis.
##URL=rruff.info/R050109
##MEASURED CHEMISTRY=(Ca_8.76_Na_0.24_)_Σ=9_(Mg_0.72_Fe^3+^_0.13_Al_0.11_Fe^2+^_0.04_)_Σ=1_(P_1.00_O_4_)_6_(P_1.00_O_3_F_1.00_); Fe^2+^ and Fe^3+^ by charge balance
##PIN_ID=L00351
##ORIENTATION=Laser parallel to a* (1 0 0). Fiducial mark perpendicular to laser is parallel to -c [0 0 -1]
49.365, 0.000
50.765, 77.609
52.166, 104.062
53.566, 155.719
54.966, 225.369
56.365, 267.050
57.765, 292.600
59.164, 346.722
60.563, 344.390
61.962, 384.692
63.360, 384.471
64.758, 339.599
66.157, 279.290
67.554, 222.863
68.952, 145.377
70.349, 60.116
71.747, 27.068
73.144, 0.217
74.540, 19.459
75.937, 1.979
77.333, 19.360
78.729, 17.619
80.125, 27.233
81.521, 78.264
82.916, 54.499
84.311, 41.818
85.706, 128.184
87.101, 193.602
88.496, 207.075
89.890, 239.614
91.284, 306.268
92.678, 446.030
94.071, 512.870
95.465, 591.770
96.858, 694.719
98.251, 679.709
99.644, 696.727
101.036, 766.770
102.428, 784.833
103.820, 685.914
105.212, 622.010
106.604, 676.121
107.995, 564.243
109.387, 583.375
110.777, 605.516
112.168, 612.834
113.559, 598.401
114.949, 581.116
116.339, 591.551
117.729, 518.756
119.119, 489.815
120.508, 475.888
121.897, 532.993
123.286, 608.148
124.675, 661.401
126.063, 762.700
127.452, 862.037
128.840, 1118.437
130.228, 1356.383
131.615, 1777.945
133.003, 2113.262
134.390, 2453.677
135.777, 2868.052
137.164, 2871.118
138.550, 2907.982
139.937, 2613.844
141.323, 2311.686
142.709, 1967.502
144.094, 1683.279
145.480, 1498.985
146.865, 1284.612
148.250, 1197.167
149.635, 1050.696
151.019, 1006.201
152.403, 1021.695
153.788, 1060.177
155.171, 1046.647
156.555, 1092.106
157.939, 1078.554
159.322, 985.992
160.705, 913.420
162.088, 826.837
163.470, 637.244
164.853, 561.641
166.235, 407.027
167.617, 292.404
168.998, 238.770
170.380, 146.125
171.761, 119.471
173.142, 71.807
174.523, 39.132
175.904, 59.448
177.284, 23.752
178.664, 47.046
180.044, 4.329
181.424, 67.601
182.803, 39.863
184.183, 103.114
185.562, 97.354
186.940, 126.584
188.319, 158.802
189.698, 213.223
191.076, 243.944
192.454, 297.867
193.831, 323.911
195.209, 335.969
196.586, 364.679
197.963, 332.810
199.340, 287.397
200.717, 226.633
202.093, 220.362
203.470, 172.354
204.846, 169.788
206.221, 128.770
207.597, 115.353
208.972, 91.853
210.347, 80.912
211.722, 56.321
213.097, 69.787
214.472, 92.015
215.846, 85.854
217.220, 113.650
218.594, 62.960
219.967, 106.203
221.341, 86.051
222.714, 132.542
224.087, 104.896
225.460, 153.296
226.832, 170.459
228.204, 212.331
229.577, 226.797
230.948, 203.060
232.320, 228.110
233.692, 241.146
235.063, 217.076
236.434, 266.575
237.805, 233.751
239.175, 282.281
240.545, 250.670
241.916, 266.242
243.286, 248.805
244.655, 232.553
246.025, 260.943
247.394, 250.726
248.763, 285.393
250.132, 313.970
251.501, 324.983
252.869, 326.054
254.237, 377.122
255.605, 458.188
256.973, 482.252
258.340, 604.312
259.708, 653.368
261.075, 759.421
262.442, 823.468
263.808, 881.511
265.175, 923.549
266.541, 921.582
267.907, 910.610
269.273, 888.633
270.639, 867.649
272.004, 890.661
273.369, 898.667
274.734, 938.667
276.099, 1056.661
277.463, 1179.644
278.828, 1390.615
280.192, 1605.572
281.556, 1947.519
282.919, 2206.459
284.283, 2534.394
285.646, 2678.323
287.009, 2770.245
288.372, 2722.161
289.734, 2706.071
291.097, 2615.973
292.459, 2523.100
293.821, 2329.754
295.183, 2301.632
296.544, 2180.496
297.905, 2106.349
299.266, 2021.189
300.627, 1888.017
301.988, 1752.835
303.348, 1589.642
304.709, 1407.440
306.069, 1191.228
307.428, 1067.005
308.788, 845.774
310.147, 729.532
311.507, 653.282
312.865, 521.023
314.224, 451.755
315.583, 357.478
316.941, 346.193
318.299, 301.898
319.657, 255.596
321.015, 220.284
322.372, 179.968
323.729, 150.635
325.086, 124.294
326.443, 105.951
327.800, 84.602
329.156, 67.594
330.512, 58.395
331.868, 41.963
333.224, 38.696
334.579, 27.557
335.935, 23.274
337.290, 24.927
338.645, 17.409
339.999, 25.063
341.354, 23.550
342.708, 13.921
344.062, 15.569
345.416, 10.049
346.769, 7.441
348.123, 3.690
349.476, 26.010
350.829, 10.219
352.182, 8.532
353.534, 42.281
354.887, 0.982
356.239, 0.295
357.591, 4.562
358.942, 4.995
360.294, 10.399
361.645, 12.933
362.996, 12.465
364.347, 0.036
365.698, 7.660
367.048, 24.216
368.398, 9.982
369.748, 19.782
371.098, 36.518
372.448, 29.943
373.797, 44.492
375.146, 23.680
376.495, 32.869
377.844, 8.015
379.192, 8.214
380.540, 18.326
381.889, 19.686
383.236, 11.100
384.584, 13.215
385.932, 38.632
387.279, 5.352
388.626, 12.167
389.973, 11.969
391.319, 51.757
392.666, 66.535
394.012, 116.302
395.358, 115.063
396.704, 114.816
398.049, 183.564
399.394, 203.305
400.740, 214.045
402.084, 255.784
403.429, 362.526
404.774, 418.266
406.118, 430.007
407.462, 509.751
408.806, 509.490
410.150, 534.228
411.493, 562.959
412.836, 543.686
414.179, 557.405
415.522, 595.114
416.865, 601.814
418.207, 657.504
419.549, 706.067
420.891, 733.855
422.233, 836.516
423.575, 935.167
424.916, 1018.811
426.257, 1139.451
427.598, 1276.084
428.939, 1365.709
430.279, 1471.345
431.619, 1546.928
432.959, 1620.523
434.299, 1609.111
435.639, 1610.690
436.978, 1562.264
438.318, 1459.827
439.657, 1407.382
440.996, 1283.935
442.334, 1171.476
443.673, 1194.010
445.011, 1054.542
446.349, 1047.065
447.687, 1073.581
449.024, 999.087
450.361, 1077.583
451.699, 1043.073
453.036, 1082.552
454.372, 1020.031
455.709, 965.499
457.045, 903.956
458.381, 803.413
459.717, 796.858
461.053, 714.298
462.388, 654.733
463.724, 667.157
465.059, 593.575
466.394, 576.980
467.728, 594.385
469.063, 539.788
470.397, 508.179
471.731, 477.565
473.065, 443.945
474.398, 356.312
475.732, 329.669
477.065, 284.014
478.398, 208.354
479.731, 183.682
481.063, 183.998
482.396, 176.307
483.728, 120.618
485.060, 144.922
486.391, 127.216
487.723, 101.457
489.054, 114.596
490.385, 42.652
491.716, 47.658
493.047, 72.582
494.377, 39.480
495.708, 71.329
497.038, 47.146
498.368, 52.969
499.697, 29.749
501.027, 55.556
502.356, 15.826
503.685, 23.694
505.014, 30.447
506.342, 26.129
507.671, 28.288
508.999, 31.775
510.327, 22.519
511.655, 23.543
512.982, 21.160
514.310, 20.940
515.637, 29.399
516.964, 14.865
518.291, 50.245
519.617, 37.485
520.944, 61.450
522.270, 55.256
523.596, 59.065
524.921, 67.625
526.247, 46.858
527.572, 89.878
528.897, 106.008
530.222, 69.409
531.547, 111.625
532.871, 149.394
534.196, 192.188
535.520, 205.312
536.844, 272.848
538.167, 366.945
539.491, 449.977
540.814, 554.345
542.137, 672.680
543.460, 888.791
544.783, 1014.460
546.105, 1223.214
547.427, 1682.594
548.749, 2070.280
550.071, 2690.871
551.393, 3066.848
552.714, 3142.615
554.035, 3068.854
555.356, 2518.961
556.677, 2111.533
557.998, 1664.533
559.318, 1389.024
560.638, 1207.354
561.958, 1022.201
563.278, 988.274
564.597, 898.078
565.917, 910.396
567.236, 937.391
568.555, 905.598
569.874, 914.826
571.192, 844.583
572.511, 801.279
573.829, 684.025
575.147, 554.701
576.464, 469.591
577.782, 402.131
579.099, 375.966
580.416, 348.630
581.733, 275.430
583.050, 298.578
584.366, 309.485
585.683, 343.012
586.999, 292.771
588.315, 246.380
589.630, 231.160
590.946, 213.712
592.261, 266.173
593.576, 270.626
594.891, 281.657
596.206, 281.066
597.520, 316.872
598.834, 319.295
600.148, 377.574
601.462, 358.640
602.776, 440.023
604.089, 415.757
605.402, 521.968
606.715, 559.578
608.028, 571.885
609.341, 694.196
610.653, 757.793
611.965, 835.389
613.277, 923.615
614.589, 1032.917
615.901, 1183.627
617.212, 1193.758
618.523, 1406.313
619.834, 1516.890
621.145, 1596.056
622.456, 1836.237
623.766, 2146.252
625.076, 2549.736
626.386, 2980.993
627.696, 3653.962
629.006, 4553.456
630.315, 5292.542
631.624, 6608.531
632.933, 7183.595
634.242, 7610.579
635.551, 7168.093
636.859, 6044.010
638.167, 4947.869
639.475, 3643.726
640.783, 2742.877
642.090, 2024.679
643.398, 1470.913
644.705, 1104.786
646.012, 922.558
647.318, 746.324
648.625, 598.219
649.931, 444.956
651.237, 436.889
652.543, 382.736
653.849, 328.329
655.155, 276.419
656.460, 245.321
657.765, 193.548
659.070, 227.364
660.375, 189.075
661.679, 176.936
662.984, 121.215
664.288, 166.461
665.592, 161.996
666.895, 124.243
668.199, 128.541
669.502, 111.013
670.805, 107.177
672.108, 112.323
673.411, 121.492
674.713, 80.888
676.016, 109.298
677.318, 91.462
678.620, 88.246
679.921, 90.466
681.223, 66.694
682.524, 52.943
683.825, 90.094
685.126, 41.337
686.427, 61.114
687.727, 89.339
689.028, 54.499
690.328, 65.802
691.628, 57.101
692.927, 57.604
694.227, 54.887
695.526, 65.415
696.825, 69.670
698.124, 54.915
699.423, 17.149
700.721, 67.362
702.020, 39.563
703.318, 78.747
704.616, 32.916
705.913, 39.067
707.211, 25.202
708.508, 44.318
709.805, 23.416
711.102, 28.493
712.399, 11.552
713.695, 32.586
714.992, 12.602
716.288, 16.594
717.584, 46.565
718.879, 24.518
720.175, 49.452
721.470, 14.369
722.765, 25.264
724.060, 3.861
725.355, 14.985
726.649, 7.810
727.944, 22.611
729.238, 36.394
730.532, 49.159
731.825, 22.909
733.119, 73.640
734.412, 23.355
735.705, 36.053
736.998, 22.734
738.291, 10.398
739.584, 3.959
740.876, 1.656
742.168, 20.247
743.460, 26.820
744.752, 17.377
746.043, 29.916
747.334, 0.439
748.626, 44.939
749.916, 9.577
751.207, 46.879
752.498, 11.320
753.788, 17.257
755.078, 67.134
756.368, 3.511
757.658, 18.133
758.947, 9.191
760.237, 0.503
761.526, 10.781
762.815, 31.047
764.104, 3.700
765.392, 8.530
766.680, 25.258
767.969, 31.920
769.257, 15.085
770.544, 28.764
771.832, 40.352
773.119, 11.545
774.406, 12.467
775.693, 17.584
776.980, 7.377
778.267, 49.640
779.553, 29.355
780.839, 26.384
782.125, 50.556
783.411, 15.516
784.697, 9.613
785.982, 19.269
787.267, 7.139
788.552, 10.996
789.837, 19.158
791.122, 16.662
792.406, 25.471
793.690, 10.731
794.974, 47.952
796.258, 11.213
797.542, 2.494
798.825, 13.789
800.108, 12.896
801.391, 10.570
802.674, 3.765
803.957, 1.113
805.239, 3.473
806.522, 37.845
807.804, 1.753
809.085, 42.659
810.367, 7.102
811.649, 31.558
812.930, 24.039
814.211, 41.541
815.492, 11.071
816.772, 51.386
818.053, 16.836
819.333, 40.720
820.613, 52.696
821.893, 38.893
823.173, 7.508
824.452, 3.867
825.732, 6.234
827.011, 15.599
828.290, 9.043
829.568, 26.800
830.847, 31.533
832.125, 15.203
833.403, 6.037
834.681, 4.283
835.959, 6.427
837.236, 15.510
838.514, 25.254
839.791, 15.257
841.068, 39.833
842.345, 24.961
843.621, 28.085
844.898, 9.175
846.174, 9.773
847.450, 36.276
848.726, 11.689
850.001, 24.385
851.277, 7.475
852.552, 38.502
853.827, 74.981
855.102, 40.058
856.376, 43.001
857.651, 26.125
858.925, 27.024
860.199, 75.929
861.473, 43.652
862.746, 86.632
864.020, 108.320
865.293, 75.126
866.566, 119.453
867.839, 50.339
869.112, 76.720
870.384, 39.252
871.656, 73.254
872.928, 104.018
874.200, 90.041
875.472, 106.539
876.744, 106.354
878.015, 103.661
879.286, 119.505
880.557, 102.800
881.828, 128.606
883.098, 129.629
884.369, 140.714
885.639, 146.574
886.909, 185.776
888.178, 177.674
889.448, 249.730
890.717, 233.646
891.987, 291.203
893.256, 237.990
894.524, 326.153
895.793, 408.072
897.061, 389.136
898.330, 437.018
899.598, 508.120
900.865, 529.307
902.133, 574.493
903.401, 599.090
904.668, 641.303
905.935, 710.109
907.202, 682.290
908.468, 825.605
909.735, 848.125
911.001, 954.319
912.267, 1175.153
913.533, 1335.501
914.799, 1736.441
916.064, 2110.677
917.330, 2726.899
918.595, 3807.827
919.860, 4675.750
921.124, 6284.034
922.389, 7613.235
923.653, 8934.021
924.918, 9789.380
926.182, 9403.305
927.445, 8807.206
928.709, 7538.506
929.972, 5853.786
931.236, 4640.225
932.499, 3483.188
933.761, 2674.371
935.024, 2172.836
936.286, 1719.770
937.549, 1652.108
938.811, 1561.533
940.073, 1509.880
941.334, 1562.302
942.596, 1544.185
943.857, 1650.663
945.118, 1810.192
946.379, 1988.718
947.640, 2276.944
948.900, 2542.515
950.161, 2977.649
951.421, 3742.140
952.681, 4547.720
953.940, 6017.310
955.200, 7610.515
956.459, 10425.896
957.719, 14551.184
958.978, 20294.414
960.236, 29180.033
961.495, 38353.047
962.753, 45628.273
964.012, 52062.094
965.270, 53056.402
966.527, 56549.680
967.785, 58604.832
969.043, 57470.617
970.300, 59916.418
971.557, 57209.918
972.814, 56065.742
974.071, 52499.473
975.327, 45255.047
976.583, 38400.902
977.840, 28156.797
979.095, 20492.697
980.351, 14738.314
981.607, 10573.069
982.862, 7869.021
984.117, 6378.458
985.372, 5276.449
986.627, 5016.456
987.882, 4719.487
989.136, 4748.537
990.390, 4735.687
991.644, 4479.340
992.898, 4401.461
994.152, 4081.750
995.405, 3700.923
996.659, 3567.114
997.912, 3055.118
999.165, 2862.357
1000.417, 2585.353
1001.670, 2205.644
1002.922, 1934.958
1004.174, 1593.295
1005.426, 1436.661
1006.678, 1275.044
1007.930, 1081.450
1009.181, 977.876
1010.432, 955.322
1011.683, 849.804
1012.934, 865.307
1014.185, 792.831
1015.435, 780.388
1016.685, 707.970
1017.935, 694.573
1019.185, 770.210
1020.435, 674.332
1021.684, 705.013
1022.934, 691.725
1024.183, 629.395
1025.432, 742.144
1026.680, 677.542
1027.929, 684.343
1029.177, 762.911
1030.425, 764.166
1031.673, 861.036
1032.921, 876.127
1034.169, 770.763
1035.416, 744.702
1036.663, 597.739
1037.911, 649.717
1039.157, 677.723
1040.404, 664.203
1041.650, 778.248
1042.897, 726.315
1044.143, 832.552
1045.389, 895.665
1046.634, 804.765
1047.880, 904.915
1049.125, 806.162
1050.371, 832.538
1051.615, 849.752
1052.860, 809.987
1054.105, 729.659
1055.349, 760.936
1056.593, 681.349
1057.837, 604.674
1059.081, 687.016
1060.325, 629.380
1061.568, 728.771
1062.812, 618.179
1064.055, 730.609
1065.298, 767.058
1066.540, 703.524
1067.783, 818.014
1069.025, 867.525
1070.267, 956.204
1071.509, 1167.768
1072.751, 1146.468
1073.993, 1311.080
1075.234, 1546.706
1076.475, 1591.358
1077.716, 1947.032
1078.957, 2077.729
1080.198, 2436.449
1081.438, 2859.184
1082.679, 3197.947
1083.919, 3892.737
1085.159, 4750.544
1086.398, 5675.376
1087.638, 6867.232
1088.877, 7210.103
1090.116, 7697.992
1091.355, 7565.898
1092.594, 6811.827
1093.833, 6229.773
1095.071, 5385.733
1096.309, 4754.715
1097.547, 4497.725
1098.785, 3973.756
1100.023, 3878.804
1101.260, 3791.873
1102.498, 3585.955
1103.735, 3755.054
1104.972, 3710.169
1106.208, 3799.301
1107.445, 3840.449
1108.681, 3771.622
1109.918, 3773.811
1111.154, 3722.026
1112.389, 3382.257
1113.625, 3221.511
1114.860, 2864.786
1116.096, 2523.086
1117.331, 2272.403
1118.566, 1949.733
1119.800, 1754.078
1121.035, 1524.448
1122.269, 1406.831
1123.503, 1262.238
1124.737, 1115.659
1125.971, 954.129
1127.205, 871.574
1128.438, 739.031
1129.671, 670.143
1130.904, 616.033
1132.137, 541.542
1133.370, 565.845
1134.602, 484.370
1135.834, 473.978
1137.066, 419.750
1138.298, 306.306
1139.530, 432.591
1140.762, 275.174
1141.993, 270.897
1143.224, 307.918
1144.455, 230.555
1145.686, 239.517
1146.917, 213.659
1148.147, 76.302
1149.377, 152.379
1150.607, 111.729
1151.837, 164.973
1153.067, 119.261
1154.296, 15.157
1155.526, 139.646
1156.755, 142.173
1157.984, 59.896
1159.213, 98.027
1160.441, 72.894
1161.670, 46.335
1162.898, 70.112
1164.126, 23.201
1165.354, 5.045
1166.581, 28.105
1167.809, 22.029
1169.036, 15.322
1170.263, 0.816
1171.490, 35.423
1172.717, 33.551
1173.943, 50.165
1175.170, 16.583
1176.396, 28.192
1177.622, 44.445
1178.848, 59.702
1180.073, 59.912
1181.299, 26.028
1182.524, 13.077
1183.749, 34.515
1184.974, 16.230
1186.199, 8.121
1187.423, 41.769
1188.648, 50.296
1189.872, 7.217
1191.096, 34.080
1192.320, 36.842
1193.543, 29.219
1194.767, 12.532
1195.990, 2.919
1197.213, 33.237
1198.436, 69.933
1199.659, 20.477
1200.881, 13.768
1202.104, 35.092
1203.326, 4.052
1204.548, 3.119
1205.770, 33.129
1206.991, 33.132
1208.213, 74.803
1209.434, 40.560
1210.655, 58.210
1211.876, 83.001
1213.096, 5.031
1214.317, 78.008
1215.537, 46.346
1216.757, 2.681
1217.977, 102.948
1219.197, 1.895
1220.417, 86.725
1221.636, 113.368
1222.855, 45.635
1224.074, 163.242
1225.293, 83.398
1226.512, 27.313
1227.731, 101.906
1228.949, 65.629
1230.167, 107.940
1231.385, 173.543
1232.603, 65.321
1233.820, 83.979
1235.038, 92.919
1236.255, 54.040
1237.472, 185.599
1238.689, 100.612
1239.906, 42.305
1241.122, 131.979
1242.338, 39.796
1243.555, 102.364
1244.771, 94.922
1245.986, 40.696
1247.202, 160.252
1248.417, 70.924
1249.633, 81.600
1250.848, 150.151
1252.063, 68.811
1253.277, 144.359
1254.492, 83.893
1255.706, 88.664
1256.920, 153.193
1258.134, 109.759
1259.348, 48.359
1260.562, 144.830
1261.775, 71.599
1262.988, 40.201
1264.201, 75.629
1265.414, 61.296
1266.627, 98.342
1267.839, 76.695
1269.052, 42.604
1270.264, 121.910
1271.476, 17.796
1272.688, 45.538
1273.899, 101.761
1275.111, 35.972
1276.322, 99.508
1277.533, 46.667
1278.744, 11.110
1279.955, 64.143
1281.165, 14.756
1282.376, 20.318
1283.586, 87.367
1284.796, 55.599
1286.006, 70.403
1287.215, 28.392
1288.425, 49.637
1289.634, 56.301
1290.843, 15.779
1292.052, 17.239
1293.261, 86.223
1294.469, 47.916
1295.678, 14.428
1296.886, 1.760
1298.094, 1.977
1299.302, 32.106
1300.509, 13.834
1301.717, 13.580
1302.924, 71.270
1304.131, 45.070
1305.338, 42.551
1306.545, 18.145
1307.752, 22.282
1308.958, 5.293
1310.164, 56.807
1311.370, 25.700
1312.576, 55.762
1313.782, 23.742
1314.987, 20.162
1316.193, 89.551
1317.398, 8.018
1318.603, 12.670
1319.807, 93.029
1321.012, 28.323
1322.216, 98.852
1323.421, 29.686
1324.625, 16.100
1325.829, 46.902
1327.032, 29.350
1328.236, 18.489
1329.439, 76.544
1330.642, 10.359
1331.845, 29.711
1333.048, 30.306
1334.251, 41.336
1335.453, 86.346
1336.656, 40.187
1337.858, 39.147
1339.060, 70.268
1340.261, 12.184
1341.463, 106.001
1342.664, 23.688
1343.866, 11.541
1345.067, 67.369
1346.267, 45.918
1347.468, 46.707
1348.669, 24.443
1349.869, 33.191
1351.069, 33.919
1352.269, 86.863
1353.469, 66.474
1354.668, 98.224
1355.868, 57.878
1357.067, 33.514
1358.266, 37.130
1359.465, 19.723
1360.664, 12.703
1361.862, 117.714
1363.061, 27.239
1364.259, 128.625
1365.457, 89.114
1366.655, 22.574
1367.852, 122.015
1369.050, 0.440
1370.247, 41.842
1371.444, 97.227
1372.641, 66.123
1373.838, 21.481
1375.035, 92.826
1376.231, 8.061
1377.427, 77.212
1378.623, 39.297
1379.819, 30.149
1381.015, 144.980
1382.211, 37.789
1383.406, 72.577
1384.601, 78.346
1385.796, 56.094
1386.991, 105.820
1388.185, 163.525
1389.380, 64.208
1390.574, 149.870
1391.768, 84.508
1392.962, 84.122
1394.156, 151.713
1395.350, 89.276
1396.543, 156.813
1397.736, 170.978
1398.929, 67.402
1400.122, 146.840
1401.315, 105.141
1402.507, 91.768
1403.700, 128.388
1404.892, 55.489
1406.084, 69.232
1407.276, 103.833
1408.467, 48.339
1409.659, 20.464
1410.850, 167.073
1412.041, 23.866
1413.232, 116.875
1414.423, 157.500
1415.614, 69.302
1416.804, 104.287
1417.994, 141.874
1419.184, 27.380
1420.374, 174.185
1421.564, 61.934
1422.753, 49.752
1423.943, 140.037
1425.132, 97.790
1426.321, 108.783
1427.510, 115.890
1428.698, 110.459
1429.887, 112.260
1431.075, 127.983
1432.263, 96.346
1433.451, 106.923
1434.639, 42.378
1435.827, 45.001
1437.014, 148.404
1438.201, 5.209
1439.388, 117.241
1440.575, 95.326
1441.762, 11.989
1442.949, 140.797
1444.135, 55.267
1445.321, 59.030
1446.507, 152.031
1447.693, 103.917
1448.879, 77.985
1450.064, 164.463
1451.250, 48.651
1452.435, 114.654
1453.620, 107.965
1454.805, 99.927
1455.989, 162.323
1457.174, 126.535
1458.358, 56.905
1459.542, 140.423
1460.726, 96.274
1461.910, 74.264
1463.093, 151.888
1464.277, 92.836
1465.460, 90.834
1466.643, 152.724
1467.826, 40.139
1469.009, 156.424
1470.191, 144.970
1471.373, 36.316
1472.556, 165.481
1473.738, 49.048
1474.919, 64.600
1476.101, 144.102
1477.283, 43.572
1478.464, 142.228
1479.645, 148.801
1480.826, 4.056
1482.007, 106.145
1483.187, 124.239
1484.368, 44.530
1485.548, 84.863
1486.728, 117.050
1487.908, 0.367
1489.088, 154.665
1490.268, 7.950
1491.447, 90.248
1492.626, 171.583
1493.805, 3.942
1494.984, 122.522
1496.163, 172.998
1497.341, 45.565
1498.520, 125.122
1499.698, 105.698
1500.876, 27.357
1502.054, 121.140
