##NAMES=Bobdownsite
##RRUFFID=R050109
##IDEAL CHEMISTRY=Ca_9_Mg(PO_4_)_6_(PO_3_F)
##LOCALITY=Big Fish River, Yukon Territory, Canada
##OWNER=RRUFF
##SOURCE=Rock Currier
##DESCRIPTION=Colorless hexagonal tabular crystals, type sample
##STATUS=The identification of this mineral is confirmed by single-crystal X-ray diffraction and chemical analysis.
##URL=rruff.info/R050109
##MEASURED CHEMISTRY=(Ca_8.76_Na_0.24_)_Σ=9_(Mg_0.72_Fe^3+^_0.13_Al_0.11_Fe^2+^_0.04_)_Σ=1_(P_1.00_O_4_)_6_(P_1.00_O_3_F_1.00_); Fe^2+^ and Fe^3+^ by charge balance
##PIN_ID=L00194
##ORIENTATION=Laser parallel to c* (0 0 1). Fiducial mark perpendicular to laser is parallel to a [1 0 0]
88.496, 0.000
89.890, 40.708
91.284, 1.155
92.678, 58.632
94.071, 60.389
95.465, 129.577
96.858, 290.837
98.251, 368.126
99.644, 480.102
101.036, 484.400
102.428, 554.547
103.820, 452.872
105.212, 288.611
106.604, 281.521
107.995, 188.195
109.387, 122.175
110.777, 166.579
112.168, 35.524
113.559, 63.585
114.949, 68.730
116.339, 213.949
117.729, 159.354
119.119, 110.328
120.508, 34.537
121.897, 7.902
123.286, 7.631
124.675, 21.895
126.063, 3.548
127.452, 0.012
128.840, 55.547
130.228, 43.037
131.615, 92.469
133.003, 149.839
134.390, 217.144
135.777, 228.380
137.164, 240.548
138.550, 278.645
139.937, 241.672
141.323, 258.626
142.709, 196.539
144.094, 156.942
145.480, 249.972
146.865, 225.807
148.250, 303.131
149.635, 329.581
151.019, 436.408
152.403, 497.580
153.788, 596.923
155.171, 789.769
156.555, 835.553
157.939, 1049.931
159.322, 1025.249
160.705, 1142.393
162.088, 1183.396
163.470, 1211.236
164.853, 1276.886
166.235, 1043.334
167.617, 1114.587
168.998, 974.652
170.380, 877.537
171.761, 892.269
173.142, 832.914
174.523, 944.476
175.904, 972.960
177.284, 1127.371
178.664, 974.712
180.044, 901.984
181.424, 771.190
182.803, 548.331
184.183, 445.408
185.562, 309.422
186.940, 297.374
188.319, 213.265
189.698, 227.095
191.076, 198.864
192.454, 188.573
193.831, 185.223
195.209, 159.413
196.586, 147.180
197.963, 158.161
199.340, 86.317
200.717, 116.875
202.093, 49.768
203.470, 66.094
204.846, 1.587
206.221, 27.052
207.597, 3.814
208.972, 24.576
210.347, 81.220
211.722, 96.034
213.097, 79.533
214.472, 152.573
215.846, 124.533
217.220, 152.950
218.594, 148.830
219.967, 225.723
221.341, 170.287
222.714, 224.860
224.087, 206.987
225.460, 272.975
226.832, 318.400
228.204, 235.985
229.577, 312.176
230.948, 324.273
232.320, 368.100
233.692, 320.557
235.063, 335.647
236.434, 377.332
237.805, 327.503
239.175, 368.177
240.545, 360.254
241.916, 405.287
243.286, 299.277
244.655, 383.224
246.025, 375.126
247.394, 361.986
248.763, 449.803
250.132, 442.578
251.501, 458.311
252.869, 565.002
254.237, 492.422
255.605, 538.592
256.973, 593.513
258.340, 622.732
259.708, 602.959
261.075, 648.186
262.442, 627.409
263.808, 579.622
265.175, 622.822
266.541, 561.006
267.907, 571.172
269.273, 585.318
270.639, 575.443
272.004, 626.539
273.369, 605.608
274.734, 656.650
276.099, 656.005
277.463, 595.651
278.828, 691.608
280.192, 735.535
281.556, 813.432
282.919, 845.483
284.283, 900.129
285.646, 875.925
287.009, 855.307
288.372, 821.344
289.734, 711.005
291.097, 706.619
292.459, 517.227
293.821, 527.801
295.183, 398.337
296.544, 352.835
297.905, 332.297
299.266, 216.721
300.627, 272.106
301.988, 181.454
303.348, 209.763
304.709, 175.034
306.069, 172.267
307.428, 147.460
308.788, 160.612
310.147, 147.720
311.507, 98.776
312.865, 79.755
314.224, 116.676
315.583, 17.545
316.941, 76.359
318.299, 4.880
319.657, 25.823
321.015, 23.528
322.372, 41.939
323.729, 4.583
325.086, 53.948
326.443, 5.547
327.800, 46.202
329.156, 33.921
330.512, 19.701
331.868, 13.537
333.224, 20.574
334.579, 42.362
335.935, 25.643
337.290, 4.604
338.645, 47.483
339.999, 5.629
341.354, 2.824
342.708, 12.066
344.062, 29.356
345.416, 11.701
346.769, 26.029
348.123, 5.477
349.476, 9.951
350.829, 37.290
352.182, 27.889
353.534, 34.832
354.887, 6.016
356.239, 14.537
357.591, 0.852
358.942, 49.016
360.294, 16.289
361.645, 46.442
362.996, 43.553
364.347, 92.555
365.698, 58.153
367.048, 84.751
368.398, 95.844
369.748, 80.461
371.098, 95.309
372.448, 94.849
373.797, 98.269
375.146, 99.334
376.495, 124.229
377.844, 121.324
379.192, 139.804
380.540, 160.665
381.889, 169.937
383.236, 204.949
384.584, 220.652
385.932, 240.495
387.279, 279.188
388.626, 416.961
389.973, 391.697
391.319, 530.378
392.666, 585.045
394.012, 668.681
395.358, 712.284
396.704, 807.856
398.049, 870.399
399.394, 897.913
400.740, 956.403
402.084, 1087.871
403.429, 1157.316
404.774, 1336.741
406.118, 1341.144
407.462, 1462.525
408.806, 1526.884
410.150, 1532.222
411.493, 1514.538
412.836, 1427.832
414.179, 1417.105
415.522, 1348.356
416.865, 1357.580
418.207, 1341.774
419.549, 1253.946
420.891, 1294.087
422.233, 1233.195
423.575, 1213.272
424.916, 1171.317
426.257, 1234.330
427.598, 1251.319
428.939, 1338.276
430.279, 1368.254
431.619, 1437.091
432.959, 1436.950
434.299, 1442.776
435.639, 1440.570
436.978, 1443.555
438.318, 1370.064
439.657, 1440.761
440.996, 1395.432
442.334, 1377.069
443.673, 1447.677
445.011, 1414.600
446.349, 1458.823
447.687, 1468.348
449.024, 1443.841
450.361, 1553.302
451.699, 1440.731
453.036, 1574.128
454.372, 1471.494
455.709, 1569.829
457.045, 1658.131
458.381, 1606.408
459.717, 1629.652
461.053, 1590.558
462.388, 1560.659
463.724, 1509.344
465.059, 1429.609
466.394, 1359.010
467.728, 1257.237
469.063, 1180.640
470.397, 1116.062
471.731, 1035.404
473.065, 992.439
474.398, 923.278
475.732, 893.386
477.065, 873.424
478.398, 861.137
479.731, 875.184
481.063, 904.261
482.396, 973.066
483.728, 951.678
485.060, 1093.150
486.391, 1041.941
487.723, 955.740
489.054, 994.954
490.385, 764.906
491.716, 723.889
493.047, 633.412
494.377, 520.126
495.708, 475.742
497.038, 433.652
498.368, 438.158
499.697, 330.414
501.027, 333.166
502.356, 240.265
503.685, 222.896
505.014, 221.221
506.342, 200.544
507.671, 235.878
508.999, 205.872
510.327, 159.283
511.655, 203.880
512.982, 149.879
514.310, 189.608
515.637, 151.418
516.964, 150.324
518.291, 191.375
519.617, 155.730
520.944, 171.320
522.270, 129.282
523.596, 170.992
524.921, 204.291
526.247, 212.299
527.572, 203.395
528.897, 200.631
530.222, 202.812
531.547, 215.049
532.871, 223.405
534.196, 272.600
535.520, 278.804
536.844, 311.331
538.167, 457.890
539.491, 510.741
540.814, 718.238
542.137, 823.208
543.460, 1104.678
544.783, 1320.219
546.105, 1538.945
547.427, 1610.839
548.749, 1597.134
550.071, 1626.156
551.393, 1509.167
552.714, 1393.639
554.035, 1489.540
555.356, 1437.566
556.677, 1702.447
557.998, 1990.192
559.318, 2223.294
560.638, 2555.566
561.958, 2414.406
563.278, 2428.209
564.597, 2099.868
565.917, 1779.526
567.236, 1635.027
568.555, 1271.631
569.874, 1136.200
571.192, 936.698
572.511, 850.262
573.829, 717.735
575.147, 603.158
576.464, 558.314
577.782, 457.378
579.099, 451.025
580.416, 425.482
581.733, 392.993
583.050, 482.388
584.366, 475.940
585.683, 568.253
586.999, 643.564
588.315, 825.852
589.630, 1055.135
590.946, 1114.454
592.261, 1249.611
593.576, 1203.827
594.891, 1182.398
596.206, 1159.503
597.520, 1180.604
598.834, 1259.823
600.148, 1358.943
601.462, 1508.436
602.776, 1806.819
604.089, 1877.884
605.402, 1942.305
606.715, 2054.949
608.028, 1857.954
609.341, 1692.889
610.653, 1451.839
611.965, 1365.990
613.277, 1292.879
614.589, 1255.747
615.901, 1248.869
617.212, 1271.703
618.523, 1547.522
619.834, 1594.326
621.145, 1799.116
622.456, 1881.890
623.766, 1778.650
625.076, 1870.396
626.386, 1727.631
627.696, 1741.354
629.006, 1775.106
630.315, 1490.799
631.624, 1497.495
632.933, 1316.166
634.242, 1238.824
635.551, 975.799
636.859, 735.440
638.167, 622.419
639.475, 428.169
640.783, 283.800
642.090, 241.439
643.398, 152.012
644.705, 186.384
646.012, 131.058
647.318, 122.708
648.625, 69.630
649.931, 25.842
651.237, 96.643
652.543, 35.839
653.849, 56.489
655.155, 31.291
656.460, 28.546
657.765, 54.152
659.070, 9.788
660.375, 0.897
661.679, 23.737
662.984, 43.537
664.288, 60.487
665.592, 0.441
666.895, 31.211
668.199, 53.415
669.502, 23.807
670.805, 47.582
672.108, 2.963
673.411, 63.448
674.713, 17.865
676.016, 16.351
677.318, 11.485
678.620, 17.805
679.921, 59.570
681.223, 30.205
682.524, 27.323
683.825, 53.833
685.126, 39.409
686.427, 23.968
687.727, 35.239
689.028, 19.455
690.328, 41.903
691.628, 36.339
692.927, 19.145
694.227, 15.554
695.526, 7.120
696.825, 29.895
698.124, 10.252
699.423, 71.086
700.721, 64.408
702.020, 38.702
703.318, 126.996
704.616, 6.278
705.913, 30.538
707.211, 27.782
708.508, 7.278
709.805, 43.486
711.102, 20.678
712.399, 36.854
713.695, 64.015
714.992, 14.161
716.288, 8.291
717.584, 24.401
718.879, 27.495
720.175, 56.575
721.470, 50.989
722.765, 85.695
724.060, 52.735
725.355, 55.762
726.649, 66.776
727.944, 45.777
729.238, 61.766
730.532, 0.258
731.825, 3.696
733.119, 11.368
734.412, 15.540
735.705, 37.434
736.998, 20.315
738.291, 41.184
739.584, 15.040
740.876, 18.118
742.168, 44.696
743.460, 44.498
744.752, 40.288
746.043, 26.068
747.334, 74.835
748.626, 39.593
749.916, 7.340
751.207, 67.072
752.498, 50.794
753.788, 5.493
755.078, 35.199
756.368, 5.881
757.658, 41.451
758.947, 32.178
760.237, 31.797
761.526, 31.406
762.815, 30.007
764.104, 54.597
765.392, 32.179
766.680, 8.752
767.969, 36.314
769.257, 38.867
770.544, 10.588
771.832, 52.937
773.119, 44.454
774.406, 58.963
775.693, 28.464
776.980, 34.958
778.267, 43.443
779.553, 27.922
780.839, 0.393
782.125, 20.851
783.411, 25.698
784.697, 64.728
785.982, 14.146
787.267, 18.558
788.552, 33.963
789.837, 31.639
791.122, 53.732
792.406, 1.097
793.690, 5.451
794.974, 10.797
796.258, 18.137
797.542, 10.530
798.825, 7.211
800.108, 7.094
801.391, 31.392
802.674, 17.316
803.957, 5.208
805.239, 2.709
806.522, 23.083
807.804, 16.849
809.085, 34.134
810.367, 25.251
811.649, 14.402
812.930, 26.539
814.211, 56.724
815.492, 0.146
816.772, 0.617
818.053, 23.540
819.333, 5.646
820.613, 2.846
821.893, 48.391
823.173, 20.571
824.452, 47.404
825.732, 51.816
827.011, 3.341
828.290, 3.150
829.568, 23.246
830.847, 7.990
832.125, 36.480
833.403, 29.931
834.681, 43.199
835.959, 33.083
837.236, 17.928
838.514, 23.410
839.791, 0.823
841.068, 38.315
842.345, 17.766
843.621, 38.635
844.898, 8.206
846.174, 10.245
847.450, 25.156
848.726, 5.118
850.001, 11.408
851.277, 13.888
852.552, 2.176
853.827, 14.869
855.102, 46.463
856.376, 32.076
857.651, 4.877
858.925, 52.859
860.199, 39.378
861.473, 10.108
862.746, 84.924
864.020, 99.510
865.293, 45.954
866.566, 61.527
867.839, 46.220
869.112, 38.539
870.384, 83.672
871.656, 42.219
872.928, 76.797
874.200, 8.516
875.472, 135.218
876.744, 45.063
878.015, 33.789
879.286, 104.536
880.557, 26.343
881.828, 65.071
883.098, 74.883
884.369, 92.731
885.639, 71.832
886.909, 42.013
888.178, 55.598
889.448, 144.359
890.717, 141.067
891.987, 252.877
893.256, 139.518
894.524, 165.395
895.793, 257.263
897.061, 183.148
898.330, 288.027
899.598, 303.864
900.865, 344.850
902.133, 346.767
903.401, 341.319
904.668, 409.327
905.935, 407.329
907.202, 376.206
908.468, 509.171
909.735, 490.754
911.001, 618.439
912.267, 693.432
913.533, 732.438
914.799, 1031.457
916.064, 1098.483
917.330, 1484.573
918.595, 1898.638
919.860, 2319.497
921.124, 3341.609
922.389, 4035.735
923.653, 5385.601
924.918, 6788.746
926.182, 7703.899
927.445, 9279.066
928.709, 8944.239
929.972, 7729.425
931.236, 6604.620
932.499, 4504.827
933.761, 3376.541
935.024, 2461.764
936.286, 1864.957
937.549, 1670.206
938.811, 1405.453
940.073, 1464.724
941.334, 1408.007
942.596, 1340.977
943.857, 1542.283
945.118, 1606.260
946.379, 1737.470
947.640, 1991.812
948.900, 2093.167
950.161, 2605.594
951.421, 2915.245
952.681, 3665.604
953.940, 4741.007
955.200, 5661.158
956.459, 7802.032
957.719, 10477.330
958.978, 14371.238
960.236, 21786.709
961.495, 28040.039
962.753, 35583.922
964.012, 41868.484
965.270, 41304.012
966.527, 46096.086
967.785, 46011.438
969.043, 45686.855
970.300, 49051.051
971.557, 44746.238
972.814, 45871.820
974.071, 43534.676
975.327, 38859.207
976.583, 36174.902
977.840, 26897.752
979.095, 20283.498
980.351, 14799.254
981.607, 9803.849
982.862, 7489.241
984.117, 5646.238
985.372, 4559.631
986.627, 4223.342
987.882, 3602.644
989.136, 3608.566
990.390, 3447.429
991.644, 3350.319
992.898, 3517.503
994.152, 3549.756
995.405, 3660.783
996.659, 4004.831
997.912, 3974.526
999.165, 4525.631
1000.417, 4541.586
1001.670, 4697.347
1002.922, 4911.036
1004.174, 4527.243
1005.426, 4663.486
1006.678, 4255.763
1007.930, 3614.067
1009.181, 3330.393
1010.432, 2700.745
1011.683, 2523.128
1012.934, 2472.267
1014.185, 2256.738
1015.435, 2396.200
1016.685, 2237.044
1017.935, 2269.548
1019.185, 2360.077
1020.435, 2042.627
1021.684, 2359.202
1022.934, 2340.836
1024.183, 2344.965
1025.432, 2603.608
1026.680, 2503.281
1027.929, 2665.975
1029.177, 2792.699
1030.425, 2632.580
1031.673, 2842.354
1032.921, 2854.987
1034.169, 2777.805
1035.416, 2989.655
1036.663, 2768.833
1037.911, 2977.738
1039.157, 2843.768
1040.404, 2515.423
1041.650, 2441.410
1042.897, 2133.425
1044.143, 2018.556
1045.389, 1894.619
1046.634, 1665.213
1047.880, 1758.313
1049.125, 1601.424
1050.371, 1456.565
1051.615, 1666.724
1052.860, 1464.944
1054.105, 1572.154
1055.349, 1623.388
1056.593, 1559.208
1057.837, 1652.482
1059.081, 1751.776
1060.325, 1729.090
1061.568, 1868.436
1062.812, 1677.803
1064.055, 1886.188
1065.298, 1785.594
1066.540, 1640.022
1067.783, 1812.467
1069.025, 1668.930
1070.267, 1698.411
1071.509, 1744.911
1072.751, 1593.435
1073.993, 1900.982
1075.234, 1840.547
1076.475, 1719.223
1077.716, 1808.825
1078.957, 1731.444
1080.198, 1801.082
1081.438, 1830.736
1082.679, 1826.423
1083.919, 2067.130
1085.159, 2101.852
1086.398, 2338.603
1087.638, 2683.368
1088.877, 2597.151
1090.116, 2834.951
1091.355, 2752.768
1092.594, 2664.612
1093.833, 2814.472
1095.071, 2445.351
1096.309, 2435.248
1097.547, 2488.161
1098.785, 2076.089
1100.023, 2155.039
1101.260, 2090.009
1102.498, 1762.994
1103.735, 2036.997
1104.972, 1770.020
1106.208, 1772.063
1107.445, 1784.124
1108.681, 1504.206
1109.918, 1503.305
1111.154, 1268.429
1112.389, 1101.575
1113.625, 1073.743
1114.860, 772.925
1116.096, 738.138
1117.331, 636.408
1118.566, 546.652
1119.800, 502.716
1121.035, 481.998
1122.269, 581.293
1123.503, 775.224
1124.737, 697.567
1125.971, 532.991
1127.205, 380.412
1128.438, 200.808
1129.671, 318.681
1130.904, 184.108
1132.137, 165.787
1133.370, 307.109
1134.602, 157.591
1135.834, 144.194
1137.066, 213.799
1138.298, 136.333
1139.530, 288.486
1140.762, 177.089
1141.993, 160.202
1143.224, 225.878
1144.455, 135.484
1145.686, 234.646
1146.917, 236.090
1148.147, 196.775
1149.377, 303.988
1150.607, 219.668
1151.837, 233.229
1153.067, 278.881
1154.296, 111.567
1155.526, 257.450
1156.755, 93.959
1157.984, 55.141
1159.213, 156.841
1160.441, 104.902
1161.670, 3.356
1162.898, 137.430
1164.126, 20.275
1165.354, 35.490
1166.581, 78.162
1167.809, 14.018
1169.036, 57.263
1170.263, 64.800
1171.490, 74.669
1172.717, 94.471
1173.943, 240.604
1175.170, 22.978
1176.396, 6.729
1177.622, 41.264
1178.848, 1.212
1180.073, 56.149
1181.299, 6.052
1182.524, 6.522
1183.749, 15.083
1184.974, 114.448
1186.199, 5.688
1187.423, 70.890
1188.648, 15.031
1189.872, 15.645
1191.096, 56.615
1192.320, 12.318
1193.543, 43.968
1194.767, 37.732
1195.990, 31.638
1197.213, 39.059
1198.436, 57.835
1199.659, 0.699
1200.881, 97.991
1202.104, 67.112
1203.326, 19.199
1204.548, 31.483
1205.770, 46.275
1206.991, 5.108
1208.213, 123.788
1209.434, 40.231
1210.655, 93.955
1211.876, 103.230
1213.096, 12.809
1214.317, 72.478
1215.537, 36.273
1216.757, 103.994
1217.977, 175.661
1219.197, 50.132
1220.417, 124.792
1221.636, 79.474
1222.855, 2.063
1224.074, 157.585
1225.293, 42.248
1226.512, 115.247
1227.731, 120.882
1228.949, 63.277
1230.167, 127.916
1231.385, 98.610
1232.603, 84.423
1233.820, 111.046
1235.038, 34.761
1236.255, 33.495
1237.472, 103.122
1238.689, 16.975
1239.906, 103.701
1241.122, 151.331
1242.338, 59.118
1243.555, 68.748
1244.771, 101.378
1245.986, 33.141
1247.202, 109.771
1248.417, 35.482
1249.633, 131.116
1250.848, 84.730
1252.063, 22.760
1253.277, 116.371
1254.492, 84.968
1255.706, 35.769
1256.920, 189.348
1258.134, 73.919
1259.348, 27.771
1260.562, 119.323
1261.775, 54.857
1262.988, 18.377
1264.201, 73.878
1265.414, 1.491
1266.627, 110.046
1267.839, 82.469
1269.052, 12.765
1270.264, 81.602
1271.476, 23.959
1272.688, 32.471
1273.899, 49.803
1275.111, 23.883
1276.322, 124.395
1277.533, 3.351
1278.744, 3.244
1279.955, 116.435
1281.165, 28.607
1282.376, 1.013
1283.586, 72.112
1284.796, 11.201
1286.006, 48.556
1287.215, 4.385
1288.425, 41.637
1289.634, 63.731
1290.843, 19.279
1292.052, 7.209
1293.261, 54.730
1294.469, 18.346
1295.678, 63.613
1296.886, 10.493
1298.094, 23.659
1299.302, 86.165
1300.509, 58.032
1301.717, 14.733
1302.924, 25.449
1304.131, 21.853
1305.338, 32.839
1306.545, 116.491
1307.752, 21.917
1308.958, 25.687
1310.164, 79.911
1311.370, 15.475
1312.576, 63.018
1313.782, 30.541
1314.987, 52.041
1316.193, 34.916
1317.398, 3.494
1318.603, 12.080
1319.807, 23.318
1321.012, 5.309
1322.216, 44.035
1323.421, 20.216
1324.625, 19.498
1325.829, 29.930
1327.032, 1.828
1328.236, 10.383
1329.439, 37.265
1330.642, 7.570
1331.845, 79.467
1333.048, 26.122
1334.251, 5.042
1335.453, 88.031
1336.656, 45.968
1337.858, 97.981
1339.060, 112.464
1340.261, 11.442
1341.463, 87.410
1342.664, 69.348
1343.866, 20.732
1345.067, 99.127
1346.267, 0.999
1347.468, 92.847
1348.669, 101.109
1349.869, 65.923
1351.069, 57.720
1352.269, 135.824
1353.469, 18.589
1354.668, 83.335
1355.868, 26.066
1357.067, 14.780
1358.266, 99.476
1359.465, 66.159
1360.664, 83.829
1361.862, 107.772
1363.061, 2.581
1364.259, 104.029
1365.457, 94.676
1366.655, 21.265
1367.852, 110.749
1369.050, 97.196
1370.247, 45.611
1371.444, 105.972
1372.641, 32.717
1373.838, 99.538
1375.035, 85.324
1376.231, 64.046
1377.427, 147.739
1378.623, 85.694
1379.819, 82.630
1381.015, 160.547
1382.211, 66.445
1383.406, 89.322
1384.601, 131.179
1385.796, 78.015
1386.991, 149.828
1388.185, 191.620
1389.380, 87.389
1390.574, 164.136
1391.768, 101.813
1392.962, 119.604
1394.156, 184.420
1395.350, 57.974
1396.543, 156.538
1397.736, 184.196
1398.929, 76.216
1400.122, 172.586
1401.315, 170.727
1402.507, 69.363
1403.700, 157.748
1404.892, 125.890
1406.084, 125.816
1407.276, 221.735
1408.467, 76.896
1409.659, 85.189
1410.850, 242.540
1412.041, 46.074
1413.232, 170.846
1414.423, 156.938
1415.614, 64.367
1416.804, 216.259
1417.994, 110.533
1419.184, 101.946
1420.374, 116.350
1421.564, 34.645
1422.753, 141.943
1423.943, 149.285
1425.132, 40.421
1426.321, 125.931
1427.510, 181.896
1428.698, 33.218
1429.887, 126.017
1431.075, 110.585
1432.263, 53.386
1433.451, 117.525
1434.639, 51.188
1435.827, 127.932
1437.014, 149.815
1438.201, 58.177
1439.388, 109.774
1440.575, 127.307
1441.762, 73.059
1442.949, 175.280
1444.135, 136.258
1445.321, 118.492
1446.507, 169.832
1447.693, 56.874
1448.879, 96.790
1450.064, 249.537
1451.250, 70.434
1452.435, 127.080
1453.620, 138.655
1454.805, 96.213
1455.989, 135.849
1457.174, 142.413
1458.358, 37.378
1459.542, 170.773
1460.726, 76.366
1461.910, 87.651
1463.093, 200.548
1464.277, 58.682
1465.460, 116.118
1466.643, 113.035
1467.826, 54.363
1469.009, 182.752
1470.191, 101.109
1471.373, 50.817
1472.556, 205.463
1473.738, 96.121
1474.919, 105.441
1476.101, 168.654
1477.283, 33.186
1478.464, 191.454
1479.645, 178.977
1480.826, 99.476
1482.007, 124.163
1483.187, 40.720
1484.368, 44.345
1485.548, 112.960
1486.728, 48.570
1487.908, 104.884
1489.088, 132.572
1490.268, 56.314
1491.447, 117.127
1492.626, 162.022
1493.805, 2.013
1494.984, 80.061
1496.163, 187.237
1497.341, 47.356
1498.520, 143.708
1499.698, 39.153
1500.876, 59.703
1502.054, 179.378
1503.232, 13.764
1504.409, 109.273
1505.586, 167.442
1506.763, 24.428
1507.940, 75.567
1509.117, 158.841
1510.294, 60.288
1511.470, 143.958
1512.647, 39.358
1513.823, 19.261
1514.999, 31.267
1516.174, 0.000
##END=



