##NAMES=Bobdownsite
##RRUFFID=R050109
##IDEAL CHEMISTRY=Ca_9_Mg(PO_4_)_6_(PO_3_F)
##LOCALITY=Big Fish River, Yukon Territory, Canada
##OWNER=RRUFF
##SOURCE=Rock Currier
##DESCRIPTION=Colorless hexagonal tabular crystals, type sample
##STATUS=The identification of this mineral is confirmed by single-crystal X-ray diffraction and chemical analysis.
##URL=rruff.info/R050109
##MEASURED CHEMISTRY=(Ca_8.76_Na_0.24_)_Σ=9_(Mg_0.72_Fe^3+^_0.13_Al_0.11_Fe^2+^_0.04_)_Σ=1_(P_1.00_O_4_)_6_(P_1.00_O_3_F_1.00_); Fe^2+^ and Fe^3+^ by charge balance
##PIN_ID=L00194
##ORIENTATION=Laser parallel to c* (0 0 1). Fiducial mark perpendicular to laser is parallel to a [1 0 0]
91.284, 0.000
92.678, 1.308
94.071, 38.262
95.465, 81.410
96.858, 130.135
98.251, 270.324
99.644, 399.334
101.036, 437.785
102.428, 378.348
103.820, 367.747
105.212, 267.810
106.604, 252.579
107.995, 257.989
109.387, 206.903
110.777, 170.236
112.168, 86.800
113.559, 33.545
114.949, 103.405
116.339, 152.333
117.729, 137.351
119.119, 128.917
120.508, 57.281
121.897, 79.374
123.286, 31.946
124.675, 80.858
126.063, 62.761
127.452, 46.602
128.840, 16.363
130.228, 0.021
131.615, 84.435
133.003, 142.720
134.390, 131.838
135.777, 182.797
137.164, 197.604
138.550, 192.268
139.937, 204.795
141.323, 181.192
142.709, 183.168
144.094, 131.226
145.480, 172.609
146.865, 143.293
148.250, 223.816
149.635, 253.920
151.019, 331.797
152.403, 481.273
153.788, 493.505
155.171, 656.514
156.555, 706.910
157.939, 854.085
159.322, 855.829
160.705, 937.286
162.088, 954.300
163.470, 1009.129
164.853, 955.167
166.235, 794.321
167.617, 848.890
168.998, 664.418
170.380, 632.666
171.761, 708.709
173.142, 693.591
174.523, 717.336
175.904, 780.014
177.284, 811.634
178.664, 762.198
180.044, 709.710
181.424, 536.172
182.803, 389.585
184.183, 326.950
185.562, 224.267
186.940, 187.537
188.319, 166.759
189.698, 97.933
191.076, 144.059
192.454, 54.137
193.831, 73.166
195.209, 74.145
196.586, 42.929
197.963, 27.349
199.340, 16.914
200.717, 14.483
202.093, 45.430
203.470, 6.041
204.846, 35.442
206.221, 7.342
207.597, 17.654
208.972, 14.088
210.347, 19.938
211.722, 12.867
213.097, 28.254
214.472, 22.944
215.846, 62.032
217.220, 106.664
218.594, 94.677
219.967, 102.953
221.341, 88.893
222.714, 95.579
224.087, 127.278
225.460, 131.978
226.832, 130.295
228.204, 133.829
229.577, 157.136
230.948, 150.960
232.320, 175.817
233.692, 170.900
235.063, 162.512
236.434, 142.665
237.805, 151.699
239.175, 163.240
240.545, 211.195
241.916, 207.809
243.286, 219.379
244.655, 240.906
246.025, 192.392
247.394, 207.834
248.763, 205.236
250.132, 263.598
251.501, 253.922
252.869, 309.208
254.237, 291.457
255.605, 337.669
256.973, 303.442
258.340, 402.163
259.708, 300.029
261.075, 371.934
262.442, 394.861
263.808, 356.798
265.175, 354.736
266.541, 359.667
267.907, 349.600
269.273, 362.949
270.639, 355.376
272.004, 389.238
273.369, 392.074
274.734, 412.881
276.099, 418.658
277.463, 464.064
278.828, 521.115
280.192, 563.793
281.556, 610.437
282.919, 628.149
284.283, 613.618
285.646, 646.149
287.009, 621.636
288.372, 618.081
289.734, 522.480
291.097, 541.836
292.459, 433.148
293.821, 353.416
295.183, 326.635
296.544, 249.817
297.905, 250.957
299.266, 233.054
300.627, 139.111
301.988, 155.125
303.348, 112.098
304.709, 113.028
306.069, 95.916
307.428, 116.760
308.788, 128.559
310.147, 87.298
311.507, 78.944
312.865, 45.512
314.224, 24.008
315.583, 16.132
316.941, 39.792
318.299, 3.097
319.657, 6.655
321.015, 4.468
322.372, 30.339
323.729, 18.275
325.086, 31.271
326.443, 8.672
327.800, 50.436
329.156, 12.611
330.512, 43.838
331.868, 5.123
333.224, 2.457
334.579, 25.837
335.935, 35.270
337.290, 4.755
338.645, 16.285
339.999, 16.863
341.354, 25.489
342.708, 12.166
344.062, 0.888
345.416, 12.653
346.769, 18.465
348.123, 10.324
349.476, 7.824
350.829, 15.081
352.182, 24.951
353.534, 9.073
354.887, 33.067
356.239, 55.851
357.591, 31.802
358.942, 12.292
360.294, 79.324
361.645, 0.766
362.996, 47.597
364.347, 28.242
365.698, 62.086
367.048, 68.032
368.398, 44.151
369.748, 51.801
371.098, 42.705
372.448, 54.655
373.797, 106.670
375.146, 97.122
376.495, 98.610
377.844, 142.912
379.192, 127.412
380.540, 127.006
381.889, 153.476
383.236, 201.893
384.584, 206.184
385.932, 217.437
387.279, 229.771
388.626, 315.081
389.973, 359.326
391.319, 485.537
392.666, 541.805
394.012, 603.009
395.358, 664.280
396.704, 760.497
398.049, 883.650
399.394, 961.693
400.740, 1025.746
402.084, 1212.823
403.429, 1434.058
404.774, 1703.273
406.118, 1824.468
407.462, 2025.649
408.806, 2082.745
410.150, 2126.887
411.493, 2065.998
412.836, 1926.104
414.179, 1754.196
415.522, 1604.270
416.865, 1539.323
418.207, 1446.357
419.549, 1370.362
420.891, 1318.338
422.233, 1200.286
423.575, 1237.204
424.916, 1187.094
426.257, 1274.961
427.598, 1287.798
428.939, 1317.604
430.279, 1425.378
431.619, 1420.121
432.959, 1538.832
434.299, 1482.512
435.639, 1490.159
436.978, 1495.776
438.318, 1424.361
439.657, 1453.916
440.996, 1508.439
442.334, 1430.934
443.673, 1474.407
445.011, 1435.853
446.349, 1506.272
447.687, 1522.661
449.024, 1535.019
450.361, 1561.346
451.699, 1546.649
453.036, 1606.922
454.372, 1594.165
455.709, 1639.377
457.045, 1679.560
458.381, 1626.725
459.717, 1696.859
461.053, 1672.892
462.388, 1615.499
463.724, 1623.141
465.059, 1449.569
466.394, 1425.968
467.728, 1270.257
469.063, 1269.604
470.397, 1177.966
471.731, 1120.075
473.065, 994.080
474.398, 951.750
475.732, 1028.094
477.065, 914.256
478.398, 946.751
479.731, 1003.417
481.063, 988.446
482.396, 1044.592
483.728, 1111.086
485.060, 1164.317
486.391, 1134.827
487.723, 1049.586
489.054, 1086.731
490.385, 881.490
491.716, 783.151
493.047, 703.275
494.377, 586.519
495.708, 559.326
497.038, 417.534
498.368, 403.624
499.697, 346.899
501.027, 298.149
502.356, 295.876
503.685, 231.376
505.014, 266.618
506.342, 206.045
507.671, 241.200
508.999, 163.743
510.327, 165.328
511.655, 166.556
512.982, 134.415
514.310, 153.996
515.637, 158.938
516.964, 126.235
518.291, 126.357
519.617, 148.957
520.944, 172.609
522.270, 96.375
523.596, 157.480
524.921, 111.396
526.247, 141.663
527.572, 157.690
528.897, 171.995
530.222, 150.729
531.547, 186.865
532.871, 169.951
534.196, 203.487
535.520, 235.909
536.844, 255.606
538.167, 344.335
539.491, 382.138
540.814, 513.365
542.137, 628.180
543.460, 820.010
544.783, 1014.745
546.105, 1163.406
547.427, 1235.553
548.749, 1264.825
550.071, 1299.729
551.393, 1201.572
552.714, 1184.333
554.035, 1195.269
555.356, 1222.094
556.677, 1506.120
557.998, 1742.185
559.318, 1846.038
560.638, 1953.547
561.958, 2008.690
563.278, 1934.540
564.597, 1756.247
565.917, 1577.146
567.236, 1375.917
568.555, 1144.360
569.874, 971.079
571.192, 862.663
572.511, 697.430
573.829, 651.071
575.147, 545.652
576.464, 454.270
577.782, 408.770
579.099, 362.387
580.416, 332.504
581.733, 287.182
583.050, 318.614
584.366, 346.524
585.683, 430.153
586.999, 478.537
588.315, 602.854
589.630, 739.234
590.946, 743.505
592.261, 820.906
593.576, 775.146
594.891, 800.371
596.206, 832.698
597.520, 797.988
598.834, 945.315
600.148, 989.126
601.462, 1098.308
602.776, 1292.337
604.089, 1480.409
605.402, 1590.604
606.715, 1555.689
608.028, 1445.908
609.341, 1193.340
610.653, 1112.441
611.965, 962.465
613.277, 881.663
614.589, 827.657
615.901, 843.259
617.212, 812.224
618.523, 971.883
619.834, 976.998
621.145, 1035.694
622.456, 1157.658
623.766, 1130.597
625.076, 1168.593
626.386, 1060.468
627.696, 1082.331
629.006, 1061.182
630.315, 1036.022
631.624, 1100.856
632.933, 1009.677
634.242, 929.490
635.551, 738.296
636.859, 620.094
638.167, 475.887
639.475, 295.610
640.783, 230.614
642.090, 176.191
643.398, 76.983
644.705, 113.379
646.012, 130.201
647.318, 41.002
648.625, 65.801
649.931, 50.606
651.237, 54.474
652.543, 40.855
653.849, 37.711
655.155, 38.513
656.460, 57.248
657.765, 47.461
659.070, 39.073
660.375, 47.871
661.679, 34.255
662.984, 46.337
664.288, 17.835
665.592, 48.391
666.895, 37.172
668.199, 43.134
669.502, 49.925
670.805, 30.810
672.108, 48.894
673.411, 24.608
674.713, 9.577
676.016, 4.262
677.318, 4.949
678.620, 18.916
679.921, 24.502
681.223, 14.169
682.524, 20.959
683.825, 88.010
685.126, 8.698
686.427, 0.575
687.727, 16.970
689.028, 41.953
690.328, 31.558
691.628, 41.152
692.927, 10.734
694.227, 17.303
695.526, 9.142
696.825, 0.341
698.124, 11.901
699.423, 23.571
700.721, 46.055
702.020, 70.593
703.318, 97.054
704.616, 92.952
705.913, 54.951
707.211, 64.375
708.508, 80.137
709.805, 33.536
711.102, 54.922
712.399, 14.295
713.695, 11.653
714.992, 33.996
716.288, 19.326
717.584, 46.643
718.879, 19.947
720.175, 49.238
721.470, 7.483
722.765, 23.773
724.060, 0.983
725.355, 26.241
726.649, 53.453
727.944, 7.347
729.238, 29.832
730.532, 38.999
731.825, 25.154
733.119, 48.298
734.412, 15.431
735.705, 0.552
736.998, 9.657
738.291, 3.749
739.584, 22.174
740.876, 8.875
742.168, 40.912
743.460, 51.938
744.752, 31.956
746.043, 55.963
747.334, 16.961
748.626, 68.949
749.916, 53.928
751.207, 19.899
752.498, 23.860
753.788, 11.811
755.078, 0.975
756.368, 23.322
757.658, 5.422
758.947, 6.539
760.237, 17.327
761.526, 74.184
762.815, 9.033
764.104, 14.127
765.392, 20.692
766.680, 43.503
767.969, 6.307
769.257, 32.101
770.544, 35.113
771.832, 73.644
773.119, 4.607
774.406, 5.129
775.693, 6.145
776.980, 11.567
778.267, 13.272
779.553, 5.970
780.839, 41.660
782.125, 38.343
783.411, 22.021
784.697, 43.692
785.982, 14.357
787.267, 20.240
788.552, 22.668
789.837, 21.316
791.122, 16.957
792.406, 29.593
793.690, 44.777
794.974, 17.178
796.258, 43.030
797.542, 30.807
798.825, 56.632
800.108, 3.860
801.391, 21.345
802.674, 7.557
803.957, 14.871
805.239, 2.121
806.522, 8.617
807.804, 17.421
809.085, 10.746
810.367, 33.084
811.649, 52.138
812.930, 21.682
814.211, 3.446
815.492, 10.392
816.772, 55.705
818.053, 47.851
819.333, 65.123
820.613, 0.983
821.893, 23.960
823.173, 18.104
824.452, 5.803
825.732, 7.794
827.011, 15.284
828.290, 28.739
829.568, 1.917
830.847, 8.795
832.125, 30.474
833.403, 29.842
834.681, 4.782
835.959, 29.351
837.236, 32.442
838.514, 24.269
839.791, 28.514
841.068, 19.902
842.345, 10.512
843.621, 5.427
844.898, 11.325
846.174, 14.230
847.450, 1.927
848.726, 15.731
850.001, 20.380
851.277, 26.585
852.552, 6.704
853.827, 16.177
855.102, 2.844
856.376, 72.239
857.651, 27.395
858.925, 0.550
860.199, 21.580
861.473, 13.347
862.746, 65.792
864.020, 32.741
865.293, 41.784
866.566, 49.612
867.839, 38.385
869.112, 73.357
870.384, 56.275
871.656, 12.313
872.928, 96.253
874.200, 36.327
875.472, 74.192
876.744, 49.176
878.015, 41.479
879.286, 101.492
880.557, 50.634
881.828, 28.580
883.098, 67.648
884.369, 78.767
885.639, 120.840
886.909, 82.026
888.178, 102.083
889.448, 115.638
890.717, 108.623
891.987, 125.396
893.256, 138.575
894.524, 116.576
895.793, 227.811
897.061, 166.102
898.330, 252.318
899.598, 249.632
900.865, 238.806
902.133, 347.130
903.401, 250.460
904.668, 330.677
905.935, 405.922
907.202, 362.120
908.468, 400.824
909.735, 479.149
911.001, 493.616
912.267, 625.033
913.533, 606.318
914.799, 875.705
916.064, 961.949
917.330, 1182.972
918.595, 1581.319
919.860, 1937.735
921.124, 2720.973
922.389, 3414.406
923.653, 4475.225
924.918, 5614.675
926.182, 6449.425
927.445, 7348.711
928.709, 7153.411
929.972, 6170.841
931.236, 5278.292
932.499, 3679.683
933.761, 2818.192
935.024, 2003.711
936.286, 1480.239
937.549, 1347.776
938.811, 1250.317
940.073, 1176.873
941.334, 1196.438
942.596, 1130.013
943.857, 1237.597
945.118, 1350.191
946.379, 1375.865
947.640, 1623.263
948.900, 1751.104
950.161, 2044.741
951.421, 2535.788
952.681, 2955.415
953.940, 3834.084
955.200, 4689.765
956.459, 6433.458
957.719, 8829.095
958.978, 11974.229
960.236, 17598.902
961.495, 23014.641
962.753, 28828.461
964.012, 33774.227
965.270, 34078.789
966.527, 37234.598
967.785, 37969.816
969.043, 37555.641
970.300, 39651.492
971.557, 37233.570
972.814, 37279.406
974.071, 35554.070
975.327, 31829.975
976.583, 29125.582
977.840, 22411.133
979.095, 16627.082
980.351, 12161.646
981.607, 8277.515
982.862, 6083.517
984.117, 4667.094
985.372, 3716.136
986.627, 3449.200
987.882, 3026.967
989.136, 2898.607
990.390, 2806.690
991.644, 2717.601
992.898, 2851.970
994.152, 2900.784
995.405, 2982.983
996.659, 3330.197
997.912, 3289.434
999.165, 3591.696
1000.417, 3603.980
1001.670, 3656.296
1002.922, 3754.634
1004.174, 3540.819
1005.426, 3461.196
1006.678, 3160.524
1007.930, 2725.933
1009.181, 2514.365
1010.432, 2140.802
1011.683, 1962.280
1012.934, 1919.429
1014.185, 1760.949
1015.435, 1869.503
1016.685, 1778.084
1017.935, 1749.686
1019.185, 1794.305
1020.435, 1738.222
1021.684, 1846.877
1022.934, 1892.322
1024.183, 1911.708
1025.432, 2041.417
1026.680, 2105.048
1027.929, 2118.910
1029.177, 2200.695
1030.425, 2129.112
1031.673, 2343.943
1032.921, 2384.073
1034.169, 2319.758
1035.416, 2564.403
1036.663, 2404.261
1037.911, 2476.198
1039.157, 2323.452
1040.404, 2152.283
1041.650, 2022.272
1042.897, 1725.673
1044.143, 1656.704
1045.389, 1507.750
1046.634, 1412.813
1047.880, 1303.890
1049.125, 1190.988
1050.371, 1219.101
1051.615, 1367.230
1052.860, 1187.375
1054.105, 1316.535
1055.349, 1366.710
1056.593, 1251.902
1057.837, 1342.109
1059.081, 1437.335
1060.325, 1464.585
1061.568, 1517.853
1062.812, 1406.143
1064.055, 1475.448
1065.298, 1541.769
1066.540, 1379.104
1067.783, 1555.460
1069.025, 1405.830
1070.267, 1376.760
1071.509, 1397.163
1072.751, 1404.580
1073.993, 1409.023
1075.234, 1528.479
1076.475, 1386.954
1077.716, 1480.442
1078.957, 1382.949
1080.198, 1418.475
1081.438, 1470.015
1082.679, 1483.569
1083.919, 1684.138
1085.159, 1718.719
1086.398, 1872.314
1087.638, 2077.922
1088.877, 2008.544
1090.116, 2125.182
1091.355, 2089.833
1092.594, 2032.497
1093.833, 2077.173
1095.071, 1807.863
1096.309, 1711.578
1097.547, 1684.312
1098.785, 1478.071
1100.023, 1561.851
1101.260, 1488.659
1102.498, 1360.481
1103.735, 1443.315
1104.972, 1289.163
1106.208, 1281.023
1107.445, 1260.896
1108.681, 1071.784
1109.918, 1089.689
1111.154, 949.606
1112.389, 776.573
1113.625, 748.482
1114.860, 583.450
1116.096, 580.429
1117.331, 525.254
1118.566, 413.260
1119.800, 394.341
1121.035, 357.385
1122.269, 427.449
1123.503, 378.763
1124.737, 342.650
1125.971, 321.517
1127.205, 275.623
1128.438, 190.739
1129.671, 258.471
1130.904, 125.613
1132.137, 153.764
1133.370, 182.949
1134.602, 126.610
1135.834, 116.004
1137.066, 172.210
1138.298, 104.970
1139.530, 188.461
1140.762, 124.708
1141.993, 95.074
1143.224, 115.668
1144.455, 105.001
1145.686, 112.386
1146.917, 182.944
1148.147, 128.235
1149.377, 185.719
1150.607, 184.607
1151.837, 186.049
1153.067, 190.451
1154.296, 96.846
1155.526, 180.258
1156.755, 106.016
1157.984, 71.628
1159.213, 92.263
1160.441, 125.953
1161.670, 24.416
1162.898, 71.930
1164.126, 12.810
1165.354, 63.854
1166.581, 8.345
1167.809, 14.922
1169.036, 38.709
1170.263, 52.745
1171.490, 27.346
1172.717, 41.123
1173.943, 32.260
1175.170, 37.010
1176.396, 2.218
1177.622, 46.940
1178.848, 25.895
1180.073, 57.069
1181.299, 26.199
1182.524, 24.621
1183.749, 49.767
1184.974, 11.649
1186.199, 55.965
1187.423, 26.558
1188.648, 17.849
1189.872, 14.539
1191.096, 16.729
1192.320, 8.083
1193.543, 62.704
1194.767, 25.984
1195.990, 55.729
1197.213, 35.015
1198.436, 81.594
1199.659, 38.142
1200.881, 46.632
1202.104, 56.078
1203.326, 41.787
1204.548, 8.149
1205.770, 27.613
1206.991, 50.075
1208.213, 104.388
1209.434, 41.575
1210.655, 34.823
1211.876, 70.325
1213.096, 24.769
1214.317, 102.009
1215.537, 38.252
1216.757, 13.566
1217.977, 44.704
1219.197, 45.236
1220.417, 61.478
1221.636, 66.774
1222.855, 106.194
1224.074, 76.416
1225.293, 90.659
1226.512, 73.346
1227.731, 59.276
1228.949, 43.065
1230.167, 49.370
1231.385, 61.574
1232.603, 101.793
1233.820, 114.108
1235.038, 109.476
1236.255, 55.432
1237.472, 87.588
1238.689, 51.852
1239.906, 16.055
1241.122, 101.211
1242.338, 50.643
1243.555, 116.810
1244.771, 99.964
1245.986, 68.202
1247.202, 87.353
1248.417, 67.623
1249.633, 94.152
1250.848, 63.290
1252.063, 50.599
1253.277, 133.731
1254.492, 53.917
1255.706, 40.179
1256.920, 115.392
1258.134, 17.500
1259.348, 6.943
1260.562, 94.140
1261.775, 59.203
1262.988, 3.585
1264.201, 132.462
1265.414, 17.488
1266.627, 90.568
1267.839, 33.562
1269.052, 40.622
1270.264, 102.589
1271.476, 0.469
1272.688, 48.592
1273.899, 52.464
1275.111, 11.675
1276.322, 118.260
1277.533, 62.088
1278.744, 42.906
1279.955, 8.303
1281.165, 3.555
1282.376, 49.153
1283.586, 8.987
1284.796, 19.331
1286.006, 64.782
1287.215, 30.432
1288.425, 18.069
1289.634, 44.712
1290.843, 4.684
1292.052, 11.099
1293.261, 3.751
1294.469, 14.992
1295.678, 13.608
1296.886, 35.112
1298.094, 3.601
1299.302, 51.075
1300.509, 49.529
1301.717, 1.030
1302.924, 28.391
1304.131, 30.202
1305.338, 1.167
1306.545, 5.538
1307.752, 43.132
1308.958, 16.760
1310.164, 16.543
1311.370, 49.792
1312.576, 29.114
1313.782, 35.052
1314.987, 6.254
1316.193, 71.663
1317.398, 54.129
1318.603, 35.273
1319.807, 10.499
1321.012, 23.511
1322.216, 22.560
1323.421, 34.002
1324.625, 36.981
1325.829, 17.746
1327.032, 31.918
1328.236, 17.129
1329.439, 48.125
1330.642, 56.043
1331.845, 44.646
1333.048, 42.673
1334.251, 23.527
1335.453, 90.970
1336.656, 55.793
1337.858, 23.602
1339.060, 74.393
1340.261, 1.830
1341.463, 31.926
1342.664, 27.667
1343.866, 30.392
1345.067, 35.484
1346.267, 41.118
1347.468, 21.467
1348.669, 57.125
1349.869, 39.767
1351.069, 40.395
1352.269, 69.102
1353.469, 5.700
1354.668, 115.280
1355.868, 36.847
1357.067, 43.398
1358.266, 97.937
1359.465, 100.218
1360.664, 7.732
1361.862, 79.688
1363.061, 36.175
1364.259, 85.649
1365.457, 72.113
1366.655, 47.604
1367.852, 89.043
1369.050, 83.753
1370.247, 1.825
1371.444, 89.479
1372.641, 38.762
1373.838, 66.021
1375.035, 89.248
1376.231, 84.490
1377.427, 60.614
1378.623, 51.695
1379.819, 14.903
1381.015, 114.677
1382.211, 70.189
1383.406, 85.685
1384.601, 144.162
1385.796, 46.622
1386.991, 97.065
1388.185, 110.487
1389.380, 81.890
1390.574, 121.274
1391.768, 75.606
1392.962, 41.904
1394.156, 117.302
1395.350, 64.515
1396.543, 116.770
1397.736, 94.016
1398.929, 74.302
1400.122, 82.653
1401.315, 172.818
1402.507, 38.193
1403.700, 151.858
1404.892, 106.562
1406.084, 69.443
1407.276, 152.965
1408.467, 113.761
1409.659, 82.696
1410.850, 124.654
1412.041, 82.009
1413.232, 111.864
1414.423, 180.973
1415.614, 60.436
1416.804, 134.169
1417.994, 115.615
1419.184, 65.267
1420.374, 188.080
1421.564, 88.028
1422.753, 82.144
1423.943, 113.820
1425.132, 111.990
1426.321, 40.056
1427.510, 90.979
1428.698, 12.178
1429.887, 93.524
1431.075, 78.042
1432.263, 67.244
1433.451, 120.465
1434.639, 100.730
1435.827, 76.754
1437.014, 116.257
1438.201, 54.797
1439.388, 126.169
1440.575, 132.294
1441.762, 75.159
1442.949, 115.260
1444.135, 85.472
1445.321, 92.718
1446.507, 131.359
1447.693, 71.235
1448.879, 63.044
1450.064, 133.512
1451.250, 50.396
1452.435, 58.318
1453.620, 168.429
1454.805, 45.195
1455.989, 159.417
1457.174, 98.396
1458.358, 80.367
1459.542, 192.977
1460.726, 89.750
1461.910, 88.032
1463.093, 164.711
1464.277, 67.443
1465.460, 89.746
1466.643, 172.262
1467.826, 65.750
1469.009, 121.453
1470.191, 170.910
1471.373, 80.545
1472.556, 213.410
1473.738, 69.392
1474.919, 94.143
1476.101, 225.874
1477.283, 73.847
1478.464, 107.750
1479.645, 139.712
1480.826, 65.387
1482.007, 84.312
1483.187, 119.211
1484.368, 89.104
1485.548, 117.995
1486.728, 112.818
1487.908, 111.282
1489.088, 195.814
1490.268, 82.687
1491.447, 114.592
1492.626, 172.514
1493.805, 28.499
1494.984, 84.522
1496.163, 130.581
1497.341, 103.676
1498.520, 144.788
1499.698, 98.027
1500.876, 20.597
1502.054, 192.824
1503.232, 63.300
1504.409, 93.836
1505.586, 171.465
1506.763, 316.227
1507.940, 47.104
1509.117, 131.124
1510.294, 15.190
1511.470, 110.417
1512.647, 102.130
1513.823, 66.415
1514.999, 70.903
1516.174, 36.340
1517.350, 9.832
1518.526, 66.759
1519.701, 62.596
1520.876, 0.301
1522.051, 0.000
##END=



