##NAMES=Bobdownsite
##RRUFFID=R050109
##IDEAL CHEMISTRY=Ca_9_Mg(PO_4_)_6_(PO_3_F)
##LOCALITY=Big Fish River, Yukon Territory, Canada
##OWNER=RRUFF
##SOURCE=Rock Currier
##DESCRIPTION=Colorless hexagonal tabular crystals, type sample
##STATUS=The identification of this mineral is confirmed by single-crystal X-ray diffraction and chemical analysis.
##URL=rruff.info/R050109
##MEASURED CHEMISTRY=(Ca_8.76_Na_0.24_)_Σ=9_(Mg_0.72_Fe^3+^_0.13_Al_0.11_Fe^2+^_0.04_)_Σ=1_(P_1.00_O_4_)_6_(P_1.00_O_3_F_1.00_); Fe^2+^ and Fe^3+^ by charge balance
##PIN_ID=L00194
##ORIENTATION=Laser parallel to c* (0 0 1). Fiducial mark perpendicular to laser is parallel to a [1 0 0]
91.284, 0.000
92.678, 1.637
94.071, 71.796
95.465, 133.061
96.858, 166.820
98.251, 284.655
99.644, 436.729
101.036, 560.816
102.428, 550.197
103.820, 491.598
105.212, 335.805
106.604, 364.792
107.995, 284.544
109.387, 331.608
110.777, 158.369
112.168, 65.526
113.559, 142.980
114.949, 141.659
116.339, 158.505
117.729, 209.481
119.119, 149.671
120.508, 116.688
121.897, 46.267
123.286, 45.293
124.675, 12.434
126.063, 72.555
127.452, 16.302
128.840, 82.783
130.228, 81.793
131.615, 170.711
133.003, 211.526
134.390, 252.233
135.777, 253.833
137.164, 265.332
138.550, 324.730
139.937, 301.031
141.323, 362.239
142.709, 271.356
144.094, 257.617
145.480, 291.788
146.865, 310.792
148.250, 422.977
149.635, 418.481
151.019, 473.633
152.403, 549.942
153.788, 582.533
155.171, 767.875
156.555, 708.594
157.939, 799.925
159.322, 748.421
160.705, 883.652
162.088, 924.313
163.470, 975.286
164.853, 1017.660
166.235, 865.854
167.617, 777.865
168.998, 776.701
170.380, 687.366
171.761, 631.868
173.142, 609.213
174.523, 735.424
175.904, 742.557
177.284, 866.624
178.664, 825.632
180.044, 731.584
181.424, 581.485
182.803, 418.334
184.183, 323.135
185.562, 236.888
186.940, 173.594
188.319, 149.252
189.698, 118.865
191.076, 148.430
192.454, 98.948
193.831, 98.418
195.209, 117.842
196.586, 57.483
197.963, 79.077
199.340, 65.045
200.717, 19.298
202.093, 22.209
203.470, 1.052
204.846, 58.968
206.221, 13.590
207.597, 4.614
208.972, 8.308
210.347, 62.466
211.722, 41.289
213.097, 19.671
214.472, 5.800
215.846, 29.606
217.220, 112.895
218.594, 96.589
219.967, 137.595
221.341, 146.785
222.714, 127.501
224.087, 109.103
225.460, 138.454
226.832, 180.034
228.204, 157.616
229.577, 181.911
230.948, 147.786
232.320, 225.432
233.692, 195.565
235.063, 247.739
236.434, 200.241
237.805, 209.320
239.175, 247.771
240.545, 218.978
241.916, 239.144
243.286, 238.271
244.655, 199.360
246.025, 296.412
247.394, 257.428
248.763, 294.407
250.132, 253.350
251.501, 304.257
252.869, 327.129
254.237, 344.965
255.605, 360.767
256.973, 382.854
258.340, 395.631
259.708, 420.732
261.075, 370.899
262.442, 422.110
263.808, 362.351
265.175, 414.609
266.541, 414.876
267.907, 497.144
269.273, 446.409
270.639, 413.667
272.004, 453.913
273.369, 368.144
274.734, 408.349
276.099, 499.534
277.463, 456.697
278.828, 514.835
280.192, 548.949
281.556, 642.036
282.919, 654.097
284.283, 725.130
285.646, 742.131
287.009, 680.098
288.372, 693.027
289.734, 562.920
291.097, 576.775
292.459, 426.402
293.821, 417.181
295.183, 335.923
296.544, 244.628
297.905, 276.296
299.266, 240.928
300.627, 211.523
301.988, 118.081
303.348, 183.602
304.709, 132.086
306.069, 103.533
307.428, 116.942
308.788, 80.313
310.147, 115.646
311.507, 56.923
312.865, 43.113
314.224, 12.758
315.583, 13.696
316.941, 44.269
318.299, 29.827
319.657, 4.986
321.015, 18.199
322.372, 14.472
323.729, 44.802
325.086, 85.195
326.443, 5.662
327.800, 42.178
329.156, 7.754
330.512, 13.379
331.868, 1.947
333.224, 10.093
334.579, 15.539
335.935, 32.353
337.290, 52.219
338.645, 32.143
339.999, 28.115
341.354, 2.136
342.708, 21.800
344.062, 14.298
345.416, 8.403
346.769, 2.155
348.123, 10.148
349.476, 7.106
350.829, 2.390
352.182, 9.315
353.534, 16.125
354.887, 58.860
356.239, 22.632
357.591, 9.371
358.942, 40.858
360.294, 20.532
361.645, 43.939
362.996, 80.374
364.347, 54.446
365.698, 84.629
367.048, 55.906
368.398, 115.601
369.748, 72.944
371.098, 104.314
372.448, 124.210
373.797, 104.755
375.146, 84.185
376.495, 128.309
377.844, 115.165
379.192, 200.085
380.540, 171.361
381.889, 220.499
383.236, 248.747
384.584, 265.966
385.932, 387.044
387.279, 426.000
388.626, 439.028
389.973, 478.185
391.319, 601.210
392.666, 721.300
394.012, 800.214
395.358, 937.290
396.704, 1037.340
398.049, 1216.362
399.394, 1322.359
400.740, 1537.334
402.084, 1817.289
403.429, 2111.225
404.774, 2630.142
406.118, 2847.042
407.462, 3219.928
408.806, 3263.794
410.150, 3227.641
411.493, 3203.470
412.836, 2885.280
414.179, 2728.071
415.522, 2389.842
416.865, 2322.595
418.207, 2064.329
419.549, 1959.034
420.891, 1930.723
422.233, 1702.381
423.575, 1662.012
424.916, 1636.613
426.257, 1597.184
427.598, 1640.736
428.939, 1622.259
430.279, 1705.751
431.619, 1744.214
432.959, 1872.646
434.299, 1909.048
435.639, 1876.419
436.978, 1859.760
438.318, 1797.076
439.657, 1878.364
440.996, 1778.637
442.334, 1694.880
443.673, 1794.093
445.011, 1638.277
446.349, 1781.434
447.687, 1767.560
449.024, 1705.656
450.361, 1879.722
451.699, 1702.767
453.036, 1819.783
454.372, 1747.780
455.709, 1778.748
457.045, 1888.685
458.381, 1820.592
459.717, 1850.479
461.053, 1802.315
462.388, 1761.999
463.724, 1751.256
465.059, 1572.759
466.394, 1572.014
467.728, 1362.116
469.063, 1414.241
470.397, 1269.112
471.731, 1215.167
473.065, 1205.772
474.398, 1126.204
475.732, 1171.758
477.065, 1066.212
478.398, 988.553
479.731, 1035.917
481.063, 1089.802
482.396, 1179.820
483.728, 1151.034
485.060, 1247.308
486.391, 1240.010
487.723, 1229.671
489.054, 1134.408
490.385, 1214.572
491.716, 853.865
493.047, 778.125
494.377, 647.697
495.708, 600.816
497.038, 526.758
498.368, 505.608
499.697, 328.052
501.027, 331.381
502.356, 255.257
503.685, 275.131
505.014, 247.003
506.342, 193.414
507.671, 196.308
508.999, 206.275
510.327, 182.704
511.655, 173.286
512.982, 142.198
514.310, 149.541
515.637, 131.811
516.964, 129.283
518.291, 196.083
519.617, 108.033
520.944, 181.357
522.270, 148.275
523.596, 176.226
524.921, 181.966
526.247, 68.146
527.572, 184.156
528.897, 134.439
530.222, 188.406
531.547, 201.079
532.871, 193.249
534.196, 217.753
535.520, 254.676
536.844, 262.129
538.167, 363.221
539.491, 375.711
540.814, 540.080
542.137, 644.125
543.460, 833.586
544.783, 1004.259
546.105, 1212.944
547.427, 1252.716
548.749, 1336.212
550.071, 1283.842
551.393, 1269.534
552.714, 1215.186
554.035, 1262.758
555.356, 1327.301
556.677, 1537.885
557.998, 1794.401
559.318, 1973.888
560.638, 2329.751
561.958, 2622.181
563.278, 2757.943
564.597, 2531.306
565.917, 2438.312
567.236, 2031.557
568.555, 1632.792
569.874, 1772.346
571.192, 929.618
572.511, 703.923
573.829, 658.202
575.147, 544.398
576.464, 475.698
577.782, 410.826
579.099, 389.183
580.416, 363.219
581.733, 345.465
583.050, 347.505
584.366, 363.612
585.683, 455.985
586.999, 486.256
588.315, 575.327
589.630, 767.239
590.946, 784.231
592.261, 894.250
593.576, 943.210
594.891, 835.146
596.206, 895.952
597.520, 859.581
598.834, 1001.983
600.148, 1061.820
601.462, 1115.575
602.776, 1339.948
604.089, 1422.002
605.402, 1637.843
606.715, 1627.639
608.028, 1458.396
609.341, 1422.918
610.653, 1164.048
611.965, 1043.859
613.277, 1017.510
614.589, 932.094
615.901, 996.662
617.212, 982.058
618.523, 1081.804
619.834, 1159.377
621.145, 1345.879
622.456, 1400.504
623.766, 1403.747
625.076, 1374.205
626.386, 1285.095
627.696, 1298.525
629.006, 1302.652
630.315, 1182.127
631.624, 1188.028
632.933, 1101.643
634.242, 1014.673
635.551, 949.364
636.859, 766.106
638.167, 687.172
639.475, 382.533
640.783, 289.893
642.090, 227.251
643.398, 143.616
644.705, 151.998
646.012, 127.413
647.318, 94.866
648.625, 67.246
649.931, 58.090
651.237, 34.990
652.543, 55.628
653.849, 79.272
655.155, 35.099
656.460, 2.536
657.765, 27.903
659.070, 40.270
660.375, 11.369
661.679, 82.970
662.984, 25.321
664.288, 16.649
665.592, 33.805
666.895, 33.484
668.199, 60.882
669.502, 34.258
670.805, 58.699
672.108, 13.987
673.411, 48.998
674.713, 0.113
676.016, 14.312
677.318, 53.716
678.620, 7.751
679.921, 64.281
681.223, 53.420
682.524, 21.812
683.825, 15.482
685.126, 35.587
686.427, 28.514
687.727, 4.592
689.028, 56.975
690.328, 9.978
691.628, 50.969
692.927, 22.991
694.227, 52.985
695.526, 39.780
696.825, 36.812
698.124, 6.747
699.423, 81.663
700.721, 42.564
702.020, 52.922
703.318, 68.793
704.616, 45.650
705.913, 50.332
707.211, 30.446
708.508, 38.062
709.805, 51.858
711.102, 53.856
712.399, 38.624
713.695, 49.375
714.992, 51.111
716.288, 12.833
717.584, 53.536
718.879, 14.226
720.175, 58.898
721.470, 10.443
722.765, 76.187
724.060, 72.804
725.355, 16.409
726.649, 52.998
727.944, 39.574
729.238, 40.137
730.532, 54.686
731.825, 24.223
733.119, 59.747
734.412, 20.741
735.705, 76.738
736.998, 19.207
738.291, 58.662
739.584, 37.106
740.876, 23.463
742.168, 12.937
743.460, 29.323
744.752, 65.696
746.043, 37.059
747.334, 25.411
748.626, 33.751
749.916, 34.080
751.207, 2.602
752.498, 0.304
753.788, 45.023
755.078, 36.217
756.368, 57.446
757.658, 1.665
758.947, 7.869
760.237, 15.060
761.526, 18.240
762.815, 22.410
764.104, 19.430
765.392, 2.705
766.680, 25.174
767.969, 25.918
769.257, 52.001
770.544, 40.076
771.832, 20.857
773.119, 7.185
774.406, 8.784
775.693, 31.229
776.980, 10.765
778.267, 4.779
779.553, 31.193
780.839, 0.157
782.125, 27.109
783.411, 4.946
784.697, 7.984
785.982, 2.094
787.267, 8.903
788.552, 24.710
789.837, 0.598
791.122, 5.475
792.406, 43.344
793.690, 18.206
794.974, 45.062
796.258, 32.912
797.542, 29.755
798.825, 14.592
800.108, 4.421
801.391, 3.245
802.674, 7.956
803.957, 5.450
805.239, 6.904
806.522, 20.464
807.804, 20.956
809.085, 6.369
810.367, 2.025
811.649, 23.049
812.930, 6.407
814.211, 36.815
815.492, 14.095
816.772, 2.679
818.053, 55.015
819.333, 40.725
820.613, 7.040
821.893, 1.618
823.173, 13.165
824.452, 38.470
825.732, 44.059
827.011, 6.010
828.290, 2.647
829.568, 20.017
830.847, 12.903
832.125, 30.546
833.403, 15.538
834.681, 15.922
835.959, 29.738
837.236, 33.405
838.514, 14.446
839.791, 15.276
841.068, 28.331
842.345, 10.311
843.621, 34.035
844.898, 25.069
846.174, 0.756
847.450, 13.284
848.726, 24.388
850.001, 30.124
851.277, 19.117
852.552, 16.869
853.827, 49.305
855.102, 59.418
856.376, 31.874
857.651, 57.238
858.925, 6.491
860.199, 60.802
861.473, 47.982
862.746, 28.247
864.020, 10.461
865.293, 1.842
866.566, 14.088
867.839, 17.386
869.112, 53.697
870.384, 71.616
871.656, 37.951
872.928, 20.938
874.200, 48.317
875.472, 40.035
876.744, 39.510
878.015, 26.980
879.286, 24.063
880.557, 22.542
881.828, 31.921
883.098, 23.322
884.369, 66.793
885.639, 69.145
886.909, 47.658
888.178, 48.929
889.448, 89.510
890.717, 91.868
891.987, 158.418
893.256, 115.887
894.524, 116.080
895.793, 150.361
897.061, 183.831
898.330, 168.448
899.598, 209.972
900.865, 228.459
902.133, 290.992
903.401, 296.540
904.668, 336.218
905.935, 346.062
907.202, 385.452
908.468, 401.739
909.735, 464.427
911.001, 493.486
912.267, 512.855
913.533, 602.428
914.799, 849.036
916.064, 918.674
917.330, 1186.540
918.595, 1623.788
919.860, 1855.347
921.124, 2691.057
922.389, 3332.827
923.653, 4289.604
924.918, 5649.547
926.182, 6296.131
927.445, 7289.883
928.709, 7424.699
929.972, 6258.386
931.236, 5491.451
932.499, 3880.297
933.761, 2782.707
935.024, 2080.573
936.286, 1500.740
937.549, 1413.555
938.811, 1150.944
940.073, 1151.966
941.334, 1184.886
942.596, 1075.501
943.857, 1233.365
945.118, 1189.319
946.379, 1317.286
947.640, 1645.264
948.900, 1719.254
950.161, 2116.255
951.421, 2445.274
952.681, 2900.268
953.940, 3864.242
955.200, 4614.297
956.459, 6237.899
957.719, 8572.448
958.978, 11446.274
960.236, 17230.102
961.495, 22764.768
962.753, 28619.834
964.012, 34655.000
965.270, 34240.172
966.527, 38295.352
967.785, 39260.559
969.043, 38135.758
970.300, 41600.988
971.557, 38204.016
972.814, 38419.293
974.071, 37264.469
975.327, 32779.156
976.583, 30742.598
977.840, 23475.766
979.095, 17531.143
980.351, 13006.412
981.607, 8701.825
982.862, 6446.737
984.117, 5000.834
985.372, 3921.337
986.627, 3698.855
987.882, 3264.133
989.136, 3191.689
990.390, 3244.264
991.644, 3093.866
992.898, 3294.486
994.152, 3272.802
995.405, 3362.474
996.659, 3645.246
997.912, 3374.929
999.165, 3635.670
1000.417, 3570.597
1001.670, 3337.302
1002.922, 3475.108
1004.174, 3115.936
1005.426, 3038.780
1006.678, 2854.173
1007.930, 2534.054
1009.181, 2434.963
1010.432, 2089.760
1011.683, 1912.714
1012.934, 1906.881
1014.185, 1805.872
1015.435, 1928.677
1016.685, 1746.965
1017.935, 1736.036
1019.185, 1891.138
1020.435, 1693.257
1021.684, 1824.427
1022.934, 1942.584
1024.183, 1908.286
1025.432, 2166.485
1026.680, 1984.771
1027.929, 2166.083
1029.177, 2287.363
1030.425, 2236.885
1031.673, 2333.201
1032.921, 2361.154
1034.169, 2202.512
1035.416, 2508.896
1036.663, 2303.951
1037.911, 2395.373
1039.157, 2381.234
1040.404, 2103.705
1041.650, 2069.193
1042.897, 1694.722
1044.143, 1577.267
1045.389, 1538.841
1046.634, 1360.439
1047.880, 1324.055
1049.125, 1163.693
1050.371, 1174.342
1051.615, 1291.007
1052.860, 1122.960
1054.105, 1205.918
1055.349, 1311.639
1056.593, 1341.388
1057.837, 1339.170
1059.081, 1488.967
1060.325, 1398.788
1061.568, 1619.627
1062.812, 1429.488
1064.055, 1565.365
1065.298, 1645.258
1066.540, 1394.169
1067.783, 1501.104
1069.025, 1341.056
1070.267, 1410.035
1071.509, 1516.027
1072.751, 1421.040
1073.993, 1546.066
1075.234, 1587.116
1076.475, 1471.183
1077.716, 1567.270
1078.957, 1511.372
1080.198, 1496.504
1081.438, 1605.655
1082.679, 1566.820
1083.919, 1715.003
1085.159, 1794.200
1086.398, 1922.432
1087.638, 2216.679
1088.877, 2100.943
1090.116, 2290.226
1091.355, 2292.523
1092.594, 2107.837
1093.833, 2264.167
1095.071, 2005.510
1096.309, 1858.867
1097.547, 1910.239
1098.785, 1633.623
1100.023, 1660.078
1101.260, 1680.491
1102.498, 1387.917
1103.735, 1591.357
1104.972, 1368.812
1106.208, 1304.281
1107.445, 1300.768
1108.681, 1050.273
1109.918, 1119.798
1111.154, 981.338
1112.389, 811.892
1113.625, 798.459
1114.860, 652.040
1116.096, 586.632
1117.331, 594.306
1118.566, 447.923
1119.800, 430.562
1121.035, 367.239
1122.269, 420.951
1123.503, 543.776
1124.737, 487.466
1125.971, 385.774
1127.205, 317.582
1128.438, 193.324
1129.671, 278.925
1130.904, 133.689
1132.137, 139.479
1133.370, 181.111
1134.602, 162.914
1135.834, 124.525
1137.066, 191.497
1138.298, 53.335
1139.530, 235.827
1140.762, 151.680
1141.993, 101.685
1143.224, 211.278
1144.455, 52.158
1145.686, 218.323
1146.917, 159.308
1148.147, 79.259
1149.377, 243.930
1150.607, 174.203
1151.837, 158.175
1153.067, 249.660
1154.296, 137.696
1155.526, 174.853
1156.755, 102.980
1157.984, 31.958
1159.213, 158.515
1160.441, 94.669
1161.670, 56.783
1162.898, 176.870
1164.126, 14.199
1165.354, 53.824
1166.581, 61.133
1167.809, 20.162
1169.036, 1.729
1170.263, 9.445
1171.490, 48.334
1172.717, 16.754
1173.943, 59.190
1175.170, 4.338
1176.396, 2.734
1177.622, 113.254
1178.848, 31.858
1180.073, 67.290
1181.299, 7.583
1182.524, 15.797
1183.749, 23.388
1184.974, 30.558
1186.199, 16.159
1187.423, 46.970
1188.648, 5.913
1189.872, 42.676
1191.096, 8.619
1192.320, 66.848
1193.543, 26.499
1194.767, 54.583
1195.990, 1.621
1197.213, 25.613
1198.436, 78.673
1199.659, 8.940
1200.881, 50.978
1202.104, 61.932
1203.326, 36.129
1204.548, 115.035
1205.770, 55.068
1206.991, 13.694
1208.213, 79.667
1209.434, 49.545
1210.655, 2.442
1211.876, 120.336
1213.096, 66.953
1214.317, 75.838
1215.537, 62.721
1216.757, 10.796
1217.977, 134.671
1219.197, 43.300
1220.417, 120.294
1221.636, 117.158
1222.855, 37.287
1224.074, 128.142
1225.293, 68.087
1226.512, 23.309
1227.731, 177.221
1228.949, 38.127
1230.167, 79.072
1231.385, 125.896
1232.603, 54.742
1233.820, 98.671
1235.038, 95.515
1236.255, 78.570
1237.472, 148.364
1238.689, 76.284
1239.906, 110.433
1241.122, 115.226
1242.338, 68.204
1243.555, 52.989
1244.771, 98.773
1245.986, 10.199
1247.202, 127.617
1248.417, 99.392
1249.633, 69.186
1250.848, 147.957
1252.063, 65.783
1253.277, 67.742
1254.492, 130.505
1255.706, 104.466
1256.920, 106.215
1258.134, 57.950
1259.348, 45.099
1260.562, 130.792
1261.775, 54.467
1262.988, 26.327
1264.201, 146.972
1265.414, 43.741
1266.627, 41.509
1267.839, 37.120
1269.052, 18.794
1270.264, 118.375
1271.476, 7.935
1272.688, 36.721
1273.899, 102.228
1275.111, 4.708
1276.322, 112.299
1277.533, 13.242
1278.744, 73.807
1279.955, 144.637
1281.165, 8.000
1282.376, 31.342
1283.586, 66.652
1284.796, 21.056
1286.006, 85.421
1287.215, 36.645
1288.425, 37.155
1289.634, 97.222
1290.843, 27.382
1292.052, 55.528
1293.261, 66.776
1294.469, 20.116
1295.678, 27.065
1296.886, 72.116
1298.094, 21.150
1299.302, 62.183
1300.509, 40.189
1301.717, 8.825
1302.924, 140.137
1304.131, 14.914
1305.338, 48.991
1306.545, 62.955
1307.752, 22.202
1308.958, 19.388
1310.164, 90.158
1311.370, 25.076
1312.576, 92.768
1313.782, 75.487
1314.987, 61.158
1316.193, 51.891
1317.398, 12.031
1318.603, 89.672
1319.807, 16.232
1321.012, 38.239
1322.216, 137.321
1323.421, 58.638
1324.625, 12.157
1325.829, 9.158
1327.032, 13.368
1328.236, 11.076
1329.439, 122.975
1330.642, 1.378
1331.845, 50.351
1333.048, 103.712
1334.251, 69.947
1335.453, 154.374
1336.656, 38.655
1337.858, 4.083
1339.060, 65.152
1340.261, 76.371
1341.463, 87.567
1342.664, 71.751
1343.866, 28.919
1345.067, 94.800
1346.267, 101.763
1347.468, 14.120
1348.669, 111.997
1349.869, 71.072
1351.069, 4.867
1352.269, 87.176
1353.469, 9.200
1354.668, 151.203
1355.868, 105.189
1357.067, 17.164
1358.266, 160.123
1359.465, 111.202
1360.664, 61.137
1361.862, 123.061
1363.061, 16.977
1364.259, 78.875
1365.457, 121.966
1366.655, 50.846
1367.852, 157.672
1369.050, 88.531
1370.247, 13.661
1371.444, 95.119
1372.641, 95.962
1373.838, 85.708
1375.035, 189.443
1376.231, 39.566
1377.427, 87.129
1378.623, 106.825
1379.819, 58.429
1381.015, 146.001
1382.211, 88.097
1383.406, 48.173
1384.601, 277.231
1385.796, 75.179
1386.991, 131.190
1388.185, 188.183
1389.380, 66.156
1390.574, 116.109
1391.768, 189.041
1392.962, 122.950
1394.156, 223.764
1395.350, 116.623
1396.543, 85.388
1397.736, 236.047
1398.929, 84.081
1400.122, 152.880
1401.315, 199.283
1402.507, 44.116
1403.700, 206.614
1404.892, 181.023
1406.084, 81.387
1407.276, 207.343
1408.467, 93.349
1409.659, 86.276
1410.850, 204.167
1412.041, 105.709
1413.232, 142.997
1414.423, 190.903
1415.614, 63.748
1416.804, 234.928
1417.994, 179.555
1419.184, 82.444
1420.374, 181.971
1421.564, 158.418
1422.753, 89.451
1423.943, 218.146
1425.132, 105.457
1426.321, 187.765
1427.510, 202.609
1428.698, 53.121
1429.887, 146.031
1431.075, 134.592
1432.263, 44.794
1433.451, 158.065
1434.639, 117.823
1435.827, 60.632
1437.014, 165.877
1438.201, 63.304
1439.388, 110.001
1440.575, 197.059
1441.762, 85.324
1442.949, 209.219
1444.135, 143.839
1445.321, 94.504
1446.507, 135.448
1447.693, 109.930
1448.879, 66.561
1450.064, 177.687
1451.250, 77.170
1452.435, 150.406
1453.620, 230.084
1454.805, 50.252
1455.989, 194.728
1457.174, 76.493
1458.358, 62.710
1459.542, 209.741
1460.726, 111.353
1461.910, 131.834
1463.093, 178.740
1464.277, 91.695
1465.460, 132.156
1466.643, 195.352
1467.826, 38.998
1469.009, 162.833
1470.191, 132.058
1471.373, 35.664
1472.556, 219.528
1473.738, 79.272
1474.919, 87.241
1476.101, 203.609
1477.283, 58.771
1478.464, 176.253
1479.645, 158.945
1480.826, 97.696
1482.007, 198.847
1483.187, 192.900
1484.368, 113.990
1485.548, 169.094
1486.728, 151.064
1487.908, 40.422
1489.088, 204.352
1490.268, 55.725
1491.447, 110.892
1492.626, 151.324
1493.805, 23.158
1494.984, 112.440
1496.163, 191.470
1497.341, 64.516
1498.520, 168.323
1499.698, 181.227
1500.876, 34.109
1502.054, 161.254
1503.232, 116.518
1504.409, 68.917
1505.586, 232.745
1506.763, 24.211
1507.940, 103.076
1509.117, 192.694
1510.294, 62.083
1511.470, 121.576
1512.647, 138.249
1513.823, 61.496
1514.999, 285.982
1516.174, 117.168
1517.350, 29.074
1518.526, 211.873
1519.701, 133.010
1520.876, 0.785
1522.051, 0.000
##END=



