##NAMES=Bobdownsite
##RRUFFID=R050109
##IDEAL CHEMISTRY=Ca_9_Mg(PO_4_)_6_(PO_3_F)
##LOCALITY=Big Fish River, Yukon Territory, Canada
##OWNER=RRUFF
##SOURCE=Rock Currier
##DESCRIPTION=Colorless hexagonal tabular crystals, type sample
##STATUS=The identification of this mineral is confirmed by single-crystal X-ray diffraction and chemical analysis.
##URL=rruff.info/R050109
##MEASURED CHEMISTRY=(Ca_8.76_Na_0.24_)_Σ=9_(Mg_0.72_Fe^3+^_0.13_Al_0.11_Fe^2+^_0.04_)_Σ=1_(P_1.00_O_4_)_6_(P_1.00_O_3_F_1.00_); Fe^2+^ and Fe^3+^ by charge balance
##PIN_ID=L00351
##ORIENTATION=Laser parallel to a* (1 0 0). Fiducial mark perpendicular to laser is parallel to -c [0 0 -1]
49.365, 0.000
50.765, 8.570
52.166, 81.151
53.566, 101.481
54.966, 140.427
56.365, 152.846
57.765, 229.140
59.164, 275.811
60.563, 306.183
61.962, 405.914
63.360, 432.012
64.758, 481.950
66.157, 461.521
67.554, 463.636
68.952, 465.282
70.349, 341.762
71.747, 298.427
73.144, 220.684
74.540, 160.151
75.937, 118.810
77.333, 89.643
78.729, 74.635
80.125, 62.771
81.521, 32.038
82.916, 2.573
84.311, 19.072
85.706, 23.466
87.101, 38.749
88.496, 20.915
89.890, 20.034
91.284, 2.091
92.678, 62.251
94.071, 173.509
95.465, 210.859
96.858, 400.294
98.251, 520.805
99.644, 715.382
101.036, 844.015
102.428, 854.691
103.820, 854.406
105.212, 806.160
106.604, 706.948
107.995, 641.769
109.387, 641.623
110.777, 574.506
112.168, 517.418
113.559, 532.358
114.949, 517.325
116.339, 528.317
117.729, 502.333
119.119, 503.376
120.508, 462.460
121.897, 488.601
123.286, 470.884
124.675, 505.315
126.063, 547.847
127.452, 579.414
128.840, 623.657
130.228, 646.713
131.615, 716.426
133.003, 775.148
134.390, 836.922
135.777, 875.741
137.164, 819.597
138.550, 850.479
139.937, 803.377
141.323, 798.285
142.709, 794.189
144.094, 780.080
145.480, 794.958
146.865, 831.816
148.250, 959.649
149.635, 1013.441
151.019, 1144.148
152.403, 1241.754
153.788, 1403.318
155.171, 1591.870
156.555, 1673.426
157.939, 1889.986
159.322, 1969.551
160.705, 2007.120
162.088, 2062.694
163.470, 1975.274
164.853, 1853.858
166.235, 1759.449
167.617, 1666.045
168.998, 1561.646
170.380, 1579.254
171.761, 1529.866
173.142, 1535.484
174.523, 1632.108
175.904, 1648.738
177.284, 1726.372
178.664, 1656.012
180.044, 1584.657
181.424, 1474.307
182.803, 1233.962
184.183, 1107.622
185.562, 941.287
186.940, 937.034
188.319, 852.934
189.698, 797.872
191.076, 778.311
192.454, 746.453
193.831, 713.618
195.209, 727.297
196.586, 689.809
197.963, 667.414
199.340, 663.006
200.717, 621.225
202.093, 585.273
203.470, 562.277
204.846, 514.042
206.221, 535.724
207.597, 538.753
208.972, 509.954
210.347, 556.018
211.722, 539.471
213.097, 568.128
214.472, 564.781
215.846, 570.216
217.220, 576.658
218.594, 576.039
219.967, 563.328
221.341, 563.505
222.714, 553.565
224.087, 559.504
225.460, 592.290
226.832, 589.936
228.204, 601.466
229.577, 616.875
230.948, 595.167
232.320, 639.287
233.692, 608.141
235.063, 624.742
236.434, 664.276
237.805, 634.814
239.175, 621.370
240.545, 603.773
241.916, 656.034
243.286, 618.144
244.655, 649.170
246.025, 616.137
247.394, 591.756
248.763, 707.338
250.132, 666.976
251.501, 716.425
252.869, 728.998
254.237, 740.770
255.605, 769.493
256.973, 755.844
258.340, 773.728
259.708, 822.843
261.075, 776.590
262.442, 789.346
263.808, 770.109
265.175, 795.879
266.541, 807.656
267.907, 819.440
269.273, 794.230
270.639, 792.028
272.004, 834.830
273.369, 796.639
274.734, 841.454
276.099, 854.274
277.463, 854.100
278.828, 938.932
280.192, 1041.769
281.556, 1070.611
282.919, 1087.458
284.283, 1175.310
285.646, 1153.167
287.009, 1079.028
288.372, 1057.893
289.734, 941.761
291.097, 855.632
292.459, 749.505
293.821, 681.380
295.183, 568.258
296.544, 523.137
297.905, 510.018
299.266, 424.900
300.627, 403.784
301.988, 369.668
303.348, 364.554
304.709, 300.441
306.069, 232.329
307.428, 247.218
308.788, 220.107
310.147, 239.998
311.507, 162.890
312.865, 138.783
314.224, 152.678
315.583, 84.575
316.941, 86.473
318.299, 94.374
319.657, 64.277
321.015, 61.183
322.372, 31.091
323.729, 13.001
325.086, 33.913
326.443, 54.827
327.800, 0.257
329.156, 0.340
330.512, 6.422
331.868, 0.495
333.224, 0.414
334.579, 9.666
335.935, 13.746
337.290, 3.828
338.645, 54.909
339.999, 12.001
341.354, 34.095
342.708, 43.194
344.062, 21.300
345.416, 15.409
346.769, 34.519
348.123, 34.634
349.476, 8.755
350.829, 16.877
352.182, 9.000
353.534, 4.124
354.887, 12.749
356.239, 2.628
357.591, 19.497
358.942, 5.641
360.294, 13.793
361.645, 39.964
362.996, 0.847
364.347, 10.353
365.698, 11.441
367.048, 40.763
368.398, 1.979
369.748, 3.188
371.098, 13.396
372.448, 26.396
373.797, 7.181
375.146, 9.969
376.495, 23.760
377.844, 49.556
379.192, 95.347
380.540, 79.140
381.889, 117.928
383.236, 96.714
384.584, 138.496
385.932, 176.274
387.279, 250.051
388.626, 318.826
389.973, 353.598
391.319, 481.369
392.666, 522.142
394.012, 587.916
395.358, 692.691
396.704, 803.467
398.049, 962.247
399.394, 982.028
400.740, 1186.812
402.084, 1306.602
403.429, 1504.395
404.774, 1812.195
406.118, 1958.003
407.462, 2206.822
408.806, 2273.645
410.150, 2267.479
411.493, 2240.326
412.836, 2096.193
414.179, 1988.086
415.522, 1746.998
416.865, 1629.924
418.207, 1565.866
419.549, 1471.815
420.891, 1427.775
422.233, 1341.739
423.575, 1365.704
424.916, 1352.669
426.257, 1383.635
427.598, 1476.601
428.939, 1529.569
430.279, 1636.543
431.619, 1648.518
432.959, 1741.494
434.299, 1793.473
435.639, 1697.451
436.978, 1747.433
438.318, 1663.413
439.657, 1712.400
440.996, 1706.390
442.334, 1646.379
443.673, 1700.368
445.011, 1647.356
446.349, 1715.342
447.687, 1749.332
449.024, 1710.320
450.361, 1827.310
451.699, 1768.306
453.036, 1861.299
454.372, 1782.294
455.709, 1859.286
457.045, 1960.282
458.381, 1937.277
459.717, 1994.274
461.053, 1968.269
462.388, 1890.263
463.724, 1838.258
465.059, 1691.254
466.394, 1680.247
467.728, 1452.240
469.063, 1540.228
470.397, 1608.217
471.731, 1194.209
473.065, 1165.199
474.398, 1087.185
475.732, 1056.168
477.065, 1033.147
478.398, 1007.128
479.731, 1065.105
481.063, 1094.078
482.396, 1132.049
483.728, 1143.951
485.060, 1266.774
486.391, 1210.687
487.723, 1130.653
489.054, 1115.401
490.385, 935.144
491.716, 826.684
493.047, 698.463
494.377, 582.220
495.708, 534.766
497.038, 411.979
498.368, 362.700
499.697, 287.609
501.027, 255.088
502.356, 243.368
503.685, 166.231
505.014, 131.307
506.342, 122.716
507.671, 135.037
508.999, 111.378
510.327, 62.051
511.655, 78.579
512.982, 72.219
514.310, 87.092
515.637, 98.429
516.964, 49.898
518.291, 68.355
519.617, 54.048
520.944, 87.410
522.270, 64.948
523.596, 66.821
524.921, 123.365
526.247, 78.059
527.572, 81.016
528.897, 89.458
530.222, 119.702
531.547, 138.896
532.871, 185.360
534.196, 165.320
535.520, 211.803
536.844, 273.436
538.167, 374.497
539.491, 424.027
540.814, 634.109
542.137, 783.746
543.460, 1048.713
544.783, 1323.699
546.105, 1542.277
547.427, 1684.988
548.749, 1804.169
550.071, 1793.330
551.393, 1700.912
552.714, 1506.296
554.035, 1485.605
555.356, 1351.583
556.677, 1410.653
557.998, 1612.522
559.318, 1759.641
560.638, 2107.112
561.958, 2206.329
563.278, 2415.058
564.597, 2297.892
565.917, 2109.094
567.236, 1861.961
568.555, 1513.086
569.874, 1232.472
571.192, 998.650
572.511, 811.829
573.829, 718.929
575.147, 556.650
576.464, 498.202
577.782, 390.809
579.099, 383.611
580.416, 372.045
581.733, 333.084
583.050, 393.695
584.366, 366.406
585.683, 506.266
586.999, 580.275
588.315, 701.363
589.630, 893.361
590.946, 945.183
592.261, 1073.485
593.576, 1084.007
594.891, 1013.459
596.206, 1092.967
597.520, 1050.263
598.834, 1224.634
600.148, 1352.104
601.462, 1550.849
602.776, 1773.433
604.089, 1867.849
605.402, 1980.183
606.715, 1942.850
608.028, 1774.725
609.341, 1601.813
610.653, 1347.233
611.965, 1174.113
613.277, 1029.475
614.589, 987.219
615.901, 948.583
617.212, 973.878
618.523, 1106.207
619.834, 1218.806
621.145, 1371.622
622.456, 1497.655
623.766, 1542.823
625.076, 1566.419
626.386, 1533.562
627.696, 1537.104
629.006, 1520.862
630.315, 1415.958
631.624, 1461.100
632.933, 1333.189
634.242, 1215.276
635.551, 1064.394
636.859, 781.417
638.167, 597.426
639.475, 415.606
640.783, 281.587
642.090, 251.551
643.398, 162.407
644.705, 115.049
646.012, 105.795
647.318, 110.700
648.625, 88.157
649.931, 78.035
651.237, 85.899
652.543, 47.820
653.849, 87.654
655.155, 63.981
656.460, 43.789
657.765, 39.594
659.070, 30.754
660.375, 18.794
661.679, 31.865
662.984, 30.238
664.288, 28.796
665.592, 27.205
666.895, 34.932
668.199, 18.648
669.502, 36.340
670.805, 31.017
672.108, 6.222
673.411, 9.408
674.713, 15.027
676.016, 0.382
677.318, 44.466
678.620, 6.628
679.921, 54.172
681.223, 38.705
682.524, 5.724
683.825, 27.205
685.126, 24.370
686.427, 21.939
687.727, 5.113
689.028, 14.835
690.328, 1.192
691.628, 11.514
692.927, 8.931
694.227, 37.315
695.526, 6.430
696.825, 32.794
698.124, 10.892
699.423, 53.073
700.721, 46.236
702.020, 11.391
703.318, 58.512
704.616, 41.616
705.913, 24.701
707.211, 9.767
708.508, 14.808
709.805, 16.828
711.102, 32.826
712.399, 25.635
713.695, 49.765
714.992, 21.707
716.288, 9.630
717.584, 16.529
718.879, 3.407
720.175, 1.260
721.470, 4.914
722.765, 31.883
724.060, 4.339
725.355, 8.411
726.649, 5.862
727.944, 22.164
729.238, 14.496
730.532, 47.136
731.825, 29.240
733.119, 70.342
734.412, 18.090
735.705, 3.442
736.998, 11.952
738.291, 52.442
739.584, 24.916
740.876, 15.374
742.168, 9.814
743.460, 9.765
744.752, 8.627
746.043, 12.999
747.334, 1.354
748.626, 43.686
749.916, 1.996
751.207, 39.298
752.498, 16.423
753.788, 2.174
755.078, 36.052
756.368, 8.264
757.658, 12.458
758.947, 36.636
760.237, 4.199
761.526, 6.942
762.815, 2.067
764.104, 17.827
765.392, 14.250
766.680, 0.313
767.969, 19.357
769.257, 14.613
770.544, 10.392
771.832, 8.618
773.119, 9.350
774.406, 1.304
775.693, 2.759
776.980, 6.840
778.267, 31.059
779.553, 1.055
780.839, 25.815
782.125, 1.327
783.411, 21.485
784.697, 49.331
785.982, 7.135
787.267, 14.927
788.552, 10.708
789.837, 14.523
791.122, 34.226
792.406, 35.963
793.690, 0.309
794.974, 11.405
796.258, 11.108
797.542, 14.199
798.825, 27.525
800.108, 29.876
801.391, 32.746
802.674, 26.642
803.957, 4.947
805.239, 15.510
806.522, 19.920
807.804, 47.486
809.085, 43.973
810.367, 34.452
811.649, 25.784
812.930, 14.909
814.211, 20.667
815.492, 26.921
816.772, 32.752
818.053, 19.249
819.333, 17.139
820.613, 0.928
821.893, 19.068
823.173, 7.975
824.452, 6.114
825.732, 3.797
827.011, 18.022
828.290, 0.656
829.568, 13.445
830.847, 10.387
832.125, 39.248
833.403, 1.186
834.681, 0.334
835.959, 17.588
837.236, 36.770
838.514, 28.292
839.791, 37.170
841.068, 23.217
842.345, 14.976
843.621, 0.617
844.898, 7.623
846.174, 6.892
847.450, 6.508
848.726, 6.488
850.001, 6.006
851.277, 53.039
852.552, 27.342
853.827, 75.384
855.102, 0.398
856.376, 28.809
857.651, 16.874
858.925, 71.869
860.199, 70.670
861.473, 36.041
862.746, 62.600
864.020, 119.227
865.293, 73.175
866.566, 124.024
867.839, 62.065
869.112, 114.848
870.384, 50.271
871.656, 32.939
872.928, 69.093
874.200, 53.134
875.472, 59.800
876.744, 35.807
878.015, 80.554
879.286, 74.040
880.557, 24.738
881.828, 87.427
883.098, 97.200
884.369, 35.346
885.639, 121.656
886.909, 153.917
888.178, 86.977
889.448, 136.399
890.717, 126.224
891.987, 240.470
893.256, 155.609
894.524, 195.593
895.793, 274.423
897.061, 270.169
898.330, 298.000
899.598, 344.004
900.865, 314.528
902.133, 367.827
903.401, 385.193
904.668, 451.498
905.935, 440.009
907.202, 468.441
908.468, 629.768
909.735, 686.814
911.001, 829.015
912.267, 976.379
913.533, 1168.825
914.799, 1505.932
916.064, 1853.826
917.330, 2455.503
918.595, 3323.843
919.860, 4146.718
921.124, 5864.107
922.389, 6982.108
923.653, 8359.484
924.918, 9353.925
926.182, 8989.327
927.445, 8664.457
928.709, 7466.362
929.972, 5973.046
931.236, 4812.592
932.499, 3484.707
933.761, 2797.269
935.024, 2223.429
936.286, 1805.369
937.549, 1714.967
938.811, 1597.516
940.073, 1578.114
941.334, 1667.711
942.596, 1688.272
943.857, 1761.926
945.118, 1839.591
946.379, 1962.082
947.640, 2264.769
948.900, 2577.469
950.161, 2967.276
951.421, 3701.294
952.681, 4391.206
953.940, 5743.955
955.200, 7173.154
956.459, 9852.930
957.719, 13578.717
958.978, 18933.453
960.236, 27029.268
961.495, 34702.594
962.753, 41008.438
964.012, 46904.301
965.270, 47809.508
966.527, 51704.434
967.785, 54009.039
969.043, 52933.352
970.300, 55788.473
971.557, 52913.754
972.814, 51759.715
974.071, 48685.699
975.327, 41991.703
976.583, 35857.719
977.840, 26633.654
979.095, 19589.715
980.351, 14405.782
981.607, 10601.880
982.862, 8527.717
984.117, 7532.240
985.372, 7088.409
986.627, 7614.587
987.882, 7970.288
989.136, 8736.525
990.390, 9281.830
991.644, 9118.125
992.898, 9053.790
994.152, 8369.784
995.405, 7766.149
996.659, 7662.544
997.912, 6595.849
999.165, 6231.186
1000.417, 5477.647
1001.670, 4704.141
1002.922, 4376.758
1004.174, 3552.291
1005.426, 3217.847
1006.678, 2841.412
1007.930, 2441.016
1009.181, 2294.641
1010.432, 2129.287
1011.683, 2083.961
1012.934, 2201.659
1014.185, 2066.377
1015.435, 2316.118
1016.685, 2330.044
1017.935, 2417.827
1019.185, 2629.647
1020.435, 2550.481
1021.684, 2862.340
1022.934, 2941.196
1024.183, 2957.469
1025.432, 3323.397
1026.680, 3158.162
1027.929, 3325.790
1029.177, 3421.207
1030.425, 3275.839
1031.673, 3320.914
1032.921, 3399.993
1034.169, 3230.303
1035.416, 3525.675
1036.663, 3256.981
1037.911, 3253.186
1039.157, 3023.796
1040.404, 2583.419
1041.650, 2383.698
1042.897, 1930.015
1044.143, 1771.542
1045.389, 1725.880
1046.634, 1520.814
1047.880, 1610.308
1049.125, 1545.567
1050.371, 1451.382
1051.615, 1544.824
1052.860, 1387.279
1054.105, 1442.769
1055.349, 1589.275
1056.593, 1446.139
1057.837, 1581.699
1059.081, 1670.277
1060.325, 1662.871
1061.568, 1868.482
1062.812, 1976.237
1064.055, 2112.885
1065.298, 2264.551
1066.540, 2097.422
1067.783, 2183.129
1069.025, 2076.852
1070.267, 2053.596
1071.509, 2171.355
1072.751, 2215.141
1073.993, 2344.943
1075.234, 2520.765
1076.475, 2505.608
1077.716, 2767.467
1078.957, 2664.348
1080.198, 2608.252
1081.438, 2537.172
1082.679, 2231.115
1083.919, 2238.073
1085.159, 2141.047
1086.398, 2049.050
1087.638, 2116.066
1088.877, 1944.099
1090.116, 2014.145
1091.355, 2003.205
1092.594, 2011.284
1093.833, 2000.376
1095.071, 1902.483
1096.309, 1926.604
1097.547, 1965.738
1098.785, 1839.885
1100.023, 1827.053
1101.260, 1836.242
1102.498, 1760.389
1103.735, 1766.675
1104.972, 1679.918
1106.208, 1642.175
1107.445, 1592.445
1108.681, 1454.732
1109.918, 1381.033
1111.154, 1346.357
1112.389, 1154.757
1113.625, 1070.106
1114.860, 972.470
1116.096, 793.851
1117.331, 751.249
1118.566, 597.666
1119.800, 624.188
1121.035, 437.635
1122.269, 510.168
1123.503, 481.639
1124.737, 397.120
1125.971, 350.814
1127.205, 325.448
1128.438, 237.961
1129.671, 220.608
1130.904, 191.142
1132.137, 139.830
1133.370, 198.690
1134.602, 122.262
1135.834, 167.690
1137.066, 132.558
1138.298, 79.215
1139.530, 168.332
1140.762, 149.030
1141.993, 155.912
1143.224, 191.146
1144.455, 118.953
1145.686, 259.281
1146.917, 232.058
1148.147, 203.728
1149.377, 306.572
1150.607, 217.255
1151.837, 200.093
1153.067, 227.134
1154.296, 138.938
1155.526, 113.619
1156.755, 103.097
1157.984, 67.420
1159.213, 103.081
1160.441, 53.447
1161.670, 47.183
1162.898, 46.505
1164.126, 8.981
1165.354, 13.058
1166.581, 1.838
1167.809, 3.767
1169.036, 31.156
1170.263, 32.000
1171.490, 15.251
1172.717, 21.578
1173.943, 69.552
1175.170, 45.959
1176.396, 39.946
1177.622, 63.128
1178.848, 25.295
1180.073, 68.044
1181.299, 6.588
1182.524, 7.851
1183.749, 69.075
1184.974, 10.103
1186.199, 12.004
1187.423, 71.049
1188.648, 30.804
1189.872, 0.783
1191.096, 6.571
1192.320, 32.732
1193.543, 15.634
1194.767, 2.680
1195.990, 21.485
1197.213, 32.312
1198.436, 82.900
1199.659, 22.917
1200.881, 28.656
1202.104, 74.348
1203.326, 6.870
1204.548, 61.631
1205.770, 106.402
1206.991, 53.934
1208.213, 87.524
1209.434, 22.725
1210.655, 50.972
1211.876, 17.597
1213.096, 1.793
1214.317, 83.661
1215.537, 58.342
1216.757, 65.311
1217.977, 105.770
1219.197, 7.657
1220.417, 104.083
1221.636, 99.617
1222.855, 7.382
1224.074, 132.790
1225.293, 73.993
1226.512, 47.708
1227.731, 94.226
1228.949, 57.340
1230.167, 19.870
1231.385, 134.360
1232.603, 62.242
1233.820, 105.683
1235.038, 121.260
1236.255, 62.875
1237.472, 134.208
1238.689, 58.539
1239.906, 84.965
1241.122, 95.373
1242.338, 63.760
1243.555, 65.080
1244.771, 81.397
1245.986, 51.455
1247.202, 101.765
1248.417, 53.071
1249.633, 72.535
1250.848, 135.833
1252.063, 62.458
1253.277, 110.746
1254.492, 137.028
1255.706, 61.550
1256.920, 126.821
1258.134, 27.063
1259.348, 71.505
1260.562, 122.724
1261.775, 47.922
1262.988, 72.179
1264.201, 109.344
1265.414, 29.560
1266.627, 56.847
1267.839, 35.972
1269.052, 68.335
1270.264, 57.380
1271.476, 24.491
1272.688, 29.616
1273.899, 75.653
1275.111, 32.676
1276.322, 100.757
1277.533, 32.734
1278.744, 46.144
1279.955, 111.759
1281.165, 6.377
1282.376, 28.602
1283.586, 56.417
1284.796, 15.789
1286.006, 54.265
1287.215, 33.008
1288.425, 0.265
1289.634, 41.438
1290.843, 0.890
1292.052, 50.760
1293.261, 129.381
1294.469, 8.987
1295.678, 92.573
1296.886, 49.143
1298.094, 6.698
1299.302, 61.229
1300.509, 3.266
1301.717, 21.216
1302.924, 26.670
1304.131, 1.911
1305.338, 26.487
1306.545, 101.847
1307.752, 29.178
1308.958, 23.487
1310.164, 43.613
1311.370, 18.117
1312.576, 55.117
1313.782, 29.331
1314.987, 16.525
1316.193, 110.720
1317.398, 75.500
1318.603, 66.625
1319.807, 19.917
1321.012, 8.655
1322.216, 6.487
1323.421, 17.926
1324.625, 5.603
1325.829, 15.531
1327.032, 8.287
1328.236, 57.975
1329.439, 21.739
1330.642, 2.599
1331.845, 33.058
1333.048, 35.507
1334.251, 27.296
1335.453, 69.044
1336.656, 6.420
1337.858, 71.302
1339.060, 28.430
1340.261, 17.001
1341.463, 54.807
1342.664, 46.055
1343.866, 22.323
1345.067, 71.285
1346.267, 45.860
1347.468, 16.584
1348.669, 89.621
1349.869, 36.132
1351.069, 77.624
1352.269, 63.197
1353.469, 37.651
1354.668, 40.959
1355.868, 49.629
1357.067, 52.030
1358.266, 104.229
1359.465, 41.598
1360.664, 20.951
1361.862, 83.287
1363.061, 3.392
1364.259, 135.908
1365.457, 62.196
1366.655, 1.536
1367.852, 98.715
1369.050, 10.938
1370.247, 0.854
1371.444, 59.335
1372.641, 7.176
1373.838, 53.980
1375.035, 62.126
1376.231, 3.612
1377.427, 70.449
1378.623, 45.422
1379.819, 40.319
1381.015, 100.774
1382.211, 110.208
1383.406, 71.620
1384.601, 76.011
1385.796, 81.375
1386.991, 110.715
1388.185, 101.031
1389.380, 18.322
1390.574, 190.588
1391.768, 158.760
1392.962, 62.976
1394.156, 192.168
1395.350, 45.236
1396.543, 118.293
1397.736, 158.176
1398.929, 56.115
1400.122, 146.032
1401.315, 156.838
1402.507, 55.601
1403.700, 148.114
1404.892, 110.869
1406.084, 80.439
1407.276, 153.953
1408.467, 83.545
1409.659, 62.776
1410.850, 203.552
1412.041, 44.511
1413.232, 125.306
1414.423, 175.443
1415.614, 74.130
1416.804, 156.125
1417.994, 84.133
1419.184, 64.068
1420.374, 117.234
1421.564, 48.109
1422.753, 104.063
1423.943, 104.436
1425.132, 38.816
1426.321, 106.916
1427.510, 154.592
1428.698, 21.675
1429.887, 122.973
1431.075, 126.286
1432.263, 74.075
1433.451, 104.531
1434.639, 103.072
1435.827, 98.226
1437.014, 183.535
1438.201, 101.712
1439.388, 170.829
1440.575, 134.318
1441.762, 121.699
1442.949, 185.724
1444.135, 125.128
1445.321, 85.207
1446.507, 190.728
1447.693, 47.588
1448.879, 110.380
1450.064, 149.485
1451.250, 62.659
1452.435, 103.774
1453.620, 170.427
1454.805, 77.220
1455.989, 205.449
1457.174, 121.154
1458.358, 129.394
1459.542, 203.131
1460.726, 152.936
1461.910, 136.245
1463.093, 212.025
1464.277, 129.112
1465.460, 82.196
1466.643, 131.000
1467.826, 4.483
1469.009, 174.427
1470.191, 135.506
1471.373, 72.366
1472.556, 245.024
1473.738, 41.886
1474.919, 91.167
1476.101, 148.556
1477.283, 59.786
1478.464, 190.064
1479.645, 157.366
1480.826, 78.608
1482.007, 153.791
1483.187, 133.984
1484.368, 40.235
1485.548, 136.535
1486.728, 76.968
1487.908, 52.370
1489.088, 149.769
1490.268, 93.175
1491.447, 119.616
1492.626, 160.083
1493.805, 1.416
1494.984, 87.354
1496.163, 140.932
1497.341, 6.429
1498.520, 159.276
