##NAMES=Bobdownsite
##RRUFFID=R050109
##IDEAL CHEMISTRY=Ca_9_Mg(PO_4_)_6_(PO_3_F)
##LOCALITY=Big Fish River, Yukon Territory, Canada
##OWNER=RRUFF
##SOURCE=Rock Currier
##DESCRIPTION=Colorless hexagonal tabular crystals, type sample
##STATUS=The identification of this mineral is confirmed by single-crystal X-ray diffraction and chemical analysis.
##URL=rruff.info/R050109
##MEASURED CHEMISTRY=(Ca_8.76_Na_0.24_)_Σ=9_(Mg_0.72_Fe^3+^_0.13_Al_0.11_Fe^2+^_0.04_)_Σ=1_(P_1.00_O_4_)_6_(P_1.00_O_3_F_1.00_); Fe^2+^ and Fe^3+^ by charge balance
##PIN_ID=L00351
##ORIENTATION=Laser parallel to a* (1 0 0). Fiducial mark perpendicular to laser is parallel to -c [0 0 -1]
49.365, 0.000
50.765, 0.308
52.166, 39.125
53.566, 26.302
54.966, 76.760
56.365, 82.768
57.765, 116.099
59.164, 120.959
60.563, 150.612
61.962, 181.643
63.360, 210.956
64.758, 216.926
66.157, 196.410
67.554, 181.398
68.952, 130.088
70.349, 48.559
71.747, 13.700
73.144, 24.708
74.540, 14.513
75.937, 13.060
77.333, 43.555
78.729, 49.339
80.125, 100.279
81.521, 82.358
82.916, 62.567
84.311, 52.896
85.706, 84.358
87.101, 102.284
88.496, 153.153
89.890, 203.666
91.284, 289.705
92.678, 389.855
94.071, 488.106
95.465, 481.447
96.858, 587.868
98.251, 696.355
99.644, 809.898
101.036, 908.491
102.428, 932.129
103.820, 895.810
105.212, 788.528
106.604, 810.283
107.995, 739.070
109.387, 666.888
110.777, 670.734
112.168, 594.608
113.559, 647.506
114.949, 672.427
116.339, 666.370
117.729, 598.344
119.119, 617.423
120.508, 571.708
121.897, 612.268
123.286, 661.055
124.675, 710.979
126.063, 806.983
127.452, 882.983
128.840, 992.958
130.228, 1113.903
131.615, 1318.814
133.003, 1499.706
134.390, 1638.617
135.777, 1895.536
137.164, 1960.455
138.550, 2034.367
139.937, 1978.260
141.323, 1981.128
142.709, 1955.974
144.094, 2001.771
145.480, 2076.482
146.865, 2029.137
148.250, 2181.772
149.635, 2093.393
151.019, 2089.000
152.403, 1999.598
153.788, 1859.190
155.171, 1805.777
156.555, 1684.359
157.939, 1691.937
159.322, 1634.511
160.705, 1606.081
162.088, 1563.648
163.470, 1406.212
164.853, 1368.773
166.235, 1204.332
167.617, 1183.888
168.998, 1010.442
170.380, 892.994
171.761, 821.544
173.142, 760.091
174.523, 742.636
175.904, 713.177
177.284, 723.717
178.664, 687.254
180.044, 642.788
181.424, 638.319
182.803, 483.848
184.183, 478.511
185.562, 392.755
186.940, 408.995
188.319, 378.032
189.698, 416.303
191.076, 427.001
192.454, 444.919
193.831, 451.186
195.209, 444.823
196.586, 460.628
197.963, 437.883
199.340, 450.332
200.717, 403.394
202.093, 383.328
203.470, 350.912
204.846, 299.369
206.221, 278.732
207.597, 265.047
208.972, 294.146
210.347, 313.194
211.722, 306.210
213.097, 334.223
214.472, 301.234
215.846, 398.047
217.220, 371.596
218.594, 346.084
219.967, 428.391
221.341, 371.615
222.714, 442.677
224.087, 400.620
225.460, 445.470
226.832, 446.073
228.204, 441.438
229.577, 511.679
230.948, 441.917
232.320, 515.156
233.692, 476.398
235.063, 495.544
236.434, 551.226
237.805, 527.001
239.175, 564.222
240.545, 509.603
241.916, 597.804
243.286, 575.684
244.655, 610.649
246.025, 635.903
247.394, 649.104
248.763, 682.242
250.132, 676.360
251.501, 677.628
252.869, 727.988
254.237, 783.411
255.605, 850.841
256.973, 823.277
258.340, 932.717
259.708, 883.162
261.075, 965.610
262.442, 970.062
263.808, 1044.517
265.175, 1007.974
266.541, 966.435
267.907, 1012.897
269.273, 1023.362
270.639, 961.828
272.004, 983.296
273.369, 960.766
274.734, 1034.236
276.099, 1028.708
277.463, 1059.180
278.828, 1169.654
280.192, 1239.128
281.556, 1340.603
282.919, 1430.077
284.283, 1567.552
285.646, 1542.025
287.009, 1595.496
288.372, 1522.964
289.734, 1437.427
291.097, 1362.886
292.459, 1195.340
293.821, 1179.790
295.183, 1064.236
296.544, 1070.677
297.905, 994.114
299.266, 899.547
300.627, 848.976
301.988, 795.400
303.348, 704.820
304.709, 579.235
306.069, 505.647
307.428, 450.054
308.788, 310.458
310.147, 302.859
311.507, 238.256
312.865, 146.650
314.224, 142.040
315.583, 68.428
316.941, 104.812
318.299, 30.193
319.657, 18.569
321.015, 6.059
322.372, 2.695
323.729, 2.663
325.086, 33.984
326.443, 13.646
327.800, 24.317
329.156, 42.000
330.512, 43.701
331.868, 61.418
333.224, 29.158
334.579, 17.912
335.935, 37.676
337.290, 46.456
338.645, 43.768
339.999, 16.070
341.354, 35.895
342.708, 34.735
344.062, 10.589
345.416, 20.451
346.769, 14.321
348.123, 15.201
349.476, 14.845
350.829, 5.573
352.182, 8.470
353.534, 25.813
354.887, 35.185
356.239, 29.404
357.591, 58.800
358.942, 54.815
360.294, 57.200
361.645, 52.259
362.996, 69.503
364.347, 75.632
365.698, 97.659
367.048, 86.652
368.398, 159.759
369.748, 159.867
371.098, 209.752
372.448, 228.619
373.797, 257.458
375.146, 279.296
376.495, 277.140
377.844, 383.992
379.192, 421.839
380.540, 463.684
381.889, 592.521
383.236, 621.354
384.584, 736.182
385.932, 855.003
387.279, 977.820
388.626, 1207.631
389.973, 1377.439
391.319, 1639.245
392.666, 1927.049
394.012, 2227.856
395.358, 2593.661
396.704, 2962.465
398.049, 3501.272
399.394, 4065.085
400.740, 4717.905
402.084, 5569.737
403.429, 6462.569
404.774, 7563.408
406.118, 8084.247
407.462, 8960.101
408.806, 8939.944
410.150, 8769.795
411.493, 8340.638
412.836, 7433.477
414.179, 7047.321
415.522, 6212.157
416.865, 5925.992
418.207, 5538.826
419.549, 5150.655
420.891, 5056.481
422.233, 4584.304
423.575, 4370.120
424.916, 4084.932
426.257, 4044.740
427.598, 3994.540
428.939, 3936.337
430.279, 4167.129
431.619, 4103.917
432.959, 4180.699
434.299, 4248.480
435.639, 4166.258
436.978, 4156.029
438.318, 3788.797
439.657, 3771.562
440.996, 3477.325
442.334, 3295.081
443.673, 3186.831
445.011, 2897.580
446.349, 2878.322
447.687, 2789.070
449.024, 2587.818
450.361, 2526.560
451.699, 2396.302
453.036, 2354.040
454.372, 2184.777
455.709, 2161.506
457.045, 2143.236
458.381, 2027.960
459.717, 1962.677
461.053, 1847.389
462.388, 1740.097
463.724, 1694.802
465.059, 1546.506
466.394, 1552.209
467.728, 1453.913
469.063, 1380.611
470.397, 1282.302
471.731, 1193.994
473.065, 1111.681
474.398, 1038.360
475.732, 997.030
477.065, 1007.578
478.398, 965.230
479.731, 958.600
481.063, 914.912
482.396, 976.746
483.728, 924.744
485.060, 1009.944
486.391, 967.004
487.723, 904.332
489.054, 867.979
490.385, 721.509
491.716, 615.921
493.047, 519.212
494.377, 465.518
495.708, 331.518
497.038, 273.268
498.368, 259.461
499.697, 160.940
501.027, 179.147
502.356, 132.255
503.685, 67.355
505.014, 91.960
506.342, 71.589
507.671, 66.000
508.999, 35.390
510.327, 4.046
511.655, 51.909
512.982, 2.807
514.310, 6.399
515.637, 2.526
516.964, 9.835
518.291, 27.231
519.617, 11.514
520.944, 17.014
522.270, 7.244
523.596, 1.505
524.921, 37.472
526.247, 4.453
527.572, 0.205
528.897, 0.624
530.222, 52.375
531.547, 57.825
532.871, 115.372
534.196, 174.971
535.520, 235.028
536.844, 242.901
538.167, 360.065
539.491, 392.891
540.814, 568.443
542.137, 664.412
543.460, 823.990
544.783, 1017.454
546.105, 1179.024
547.427, 1472.388
548.749, 1583.003
550.071, 1933.681
551.393, 1947.182
552.714, 2004.931
554.035, 1935.425
555.356, 1674.336
556.677, 1555.762
557.998, 1502.573
559.318, 1488.023
560.638, 1586.393
561.958, 1572.318
563.278, 1621.653
564.597, 1516.027
565.917, 1397.725
567.236, 1301.039
568.555, 1137.973
569.874, 980.409
571.192, 889.564
572.511, 752.941
573.829, 647.206
575.147, 520.472
576.464, 477.633
577.782, 378.800
579.099, 337.257
580.416, 365.753
581.733, 294.888
583.050, 320.029
584.366, 392.149
585.683, 488.207
586.999, 544.356
588.315, 675.777
589.630, 820.803
590.946, 892.028
592.261, 1000.321
593.576, 1012.340
594.891, 937.418
596.206, 977.074
597.520, 941.744
598.834, 1075.198
600.148, 1093.196
601.462, 1136.139
602.776, 1286.137
604.089, 1385.036
605.402, 1529.479
606.715, 1514.890
608.028, 1496.815
609.341, 1540.048
610.653, 1495.754
611.965, 1593.438
613.277, 1663.126
614.589, 1747.396
615.901, 1998.473
617.212, 2153.095
618.523, 2546.376
619.834, 2816.478
621.145, 3177.290
622.456, 3391.089
623.766, 3372.254
625.076, 3594.472
626.386, 3627.614
627.696, 3797.096
629.006, 3989.732
630.315, 3998.794
631.624, 4392.214
632.933, 4182.457
634.242, 4190.679
635.551, 3887.882
636.859, 3209.134
638.167, 2595.369
639.475, 1854.438
640.783, 1369.822
642.090, 1040.044
643.398, 702.579
644.705, 594.557
646.012, 427.842
647.318, 437.789
648.625, 312.941
649.931, 235.579
651.237, 184.710
652.543, 143.762
653.849, 151.874
655.155, 127.617
656.460, 81.871
657.765, 83.799
659.070, 46.906
660.375, 64.083
661.679, 69.749
662.984, 3.696
664.288, 55.665
665.592, 48.099
666.895, 24.038
668.199, 51.047
669.502, 29.379
670.805, 14.881
672.108, 11.664
673.411, 26.336
674.713, 47.700
676.016, 27.657
677.318, 54.876
678.620, 24.567
679.921, 28.841
681.223, 16.886
682.524, 4.031
683.825, 32.328
685.126, 7.602
686.427, 36.844
687.727, 6.302
689.028, 5.119
690.328, 61.110
691.628, 3.236
692.927, 15.538
694.227, 17.442
695.526, 2.361
696.825, 65.613
698.124, 24.657
699.423, 54.855
700.721, 79.029
702.020, 50.179
703.318, 96.303
704.616, 40.404
705.913, 34.479
707.211, 53.528
708.508, 1.737
709.805, 48.725
711.102, 20.687
712.399, 6.621
713.695, 0.479
714.992, 45.659
716.288, 60.497
717.584, 17.311
718.879, 62.589
720.175, 49.349
721.470, 31.912
722.765, 55.771
724.060, 14.428
725.355, 33.056
726.649, 81.659
727.944, 3.238
729.238, 46.784
730.532, 42.305
731.825, 5.802
733.119, 57.268
734.412, 23.709
735.705, 21.125
736.998, 51.514
738.291, 45.880
739.584, 46.222
740.876, 56.542
742.168, 32.838
743.460, 18.111
744.752, 50.357
746.043, 23.581
747.334, 2.220
748.626, 37.946
749.916, 27.088
751.207, 7.207
752.498, 6.296
753.788, 10.357
755.078, 25.391
756.368, 27.401
757.658, 1.611
758.947, 27.345
760.237, 25.721
761.526, 9.832
762.815, 20.021
764.104, 8.148
765.392, 0.352
766.680, 0.586
767.969, 41.150
769.257, 11.135
770.544, 8.546
771.832, 40.201
773.119, 2.836
774.406, 5.445
775.693, 6.972
776.980, 7.420
778.267, 13.900
779.553, 15.414
780.839, 1.037
782.125, 28.461
783.411, 24.133
784.697, 0.234
785.982, 25.575
787.267, 256.897
788.552, 149.515
789.837, 156.583
791.122, 41.759
792.406, 40.011
793.690, 36.754
794.974, 10.562
796.258, 26.601
797.542, 1.747
798.825, 6.129
800.108, 5.970
801.391, 6.930
802.674, 22.106
803.957, 2.856
805.239, 22.160
806.522, 37.159
807.804, 18.142
809.085, 6.891
810.367, 15.948
811.649, 11.154
812.930, 4.621
814.211, 1.225
815.492, 41.116
816.772, 39.517
818.053, 16.483
819.333, 23.972
820.613, 0.509
821.893, 6.188
823.173, 7.729
824.452, 15.414
825.732, 23.341
827.011, 20.391
828.290, 36.207
829.568, 5.899
830.847, 22.246
832.125, 23.435
833.403, 52.622
834.681, 15.269
835.959, 13.397
837.236, 0.475
838.514, 56.380
839.791, 37.046
841.068, 0.115
842.345, 31.535
843.621, 16.310
844.898, 9.163
846.174, 32.494
847.450, 39.669
848.726, 20.164
850.001, 22.656
851.277, 25.271
852.552, 14.360
853.827, 10.363
855.102, 24.459
856.376, 27.429
857.651, 51.585
858.925, 46.470
860.199, 50.274
861.473, 9.765
862.746, 67.926
864.020, 17.854
865.293, 8.346
866.566, 49.303
867.839, 14.144
869.112, 66.752
870.384, 45.708
871.656, 21.909
872.928, 117.043
874.200, 1.946
875.472, 17.506
876.744, 52.441
878.015, 42.739
879.286, 97.517
880.557, 37.567
881.828, 88.377
883.098, 31.303
884.369, 42.211
885.639, 73.206
886.909, 100.185
888.178, 112.857
889.448, 179.477
890.717, 93.448
891.987, 189.397
893.256, 170.350
894.524, 219.349
895.793, 302.242
897.061, 218.847
898.330, 326.831
899.598, 359.604
900.865, 357.302
902.133, 352.259
903.401, 400.141
904.668, 447.429
905.935, 456.688
907.202, 462.161
908.468, 597.075
909.735, 563.028
911.001, 674.911
912.267, 831.879
913.533, 975.288
914.799, 1329.715
916.064, 1577.612
917.330, 2108.188
918.595, 2905.276
919.860, 3650.372
921.124, 5095.452
922.389, 6092.932
923.653, 7258.596
924.918, 8010.697
926.182, 7784.128
927.445, 7407.725
928.709, 6407.598
929.972, 5020.469
931.236, 4019.964
932.499, 2894.393
933.761, 2260.883
935.024, 1816.021
936.286, 1456.993
937.549, 1396.526
938.811, 1331.689
940.073, 1310.018
941.334, 1321.570
942.596, 1332.697
943.857, 1432.981
945.118, 1536.271
946.379, 1681.716
947.640, 1942.839
948.900, 2205.115
950.161, 2535.071
951.421, 3172.582
952.681, 3837.781
953.940, 5064.317
955.200, 6249.651
956.459, 8639.501
957.719, 11733.866
958.978, 16588.312
960.236, 23992.697
961.495, 31266.449
962.753, 37159.684
964.012, 42573.273
965.270, 43337.668
966.527, 46782.000
967.785, 48593.832
969.043, 48128.387
970.300, 50252.914
971.557, 47855.973
972.814, 46980.414
974.071, 44214.566
975.327, 38458.680
976.583, 32792.406
977.840, 24265.727
979.095, 17899.262
980.351, 12981.895
981.607, 9596.285
982.862, 7381.011
984.117, 6232.568
985.372, 5695.339
986.627, 5823.433
987.882, 5806.666
989.136, 6297.477
990.390, 6505.337
991.644, 6464.229
992.898, 6495.115
994.152, 6028.656
995.405, 5743.055
996.659, 5692.782
997.912, 4985.455
999.165, 4706.831
1000.417, 4178.258
1001.670, 3529.356
1002.922, 3196.657
1004.174, 2697.795
1005.426, 2337.953
1006.678, 2182.131
1007.930, 1822.338
1009.181, 1777.566
1010.432, 1557.812
1011.683, 1589.091
1012.934, 1562.201
1014.185, 1486.522
1015.435, 1657.884
1016.685, 1633.269
1017.935, 1624.677
1019.185, 1740.837
1020.435, 1593.505
1021.684, 1840.982
1022.934, 1814.000
1024.183, 1746.153
1025.432, 1922.714
1026.680, 1872.285
1027.929, 1984.043
1029.177, 2045.791
1030.425, 1928.092
1031.673, 2084.778
1032.921, 2064.438
1034.169, 1902.167
1035.416, 2088.916
1036.663, 1918.152
1037.911, 1949.944
1039.157, 1885.750
1040.404, 1702.042
1041.650, 1646.912
1042.897, 1457.818
1044.143, 1462.835
1045.389, 1409.781
1046.634, 1320.014
1047.880, 1433.999
1049.125, 1300.738
1050.371, 1307.646
1051.615, 1399.724
1052.860, 1224.800
1054.105, 1326.894
1055.349, 1298.009
1056.593, 1287.974
1057.837, 1346.132
1059.081, 1411.313
1060.325, 1390.511
1061.568, 1504.731
1062.812, 1511.972
1064.055, 1588.240
1065.298, 1694.551
1066.540, 1605.880
1067.783, 1728.232
1069.025, 1663.610
1070.267, 1744.010
1071.509, 1880.425
1072.751, 1887.866
1073.993, 2177.325
1075.234, 2371.801
1076.475, 2376.296
1077.716, 2704.810
1078.957, 2774.345
1080.198, 3006.905
1081.438, 3329.487
1082.679, 3391.103
1083.919, 3843.737
1085.159, 4265.387
1086.398, 4786.065
1087.638, 5700.765
1088.877, 5664.479
1090.116, 6129.210
1091.355, 6199.954
1092.594, 5869.715
1093.833, 5678.492
1095.071, 5129.282
1096.309, 4675.100
1097.547, 4582.940
1098.785, 4093.795
1100.023, 4050.667
1101.260, 3825.558
1102.498, 3539.466
1103.735, 3665.392
1104.972, 3445.331
1106.208, 3525.326
1107.445, 3424.298
1108.681, 3101.284
1109.918, 3081.353
1111.154, 2849.378
1112.389, 2572.746
1113.625, 2435.911
1114.860, 2097.988
1116.096, 1849.080
1117.331, 1683.196
1118.566, 1444.326
1119.800, 1356.489
1121.035, 1097.653
1122.269, 1024.914
1123.503, 1052.145
1124.737, 838.352
1125.971, 763.696
1127.205, 767.052
1128.438, 562.310
1129.671, 645.645
1130.904, 511.937
1132.137, 472.914
1133.370, 475.894
1134.602, 416.003
1135.834, 415.916
1137.066, 432.573
1138.298, 354.089
1139.530, 460.885
1140.762, 300.439
1141.993, 260.471
1143.224, 385.212
1144.455, 234.646
1145.686, 360.198
1146.917, 292.091
1148.147, 287.565
1149.377, 356.606
1150.607, 250.251
1151.837, 247.230
1153.067, 276.405
1154.296, 142.270
1155.526, 229.687
1156.755, 173.099
1157.984, 127.715
1159.213, 161.374
1160.441, 109.976
1161.670, 90.967
1162.898, 123.631
1164.126, 30.129
1165.354, 56.801
1166.581, 20.987
1167.809, 13.257
1169.036, 58.585
1170.263, 59.396
1171.490, 53.920
1172.717, 2.657
1173.943, 60.556
1175.170, 8.794
1176.396, 5.965
1177.622, 51.273
1178.848, 51.593
1180.073, 111.614
1181.299, 17.197
1182.524, 23.264
1183.749, 45.647
1184.974, 82.995
1186.199, 32.162
1187.423, 42.688
1188.648, 19.975
1189.872, 6.731
1191.096, 3.811
1192.320, 72.824
1193.543, 10.324
1194.767, 52.451
1195.990, 22.480
1197.213, 46.914
1198.436, 0.968
1199.659, 6.772
1200.881, 31.182
1202.104, 57.793
1203.326, 60.978
1204.548, 44.601
1205.770, 38.878
1206.991, 21.403
1208.213, 81.927
1209.434, 17.064
1210.655, 49.492
1211.876, 85.030
1213.096, 42.641
1214.317, 59.987
1215.537, 49.489
1216.757, 58.061
1217.977, 125.390
1219.197, 53.048
1220.417, 131.414
1221.636, 77.797
1222.855, 20.282
1224.074, 96.579
1225.293, 52.993
1226.512, 21.758
1227.731, 118.033
1228.949, 27.322
1230.167, 49.664
1231.385, 128.931
1232.603, 69.245
1233.820, 67.578
1235.038, 97.097
1236.255, 63.570
1237.472, 160.826
1238.689, 49.113
1239.906, 88.441
1241.122, 144.670
1242.338, 54.211
1243.555, 102.514
1244.771, 120.736
1245.986, 45.453
1247.202, 155.668
1248.417, 79.898
1249.633, 95.109
1250.848, 113.315
1252.063, 34.709
1253.277, 93.906
1254.492, 157.098
1255.706, 34.893
1256.920, 156.044
1258.134, 9.181
1259.348, 30.650
1260.562, 182.747
1261.775, 78.914
1262.988, 66.021
1264.201, 148.067
1265.414, 58.124
1266.627, 91.373
1267.839, 46.346
1269.052, 58.560
1270.264, 145.492
1271.476, 42.383
1272.688, 45.471
1273.899, 121.332
1275.111, 27.845
1276.322, 138.158
1277.533, 10.925
1278.744, 15.129
1279.955, 116.576
1281.165, 1.735
1282.376, 12.929
1283.586, 50.680
1284.796, 13.753
1286.006, 51.978
1287.215, 19.495
1288.425, 26.980
1289.634, 94.568
1290.843, 10.002
1292.052, 28.522
1293.261, 126.906
1294.469, 44.732
1295.678, 62.565
1296.886, 29.844
1298.094, 24.094
1299.302, 37.323
1300.509, 16.466
1301.717, 19.716
1302.924, 85.871
1304.131, 19.008
1305.338, 94.159
1306.545, 37.222
1307.752, 49.741
1308.958, 21.319
1310.164, 86.292
1311.370, 32.240
1312.576, 70.177
1313.782, 14.862
1314.987, 18.266
1316.193, 92.568
1317.398, 15.259
1318.603, 65.496
1319.807, 66.250
1321.012, 20.188
1322.216, 84.381
1323.421, 49.388
1324.625, 59.003
1325.829, 47.687
1327.032, 31.251
1328.236, 30.787
1329.439, 76.834
1330.642, 56.682
1331.845, 141.783
1333.048, 65.759
1334.251, 40.851
1335.453, 118.580
1336.656, 10.813
1337.858, 42.113
1339.060, 49.184
1340.261, 13.562
1341.463, 86.935
1342.664, 36.258
1343.866, 42.412
1345.067, 179.563
1346.267, 69.693
1347.468, 20.800
1348.669, 68.057
1349.869, 16.120
1351.069, 80.159
1352.269, 82.381
1353.469, 22.379
1354.668, 104.355
1355.868, 39.440
1357.067, 60.480
1358.266, 130.383
1359.465, 11.311
1360.664, 66.173
1361.862, 139.018
1363.061, 53.848
1364.259, 112.663
1365.457, 107.492
1366.655, 82.215
1367.852, 225.905
1369.050, 96.576
1370.247, 42.218
1371.444, 161.832
1372.641, 3.370
1373.838, 108.187
1375.035, 124.729
1376.231, 16.744
1377.427, 105.581
1378.623, 65.938
1379.819, 74.270
1381.015, 127.580
1382.211, 120.867
1383.406, 112.130
1384.601, 182.365
1385.796, 69.578
1386.991, 120.726
1388.185, 213.888
1389.380, 53.943
1390.574, 201.570
1391.768, 139.634
1392.962, 144.673
1394.156, 236.660
1395.350, 101.503
1396.543, 162.321
1397.736, 261.118
1398.929, 10.424
1400.122, 148.564
1401.315, 183.462
1402.507, 70.227
1403.700, 212.769
1404.892, 116.512
1406.084, 127.675
1407.276, 206.634
1408.467, 126.093
1409.659, 77.004
1410.850, 190.112
1412.041, 73.109
1413.232, 138.100
1414.423, 242.765
1415.614, 74.383
1416.804, 212.277
1417.994, 194.951
1419.184, 64.429
1420.374, 230.642
1421.564, 63.502
1422.753, 121.395
1423.943, 219.852
1425.132, 81.464
1426.321, 144.022
1427.510, 159.695
1428.698, 55.350
1429.887, 184.650
1431.075, 88.650
1432.263, 74.620
1433.451, 207.598
1434.639, 71.181
1435.827, 134.647
1437.014, 150.249
1438.201, 112.979
1439.388, 208.522
1440.575, 96.969
1441.762, 138.249
1442.949, 186.868
1444.135, 88.334
1445.321, 94.941
1446.507, 170.727
1447.693, 66.144
1448.879, 173.364
1450.064, 189.731
1451.250, 66.877
1452.435, 165.862
1453.620, 184.086
1454.805, 75.928
1455.989, 242.680
1457.174, 125.333
1458.358, 88.409
1459.542, 270.980
1460.726, 116.307
1461.910, 101.733
1463.093, 203.648
1464.277, 75.771
1465.460, 152.353
1466.643, 117.875
1467.826, 54.582
1469.009, 220.848
1470.191, 91.533
1471.373, 96.228
1472.556, 162.043
1473.738, 132.460
1474.919, 143.297
1476.101, 252.316
1477.283, 39.353
1478.464, 214.746
1479.645, 126.285
1480.826, 42.824
1482.007, 186.287
1483.187, 152.771
1484.368, 57.972
1485.548, 209.218
1486.728, 128.688
1487.908, 82.104
1489.088, 199.575
1490.268, 106.213
1491.447, 127.918
1492.626, 174.681
