##NAMES=Boleite
##RRUFFID=R050022
##IDEAL CHEMISTRY=KAg^1+^_9_Pb^2+^_26_Cu^2+^_24_Cl_62_(OH)_48_
##LOCALITY=Amelia mine, Boleo, Baja California, Mexico
##OWNER=RRUFF
##SOURCE=Eugene Schlepp
##DESCRIPTION=Dark blue colored interpenetrating cubes
##STATUS=The identification of this mineral has been confirmed by X-ray diffraction.
##URL=rruff.info/R050022
##PIN_ID=L00323
##ORIENTATION=Laser parallel to c* (0 0 1). Fiducial mark perpendicular to laser is parallel to a [1 0 0]
70.349, 0.000
71.747, 63.349
73.144, 196.877
74.540, 428.495
75.937, 330.938
77.333, 177.176
78.729, 62.020
80.125, 151.462
81.521, 30.504
82.916, 183.983
84.311, 691.567
85.706, 1136.214
87.101, 1823.232
88.496, 2091.312
89.890, 3079.322
91.284, 3596.234
92.678, 4701.139
94.071, 6243.234
95.465, 7611.812
96.858, 10196.256
98.251, 12316.044
99.644, 15700.720
101.036, 18049.854
102.428, 21783.105
103.820, 25940.455
105.212, 29621.828
106.604, 34666.863
107.995, 37025.199
109.387, 40756.508
110.777, 41170.527
112.168, 40897.051
113.559, 40635.906
114.949, 38116.898
116.339, 39609.859
117.729, 38544.645
119.119, 41091.129
120.508, 41929.191
121.897, 44078.719
123.286, 43329.625
124.675, 40891.953
126.063, 39665.664
127.452, 35890.562
128.840, 34366.477
130.228, 30613.330
131.615, 29131.072
133.003, 26849.852
134.390, 24760.918
135.777, 24435.262
137.164, 23132.662
138.550, 23891.826
139.937, 23621.443
141.323, 24831.258
142.709, 26141.207
144.094, 26761.281
145.480, 29071.463
146.865, 29781.750
148.250, 32332.137
149.635, 32762.670
151.019, 34733.430
152.403, 35634.809
153.788, 35936.941
155.171, 37379.262
156.555, 37901.766
157.939, 40454.434
159.322, 41627.191
160.705, 44570.191
162.088, 45933.461
163.470, 46076.969
164.853, 46050.711
166.235, 42304.570
167.617, 40038.578
168.998, 35172.695
170.380, 31006.957
171.761, 27561.305
173.142, 23445.734
174.523, 21730.234
175.904, 18894.791
177.284, 17632.172
178.664, 15700.159
180.044, 14875.956
181.424, 14074.662
182.803, 12790.315
184.183, 12654.995
185.562, 11679.720
186.940, 11564.486
188.319, 10999.296
189.698, 10834.142
191.076, 10569.021
192.454, 10333.936
193.831, 10528.873
195.209, 10068.463
196.586, 10372.247
197.963, 10138.023
199.340, 10340.630
200.717, 10449.130
202.093, 10054.614
203.470, 10554.584
204.846, 10303.356
206.221, 10366.048
207.597, 10161.893
208.972, 9944.913
210.347, 10427.035
211.722, 9908.938
213.097, 10240.132
214.472, 10111.331
215.846, 10022.533
217.220, 10023.730
218.594, 9824.908
219.967, 10066.048
221.341, 9337.146
222.714, 9588.195
224.087, 9079.195
225.460, 9000.269
226.832, 8732.834
228.204, 8166.577
229.577, 8230.440
230.948, 7495.821
232.320, 7382.394
233.692, 6816.517
235.063, 6644.923
236.434, 6356.297
237.805, 5946.502
239.175, 5756.113
240.545, 5231.981
241.916, 5113.054
243.286, 4608.991
244.655, 4365.042
246.025, 4237.254
247.394, 3677.222
248.763, 3617.021
250.132, 3225.304
251.501, 3126.533
252.869, 2956.449
254.237, 2757.526
255.605, 2575.665
256.973, 2390.492
258.340, 2476.179
259.708, 2196.946
261.075, 2195.073
262.442, 2035.431
263.808, 1818.160
265.175, 1748.806
266.541, 1247.012
267.907, 1272.319
269.273, 945.837
270.639, 837.332
272.004, 758.455
273.369, 420.087
274.734, 522.249
276.099, 303.582
277.463, 240.416
278.828, 151.947
280.192, 58.087
281.556, 119.250
282.919, 117.000
284.283, 8.095
285.646, 125.457
287.009, 57.774
288.372, 16.951
289.734, 145.280
291.097, 7.506
292.459, 50.680
293.821, 170.149
295.183, 165.992
296.544, 310.844
297.905, 638.698
299.266, 665.549
300.627, 1220.373
301.988, 1361.160
303.348, 1657.896
304.709, 1754.581
306.069, 1571.215
307.428, 1568.791
308.788, 1089.313
310.147, 1011.776
311.507, 585.178
312.865, 391.516
314.224, 349.789
315.583, 33.994
316.941, 45.129
318.299, 242.813
319.657, 218.886
321.015, 250.087
322.372, 373.429
323.729, 351.944
325.086, 478.631
326.443, 323.526
327.800, 471.593
329.156, 398.873
330.512, 362.351
331.868, 466.019
333.224, 332.907
334.579, 291.985
335.935, 262.242
337.290, 209.673
338.645, 123.269
339.999, 27.993
341.354, 34.870
342.708, 193.122
344.062, 16.000
345.416, 226.737
346.769, 232.362
348.123, 179.879
349.476, 249.288
350.829, 255.586
352.182, 375.775
353.534, 487.855
354.887, 634.824
356.239, 865.682
357.591, 1021.427
358.942, 1342.988
360.294, 1529.294
361.645, 1882.253
362.996, 2247.837
364.347, 2393.021
365.698, 2606.817
367.048, 2338.405
368.398, 2319.604
369.748, 1878.897
371.098, 1595.091
372.448, 1344.973
373.797, 927.901
375.146, 888.715
376.495, 581.549
377.844, 511.369
379.192, 440.940
380.540, 284.677
381.889, 343.135
383.236, 205.971
384.584, 331.781
385.932, 212.207
387.279, 191.553
388.626, 201.372
389.973, 10.578
391.319, 74.348
392.666, 2.269
394.012, 38.869
395.358, 12.242
396.704, 112.519
398.049, 1.360
399.394, 162.836
400.740, 132.153
402.084, 70.735
403.429, 146.275
404.774, 40.352
406.118, 107.557
407.462, 44.124
408.806, 52.813
410.150, 26.735
411.493, 12.214
412.836, 21.104
414.179, 12.334
415.522, 39.469
416.865, 50.766
418.207, 49.589
419.549, 105.656
420.891, 204.746
422.233, 146.253
423.575, 217.614
424.916, 127.898
426.257, 237.818
427.598, 274.589
428.939, 170.153
430.279, 360.864
431.619, 308.962
432.959, 354.324
434.299, 423.233
435.639, 384.965
436.978, 520.225
438.318, 465.325
439.657, 542.129
440.996, 664.349
442.334, 685.489
443.673, 808.686
445.011, 788.585
446.349, 1022.404
447.687, 1031.679
449.024, 1220.118
450.361, 1479.056
451.699, 1685.178
453.036, 2242.455
454.372, 2584.435
455.709, 3340.709
457.045, 3906.046
458.381, 4056.057
459.717, 4241.065
461.053, 3733.752
462.388, 3459.660
463.724, 3025.092
465.059, 2522.457
466.394, 2401.469
467.728, 1999.240
469.063, 1966.115
470.397, 1721.682
471.731, 1581.098
473.065, 1652.464
474.398, 1447.426
475.732, 1494.355
477.065, 1485.172
478.398, 1563.313
479.731, 1549.653
481.063, 1458.679
482.396, 1583.292
483.728, 1511.675
485.060, 1563.900
486.391, 1487.744
487.723, 1460.526
489.054, 1640.772
490.385, 1466.871
491.716, 1680.758
493.047, 1595.786
494.377, 1607.470
495.708, 1646.657
497.038, 1551.875
498.368, 1764.947
499.697, 1625.094
501.027, 1676.686
502.356, 1715.416
503.685, 1582.327
505.014, 1638.070
506.342, 1499.752
507.671, 1535.275
508.999, 1497.395
510.327, 1333.622
511.655, 1373.694
512.982, 1191.952
514.310, 1173.078
515.637, 1168.073
516.964, 1033.936
518.291, 1071.668
519.617, 968.271
520.944, 986.743
522.270, 831.089
523.596, 778.307
524.921, 819.401
526.247, 664.372
527.572, 755.221
528.897, 628.948
530.222, 620.554
531.547, 666.037
532.871, 628.400
534.196, 628.642
535.520, 597.764
536.844, 574.765
538.167, 607.528
539.491, 540.838
540.814, 579.335
542.137, 460.918
543.460, 701.455
544.783, 500.676
546.105, 489.870
547.427, 584.582
548.749, 459.219
550.071, 514.533
551.393, 435.950
552.714, 397.115
554.035, 505.388
555.356, 401.567
556.677, 394.614
557.998, 364.517
559.318, 315.823
560.638, 305.539
561.958, 232.289
563.278, 282.788
564.597, 252.664
565.917, 270.053
567.236, 241.161
568.555, 228.742
569.874, 194.143
571.192, 198.015
572.511, 200.547
573.829, 186.934
575.147, 100.646
576.464, 155.734
577.782, 52.524
579.099, 12.196
580.416, 75.309
581.733, 60.735
583.050, 42.183
584.366, 68.483
585.683, 60.066
586.999, 67.266
588.315, 6.521
589.630, 87.702
590.946, 32.979
592.261, 38.800
593.576, 7.149
594.891, 46.966
596.206, 123.788
597.520, 30.919
598.834, 15.696
600.148, 3.718
601.462, 7.278
602.776, 27.135
604.089, 35.619
605.402, 41.866
606.715, 34.282
608.028, 26.379
609.341, 54.870
610.653, 19.946
611.965, 5.153
613.277, 60.177
614.589, 6.125
615.901, 44.994
617.212, 35.213
618.523, 44.493
619.834, 10.875
621.145, 26.679
622.456, 4.160
623.766, 33.432
625.076, 65.894
626.386, 39.848
627.696, 35.328
629.006, 31.436
630.315, 4.475
631.624, 60.446
632.933, 28.355
634.242, 15.199
635.551, 136.977
636.859, 30.702
638.167, 100.419
639.475, 85.128
640.783, 78.846
642.090, 77.598
643.398, 59.385
644.705, 130.238
646.012, 70.120
647.318, 123.075
648.625, 128.084
649.931, 98.141
651.237, 221.273
652.543, 56.448
653.849, 169.664
655.155, 150.908
656.460, 118.170
657.765, 273.432
659.070, 174.654
660.375, 216.860
661.679, 255.021
662.984, 252.150
664.288, 301.242
665.592, 283.292
666.895, 405.307
668.199, 372.282
669.502, 333.217
670.805, 498.112
672.108, 359.966
673.411, 567.781
674.713, 531.560
676.016, 574.300
677.318, 656.002
678.620, 619.668
679.921, 688.298
681.223, 775.899
682.524, 753.465
683.825, 886.895
685.126, 856.405
686.427, 1049.626
687.727, 1088.784
689.028, 1095.105
690.328, 1350.240
691.628, 1300.350
692.927, 1457.306
694.227, 1565.141
695.526, 1638.089
696.825, 1935.737
698.124, 1799.530
699.423, 2041.810
700.721, 2084.980
702.020, 1983.400
703.318, 2159.768
704.616, 1872.527
705.913, 1844.757
707.211, 1755.276
708.508, 1519.498
709.805, 1519.622
711.102, 1336.289
712.399, 1244.587
713.695, 1221.987
714.992, 1081.336
716.288, 1129.643
717.584, 1003.053
718.879, 1012.274
720.175, 1069.865
721.470, 916.438
722.765, 1129.224
724.060, 1022.002
725.355, 1054.848
726.649, 1244.655
727.944, 1163.567
729.238, 1381.597
730.532, 1305.664
731.825, 1376.449
733.119, 1496.543
734.412, 1359.496
735.705, 1523.992
736.998, 1456.921
738.291, 1435.839
739.584, 1407.682
740.876, 1311.867
742.168, 1430.904
743.460, 1247.997
744.752, 1230.431
746.043, 1231.683
747.334, 1077.819
748.626, 1197.972
749.916, 1094.890
751.207, 1072.807
752.498, 1143.308
753.788, 940.955
755.078, 1070.038
756.368, 949.053
757.658, 1011.866
758.947, 954.037
760.237, 774.760
761.526, 943.022
762.815, 764.266
764.104, 703.575
765.392, 841.936
766.680, 662.580
767.969, 701.760
769.257, 709.189
770.544, 620.409
771.832, 671.808
773.119, 550.064
774.406, 610.496
775.693, 523.565
776.980, 491.966
778.267, 567.287
779.553, 445.816
780.839, 473.440
782.125, 492.815
783.411, 412.355
784.697, 451.900
785.982, 398.352
787.267, 442.784
788.552, 407.390
789.837, 359.967
791.122, 450.549
792.406, 346.237
793.690, 381.818
794.974, 430.904
796.258, 307.866
797.542, 451.761
798.825, 327.696
800.108, 406.948
801.391, 429.038
802.674, 321.304
803.957, 477.218
805.239, 351.419
806.522, 399.867
807.804, 406.150
809.085, 345.607
810.367, 434.148
811.649, 375.919
812.930, 429.390
814.211, 440.490
815.492, 366.972
816.772, 450.459
818.053, 424.285
819.333, 367.785
820.613, 439.447
821.893, 328.969
823.173, 471.497
824.452, 449.031
825.732, 260.580
827.011, 481.135
828.290, 368.101
829.568, 394.670
830.847, 412.252
832.125, 313.838
833.403, 395.432
834.681, 346.728
835.959, 315.338
837.236, 372.733
838.514, 284.359
839.791, 408.004
841.068, 247.658
842.345, 251.326
843.621, 293.002
844.898, 158.688
846.174, 268.398
847.450, 227.117
848.726, 178.848
850.001, 193.591
851.277, 136.344
852.552, 189.111
853.827, 158.891
855.102, 125.679
856.376, 205.486
857.651, 144.305
858.925, 125.135
860.199, 112.980
861.473, 56.837
862.746, 146.708
864.020, 85.593
865.293, 95.488
866.566, 104.407
867.839, 59.338
869.112, 164.282
870.384, 10.242
871.656, 58.213
872.928, 133.203
874.200, 22.203
875.472, 115.214
876.744, 53.244
878.015, 97.284
879.286, 243.334
880.557, 126.057
881.828, 171.466
883.098, 27.548
884.369, 76.638
885.639, 102.738
886.909, 17.151
888.178, 65.968
889.448, 67.106
890.717, 17.253
891.987, 73.409
893.256, 10.418
894.524, 12.764
895.793, 42.955
897.061, 29.425
898.330, 54.783
899.598, 1.001
900.865, 4.660
902.133, 32.588
903.401, 21.074
904.668, 80.205
905.935, 16.491
907.202, 20.841
908.468, 83.176
909.735, 10.510
911.001, 101.842
912.267, 136.180
913.533, 81.945
914.799, 256.308
916.064, 112.677
917.330, 184.540
918.595, 286.932
919.860, 192.500
921.124, 337.911
922.389, 307.330
923.653, 307.802
924.918, 354.240
926.182, 242.690
927.445, 364.506
928.709, 256.969
929.972, 150.524
931.236, 249.004
932.499, 123.494
933.761, 131.164
935.024, 124.672
936.286, 84.186
937.549, 101.867
938.811, 23.607
940.073, 65.222
941.334, 76.126
942.596, 41.342
943.857, 46.192
945.118, 18.281
946.379, 53.626
947.640, 6.979
948.900, 26.507
950.161, 19.901
951.421, 10.509
952.681, 28.929
953.940, 14.706
955.200, 16.787
956.459, 34.760
957.719, 28.263
958.978, 51.233
960.236, 9.253
961.495, 0.261
962.753, 33.727
964.012, 7.870
965.270, 37.579
966.527, 26.075
967.785, 42.725
969.043, 30.747
970.300, 75.219
971.557, 26.333
972.814, 50.749
974.071, 40.498
975.327, 28.934
976.583, 77.393
977.840, 67.900
979.095, 6.485
980.351, 87.080
981.607, 6.506
982.862, 85.749
984.117, 55.355
985.372, 32.223
986.627, 86.669
987.882, 51.821
989.136, 71.651
990.390, 59.730
991.644, 63.105
992.898, 109.634
994.152, 81.849
995.405, 20.400
996.659, 85.362
997.912, 49.730
999.165, 91.291
1000.417, 93.004
1001.670, 86.363
1002.922, 114.277
1004.174, 91.749
1005.426, 104.097
1006.678, 67.772
1007.930, 69.113
1009.181, 159.692
1010.432, 85.490
1011.683, 68.818
1012.934, 144.338
1014.185, 82.783
1015.435, 145.098
1016.685, 69.110
1017.935, 87.415
1019.185, 221.935
1020.435, 95.941
1021.684, 142.232
1022.934, 129.705
1024.183, 82.984
1025.432, 254.257
1026.680, 123.451
1027.929, 166.712
1029.177, 183.167
1030.425, 51.609
1031.673, 174.880
1032.921, 136.556
1034.169, 100.785
1035.416, 135.021
1036.663, 99.843
1037.911, 150.780
1039.157, 123.531
1040.404, 108.731
1041.650, 164.918
1042.897, 84.518
1044.143, 124.239
1045.389, 148.595
1046.634, 8.263
1047.880, 84.228
1049.125, 85.980
1050.371, 30.136
1051.615, 151.189
1052.860, 36.943
1054.105, 68.370
1055.349, 127.519
1056.593, 46.821
1057.837, 52.890
1059.081, 56.066
1060.325, 75.485
1061.568, 80.526
1062.812, 15.814
1064.055, 98.013
1065.298, 87.043
1066.540, 14.983
1067.783, 103.969
1069.025, 28.308
1070.267, 115.441
1071.509, 94.405
1072.751, 59.825
1073.993, 88.816
1075.234, 139.750
1076.475, 1.168
1077.716, 102.724
1078.957, 54.463
1080.198, 85.425
1081.438, 96.284
1082.679, 34.231
1083.919, 102.494
1085.159, 80.319
1086.398, 39.556
1087.638, 125.372
1088.877, 1.538
1090.116, 24.350
1091.355, 98.102
1092.594, 76.389
1093.833, 109.176
1095.071, 48.316
1096.309, 56.860
1097.547, 96.623
1098.785, 9.538
1100.023, 57.194
1101.260, 68.835
1102.498, 49.485
1103.735, 114.101
1104.972, 70.098
1106.208, 104.690
1107.445, 121.271
1108.681, 91.465
1109.918, 83.178
1111.154, 69.643
1112.389, 51.010
1113.625, 62.670
1114.860, 33.553
1116.096, 35.339
1117.331, 64.853
1118.566, 13.988
1119.800, 97.592
1121.035, 24.125
1122.269, 21.305
1123.503, 94.823
1124.737, 13.798
1125.971, 64.834
1127.205, 39.170
1128.438, 50.137
1129.671, 114.459
1130.904, 6.749
1132.137, 40.050
1133.370, 98.421
1134.602, 14.979
1135.834, 58.316
1137.066, 58.761
1138.298, 26.030
1139.530, 103.708
1140.762, 1.130
1141.993, 78.098
1143.224, 135.647
1144.455, 39.238
1145.686, 99.973
1146.917, 39.033
1148.147, 21.078
1149.377, 115.232
1150.607, 13.250
1151.837, 58.250
1153.067, 108.354
1154.296, 2.672
1155.526, 117.444
1156.755, 30.382
1157.984, 17.306
1159.213, 91.262
1160.441, 42.157
1161.670, 59.037
1162.898, 96.997
1164.126, 24.149
1165.354, 100.712
1166.581, 37.604
1167.809, 10.396
1169.036, 132.306
1170.263, 0.065
1171.490, 107.802
1172.717, 117.649
1173.943, 11.639
1175.170, 92.043
1176.396, 43.713
1177.622, 45.369
1178.848, 85.011
1180.073, 20.639
1181.299, 104.263
1182.524, 88.987
1183.749, 14.585
1184.974, 129.166
1186.199, 16.735
1187.423, 91.287
1188.648, 117.827
1189.872, 3.646
1191.096, 11.862
1192.320, 47.353
1193.543, 3.830
1194.767, 94.870
1195.990, 13.357
1197.213, 1.786
1198.436, 140.095
1199.659, 12.491
1200.881, 8.791
1202.104, 77.153
1203.326, 38.502
1204.548, 104.790
1205.770, 64.089
1206.991, 24.384
1208.213, 117.681
1209.434, 31.997
1210.655, 48.857
1211.876, 87.113
1213.096, 3.357
1214.317, 107.104
1215.537, 24.316
1216.757, 51.349
1217.977, 89.532
1219.197, 6.238
1220.417, 77.868
1221.636, 89.002
1222.855, 51.125
1224.074, 200.875
1225.293, 3.973
1226.512, 67.970
1227.731, 110.035
1228.949, 66.088
1230.167, 19.955
1231.385, 108.979
1232.603, 19.992
1233.820, 85.828
1235.038, 65.813
1236.255, 77.484
1237.472, 145.073
1238.689, 83.028
1239.906, 73.961
1241.122, 96.895
1242.338, 0.312
1243.555, 70.514
1244.771, 69.423
1245.986, 66.426
1247.202, 149.220
1248.417, 64.049
1249.633, 116.791
1250.848, 139.650
1252.063, 244.457
1253.277, 296.852
1254.492, 402.125
1255.706, 367.953
1256.920, 189.770
1258.134, 28.527
1259.348, 50.205
1260.562, 180.915
1261.775, 23.504
1262.988, 75.079
1264.201, 119.764
1265.414, 45.995
1266.627, 157.733
1267.839, 73.821
1269.052, 49.230
1270.264, 182.942
1271.476, 19.619
1272.688, 129.237
1273.899, 65.735
1275.111, 74.271
1276.322, 170.934
1277.533, 70.769
1278.744, 50.311
1279.955, 141.946
1281.165, 51.092
1282.376, 117.608
1283.586, 131.139
1284.796, 2.052
1286.006, 120.657
1287.215, 50.098
1288.425, 14.336
1289.634, 138.237
1290.843, 34.210
1292.052, 89.767
1293.261, 142.119
1294.469, 37.307
1295.678, 115.883
1296.886, 79.848
1298.094, 38.243
1299.302, 119.750
1300.509, 24.920
1301.717, 83.411
1302.924, 185.653
1304.131, 51.665
1305.338, 153.160
1306.545, 98.427
1307.752, 40.756
1308.958, 108.204
1310.164, 49.944
1311.370, 39.378
1312.576, 92.587
1313.782, 26.296
1314.987, 87.711
1316.193, 77.930
1317.398, 28.333
1318.603, 151.729
1319.807, 83.193
1321.012, 64.578
1322.216, 175.757
1323.421, 108.938
1324.625, 96.279
1325.829, 128.752
1327.032, 29.112
1328.236, 109.453
1329.439, 110.196
1330.642, 59.540
1331.845, 183.331
1333.048, 62.662
1334.251, 107.994
1335.453, 163.392
1336.656, 55.023
1337.858, 119.153
1339.060, 185.515
1340.261, 42.835
1341.463, 205.530
1342.664, 116.805
1343.866, 120.118
1345.067, 204.779
1346.267, 109.325
1347.468, 95.570
1348.669, 181.651
1349.869, 89.956
1351.069, 152.142
1352.269, 140.345
1353.469, 40.587
1354.668, 171.571
1355.868, 130.629
1357.067, 85.844
1358.266, 182.092
1359.465, 105.277
1360.664, 159.092
1361.862, 154.164
1363.061, 31.320
1364.259, 187.000
1365.457, 142.337
1366.655, 103.449
1367.852, 191.394
1369.050, 144.503
1370.247, 104.748
1371.444, 182.746
1372.641, 85.804
1373.838, 124.753
1375.035, 133.363
1376.231, 93.390
1377.427, 203.994
1378.623, 152.024
1379.819, 102.157
1381.015, 222.409
1382.211, 165.610
1383.406, 139.794
1384.601, 231.871
1385.796, 120.011
1386.991, 200.232
1388.185, 209.441
1389.380, 55.639
1390.574, 199.573
1391.768, 153.592
1392.962, 134.394
1394.156, 181.375
1395.350, 96.500
1396.543, 127.513
1397.736, 215.352
1398.929, 106.438
1400.122, 228.561
1401.315, 180.577
1402.507, 62.593
1403.700, 171.052
1404.892, 137.089
1406.084, 121.470
1407.276, 211.446
1408.467, 72.435
1409.659, 137.574
1410.850, 175.560
1412.041, 51.484
1413.232, 168.552
1414.423, 171.683
1415.614, 72.681
1416.804, 158.651
1417.994, 94.605
1419.184, 117.752
1420.374, 215.727
1421.564, 7.890
1422.753, 103.051
1423.943, 141.194
1425.132, 28.150
1426.321, 142.274
1427.510, 123.399
1428.698, 53.517
1429.887, 146.640
1431.075, 60.708
1432.263, 79.849
1433.451, 172.996
1434.639, 42.154
1435.827, 97.311
1437.014, 139.464
1438.201, 14.561
1439.388, 155.713
1440.575, 102.877
1441.762, 126.047
1442.949, 186.119
1444.135, 43.307
1445.321, 79.499
1446.507, 176.706
1447.693, 17.918
1448.879, 96.143
1450.064, 130.380
1451.250, 64.618
1452.435, 144.867
1453.620, 63.128
1454.805, 76.391
1455.989, 123.657
1457.174, 51.934
1458.358, 32.222
1459.542, 153.521
1460.726, 44.828
1461.910, 105.145
1463.093, 153.485
1464.277, 56.372
1465.460, 384.276
1466.643, 40.695
1467.826, 37.872
1469.009, 198.579
1470.191, 52.049
1471.373, 103.298
1472.556, 168.794
1473.738, 77.310
1474.919, 146.844
1476.101, 147.399
1477.283, 19.026
1478.464, 148.571
1479.645, 148.036
1480.826, 20.677
1482.007, 155.344
1483.187, 85.040
1484.368, 36.661
1485.548, 137.412
1486.728, 86.195
1487.908, 83.011
1489.088, 192.864
1490.268, 47.756
1491.447, 114.689
1492.626, 138.666
1493.805, 7.687
1494.984, 165.582
1496.163, 91.013
1497.341, 49.434
1498.520, 138.832
1499.698, 47.037
1500.876, 57.547
1502.054, 200.110
1503.232, 0.502
1504.409, 107.669
1505.586, 186.542
1506.763, 3.971
1507.940, 138.630
1509.117, 104.590
1510.294, 72.086
1511.470, 122.289
1512.647, 73.113
1513.823, 19.565
1514.999, 153.941
1516.174, 7.876
1517.350, 21.381
