##NAMES=Boleite
##RRUFFID=R050022
##IDEAL CHEMISTRY=KAg^1+^_9_Pb^2+^_26_Cu^2+^_24_Cl_62_(OH)_48_
##LOCALITY=Amelia mine, Boleo, Baja California, Mexico
##OWNER=RRUFF
##SOURCE=Eugene Schlepp
##DESCRIPTION=Dark blue colored interpenetrating cubes
##STATUS=The identification of this mineral has been confirmed by X-ray diffraction.
##URL=rruff.info/R050022
##PIN_ID=L00323
##ORIENTATION=Laser parallel to c* (0 0 1). Fiducial mark perpendicular to laser is parallel to a [1 0 0]
70.349, 0.000
71.747, 474.264
73.144, 818.921
74.540, 302.498
75.937, 184.322
77.333, 33.382
78.729, 283.266
80.125, 395.898
81.521, 704.163
82.916, 1402.515
84.311, 2616.537
85.706, 3042.652
87.101, 3817.957
88.496, 4210.199
89.890, 5437.562
91.284, 5758.421
92.678, 6791.354
94.071, 8125.115
95.465, 9038.607
96.858, 11110.882
98.251, 12191.099
99.644, 14518.521
101.036, 15602.507
102.428, 17632.494
103.820, 19958.246
105.212, 21499.770
106.604, 24686.785
107.995, 25488.752
109.387, 27425.188
110.777, 27345.664
112.168, 26439.896
113.559, 25617.598
114.949, 23708.451
116.339, 24102.213
117.729, 23028.660
119.119, 23977.609
120.508, 24298.883
121.897, 26002.311
123.286, 26617.744
124.675, 26455.045
126.063, 26654.088
127.452, 25074.750
128.840, 24646.932
130.228, 22770.537
131.615, 22115.480
133.003, 20841.689
134.390, 19809.576
135.777, 20010.852
137.164, 19086.418
138.550, 20175.934
139.937, 19928.572
141.323, 20822.508
142.709, 21746.594
144.094, 21890.791
145.480, 23525.107
146.865, 22939.535
148.250, 23884.064
149.635, 23278.752
151.019, 23353.822
152.403, 22879.916
153.788, 22417.025
155.171, 22534.154
156.555, 22061.258
157.939, 22478.455
159.322, 22055.906
160.705, 22023.641
162.088, 22121.646
163.470, 21420.012
164.853, 21378.623
166.235, 19687.467
167.617, 19196.520
168.998, 17705.750
170.380, 16235.139
171.761, 15654.662
173.142, 14274.300
174.523, 14294.030
175.904, 13113.841
177.284, 12933.729
178.664, 12263.669
180.044, 11973.662
181.424, 12163.707
182.803, 11693.806
184.183, 12183.956
185.562, 11734.163
186.940, 12254.419
188.319, 11844.724
189.698, 12215.069
191.076, 12325.454
192.454, 12395.869
193.831, 13136.311
195.209, 12647.401
196.586, 13311.727
197.963, 13379.227
199.340, 13677.457
200.717, 14029.488
202.093, 13796.361
203.470, 14464.920
204.846, 14209.521
206.221, 14709.931
207.597, 14673.355
208.972, 14926.232
210.347, 15684.742
211.722, 14970.478
213.097, 15624.896
214.472, 15499.316
215.846, 15843.740
217.220, 15808.157
218.594, 15342.555
219.967, 15876.914
221.341, 14941.205
222.714, 15715.431
224.087, 14969.562
225.460, 14753.613
226.832, 14319.045
228.204, 13567.004
229.577, 13587.446
230.948, 12293.921
232.320, 12444.781
233.692, 11473.663
235.063, 11065.833
236.434, 10720.059
237.805, 9961.455
239.175, 9646.551
240.545, 8734.415
241.916, 8656.764
243.286, 7877.175
244.655, 7350.244
246.025, 7162.896
247.394, 6317.846
248.763, 6251.887
250.132, 5535.162
251.501, 5229.811
252.869, 4804.637
254.237, 4413.713
255.605, 4296.979
256.973, 3611.076
258.340, 3735.498
259.708, 3267.115
261.075, 3101.726
262.442, 2944.529
263.808, 2546.386
265.175, 2538.392
266.541, 2129.904
267.907, 2042.190
269.273, 1842.280
270.639, 1497.263
272.004, 1538.040
273.369, 1168.120
274.734, 1200.320
276.099, 918.517
277.463, 851.466
278.828, 695.508
280.192, 719.572
281.556, 665.796
282.919, 346.448
284.283, 552.769
285.646, 358.872
287.009, 395.046
288.372, 439.282
289.734, 368.572
291.097, 567.902
292.459, 429.266
293.821, 720.658
295.183, 839.066
296.544, 1041.483
297.905, 1364.903
299.266, 1605.317
300.627, 2193.704
301.988, 2330.044
303.348, 2884.317
304.709, 2892.508
306.069, 2600.608
307.428, 2673.616
308.788, 1962.532
310.147, 1780.351
311.507, 1190.072
312.865, 903.694
314.224, 759.214
315.583, 298.630
316.941, 426.934
318.299, 27.880
319.657, 20.183
321.015, 136.876
322.372, 284.073
323.729, 323.441
325.086, 436.995
326.443, 411.768
327.800, 546.759
329.156, 578.009
330.512, 499.531
331.868, 670.308
333.224, 544.389
334.579, 632.746
335.935, 570.404
337.290, 542.354
338.645, 587.591
339.999, 457.130
341.354, 573.944
342.708, 365.064
344.062, 429.439
345.416, 220.090
346.769, 162.964
348.123, 138.051
349.476, 151.654
350.829, 204.194
352.182, 476.570
353.534, 660.782
354.887, 894.830
356.239, 1253.712
357.591, 1462.427
358.942, 2093.969
360.294, 2293.316
361.645, 2886.355
362.996, 3308.998
364.347, 3537.144
365.698, 3872.771
367.048, 3493.873
368.398, 3423.468
369.748, 2758.583
371.098, 2422.227
372.448, 1981.494
373.797, 1484.506
375.146, 1316.627
376.495, 958.843
377.844, 808.731
379.192, 608.304
380.540, 420.342
381.889, 423.899
383.236, 218.428
384.584, 259.735
385.932, 174.889
387.279, 93.216
388.626, 157.916
389.973, 43.172
391.319, 41.217
392.666, 110.345
394.012, 8.195
395.358, 43.553
396.704, 119.041
398.049, 60.322
399.394, 185.613
400.740, 99.182
402.084, 96.945
403.429, 153.020
404.774, 56.281
406.118, 65.713
407.462, 29.460
408.806, 39.454
410.150, 0.735
411.493, 34.659
412.836, 32.979
414.179, 50.138
415.522, 2.488
416.865, 120.898
418.207, 122.896
419.549, 134.595
420.891, 223.304
422.233, 165.549
423.575, 229.851
424.916, 278.647
426.257, 293.477
427.598, 331.712
428.939, 320.813
430.279, 446.633
431.619, 417.071
432.959, 451.541
434.299, 524.753
435.639, 538.797
436.978, 679.851
438.318, 617.628
439.657, 797.103
440.996, 832.415
442.334, 831.385
443.673, 1001.033
445.011, 1110.362
446.349, 1345.209
447.687, 1470.860
449.024, 1710.505
450.361, 2101.240
451.699, 2521.468
453.036, 3291.515
454.372, 3972.080
455.709, 5009.752
457.045, 5853.182
458.381, 6190.669
459.717, 6600.126
461.053, 5862.827
462.388, 5358.290
463.724, 4860.461
465.059, 4130.170
466.394, 3923.106
467.728, 3275.693
469.063, 3192.254
470.397, 2764.269
471.731, 2566.986
473.065, 2371.995
474.398, 2127.309
475.732, 2164.700
477.065, 1952.459
478.398, 1992.000
479.731, 2000.921
481.063, 1933.749
482.396, 1931.849
483.728, 1881.251
485.060, 1981.811
486.391, 1923.709
487.723, 1898.107
489.054, 2033.321
490.385, 1863.683
491.716, 1993.287
493.047, 2003.514
494.377, 2001.420
495.708, 2155.723
497.038, 2011.475
498.368, 2203.304
499.697, 2167.484
501.027, 2194.058
502.356, 2234.593
503.685, 2108.604
505.014, 2172.816
506.342, 1972.709
507.671, 1945.282
508.999, 1871.742
510.327, 1670.980
511.655, 1766.171
512.982, 1527.675
514.310, 1646.992
515.637, 1535.124
516.964, 1417.072
518.291, 1415.834
519.617, 1235.413
520.944, 1297.809
522.270, 1283.023
523.596, 1106.057
524.921, 1126.912
526.247, 1019.590
527.572, 1017.095
528.897, 911.428
530.222, 972.590
531.547, 936.584
532.871, 906.412
534.196, 841.074
535.520, 780.569
536.844, 820.894
538.167, 858.051
539.491, 707.772
540.814, 782.477
542.137, 748.970
543.460, 758.699
544.783, 752.639
546.105, 664.702
547.427, 761.279
548.749, 659.956
550.071, 709.663
551.393, 629.099
552.714, 602.623
554.035, 625.082
555.356, 543.854
556.677, 608.428
557.998, 536.240
559.318, 504.743
560.638, 469.232
561.958, 458.428
563.278, 415.991
564.597, 371.572
565.917, 356.457
567.236, 329.204
568.555, 306.916
569.874, 298.656
571.192, 234.155
572.511, 188.163
573.829, 292.783
575.147, 194.858
576.464, 211.377
577.782, 205.627
579.099, 126.060
580.416, 168.750
581.733, 81.850
583.050, 130.118
584.366, 63.654
585.683, 131.325
586.999, 98.744
588.315, 99.614
589.630, 131.879
590.946, 62.418
592.261, 63.309
593.576, 45.013
594.891, 10.690
596.206, 14.084
597.520, 19.504
598.834, 9.506
600.148, 20.512
601.462, 39.366
602.776, 60.789
604.089, 16.473
605.402, 114.451
606.715, 61.266
608.028, 1.028
609.341, 51.567
610.653, 40.053
611.965, 24.568
613.277, 18.702
614.589, 20.866
615.901, 11.074
617.212, 21.122
618.523, 26.722
619.834, 27.466
621.145, 41.110
622.456, 25.513
623.766, 2.893
625.076, 10.460
626.386, 10.282
627.696, 33.878
629.006, 47.946
630.315, 20.075
631.624, 30.811
632.933, 12.389
634.242, 49.321
635.551, 44.948
636.859, 22.498
638.167, 89.979
639.475, 4.393
640.783, 28.754
642.090, 68.083
643.398, 22.402
644.705, 86.734
646.012, 63.079
647.318, 84.481
648.625, 57.947
649.931, 27.468
651.237, 134.082
652.543, 11.234
653.849, 132.541
655.155, 116.395
656.460, 132.324
657.765, 151.344
659.070, 154.424
660.375, 122.602
661.679, 195.821
662.984, 76.102
664.288, 212.391
665.592, 174.677
666.895, 206.958
668.199, 192.187
669.502, 170.364
670.805, 249.488
672.108, 236.560
673.411, 280.582
674.713, 247.552
676.016, 270.474
677.318, 351.346
678.620, 327.171
679.921, 359.949
681.223, 373.682
682.524, 332.369
683.825, 458.011
685.126, 396.611
686.427, 466.157
687.727, 493.672
689.028, 437.146
690.328, 580.563
691.628, 532.672
692.927, 682.495
694.227, 685.456
695.526, 677.542
696.825, 779.971
698.124, 729.689
699.423, 831.246
700.721, 793.834
702.020, 840.385
703.318, 877.572
704.616, 812.197
705.913, 805.414
707.211, 781.945
708.508, 785.206
709.805, 893.503
711.102, 776.993
712.399, 854.264
713.695, 812.967
714.992, 815.503
716.288, 898.110
717.584, 879.730
718.879, 952.469
720.175, 1010.225
721.470, 970.944
722.765, 1224.758
724.060, 1166.599
725.355, 1379.497
726.649, 1452.492
727.944, 1485.336
729.238, 1741.110
730.532, 1733.438
731.825, 1806.500
733.119, 1992.724
734.412, 1838.017
735.705, 2044.068
736.998, 1890.364
738.291, 1947.369
739.584, 1956.655
740.876, 1777.685
742.168, 1931.088
743.460, 1808.404
744.752, 1797.223
746.043, 1803.839
747.334, 1551.052
748.626, 1750.665
749.916, 1564.950
751.207, 1583.496
752.498, 1689.624
753.788, 1490.838
755.078, 1552.928
756.368, 1516.228
757.658, 1509.135
758.947, 1519.657
760.237, 1306.453
761.526, 1418.476
762.815, 1308.061
764.104, 1274.701
765.392, 1370.289
766.680, 1177.850
767.969, 1310.829
769.257, 1227.349
770.544, 1120.902
771.832, 1150.191
773.119, 1033.301
774.406, 1087.958
775.693, 1052.644
776.980, 932.416
778.267, 1046.555
779.553, 920.148
780.839, 946.883
782.125, 941.437
783.411, 886.330
784.697, 943.743
785.982, 869.429
787.267, 904.182
788.552, 911.008
789.837, 788.543
791.122, 950.664
792.406, 857.207
793.690, 863.528
794.974, 850.363
796.258, 855.582
797.542, 932.996
798.825, 749.262
800.108, 919.034
801.391, 867.833
802.674, 849.473
803.957, 936.523
805.239, 844.242
806.522, 906.837
807.804, 943.019
809.085, 877.019
810.367, 988.982
811.649, 937.041
812.930, 957.189
814.211, 990.339
815.492, 938.439
816.772, 1096.615
818.053, 979.573
819.333, 902.767
820.613, 1035.968
821.893, 855.178
823.173, 1042.395
824.452, 990.622
825.732, 879.861
827.011, 968.109
828.290, 807.369
829.568, 899.639
830.847, 890.919
832.125, 841.211
833.403, 915.515
834.681, 756.829
835.959, 786.155
837.236, 783.491
838.514, 652.838
839.791, 752.202
841.068, 599.577
842.345, 597.966
843.621, 622.367
844.898, 529.781
846.174, 588.211
847.450, 515.656
848.726, 503.114
850.001, 500.591
851.277, 464.084
852.552, 445.595
853.827, 399.121
855.102, 377.244
856.376, 380.228
857.651, 324.808
858.925, 321.404
860.199, 299.018
861.473, 222.657
862.746, 295.321
864.020, 174.008
865.293, 223.710
866.566, 227.442
867.839, 183.190
869.112, 204.955
870.384, 142.735
871.656, 128.530
872.928, 146.342
874.200, 107.168
875.472, 199.009
876.744, 105.868
878.015, 71.744
879.286, 132.633
880.557, 51.536
881.828, 140.454
883.098, 52.387
884.369, 76.333
885.639, 91.299
886.909, 34.279
888.178, 51.271
889.448, 38.279
890.717, 56.298
891.987, 43.033
893.256, 18.385
894.524, 4.452
895.793, 28.530
897.061, 19.755
898.330, 4.159
899.598, 34.176
900.865, 13.060
902.133, 4.063
903.401, 19.802
904.668, 19.346
905.935, 6.509
907.202, 32.313
908.468, 25.869
909.735, 18.937
911.001, 19.264
912.267, 12.475
913.533, 9.299
914.799, 52.934
916.064, 12.823
917.330, 12.431
918.595, 73.696
919.860, 35.029
921.124, 122.252
922.389, 30.544
923.653, 89.896
924.918, 114.210
926.182, 38.539
927.445, 123.888
928.709, 79.247
929.972, 1.956
931.236, 61.420
932.499, 30.806
933.761, 41.202
935.024, 21.608
936.286, 10.977
937.549, 3.554
938.811, 20.123
940.073, 0.604
941.334, 9.153
942.596, 48.710
943.857, 59.226
945.118, 68.806
946.379, 65.079
947.640, 15.035
948.900, 47.418
950.161, 15.501
951.421, 1.067
952.681, 29.634
953.940, 33.704
955.200, 55.836
956.459, 1.406
957.719, 12.025
958.978, 18.647
960.236, 67.728
961.495, 38.504
962.753, 25.966
964.012, 31.436
965.270, 19.089
966.527, 47.325
967.785, 45.098
969.043, 15.956
970.300, 81.439
971.557, 47.860
972.814, 90.336
974.071, 50.728
975.327, 29.376
976.583, 112.423
977.840, 57.104
979.095, 86.989
980.351, 81.785
981.607, 37.185
982.862, 49.979
984.117, 95.826
985.372, 88.251
986.627, 38.873
987.882, 33.341
989.136, 94.798
990.390, 77.424
991.644, 101.825
992.898, 126.845
994.152, 48.407
995.405, 127.903
996.659, 99.917
997.912, 43.378
999.165, 130.885
1000.417, 134.330
1001.670, 123.861
1002.922, 184.754
1004.174, 106.246
1005.426, 177.040
1006.678, 141.126
1007.930, 116.611
1009.181, 203.115
1010.432, 160.821
1011.683, 147.285
1012.934, 191.683
1014.185, 157.320
1015.435, 243.728
1016.685, 155.040
1017.935, 226.858
1019.185, 187.330
1020.435, 147.906
1021.684, 185.256
1022.934, 169.971
1024.183, 129.428
1025.432, 242.797
1026.680, 132.058
1027.929, 166.927
1029.177, 229.308
1030.425, 147.682
1031.673, 209.136
1032.921, 160.957
1034.169, 119.350
1035.416, 205.390
1036.663, 133.166
1037.911, 136.538
1039.157, 93.353
1040.404, 106.776
1041.650, 160.161
1042.897, 105.407
1044.143, 114.749
1045.389, 129.121
1046.634, 59.500
1047.880, 132.282
1049.125, 62.600
1050.371, 32.376
1051.615, 103.699
1052.860, 58.063
1054.105, 66.992
1055.349, 113.719
1056.593, 48.712
1057.837, 84.118
1059.081, 102.457
1060.325, 81.160
1061.568, 132.378
1062.812, 109.878
1064.055, 88.553
1065.298, 95.762
1066.540, 79.256
1067.783, 80.458
1069.025, 89.797
1070.267, 87.168
1071.509, 115.398
1072.751, 29.712
1073.993, 93.935
1075.234, 59.392
1076.475, 58.149
1077.716, 75.171
1078.957, 18.334
1080.198, 111.713
1081.438, 65.738
1082.679, 77.071
1083.919, 125.145
1085.159, 81.150
1086.398, 56.862
1087.638, 98.599
1088.877, 3.913
1090.116, 43.814
1091.355, 66.394
1092.594, 34.749
1093.833, 63.330
1095.071, 42.406
1096.309, 30.431
1097.547, 23.332
1098.785, 9.259
1100.023, 11.950
1101.260, 34.162
1102.498, 17.028
1103.735, 27.829
1104.972, 29.165
1106.208, 73.790
1107.445, 78.984
1108.681, 62.947
1109.918, 10.214
1111.154, 24.964
1112.389, 25.325
1113.625, 25.609
1114.860, 37.885
1116.096, 10.593
1117.331, 8.358
1118.566, 24.962
1119.800, 40.705
1121.035, 28.481
1122.269, 63.905
1123.503, 16.488
1124.737, 5.074
1125.971, 15.740
1127.205, 9.314
1128.438, 11.979
1129.671, 64.378
1130.904, 12.840
1132.137, 11.446
1133.370, 49.903
1134.602, 20.466
1135.834, 41.323
1137.066, 44.719
1138.298, 3.906
1139.530, 66.578
1140.762, 7.983
1141.993, 25.430
1143.224, 38.332
1144.455, 8.629
1145.686, 47.044
1146.917, 36.447
1148.147, 0.096
1149.377, 31.283
1150.607, 12.629
1151.837, 40.888
1153.067, 16.165
1154.296, 7.327
1155.526, 42.606
1156.755, 37.893
1157.984, 20.008
1159.213, 15.819
1160.441, 14.745
1161.670, 2.606
1162.898, 11.276
1164.126, 29.303
1165.354, 15.655
1166.581, 42.638
1167.809, 26.585
1169.036, 82.560
1170.263, 19.511
1171.490, 43.427
1172.717, 63.428
1173.943, 3.412
1175.170, 13.315
1176.396, 58.127
1177.622, 58.925
1178.848, 38.764
1180.073, 14.533
1181.299, 51.283
1182.524, 9.917
1183.749, 15.791
1184.974, 52.480
1186.199, 14.155
1187.423, 37.812
1188.648, 45.482
1189.872, 13.890
1191.096, 52.706
1192.320, 44.288
1193.543, 40.855
1194.767, 78.408
1195.990, 34.949
1197.213, 16.476
1198.436, 19.986
1199.659, 36.515
1200.881, 2.003
1202.104, 14.458
1203.326, 5.901
1204.548, 38.323
1205.770, 33.734
1206.991, 65.131
1208.213, 58.500
1209.434, 69.904
1210.655, 47.261
1211.876, 54.662
1213.096, 7.937
1214.317, 52.250
1215.537, 28.549
1216.757, 18.833
1217.977, 39.111
1219.197, 28.375
1220.417, 36.574
1221.636, 19.808
1222.855, 26.973
1224.074, 87.209
1225.293, 41.379
1226.512, 16.105
1227.731, 68.243
1228.949, 22.369
1230.167, 51.478
1231.385, 65.574
1232.603, 3.348
1233.820, 80.714
1235.038, 37.764
1236.255, 46.714
1237.472, 53.719
1238.689, 16.723
1239.906, 35.671
1241.122, 43.664
1242.338, 16.345
1243.555, 60.590
1244.771, 52.408
1245.986, 15.832
1247.202, 64.738
1248.417, 22.631
1249.633, 49.607
1250.848, 54.451
1252.063, 39.305
1253.277, 44.198
1254.492, 78.076
1255.706, 2.946
1256.920, 57.402
1258.134, 4.161
1259.348, 24.901
1260.562, 87.621
1261.775, 55.386
1262.988, 37.779
1264.201, 81.074
1265.414, 35.734
1266.627, 69.443
1267.839, 61.085
1269.052, 64.800
1270.264, 60.245
1271.476, 36.280
1272.688, 54.669
1273.899, 28.842
1275.111, 3.909
1276.322, 119.724
1277.533, 30.952
1278.744, 62.114
1279.955, 33.686
1281.165, 10.050
1282.376, 66.555
1283.586, 99.061
1284.796, 35.385
1286.006, 50.922
1287.215, 35.829
1288.425, 2.181
1289.634, 64.588
1290.843, 31.466
1292.052, 30.883
1293.261, 21.242
1294.469, 26.652
1295.678, 30.962
1296.886, 46.900
1298.094, 39.225
1299.302, 64.236
1300.509, 28.942
1301.717, 23.238
1302.924, 107.501
1304.131, 42.549
1305.338, 56.827
1306.545, 32.157
1307.752, 18.237
1308.958, 22.533
1310.164, 63.911
1311.370, 41.953
1312.576, 46.963
1313.782, 36.039
1314.987, 38.327
1316.193, 42.239
1317.398, 18.395
1318.603, 18.626
1319.807, 31.953
1321.012, 54.658
1322.216, 74.853
1323.421, 35.029
1324.625, 66.112
1325.829, 50.815
1327.032, 31.934
1328.236, 63.393
1329.439, 89.104
1330.642, 74.206
1331.845, 100.852
1333.048, 36.879
1334.251, 44.931
1335.453, 71.110
1336.656, 50.180
1337.858, 83.209
1339.060, 51.219
1340.261, 54.368
1341.463, 108.342
1342.664, 56.998
1343.866, 31.736
1345.067, 72.704
1346.267, 67.611
1347.468, 69.193
1348.669, 80.499
1349.869, 47.462
1351.069, 65.401
1352.269, 74.471
1353.469, 31.512
1354.668, 96.600
1355.868, 66.593
1357.067, 88.617
1358.266, 107.998
1359.465, 51.014
1360.664, 55.863
1361.862, 87.905
1363.061, 106.366
1364.259, 112.820
1365.457, 116.983
1366.655, 117.410
1367.852, 92.846
1369.050, 89.902
1370.247, 54.793
1371.444, 65.068
1372.641, 44.277
1373.838, 76.900
1375.035, 101.774
1376.231, 104.713
1377.427, 147.713
1378.623, 126.650
1379.819, 99.152
1381.015, 114.107
1382.211, 135.024
1383.406, 111.570
1384.601, 169.188
1385.796, 96.003
1386.991, 132.908
1388.185, 159.050
1389.380, 103.013
1390.574, 178.911
1391.768, 112.716
1392.962, 92.487
1394.156, 142.343
1395.350, 98.050
1396.543, 149.688
1397.736, 108.499
1398.929, 109.165
1400.122, 173.314
1401.315, 141.165
1402.507, 110.778
1403.700, 171.208
1404.892, 133.722
1406.084, 225.739
1407.276, 137.176
1408.467, 93.762
1409.659, 117.376
1410.850, 88.948
1412.041, 35.620
1413.232, 149.077
1414.423, 105.711
1415.614, 77.457
1416.804, 143.113
1417.994, 77.686
1419.184, 23.198
1420.374, 99.005
1421.564, 52.721
1422.753, 109.421
1423.943, 137.229
1425.132, 100.037
1426.321, 120.795
1427.510, 78.616
1428.698, 45.432
1429.887, 132.240
1431.075, 99.997
1432.263, 95.810
1433.451, 119.637
1434.639, 64.465
1435.827, 101.257
1437.014, 110.071
1438.201, 46.882
1439.388, 84.693
1440.575, 109.483
1441.762, 54.269
1442.949, 94.072
1444.135, 55.888
1445.321, 98.707
1446.507, 97.526
1447.693, 65.358
1448.879, 100.189
1450.064, 68.056
1451.250, 12.931
1452.435, 52.810
1453.620, 57.710
1454.805, 37.621
1455.989, 106.535
1457.174, 86.456
1458.358, 19.407
1459.542, 59.377
1460.726, 70.368
1461.910, 92.383
1463.093, 90.422
1464.277, 0.519
1465.460, 112.561
1466.643, 54.662
1467.826, 44.783
1469.009, 131.770
1470.191, 87.139
1471.373, 88.268
1472.556, 97.487
1473.738, 52.713
1474.919, 63.962
1476.101, 85.234
1477.283, 10.533
1478.464, 87.860
1479.645, 53.219
1480.826, 74.613
1482.007, 68.043
1483.187, 31.514
1484.368, 39.027
1485.548, 71.585
1486.728, 61.191
1487.908, 65.848
1489.088, 118.560
1490.268, 104.269
1491.447, 98.082
1492.626, 115.974
1493.805, 63.936
1494.984, 63.974
1496.163, 66.096
1497.341, 63.311
1498.520, 98.630
1499.698, 53.062
1500.876, 75.622
1502.054, 71.323
1503.232, 14.818
1504.409, 93.226
1505.586, 99.484
1506.763, 46.987
1507.940, 72.778
1509.117, 108.914
1510.294, 64.855
1511.470, 21.807
1512.647, 7.936
1513.823, 39.911
1514.999, 44.419
1516.174, 0.000
##END=



