##NAMES=Braunite
##RRUFFID=R050390
##IDEAL CHEMISTRY=Mn^2+^Mn^3+^_6_SiO_12_
##LOCALITY=Oehrenstock, Thuringia, Germany
##OWNER=RRUFF
##SOURCE=University of Arizona Mineral Museum
##DESCRIPTION=Mass of black octahedra
##STATUS=The identification of this mineral has been confirmed by X-ray diffraction and chemical analysis
##URL=rruff.info/R050390
##MEASURED CHEMISTRY=(Mn^2+^_0.83_Ca_0.17_)_Î£=1_Mn^3+^_6.00_Si_1.00_O_12_
##PIN_ID=M00051
##ORIENTATION=Laser parallel to -a* (-1 0 0). Fiducial mark perpendicular to laser is parallel to -c [0 0 -1]
302.3190, 0.0000000E+00
303.5270, 223.8242
304.7350, 106.4180
305.9430, 391.5391
307.1510, 29.59375
308.3580, 165.6992
309.5660, 407.6953
310.7730, 197.6758
311.9800, 52.03906
313.1870, 3.441406
314.3940, 17.66797
315.6010, 11.26172
316.8070, 12.06641
318.0130, 122.4258
319.2200, 200.5430
320.4260, 430.2031
321.6310, 434.6406
322.8370, 700.1211
324.0430, 657.0898
325.2480, 544.9648
326.4540, 985.9688
327.6590, 1659.391
328.8640, 1419.297
330.0680, 1732.609
331.2730, 1792.715
332.4780, 2151.594
333.6820, 2143.180
334.8860, 2400.438
336.0900, 2572.422
337.2940, 2737.082
338.4980, 2806.711
339.7010, 2918.684
340.9050, 2805.090
342.1080, 2885.004
343.3110, 2998.473
344.5140, 2673.559
345.7170, 3450.312
346.9200, 2885.367
348.1220, 2572.961
349.3240, 2313.500
350.5270, 2002.207
351.7290, 1514.477
352.9310, 1648.273
354.1320, 1592.645
355.3340, 1424.488
356.5350, 1863.098
357.7370, 1181.129
358.9380, 1124.773
360.1390, 1229.543
361.3400, 1520.078
362.5400, 1261.211
363.7410, 1143.793
364.9410, 899.9336
366.1410, 968.7891
367.3410, 860.3086
368.5410, 773.9648
369.7410, 834.5977
370.9400, 791.0820
372.1400, 827.4062
373.3390, 839.3477
374.5380, 806.1289
375.7370, 852.6055
376.9360, 764.7305
378.1350, 732.0117
379.3330, 726.4922
380.5310, 823.0156
381.7300, 849.6875
382.9280, 671.5039
384.1260, 798.4766
385.3230, 651.6055
386.5210, 797.8789
387.7180, 757.3086
388.9160, 706.8828
390.1130, 431.6055
391.3100, 542.4648
392.5060, 509.4648
393.7030, 93.60156
394.9000, 251.1406
396.0960, 87.15625
397.2920, 273.3086
398.4880, 315.4883
399.6840, 217.8594
400.8800, 7.738281
402.0750, 95.40234
403.2710, 195.1641
404.4660, 119.9453
405.6610, 329.0898
406.8560, 20.32812
408.0510, 13.89062
409.2450, 131.0898
410.4400, 23.53516
411.6340, 85.45703
412.8280, 152.6094
414.0220, 224.7891
415.2160, 36.22656
416.4100, 190.8477
417.6030, 267.2969
418.7970, 142.8789
419.9900, 232.1758
421.1830, 511.2266
422.3760, 303.5703
423.5690, 269.6562
424.7610, 204.0703
425.9540, 16.21875
427.1460, 263.4375
428.3380, 167.0586
429.5300, 123.3242
430.7220, 106.4492
431.9140, 148.3281
433.1050, 180.2617
434.2970, 202.2969
435.4880, 90.39453
436.6790, 220.5781
437.8700, 358.8633
439.0610, 189.2930
440.2510, 111.8867
441.4420, 464.6484
442.6320, 189.5664
443.8220, 707.6484
445.0120, 314.8906
446.2020, 429.7891
447.3910, 444.5312
448.5810, 557.0781
449.7700, 405.0859
450.9600, 820.7812
452.1490, 1084.195
453.3370, 1203.234
454.5260, 746.7969
455.7150, 1033.457
456.9030, 1021.328
458.0910, 997.7539
459.2800, 1387.883
460.4670, 1013.805
461.6550, 1399.262
462.8430, 1482.348
464.0300, 1703.875
465.2180, 1625.805
466.4050, 1640.312
467.5920, 1954.734
468.7790, 2103.215
469.9650, 1990.793
471.1520, 2221.543
472.3380, 1839.348
473.5250, 1995.117
474.7110, 2382.914
475.8970, 2285.809
477.0820, 2189.133
478.2680, 2472.578
479.4540, 2152.070
480.6390, 2591.617
481.8240, 2581.223
483.0090, 2353.887
484.1940, 2637.609
485.3780, 2535.398
486.5630, 2623.766
487.7470, 2740.668
488.9320, 2780.188
490.1160, 2890.262
491.3000, 2914.438
492.4830, 2933.500
493.6670, 2728.055
494.8500, 3174.312
496.0340, 3468.285
497.2170, 3617.973
498.4000, 3192.062
499.5820, 3509.539
500.7650, 3529.301
501.9480, 3536.945
503.1300, 3959.266
504.3120, 3617.512
505.4940, 4033.449
506.6760, 4147.000
507.8580, 4398.969
509.0390, 4351.195
510.2210, 4396.234
511.4020, 4741.195
512.5830, 4698.922
513.7640, 5048.332
514.9450, 4979.875
516.1250, 5000.605
517.3060, 5567.457
518.4860, 5739.520
519.6660, 5449.750
520.8460, 5792.145
522.0260, 5682.730
523.2060, 5773.516
524.3850, 5616.488
525.5650, 5551.609
526.7440, 5400.895
527.9230, 5277.289
529.1020, 5098.816
530.2810, 4945.465
531.4590, 4743.219
532.6380, 4641.059
533.8160, 4432.988
534.9940, 4553.012
536.1720, 3927.125
537.3500, 3898.609
538.5270, 4728.914
539.7050, 4410.328
540.8820, 3424.832
542.0590, 3700.711
543.2360, 3119.371
544.4130, 3387.316
545.5900, 3376.375
546.7660, 3034.324
547.9430, 3006.426
549.1190, 2997.578
550.2950, 2952.121
551.4710, 2951.605
552.6470, 2955.980
553.8220, 2949.254
554.9980, 2980.113
556.1730, 3182.547
557.3480, 3082.328
558.5230, 3241.203
559.6980, 3369.785
560.8730, 3290.754
562.0470, 3383.918
563.2220, 3220.156
564.3960, 3249.863
565.5700, 3367.254
566.7440, 3502.531
567.9170, 3303.121
569.0910, 3675.938
570.2640, 3481.734
571.4380, 3692.297
572.6110, 3639.316
573.7840, 3495.398
574.9570, 3540.562
576.1290, 3288.797
577.3020, 3271.098
578.4740, 3193.785
579.6460, 3771.922
580.8180, 3183.434
581.9900, 3087.020
583.1620, 3346.668
584.3330, 2831.430
585.5040, 3139.281
586.6760, 3283.199
587.8470, 3276.180
589.0180, 3209.223
590.1880, 3223.332
591.3590, 3272.262
592.5290, 3115.734
593.7000, 3403.031
594.8700, 3279.398
596.0400, 3292.824
597.2090, 3228.320
598.3790, 3418.598
599.5490, 3755.508
600.7180, 3880.203
601.8870, 4116.969
603.0560, 4353.793
604.2250, 4609.609
605.3940, 5111.629
606.5620, 5386.078
607.7300, 5653.758
608.8990, 6031.820
610.0670, 6304.000
611.2350, 6398.234
612.4020, 7093.523
613.5700, 7552.875
614.7370, 8402.273
615.9050, 8732.730
617.0720, 9369.246
618.2390, 9958.809
619.4060, 10387.43
620.5720, 11012.10
621.7390, 11626.83
622.9050, 12275.61
624.0710, 12842.43
625.2370, 13362.32
626.4030, 13498.25
627.5690, 13649.23
628.7340, 14175.53
629.9000, 13592.86
631.0650, 13466.51
632.2300, 13679.38
633.3950, 13434.45
634.5600, 12928.59
635.7240, 12657.09
636.8890, 11917.52
638.0530, 11843.01
639.2170, 10886.84
640.3810, 10485.20
641.5450, 10134.96
642.7080, 9418.465
643.8720, 9041.934
645.0350, 8331.383
646.1980, 7897.910
647.3610, 7392.742
648.5240, 7164.293
649.6870, 6960.066
650.8490, 7013.805
652.0120, 6582.539
653.1740, 6281.492
654.3360, 5883.328
655.4980, 5578.707
656.6600, 5301.297
657.8210, 5419.008
658.9830, 5174.961
660.1440, 5146.727
661.3050, 4641.289
662.4660, 4997.590
663.6270, 5202.238
664.7870, 5253.043
665.9480, 4729.719
667.1080, 4937.672
668.2680, 4854.699
669.4280, 4757.012
670.5880, 5068.734
671.7480, 4614.949
672.9070, 4918.555
674.0670, 4920.129
675.2260, 5007.066
676.3850, 4877.273
677.5440, 4931.023
678.7030, 5065.586
679.8610, 5264.738
681.0200, 5229.016
682.1780, 5276.344
683.3360, 5156.785
684.4940, 5457.152
685.6520, 5265.547
686.8090, 5880.445
687.9670, 6292.020
689.1240, 6416.477
690.2810, 5929.934
691.4380, 6466.379
692.5950, 6079.152
693.7520, 6202.918
694.9080, 6249.141
696.0650, 6498.363
697.2210, 6260.648
698.3770, 5977.055
699.5330, 6562.508
700.6880, 6231.840
701.8440, 5926.281
702.9990, 5832.711
704.1550, 6170.172
705.3100, 5905.953
706.4650, 5833.723
707.6190, 5683.941
708.7740, 5406.859
709.9290, 5229.004
711.0830, 4882.199
712.2370, 4789.797
713.3910, 4553.316
714.5450, 4421.684
715.6980, 3792.148
716.8520, 3816.117
718.0050, 3503.949
719.1580, 3371.676
720.3110, 3127.914
721.4640, 2914.129
722.6170, 2770.922
723.7700, 2720.520
724.9220, 2243.641
726.0740, 2301.859
727.2260, 1828.086
728.3780, 1887.109
729.5300, 1804.102
730.6810, 1309.059
731.8330, 1234.984
732.9840, 1243.875
734.1350, 1089.730
735.2860, 1215.551
736.4370, 1199.332
737.5880, 981.0742
738.7380, 832.7852
739.8880, 699.4570
741.0390, 583.0820
742.1890, 866.6797
743.3380, 502.2305
744.4880, 731.7383
745.6380, 659.5586
746.7870, 590.8164
747.9360, 531.0234
749.0850, 484.7930
750.2340, 376.6719
751.3830, 406.9297
752.5310, 324.1445
753.6800, 281.3125
754.8280, 313.9023
755.9760, 238.2383
757.1240, 327.5547
758.2720, 209.5430
759.4190, 129.4844
760.5670, 215.3789
761.7140, 240.2266
762.8610, 323.0273
764.0080, 270.7773
765.1550, 138.4805
766.3020, 52.13281
767.4480, 57.59375
768.5950, 52.67969
769.7410, 34.72266
770.8870, 54.90234
772.0330, 180.6367
773.1780, 82.45703
774.3240, 116.4961
775.4690, 4.519531
776.6140, 23.62109
777.7590, 125.8242
778.9040, 35.82422
780.0490, 155.6016
781.1940, 376.1953
782.3380, 151.0781
783.4820, 86.12891
784.6260, 215.6797
785.7700, 59.69141
786.9140, 117.8789
788.0580, 211.3477
789.2010, 261.0234
790.3450, 327.9297
791.4880, 42.10156
792.6310, 264.4023
793.7730, 11.92969
794.9160, 347.5664
796.0590, 195.4805
797.2010, 183.6016
798.3430, 299.7422
799.4850, 290.4844
800.6270, 300.3086
801.7690, 144.3867
802.9100, 169.0898
804.0520, 24.91406
805.1930, 87.60938
806.3340, 48.28906
807.4750, 45.91406
808.6160, 119.0391
809.7560, 425.1016
810.8970, 103.1055
812.0370, 173.8086
813.1770, 491.9297
814.3170, 12.25000
815.4570, 23.46875
816.5960, 32.10156
817.7360, 217.6523
818.8750, 248.1484
820.0140, 144.5781
821.1530, 8.046875
822.2920, 182.2227
823.4310, 160.5625
824.5690, 49.47656
825.7070, 247.4375
826.8460, 385.3438
827.9840, 297.0391
829.1220, 94.97266
830.2590, 95.69531
831.3970, 58.64062
832.5340, 54.89844
833.6710, 49.62891
834.8080, 563.7656
835.9450, 288.1094
837.0820, 192.1211
838.2190, 151.2109
839.3550, 342.2227
840.4910, 389.0664
841.6270, 139.7969
842.7630, 74.53516
843.8990, 9.105469
845.0350, 105.0508
846.1700, 213.6016
847.3060, 232.0312
848.4410, 79.78906
849.5760, 89.10156
850.7100, 236.7812
851.8450, 84.66406
852.9800, 25.06641
854.1140, 265.2539
855.2480, 339.3516
856.3820, 152.5039
857.5160, 308.6523
858.6500, 148.1797
859.7830, 67.32422
860.9170, 245.4922
862.0500, 51.60156
863.1830, 38.67578
864.3160, 145.9609
865.4480, 312.1914
866.5810, 394.3750
867.7130, 83.50391
868.8460, 451.5820
869.9780, 135.6133
871.1100, 282.5938
872.2410, 99.52344
873.3730, 286.4102
874.5050, 501.2422
875.6360, 225.0273
876.7670, 329.7656
877.8980, 149.4570
879.0290, 293.1016
880.1590, 166.7031
881.2900, 225.2539
882.4200, 442.7617
883.5500, 519.2266
884.6800, 275.6406
885.8100, 577.0156
886.9400, 230.3398
888.0690, 406.6250
889.1990, 361.8711
890.3280, 569.0703
891.4570, 458.2344
892.5860, 300.3477
893.7140, 690.4219
894.8430, 505.4570
895.9710, 618.4492
897.1000, 634.4023
898.2280, 538.3164
899.3560, 483.1914
900.4830, 748.0312
901.6110, 560.8281
902.7380, 826.3320
903.8660, 823.6836
904.9930, 758.4102
906.1200, 617.0352
907.2460, 979.5625
908.3730, 1181.805
909.5000, 1253.594
910.6260, 749.7852
911.7520, 986.2852
912.8780, 923.5586
914.0040, 842.0742
915.1290, 1184.949
916.2550, 751.8711
917.3800, 1062.488
918.5050, 1084.691
919.6300, 1249.297
920.7550, 1122.910
921.8800, 1088.184
923.0040, 1343.191
924.1290, 1426.250
925.2530, 1245.211
926.3770, 1402.934
927.5010, 965.6328
928.6250, 1052.168
929.7480, 1403.844
930.8720, 1417.285
931.9950, 1433.250
933.1180, 1626.926
934.2410, 1649.289
935.3640, 1803.230
936.4860, 1518.543
937.6090, 1694.652
938.7310, 1472.238
939.8530, 1808.914
940.9750, 2140.648
942.0970, 2105.871
943.2180, 1956.453
944.3400, 1859.312
945.4610, 2100.473
946.5820, 1938.234
947.7030, 2224.395
948.8240, 2100.586
949.9450, 2112.316
951.0650, 2161.246
952.1860, 2204.594
953.3060, 2374.832
954.4260, 2355.078
955.5460, 2507.234
956.6650, 2380.496
957.7850, 2626.828
958.9040, 2625.930
960.0230, 2492.938
961.1420, 2804.355
962.2610, 2232.281
963.3800, 2578.648
964.4990, 2772.422
965.6170, 2822.145
966.7350, 2289.730
967.8530, 2506.703
968.9710, 2425.723
970.0890, 2333.438
971.2070, 2655.895
972.3240, 2199.258
973.4410, 2515.184
974.5580, 2528.770
975.6750, 2680.805
976.7920, 2521.785
977.9090, 2466.398
979.0250, 2708.227
980.1410, 2778.121
981.2580, 2596.090
982.3740, 2740.395
983.4890, 2288.391
984.6050, 2374.363
985.7200, 2692.527
986.8360, 2525.672
987.9510, 2691.758
989.0660, 2731.531
990.1810, 2194.180
991.2950, 2660.590
992.4100, 2692.953
993.5240, 2269.031
994.6390, 2695.715
995.7530, 2343.926
996.8660, 2271.855
997.9800, 2410.375
999.0940, 2329.590
1000.207, 2594.988
1001.320, 2527.012
1002.433, 2429.359
1003.546, 2461.742
1004.659, 2125.781
1005.772, 2473.359
1006.884, 2354.195
1007.996, 2467.129
1009.108, 2632.711
1010.220, 2395.590
1011.332, 2584.914
1012.444, 2113.035
1013.555, 2194.480
1014.666, 2216.398
1015.777, 2592.008
1016.888, 2123.535
1017.999, 2189.793
1019.110, 2483.762
1020.220, 2459.250
1021.331, 2567.980
1022.441, 2282.469
1023.551, 2367.398
1024.661, 2350.281
1025.770, 2686.008
1026.880, 2743.273
1027.989, 2464.680
1029.098, 2187.566
1030.207, 2548.879
1031.316, 2305.199
1032.425, 2388.016
1033.533, 2133.805
1034.642, 2170.738
1035.750, 2203.117
1036.858, 2384.754
1037.966, 2113.973
1039.073, 2430.203
1040.181, 2407.301
1041.288, 2180.133
1042.396, 2439.145
1043.503, 2551.211
1044.610, 2450.348
1045.716, 2594.555
1046.823, 2500.855
1047.929, 2416.727
1049.036, 2786.730
1050.142, 2567.312
1051.248, 3073.070
1052.353, 3108.891
1053.459, 3828.945
1054.564, 3267.988
1055.670, 3152.090
1056.775, 2951.301
1057.880, 3166.641
1058.985, 3005.125
1060.089, 3160.770
1061.194, 3465.504
1062.298, 3279.387
1063.402, 3463.344
1064.506, 3227.973
1065.610, 3280.227
1066.713, 3330.609
1067.817, 3162.148
1068.920, 3422.848
1070.023, 3197.703
1071.126, 3235.777
1072.229, 3429.871
1073.332, 3340.375
1074.435, 3474.641
1075.537, 3208.996
1076.639, 3404.227
1077.741, 3153.711
1078.843, 3325.082
1079.945, 3054.738
1081.046, 3357.918
1082.148, 3509.629
1083.249, 3348.996
1084.350, 4038.730
1085.451, 3122.656
1086.551, 3189.645
1087.652, 2964.070
1088.752, 3656.172
1089.853, 3103.672
1090.953, 3068.039
1092.053, 3232.266
1093.152, 2818.465
1094.252, 2982.016
1095.351, 2999.535
1096.451, 2622.113
1097.550, 2801.750
1098.649, 2858.453
1099.748, 2836.691
1100.846, 2880.246
1101.945, 2964.621
1103.043, 2773.578
1104.141, 2693.594
1105.239, 2537.523
1106.337, 2570.980
1107.434, 2373.250
1108.532, 2664.543
1109.629, 2612.938
1110.726, 2707.816
1111.823, 2397.332
1112.920, 2603.883
1114.017, 2328.660
1115.113, 2933.445
1116.210, 2788.914
1117.306, 3228.797
1118.402, 2808.738
1119.498, 2728.734
1120.593, 2659.781
1121.689, 2890.871
1122.784, 2636.086
1123.879, 2431.207
1124.974, 1974.207
1126.069, 2278.883
1127.164, 2431.371
1128.259, 2439.801
1129.353, 1872.672
1130.447, 2053.574
1131.541, 1937.660
1132.635, 1811.098
1133.729, 2107.184
1134.822, 1624.039
1135.916, 1898.574
1137.009, 1883.938
1138.102, 2010.090
1139.195, 1821.035
1140.288, 1724.602
1141.380, 1933.523
1142.473, 1970.980
1143.565, 1747.629
1144.657, 1868.012
1145.749, 1374.859
1146.841, 1419.594
1147.932, 1696.461
1149.024, 1488.367
1150.115, 1613.809
1151.206, 1621.055
1152.297, 1042.422
1153.388, 1467.559
1154.479, 1458.652
1155.569, 1004.109
1156.659, 1394.992
1157.750, 1001.938
1158.839, 670.1875
1159.929, 626.8320
1161.019, 730.5117
1162.108, 579.4141
1163.198, 671.6250
1164.287, 845.1641
1165.376, 361.3320
1166.465, 668.1758
1167.553, 642.0586
1168.642, 528.9766
1169.730, 693.9141
1170.818, 620.4609
1171.906, 472.8203
1172.994, 558.9922
1174.082, 338.3750
1175.170, 175.5117
1176.257, 422.6328
1177.344, 487.2109
1178.431, 233.3828
1179.518, 455.5820
1180.605, 413.9570
1181.691, 315.2031
1182.778, 230.8242
1183.864, 444.1211
1184.950, 216.8750
1186.036, 413.7734
1187.122, 47.13281
1188.207, 239.5195
1189.292, 372.9141
1190.378, 443.3398
1191.463, 319.6562
1192.548, 377.2383
1193.632, 49.71484
1194.717, 36.79297
1195.801, 112.7109
1196.886, 357.2266
1197.970, 165.7578
1199.054, 77.13672
1200.137, 99.69531
1201.221, 138.7344
1202.305, 37.81250
1203.388, 23.63281
1204.471, 59.92578
1205.554, 139.4961
1206.637, 42.92578
1207.719, 39.65625
1208.802, 72.75781
1209.884, 1.179688
1210.966, 61.59766
1212.048, 25.98047
1213.130, 177.5625
1214.212, 22.84766
1215.293, 283.7422
1216.374, 59.33594
1217.456, 50.06641
1218.536, 135.5234
1219.617, 185.8828
1220.698, 4.359375
1221.778, 155.8359
1222.859, 53.37891
1223.939, 79.93359
1225.019, 14.84375
1226.099, 136.6250
1227.178, 44.32422
1228.258, 396.6367
1229.337, 66.94141
1230.417, 46.55078
1231.496, 41.17578
1232.574, 491.1758
1233.653, 65.52344
1234.732, 166.8711
1235.810, 309.7344
1236.888, 53.23047
1237.966, 263.9102
1239.044, 330.5156
1240.122, 178.5586
1241.199, 55.60156
1242.277, 8.125000
1243.354, 84.09375
1244.431, 254.6172
1245.508, 170.9141
1246.585, 162.4766
1247.661, 192.0469
1248.738, 360.0352
1249.814, 228.2734
1250.890, 189.0898
1251.966, 449.7305
1253.042, 544.3320
1254.117, 378.0234
1255.193, 430.3008
1256.268, 235.0430
1257.343, 135.8555
1258.418, 173.6562
1259.493, 48.55469
1260.567, 63.81641
1261.642, 86.14844
1262.716, 209.5508
1263.790, 184.9023
1264.864, 255.3398
1265.938, 174.2344
1267.011, 209.9336
1268.085, 245.2148
1269.158, 101.3516
1270.231, 44.52734
1271.304, 131.5312
1272.377, 165.5742
1273.450, 48.60938
1274.522, 355.6172
1275.594, 285.6211
1276.666, 553.6094
1277.738, 387.5781
1278.810, 180.5352
1279.882, 83.52734
1280.953, 311.3203
1282.025, 301.1523
1283.096, 254.9688
1284.167, 355.7695
1285.238, 307.8906
1286.308, 305.3125
1287.379, 222.4219
1288.449, 174.8711
1289.519, 271.8555
1290.589, 12.44922
1291.659, 17.17578
1292.729, 178.2500
1293.798, 98.16797
1294.868, 318.3984
1295.937, 549.5469
1297.006, 829.8984
1298.075, 262.2344
1299.143, 58.11328
1300.212, 78.10547
1301.280, 123.2930
1302.348, 115.4531
1303.416, 40.58984
1304.484, 234.6758
1305.552, 16.74609
1306.620, 392.7461
1307.687, 172.7305
1308.754, 135.6953
1309.821, 348.6328
1310.888, 6.554688
1311.955, 501.4102
1313.021, 439.2031
1314.088, 279.0430
1315.154, 624.8203
1316.220, 367.5820
1317.286, 408.3125
1318.352, 399.0234
1319.417, 194.7070
1320.483, 275.3633
1321.548, 284.9961
1322.613, 337.5938
1323.678, 198.6758
1324.743, 345.2266
1325.807, 417.7461
1326.872, 130.2461
1327.936, 342.7109
1329.000, 301.7227
1330.064, 524.6016
1331.128, 393.9961
1332.191, 445.0195
1333.255, 462.3555
1334.318, 397.6641
1335.381, 327.1367
1336.444, 657.3906
1337.507, 402.7812
1338.569, 387.9297
1339.632, 423.7188
1340.694, 214.8555
1341.756, 570.9727
1342.818, 481.6133
1343.880, 585.6680
1344.941, 574.6953
1346.003, 293.3164
1347.064, 515.2969
1348.125, 275.9219
1349.186, 470.7070
1350.247, 536.7227
1351.308, 500.7891
1352.368, 316.5547
1353.428, 430.3633
1354.489, 309.1445
1355.549, 93.89844
1356.608, 306.6172
1357.668, 301.4336
1358.727, 409.1367
1359.787, 392.9922
1360.846, 438.6133
1361.905, 584.2109
1362.964, 618.7852
1364.022, 711.2344
1365.081, 293.7578
1366.139, 513.2578
1367.197, 399.7344
1368.255, 428.7617
1369.313, 450.1875
1370.371, 495.8789
1371.428, 368.1484
1372.486, 702.5078
1373.543, 78.53125
1374.600, 428.1562
1375.657, 625.4805
1376.713, 678.6914
1377.770, 156.8555
1378.826, 377.7188
1379.882, 300.6523
1380.938, 211.3555
1381.994, 537.1445
1383.050, 98.29688
1384.106, 417.1094
1385.161, 433.4336
1386.216, 588.1719
1387.271, 438.5078
1388.326, 380.3594
1389.381, 620.5156
1390.435, 686.7773
1391.490, 507.1758
1392.544, 670.5898
1393.598, 207.9375
1394.652, 280.7266
1395.705, 601.0820
1396.759, 436.4570
1397.812, 600.4258
1398.866, 642.3945
1399.919, 107.0508
1400.972, 574.7344
1402.024, 611.2070
1403.077, 199.7500
1404.129, 633.6602
1405.181, 283.6172
1406.233, 213.3789
1407.285, 345.3047
1408.337, 267.0078
1409.389, 533.9023
1410.440, 467.3477
1411.491, 370.9961
1412.542, 404.7188
1413.593, 69.94922
1414.644, 418.6094
1415.695, 300.6758
1416.745, 414.5273
1417.795, 575.7695
1418.845, 335.9648
1419.895, 510.2578
1420.945, 38.70703
1421.995, 120.9375
1423.044, 143.4141
1424.093, 519.5312
1425.142, 51.49609
1426.191, 307.2266
1427.240, 721.4570
1428.289, 229.8516
1429.337, 192.9570
1430.385, 518.3320
1431.433, 183.5195
1432.481, 363.4688
1433.529, 427.8398
1434.577, 408.6797
1435.624, 259.1992
1436.672, 431.2266
1437.719, 341.1836
1438.766, 255.4727
1439.812, 529.7539
1440.859, 196.9648
1441.905, 252.1250
1442.952, 373.0703
1443.998, 336.1992
1445.044, 511.9688
1446.090, 428.7305
1447.135, 440.4258
1448.181, 246.3867
1449.226, 440.5898
1450.271, 244.7422
1451.316, 427.9922
1452.361, 422.0625
1453.405, 177.0977
1454.450, 240.0820
