##NAMES=Braunite
##RRUFFID=R050385
##IDEAL CHEMISTRY=Mn^2+^Mn^3+^_6_SiO_12_
##LOCALITY=Jhabua District, Madhya Pradesh, India
##OWNER=RRUFF
##SOURCE=University of Arizona Mineral Museum
##DESCRIPTION=Black prismatic crystals
##STATUS=The identification of this mineral has been confirmed by X-ray diffraction and chemical analysis
##URL=rruff.info/R050385
##MEASURED CHEMISTRY=(Fe^2+^_0.61_Mn^2+^_0.39_)_Σ=1_(Mn^3+^_5.94_Al_0.06_)_Σ=6_Si_1.00_O_12_
##PIN_ID=L01451
##ORIENTATION=Laser parallel to a* (1 0 0). Fiducial mark perpendicular to laser is parallel to c [0 0 1]
178.2820, 0.0000000E+00
179.5050, 26.88672
180.7290, 21.14160
181.9520, 20.90918
183.1760, 20.07520
184.3990, 406.4736
185.6220, 574.1191
186.8450, 1015.568
188.0670, 963.4805
189.2900, 1038.264
190.5120, 886.8066
191.7340, 1259.035
192.9560, 1373.408
194.1780, 1691.466
195.4000, 2129.199
196.6220, 2267.953
197.8430, 2431.168
199.0640, 2817.953
200.2860, 4070.285
201.5070, 4315.517
202.7270, 4902.920
203.9480, 4025.977
205.1690, 2677.973
206.3890, 1276.604
207.6090, 698.7656
208.8290, 831.6299
210.0490, 1086.221
211.2690, 1530.884
212.4890, 1839.178
213.7080, 2109.051
214.9280, 2357.612
216.1470, 2602.630
217.3660, 2761.602
218.5850, 2877.133
219.8030, 3013.335
221.0220, 3079.398
222.2400, 3119.799
223.4590, 3085.185
224.6770, 3055.972
225.8950, 2948.561
227.1120, 2865.356
228.3300, 2776.499
229.5480, 2514.414
230.7650, 2364.145
231.9820, 2217.957
233.1990, 1994.463
234.4160, 1825.254
235.6330, 1646.858
236.8490, 1468.925
238.0660, 1320.398
239.2820, 1098.972
240.4980, 1019.849
241.7140, 918.6328
242.9300, 1025.885
244.1460, 984.6738
245.3610, 1098.539
246.5770, 1028.273
247.7920, 940.4053
249.0070, 821.5479
250.2220, 793.2686
251.4370, 420.1553
252.6510, 675.4395
253.8660, 801.1406
255.0800, 804.2852
256.2940, 316.9814
257.5080, 463.4971
258.7220, 356.3096
259.9360, 238.8945
261.1490, 475.2090
262.3630, 60.22949
263.5760, 291.2510
264.7890, 264.6123
266.0020, 543.1318
267.2150, 294.3564
268.4270, 440.6885
269.6400, 203.1113
270.8520, 381.6152
272.0640, 411.1904
273.2760, 405.8193
274.4880, 394.4971
275.7000, 612.2148
276.9120, 527.9678
278.1230, 571.7529
279.3340, 350.5605
280.5450, 339.1885
281.7560, 122.2373
282.9670, 198.0938
284.1780, 145.9404
285.3880, 90.75488
286.5980, 169.5332
287.8090, 150.2676
289.0190, 183.3086
290.2290, 262.8848
291.4380, 463.1338
292.6480, 504.4775
293.8570, 587.0420
295.0670, 573.2471
296.2760, 513.2480
297.4850, 373.1934
298.6930, 309.1211
299.9020, 89.03418
301.1110, 32.05176
302.3190, 104.1484
303.5270, 261.3008
304.7350, 185.5146
305.9430, 324.7783
307.1510, 424.0684
308.3580, 401.3506
309.5660, 257.6191
310.7730, 228.8711
311.9800, 203.1318
313.1870, 196.5654
314.3940, 116.6299
315.6010, 1.289063
316.8070, 52.81543
318.0130, 279.8193
319.2200, 404.5850
320.4260, 504.3008
321.6310, 806.0693
322.8370, 962.9053
324.0430, 1312.602
325.2480, 1631.287
326.4540, 2220.607
327.6590, 2708.411
328.8640, 3277.652
330.0680, 3706.609
331.2730, 4110.568
332.4780, 4291.508
333.6820, 4293.415
334.8860, 4219.271
336.0900, 3958.066
337.2940, 3539.789
338.4980, 3251.434
339.7010, 2786.999
340.9050, 2553.475
342.1080, 2402.854
343.3110, 2035.126
344.5140, 1629.287
345.7170, 1577.326
346.9200, 1329.241
348.1220, 1233.037
349.3240, 1101.719
350.5270, 990.2861
351.7290, 839.7412
352.9310, 689.0898
354.1320, 623.3369
355.3340, 619.2129
356.5350, 649.3154
357.7370, 657.2988
358.9380, 784.9785
360.1390, 696.4834
361.3400, 639.8525
362.5400, 776.0547
363.7410, 785.0967
364.9410, 795.8330
366.1410, 822.6836
367.3410, 802.0156
368.5410, 851.3662
369.7410, 819.5879
370.9400, 947.7285
372.1400, 871.8066
373.3390, 834.8330
374.5380, 853.7910
375.7370, 696.6299
376.9360, 675.3359
378.1350, 770.9512
379.3330, 542.5049
380.5310, 576.0322
381.7300, 290.5371
382.9280, 332.0176
384.1260, 316.4355
385.3230, 268.5996
386.5210, 248.3428
387.7180, 199.9150
388.9160, 188.1953
390.1130, 166.3311
391.3100, 158.6387
392.5060, 141.7021
393.7030, 113.8018
394.9000, 107.9277
396.0960, 10.96289
397.2920, 14.23926
398.4880, 34.01172
399.6840, 156.7012
400.8800, 47.51074
402.0750, 117.4424
403.2710, 120.3398
404.4660, 5.846680
405.6610, 54.28906
406.8560, 94.42676
408.0510, 30.66406
409.2450, 16.81348
410.4400, 130.1826
411.6340, 18.06641
412.8280, 63.76660
414.0220, 147.6631
415.2160, 107.1416
416.4100, 190.9277
417.6030, 252.7607
418.7970, 407.6152
419.9900, 336.3965
421.1830, 430.9482
422.3760, 369.7520
423.5690, 467.6787
424.7610, 577.6104
425.9540, 365.2822
427.1460, 509.9531
428.3380, 328.7061
429.5300, 330.9307
430.7220, 380.5752
431.9140, 334.9883
433.1050, 231.1621
434.2970, 391.1777
435.4880, 327.1045
436.6790, 165.3750
437.8700, 344.6104
439.0610, 265.8662
440.2510, 224.1641
441.4420, 318.0928
442.6320, 310.8320
443.8220, 394.8594
445.0120, 425.7402
446.2020, 654.3584
447.3910, 621.9980
448.5810, 734.3564
449.7700, 732.9785
450.9600, 787.5742
452.1490, 984.8613
453.3370, 883.4336
454.5260, 1191.075
455.7150, 1452.596
456.9030, 1516.799
458.0910, 1593.297
459.2800, 1985.328
460.4670, 2317.459
461.6550, 2766.462
462.8430, 3205.007
464.0300, 3748.014
465.2180, 4235.383
466.4050, 4805.812
467.5920, 5508.264
468.7790, 5973.742
469.9650, 6753.244
471.1520, 7238.314
472.3380, 7902.333
473.5250, 8152.916
474.7110, 8373.522
475.8970, 8516.156
477.0820, 8397.816
478.2680, 8047.500
479.4540, 7943.210
480.6390, 6886.949
481.8240, 6395.717
483.0090, 5754.511
484.1940, 5169.336
485.3780, 4779.188
486.5630, 4471.070
487.7470, 3901.983
488.9320, 3708.928
490.1160, 3458.901
491.3000, 3228.909
492.4830, 3140.953
493.6670, 3094.093
494.8500, 3069.007
496.0340, 3235.391
497.2170, 3132.628
498.4000, 3341.902
499.5820, 3329.213
500.7650, 3779.562
501.9480, 4179.951
503.1300, 4356.377
504.3120, 4899.852
505.4940, 5411.377
506.6760, 5957.943
507.8580, 6547.554
509.0390, 7093.238
510.2210, 7648.998
511.4020, 8013.826
512.5830, 7982.438
513.7640, 8063.782
514.9450, 7572.876
516.1250, 6988.045
517.3060, 6612.276
518.4860, 5952.605
519.6660, 5211.004
520.8460, 4536.482
522.0260, 3991.060
523.2060, 3609.717
524.3850, 3469.461
525.5650, 2613.271
526.7440, 2445.816
527.9230, 2620.199
529.1020, 1792.308
530.2810, 1533.493
531.4590, 1337.768
532.6380, 1239.112
533.8160, 932.5234
534.9940, 857.0039
536.1720, 806.5732
537.3500, 545.2275
538.5270, 503.9785
539.7050, 505.5391
540.8820, 226.4697
542.0590, 172.1104
543.2360, 401.2305
544.4130, 116.0293
545.5900, 270.9004
546.7660, 192.3066
547.9430, 141.8232
549.1190, 164.2451
550.2950, 314.4766
551.4710, 345.3057
552.6470, 283.8818
553.8220, 206.8779
554.9980, 258.9434
556.1730, 371.0957
557.3480, 408.3213
558.5230, 570.6348
559.6980, 621.9717
560.8730, 585.4775
562.0470, 765.0107
563.2220, 799.6055
564.3960, 855.2822
565.5700, 1258.024
566.7440, 1307.851
567.9170, 1380.760
569.0910, 1481.739
570.2640, 1578.792
571.4380, 1802.927
572.6110, 1992.134
573.7840, 2081.414
574.9570, 2054.765
576.1290, 2114.178
577.3020, 2008.651
578.4740, 2103.184
579.6460, 1966.774
580.8180, 2041.433
581.9900, 1891.150
583.1620, 1821.929
584.3330, 1741.768
585.5040, 1697.684
586.6760, 1541.699
587.8470, 1577.832
589.0180, 1634.120
590.1880, 1621.547
591.3590, 1733.875
592.5290, 1825.940
593.7000, 1953.925
594.8700, 2121.201
596.0400, 2276.711
597.2090, 2472.753
598.3790, 2786.297
599.5490, 3021.949
600.7180, 3418.678
601.8870, 3625.469
603.0560, 4109.312
604.2250, 4490.049
605.3940, 5176.154
606.5620, 5438.152
607.7300, 5994.201
608.8990, 6615.300
610.0670, 6961.449
611.2350, 7237.646
612.4020, 7523.898
613.5700, 8094.193
614.7370, 8199.539
615.9050, 8419.936
617.0720, 8300.380
618.2390, 8109.871
619.4060, 7877.411
620.5720, 7760.535
621.7390, 7297.169
622.9050, 7090.851
624.0710, 6677.578
625.2370, 6125.402
626.4030, 5699.224
627.5690, 5309.090
628.7340, 4830.002
629.9000, 4576.759
631.0650, 4262.471
632.2300, 4065.675
633.3950, 3775.711
634.5600, 3520.474
635.7240, 3239.798
636.8890, 3045.926
638.0530, 3018.188
639.2170, 2734.492
640.3810, 2802.836
641.5450, 2530.425
642.7080, 2630.851
643.8720, 2484.150
645.0350, 2580.383
646.1980, 2411.039
647.3610, 2444.920
648.5240, 2518.635
649.6870, 2475.156
650.8490, 2574.105
652.0120, 2477.147
653.1740, 2590.615
654.3360, 2535.692
655.4980, 2498.288
656.6600, 2416.512
657.8210, 2534.342
658.9830, 2394.663
660.1440, 2327.827
661.3050, 2375.201
662.4660, 2554.070
663.6270, 2382.765
664.7870, 2191.417
665.9480, 1930.547
667.1080, 2262.753
668.2680, 2471.293
669.4280, 2549.034
670.5880, 2139.423
671.7480, 2358.030
672.9070, 2321.995
674.0670, 2275.881
675.2260, 2677.828
676.3850, 2657.287
677.5440, 2923.194
678.7030, 3027.230
679.8610, 3169.052
681.0200, 3458.062
682.1780, 3559.510
683.3360, 3644.842
684.4940, 3854.549
685.6520, 4126.113
686.8090, 4043.395
687.9670, 4152.770
689.1240, 3931.100
690.2810, 3952.963
691.4380, 3869.339
692.5950, 3683.057
693.7520, 3489.440
694.9080, 3469.073
696.0650, 3336.986
697.2210, 3113.938
698.3770, 2813.300
699.5330, 2886.258
700.6880, 2704.060
701.8440, 2501.701
702.9990, 2453.244
704.1550, 2167.275
705.3100, 2254.035
706.4650, 2106.771
707.6190, 1897.123
708.7740, 1996.891
709.9290, 1767.759
711.0830, 1769.649
712.2370, 1464.993
713.3910, 1438.946
714.5450, 1273.486
715.6980, 1299.186
716.8520, 1263.982
718.0050, 1036.751
719.1580, 993.9951
720.3110, 956.3740
721.4640, 805.9521
722.6170, 737.7354
723.7700, 705.7607
724.9220, 585.9619
726.0740, 644.2021
727.2260, 469.6396
728.3780, 401.1504
729.5300, 462.5596
730.6810, 366.4521
731.8330, 370.8311
732.9840, 307.5166
734.1350, 303.0918
735.2860, 195.5088
736.4370, 128.9492
737.5880, 205.2334
738.7380, 199.4951
739.8880, 282.7354
741.0390, 250.8223
742.1890, 158.1650
743.3380, 187.3350
744.4880, 191.4824
745.6380, 153.5352
746.7870, 440.7031
747.9360, 122.9316
749.0850, 74.97754
750.2340, 248.9980
751.3830, 29.99219
752.5310, 85.98828
753.6800, 61.92676
754.8280, 55.83789
755.9760, 8.719727
757.1240, 10.57324
758.2720, 26.60352
759.4190, 114.1846
760.5670, 116.9414
761.7140, 146.6670
762.8610, 0.6376950
764.0080, 133.0254
765.1550, 34.65723
766.3020, 60.25586
767.4480, 86.82129
768.5950, 35.35449
769.7410, 18.14648
770.8870, 126.6885
772.0330, 21.67188
773.1780, 16.00195
774.3240, 71.72070
775.4690, 51.48926
776.6140, 121.6631
777.7590, 65.80078
778.9040, 12.90332
780.0490, 69.96680
781.1940, 8.005859
782.3380, 22.02734
783.4820, 53.89453
784.6260, 14.77832
785.7700, 85.37988
786.9140, 95.62988
788.0580, 67.98340
789.2010, 194.4229
790.3450, 135.0186
791.4880, 61.73926
792.6310, 69.54785
793.7730, 28.51367
794.9160, 147.4258
796.0590, 41.53711
797.2010, 68.73047
798.3430, 156.0215
799.4850, 69.45703
800.6270, 86.99219
801.7690, 20.63867
802.9100, 193.3613
804.0520, 51.25098
805.1930, 147.2354
806.3340, 18.36719
807.4750, 69.57617
808.6160, 20.10742
809.7560, 41.72852
810.8970, 34.29688
812.0370, 46.19238
813.1770, 32.78125
814.3170, 38.45898
815.4570, 7.235352
816.5960, 82.09082
817.7360, 4.065430
818.8750, 73.12109
820.0140, 6.292969
821.1530, 74.54688
822.2920, 54.92090
823.4310, 33.40332
824.5690, 1.986328
825.7070, 40.34961
826.8460, 55.37988
827.9840, 18.77930
829.1220, 3.136719
830.2590, 82.86230
831.3970, 39.77051
832.5340, 63.30371
833.6710, 19.50391
834.8080, 51.21484
835.9450, 65.86816
837.0820, 18.45996
838.2190, 209.9736
839.3550, 9.561523
840.4910, 124.8105
841.6270, 4.128906
842.7630, 107.3613
843.8990, 169.5381
845.0350, 185.6631
846.1700, 161.7383
847.3060, 156.7627
848.4410, 106.7344
849.5760, 141.6494
850.7100, 260.5127
851.8450, 201.3262
852.9800, 177.0898
854.1140, 182.8018
855.2480, 70.46387
856.3820, 108.7012
857.5160, 224.5996
858.6500, 174.0889
859.7830, 108.5264
860.9170, 237.9062
862.0500, 219.2373
863.1830, 287.5186
864.3160, 228.7500
865.4480, 263.9316
866.5810, 143.0654
867.7130, 281.1445
868.8460, 174.1758
869.9780, 196.1543
871.1100, 230.0820
872.2410, 219.9619
873.3730, 365.7910
874.5050, 254.5713
875.6360, 265.3018
876.7670, 363.9863
877.8980, 249.6201
879.0290, 374.2080
880.1590, 437.7461
881.2900, 262.2363
882.4200, 303.6787
883.5500, 217.0723
884.6800, 414.4180
885.8100, 371.7158
886.9400, 369.9668
888.0690, 247.1689
889.1990, 378.3242
890.3280, 407.4326
891.4570, 454.4922
892.5860, 415.5059
893.7140, 469.4736
894.8430, 528.8584
895.9710, 441.7324
897.1000, 452.5596
898.2280, 465.3408
899.3560, 531.0254
900.4830, 561.7148
901.6110, 591.6064
902.7380, 608.1904
903.8660, 620.8818
904.9930, 616.2061
906.1200, 622.0850
907.2460, 624.6387
908.3730, 607.0645
909.5000, 611.7842
910.6260, 621.7070
911.7520, 598.6787
912.8780, 669.0469
914.0040, 668.3721
915.1290, 717.4531
916.2550, 678.6924
917.3800, 727.0586
918.5050, 695.4873
919.6300, 778.4883
920.7550, 659.2637
921.8800, 619.2031
923.0040, 607.3584
924.1290, 731.0967
925.2530, 695.7383
926.3770, 784.9482
927.5010, 770.6064
928.6250, 790.7305
929.7480, 890.1152
930.8720, 825.0000
931.9950, 894.3877
933.1180, 947.9639
934.2410, 803.9229
935.3640, 1108.194
936.4860, 1013.234
937.6090, 1093.312
938.7310, 1222.421
939.8530, 1173.081
940.9750, 1271.963
942.0970, 1243.859
943.2180, 1345.293
944.3400, 1496.101
945.4610, 1480.602
946.5820, 1549.772
947.7030, 1550.247
948.8240, 1666.459
949.9450, 1614.217
951.0650, 1724.834
952.1860, 1682.659
953.3060, 1597.288
954.4260, 1549.492
955.5460, 1566.804
956.6650, 1538.746
957.7850, 1592.838
958.9040, 1529.200
960.0230, 1507.468
961.1420, 1518.782
962.2610, 1470.550
963.3800, 1478.797
964.4990, 1479.705
965.6170, 1461.932
966.7350, 1430.896
967.8530, 1390.567
968.9710, 1392.188
970.0890, 1271.381
971.2070, 1223.965
972.3240, 1304.690
973.4410, 1228.561
974.5580, 1343.514
975.6750, 1298.965
976.7920, 1233.672
977.9090, 1129.866
979.0250, 1214.466
980.1410, 1011.116
981.2580, 1018.647
982.3740, 863.1406
983.4890, 909.1611
984.6050, 955.5576
985.7200, 858.3467
986.8360, 777.9600
987.9510, 771.4570
989.0660, 583.9629
990.1810, 757.9736
991.2950, 763.8320
992.4100, 802.4707
993.5240, 689.8848
994.6390, 778.6689
995.7530, 744.3242
996.8660, 757.2705
997.9800, 777.5703
999.0940, 817.1543
1000.207, 859.8164
1001.320, 912.9746
1002.433, 779.6201
1003.546, 724.9375
1004.659, 731.3379
1005.772, 644.8721
1006.884, 676.3555
1007.996, 585.9697
1009.108, 591.5781
1010.220, 631.1807
1011.332, 553.7793
1012.444, 639.3525
1013.555, 713.9414
1014.666, 737.5254
1015.777, 683.8867
1016.888, 586.6816
1017.999, 523.0996
1019.110, 585.6689
1020.220, 570.2354
1021.331, 397.7998
1022.441, 579.3320
1023.551, 492.8906
1024.661, 424.4492
1025.770, 638.0059
1026.880, 586.5605
1027.989, 575.1143
1029.098, 508.6719
1030.207, 525.2275
1031.316, 440.7842
1032.425, 512.3398
1033.533, 550.8975
1034.642, 554.6377
1035.750, 431.1953
1036.858, 435.7539
1037.966, 616.3125
1039.073, 535.9170
1040.181, 623.4824
1041.288, 729.7188
1042.396, 587.7148
1043.503, 653.8594
1044.610, 516.9248
1045.716, 551.5508
1046.823, 827.1787
1047.929, 726.7578
1049.036, 778.4395
1050.142, 839.0732
1051.248, 591.7158
1052.353, 723.3691
1053.459, 658.0264
1054.564, 621.6875
1055.670, 680.9287
1056.775, 692.2422
1057.880, 731.9941
1058.985, 712.8096
1060.089, 759.6699
1061.194, 776.5596
1062.298, 674.7031
1063.402, 738.6416
1064.506, 845.6338
1065.610, 957.6758
1066.713, 817.7236
1067.817, 832.5645
1068.920, 863.7012
1070.023, 795.8750
1071.126, 747.0703
1072.229, 798.3330
1073.332, 745.5576
1074.435, 721.4229
1075.537, 733.8584
1076.639, 775.2686
1077.741, 641.6914
1078.843, 837.1260
1079.945, 1033.572
1081.046, 801.0508
1082.148, 802.5596
1083.249, 839.1006
1084.350, 732.7236
1085.451, 774.3311
1086.551, 632.9629
1087.652, 779.6377
1088.752, 719.3359
1089.853, 766.0791
1090.953, 713.8604
1092.053, 641.8975
1093.152, 590.7383
1094.252, 688.5967
1095.351, 788.4941
1096.451, 729.4141
1097.550, 771.3604
1098.649, 596.3184
1099.748, 623.2959
1100.846, 611.2881
1101.945, 556.3125
1103.043, 672.3555
1104.141, 600.4131
1105.239, 576.4951
1106.337, 534.5859
1107.434, 576.7090
1108.532, 550.8447
1109.629, 438.0078
1110.726, 316.1846
1111.823, 535.3721
1112.920, 610.5713
1114.017, 552.7812
1115.113, 699.0020
1116.210, 737.2373
1117.306, 716.4844
1118.402, 729.7432
1119.498, 702.0117
1120.593, 769.2930
1121.689, 672.5869
1122.784, 854.8994
1123.879, 813.2246
1124.974, 724.5625
1126.069, 582.9131
1127.164, 709.2793
1128.259, 465.6572
1129.353, 464.0459
1130.447, 392.4463
1131.541, 452.8594
1132.635, 391.2832
1133.729, 287.7207
1134.822, 491.1709
1135.916, 295.6338
1137.009, 192.1104
1138.102, 366.5996
1139.195, 235.1006
1140.288, 261.1240
1141.380, 230.2510
1142.473, 250.6787
1143.565, 257.7100
1144.657, 190.7920
1145.749, 296.3672
1146.841, 263.9551
1147.932, 311.5557
1149.024, 152.1680
1150.115, 246.7949
1151.206, 140.4336
1152.297, 77.08594
1153.388, 242.7500
1154.479, 107.4277
1155.569, 146.1172
1156.659, 85.82031
1157.750, 124.7969
1158.839, 151.2666
1159.929, 208.0088
1161.019, 145.7627
1162.108, 96.53027
1163.198, 139.3125
1164.287, 99.10645
1165.376, 204.7471
1166.465, 89.39551
1167.553, 253.7617
1168.642, 295.3223
1169.730, 153.7842
1170.818, 30.67090
1171.906, 38.78906
1172.994, 118.6748
1174.082, 154.9209
1175.170, 222.8896
1176.257, 45.02539
1177.344, 55.14355
1178.431, 183.2754
1179.518, 55.91992
1180.605, 7.496094
1181.691, 214.6562
1182.778, 280.3193
1183.864, 123.6055
1184.950, 259.3145
1186.036, 127.4023
1187.122, 55.71387
1188.207, 213.7520
1189.292, 69.87207
1190.378, 210.2334
1191.463, 242.3584
1192.548, 217.4541
1193.632, 178.1895
1194.717, 203.8438
1195.801, 150.3877
1196.886, 99.46094
1197.970, 57.94922
1199.054, 61.62793
1200.137, 134.2158
1201.221, 46.81641
1202.305, 36.03809
1203.388, 20.95117
1204.471, 53.32812
1205.554, 1.282227
1206.637, 189.9014
1207.719, 43.53125
1208.802, 129.1709
1209.884, 35.82227
1210.966, 58.48340
1212.048, 77.15527
1213.130, 55.83789
1214.212, 1.531250
1215.293, 73.23242
1216.374, 134.9443
1217.456, 18.68066
1218.536, 73.42578
1219.617, 89.18164
1220.698, 90.94824
1221.778, 47.27734
1222.859, 129.5059
1223.939, 54.29883
1225.019, 82.10156
1226.099, 265.9131
1227.178, 152.7432
1228.258, 99.58203
1229.337, 96.42969
1230.417, 104.2871
1231.496, 138.1523
1232.574, 202.0283
1233.653, 212.9121
1234.732, 73.80469
1235.810, 163.7070
1236.888, 249.6465
1237.966, 132.5957
1239.044, 219.5654
1240.122, 348.5439
1241.199, 106.5322
1242.277, 231.5283
1243.354, 71.53223
1244.431, 129.5449
1245.508, 34.56641
1246.585, 207.5967
1247.661, 93.63379
1248.738, 329.6816
1249.814, 114.7363
1250.890, 124.7988
1251.966, 98.87207
1253.042, 137.9512
1254.117, 189.0400
1255.193, 173.5576
1256.268, 196.7451
1257.343, 199.3643
1258.418, 184.4990
1259.493, 235.1074
1260.567, 211.2275
1261.642, 270.9971
1262.716, 160.1855
1263.790, 142.3828
1264.864, 252.5869
1265.938, 46.80078
1267.011, 94.02246
1268.085, 177.2520
1269.158, 149.4912
1270.231, 86.74023
1271.304, 54.00000
1272.377, 76.26660
1273.450, 65.65332
1274.522, 113.8271
1275.594, 155.1182
1276.666, 6.416992
1277.738, 131.7236
1278.810, 220.0371
1279.882, 60.35938
1280.953, 28.68848
1282.025, 82.02344
1283.096, 170.3662
1284.167, 51.71582
1285.238, 41.07129
1286.308, 65.43555
1287.379, 25.20605
1288.449, 117.1816
1289.519, 67.56641
1290.589, 200.9590
1291.659, 302.3564
1292.729, 257.7607
1293.798, 67.17188
1294.868, 70.40723
1295.937, 136.8311
1297.006, 184.2598
1298.075, 163.6953
1299.143, 216.5547
1300.212, 226.0732
1301.280, 247.3604
1302.348, 239.8848
1303.416, 189.5537
1304.484, 138.4307
1305.552, 244.8750
1306.620, 307.3672
1307.687, 292.8652
1308.754, 438.3691
1309.821, 201.8799
1310.888, 216.3984
1311.955, 362.9219
1313.021, 264.4521
1314.088, 350.9873
1315.154, 317.9844
1316.220, 271.9521
1317.286, 303.5117
1318.352, 444.0781
1319.417, 457.6475
1320.483, 431.2246
1321.548, 453.5791
1322.613, 461.2666
1323.678, 437.4834
1324.743, 477.3447
1325.807, 391.9609
1326.872, 352.8506
1327.936, 341.4883
1329.000, 494.1367
1330.064, 376.7959
1331.128, 401.4639
1332.191, 577.2129
1333.255, 502.4893
1334.318, 512.0762
1335.381, 551.7383
1336.444, 421.4619
1337.507, 457.2490
1338.569, 452.0195
1339.632, 501.7744
1340.694, 599.5400
1341.756, 419.3164
1342.818, 722.0918
1343.880, 701.8896
1344.941, 548.1016
1346.003, 472.9209
