##NAMES=Braunite
##RRUFFID=R050390
##IDEAL CHEMISTRY=Mn^2+^Mn^3+^_6_SiO_12_
##LOCALITY=Oehrenstock, Thuringia, Germany
##OWNER=RRUFF
##SOURCE=University of Arizona Mineral Museum
##DESCRIPTION=Mass of black octahedra
##STATUS=The identification of this mineral has been confirmed by X-ray diffraction and chemical analysis
##URL=rruff.info/R050390
##MEASURED CHEMISTRY=(Mn^2+^_0.83_Ca_0.17_)_Î£=1_Mn^3+^_6.00_Si_1.00_O_12_
##PIN_ID=M00380
##ORIENTATION=Laser parallel to c* (0 0 1). Fiducial mark perpendicular to laser is parallel to a [1 0 0]
298.6930, 0.0000000E+00
299.9020, 228.3867
301.1110, 0.4140630
302.3190, 142.3887
303.5270, 230.7461
304.7350, 213.6074
305.9430, 281.6113
307.1510, 321.8125
308.3580, 332.4648
309.5660, 326.1484
310.7730, 354.2500
311.9800, 46.36719
313.1870, 77.58203
314.3940, 115.0488
315.6010, 57.30469
316.8070, 356.2383
318.0130, 103.4609
319.2200, 132.2188
320.4260, 424.4004
321.6310, 143.9297
322.8370, 583.7520
324.0430, 581.8320
325.2480, 718.5273
326.4540, 614.6875
327.6590, 979.6875
328.8640, 957.2715
330.0680, 1037.135
331.2730, 1161.871
332.4780, 1220.068
333.6820, 1351.758
334.8860, 1421.871
336.0900, 1441.805
337.2940, 1515.594
338.4980, 1420.260
339.7010, 1433.484
340.9050, 1430.021
342.1080, 1425.734
343.3110, 1383.119
344.5140, 1344.068
345.7170, 1314.195
346.9200, 1213.184
348.1220, 1186.551
349.3240, 1091.283
350.5270, 1013.287
351.7290, 980.8242
352.9310, 873.5488
354.1320, 776.5586
355.3340, 715.5898
356.5350, 585.7715
357.7370, 626.2285
358.9380, 365.6543
360.1390, 536.0020
361.3400, 384.6543
362.5400, 536.5059
363.7410, 561.7461
364.9410, 498.8203
366.1410, 484.0801
367.3410, 358.5176
368.5410, 534.1367
369.7410, 352.2539
370.9400, 612.2246
372.1400, 490.3047
373.3390, 645.4824
374.5380, 492.7676
375.7370, 466.1504
376.9360, 544.6328
378.1350, 499.2148
379.3330, 640.8711
380.5310, 516.6035
381.7300, 625.4453
382.9280, 479.3984
384.1260, 324.4707
385.3230, 701.6543
386.5210, 399.9551
387.7180, 180.3652
388.9160, 264.8945
390.1130, 485.5332
391.3100, 396.2871
392.5060, 577.1230
393.7030, 531.1309
394.9000, 656.2266
396.0960, 366.4316
397.2920, 85.75195
398.4880, 100.1855
399.6840, 239.7266
400.8800, 21.62305
402.0750, 276.1309
403.2710, 29.99023
404.4660, 109.0430
405.6610, 135.9688
406.8560, 51.78320
408.0510, 122.6758
409.2450, 53.92578
410.4400, 35.54883
411.6340, 75.90625
412.8280, 141.8574
414.0220, 121.2559
415.2160, 265.2480
416.4100, 33.89453
417.6030, 2.832031
418.7970, 250.4277
419.9900, 134.8906
421.1830, 200.2188
422.3760, 56.42969
423.5690, 315.4727
424.7610, 508.4277
425.9540, 118.4629
427.1460, 135.6055
428.3380, 134.1484
429.5300, 225.1133
430.7220, 158.4629
431.9140, 257.8262
433.1050, 90.27734
434.2970, 482.8633
435.4880, 398.5664
436.6790, 115.3848
437.8700, 407.3340
439.0610, 5.414063
440.2510, 12.37695
441.4420, 90.14648
442.6320, 335.6270
443.8220, 375.2480
445.0120, 239.8184
446.2020, 649.5625
447.3910, 289.3145
448.5810, 258.1191
449.7700, 387.9863
450.9600, 367.6191
452.1490, 765.3848
453.3370, 729.2812
454.5260, 948.3008
455.7150, 736.2480
456.9030, 603.5020
458.0910, 901.8633
459.2800, 756.5723
460.4670, 985.1406
461.6550, 905.8086
462.8430, 1020.568
464.0300, 770.4238
465.2180, 1120.369
466.4050, 1147.656
467.5920, 1270.535
468.7790, 1375.752
469.9650, 1116.049
471.1520, 985.4023
472.3380, 1131.086
473.5250, 1451.377
474.7110, 1461.955
475.8970, 1241.598
477.0820, 1559.309
478.2680, 1477.090
479.4540, 1684.941
480.6390, 1567.863
481.8240, 1819.859
483.0090, 1839.965
484.1940, 1949.068
485.3780, 2010.283
486.5630, 2100.574
487.7470, 2270.963
488.9320, 2206.998
490.1160, 2153.967
491.3000, 2145.580
492.4830, 2420.270
493.6670, 2474.021
494.8500, 2136.818
496.0340, 2431.662
497.2170, 2272.531
498.4000, 2364.441
499.5820, 2307.412
500.7650, 2164.355
501.9480, 2599.332
503.1300, 2468.279
504.3120, 2712.359
505.4940, 2639.539
506.6760, 2747.277
507.8580, 2793.535
509.0390, 2990.637
510.2210, 2920.197
511.4020, 3127.879
512.5830, 3381.660
513.7640, 3405.574
514.9450, 3420.592
516.1250, 3437.721
517.3060, 3432.436
518.4860, 3670.318
519.6660, 3523.787
520.8460, 3661.361
522.0260, 3958.029
523.2060, 3718.822
524.3850, 3606.699
525.5650, 3639.676
526.7440, 3647.852
527.9230, 3299.246
529.1020, 3499.844
530.2810, 3309.641
531.4590, 3059.594
532.6380, 3205.660
533.8160, 3088.832
534.9940, 2862.078
536.1720, 3223.426
537.3500, 3249.848
538.5270, 2695.406
539.7050, 2371.043
540.8820, 2446.750
542.0590, 2322.578
543.2360, 2452.629
544.4130, 2482.621
545.5900, 2392.707
546.7660, 2284.895
547.9430, 2242.102
549.1190, 2182.750
550.2950, 2261.805
551.4710, 2382.238
552.6470, 2261.750
553.8220, 2092.027
554.9980, 2265.660
556.1730, 2151.469
557.3480, 2518.012
558.5230, 2262.836
559.6980, 2361.629
560.8730, 2394.328
562.0470, 2378.215
563.2220, 2361.508
564.3960, 2218.359
565.5700, 2228.559
566.7440, 2563.820
567.9170, 2591.820
569.0910, 2890.129
570.2640, 3058.512
571.4380, 3111.219
572.6110, 2686.688
573.7840, 2878.539
574.9570, 2823.457
576.1290, 2758.297
577.3020, 3037.078
578.4740, 2682.254
579.6460, 2955.676
580.8180, 2247.355
581.9900, 1799.703
583.1620, 1416.773
584.3330, 1690.902
585.5040, 1479.098
586.6760, 1280.355
587.8470, 1035.672
589.0180, 1248.055
590.1880, 1163.496
591.3590, 1439.996
592.5290, 1373.559
593.7000, 1480.180
594.8700, 1407.863
596.0400, 1409.605
597.2090, 1572.402
598.3790, 1416.258
599.5490, 1570.180
600.7180, 1769.172
601.8870, 1528.219
603.0560, 1686.324
604.2250, 1900.484
605.3940, 1908.699
606.5620, 1965.965
607.7300, 2039.289
608.8990, 2241.664
610.0670, 2312.090
611.2350, 2502.570
612.4020, 2934.102
613.5700, 2982.684
614.7370, 3404.316
615.9050, 3537.000
617.0720, 3810.730
618.2390, 4115.516
619.4060, 4285.348
620.5720, 4795.227
621.7390, 5256.152
622.9050, 5453.129
624.0710, 5514.152
625.2370, 5804.219
626.4030, 6146.336
627.5690, 6294.672
628.7340, 6487.488
629.9000, 6434.129
631.0650, 6671.426
632.2300, 6640.766
633.3950, 6610.148
634.5600, 6762.629
635.7240, 6555.418
636.8890, 6529.926
638.0530, 6031.477
639.2170, 5849.633
640.3810, 5930.262
641.5450, 7427.008
642.7080, 6003.719
643.8720, 7446.848
645.0350, 4650.039
646.1980, 4128.562
647.3610, 4114.188
648.5240, 3772.082
649.6870, 3941.270
650.8490, 3718.000
652.0120, 3728.773
653.1740, 3062.785
654.3360, 3140.070
655.4980, 2585.855
656.6600, 2576.023
657.8210, 2470.051
658.9830, 2270.848
660.1440, 2369.379
661.3050, 2165.465
662.4660, 2135.582
663.6270, 2204.559
664.7870, 2184.160
665.9480, 2008.680
667.1080, 2231.164
668.2680, 2151.801
669.4280, 2160.859
670.5880, 2249.059
671.7480, 2040.000
672.9070, 2209.047
674.0670, 2049.500
675.2260, 2123.875
676.3850, 2294.160
677.5440, 2078.430
678.7030, 2097.781
679.8610, 2242.238
681.0200, 2349.969
682.1780, 2303.039
683.3360, 2573.418
684.4940, 2434.434
685.6520, 2729.180
686.8090, 2758.453
687.9670, 3062.973
689.1240, 3120.742
690.2810, 2908.113
691.4380, 2935.660
692.5950, 3241.215
693.7520, 3076.977
694.9080, 3174.535
696.0650, 3657.113
697.2210, 3511.730
698.3770, 3767.344
699.5330, 3690.383
700.6880, 3488.031
701.8440, 3542.695
702.9990, 3911.379
704.1550, 3537.070
705.3100, 3706.750
706.4650, 3413.637
707.6190, 3345.152
708.7740, 3400.965
709.9290, 3051.637
711.0830, 3241.301
712.2370, 2868.957
713.3910, 2886.602
714.5450, 2752.332
715.6980, 2366.961
716.8520, 2509.578
718.0050, 2231.184
719.1580, 2188.777
720.3110, 1924.363
721.4640, 1839.938
722.6170, 1702.496
723.7700, 1576.047
724.9220, 1362.582
726.0740, 1286.105
727.2260, 1134.613
728.3780, 1252.105
729.5300, 769.5859
730.6810, 861.0469
731.8330, 995.4961
732.9840, 641.9297
734.1350, 598.3438
735.2860, 571.7461
736.4370, 594.1289
737.5880, 676.4922
738.7380, 620.8398
739.8880, 486.1641
741.0390, 278.4766
742.1890, 254.9570
743.3380, 529.6797
744.4880, 678.1133
745.6380, 707.0625
746.7870, 258.6953
747.9360, 426.6445
749.0850, 347.5742
750.2340, 258.3516
751.3830, 512.9766
752.5310, 133.9492
753.6800, 383.0742
754.8280, 381.4336
755.9760, 494.5234
757.1240, 359.0820
758.2720, 300.3750
759.4190, 490.2500
760.5670, 306.5430
761.7140, 767.4609
762.8610, 858.3477
764.0080, 233.2148
765.1550, 57.94922
766.3020, 195.8125
767.4480, 240.5469
768.5950, 82.25781
769.7410, 470.9375
770.8870, 161.8047
772.0330, 15.77734
773.1780, 150.2070
774.3240, 308.2266
775.4690, 367.6406
776.6140, 54.97656
777.7590, 90.32031
778.9040, 141.4062
780.0490, 157.7383
781.1940, 208.1484
782.3380, 2.796875
783.4820, 68.30859
784.6260, 84.50781
785.7700, 158.1836
786.9140, 9.148438
788.0580, 98.54297
789.2010, 34.05078
790.3450, 132.6367
791.4880, 40.35156
792.6310, 63.35938
793.7730, 84.46875
794.9160, 42.03906
796.0590, 90.11719
797.2010, 50.30859
798.3430, 1.410156
799.4850, 111.9297
800.6270, 23.60547
801.7690, 22.90625
802.9100, 403.5000
804.0520, 482.3594
805.1930, 428.5098
806.3340, 419.9609
807.4750, 254.7617
808.6160, 75.71094
809.7560, 77.76172
810.8970, 92.08594
812.0370, 36.10156
813.1770, 43.62500
814.3170, 194.6836
815.4570, 39.84375
816.5960, 295.3242
817.7360, 140.2227
818.8750, 0.9062500
820.0140, 10.35547
821.1530, 35.44141
822.2920, 185.6875
823.4310, 76.08594
824.5690, 138.8477
825.7070, 23.88281
826.8460, 159.8672
827.9840, 198.8242
829.1220, 105.7500
830.2590, 54.64453
831.3970, 134.5039
832.5340, 200.3320
833.6710, 143.1367
834.8080, 270.3008
835.9450, 33.64453
837.0820, 336.3477
838.2190, 304.0195
839.3550, 105.6641
840.4910, 216.2773
841.6270, 84.85938
842.7630, 34.41406
843.8990, 134.9336
845.0350, 219.4297
846.1700, 173.8906
847.3060, 294.3281
848.4410, 59.73438
849.5760, 365.1133
850.7100, 19.53906
851.8450, 162.7578
852.9800, 183.0000
854.1140, 312.2734
855.2480, 223.4883
856.3820, 202.6758
857.5160, 83.83594
858.6500, 34.96875
859.7830, 334.0781
860.9170, 497.1562
862.0500, 391.0039
863.1830, 191.2461
864.3160, 157.2500
865.4480, 342.2305
866.5810, 141.1836
867.7130, 320.1133
868.8460, 160.0234
869.9780, 165.9023
871.1100, 242.7617
872.2410, 200.5977
873.3730, 127.4141
874.5050, 76.20312
875.6360, 70.02734
876.7670, 74.18750
877.8980, 176.4492
879.0290, 201.1562
880.1590, 483.8438
881.2900, 689.5078
882.4200, 1096.152
883.5500, 687.7773
884.6800, 230.3828
885.8100, 59.96875
886.9400, 91.78516
888.0690, 579.0820
889.1990, 504.6094
890.3280, 421.1211
891.4570, 702.6172
892.5860, 421.0977
893.7140, 313.5547
894.8430, 338.9961
895.9710, 341.4219
897.1000, 379.8359
898.2280, 331.2266
899.3560, 448.6055
900.4830, 256.9688
901.6110, 618.1406
902.7380, 571.4766
903.8660, 584.8008
904.9930, 381.1055
906.1200, 242.4023
907.2460, 740.6797
908.3730, 462.8984
909.5000, 565.8359
910.6260, 730.0820
911.7520, 633.3203
912.8780, 682.9844
914.0040, 742.2070
915.1290, 760.3438
916.2550, 434.5430
917.3800, 756.3672
918.5050, 604.1523
919.6300, 712.0625
920.7550, 811.0586
921.8800, 847.2383
923.0040, 1001.164
924.1290, 827.5664
925.2530, 756.9688
926.3770, 794.0469
927.5010, 1074.105
928.6250, 751.5820
929.7480, 1012.711
930.8720, 930.4805
931.9950, 800.2109
933.1180, 838.4258
934.2410, 967.7617
935.3640, 1174.090
936.4860, 902.5938
937.6090, 925.5000
938.7310, 1134.520
939.8530, 809.6016
940.9750, 1164.086
942.0970, 1168.133
943.2180, 984.5938
944.3400, 1152.340
945.4610, 1214.004
946.5820, 1102.297
947.7030, 1125.691
948.8240, 1409.203
949.9450, 1443.770
951.0650, 1205.273
952.1860, 1445.707
953.3060, 1400.891
954.4260, 1440.762
955.5460, 1636.363
956.6650, 1605.355
957.7850, 1501.934
958.9040, 1610.488
960.0230, 1523.145
961.1420, 1606.246
962.2610, 1655.660
963.3800, 1723.359
964.4990, 1805.227
965.6170, 1774.926
966.7350, 1883.848
967.8530, 1770.855
968.9710, 1797.316
970.0890, 1753.562
971.2070, 1749.621
972.3240, 1769.754
973.4410, 1732.918
974.5580, 1815.363
975.6750, 1946.352
976.7920, 1922.617
977.9090, 1993.707
979.0250, 1946.039
980.1410, 1918.410
981.2580, 2097.809
982.3740, 1762.238
983.4890, 1981.723
984.6050, 1884.242
985.7200, 1925.703
986.8360, 1934.316
987.9510, 1933.965
989.0660, 1912.348
990.1810, 1913.367
991.2950, 1887.145
992.4100, 1827.957
993.5240, 1932.820
994.6390, 1811.715
995.7530, 1898.648
996.8660, 1894.625
997.9800, 1925.652
999.0940, 1928.746
1000.207, 2030.895
1001.320, 2110.086
1002.433, 1663.324
1003.546, 1972.652
1004.659, 1796.055
1005.772, 1891.543
1006.884, 1946.102
1007.996, 1708.703
1009.108, 1772.363
1010.220, 2064.062
1011.332, 1876.273
1012.444, 2295.594
1013.555, 1751.426
1014.666, 1861.105
1015.777, 1838.781
1016.888, 1823.168
1017.999, 1655.168
1019.110, 1906.219
1020.220, 1597.309
1021.331, 1635.445
1022.441, 1754.625
1023.551, 1594.855
1024.661, 1794.125
1025.770, 1743.441
1026.880, 1898.805
1027.989, 1759.211
1029.098, 1792.680
1030.207, 1825.199
1031.316, 1736.133
1032.425, 1967.395
1033.533, 1728.059
1034.642, 1630.785
1035.750, 1807.578
1036.858, 1650.422
1037.966, 1682.039
1039.073, 1692.461
1040.181, 1702.281
1041.288, 1677.375
1042.396, 1811.547
1043.503, 1825.832
1044.610, 2003.172
1045.716, 1960.559
1046.823, 1966.293
1047.929, 2376.805
1049.036, 1998.418
1050.142, 2024.078
1051.248, 2001.875
1052.353, 2376.734
1053.459, 2090.676
1054.564, 2055.750
1055.670, 2218.824
1056.775, 2042.410
1057.880, 2312.508
1058.985, 1929.578
1060.089, 2565.008
1061.194, 2483.512
1062.298, 2165.098
1063.402, 2278.770
1064.506, 2231.523
1065.610, 2044.363
1066.713, 2405.281
1067.817, 2240.152
1068.920, 2086.438
1070.023, 2293.578
1071.126, 2276.797
1072.229, 2443.180
1073.332, 2192.762
1074.435, 2523.719
1075.537, 2110.656
1076.639, 2104.723
1077.741, 2098.875
1078.843, 2380.113
1079.945, 2032.402
1081.046, 2127.777
1082.148, 2303.211
1083.249, 2073.762
1084.350, 1804.500
1085.451, 2074.160
1086.551, 1929.918
1087.652, 2139.742
1088.752, 1879.629
1089.853, 1947.676
1090.953, 2147.852
1092.053, 2088.172
1093.152, 1961.289
1094.252, 1870.297
1095.351, 1857.410
1096.451, 1762.176
1097.550, 1805.996
1098.649, 1698.355
1099.748, 1668.031
1100.846, 1749.484
1101.945, 1743.988
1103.043, 1876.531
1104.141, 1870.605
1105.239, 1751.441
1106.337, 1369.840
1107.434, 1634.367
1108.532, 1771.699
1109.629, 1789.625
1110.726, 1330.305
1111.823, 1487.359
1112.920, 1397.457
1114.017, 1297.469
1115.113, 1544.949
1116.210, 1155.266
1117.306, 1393.848
1118.402, 1386.848
1119.498, 1489.527
1120.593, 1343.758
1121.689, 1274.766
1122.784, 1458.215
1123.879, 1500.289
1124.974, 1328.156
1126.069, 1438.426
1127.164, 1040.547
1128.259, 1088.633
1129.353, 1332.613
1130.447, 1176.480
1131.541, 1295.480
1132.635, 1305.266
1133.729, 942.8438
1134.822, 721.5039
1135.916, 748.0156
1137.009, 793.7930
1138.102, 585.3594
1139.195, 734.3203
1140.288, 748.1914
1141.380, 677.2188
1142.473, 695.2852
1143.565, 816.3828
1144.657, 639.5156
1145.749, 608.6797
1146.841, 672.8828
1147.932, 478.1172
1149.024, 601.3828
1150.115, 743.0078
1151.206, 668.3438
1152.297, 644.2773
1153.388, 925.1289
1154.479, 459.5625
1155.569, 308.0469
1156.659, 326.5586
1157.750, 599.1016
1158.839, 417.6719
1159.929, 559.0391
1161.019, 349.6797
1162.108, 812.6719
1163.198, 722.1641
1164.287, 603.5469
1165.376, 720.2188
1166.465, 373.0078
1167.553, 86.82422
1168.642, 203.7148
1169.730, 188.7539
1170.818, 189.0352
1171.906, 290.4883
1172.994, 179.1250
1174.082, 442.6562
1175.170, 137.3008
1176.257, 341.7109
1177.344, 27.25000
1178.431, 352.8633
1179.518, 148.9453
1180.605, 387.0469
1181.691, 127.0859
1182.778, 140.2266
1183.864, 31.38672
1184.950, 3.234375
1186.036, 19.33984
1187.122, 48.85547
1188.207, 74.08594
1189.292, 105.6367
1190.378, 128.3125
1191.463, 157.6641
1192.548, 170.6016
1193.632, 163.5078
1194.717, 165.8320
1195.801, 447.1719
1196.886, 622.5234
1197.970, 78.89062
1199.054, 7.730469
1200.137, 371.6602
1201.221, 151.1680
1202.305, 163.6680
1203.388, 331.8945
1204.471, 16.67969
1205.554, 49.75781
1206.637, 18.19922
1207.719, 161.6484
1208.802, 119.1055
1209.884, 205.5664
1210.966, 120.2461
1212.048, 58.52344
1213.130, 276.1914
1214.212, 9.332031
1215.293, 19.11328
1216.374, 288.5977
1217.456, 509.0820
1218.536, 64.82031
1219.617, 114.6953
1220.698, 8.679688
1221.778, 152.2305
1222.859, 183.1641
1223.939, 210.4414
1225.019, 258.1328
1226.099, 535.0586
1227.178, 62.25391
1228.258, 432.4453
1229.337, 224.3633
1230.417, 213.7266
1231.496, 114.9102
1232.574, 213.9922
1233.653, 41.92188
1234.732, 4.863281
1235.810, 26.19922
1236.888, 26.74609
1237.966, 10.19141
1239.044, 8.230469
1240.122, 73.25781
1241.199, 52.53125
1242.277, 20.71094
1243.354, 146.4102
1244.431, 70.51562
1245.508, 207.4531
1246.585, 223.4102
1247.661, 93.64062
1248.738, 64.25781
1249.814, 191.1406
1250.890, 61.41016
1251.966, 64.45703
1253.042, 183.3672
1254.117, 31.81641
1255.193, 351.9688
1256.268, 153.5234
1257.343, 133.5039
1258.418, 49.74219
1259.493, 80.10156
1260.567, 55.94531
1261.642, 90.99609
1262.716, 18.32422
1263.790, 177.1602
1264.864, 88.12891
1265.938, 163.7578
1267.011, 89.83984
1268.085, 117.6875
1269.158, 43.06641
1270.231, 74.05078
1271.304, 239.1602
1272.377, 230.2578
1273.450, 345.3359
1274.522, 352.3984
1275.594, 166.1758
1276.666, 194.2070
1277.738, 171.8672
1278.810, 32.25391
1279.882, 159.2383
1280.953, 183.2656
1282.025, 88.84766
1283.096, 165.7773
1284.167, 214.8477
1285.238, 270.7422
1286.308, 215.6367
1287.379, 132.5156
1288.449, 17.62891
1289.519, 125.6758
1290.589, 8.445313
1291.659, 180.1992
1292.729, 152.9258
1293.798, 31.15234
1294.868, 217.5156
1295.937, 108.1875
1297.006, 76.83203
1298.075, 2.605469
1299.143, 25.29688
1300.212, 23.30859
1301.280, 14.14062
1302.348, 15.46484
1303.416, 163.8672
1304.484, 93.03125
1305.552, 221.5000
1306.620, 96.49609
1307.687, 170.7422
1308.754, 278.9570
1309.821, 1.148438
1310.888, 179.6094
1311.955, 238.3906
1313.021, 262.4727
1314.088, 382.2227
1315.154, 9.765625
1316.220, 449.4883
1317.286, 294.1992
1318.352, 132.1094
1319.417, 382.9922
1320.483, 265.8438
1321.548, 214.6758
1322.613, 310.4727
1323.678, 285.2422
1324.743, 572.9922
1325.807, 239.7227
1326.872, 484.4219
1327.936, 383.1953
1329.000, 318.8516
1330.064, 362.4883
1331.128, 390.2617
1332.191, 242.6484
1333.255, 456.8125
1334.318, 453.5078
1335.381, 228.9961
1336.444, 421.4414
1337.507, 243.8633
1338.569, 37.46484
1339.632, 328.0898
1340.694, 492.4414
1341.756, 537.3047
1342.818, 105.1484
1343.880, 288.9961
1344.941, 225.8008
1346.003, 152.4609
1347.064, 423.0000
1348.125, 55.71875
1349.186, 320.9297
1350.247, 329.0586
1351.308, 458.1016
1352.368, 328.6328
1353.428, 272.9336
1354.489, 478.6445
1355.549, 546.6406
1356.608, 398.4609
1357.668, 523.2734
1358.727, 151.3203
1359.787, 225.0625
1360.846, 491.5938
1361.905, 354.3242
1362.964, 495.5547
1364.022, 530.6797
1365.081, 86.39062
1366.139, 475.1328
1367.197, 503.9141
1368.255, 163.3711
1369.313, 523.4922
1370.371, 233.5781
1371.428, 176.1250
1372.486, 289.2930
1373.543, 223.8828
1374.600, 445.4141
1375.657, 385.3438
1376.713, 305.6641
1377.770, 333.7500
1378.826, 56.63672
1379.882, 342.1211
1380.938, 244.2695
1381.994, 336.8164
1383.050, 474.9375
1384.106, 279.0938
1385.161, 436.8203
1386.216, 42.78906
1387.271, 105.5430
1388.326, 120.2539
1389.381, 432.1289
1390.435, 42.30078
1391.490, 85.71094
1392.544, 323.3555
1393.598, 292.0078
1394.652, 375.6250
1395.705, 138.9453
1396.759, 205.4727
1397.812, 191.6484
1398.866, 470.0273
1399.919, 517.2969
1400.972, 286.0625
1402.024, 55.98438
1403.077, 355.1641
1404.129, 152.6484
1405.181, 220.7539
1406.233, 8.968750
1407.285, 38.83594
1408.337, 64.84766
1409.389, 214.8867
1410.440, 10.58984
1411.491, 250.5352
1412.542, 236.2695
1413.593, 298.9531
1414.644, 352.4062
1415.695, 24.63281
1416.745, 11.15625
1417.795, 436.8984
1418.845, 189.9258
1419.895, 79.55078
1420.945, 64.17969
1421.995, 510.0508
1423.044, 528.2305
1424.093, 38.39453
1425.142, 266.3359
1426.191, 214.5703
1427.240, 273.8477
1428.289, 305.3438
1429.337, 191.9570
1430.385, 154.1172
1431.433, 184.0391
1432.481, 174.2227
1433.529, 240.0000
1434.577, 185.8320
1435.624, 337.5234
1436.672, 192.2461
1437.719, 176.8438
1438.766, 325.2070
1439.812, 344.6797
1440.859, 592.0820
1441.905, 415.7930
1442.952, 39.08203
1443.998, 592.2617
1445.044, 262.6836
1446.090, 321.6172
1447.135, 231.0430
1448.181, 315.7852
1449.226, 457.2617
1450.271, 187.6914
1451.316, 170.0742
