##NAMES=Braunite
##RRUFFID=R050390
##IDEAL CHEMISTRY=Mn^2+^Mn^3+^_6_SiO_12_
##LOCALITY=Oehrenstock, Thuringia, Germany
##OWNER=RRUFF
##SOURCE=University of Arizona Mineral Museum
##DESCRIPTION=Mass of black octahedra
##STATUS=The identification of this mineral has been confirmed by X-ray diffraction and chemical analysis
##URL=rruff.info/R050390
##MEASURED CHEMISTRY=(Mn^2+^_0.83_Ca_0.17_)_Î£=1_Mn^3+^_6.00_Si_1.00_O_12_
##PIN_ID=M00051
##ORIENTATION=Laser parallel to -a* (-1 0 0). Fiducial mark perpendicular to laser is parallel to -c [0 0 -1]
304.7350, 0.0000000E+00
305.9430, 0.3515630
307.1510, 42.24609
308.3580, 122.1289
309.5660, 268.5430
310.7730, 124.4766
311.9800, 258.4297
313.1870, 198.0469
314.3940, 5.730469
315.6010, 107.6602
316.8070, 2.527344
318.0130, 44.92969
319.2200, 141.7148
320.4260, 165.6914
321.6310, 23.59766
322.8370, 5.550781
324.0430, 146.9336
325.2480, 235.0938
326.4540, 471.3672
327.6590, 603.2812
328.8640, 751.9766
330.0680, 861.6797
331.2730, 908.5625
332.4780, 1126.781
333.6820, 1169.242
334.8860, 1118.223
336.0900, 1317.090
337.2940, 1393.141
338.4980, 1243.359
339.7010, 1306.070
340.9050, 1346.992
342.1080, 1360.465
343.3110, 1416.816
344.5140, 1264.219
345.7170, 1052.938
346.9200, 1122.969
348.1220, 813.3047
349.3240, 901.9336
350.5270, 980.8516
351.7290, 439.0391
352.9310, 302.6328
354.1320, 303.3516
355.3340, 193.3359
356.5350, 105.5664
357.7370, 122.1289
358.9380, 86.71094
360.1390, 137.6719
361.3400, 129.8281
362.5400, 153.2070
363.7410, 111.1523
364.9410, 172.3477
366.1410, 6.281250
367.3410, 123.9844
368.5410, 206.4609
369.7410, 59.70703
370.9400, 162.7227
372.1400, 54.49609
373.3390, 11.94141
374.5380, 54.37891
375.7370, 52.51953
376.9360, 118.6562
378.1350, 200.0273
379.3330, 67.44922
380.5310, 126.9336
381.7300, 66.80469
382.9280, 138.6445
384.1260, 331.5859
385.3230, 306.6523
386.5210, 193.8047
387.7180, 50.08594
388.9160, 260.4922
390.1130, 273.0312
391.3100, 474.6914
392.5060, 138.4766
393.7030, 117.3789
394.9000, 133.3945
396.0960, 241.5195
397.2920, 284.7617
398.4880, 194.1211
399.6840, 2.398438
400.8800, 148.2070
402.0750, 413.9414
403.2710, 428.8047
404.4660, 956.8008
405.6610, 196.9336
406.8560, 129.1445
408.0510, 664.3867
409.2450, 204.5859
410.4400, 916.8359
411.6340, 561.2305
412.8280, 597.7656
414.0220, 856.3594
415.2160, 754.0703
416.4100, 700.9414
417.6030, 971.9727
418.7970, 856.1602
419.9900, 941.5117
421.1830, 1256.027
422.3760, 1107.699
423.5690, 1203.527
424.7610, 1183.512
425.9540, 1247.656
427.1460, 1354.953
428.3380, 1371.410
429.5300, 1493.020
430.7220, 1501.781
431.9140, 1563.695
433.1050, 1738.758
434.2970, 1740.973
435.4880, 1612.336
436.6790, 1456.848
437.8700, 1423.504
439.0610, 1431.633
440.2510, 1767.250
441.4420, 1575.336
442.6320, 1659.570
443.8220, 1761.938
445.0120, 1689.449
446.2020, 2029.094
447.3910, 2063.879
448.5810, 2419.227
449.7700, 2276.090
450.9600, 2583.977
452.1490, 2535.828
453.3370, 2653.375
454.5260, 2591.492
455.7150, 2785.801
456.9030, 2711.113
458.0910, 2824.922
459.2800, 3014.809
460.4670, 3008.520
461.6550, 2997.348
462.8430, 3087.848
464.0300, 3227.469
465.2180, 3277.500
466.4050, 3259.949
467.5920, 3502.660
468.7790, 3244.434
469.9650, 3395.289
471.1520, 3593.027
472.3380, 4059.195
473.5250, 4251.316
474.7110, 4688.535
475.8970, 4816.844
477.0820, 5063.113
478.2680, 5031.598
479.4540, 5512.906
480.6390, 5661.680
481.8240, 6035.199
483.0090, 6426.445
484.1940, 6835.812
485.3780, 7345.195
486.5630, 7449.617
487.7470, 7450.156
488.9320, 7614.867
490.1160, 7078.699
491.3000, 7044.711
492.4830, 7106.891
493.6670, 7344.180
494.8500, 7625.582
496.0340, 7758.113
497.2170, 8059.781
498.4000, 7814.555
499.5820, 8186.477
500.7650, 8428.551
501.9480, 8484.773
503.1300, 8922.145
504.3120, 9444.684
505.4940, 9228.340
506.6760, 9819.098
507.8580, 9561.043
509.0390, 9564.355
510.2210, 9384.359
511.4020, 9565.672
512.5830, 9840.633
513.7640, 9945.539
514.9450, 10520.25
516.1250, 10559.98
517.3060, 10929.13
518.4860, 11466.09
519.6660, 11522.15
520.8460, 11750.39
522.0260, 11711.70
523.2060, 11257.11
524.3850, 11753.64
525.5650, 12450.32
526.7440, 11578.07
527.9230, 11960.91
529.1020, 11712.88
530.2810, 11480.00
531.4590, 11169.20
532.6380, 12199.48
533.8160, 13591.85
534.9940, 10361.31
536.1720, 10556.88
537.3500, 12400.55
538.5270, 13680.30
539.7050, 11585.16
540.8820, 11489.09
542.0590, 11595.06
543.2360, 11168.15
544.4130, 11279.32
545.5900, 12333.57
546.7660, 11879.89
547.9430, 12509.28
549.1190, 13070.75
550.2950, 13434.29
551.4710, 13737.90
552.6470, 13388.60
553.8220, 12749.38
554.9980, 13117.23
556.1730, 13055.16
557.3480, 13482.16
558.5230, 13575.23
559.6980, 14381.38
560.8730, 14376.59
562.0470, 14022.87
563.2220, 13319.22
564.3960, 13470.62
565.5700, 13522.11
566.7440, 13590.64
567.9170, 14435.25
569.0910, 14210.94
570.2640, 14124.68
571.4380, 13775.48
572.6110, 13221.35
573.7840, 12151.27
574.9570, 11795.25
576.1290, 11095.30
577.3020, 10241.43
578.4740, 9730.609
579.6460, 8372.844
580.8180, 7377.141
581.9900, 6120.488
583.1620, 5077.891
584.3330, 4144.348
585.5040, 3027.855
586.6760, 2815.410
587.8470, 2136.016
589.0180, 1601.680
590.1880, 1567.406
591.3590, 1458.188
592.5290, 1446.020
593.7000, 1030.906
594.8700, 964.8477
596.0400, 1046.891
597.2090, 835.9453
598.3790, 985.0273
599.5490, 930.2461
600.7180, 996.4727
601.8870, 927.7578
603.0560, 780.6758
604.2250, 921.0703
605.3940, 966.6406
606.5620, 1155.145
607.7300, 1237.707
608.8990, 1427.320
610.0670, 1073.652
611.2350, 1427.430
612.4020, 1448.363
613.5700, 1620.969
614.7370, 1854.680
615.9050, 1764.684
617.0720, 2043.238
618.2390, 2155.059
619.4060, 2034.359
620.5720, 2231.305
621.7390, 2302.434
622.9050, 2560.262
624.0710, 2666.523
625.2370, 2929.461
626.4030, 2987.172
627.5690, 3018.746
628.7340, 3077.586
629.9000, 3053.266
631.0650, 3008.359
632.2300, 3157.309
633.3950, 3227.836
634.5600, 3068.996
635.7240, 2765.957
636.8890, 2851.219
638.0530, 2581.141
639.2170, 2641.156
640.3810, 2511.055
641.5450, 2544.016
642.7080, 2255.121
643.8720, 2253.445
645.0350, 1959.801
646.1980, 1853.641
647.3610, 1926.117
648.5240, 2082.113
649.6870, 1972.375
650.8490, 2082.391
652.0120, 1853.070
653.1740, 1682.980
654.3360, 1605.699
655.4980, 1552.863
656.6600, 1611.367
657.8210, 1538.680
658.9830, 1547.328
660.1440, 1519.992
661.3050, 1544.504
662.4660, 1600.504
663.6270, 1597.508
664.7870, 1565.297
665.9480, 1453.586
667.1080, 1560.883
668.2680, 1337.777
669.4280, 1500.832
670.5880, 1334.367
671.7480, 1463.668
672.9070, 1161.602
674.0670, 1337.047
675.2260, 1460.418
676.3850, 1211.676
677.5440, 1197.047
678.7030, 1176.336
679.8610, 1428.613
681.0200, 1270.320
682.1780, 1248.855
683.3360, 967.1133
684.4940, 863.3945
685.6520, 1231.633
686.8090, 1000.090
687.9670, 1148.078
689.1240, 997.2852
690.2810, 958.6172
691.4380, 1009.902
692.5950, 968.9375
693.7520, 767.5820
694.9080, 842.5664
696.0650, 1055.039
697.2210, 898.1523
698.3770, 789.2461
699.5330, 924.3242
700.6880, 835.6094
701.8440, 856.6523
702.9990, 973.6797
704.1550, 789.1172
705.3100, 775.3516
706.4650, 548.6367
707.6190, 655.9414
708.7740, 633.8633
709.9290, 787.7656
711.0830, 809.6406
712.2370, 679.5000
713.3910, 382.3320
714.5450, 385.7461
715.6980, 407.8867
716.8520, 630.7305
718.0050, 379.7109
719.1580, 402.7812
720.3110, 349.4609
721.4640, 301.1094
722.6170, 310.7305
723.7700, 246.3242
724.9220, 308.8945
726.0740, 338.4258
727.2260, 132.7695
728.3780, 158.0430
729.5300, 230.4883
730.6810, 173.9023
731.8330, 257.2812
732.9840, 371.6250
734.1350, 2.937500
735.2860, 110.7852
736.4370, 60.59766
737.5880, 3.523438
738.7380, 133.6055
739.8880, 118.8320
741.0390, 46.33594
742.1890, 143.6094
743.3380, 4.519531
744.4880, 39.38672
745.6380, 104.2148
746.7870, 153.0039
747.9360, 84.24219
749.0850, 29.41797
750.2340, 9.035156
751.3830, 192.3945
752.5310, 79.97656
753.6800, 2.652344
754.8280, 72.65234
755.9760, 154.2227
757.1240, 32.18750
758.2720, 24.23047
759.4190, 89.64844
760.5670, 113.5117
761.7140, 9.207031
762.8610, 79.14062
764.0080, 82.41406
765.1550, 128.9180
766.3020, 192.6172
767.4480, 48.67188
768.5950, 215.0859
769.7410, 179.0273
770.8870, 251.8672
772.0330, 30.71875
773.1780, 27.48828
774.3240, 81.78906
775.4690, 65.80078
776.6140, 106.6680
777.7590, 135.2656
778.9040, 103.0078
780.0490, 151.8828
781.1940, 201.9180
782.3380, 10.13281
783.4820, 160.5664
784.6260, 41.78516
785.7700, 120.7617
786.9140, 274.7422
788.0580, 18.52734
789.2010, 103.2773
790.3450, 52.78516
791.4880, 6.210938
792.6310, 76.29688
793.7730, 83.49609
794.9160, 88.76953
796.0590, 39.16406
797.2010, 177.6680
798.3430, 94.65625
799.4850, 118.0820
800.6270, 63.03906
801.7690, 145.9023
802.9100, 283.9961
804.0520, 378.8359
805.1930, 115.3711
806.3340, 181.7266
807.4750, 99.73828
808.6160, 349.1445
809.7560, 67.50000
810.8970, 45.79297
812.0370, 91.97266
813.1770, 5.128906
814.3170, 128.1445
815.4570, 43.89062
816.5960, 185.9609
817.7360, 76.76562
818.8750, 90.51172
820.0140, 396.1992
821.1530, 135.8359
822.2920, 285.4219
823.4310, 292.9570
824.5690, 351.4336
825.7070, 163.8633
826.8460, 105.2422
827.9840, 14.56641
829.1220, 46.90625
830.2590, 26.51172
831.3970, 241.1328
832.5340, 33.20703
833.6710, 201.2148
834.8080, 131.1758
835.9450, 211.0781
837.0820, 79.93359
838.2190, 191.7422
839.3550, 168.4961
840.4910, 232.1953
841.6270, 205.8516
842.7630, 129.4531
843.8990, 14.99219
845.0350, 119.4766
846.1700, 231.8945
847.3060, 132.2695
848.4410, 301.5898
849.5760, 150.8633
850.7100, 8.089844
851.8450, 20.75391
852.9800, 79.32422
854.1140, 52.35156
855.2480, 8.328125
856.3820, 145.2539
857.5160, 134.1055
858.6500, 320.9219
859.7830, 271.6953
860.9170, 255.4141
862.0500, 97.09375
863.1830, 6.277344
864.3160, 22.71094
865.4480, 124.7773
866.5810, 159.2227
867.7130, 183.6250
868.8460, 99.97656
869.9780, 257.2852
871.1100, 203.5078
872.2410, 139.7266
873.3730, 163.9297
874.5050, 313.0234
875.6360, 252.1211
876.7670, 304.4062
877.8980, 350.6133
879.0290, 322.5859
880.1590, 311.3945
881.2900, 352.2852
882.4200, 237.1406
883.5500, 325.9531
884.6800, 216.0586
885.8100, 228.7266
886.9400, 315.2578
888.0690, 231.1172
889.1990, 246.7227
890.3280, 351.3789
891.4570, 172.3281
892.5860, 188.0234
893.7140, 98.23828
894.8430, 454.8242
895.9710, 274.2422
897.1000, 345.8516
898.2280, 275.2812
899.3560, 282.9219
900.4830, 301.1758
901.6110, 184.1289
902.7380, 242.5469
903.8660, 464.5508
904.9930, 258.0898
906.1200, 454.7930
907.2460, 421.9219
908.3730, 259.2148
909.5000, 456.1367
910.6260, 525.5625
911.7520, 258.3281
912.8780, 471.0156
914.0040, 365.5469
915.1290, 372.5859
916.2550, 553.2031
917.3800, 247.6133
918.5050, 798.9922
919.6300, 349.8984
920.7550, 275.1406
921.8800, 490.3516
923.0040, 609.6875
924.1290, 675.8438
925.2530, 448.6484
926.3770, 599.1602
927.5010, 599.0508
928.6250, 588.4297
929.7480, 791.2773
930.8720, 606.3711
931.9950, 800.5234
933.1180, 790.3438
934.2410, 781.7930
935.3640, 917.8633
936.4860, 722.9062
937.6090, 815.1523
938.7310, 849.9023
939.8530, 1014.664
940.9750, 935.8320
942.0970, 866.8320
943.2180, 1075.375
944.3400, 991.1484
945.4610, 1346.293
946.5820, 1068.973
947.7030, 1436.734
948.8240, 1042.605
949.9450, 1085.371
951.0650, 1326.211
952.1860, 1348.062
953.3060, 1288.488
954.4260, 1153.090
955.5460, 1350.973
956.6650, 1253.680
957.7850, 1335.727
958.9040, 1224.668
960.0230, 1336.629
961.1420, 1245.617
962.2610, 1503.477
963.3800, 1403.383
964.4990, 1062.535
965.6170, 1221.078
966.7350, 1157.113
967.8530, 1002.977
968.9710, 1264.043
970.0890, 1103.117
971.2070, 1041.203
972.3240, 859.0859
973.4410, 1051.199
974.5580, 772.3281
975.6750, 1044.473
976.7920, 996.6289
977.9090, 1101.801
979.0250, 1254.633
980.1410, 1078.840
981.2580, 1204.059
982.3740, 1036.301
983.4890, 981.5547
984.6050, 1005.832
985.7200, 992.5195
986.8360, 1184.473
987.9510, 1111.730
989.0660, 1021.852
990.1810, 890.8711
991.2950, 1139.289
992.4100, 867.7305
993.5240, 1127.199
994.6390, 1090.684
995.7530, 869.1953
996.8660, 1038.727
997.9800, 1022.441
999.0940, 958.2188
1000.207, 845.8242
1001.320, 802.4844
1002.433, 1011.242
1003.546, 964.0469
1004.659, 1024.953
1005.772, 1063.895
1006.884, 997.9141
1007.996, 907.9727
1009.108, 940.0820
1010.220, 775.2148
1011.332, 993.4062
1012.444, 678.6367
1013.555, 1016.895
1014.666, 900.1875
1015.777, 924.5039
1016.888, 1013.855
1017.999, 835.2344
1019.110, 1163.668
1020.220, 810.1367
1021.331, 932.6367
1022.441, 870.2266
1023.551, 933.8711
1024.661, 926.5586
1025.770, 793.3008
1026.880, 956.1445
1027.989, 1006.043
1029.098, 839.9805
1030.207, 959.9531
1031.316, 957.0039
1032.425, 1032.105
1033.533, 942.2695
1034.642, 1133.469
1035.750, 952.7070
1036.858, 1073.070
1037.966, 939.4922
1039.073, 887.0273
1040.181, 1198.699
1041.288, 1049.410
1042.396, 1106.168
1043.503, 954.9805
1044.610, 1015.855
1045.716, 1174.777
1046.823, 1066.773
1047.929, 1234.871
1049.036, 1283.047
1050.142, 1099.309
1051.248, 1209.680
1052.353, 1018.105
1053.459, 1360.570
1054.564, 969.0938
1055.670, 1385.660
1056.775, 1289.352
1057.880, 1386.090
1058.985, 1297.910
1060.089, 1219.773
1061.194, 1530.699
1062.298, 1474.691
1063.402, 1496.559
1064.506, 1321.844
1065.610, 1413.027
1066.713, 1368.309
1067.817, 1234.633
1068.920, 1357.047
1070.023, 1306.945
1071.126, 1467.043
1072.229, 1336.324
1073.332, 1352.953
1074.435, 1312.953
1075.537, 1525.762
1076.639, 1477.617
1077.741, 1221.516
1078.843, 1515.508
1079.945, 1331.496
1081.046, 1524.305
1082.148, 1361.422
1083.249, 1599.582
1084.350, 1503.805
1085.451, 1702.074
1086.551, 1419.016
1087.652, 1481.359
1088.752, 1674.742
1089.853, 1472.168
1090.953, 1316.895
1092.053, 1485.883
1093.152, 1440.105
1094.252, 1266.684
1095.351, 1378.301
1096.451, 1513.965
1097.550, 1283.672
1098.649, 1363.426
1099.748, 1454.219
1100.846, 1355.059
1101.945, 1428.930
1103.043, 1426.609
1104.141, 1228.793
1105.239, 1400.781
1106.337, 1327.809
1107.434, 1206.875
1108.532, 1148.977
1109.629, 1021.117
1110.726, 1378.297
1111.823, 1396.527
1112.920, 1218.801
1114.017, 1272.105
1115.113, 964.4531
1116.210, 1130.832
1117.306, 1324.258
1118.402, 1417.723
1119.498, 1168.188
1120.593, 1203.746
1121.689, 1427.344
1122.784, 1177.828
1123.879, 1244.863
1124.974, 1064.582
1126.069, 865.3320
1127.164, 1089.121
1128.259, 927.9414
1129.353, 1007.805
1130.447, 836.7148
1131.541, 943.8086
1132.635, 832.4609
1133.729, 952.5312
1134.822, 832.3047
1135.916, 670.1914
1137.009, 902.1992
1138.102, 1071.656
1139.195, 816.2969
1140.288, 926.5977
1141.380, 509.8555
1142.473, 654.7852
1143.565, 735.1016
1144.657, 638.4531
1145.749, 785.8320
1146.841, 516.2422
1147.932, 672.6836
1149.024, 657.1523
1150.115, 472.6523
1151.206, 404.1797
1152.297, 262.7383
1153.388, 354.3242
1154.479, 389.9414
1155.569, 265.5820
1156.659, 488.2578
1157.750, 272.0703
1158.839, 355.7969
1159.929, 179.5547
1161.019, 298.3359
1162.108, 334.1445
1163.198, 159.6641
1164.287, 89.52344
1165.376, 203.4102
1166.465, 403.5898
1167.553, 418.9062
1168.642, 363.4492
1169.730, 199.8516
1170.818, 275.1094
1171.906, 533.1406
1172.994, 180.1875
1174.082, 328.8867
1175.170, 319.3359
1176.257, 473.9609
1177.344, 553.0273
1178.431, 563.1406
1179.518, 285.0273
1180.605, 375.8750
1181.691, 318.8984
1182.778, 255.8672
1183.864, 398.7070
1184.950, 162.2773
1186.036, 301.8789
1187.122, 291.4023
1188.207, 349.6602
1189.292, 259.1719
1190.378, 214.6250
1191.463, 318.9180
1192.548, 340.8398
1193.632, 233.3086
1194.717, 296.0195
1195.801, 54.59375
1196.886, 80.07422
1197.970, 220.7578
1199.054, 120.7734
1200.137, 186.3242
1201.221, 188.8281
1202.305, 95.08984
1203.388, 119.1445
1204.471, 117.9531
1205.554, 104.4219
1206.637, 92.73438
1207.719, 109.5547
1208.802, 259.9297
1209.884, 15.49219
1210.966, 36.07422
1212.048, 77.35547
1213.130, 20.79688
1214.212, 217.2461
1215.293, 139.7031
1216.374, 56.83203
1217.456, 62.62891
1218.536, 98.09766
1219.617, 17.57422
1220.698, 195.9492
1221.778, 48.53906
1222.859, 112.1445
1223.939, 28.21875
1225.019, 200.5898
1226.099, 224.9688
1227.178, 190.3477
1228.258, 247.7383
1229.337, 142.8867
1230.417, 336.5820
1231.496, 13.01172
1232.574, 68.44922
1233.653, 163.8906
1234.732, 339.3359
1235.810, 75.78516
1236.888, 117.2383
1237.966, 128.6953
1239.044, 347.1562
1240.122, 252.0977
1241.199, 226.0859
1242.277, 176.5547
1243.354, 218.0273
1244.431, 205.0508
1245.508, 285.9766
1246.585, 320.4531
1247.661, 193.9375
1248.738, 50.53125
1249.814, 228.3086
1250.890, 211.8203
1251.966, 51.67578
1253.042, 154.8008
1254.117, 57.28125
1255.193, 200.7539
1256.268, 55.23828
1257.343, 247.7148
1258.418, 186.1914
1259.493, 56.66797
1260.567, 18.16797
1261.642, 100.3359
1262.716, 281.8984
1263.790, 47.62109
1264.864, 259.3750
1265.938, 48.27734
1267.011, 37.21875
1268.085, 84.80859
1269.158, 56.16797
1270.231, 125.8125
1271.304, 73.21094
1272.377, 168.7188
1273.450, 134.6367
1274.522, 50.55859
1275.594, 273.4727
1276.666, 133.0781
1277.738, 286.9336
1278.810, 365.2148
1279.882, 371.9844
1280.953, 93.08203
1282.025, 183.0586
1283.096, 125.2188
1284.167, 61.29297
1285.238, 203.2031
1286.308, 34.16406
1287.379, 104.4336
1288.449, 92.94531
1289.519, 232.8438
1290.589, 94.65234
1291.659, 5.546875
1292.729, 159.2188
1293.798, 179.9844
1294.868, 23.73438
1295.937, 47.53516
1297.006, 33.85547
1298.075, 13.22656
1299.143, 122.6367
1300.212, 141.8555
1301.280, 85.33984
1302.348, 75.81641
1303.416, 404.2812
1304.484, 264.7383
1305.552, 212.1836
1306.620, 7.621094
1307.687, 168.0234
1308.754, 193.4297
1309.821, 362.7852
1310.888, 456.5703
1311.955, 478.8281
1313.021, 215.3906
1314.088, 320.8477
1315.154, 278.4492
1316.220, 229.9883
1317.286, 387.3438
1318.352, 165.4023
1319.417, 319.4805
1320.483, 323.4531
1321.548, 396.1133
1322.613, 320.0000
1323.678, 289.8164
1324.743, 408.4375
1325.807, 444.6562
1326.872, 351.3828
1327.936, 428.3516
1329.000, 201.1289
1330.064, 240.8164
1331.128, 392.9766
1332.191, 307.1328
1333.255, 386.7695
1334.318, 400.0977
1335.381, 130.2656
1336.444, 344.2930
1337.507, 151.6406
1338.569, 220.4414
1339.632, 391.1289
1340.694, 160.2656
1341.756, 336.5156
1342.818, 437.1797
1343.880, 466.3203
1344.941, 208.1172
1346.003, 320.4648
1347.064, 284.9453
1348.125, 243.3672
1349.186, 398.3281
1350.247, 181.7734
1351.308, 338.0430
1352.368, 348.8750
1353.428, 428.3828
1354.489, 359.1406
1355.549, 336.2969
1356.608, 466.7266
1357.668, 510.3164
1358.727, 424.2812
1359.787, 508.1094
1360.846, 287.7305
1361.905, 334.2773
1362.964, 495.9805
1364.022, 189.0508
1365.081, 265.9180
1366.139, 298.7773
1367.197, 284.6250
1368.255, 391.4648
1369.313, 191.2969
1370.371, 307.1172
1371.428, 345.9336
1372.486, 145.7383
1373.543, 502.5312
1374.600, 392.4180
1375.657, 354.9727
1376.713, 86.80078
1377.770, 280.5703
1378.826, 305.3281
1379.882, 349.8828
1380.938, 405.6289
1381.994, 304.3672
1383.050, 534.1016
1384.106, 314.8281
1385.161, 359.5508
1386.216, 350.2656
1387.271, 167.7383
1388.326, 350.3008
1389.381, 216.3398
1390.435, 410.9922
1391.490, 162.9727
1392.544, 113.8672
1393.598, 399.6680
1394.652, 384.0508
1395.705, 165.7188
1396.759, 374.8672
1397.812, 225.5391
1398.866, 363.5625
1399.919, 456.2266
1400.972, 352.8945
1402.024, 399.9492
1403.077, 367.9062
1404.129, 340.7422
1405.181, 317.3242
1406.233, 299.0234
1407.285, 309.9297
1408.337, 296.0586
1409.389, 350.6367
1410.440, 409.2109
1411.491, 441.2852
1412.542, 446.1641
1413.593, 532.4648
1414.644, 399.8516
1415.695, 300.2305
1416.745, 225.6094
1417.795, 499.9766
1418.845, 412.5508
1419.895, 364.7969
1420.945, 331.0391
1421.995, 192.0000
1423.044, 192.8359
1424.093, 186.2930
1425.142, 187.2188
1426.191, 268.1367
1427.240, 347.2969
1428.289, 458.4375
1429.337, 265.5352
1430.385, 383.6445
1431.433, 93.74219
1432.481, 287.8281
1433.529, 87.37891
1434.577, 354.4453
1435.624, 239.5117
1436.672, 255.5664
1437.719, 391.6172
1438.766, 533.8906
1439.812, 332.9414
1440.859, 390.0039
1441.905, 162.0664
1442.952, 401.1406
1443.998, 327.2148
1445.044, 388.3047
1446.090, 359.1094
1447.135, 341.3672
1448.181, 405.7227
1449.226, 396.4922
1450.271, 457.4297
1451.316, 399.7031
1452.361, 490.9844
1453.405, 391.2695
1454.450, 411.7266
1455.494, 169.8281
1456.538, 365.1875
