##NAMES=Braunite
##RRUFFID=R050388
##IDEAL CHEMISTRY=Mn^2+^Mn^3+^_6_SiO_12_
##LOCALITY=Langban, Filipstad, Varmland, Sweden
##OWNER=RRUFF
##SOURCE=University of Arizona Mineral Museum
##DESCRIPTION=Black crystals
##STATUS=The identification of this mineral has been confirmed by X-ray diffraction and chemical analysis
##URL=rruff.info/R050388
##MEASURED CHEMISTRY=(Mn^2+^_0.96_Mg_0.04_)_Î£=1_Mn^3+^_6.00_Si_1.00_O_12_
##PIN_ID=M00455
##ORIENTATION=Laser parallel to a* (1 0 0). Fiducial mark perpendicular to laser is parallel to c [0 0 1]
175.8340, 0.0000000E+00
177.0580, 223.9648
178.2820, 6.265625
179.5050, 122.7891
180.7290, 253.4023
181.9520, 30.04297
183.1760, 88.55859
184.3990, 278.3594
185.6220, 266.7773
186.8450, 603.1445
188.0670, 975.4766
189.2900, 553.9688
190.5120, 1252.133
191.7340, 1228.738
192.9560, 1503.836
194.1780, 1789.566
195.4000, 1871.738
196.6220, 2008.492
197.8430, 2146.227
199.0640, 2580.023
200.2860, 2873.598
201.5070, 3683.062
202.7270, 3773.113
203.9480, 3466.773
205.1690, 2708.668
206.3890, 2086.457
207.6090, 1623.637
208.8290, 1939.234
210.0490, 2634.160
211.2690, 3014.891
212.4890, 3790.582
213.7080, 4840.996
214.9280, 5416.102
216.1470, 5530.586
217.3660, 6584.922
218.5850, 6958.680
219.8030, 7302.164
221.0220, 6994.082
222.2400, 6650.520
223.4590, 6533.305
224.6770, 5749.414
225.8950, 5543.934
227.1120, 4931.531
228.3300, 3814.258
229.5480, 3607.078
230.7650, 3435.465
231.9820, 3175.199
233.1990, 3327.672
234.4160, 3257.172
235.6330, 3468.906
236.8490, 2822.785
238.0660, 2593.711
239.2820, 2046.879
240.4980, 1620.047
241.7140, 1484.805
242.9300, 1300.574
244.1460, 1058.062
245.3610, 1139.629
246.5770, 828.4961
247.7920, 687.9922
249.0070, 515.6172
250.2220, 709.7227
251.4370, 809.3438
252.6510, 821.8789
253.8660, 509.8906
255.0800, 616.9648
256.2940, 556.5000
257.5080, 489.4102
258.7220, 656.2148
259.9360, 392.6875
261.1490, 556.1797
262.3630, 549.4805
263.5760, 620.9062
264.7890, 523.6094
266.0020, 478.5781
267.2150, 603.1172
268.4270, 633.6367
269.6400, 517.2812
270.8520, 594.2031
272.0640, 325.8828
273.2760, 361.0469
274.4880, 526.5039
275.7000, 347.6914
276.9120, 335.6758
278.1230, 453.6328
279.3340, 238.5391
280.5450, 148.0508
281.7560, 138.7227
282.9670, 158.0859
284.1780, 29.42969
285.3880, 32.12109
286.5980, 196.4375
287.8090, 146.0898
289.0190, 209.3828
290.2290, 301.4336
291.4380, 291.6875
292.6480, 351.5234
293.8570, 116.9336
295.0670, 31.85938
296.2760, 99.35547
297.4850, 157.5469
298.6930, 4.207031
299.9020, 1.890625
301.1110, 14.97656
302.3190, 205.3281
303.5270, 20.73438
304.7350, 6.738281
305.9430, 136.3438
307.1510, 139.8906
308.3580, 138.1367
309.5660, 4.246094
310.7730, 131.1953
311.9800, 130.9414
313.1870, 115.1406
314.3940, 226.3672
315.6010, 53.60938
316.8070, 107.9102
318.0130, 76.39844
319.2200, 176.9766
320.4260, 34.28516
321.6310, 31.17969
322.8370, 34.34375
324.0430, 55.26172
325.2480, 29.82812
326.4540, 183.8750
327.6590, 387.5820
328.8640, 559.4531
330.0680, 681.2070
331.2730, 613.8203
332.4780, 668.2891
333.6820, 975.5898
334.8860, 876.7344
336.0900, 1468.699
337.2940, 1669.473
338.4980, 1432.055
339.7010, 1577.441
340.9050, 1523.613
342.1080, 1400.570
343.3110, 1326.324
344.5140, 1053.867
345.7170, 646.2070
346.9200, 704.3477
348.1220, 692.2891
349.3240, 618.0156
350.5270, 912.4883
351.7290, 537.7109
352.9310, 546.6797
354.1320, 384.4102
355.3340, 568.9141
356.5350, 267.1719
357.7370, 484.1367
358.9380, 648.8594
360.1390, 695.3359
361.3400, 324.5742
362.5400, 458.6016
363.7410, 451.3984
364.9410, 518.0117
366.1410, 704.4414
367.3410, 784.7227
368.5410, 446.8516
369.7410, 208.8086
370.9400, 575.6094
372.1400, 501.2734
373.3390, 547.7461
374.5380, 757.8359
375.7370, 648.6211
376.9360, 621.8906
378.1350, 845.5664
379.3330, 534.6016
380.5310, 512.3828
381.7300, 1046.930
382.9280, 748.3203
384.1260, 877.6055
385.3230, 857.0234
386.5210, 749.8984
387.7180, 647.9609
388.9160, 707.8984
390.1130, 617.5820
391.3100, 697.0742
392.5060, 454.8828
393.7030, 297.2500
394.9000, 409.1641
396.0960, 564.5312
397.2920, 516.0234
398.4880, 597.6875
399.6840, 437.3633
400.8800, 203.6445
402.0750, 365.4648
403.2710, 249.6094
404.4660, 450.6250
405.6610, 409.3203
406.8560, 461.8438
408.0510, 543.6641
409.2450, 418.0352
410.4400, 621.4844
411.6340, 305.8359
412.8280, 267.1172
414.0220, 530.4336
415.2160, 352.9297
416.4100, 328.4258
417.6030, 395.4531
418.7970, 541.8398
419.9900, 678.9570
421.1830, 746.0625
422.3760, 843.9609
423.5690, 641.4023
424.7610, 824.9844
425.9540, 773.5352
427.1460, 434.6055
428.3380, 783.0312
429.5300, 831.4297
430.7220, 629.9492
431.9140, 766.9219
433.1050, 560.2070
434.2970, 972.0078
435.4880, 839.7109
436.6790, 810.9570
437.8700, 346.2344
439.0610, 752.9141
440.2510, 394.9883
441.4420, 527.5938
442.6320, 744.6484
443.8220, 549.6133
445.0120, 566.0508
446.2020, 875.2891
447.3910, 591.4453
448.5810, 549.3164
449.7700, 816.3203
450.9600, 669.5312
452.1490, 575.8750
453.3370, 719.0195
454.5260, 706.4648
455.7150, 824.7383
456.9030, 906.3477
458.0910, 923.3203
459.2800, 776.5078
460.4670, 607.6328
461.6550, 992.0820
462.8430, 1061.172
464.0300, 431.1602
465.2180, 703.2773
466.4050, 886.3672
467.5920, 607.2422
468.7790, 600.3711
469.9650, 616.6719
471.1520, 511.8594
472.3380, 637.3320
473.5250, 1088.812
474.7110, 838.2969
475.8970, 902.7812
477.0820, 1331.273
478.2680, 1000.770
479.4540, 1053.277
480.6390, 1008.785
481.8240, 1086.309
483.0090, 1222.840
484.1940, 897.3828
485.3780, 1202.938
486.5630, 1115.508
487.7470, 913.0898
488.9320, 955.6875
490.1160, 999.3047
491.3000, 989.9375
492.4830, 1064.590
493.6670, 1069.258
494.8500, 1050.949
496.0340, 1071.461
497.2170, 1160.398
498.4000, 1087.164
499.5820, 1179.605
500.7650, 1269.453
501.9480, 1303.328
503.1300, 1106.234
504.3120, 1475.164
505.4940, 1379.133
506.6760, 1630.137
507.8580, 1607.891
509.0390, 1337.246
510.2210, 1529.367
511.4020, 1545.527
512.5830, 1511.438
513.7640, 1832.703
514.9450, 2122.035
516.1250, 2346.410
517.3060, 2416.824
518.4860, 2336.285
519.6660, 2462.348
520.8460, 2207.348
522.0260, 2419.008
523.2060, 2237.715
524.3850, 1994.516
525.5650, 2069.371
526.7440, 1709.285
527.9230, 1590.250
529.1020, 1737.359
530.2810, 1559.527
531.4590, 1343.809
532.6380, 1388.191
533.8160, 1328.703
534.9940, 1062.340
536.1720, 1173.055
537.3500, 1004.844
538.5270, 1005.738
539.7050, 1143.695
540.8820, 1133.746
542.0590, 1043.863
543.2360, 1076.445
544.4130, 986.3633
545.5900, 1065.773
546.7660, 975.2578
547.9430, 1117.816
549.1190, 918.4414
550.2950, 1082.133
551.4710, 1119.898
552.6470, 1128.750
553.8220, 938.7227
554.9980, 993.7930
556.1730, 1162.930
557.3480, 954.1719
558.5230, 1333.543
559.6980, 1129.000
560.8730, 1016.586
562.0470, 977.2617
563.2220, 1096.020
564.3960, 1072.891
565.5700, 1112.855
566.7440, 898.9258
567.9170, 1243.082
569.0910, 1001.406
570.2640, 957.8359
571.4380, 1290.363
572.6110, 1112.055
573.7840, 1318.895
574.9570, 1156.879
576.1290, 822.0586
577.3020, 707.5938
578.4740, 1061.562
579.6460, 718.3047
580.8180, 1008.125
581.9900, 886.0234
583.1620, 563.0742
584.3330, 470.2188
585.5040, 528.4531
586.6760, 246.7930
587.8470, 490.1992
589.0180, 249.7461
590.1880, 504.9258
591.3590, 369.5703
592.5290, 436.2773
593.7000, 172.0898
594.8700, 318.5625
596.0400, 489.0977
597.2090, 434.1172
598.3790, 492.2422
599.5490, 409.5977
600.7180, 439.9375
601.8870, 559.3711
603.0560, 884.8906
604.2250, 855.4648
605.3940, 928.1094
606.5620, 1232.875
607.7300, 994.6367
608.8990, 1030.480
610.0670, 1549.379
611.2350, 1553.336
612.4020, 1952.344
613.5700, 1991.398
614.7370, 2309.500
615.9050, 2604.656
617.0720, 2726.852
618.2390, 3282.105
619.4060, 3704.402
620.5720, 4014.750
621.7390, 4271.145
622.9050, 4754.586
624.0710, 4735.074
625.2370, 4899.609
626.4030, 5110.199
627.5690, 4713.828
628.7340, 4821.508
629.9000, 4914.234
631.0650, 4595.008
632.2300, 4211.828
633.3950, 3723.691
634.5600, 2873.605
635.7240, 2583.562
636.8890, 2342.570
638.0530, 2278.617
639.2170, 1953.715
640.3810, 1962.664
641.5450, 1485.848
642.7080, 1289.082
643.8720, 991.3516
645.0350, 946.6680
646.1980, 872.0312
647.3610, 814.4375
648.5240, 683.8828
649.6870, 571.2461
650.8490, 335.7773
652.0120, 474.5312
653.1740, 692.4297
654.3360, 552.7461
655.4980, 328.4414
656.6600, 446.1797
657.8210, 294.9570
658.9830, 206.7695
660.1440, 287.1172
661.3050, 468.0664
662.4660, 339.9961
663.6270, 550.6758
664.7870, 487.6836
665.9480, 134.7227
667.1080, 437.5938
668.2680, 217.0586
669.4280, 254.8828
670.5880, 584.0742
671.7480, 497.5430
672.9070, 520.8320
674.0670, 751.2578
675.2260, 741.2461
676.3850, 780.2148
677.5440, 879.8008
678.7030, 622.1836
679.8610, 957.0391
681.0200, 544.4727
682.1780, 664.3633
683.3360, 917.7461
684.4940, 1234.852
685.6520, 949.2812
686.8090, 1072.836
687.9670, 1299.641
689.1240, 1481.398
690.2810, 1811.012
691.4380, 2241.320
692.5950, 2342.113
693.7520, 2337.523
694.9080, 2495.215
696.0650, 2381.195
697.2210, 2493.871
698.3770, 2383.352
699.5330, 2154.172
700.6880, 1997.371
701.8440, 1789.641
702.9990, 1797.770
704.1550, 1918.008
705.3100, 1414.676
706.4650, 1116.438
707.6190, 588.7656
708.7740, 743.6094
709.9290, 294.7031
711.0830, 314.8477
712.2370, 718.9727
713.3910, 239.8398
714.5450, 300.6836
715.6980, 64.44531
716.8520, 98.70312
718.0050, 149.1406
719.1580, 274.9805
720.3110, 415.8164
721.4640, 297.4336
722.6170, 207.2695
723.7700, 139.1055
724.9220, 252.1250
726.0740, 140.9492
727.2260, 48.23047
728.3780, 153.4219
729.5300, 145.3281
730.6810, 411.0742
731.8330, 44.18359
732.9840, 416.4648
734.1350, 196.9375
735.2860, 148.5078
736.4370, 68.94141
737.5880, 147.6328
738.7380, 308.7344
739.8880, 130.0781
741.0390, 105.4219
742.1890, 102.7500
743.3380, 7.074219
744.4880, 2.378906
745.6380, 155.6758
746.7870, 247.9609
747.9360, 230.2344
749.0850, 100.5000
750.2340, 86.74609
751.3830, 67.98438
752.5310, 195.2070
753.6800, 346.4180
754.8280, 172.6172
755.9760, 212.8008
757.1240, 445.9648
758.2720, 171.1133
759.4190, 180.2539
760.5670, 411.3750
761.7140, 102.4844
762.8610, 186.5781
764.0080, 235.6523
765.1550, 169.7109
766.3020, 62.75781
767.4480, 92.78125
768.5950, 376.7930
769.7410, 353.7852
770.8870, 293.7695
772.0330, 64.73438
773.1780, 207.6758
774.3240, 30.60938
775.4690, 239.5156
776.6140, 109.4062
777.7590, 101.7188
778.9040, 186.0703
780.0490, 146.8438
781.1940, 215.5977
782.3380, 283.3281
783.4820, 108.0430
784.6260, 46.73828
785.7700, 187.4102
786.9140, 23.93359
788.0580, 79.67578
789.2010, 26.74219
790.3450, 10.20312
791.4880, 83.71484
792.6310, 161.6914
793.7730, 113.0781
794.9160, 185.4414
796.0590, 91.78906
797.2010, 373.1133
798.3430, 160.5820
799.4850, 160.5977
800.6270, 93.24609
801.7690, 145.8203
802.9100, 70.86328
804.0520, 32.89062
805.1930, 267.1211
806.3340, 38.68750
807.4750, 161.5391
808.6160, 130.8867
809.7560, 227.3477
810.8970, 144.9766
812.0370, 18.28125
813.1770, 29.49219
814.3170, 101.3320
815.4570, 196.7422
816.5960, 28.21094
817.7360, 272.7812
818.8750, 56.74219
820.0140, 137.3203
821.1530, 63.50391
822.2920, 41.23438
823.4310, 146.9336
824.5690, 68.61328
825.7070, 73.26172
826.8460, 118.8906
827.9840, 12.50781
829.1220, 173.9609
830.2590, 64.55469
831.3970, 117.7656
832.5340, 107.9336
833.6710, 170.7344
834.8080, 48.32812
835.9450, 223.6445
837.0820, 8.773438
838.2190, 7.039063
839.3550, 127.1953
840.4910, 9.742188
841.6270, 34.25000
842.7630, 39.58594
843.8990, 5.082031
845.0350, 95.53516
846.1700, 64.96484
847.3060, 62.37109
848.4410, 62.75000
849.5760, 201.1055
850.7100, 11.44141
851.8450, 108.7305
852.9800, 211.1680
854.1140, 153.5977
855.2480, 197.7031
856.3820, 241.7852
857.5160, 26.14453
858.6500, 256.8711
859.7830, 217.8633
860.9170, 18.16406
862.0500, 574.7656
863.1830, 384.6680
864.3160, 245.5039
865.4480, 185.7812
866.5810, 237.6328
867.7130, 304.4766
868.8460, 247.2656
869.9780, 272.9453
871.1100, 282.6250
872.2410, 292.4062
873.3730, 121.1680
874.5050, 155.8203
875.6360, 309.5586
876.7670, 372.2891
877.8980, 528.0039
879.0290, 115.7109
880.1590, 420.3984
881.2900, 523.0312
882.4200, 86.70312
883.5500, 485.3633
884.6800, 458.0117
885.8100, 58.65625
886.9400, 361.2852
888.0690, 227.9102
889.1990, 26.52734
890.3280, 306.1289
891.4570, 349.7305
892.5860, 68.32031
893.7140, 56.90625
894.8430, 619.4805
895.9710, 443.0508
897.1000, 552.6133
898.2280, 191.1680
899.3560, 520.7188
900.4830, 705.2656
901.6110, 566.8086
902.7380, 533.3398
903.8660, 667.8750
904.9930, 544.3984
906.1200, 556.9219
907.2460, 607.4492
908.3730, 725.9648
909.5000, 776.4844
910.6260, 426.9961
911.7520, 727.5078
912.8780, 632.0195
914.0040, 395.7227
915.1290, 527.2305
916.2550, 1021.738
917.3800, 625.2461
918.5050, 947.7578
919.6300, 662.2695
920.7550, 758.7812
921.8800, 901.2969
923.0040, 846.9766
924.1290, 842.5312
925.2530, 1094.910
926.3770, 776.2188
927.5010, 846.1562
928.6250, 593.7539
929.7480, 1122.355
930.8720, 898.9688
931.9950, 794.5820
933.1180, 1174.207
934.2410, 1061.289
935.3640, 785.9258
936.4860, 839.8594
937.6090, 892.5078
938.7310, 906.1719
939.8530, 1322.055
940.9750, 1068.383
942.0970, 1214.402
943.2180, 1150.098
944.3400, 912.5547
945.4610, 1118.254
946.5820, 953.8477
947.7030, 1094.934
948.8240, 1265.523
949.9450, 1153.641
951.0650, 1547.461
952.1860, 1323.848
953.3060, 1315.707
954.4260, 1126.184
955.5460, 1326.207
956.6650, 1129.559
957.7850, 1289.629
958.9040, 1429.625
960.0230, 1409.418
961.1420, 1289.305
962.2610, 1391.367
963.3800, 1686.793
964.4990, 1903.770
965.6170, 1507.188
966.7350, 1797.387
967.8530, 1704.344
968.9710, 1797.945
970.0890, 1937.254
971.2070, 2008.531
972.3240, 2043.484
973.4410, 1895.418
974.5580, 1771.531
975.6750, 1901.578
976.7920, 1755.254
977.9090, 1809.875
979.0250, 1925.973
980.1410, 1959.605
981.2580, 1910.016
982.3740, 2238.430
983.4890, 1723.918
984.6050, 2626.734
985.7200, 2218.625
986.8360, 2259.516
987.9510, 2538.598
989.0660, 2443.605
990.1810, 2457.652
991.2950, 2709.742
992.4100, 2299.090
993.5240, 2487.262
994.6390, 2656.480
995.7530, 2514.551
996.8660, 2799.855
997.9800, 2503.207
999.0940, 2464.609
1000.207, 2778.082
1001.320, 2686.594
1002.433, 2493.152
1003.546, 2798.762
1004.659, 2598.508
1005.772, 2567.340
1006.884, 2550.215
1007.996, 2548.137
1009.108, 2503.133
1010.220, 2488.020
1011.332, 2638.324
1012.444, 2524.496
1013.555, 2510.426
1014.666, 2424.984
1015.777, 2346.297
1016.888, 2307.656
1017.999, 2209.066
1019.110, 2237.520
1020.220, 2218.418
1021.331, 2202.582
1022.441, 2253.250
1023.551, 2389.977
1024.661, 2414.750
1025.770, 2485.234
1026.880, 2392.492
1027.989, 2626.473
1029.098, 2516.504
1030.207, 2664.590
1031.316, 2563.730
1032.425, 2620.918
1033.533, 2861.160
1034.642, 2461.453
1035.750, 2810.832
1036.858, 2563.262
1037.966, 2725.742
1039.073, 2572.281
1040.181, 2941.879
1041.288, 2766.535
1042.396, 2631.242
1043.503, 3025.996
1044.610, 2723.809
1045.716, 3054.680
1046.823, 2745.598
1047.929, 2793.605
1049.036, 2870.672
1050.142, 2955.789
1051.248, 2949.961
1052.353, 3122.191
1053.459, 2893.477
1054.564, 2965.816
1055.670, 2973.605
1056.775, 2866.531
1057.880, 3047.602
1058.985, 3149.195
1060.089, 3163.445
1061.194, 2853.473
1062.298, 2962.328
1063.402, 2903.414
1064.506, 2837.691
1065.610, 3005.652
1066.713, 2743.145
1067.817, 2907.562
1068.920, 2901.656
1070.023, 2973.824
1071.126, 2877.516
1072.229, 2833.113
1073.332, 2957.668
1074.435, 2988.848
1075.537, 2873.102
1076.639, 2950.719
1077.741, 2683.238
1078.843, 2718.789
1079.945, 2885.176
1081.046, 2786.730
1082.148, 2824.961
1083.249, 2758.285
1084.350, 2509.395
1085.451, 2666.305
1086.551, 2743.164
1087.652, 2733.699
1088.752, 2399.605
1089.853, 2484.348
1090.953, 2403.020
1092.053, 2313.199
1093.152, 2457.137
1094.252, 2170.574
1095.351, 2310.930
1096.451, 2280.938
1097.550, 2329.078
1098.649, 2215.398
1099.748, 2147.234
1100.846, 2252.191
1101.945, 2261.195
1103.043, 2121.480
1104.141, 2177.270
1105.239, 1885.730
1106.337, 1897.242
1107.434, 2039.617
1108.532, 1910.898
1109.629, 1968.094
1110.726, 1953.793
1111.823, 1614.414
1112.920, 1840.551
1114.017, 1822.207
1115.113, 1556.508
1116.210, 1770.105
1117.306, 1535.480
1118.402, 1458.562
1119.498, 1504.590
1120.593, 1422.844
1121.689, 1536.109
1122.784, 1461.613
1123.879, 1371.836
1124.974, 1353.926
1126.069, 1128.535
1127.164, 1288.223
1128.259, 1184.969
1129.353, 1214.992
1130.447, 1272.246
1131.541, 1102.652
1132.635, 1173.316
1133.729, 871.5234
1134.822, 881.5039
1135.916, 857.9453
1137.009, 1033.699
1138.102, 733.9531
1139.195, 735.4766
1140.288, 866.3789
1141.380, 821.3516
1142.473, 850.0000
1143.565, 653.4648
1144.657, 665.6367
1145.749, 620.3359
1146.841, 773.8555
1147.932, 652.1992
1149.024, 440.4688
1150.115, 539.7812
1151.206, 665.1406
1152.297, 648.5508
1153.388, 716.1328
1154.479, 636.7461
1155.569, 670.2930
1156.659, 558.1641
1157.750, 418.8008
1158.839, 467.0586
1159.929, 439.7891
1161.019, 274.0273
1162.108, 170.8477
1163.198, 326.7266
1164.287, 420.6133
1165.376, 232.5742
1166.465, 239.3203
1167.553, 468.3633
1168.642, 246.4531
1169.730, 343.5820
1170.818, 106.1367
1171.906, 256.3477
1172.994, 229.6328
1174.082, 445.9805
1175.170, 307.3633
1176.257, 193.5117
1177.344, 388.0156
1178.431, 130.5664
1179.518, 322.1641
1180.605, 67.81641
1181.691, 116.5117
1182.778, 47.25000
1183.864, 226.0234
1184.950, 305.8320
1186.036, 236.3164
1187.122, 356.4922
1188.207, 110.3398
1189.292, 189.7734
1190.378, 26.08984
1191.463, 378.9883
1192.548, 360.9258
1193.632, 108.8945
1194.717, 29.90234
1195.801, 20.94531
1196.886, 126.0195
1197.970, 78.51953
1199.054, 23.26562
1200.137, 113.4453
1201.221, 22.34766
1202.305, 0.8906250
1203.388, 16.63672
1204.471, 3.453125
1205.554, 36.78906
1206.637, 23.15234
1207.719, 5.449219
1208.802, 159.9805
1209.884, 7.253906
1210.966, 295.9180
1212.048, 225.0625
1213.130, 171.0195
1214.212, 140.6328
1215.293, 69.26953
1216.374, 146.0664
1217.456, 22.42188
1218.536, 103.2383
1219.617, 124.9258
1220.698, 56.36328
1221.778, 230.3633
1222.859, 203.1953
1223.939, 71.96875
1225.019, 570.7656
1226.099, 51.59375
1227.178, 10.43750
1228.258, 155.6836
1229.337, 8.847656
1230.417, 102.5352
1231.496, 49.63281
1232.574, 188.2695
1233.653, 53.80469
1234.732, 91.12109
1235.810, 76.59375
1236.888, 302.5547
1237.966, 48.46875
1239.044, 157.5078
1240.122, 21.58203
1241.199, 148.5898
1242.277, 165.6211
1243.354, 18.66797
1244.431, 74.26953
1245.508, 129.2266
1246.585, 81.78125
1247.661, 31.79688
1248.738, 81.62109
1249.814, 121.5625
1250.890, 236.0977
1251.966, 269.4766
1253.042, 21.43750
1254.117, 106.4062
1255.193, 66.44531
1256.268, 19.61328
1257.343, 206.4375
1258.418, 36.73438
1259.493, 146.3867
1260.567, 159.1250
1261.642, 249.8516
1262.716, 171.7305
1263.790, 145.7695
1264.864, 288.7461
1265.938, 338.1953
1267.011, 240.6602
1268.085, 336.4023
1269.158, 0.9023440
1270.231, 62.94141
1271.304, 36.81641
1272.377, 52.28125
1273.450, 39.38672
1274.522, 51.50391
1275.594, 266.6211
1276.666, 85.73828
1277.738, 127.8711
1278.810, 210.0039
1279.882, 85.14062
1280.953, 303.2773
1282.025, 221.5352
1283.096, 19.51172
1284.167, 245.4844
1285.238, 62.27344
1286.308, 183.6797
1287.379, 99.33984
1288.449, 216.5703
1289.519, 36.48828
1290.589, 116.3945
1291.659, 145.7422
1292.729, 25.65234
1293.798, 100.5547
1294.868, 95.06250
1295.937, 115.0117
1297.006, 239.3086
1298.075, 282.4180
1299.143, 1.210938
1300.212, 138.7773
1301.280, 115.9180
1302.348, 83.73828
1303.416, 280.2109
1304.484, 55.62109
1305.552, 248.3672
1306.620, 272.4453
1307.687, 372.7734
1308.754, 308.3203
1309.821, 294.1953
1310.888, 446.7031
1311.955, 505.6797
1313.021, 417.6523
1314.088, 522.8867
1315.154, 274.4180
1316.220, 337.3320
1317.286, 530.9688
1318.352, 445.1484
1319.417, 553.3945
1320.483, 590.4492
1321.548, 302.0156
1322.613, 579.1523
1323.678, 611.6602
1324.743, 393.0234
1325.807, 414.8828
1326.872, 712.5312
1327.936, 641.1758
1329.000, 456.8242
1330.064, 214.1484
1331.128, 440.8125
1332.191, 282.4492
1333.255, 674.8398
1334.318, 434.7852
1335.381, 471.7852
1336.444, 359.3203
1337.507, 405.9102
1338.569, 288.6250
1339.632, 289.0000
1340.694, 404.4219
1341.756, 265.9844
1342.818, 315.5430
1343.880, 294.0898
1344.941, 332.0000
