##NAMES=Braunite
##RRUFFID=R050385
##IDEAL CHEMISTRY=Mn^2+^Mn^3+^_6_SiO_12_
##LOCALITY=Jhabua District, Madhya Pradesh, India
##OWNER=RRUFF
##SOURCE=University of Arizona Mineral Museum
##DESCRIPTION=Black prismatic crystals
##STATUS=The identification of this mineral has been confirmed by X-ray diffraction and chemical analysis
##URL=rruff.info/R050385
##MEASURED CHEMISTRY=(Fe^2+^_0.61_Mn^2+^_0.39_)_Σ=1_(Mn^3+^_5.94_Al_0.06_)_Σ=6_Si_1.00_O_12_
##PIN_ID=L01451
##ORIENTATION=Laser parallel to a* (1 0 0). Fiducial mark perpendicular to laser is parallel to c [0 0 1]
178.2820, 0.0000000E+00
179.5050, 365.4912
180.7290, 3.632813
181.9520, 64.23438
183.1760, 29.19531
184.3990, 281.6582
185.6220, 664.3330
186.8450, 836.1699
188.0670, 882.7900
189.2900, 1037.115
190.5120, 1173.020
191.7340, 1279.030
192.9560, 1541.612
194.1780, 1824.968
195.4000, 2197.297
196.6220, 2403.736
197.8430, 2681.506
199.0640, 3036.627
200.2860, 3724.421
201.5070, 4812.391
202.7270, 5321.155
203.9480, 4387.447
205.1690, 2933.074
206.3890, 1910.893
207.6090, 1975.853
208.8290, 2052.999
210.0490, 2505.269
211.2690, 3058.136
212.4890, 3715.199
213.7080, 4453.806
214.9280, 4860.256
216.1470, 4928.644
217.3660, 5525.170
218.5850, 5725.016
219.8030, 6015.342
221.0220, 6338.293
222.2400, 6359.398
223.4590, 6360.027
224.6770, 6519.608
225.8950, 6674.230
227.1120, 6467.967
228.3300, 6458.891
229.5480, 6115.059
230.7650, 5825.583
231.9820, 5466.496
233.1990, 5066.832
234.4160, 4708.708
235.6330, 4361.426
236.8490, 4035.349
238.0660, 3674.513
239.2820, 3411.679
240.4980, 3063.531
241.7140, 2711.855
242.9300, 2645.854
244.1460, 2577.938
245.3610, 2531.121
246.5770, 2603.154
247.7920, 2640.449
249.0070, 2551.818
250.2220, 2282.359
251.4370, 2174.818
252.6510, 1933.333
253.8660, 1759.922
255.0800, 1370.445
256.2940, 1345.080
257.5080, 1284.049
258.7220, 1189.245
259.9360, 959.2070
261.1490, 904.1807
262.3630, 779.1191
263.5760, 651.3994
264.7890, 621.3037
266.0020, 413.4697
267.2150, 494.7764
268.4270, 473.6553
269.6400, 565.6104
270.8520, 580.7197
272.0640, 636.7070
273.2760, 664.6826
274.4880, 799.0010
275.7000, 814.2051
276.9120, 842.4424
278.1230, 813.7051
279.3340, 680.9922
280.5450, 668.2969
281.7560, 798.1055
282.9670, 734.0010
284.1780, 1042.033
285.3880, 1130.045
286.5980, 1442.038
287.8090, 1619.049
289.0190, 2133.897
290.2290, 2424.600
291.4380, 2847.518
292.6480, 3123.396
293.8570, 3465.980
295.0670, 3571.875
296.2760, 3420.506
297.4850, 2972.851
298.6930, 2371.223
299.9020, 1988.616
301.1110, 1549.441
302.3190, 1129.108
303.5270, 766.3086
304.7350, 432.3760
305.9430, 114.2793
307.1510, 131.4365
308.3580, 261.0312
309.5660, 246.2734
310.7730, 373.7588
311.9800, 477.2656
313.1870, 397.3086
314.3940, 435.3838
315.6010, 350.5898
316.8070, 356.2197
318.0130, 345.4121
319.2200, 47.21191
320.4260, 2.541016
321.6310, 102.7266
322.8370, 431.8994
324.0430, 705.5703
325.2480, 946.9209
326.4540, 1329.344
327.6590, 1575.391
328.8640, 2052.405
330.0680, 2525.107
331.2730, 2641.042
332.4780, 2765.161
333.6820, 2883.430
334.8860, 2773.814
336.0900, 2536.285
337.2940, 2372.825
338.4980, 2180.673
339.7010, 2018.677
340.9050, 1820.682
342.1080, 1589.027
343.3110, 1221.979
344.5140, 1029.705
345.7170, 767.3477
346.9200, 502.0801
348.1220, 515.1582
349.3240, 416.5996
350.5270, 580.9912
351.7290, 169.3320
352.9310, 297.6172
354.1320, 410.8457
355.3340, 246.0225
356.5350, 484.1250
357.7370, 363.1172
358.9380, 395.9697
360.1390, 483.6816
361.3400, 453.2637
362.5400, 465.7227
363.7410, 509.0664
364.9410, 532.2998
366.1410, 542.4287
367.3410, 518.4580
368.5410, 632.3936
369.7410, 704.2393
370.9400, 735.9990
372.1400, 627.6768
373.3390, 780.2773
374.5380, 613.8018
375.7370, 580.2549
376.9360, 605.6377
378.1350, 446.9541
379.3330, 469.2051
380.5310, 379.3926
381.7300, 402.5117
382.9280, 216.5635
384.1260, 224.5439
385.3230, 141.4570
386.5210, 292.3018
387.7180, 269.8975
388.9160, 285.9873
390.1130, 281.4023
391.3100, 260.9404
392.5060, 270.6172
393.7030, 249.3047
394.9000, 217.1074
396.0960, 270.9062
397.2920, 138.7021
398.4880, 57.49219
399.6840, 128.2734
400.8800, 13.05078
402.0750, 29.19141
403.2710, 20.45703
404.4660, 25.25293
405.6610, 1.049805
406.8560, 206.3711
408.0510, 89.76562
409.2450, 174.2012
410.4400, 154.8242
411.6340, 149.0840
412.8280, 76.02051
414.0220, 144.6826
415.2160, 51.39844
416.4100, 17.85449
417.6030, 39.90332
418.7970, 23.31348
419.9900, 93.51855
421.1830, 114.7148
422.3760, 52.90332
423.5690, 103.0820
424.7610, 223.2520
425.9540, 94.40820
427.1460, 201.5508
428.3380, 228.6836
429.5300, 32.80762
430.7220, 175.9199
431.9140, 82.02246
433.1050, 38.10645
434.2970, 115.1611
435.4880, 47.84180
436.6790, 79.10938
437.8700, 108.9268
439.0610, 101.6045
440.2510, 320.1816
441.4420, 208.6758
442.6320, 269.1426
443.8220, 389.2168
445.0120, 384.0693
446.2020, 544.5322
447.3910, 570.9971
448.5810, 533.4590
449.7700, 707.0996
450.9600, 711.5078
452.1490, 937.8418
453.3370, 969.2393
454.5260, 1072.780
455.7150, 1408.967
456.9030, 1478.316
458.0910, 1659.422
459.2800, 1705.997
460.4670, 2189.379
461.6550, 2305.616
462.8430, 2650.764
464.0300, 3023.928
465.2180, 3425.655
466.4050, 3765.301
467.5920, 4036.948
468.7790, 4503.600
469.9650, 4793.258
471.1520, 5362.913
472.3380, 5540.570
473.5250, 5738.223
474.7110, 5815.869
475.8970, 5892.510
477.0820, 5729.145
478.2680, 5329.771
479.4540, 5113.392
480.6390, 4811.012
481.8240, 4539.621
483.0090, 3961.225
484.1940, 3752.822
485.3780, 3269.416
486.5630, 2969.521
487.7470, 2842.639
488.9320, 2508.272
490.1160, 2390.925
491.3000, 2428.576
492.4830, 2357.225
493.6670, 2332.868
494.8500, 2394.627
496.0340, 2410.988
497.2170, 2596.612
498.4000, 2550.744
499.5820, 2855.359
500.7650, 2952.969
501.9480, 3235.583
503.1300, 3363.226
504.3120, 3928.867
505.4940, 4277.509
506.6760, 4762.180
507.8580, 5205.853
509.0390, 5718.523
510.2210, 6265.195
511.4020, 6403.869
512.5830, 6467.566
513.7640, 6507.277
514.9450, 6126.000
516.1250, 5830.744
517.3060, 5371.517
518.4860, 4913.322
519.6660, 4540.174
520.8460, 4089.070
522.0260, 3652.010
523.2060, 3305.990
524.3850, 3117.975
525.5650, 2761.430
526.7440, 2624.930
527.9230, 2496.052
529.1020, 2355.924
530.2810, 2207.749
531.4590, 1956.693
532.6380, 1792.665
533.8160, 1641.590
534.9940, 1480.607
536.1720, 1378.587
537.3500, 1111.471
538.5270, 1073.633
539.7050, 936.3076
540.8820, 896.3857
542.0590, 818.9023
543.2360, 819.5723
544.4130, 703.5225
545.5900, 640.1670
546.7660, 634.2900
547.9430, 598.4883
549.1190, 739.9580
550.2950, 682.0703
551.4710, 777.6094
552.6470, 675.8779
553.8220, 903.5771
554.9980, 929.0137
556.1730, 924.3018
557.3480, 940.6133
558.5230, 1114.235
559.6980, 1236.854
560.8730, 1509.932
562.0470, 1754.495
563.2220, 1989.188
564.3960, 2267.664
565.5700, 2645.396
566.7440, 2992.681
567.9170, 3376.482
569.0910, 3727.896
570.2640, 3967.166
571.4380, 4402.836
572.6110, 4661.148
573.7840, 4915.108
574.9570, 5078.930
576.1290, 5172.120
577.3020, 5052.162
578.4740, 4878.285
579.6460, 4555.577
580.8180, 4234.881
581.9900, 3933.535
583.1620, 3594.217
584.3330, 3331.926
585.5040, 3020.662
586.6760, 2740.427
587.8470, 2768.219
589.0180, 2513.039
590.1880, 2430.885
591.3590, 2305.771
592.5290, 2195.254
593.7000, 2136.697
594.8700, 2176.109
596.0400, 2183.510
597.2090, 2207.268
598.3790, 2304.058
599.5490, 2311.773
600.7180, 2575.846
601.8870, 2688.070
603.0560, 2963.441
604.2250, 3190.882
605.3940, 3514.377
606.5620, 3701.905
607.7300, 4066.458
608.8990, 4487.034
610.0670, 4631.635
611.2350, 5090.259
612.4020, 4972.906
613.5700, 5397.579
614.7370, 5586.443
615.9050, 6017.992
617.0720, 5933.732
618.2390, 5993.497
619.4060, 5884.529
620.5720, 5891.271
621.7390, 5719.766
622.9050, 5557.058
624.0710, 5301.496
625.2370, 5116.267
626.4030, 4840.426
627.5690, 4580.931
628.7340, 4306.948
629.9000, 4067.093
631.0650, 3740.306
632.2300, 3612.639
633.3950, 3411.982
634.5600, 3250.139
635.7240, 2980.340
636.8890, 3063.449
638.0530, 2790.578
639.2170, 2748.042
640.3810, 2836.438
641.5450, 2788.070
642.7080, 2733.439
643.8720, 2764.253
645.0350, 2827.673
646.1980, 2762.257
647.3610, 2914.824
648.5240, 2945.120
649.6870, 2775.817
650.8490, 2953.203
652.0120, 2942.593
653.1740, 3055.892
654.3360, 2958.416
655.4980, 2857.441
656.6600, 2728.709
657.8210, 2627.190
658.9830, 2551.864
660.1440, 2567.326
661.3050, 2436.219
662.4660, 2365.927
663.6270, 2346.973
664.7870, 2421.871
665.9480, 2347.691
667.1080, 2614.826
668.2680, 2248.680
669.4280, 2190.242
670.5880, 1973.080
671.7480, 2151.192
672.9070, 2209.138
674.0670, 2225.878
675.2260, 2188.218
676.3850, 2242.323
677.5440, 2197.063
678.7030, 2319.300
679.8610, 2306.136
681.0200, 2492.805
682.1780, 2575.741
683.3360, 2862.229
684.4940, 2792.172
685.6520, 2907.942
686.8090, 2947.307
687.9670, 3039.082
689.1240, 2989.010
690.2810, 3018.744
691.4380, 2920.022
692.5950, 2901.404
693.7520, 2968.505
694.9080, 2829.627
696.0650, 2797.508
697.2210, 2588.365
698.3770, 2358.404
699.5330, 2233.883
700.6880, 2050.811
701.8440, 2059.163
702.9990, 1895.017
704.1550, 1911.212
705.3100, 1635.633
706.4650, 1661.743
707.6190, 1444.834
708.7740, 1761.652
709.9290, 1506.984
711.0830, 1362.396
712.2370, 1168.516
713.3910, 1079.318
714.5450, 1161.186
715.6980, 995.3945
716.8520, 891.9844
718.0050, 942.9678
719.1580, 764.9404
720.3110, 850.9004
721.4640, 518.8506
722.6170, 493.8389
723.7700, 539.0225
724.9220, 463.0713
726.0740, 516.4121
727.2260, 567.2969
728.3780, 201.1650
729.5300, 266.1025
730.6810, 307.9414
731.8330, 183.1152
732.9840, 428.8057
734.1350, 172.9697
735.2860, 156.7422
736.4370, 188.4961
737.5880, 188.2305
738.7380, 124.9443
739.8880, 229.6357
741.0390, 144.3057
742.1890, 141.0459
743.3380, 124.6680
744.4880, 51.26660
745.6380, 274.8389
746.7870, 226.3887
747.9360, 427.9121
749.0850, 391.2705
750.2340, 586.8828
751.3830, 307.3477
752.5310, 195.7500
753.6800, 110.1436
754.8280, 67.50977
755.9760, 63.84961
757.1240, 0.1621090
758.2720, 35.55664
759.4190, 77.68555
760.5670, 38.78906
761.7140, 6.916992
762.8610, 24.76562
764.0080, 56.53223
765.1550, 156.0078
766.3020, 64.64062
767.4480, 109.7441
768.5950, 38.93164
769.7410, 11.83301
770.8870, 16.56445
772.0330, 69.26367
773.1780, 66.92969
774.3240, 108.5635
775.4690, 100.5850
776.6140, 27.73730
777.7590, 51.27344
778.9040, 23.22461
780.0490, 112.7715
781.1940, 18.58496
782.3380, 28.90625
783.4820, 110.8096
784.6260, 52.37695
785.7700, 142.5254
786.9140, 34.88672
788.0580, 115.7207
789.2010, 67.23438
790.3450, 32.27148
791.4880, 2.370117
792.6310, 56.51660
793.7730, 74.74023
794.9160, 92.53125
796.0590, 125.0039
797.2010, 137.9893
798.3430, 110.6377
799.4850, 106.3975
800.6270, 28.73438
801.7690, 27.17480
802.9100, 82.84766
804.0520, 76.16895
805.1930, 102.2812
806.3340, 96.50195
807.4750, 83.83203
808.6160, 55.26270
809.7560, 3.779297
810.8970, 31.35645
812.0370, 24.00977
813.1770, 53.26465
814.3170, 28.50195
815.4570, 67.34570
816.5960, 12.28516
817.7360, 104.2930
818.8750, 0.5839840
820.0140, 64.60254
821.1530, 26.11328
822.2920, 70.22168
823.4310, 47.05664
824.5690, 20.92090
825.7070, 5.782227
826.8460, 33.45117
827.9840, 84.79492
829.1220, 41.00098
830.2590, 37.11426
831.3970, 2.821289
832.5340, 29.68457
833.6710, 28.56543
834.8080, 15.09082
835.9450, 53.34180
837.0820, 51.30957
838.2190, 117.9131
839.3550, 128.4717
840.4910, 60.98730
841.6270, 13.45605
842.7630, 1.859375
843.8990, 93.19531
845.0350, 81.48633
846.1700, 112.3574
847.3060, 91.56250
848.4410, 159.0938
849.5760, 45.20996
850.7100, 74.27539
851.8450, 131.2930
852.9800, 69.26953
854.1140, 222.1992
855.2480, 191.0879
856.3820, 206.9365
857.5160, 300.7432
858.6500, 169.5098
859.7830, 119.2363
860.9170, 147.9189
862.0500, 80.55957
863.1830, 199.1562
864.3160, 204.7119
865.4480, 159.2275
866.5810, 303.7021
867.7130, 122.1367
868.8460, 218.5293
869.9780, 86.88184
871.1100, 212.1904
872.2410, 232.4600
873.3730, 264.6895
874.5050, 331.8809
875.6360, 366.0312
876.7670, 298.1426
877.8980, 148.2158
879.0290, 195.4824
880.1590, 192.8330
881.2900, 233.1982
882.4200, 295.1152
883.5500, 410.9941
884.6800, 421.8350
885.8100, 174.6367
886.9400, 390.4014
888.0690, 317.1270
889.1990, 300.8164
890.3280, 367.4678
891.4570, 378.0811
892.5860, 396.2236
893.7140, 333.9531
894.8430, 457.3633
895.9710, 386.8301
897.1000, 463.1914
898.2280, 467.1982
899.3560, 484.7070
900.4830, 582.8135
901.6110, 460.5605
902.7380, 497.9014
903.8660, 539.2754
904.9930, 571.8672
906.1200, 580.7441
907.2460, 608.5957
908.3730, 597.6230
909.5000, 628.7031
910.6260, 638.9844
911.7520, 649.7090
912.8780, 685.4043
914.0040, 641.1553
915.1290, 691.6572
916.2550, 781.4102
917.3800, 657.8975
918.5050, 647.3945
919.6300, 822.9043
920.7550, 710.4170
921.8800, 783.1904
923.0040, 787.5566
924.1290, 826.2256
925.2530, 949.8984
926.3770, 865.6494
927.5010, 1108.165
928.6250, 1096.168
929.7480, 1216.915
930.8720, 1243.436
931.9950, 1366.812
933.1180, 1298.271
934.2410, 1455.346
935.3640, 1536.596
936.4860, 1626.500
937.6090, 1753.544
938.7310, 1814.657
939.8530, 1969.854
940.9750, 2171.522
942.0970, 2224.872
943.2180, 2360.934
944.3400, 2413.621
945.4610, 2589.169
946.5820, 2765.871
947.7030, 2940.424
948.8240, 3004.208
949.9450, 3176.347
951.0650, 2990.979
952.1860, 3021.003
953.3060, 2936.188
954.4260, 2936.896
955.5460, 2798.456
956.6650, 2732.369
957.7850, 2760.467
958.9040, 2678.965
960.0230, 2665.053
961.1420, 2568.045
962.2610, 2547.254
963.3800, 2421.965
964.4990, 2421.614
965.6170, 2350.582
966.7350, 2303.547
967.8530, 2256.629
968.9710, 2190.496
970.0890, 2118.154
971.2070, 2065.812
972.3240, 1954.012
973.4410, 1879.086
974.5580, 1838.579
975.6750, 1744.932
976.7920, 1666.598
977.9090, 1587.562
979.0250, 1544.197
980.1410, 1469.771
981.2580, 1448.479
982.3740, 1336.097
983.4890, 1255.533
984.6050, 1214.351
985.7200, 1082.328
986.8360, 1117.105
987.9510, 1120.500
989.0660, 1082.493
990.1810, 1140.484
991.2950, 1069.740
992.4100, 1080.812
993.5240, 951.4004
994.6390, 1015.128
995.7530, 940.9775
996.8660, 807.4629
997.9800, 843.3584
999.0940, 977.4971
1000.207, 926.4062
1001.320, 1064.397
1002.433, 977.1211
1003.546, 962.1523
1004.659, 835.7832
1005.772, 826.7900
1006.884, 817.8164
1007.996, 757.8506
1009.108, 795.8984
1010.220, 731.8652
1011.332, 776.8760
1012.444, 677.9668
1013.555, 790.0293
1014.666, 855.0957
1015.777, 717.4629
1016.888, 765.2002
1017.999, 821.3652
1019.110, 696.4648
1020.220, 667.5801
1021.331, 680.7021
1022.441, 707.8320
1023.551, 678.9775
1024.661, 630.1289
1025.770, 605.3018
1026.880, 671.4824
1027.989, 646.6719
1029.098, 693.8809
1030.207, 607.5869
1031.316, 656.9287
1032.425, 525.1650
1033.533, 635.4150
1034.642, 661.6846
1035.750, 661.0020
1036.858, 690.0557
1037.966, 600.4316
1039.073, 645.3438
1040.181, 632.3340
1041.288, 668.1660
1042.396, 642.5938
1043.503, 695.8848
1044.610, 698.3330
1045.716, 621.8594
1046.823, 637.3311
1047.929, 685.8145
1049.036, 830.3164
1050.142, 764.2764
1051.248, 756.5684
1052.353, 839.1396
1053.459, 732.7559
1054.564, 709.4424
1055.670, 719.6562
1056.775, 881.6553
1057.880, 778.1094
1058.985, 873.8125
1060.089, 746.9941
1061.194, 767.7441
1062.298, 760.5293
1063.402, 768.5615
1064.506, 758.5889
1065.610, 826.1455
1066.713, 759.1260
1067.817, 689.5342
1068.920, 770.6436
1070.023, 816.4307
1071.126, 827.3408
1072.229, 704.2080
1073.332, 754.6123
1074.435, 735.0146
1075.537, 712.5947
1076.639, 746.8193
1077.741, 712.3867
1078.843, 702.7900
1079.945, 826.2266
1081.046, 764.3828
1082.148, 757.8711
1083.249, 700.3926
1084.350, 774.9590
1085.451, 755.5576
1086.551, 693.2109
1087.652, 684.1709
1088.752, 627.3945
1089.853, 602.3662
1090.953, 590.1621
1092.053, 613.0000
1093.152, 737.8730
1094.252, 554.7773
1095.351, 693.7197
1096.451, 725.6807
1097.550, 616.7197
1098.649, 660.7090
1099.748, 500.7656
1100.846, 659.8613
1101.945, 683.9961
1103.043, 656.1660
1104.141, 561.3818
1105.239, 522.6201
1106.337, 378.8760
1107.434, 430.0977
1108.532, 661.4473
1109.629, 479.7725
1110.726, 557.1289
1111.823, 509.5059
1112.920, 468.9023
1114.017, 626.3184
1115.113, 676.7539
1116.210, 797.2090
1117.306, 949.6865
1118.402, 1237.186
1119.498, 1317.705
1120.593, 1330.244
1121.689, 1465.433
1122.784, 1471.789
1123.879, 1470.974
1124.974, 1405.587
1126.069, 1205.220
1127.164, 889.8721
1128.259, 850.5430
1129.353, 647.4990
1130.447, 481.9883
1131.541, 395.6758
1132.635, 312.4248
1133.729, 186.1914
1134.822, 382.9795
1135.916, 158.5488
1137.009, 249.3750
1138.102, 103.2744
1139.195, 227.9551
1140.288, 225.1074
1141.380, 141.0088
1142.473, 205.9268
1143.565, 81.86523
1144.657, 125.7617
1145.749, 196.8955
1146.841, 117.7490
1147.932, 243.7607
1149.024, 133.7920
1150.115, 61.83984
1151.206, 71.06934
1152.297, 81.15430
1153.388, 77.80371
1154.479, 64.60840
1155.569, 83.74707
1156.659, 209.1807
1157.750, 122.3057
1158.839, 234.5479
1159.929, 84.24609
1161.019, 108.5254
1162.108, 7.320313
1163.198, 184.9453
1164.287, 167.1846
1165.376, 48.44238
1166.465, 10.71582
1167.553, 26.99121
1168.642, 40.30957
1169.730, 45.37207
1170.818, 29.95020
1171.906, 116.2881
1172.994, 139.6426
1174.082, 109.9854
1175.170, 24.36133
1176.257, 3.276367
1177.344, 104.1025
1178.431, 7.498047
1179.518, 86.91016
1180.605, 15.66113
1181.691, 46.22070
1182.778, 29.21973
1183.864, 102.6768
1184.950, 1.850586
1186.036, 41.36230
1187.122, 12.19824
1188.207, 103.3340
1189.292, 60.10254
1190.378, 14.40625
1191.463, 123.0957
1192.548, 97.24121
1193.632, 89.14355
1194.717, 60.69238
1195.801, 53.25488
1196.886, 45.83301
1197.970, 21.57520
1199.054, 14.96289
1200.137, 25.34180
1201.221, 78.28223
1202.305, 31.08008
1203.388, 99.56055
1204.471, 68.21387
1205.554, 7.880859
1206.637, 127.2959
1207.719, 26.91309
1208.802, 37.67773
1209.884, 68.38281
1210.966, 36.27344
1212.048, 33.87305
1213.130, 33.98047
1214.212, 31.22656
1215.293, 126.0059
1216.374, 41.08203
1217.456, 134.3574
1218.536, 37.10059
1219.617, 220.8604
1220.698, 177.6299
1221.778, 34.41113
1222.859, 78.20703
1223.939, 164.0176
1225.019, 205.8398
1226.099, 175.6729
1227.178, 81.51953
1228.258, 174.3887
1229.337, 168.2695
1230.417, 188.1602
1231.496, 225.0615
1232.574, 228.9736
1233.653, 172.9043
1234.732, 251.8447
1235.810, 158.7949
1236.888, 188.7578
1237.966, 247.7285
1239.044, 156.7139
1240.122, 101.7109
1241.199, 137.8574
1242.277, 84.17773
1243.354, 223.7871
1244.431, 70.83008
1245.508, 216.8818
1246.585, 227.9434
1247.661, 150.0127
1248.738, 159.0918
1249.814, 158.1777
1250.890, 78.27344
1251.966, 121.3770
1253.042, 162.4902
1254.117, 125.6104
1255.193, 144.9883
1256.268, 103.9941
1257.343, 119.0225
1258.418, 110.1074
1259.493, 35.34180
1260.567, 103.5156
1261.642, 92.69824
1262.716, 92.88672
1263.790, 40.08398
1264.864, 23.71094
1265.938, 54.48730
1267.011, 65.30762
1268.085, 4.129883
1269.158, 31.95410
1270.231, 150.2090
1271.304, 82.29395
1272.377, 104.0498
1273.450, 53.74805
1274.522, 14.94727
1275.594, 41.30762
1276.666, 39.75684
1277.738, 85.01855
1278.810, 96.40430
1279.882, 27.57812
1280.953, 23.23438
1282.025, 3.994141
1283.096, 18.11523
1284.167, 57.29492
1285.238, 47.00781
1286.308, 26.84082
1287.379, 59.23926
1288.449, 13.58105
1289.519, 139.5889
1290.589, 63.27539
1291.659, 18.34961
1292.729, 147.5420
1293.798, 183.2002
1294.868, 159.7383
1295.937, 176.4619
1297.006, 100.6553
1298.075, 132.8750
1299.143, 64.58301
1300.212, 114.8125
1301.280, 136.0488
1302.348, 66.29004
1303.416, 209.6807
1304.484, 108.9287
1305.552, 154.1123
1306.620, 93.36914
1307.687, 228.6289
1308.754, 156.8916
1309.821, 210.7432
1310.888, 297.2803
1311.955, 279.5527
1313.021, 303.0879
1314.088, 186.0488
1315.154, 272.7568
1316.220, 240.6934
1317.286, 212.1953
1318.352, 318.4854
1319.417, 273.3281
1320.483, 325.6221
1321.548, 318.6270
1322.613, 442.2090
1323.678, 236.3418
1324.743, 322.6514
1325.807, 373.1572
1326.872, 392.0303
1327.936, 272.7354
1329.000, 327.7822
1330.064, 313.8018
1331.128, 295.6406
1332.191, 376.3252
1333.255, 277.2998
1334.318, 356.4492
1335.381, 358.0361
1336.444, 397.5430
1337.507, 367.6484
1338.569, 359.5273
1339.632, 420.2393
1340.694, 416.1562
1341.756, 414.5430
1342.818, 415.8730
1343.880, 436.2695
1344.941, 364.9199
1346.003, 447.3252
