##NAMES=Braunite
##RRUFFID=R050388
##IDEAL CHEMISTRY=Mn^2+^Mn^3+^_6_SiO_12_
##LOCALITY=Langban, Filipstad, Varmland, Sweden
##OWNER=RRUFF
##SOURCE=University of Arizona Mineral Museum
##DESCRIPTION=Black crystals
##STATUS=The identification of this mineral has been confirmed by X-ray diffraction and chemical analysis
##URL=rruff.info/R050388
##MEASURED CHEMISTRY=(Mn^2+^_0.96_Mg_0.04_)_Î£=1_Mn^3+^_6.00_Si_1.00_O_12_
##PIN_ID=M00455
##ORIENTATION=Laser parallel to a* (1 0 0). Fiducial mark perpendicular to laser is parallel to c [0 0 1]
175.8340, 0.0000000E+00
177.0580, 27.10938
178.2820, 95.25000
179.5050, 508.5547
180.7290, 91.01562
181.9520, 99.84766
183.1760, 27.88672
184.3990, 475.2773
185.6220, 167.6914
186.8450, 307.8242
188.0670, 735.3164
189.2900, 753.3398
190.5120, 932.9297
191.7340, 1054.883
192.9560, 1223.477
194.1780, 1490.512
195.4000, 1804.984
196.6220, 1664.652
197.8430, 2033.590
199.0640, 1839.520
200.2860, 2278.449
201.5070, 2390.461
202.7270, 2744.777
203.9480, 2167.035
205.1690, 1649.762
206.3890, 1049.168
207.6090, 563.6406
208.8290, 691.4727
210.0490, 1124.625
211.2690, 1661.555
212.4890, 1789.000
213.7080, 2152.520
214.9280, 2999.508
216.1470, 2733.664
217.3660, 3073.449
218.5850, 3664.488
219.8030, 3509.480
221.0220, 3144.086
222.2400, 3140.176
223.4590, 2812.148
224.6770, 2568.758
225.8950, 2480.117
227.1120, 2252.148
228.3300, 2189.844
229.5480, 2041.180
230.7650, 1991.906
231.9820, 1912.609
233.1990, 2030.695
234.4160, 2063.359
235.6330, 2020.426
236.8490, 1568.426
238.0660, 1644.387
239.2820, 1634.562
240.4980, 1543.457
241.7140, 1132.566
242.9300, 1145.645
244.1460, 1002.520
245.3610, 843.6406
246.5770, 924.5742
247.7920, 588.2773
249.0070, 523.2812
250.2220, 715.3828
251.4370, 791.3789
252.6510, 784.7852
253.8660, 454.0195
255.0800, 542.1914
256.2940, 462.6875
257.5080, 376.4531
258.7220, 524.0039
259.9360, 241.1406
261.1490, 385.2344
262.3630, 359.0586
263.5760, 410.9570
264.7890, 294.1016
266.0020, 229.4883
267.2150, 333.8594
268.4270, 344.7734
269.6400, 208.7852
270.8520, 266.1094
272.0640, 21.80859
273.2760, 7.046875
274.4880, 216.4297
275.7000, 424.2188
276.9120, 331.8945
278.1230, 376.5820
279.3340, 166.2773
280.5450, 204.9883
281.7560, 165.7031
282.9670, 16.56641
284.1780, 1.828125
285.3880, 86.09375
286.5980, 129.6406
287.8090, 180.6211
289.0190, 46.89062
290.2290, 179.1641
291.4380, 110.4531
292.6480, 12.25391
293.8570, 296.9531
295.0670, 592.5586
296.2760, 476.2461
297.4850, 769.8086
298.6930, 700.1289
299.9020, 793.4688
301.1110, 1026.828
302.3190, 606.1680
303.5270, 391.3828
304.7350, 321.4961
305.9430, 2.406250
307.1510, 122.1641
308.3580, 53.94531
309.5660, 43.29297
310.7730, 0.2421880
311.9800, 132.3984
313.1870, 33.41406
314.3940, 51.39062
315.6010, 73.34766
316.8070, 77.88672
318.0130, 91.11328
319.2200, 184.3320
320.4260, 114.4180
321.6310, 192.7773
322.8370, 224.1562
324.0430, 63.30469
325.2480, 66.86328
326.4540, 19.60547
327.6590, 204.1367
328.8640, 383.6680
330.0680, 203.9141
331.2730, 411.0898
332.4780, 440.3047
333.6820, 506.4844
334.8860, 893.6289
336.0900, 903.7344
337.2940, 858.7891
338.4980, 1317.797
339.7010, 1384.742
340.9050, 1305.637
342.1080, 1016.473
343.3110, 865.2422
344.5140, 955.9570
345.7170, 563.6055
346.9200, 400.1797
348.1220, 543.6758
349.3240, 290.0977
350.5270, 236.4180
351.7290, 351.6562
352.9310, 446.8125
354.1320, 434.9023
355.3340, 457.9180
356.5350, 427.6797
357.7370, 296.7461
358.9380, 311.5469
360.1390, 357.2812
361.3400, 295.9453
362.5400, 337.5508
363.7410, 346.0781
364.9410, 216.5508
366.1410, 165.9570
367.3410, 152.3164
368.5410, 406.6172
369.7410, 525.6719
370.9400, 382.4570
372.1400, 443.2305
373.3390, 290.9727
374.5380, 563.6172
375.7370, 472.0742
376.9360, 620.3398
378.1350, 429.3594
379.3330, 705.2383
380.5310, 512.1406
381.7300, 797.0625
382.9280, 501.0156
384.1260, 317.9922
385.3230, 318.9961
386.5210, 494.0078
387.7180, 479.9922
388.9160, 383.9102
390.1130, 465.7656
391.3100, 274.6250
392.5060, 444.3398
393.7030, 394.7070
394.9000, 331.1992
396.0960, 240.7344
397.2920, 456.3047
398.4880, 657.4531
399.6840, 488.0547
400.8800, 575.4023
402.0750, 310.4727
403.2710, 58.23828
404.4660, 100.2539
405.6610, 401.5977
406.8560, 270.9141
408.0510, 333.5195
409.2450, 514.5742
410.4400, 122.1406
411.6340, 449.6602
412.8280, 68.69922
414.0220, 267.0039
415.2160, 560.3555
416.4100, 227.3008
417.6030, 7.437500
418.7970, 413.6914
419.9900, 249.0273
421.1830, 176.1445
422.3760, 214.5234
423.5690, 254.7500
424.7610, 269.4414
425.9540, 343.1875
427.1460, 197.5039
428.3380, 411.2812
429.5300, 480.0273
430.7220, 391.5898
431.9140, 715.9219
433.1050, 439.8984
434.2970, 514.8281
435.4880, 735.3281
436.6790, 487.7500
437.8700, 441.7539
439.0610, 259.7969
440.2510, 545.8867
441.4420, 409.0195
442.6320, 526.2305
443.8220, 452.5273
445.0120, 943.9180
446.2020, 611.3750
447.3910, 504.8828
448.5810, 822.4453
449.7700, 392.2227
450.9600, 651.6211
452.1490, 763.7266
453.3370, 565.4648
454.5260, 707.1367
455.7150, 637.8555
456.9030, 768.1055
458.0910, 717.5117
459.2800, 907.8047
460.4670, 774.7383
461.6550, 830.5234
462.8430, 555.9492
464.0300, 893.7891
465.2180, 852.8711
466.4050, 1027.164
467.5920, 743.7031
468.7790, 1312.254
469.9650, 1227.090
471.1520, 1529.746
472.3380, 1528.445
473.5250, 1613.184
474.7110, 1821.961
475.8970, 1771.777
477.0820, 1714.633
478.2680, 1836.520
479.4540, 1868.438
480.6390, 1861.398
481.8240, 1807.395
483.0090, 1890.430
484.1940, 1808.910
485.3780, 1737.609
486.5630, 1663.781
487.7470, 1528.992
488.9320, 1352.246
490.1160, 1458.539
491.3000, 1872.871
492.4830, 1466.246
493.6670, 1924.660
494.8500, 1293.117
496.0340, 1618.617
497.2170, 1141.199
498.4000, 1158.824
499.5820, 1183.492
500.7650, 1288.211
501.9480, 1596.969
503.1300, 1298.773
504.3120, 1293.625
505.4940, 1659.520
506.6760, 1444.496
507.8580, 1322.523
509.0390, 1847.621
510.2210, 1559.762
511.4020, 1990.988
512.5830, 1768.266
513.7640, 2110.594
514.9450, 2105.973
516.1250, 2639.402
517.3060, 2646.887
518.4860, 2959.422
519.6660, 2494.012
520.8460, 2369.691
522.0260, 2475.422
523.2060, 2481.203
524.3850, 2540.102
525.5650, 2315.051
526.7440, 2040.109
527.9230, 2228.227
529.1020, 1659.438
530.2810, 1623.695
531.4590, 1315.020
532.6380, 1720.410
533.8160, 1408.863
534.9940, 1564.461
536.1720, 1463.113
537.3500, 1265.875
538.5270, 1596.719
539.7050, 1353.621
540.8820, 1159.582
542.0590, 1468.598
543.2360, 1417.672
544.4130, 1403.812
545.5900, 1439.004
546.7660, 1368.258
547.9430, 1127.570
549.1190, 1427.941
550.2950, 1562.371
551.4710, 1425.855
552.6470, 1172.406
553.8220, 1258.016
554.9980, 1315.930
556.1730, 1315.711
557.3480, 1382.445
558.5230, 1333.477
559.6980, 1509.488
560.8730, 1370.707
562.0470, 1533.035
563.2220, 1318.410
564.3960, 1294.887
565.5700, 1374.426
566.7440, 1596.023
567.9170, 1677.719
569.0910, 2090.500
570.2640, 1594.355
571.4380, 1989.320
572.6110, 1887.090
573.7840, 1691.250
574.9570, 2126.496
576.1290, 1938.871
577.3020, 1957.391
578.4740, 1913.004
579.6460, 2173.668
580.8180, 2741.383
581.9900, 2089.148
583.1620, 1822.020
584.3330, 1262.840
585.5040, 1497.859
586.6760, 1290.762
587.8470, 1454.836
589.0180, 963.9531
590.1880, 1230.137
591.3590, 866.3750
592.5290, 1146.660
593.7000, 736.0039
594.8700, 893.4102
596.0400, 685.6953
597.2090, 600.6836
598.3790, 885.0117
599.5490, 704.6875
600.7180, 787.5000
601.8870, 557.3125
603.0560, 550.7461
604.2250, 975.9102
605.3940, 574.6562
606.5620, 802.1250
607.7300, 907.3516
608.8990, 816.6328
610.0670, 932.9531
611.2350, 1015.312
612.4020, 1115.906
613.5700, 1102.156
614.7370, 1450.633
615.9050, 1588.613
617.0720, 1807.168
618.2390, 1738.754
619.4060, 2095.379
620.5720, 2275.043
621.7390, 2144.738
622.9050, 2395.473
624.0710, 2377.238
625.2370, 2392.043
626.4030, 2679.531
627.5690, 2608.398
628.7340, 2215.586
629.9000, 2336.523
631.0650, 2036.496
632.2300, 1921.508
633.3950, 1714.547
634.5600, 1598.625
635.7240, 1305.727
636.8890, 1110.438
638.0530, 1599.605
639.2170, 1901.805
640.3810, 1397.031
641.5450, 1206.293
642.7080, 876.5820
643.8720, 624.8984
645.0350, 920.7109
646.1980, 977.7812
647.3610, 783.6758
648.5240, 794.7852
649.6870, 761.2227
650.8490, 846.4062
652.0120, 703.9219
653.1740, 819.4570
654.3360, 746.4492
655.4980, 776.0391
656.6600, 937.4609
657.8210, 976.1016
658.9830, 834.7656
660.1440, 992.7930
661.3050, 835.5000
662.4660, 788.2305
663.6270, 682.6562
664.7870, 731.4336
665.9480, 547.6641
667.1080, 750.4766
668.2680, 623.6992
669.4280, 527.3789
670.5880, 218.1250
671.7480, 414.9688
672.9070, 381.0898
674.0670, 646.9219
675.2260, 458.6328
676.3850, 558.5742
677.5440, 533.5977
678.7030, 337.9570
679.8610, 499.9453
681.0200, 232.9531
682.1780, 286.9727
683.3360, 520.9961
684.4940, 298.0352
685.6520, 672.0820
686.8090, 516.1406
687.9670, 267.2070
689.1240, 418.2852
690.2810, 444.3750
691.4380, 416.4688
692.5950, 711.5742
693.7520, 455.6914
694.9080, 342.0078
696.0650, 521.1406
697.2210, 451.2773
698.3770, 335.4219
699.5330, 410.1055
700.6880, 348.5195
701.8440, 431.7773
702.9990, 311.2578
704.1550, 297.4180
705.3100, 245.2031
706.4650, 95.00781
707.6190, 445.1680
708.7740, 281.3281
709.9290, 170.4922
711.0830, 67.34766
712.2370, 104.6016
713.3910, 187.7422
714.5450, 118.8750
715.6980, 82.47266
716.8520, 316.6992
718.0050, 399.8203
719.1580, 164.9336
720.3110, 332.0430
721.4640, 105.6289
722.6170, 153.5820
723.7700, 185.3672
724.9220, 78.50000
726.0740, 86.32812
727.2260, 69.14453
728.3780, 154.1680
729.5300, 11.96094
730.6810, 94.75000
731.8330, 170.4453
732.9840, 121.2109
734.1350, 112.9688
735.2860, 190.2891
736.4370, 22.71875
737.5880, 145.8164
738.7380, 10.97266
739.8880, 39.48438
741.0390, 66.01953
742.1890, 58.58203
743.3380, 83.19922
744.4880, 126.8828
745.6380, 157.3438
746.7870, 228.5547
747.9360, 431.7500
749.0850, 374.3438
750.2340, 245.0938
751.3830, 176.2461
752.5310, 127.3750
753.6800, 18.49219
754.8280, 205.5820
755.9760, 263.6562
757.1240, 156.7148
758.2720, 211.7578
759.4190, 101.7773
760.5670, 281.7852
761.7140, 212.7734
762.8610, 98.74219
764.0080, 46.30469
765.1550, 123.5898
766.3020, 39.85156
767.4480, 147.3125
768.5950, 159.1406
769.7410, 252.9570
770.8870, 443.7500
772.0330, 238.5273
773.1780, 134.2812
774.3240, 122.9805
775.4690, 78.65234
776.6140, 251.2656
777.7590, 280.8633
778.9040, 166.4336
780.0490, 512.9922
781.1940, 159.5312
782.3380, 49.04688
783.4820, 68.46094
784.6260, 22.94922
785.7700, 32.86328
786.9140, 345.6406
788.0580, 83.06641
789.2010, 458.1367
790.3450, 253.3281
791.4880, 57.48828
792.6310, 407.6289
793.7730, 45.74609
794.9160, 333.8359
796.0590, 257.9062
797.2010, 74.04297
798.3430, 110.9219
799.4850, 95.86328
800.6270, 164.2148
801.7690, 334.5742
802.9100, 159.6523
804.0520, 141.9922
805.1930, 107.3906
806.3340, 104.1328
807.4750, 53.62891
808.6160, 21.10156
809.7560, 38.53125
810.8970, 283.0703
812.0370, 51.13281
813.1770, 134.6914
814.3170, 33.62891
815.4570, 65.36328
816.5960, 227.3320
817.7360, 177.2773
818.8750, 209.4805
820.0140, 98.11328
821.1530, 143.0039
822.2920, 207.8750
823.4310, 219.7227
824.5690, 241.5586
825.7070, 247.3711
826.8460, 246.8086
827.9840, 140.9453
829.1220, 186.6992
830.2590, 210.0508
831.3970, 159.8359
832.5340, 302.7578
833.6710, 276.3398
834.8080, 253.9023
835.9450, 167.5586
837.0820, 148.1406
838.2190, 95.16016
839.3550, 131.5586
840.4910, 254.6172
841.6270, 41.77734
842.7630, 122.0859
843.8990, 92.94531
845.0350, 178.9609
846.1700, 137.9648
847.3060, 303.0000
848.4410, 44.83984
849.5760, 317.0703
850.7100, 179.9688
851.8450, 161.1562
852.9800, 70.39453
854.1140, 168.3047
855.2480, 179.9805
856.3820, 207.6445
857.5160, 110.6992
858.6500, 185.8516
859.7830, 85.70312
860.9170, 103.8164
862.0500, 213.6953
863.1830, 246.2617
864.3160, 45.50000
865.4480, 81.46875
866.5810, 40.61328
867.7130, 7.152344
868.8460, 178.7266
869.9780, 65.94922
871.1100, 109.3398
872.2410, 305.7383
873.3730, 293.3203
874.5050, 16.38672
875.6360, 114.8242
876.7670, 7.097656
877.8980, 166.8086
879.0290, 381.8789
880.1590, 231.4297
881.2900, 477.3477
882.4200, 234.6016
883.5500, 153.8516
884.6800, 73.10156
885.8100, 309.3555
886.9400, 264.6055
888.0690, 368.7461
889.1990, 367.1055
890.3280, 447.8867
891.4570, 438.1406
892.5860, 258.3945
893.7140, 340.6523
894.8430, 78.91016
895.9710, 186.1641
897.1000, 477.4297
898.2280, 265.6953
899.3560, 383.9648
900.4830, 450.5977
901.6110, 145.8750
902.7380, 704.8828
903.8660, 393.1719
904.9930, 373.4648
906.1200, 580.7656
907.2460, 488.0703
908.3730, 432.4141
909.5000, 588.7656
910.6260, 778.5547
911.7520, 584.9180
912.8780, 718.2969
914.0040, 586.6992
915.1290, 497.1328
916.2550, 664.5625
917.3800, 584.0078
918.5050, 772.0000
919.6300, 525.7773
920.7550, 761.7656
921.8800, 495.5859
923.0040, 876.0977
924.1290, 826.9531
925.2530, 716.4961
926.3770, 733.0547
927.5010, 787.2070
928.6250, 955.7930
929.7480, 667.5938
930.8720, 865.2188
931.9950, 874.8594
933.1180, 754.1758
934.2410, 747.8555
935.3640, 1064.547
936.4860, 976.5859
937.6090, 1047.320
938.7310, 1138.641
939.8530, 1151.004
940.9750, 1373.820
942.0970, 1307.633
943.2180, 1319.770
944.3400, 1469.676
945.4610, 1457.352
946.5820, 1705.355
947.7030, 1715.520
948.8240, 1468.496
949.9450, 1430.430
951.0650, 1725.074
952.1860, 1421.875
953.3060, 1473.820
954.4260, 1172.379
955.5460, 1381.574
956.6650, 1387.797
957.7850, 1541.055
958.9040, 1419.344
960.0230, 1550.664
961.1420, 1339.012
962.2610, 1305.395
963.3800, 1425.977
964.4990, 1662.555
965.6170, 1813.344
966.7350, 1870.820
967.8530, 1616.227
968.9710, 1780.438
970.0890, 1776.863
971.2070, 1753.902
972.3240, 1965.758
973.4410, 1758.461
974.5580, 1967.723
975.6750, 1729.586
976.7920, 1556.848
977.9090, 1359.012
979.0250, 1614.984
980.1410, 1785.223
981.2580, 1874.383
982.3740, 1639.227
983.4890, 1818.016
984.6050, 1833.887
985.7200, 1842.848
986.8360, 2074.105
987.9510, 1880.168
989.0660, 2119.211
990.1810, 2187.926
991.2950, 2334.590
992.4100, 2304.281
993.5240, 2334.375
994.6390, 2527.270
995.7530, 2632.918
996.8660, 2591.582
997.9800, 2485.914
999.0940, 2580.641
1000.207, 2551.648
1001.320, 2461.707
1002.433, 2545.891
1003.546, 2411.047
1004.659, 2417.816
1005.772, 2238.480
1006.884, 2358.871
1007.996, 2373.391
1009.108, 2312.336
1010.220, 2225.969
1011.332, 2070.648
1012.444, 2441.453
1013.555, 2443.348
1014.666, 2425.344
1015.777, 2215.469
1016.888, 2013.652
1017.999, 2258.934
1019.110, 2229.277
1020.220, 2006.672
1021.331, 2327.129
1022.441, 2407.637
1023.551, 2088.199
1024.661, 2235.828
1025.770, 2146.504
1026.880, 2465.238
1027.989, 2434.039
1029.098, 2340.906
1030.207, 2680.832
1031.316, 2142.812
1032.425, 2347.855
1033.533, 2739.953
1034.642, 2467.129
1035.750, 2576.379
1036.858, 2646.691
1037.966, 2426.066
1039.073, 2635.500
1040.181, 2466.188
1041.288, 2303.629
1042.396, 2785.242
1043.503, 2582.918
1044.610, 2475.691
1045.716, 2295.523
1046.823, 2404.258
1047.929, 2616.059
1049.036, 2491.070
1050.142, 2953.152
1051.248, 2544.293
1052.353, 2620.496
1053.459, 2786.789
1054.564, 2749.145
1055.670, 2674.266
1056.775, 2956.766
1057.880, 2858.367
1058.985, 2723.027
1060.089, 2783.754
1061.194, 2574.539
1062.298, 2724.391
1063.402, 2678.305
1064.506, 2607.742
1065.610, 2684.332
1066.713, 2499.445
1067.817, 2706.633
1068.920, 2661.887
1070.023, 2639.250
1071.126, 2738.676
1072.229, 2674.215
1073.332, 2529.812
1074.435, 2727.516
1075.537, 2451.277
1076.639, 2464.109
1077.741, 2551.270
1078.843, 2650.238
1079.945, 2647.352
1081.046, 2696.531
1082.148, 2664.066
1083.249, 2533.438
1084.350, 2369.340
1085.451, 2474.836
1086.551, 2155.449
1087.652, 2266.266
1088.752, 2483.941
1089.853, 2253.680
1090.953, 2196.473
1092.053, 2088.328
1093.152, 2032.406
1094.252, 2321.383
1095.351, 2124.258
1096.451, 2468.355
1097.550, 2289.504
1098.649, 1982.238
1099.748, 2109.684
1100.846, 2122.066
1101.945, 2080.512
1103.043, 2178.012
1104.141, 1919.625
1105.239, 1739.441
1106.337, 1891.832
1107.434, 1958.578
1108.532, 1944.180
1109.629, 1605.566
1110.726, 1685.836
1111.823, 1598.328
1112.920, 1503.996
1114.017, 1643.379
1115.113, 1352.297
1116.210, 1488.113
1117.306, 1453.617
1118.402, 1497.168
1119.498, 1371.969
1120.593, 1299.031
1121.689, 1397.426
1122.784, 1399.984
1123.879, 1255.645
1124.974, 1304.637
1126.069, 1008.406
1127.164, 1015.254
1128.259, 1153.949
1129.353, 1018.457
1130.447, 1076.191
1131.541, 1060.133
1132.635, 715.9883
1133.729, 937.3633
1134.822, 914.2734
1135.916, 640.1250
1137.009, 978.0820
1138.102, 682.8438
1139.195, 671.6562
1140.288, 1015.012
1141.380, 807.8789
1142.473, 760.8008
1143.565, 558.4375
1144.657, 869.7734
1145.749, 579.3594
1146.841, 628.7422
1147.932, 731.9023
1149.024, 666.2812
1150.115, 621.3242
1151.206, 469.9961
1152.297, 511.4062
1153.388, 372.8945
1154.479, 438.9961
1155.569, 626.5859
1156.659, 515.7617
1157.750, 445.9414
1158.839, 510.7109
1159.929, 349.4844
1161.019, 409.8906
1162.108, 318.7930
1163.198, 411.7344
1164.287, 107.7227
1165.376, 489.7461
1166.465, 136.1758
1167.553, 512.2852
1168.642, 400.4375
1169.730, 214.7461
1170.818, 19.02344
1171.906, 204.7539
1172.994, 354.0391
1174.082, 223.3477
1175.170, 281.6953
1176.257, 641.0859
1177.344, 150.4922
1178.431, 123.0625
1179.518, 57.37891
1180.605, 123.3750
1181.691, 392.8945
1182.778, 166.4570
1183.864, 126.0547
1184.950, 190.6992
1186.036, 82.62500
1187.122, 181.7578
1188.207, 364.0664
1189.292, 459.2969
1190.378, 473.2383
1191.463, 162.9258
1192.548, 272.1836
1193.632, 212.9258
1194.717, 146.7695
1195.801, 314.3008
1196.886, 51.31641
1197.970, 215.2070
1199.054, 208.7422
1200.137, 280.3008
1201.221, 183.0156
1202.305, 137.9102
1203.388, 261.7812
1204.471, 292.1328
1205.554, 175.5391
1206.637, 252.2305
1207.719, 16.33203
1208.802, 18.12109
1209.884, 183.3281
1210.966, 75.37500
1212.048, 14.71484
1213.130, 128.6992
1214.212, 23.86328
1215.293, 86.59375
1216.374, 250.9219
1217.456, 10.51562
1218.536, 34.91797
1219.617, 182.3828
1220.698, 69.86719
1221.778, 244.3789
1222.859, 7.093750
1223.939, 207.4648
1225.019, 30.95312
1226.099, 126.6406
1227.178, 492.2578
1228.258, 170.1016
1229.337, 2.511719
1230.417, 108.0977
1231.496, 251.7305
1232.574, 236.4023
1233.653, 160.0898
1234.732, 252.8438
1235.810, 190.8555
1236.888, 224.2617
1237.966, 168.0195
1239.044, 141.2227
1240.122, 156.9727
1241.199, 115.3828
1242.277, 139.1992
1243.354, 229.0352
1244.431, 163.8789
1245.508, 28.74219
1246.585, 339.6172
1247.661, 30.50000
1248.738, 176.3984
1249.814, 103.3086
1250.890, 44.76953
1251.966, 170.1406
1253.042, 56.05859
1254.117, 46.98828
1255.193, 14.92969
1256.268, 108.8789
1257.343, 11.16016
1258.418, 38.79297
1259.493, 90.24219
1260.567, 46.32031
1261.642, 60.58203
1262.716, 252.4961
1263.790, 209.1992
1264.864, 59.12109
1265.938, 276.0547
1267.011, 25.00000
1268.085, 229.9297
1269.158, 28.19531
1270.231, 87.73047
1271.304, 122.5000
1272.377, 167.0391
1273.450, 37.90625
1274.522, 76.61328
1275.594, 122.2656
1276.666, 65.66797
1277.738, 163.5391
1278.810, 21.99219
1279.882, 35.73047
1280.953, 127.4414
1282.025, 58.46484
1283.096, 34.41797
1284.167, 180.3008
1285.238, 234.8008
1286.308, 138.1914
1287.379, 241.5508
1288.449, 7.085938
1289.519, 47.25000
1290.589, 232.2852
1291.659, 144.1406
1292.729, 243.8398
1293.798, 271.9883
1294.868, 25.00391
1295.937, 243.4023
1297.006, 267.2773
1298.075, 40.12891
1299.143, 289.1328
1300.212, 96.55078
1301.280, 56.84766
1302.348, 142.0078
1303.416, 102.0508
1304.484, 258.0859
1305.552, 225.1719
1306.620, 171.6328
1307.687, 192.3203
1308.754, 10.59766
1309.821, 211.5781
1310.888, 149.5430
1311.955, 218.2500
1313.021, 319.1328
1314.088, 190.5625
1315.154, 300.4961
1316.220, 39.60156
1317.286, 90.37109
1318.352, 107.5625
1319.417, 323.9727
1320.483, 64.82812
1321.548, 106.8828
1322.613, 277.1680
1323.678, 267.9844
1324.743, 333.8320
1325.807, 254.1875
1326.872, 299.3164
1327.936, 281.4414
1329.000, 299.5625
1330.064, 555.6758
1331.128, 567.7891
1332.191, 409.8906
1333.255, 475.5898
1334.318, 457.0703
1335.381, 389.1562
1336.444, 393.9062
1337.507, 479.2422
1338.569, 664.1016
1339.632, 187.1523
1340.694, 618.9453
1341.756, 181.9805
1342.818, 486.5391
1343.880, 365.5625
1344.941, 415.5117
