##NAMES=Braunite
##RRUFFID=R050388
##IDEAL CHEMISTRY=Mn^2+^Mn^3+^_6_SiO_12_
##LOCALITY=Langban, Filipstad, Varmland, Sweden
##OWNER=RRUFF
##SOURCE=University of Arizona Mineral Museum
##DESCRIPTION=Black crystals
##STATUS=The identification of this mineral has been confirmed by X-ray diffraction and chemical analysis
##URL=rruff.info/R050388
##MEASURED CHEMISTRY=(Mn^2+^_0.96_Mg_0.04_)_Î£=1_Mn^3+^_6.00_Si_1.00_O_12_
##PIN_ID=M00354
##ORIENTATION=Laser parallel to -c* (0 0 -1). Fiducial mark perpendicular to laser is parallel to a [1 0 0]
157.4550, 0.0000000E+00
158.6810, 2.582031
159.9080, 45.22656
161.1340, 318.2461
162.3590, 27.41406
163.5850, 397.8398
164.8110, 886.0547
166.0360, 937.9844
167.2610, 1208.355
168.4860, 1327.395
169.7110, 1331.930
170.9360, 1161.730
172.1610, 1038.453
173.3850, 1202.047
174.6100, 1040.203
175.8340, 1185.230
177.0580, 1039.309
178.2820, 1386.539
179.5050, 1484.273
180.7290, 1426.145
181.9520, 1741.887
183.1760, 2174.578
184.3990, 2226.871
185.6220, 3103.340
186.8450, 3528.301
188.0670, 4022.887
189.2900, 4843.699
190.5120, 5086.367
191.7340, 5840.645
192.9560, 6492.625
194.1780, 7125.977
195.4000, 8181.734
196.6220, 8741.695
197.8430, 9563.551
199.0640, 10265.78
200.2860, 11071.76
201.5070, 12108.03
202.7270, 12905.77
203.9480, 12720.69
205.1690, 12402.70
206.3890, 12344.24
207.6090, 12579.97
208.8290, 12965.07
210.0490, 13082.69
211.2690, 13061.62
212.4890, 12158.92
213.7080, 11875.51
214.9280, 11211.34
216.1470, 10326.00
217.3660, 9485.828
218.5850, 8907.355
219.8030, 8701.816
221.0220, 8184.832
222.2400, 7559.387
223.4590, 6960.512
224.6770, 6334.211
225.8950, 5805.023
227.1120, 5189.621
228.3300, 4801.023
229.5480, 4174.910
230.7650, 3903.062
231.9820, 3366.527
233.1990, 2962.402
234.4160, 2407.254
235.6330, 2101.383
236.8490, 1737.777
238.0660, 1779.441
239.2820, 1750.352
240.4980, 1301.496
241.7140, 1437.867
242.9300, 966.4570
244.1460, 926.2422
245.3610, 900.2109
246.5770, 1034.355
247.7920, 701.6641
249.0070, 431.7188
250.2220, 634.5430
251.4370, 737.5820
252.6510, 746.1797
253.8660, 377.1875
255.0800, 496.8633
256.2940, 420.3164
257.5080, 335.8359
258.7220, 523.5664
259.9360, 209.9023
261.1490, 393.4023
262.3630, 378.4766
263.5760, 454.3906
264.7890, 333.6523
266.0020, 273.6523
267.2150, 410.3867
268.4270, 292.1445
269.6400, 115.2812
270.8520, 93.28906
272.0640, 422.4062
273.2760, 179.4180
274.4880, 35.34766
275.7000, 13.53125
276.9120, 315.6016
278.1230, 157.0508
279.3340, 193.9375
280.5450, 238.8242
281.7560, 11.56641
282.9670, 285.7539
284.1780, 62.76562
285.3880, 38.24609
286.5980, 76.84375
287.8090, 4.964844
289.0190, 26.44141
290.2290, 148.6367
291.4380, 77.07812
292.6480, 162.9375
293.8570, 123.1719
295.0670, 170.0586
296.2760, 335.7188
297.4850, 137.9297
298.6930, 183.2188
299.9020, 33.31641
301.1110, 7.574219
302.3190, 21.87891
303.5270, 68.15625
304.7350, 58.07422
305.9430, 126.1992
307.1510, 24.91406
308.3580, 284.2109
309.5660, 102.0000
310.7730, 204.9414
311.9800, 400.0156
313.1870, 319.1602
314.3940, 376.3711
315.6010, 524.6094
316.8070, 670.8672
318.0130, 925.1289
319.2200, 558.3750
320.4260, 1077.586
321.6310, 1255.750
322.8370, 1842.855
324.0430, 1756.906
325.2480, 2165.891
326.4540, 1993.816
327.6590, 2394.672
328.8640, 2626.465
330.0680, 2258.191
331.2730, 2321.855
332.4780, 1929.422
333.6820, 1998.863
334.8860, 1617.172
336.0900, 1503.352
337.2940, 1016.395
338.4980, 734.3047
339.7010, 958.0898
340.9050, 599.7500
342.1080, 400.3047
343.3110, 610.7617
344.5140, 499.1289
345.7170, 651.4141
346.9200, 360.6250
348.1220, 27.76562
349.3240, 83.84766
350.5270, 33.48828
351.7290, 56.83984
352.9310, 31.75391
354.1320, 276.6016
355.3340, 295.4141
356.5350, 379.2031
357.7370, 522.0391
358.9380, 671.1328
360.1390, 683.0664
361.3400, 463.7109
362.5400, 403.8984
363.7410, 281.7344
364.9410, 379.3125
366.1410, 262.5938
367.3410, 298.8320
368.5410, 211.0000
369.7410, 302.2148
370.9400, 489.2578
372.1400, 575.0273
373.3390, 641.6484
374.5380, 292.3086
375.7370, 386.9688
376.9360, 362.5938
378.1350, 351.2734
379.3330, 364.0234
380.5310, 455.8398
381.7300, 342.7266
382.9280, 455.6875
384.1260, 419.2500
385.3230, 137.8086
386.5210, 395.9727
387.7180, 78.20703
388.9160, 39.50391
390.1130, 68.12891
391.3100, 3.296875
392.5060, 24.68750
393.7030, 8.324219
394.9000, 35.46484
396.0960, 99.16016
397.2920, 153.7969
398.4880, 172.2695
399.6840, 217.8242
400.8800, 255.0039
402.0750, 256.3398
403.2710, 135.4258
404.4660, 102.9453
405.6610, 202.1641
406.8560, 276.4570
408.0510, 217.8125
409.2450, 521.1797
410.4400, 319.1797
411.6340, 589.7461
412.8280, 158.6172
414.0220, 580.8086
415.2160, 499.9258
416.4100, 721.7656
417.6030, 411.2344
418.7970, 795.0742
419.9900, 621.3281
421.1830, 436.3242
422.3760, 1188.656
423.5690, 806.0664
424.7610, 678.0391
425.9540, 551.6602
427.1460, 608.4648
428.3380, 637.6484
429.5300, 760.7578
430.7220, 384.3672
431.9140, 882.3672
433.1050, 696.4297
434.2970, 740.4883
435.4880, 990.2656
436.6790, 940.0586
437.8700, 480.7930
439.0610, 1001.031
440.2510, 638.3203
441.4420, 1003.477
442.6320, 694.2383
443.8220, 1081.062
445.0120, 889.4102
446.2020, 995.3242
447.3910, 1157.738
448.5810, 990.9883
449.7700, 736.4648
450.9600, 935.0859
452.1490, 763.4453
453.3370, 1201.973
454.5260, 753.5234
455.7150, 827.1328
456.9030, 914.8203
458.0910, 815.5703
459.2800, 769.3945
460.4670, 1010.285
461.6550, 1212.266
462.8430, 1167.328
464.0300, 1360.496
465.2180, 1266.730
466.4050, 1318.094
467.5920, 1303.539
468.7790, 1533.086
469.9650, 1492.703
471.1520, 1499.422
472.3380, 1760.223
473.5250, 1619.207
474.7110, 1818.305
475.8970, 1385.473
477.0820, 1697.750
478.2680, 1733.105
479.4540, 1457.543
480.6390, 1849.117
481.8240, 2031.770
483.0090, 2247.512
484.1940, 1577.336
485.3780, 1656.273
486.5630, 1823.297
487.7470, 1742.414
488.9320, 1890.648
490.1160, 1871.293
491.3000, 1815.547
492.4830, 1866.191
493.6670, 1928.355
494.8500, 1961.184
496.0340, 2414.113
497.2170, 2448.145
498.4000, 2776.266
499.5820, 2666.484
500.7650, 2912.797
501.9480, 3236.211
503.1300, 4327.723
504.3120, 4291.332
505.4940, 4901.047
506.6760, 3714.867
507.8580, 4044.805
509.0390, 4567.844
510.2210, 3726.992
511.4020, 4367.258
512.5830, 4207.625
513.7640, 3857.109
514.9450, 3757.715
516.1250, 3636.434
517.3060, 3542.266
518.4860, 3157.246
519.6660, 2883.336
520.8460, 2987.594
522.0260, 3052.867
523.2060, 3023.309
524.3850, 3003.875
525.5650, 2614.562
526.7440, 2764.387
527.9230, 2683.332
529.1020, 2371.383
530.2810, 2544.547
531.4590, 2222.832
532.6380, 2239.453
533.8160, 2367.957
534.9940, 2425.383
536.1720, 2401.180
537.3500, 2208.109
538.5270, 2622.152
539.7050, 2304.309
540.8820, 2464.582
542.0590, 2342.977
543.2360, 2713.480
544.4130, 2448.109
545.5900, 2719.852
546.7660, 2602.723
547.9430, 2503.719
549.1190, 2891.832
550.2950, 2766.059
551.4710, 2986.434
552.6470, 2764.922
553.8220, 2646.535
554.9980, 2906.383
556.1730, 3025.406
557.3480, 2797.602
558.5230, 2850.102
559.6980, 3074.797
560.8730, 2680.656
562.0470, 3023.656
563.2220, 2771.926
564.3960, 2677.391
565.5700, 3168.047
566.7440, 3045.914
567.9170, 3272.930
569.0910, 3172.219
570.2640, 3608.660
571.4380, 3345.258
572.6110, 3078.980
573.7840, 2760.836
574.9570, 2484.902
576.1290, 2420.082
577.3020, 2330.422
578.4740, 2156.934
579.6460, 1811.605
580.8180, 1463.449
581.9900, 1145.516
583.1620, 997.7422
584.3330, 843.1328
585.5040, 589.6602
586.6760, 636.6758
587.8470, 926.0703
589.0180, 710.9688
590.1880, 852.9961
591.3590, 914.1641
592.5290, 883.4570
593.7000, 1212.852
594.8700, 1100.352
596.0400, 1281.961
597.2090, 1598.676
598.3790, 1828.500
599.5490, 2425.422
600.7180, 2308.629
601.8870, 2586.727
603.0560, 2903.984
604.2250, 3613.906
605.3940, 4155.363
606.5620, 4701.254
607.7300, 5163.020
608.8990, 5680.219
610.0670, 6297.129
611.2350, 6373.562
612.4020, 7392.383
613.5700, 7730.871
614.7370, 8000.812
615.9050, 8003.266
617.0720, 8283.707
618.2390, 8176.367
619.4060, 7905.125
620.5720, 7831.762
621.7390, 7233.707
622.9050, 6830.078
624.0710, 6230.223
625.2370, 5902.844
626.4030, 5285.715
627.5690, 4595.133
628.7340, 4230.770
629.9000, 3816.762
631.0650, 3528.461
632.2300, 3263.098
633.3950, 2931.973
634.5600, 2303.938
635.7240, 2621.047
636.8890, 1870.184
638.0530, 1913.543
639.2170, 1661.848
640.3810, 1835.246
641.5450, 1332.727
642.7080, 1169.293
643.8720, 1278.941
645.0350, 1328.762
646.1980, 1289.574
647.3610, 1374.648
648.5240, 940.6289
649.6870, 770.6836
650.8490, 921.8945
652.0120, 911.1172
653.1740, 842.4141
654.3360, 955.1523
655.4980, 711.6094
656.6600, 892.1406
657.8210, 840.1914
658.9830, 756.3828
660.1440, 1377.148
661.3050, 1220.988
662.4660, 1019.898
663.6270, 1508.238
664.7870, 1279.887
665.9480, 1687.660
667.1080, 1528.867
668.2680, 1307.145
669.4280, 1898.492
670.5880, 1680.906
671.7480, 2000.828
672.9070, 2177.387
674.0670, 2240.301
675.2260, 2488.223
676.3850, 2552.629
677.5440, 2922.457
678.7030, 3064.348
679.8610, 3535.305
681.0200, 3570.762
682.1780, 4119.844
683.3360, 4217.578
684.4940, 4757.793
685.6520, 4676.062
686.8090, 4762.555
687.9670, 4889.949
689.1240, 4684.449
690.2810, 4567.562
691.4380, 4325.148
692.5950, 4018.125
693.7520, 3770.812
694.9080, 3454.305
696.0650, 3964.098
697.2210, 4005.062
698.3770, 3492.957
699.5330, 2879.902
700.6880, 2331.164
701.8440, 1929.516
702.9990, 1249.859
704.1550, 1214.000
705.3100, 1137.113
706.4650, 964.3594
707.6190, 588.8789
708.7740, 975.2969
709.9290, 600.6562
711.0830, 587.3945
712.2370, 637.8281
713.3910, 471.4766
714.5450, 302.9922
715.6980, 682.2891
716.8520, 210.8750
718.0050, 376.6875
719.1580, 363.3711
720.3110, 98.75000
721.4640, 132.6641
722.6170, 319.6406
723.7700, 283.7773
724.9220, 71.58594
726.0740, 102.6875
727.2260, 142.5508
728.3780, 35.44141
729.5300, 23.80859
730.6810, 133.2227
731.8330, 316.7109
732.9840, 159.7695
734.1350, 156.7461
735.2860, 102.7500
736.4370, 42.81250
737.5880, 144.8516
738.7380, 7.074219
739.8880, 138.9727
741.0390, 68.21875
742.1890, 167.5039
743.3380, 63.93750
744.4880, 252.8984
745.6380, 86.96484
746.7870, 135.0781
747.9360, 492.4062
749.0850, 129.6641
750.2340, 16.94141
751.3830, 489.0430
752.5310, 123.3594
753.6800, 246.2852
754.8280, 125.0586
755.9760, 126.0781
757.1240, 310.7070
758.2720, 207.5664
759.4190, 62.98828
760.5670, 22.44531
761.7140, 127.2070
762.8610, 81.22266
764.0080, 110.3125
765.1550, 1.855469
766.3020, 125.5977
767.4480, 337.1094
768.5950, 267.2109
769.7410, 221.2500
770.8870, 58.97656
772.0330, 156.2070
773.1780, 20.56250
774.3240, 97.65625
775.4690, 0.8828130
776.6140, 157.0938
777.7590, 114.3398
778.9040, 90.48047
780.0490, 86.75391
781.1940, 53.98047
782.3380, 39.20703
783.4820, 98.43359
784.6260, 11.65234
785.7700, 294.8633
786.9140, 243.0781
788.0580, 51.28906
789.2010, 293.4961
790.3450, 130.7031
791.4880, 1.089844
792.6310, 108.0938
793.7730, 249.2695
794.9160, 70.55469
796.0590, 48.56250
797.2010, 211.6641
798.3430, 239.7695
799.4850, 236.8672
800.6270, 8.035156
801.7690, 139.0195
802.9100, 55.92578
804.0520, 106.0664
805.1930, 257.0547
806.3340, 205.0352
807.4750, 162.0078
808.6160, 35.01953
809.7560, 186.8906
810.8970, 254.8008
812.0370, 111.3008
813.1770, 112.4961
814.3170, 464.2969
815.4570, 145.0781
816.5960, 346.8516
817.7360, 93.62109
818.8750, 580.3789
820.0140, 90.12500
821.1530, 235.8555
822.2920, 266.5781
823.4310, 21.28516
824.5690, 251.9570
825.7070, 149.6172
826.8460, 36.73438
827.9840, 158.8438
829.1220, 45.41016
830.2590, 312.9453
831.3970, 85.53125
832.5340, 199.8945
833.6710, 55.69141
834.8080, 368.6367
835.9450, 254.9531
837.0820, 136.2617
838.2190, 68.44922
839.3550, 123.7461
840.4910, 201.9258
841.6270, 104.0898
842.7630, 169.2344
843.8990, 153.6406
845.0350, 162.3555
846.1700, 279.3320
847.3060, 63.29688
848.4410, 331.2266
849.5760, 183.8633
850.7100, 396.8984
851.8450, 90.35547
852.9800, 275.2852
854.1140, 103.9102
855.2480, 182.5078
856.3820, 59.08984
857.5160, 163.6328
858.6500, 161.1562
859.7830, 3.664063
860.9170, 347.1094
862.0500, 160.5430
863.1830, 197.9570
864.3160, 204.3516
865.4480, 146.7383
866.5810, 191.7109
867.7130, 263.4531
868.8460, 176.7891
869.9780, 300.1094
871.1100, 212.4180
872.2410, 188.7109
873.3730, 325.9883
874.5050, 270.2539
875.6360, 194.3281
876.7670, 125.6016
877.8980, 125.4297
879.0290, 86.51562
880.1590, 162.5938
881.2900, 31.38281
882.4200, 92.44922
883.5500, 22.86719
884.6800, 307.1641
885.8100, 116.2383
886.9400, 424.0156
888.0690, 163.6914
889.1990, 242.0000
890.3280, 197.8867
891.4570, 13.13281
892.5860, 226.7031
893.7140, 105.5312
894.8430, 478.5664
895.9710, 232.3711
897.1000, 2.859375
898.2280, 409.6367
899.3560, 332.0352
900.4830, 239.8008
901.6110, 276.0352
902.7380, 326.6719
903.8660, 100.0391
904.9930, 46.78906
906.1200, 218.6836
907.2460, 335.4258
908.3730, 328.1758
909.5000, 335.6523
910.6260, 455.0078
911.7520, 272.2227
912.8780, 489.9609
914.0040, 660.6953
915.1290, 332.4297
916.2550, 228.1641
917.3800, 318.8945
918.5050, 250.5352
919.6300, 470.2617
920.7550, 219.8125
921.8800, 270.5391
923.0040, 291.2695
924.1290, 534.9219
925.2530, 454.6445
926.3770, 284.3711
927.5010, 288.7422
928.6250, 536.4648
929.7480, 370.1875
930.8720, 581.4805
931.9950, 520.6992
933.1180, 607.4570
934.2410, 836.2188
935.3640, 790.9766
936.4860, 719.3945
937.6090, 644.1602
938.7310, 641.6914
939.8530, 662.4648
940.9750, 714.2344
942.0970, 602.0156
943.2180, 707.7930
944.3400, 743.1445
945.4610, 874.9336
946.5820, 981.7266
947.7030, 1164.383
948.8240, 1184.168
949.9450, 1249.984
951.0650, 1418.801
952.1860, 1323.629
953.3060, 1573.031
954.4260, 1530.867
955.5460, 1554.125
956.6650, 1357.977
957.7850, 1362.836
958.9040, 1353.539
960.0230, 1486.414
961.1420, 1389.297
962.2610, 1407.516
963.3800, 1178.410
964.4990, 1424.969
965.6170, 1059.883
966.7350, 1005.055
967.8530, 1212.988
968.9710, 1009.820
970.0890, 561.7812
971.2070, 859.7617
972.3240, 817.4844
973.4410, 577.4336
974.5580, 759.9492
975.6750, 523.9766
976.7920, 776.0898
977.9090, 852.1250
979.0250, 700.9492
980.1410, 700.9375
981.2580, 879.0352
982.3740, 623.8047
983.4890, 677.9375
984.6050, 417.9062
985.7200, 444.0664
986.8360, 687.5039
987.9510, 670.7031
989.0660, 386.7227
990.1810, 548.9297
991.2950, 630.4922
992.4100, 349.5703
993.5240, 837.6328
994.6390, 775.5820
995.7530, 731.9180
996.8660, 487.0312
997.9800, 874.4297
999.0940, 1096.875
1000.207, 472.9336
1001.320, 726.4648
1002.433, 294.1055
1003.546, 477.6602
1004.659, 251.3477
1005.772, 575.0586
1006.884, 204.7539
1007.996, 713.5039
1009.108, 550.2852
1010.220, 648.0703
1011.332, 240.2305
1012.444, 260.4609
1013.555, 572.9844
1014.666, 356.8164
1015.777, 435.8750
1016.888, 483.0117
1017.999, 489.5664
1019.110, 622.7227
1020.220, 496.0977
1021.331, 490.3359
1022.441, 1042.715
1023.551, 725.1445
1024.661, 679.6055
1025.770, 839.6016
1026.880, 594.2070
1027.989, 548.7656
1029.098, 690.4883
1030.207, 676.6328
1031.316, 598.3672
1032.425, 643.2227
1033.533, 544.1328
1034.642, 618.6758
1035.750, 594.2500
1036.858, 607.1367
1037.966, 661.9375
1039.073, 632.9531
1040.181, 804.2578
1041.288, 773.7305
1042.396, 896.0977
1043.503, 869.5039
1044.610, 913.4844
1045.716, 827.4219
1046.823, 926.9336
1047.929, 1032.473
1049.036, 943.0469
1050.142, 914.6484
1051.248, 889.2891
1052.353, 1005.957
1053.459, 877.6562
1054.564, 907.3945
1055.670, 771.4688
1056.775, 920.2695
1057.880, 1053.109
1058.985, 836.9805
1060.089, 673.8789
1061.194, 1049.828
1062.298, 1075.809
1063.402, 871.8203
1064.506, 637.5859
1065.610, 899.5703
1066.713, 1056.113
1067.817, 1119.242
1068.920, 808.9023
1070.023, 980.8516
1071.126, 959.5859
1072.229, 930.4648
1073.332, 1170.434
1074.435, 914.6406
1075.537, 1150.367
1076.639, 1189.930
1077.741, 893.4414
1078.843, 1087.020
1079.945, 1000.641
1081.046, 976.3398
1082.148, 1175.047
1083.249, 950.8164
1084.350, 900.6094
1085.451, 887.4492
1086.551, 1055.324
1087.652, 931.2305
1088.752, 1186.176
1089.853, 1108.156
1090.953, 1027.172
1092.053, 919.2344
1093.152, 1045.516
1094.252, 733.4648
1095.351, 993.6680
1096.451, 1414.906
1097.550, 695.1914
1098.649, 1067.723
1099.748, 1038.500
1100.846, 1021.340
1101.945, 1102.848
1103.043, 998.0625
1104.141, 800.6367
1105.239, 662.2539
1106.337, 934.9414
1107.434, 796.6641
1108.532, 816.4219
1109.629, 905.2266
1110.726, 927.0586
1111.823, 932.9922
1112.920, 873.1641
1114.017, 832.2578
1115.113, 704.0234
1116.210, 672.1172
1117.306, 652.3086
1118.402, 561.5352
1119.498, 587.7891
1120.593, 543.1953
1121.689, 599.7812
1122.784, 610.0195
1123.879, 599.4922
1124.974, 555.0000
1126.069, 582.5469
1127.164, 464.1562
1128.259, 775.2109
1129.353, 408.8945
1130.447, 514.2227
1131.541, 260.1641
1132.635, 484.7227
1133.729, 527.8945
1134.822, 499.7500
1135.916, 464.0352
1137.009, 417.9570
1138.102, 381.8555
1139.195, 358.8984
1140.288, 319.9219
1141.380, 407.9766
1142.473, 437.0625
1143.565, 446.1875
1144.657, 348.3477
1145.749, 221.5469
1146.841, 90.77344
1147.932, 412.0508
1149.024, 32.36719
1150.115, 488.7344
1151.206, 238.1406
1152.297, 264.6172
1153.388, 268.1289
1154.479, 121.5469
1155.569, 148.4375
1156.659, 33.85156
1157.750, 94.29688
1158.839, 237.4375
1159.929, 210.1484
1161.019, 73.10938
1162.108, 501.3203
1163.198, 231.1094
1164.287, 397.0469
1165.376, 39.64844
1166.465, 300.2227
1167.553, 59.79688
1168.642, 414.7227
1169.730, 329.6719
1170.818, 345.6523
1171.906, 85.31641
1172.994, 383.7227
1174.082, 192.7852
1175.170, 279.8711
1176.257, 280.9844
1177.344, 538.1250
1178.431, 7.289063
1179.518, 600.4805
1180.605, 337.8789
1181.691, 80.92969
1182.778, 239.1914
1183.864, 156.4805
1184.950, 217.7930
1186.036, 20.87109
1187.122, 40.48438
1188.207, 409.8672
1189.292, 12.27734
1190.378, 131.7109
1191.463, 202.1680
1192.548, 7.648438
1193.632, 31.14844
1194.717, 79.67969
1195.801, 160.7656
1196.886, 47.78906
1197.970, 115.3555
1199.054, 48.95312
1200.137, 240.5703
1201.221, 132.2070
1202.305, 237.8711
1203.388, 82.55469
1204.471, 1.257813
1205.554, 334.9844
1206.637, 23.73438
1207.719, 240.5039
1208.802, 15.30469
1209.884, 252.1211
1210.966, 330.9766
1212.048, 37.15234
1213.130, 202.7305
1214.212, 379.6367
1215.293, 377.5625
1216.374, 10.50781
1217.456, 98.47266
1218.536, 283.4531
1219.617, 121.4570
1220.698, 321.4805
1221.778, 420.5195
1222.859, 507.5781
1223.939, 265.6602
1225.019, 350.5312
1226.099, 701.9219
1227.178, 356.0859
1228.258, 368.2656
1229.337, 563.4609
1230.417, 262.6758
1231.496, 249.9062
1232.574, 43.83984
1233.653, 83.41406
1234.732, 271.6836
1235.810, 318.9688
1236.888, 462.2695
1237.966, 124.5938
1239.044, 52.93359
1240.122, 278.2852
1241.199, 473.6562
1242.277, 62.04688
1243.354, 398.4453
1244.431, 150.8633
1245.508, 184.3008
1246.585, 411.7461
1247.661, 151.2109
1248.738, 221.6875
1249.814, 373.1719
1250.890, 283.6758
1251.966, 399.1914
1253.042, 322.2070
1254.117, 17.26172
1255.193, 135.8203
1256.268, 56.39453
1257.343, 94.01562
1258.418, 150.5312
1259.493, 95.90625
1260.567, 190.3789
1261.642, 97.17188
1262.716, 140.5195
1263.790, 63.79688
1264.864, 1.148438
1265.938, 295.5078
1267.011, 330.8789
1268.085, 194.2656
1269.158, 355.6602
1270.231, 209.0625
1271.304, 241.4805
1272.377, 137.9102
1273.450, 281.3477
1274.522, 163.7969
1275.594, 499.2539
1276.666, 309.7266
1277.738, 384.2031
1278.810, 149.6875
1279.882, 316.1797
1280.953, 176.6836
1282.025, 287.1914
1283.096, 56.70703
1284.167, 315.2266
1285.238, 164.7578
1286.308, 254.0820
1287.379, 8.871094
1288.449, 137.5156
1289.519, 190.4219
1290.589, 131.5195
1291.659, 30.12500
1292.729, 1.500000
1293.798, 41.08203
1294.868, 187.8164
1295.937, 78.51953
1297.006, 146.6328
1298.075, 175.5703
1299.143, 294.3008
1300.212, 293.9258
1301.280, 466.0859
1302.348, 296.3828
1303.416, 286.6914
1304.484, 388.0039
1305.552, 335.3398
1306.620, 400.6836
1307.687, 401.0391
1308.754, 180.3984
1309.821, 676.7578
1310.888, 492.1289
1311.955, 197.5000
1313.021, 447.8711
1314.088, 135.2422
1315.154, 333.3164
1316.220, 513.6914
1317.286, 316.9258
1318.352, 319.5078
1319.417, 319.8711
1320.483, 590.2266
1321.548, 681.5703
1322.613, 449.4062
1323.678, 243.7539
1324.743, 447.4922
1325.807, 303.5898
1326.872, 376.2109
1327.936, 327.5781
1329.000, 558.9492
