##NAMES=Braunite
##RRUFFID=R050390
##IDEAL CHEMISTRY=Mn^2+^Mn^3+^_6_SiO_12_
##LOCALITY=Oehrenstock, Thuringia, Germany
##OWNER=RRUFF
##SOURCE=University of Arizona Mineral Museum
##DESCRIPTION=Mass of black octahedra
##STATUS=The identification of this mineral has been confirmed by X-ray diffraction and chemical analysis
##URL=rruff.info/R050390
##MEASURED CHEMISTRY=(Mn^2+^_0.83_Ca_0.17_)_Î£=1_Mn^3+^_6.00_Si_1.00_O_12_
##PIN_ID=M00380
##ORIENTATION=Laser parallel to c* (0 0 1). Fiducial mark perpendicular to laser is parallel to a [1 0 0]
297.4850, 0.0000000E+00
298.6930, 172.4219
299.9020, 0.4414060
301.1110, 169.4883
302.3190, 310.2129
303.5270, 283.7773
304.7350, 236.5312
305.9430, 112.3242
307.1510, 184.4980
308.3580, 16.12305
309.5660, 211.0293
310.7730, 316.4863
311.9800, 337.2812
313.1870, 17.70312
314.3940, 139.4277
315.6010, 85.42383
316.8070, 24.82422
318.0130, 210.5137
319.2200, 56.22852
320.4260, 495.6523
321.6310, 46.15430
322.8370, 251.9512
324.0430, 723.0996
325.2480, 802.5703
326.4540, 873.5020
327.6590, 844.0898
328.8640, 1224.383
330.0680, 1318.191
331.2730, 1125.311
332.4780, 1443.717
333.6820, 1872.564
334.8860, 1657.594
336.0900, 1709.584
337.2940, 1648.545
338.4980, 1839.488
339.7010, 1754.426
340.9050, 1585.363
342.1080, 1790.314
343.3110, 1843.287
344.5140, 1545.287
345.7170, 1556.330
346.9200, 1505.416
348.1220, 1358.553
349.3240, 1385.750
350.5270, 934.8398
351.7290, 688.0879
352.9310, 892.4141
354.1320, 870.5703
355.3340, 832.9492
356.5350, 764.4258
357.7370, 717.6914
358.9380, 760.6660
360.1390, 633.9277
361.3400, 720.2676
362.5400, 509.1504
363.7410, 646.4258
364.9410, 665.3184
366.1410, 571.3906
367.3410, 488.6172
368.5410, 555.9883
369.7410, 652.5020
370.9400, 700.0996
372.1400, 551.7676
373.3390, 652.5117
374.5380, 352.3281
375.7370, 308.6758
376.9360, 508.3965
378.1350, 617.9531
379.3330, 642.1953
380.5310, 325.3672
381.7300, 449.0957
382.9280, 396.3828
384.1260, 336.5195
385.3230, 522.4922
386.5210, 255.6953
387.7180, 437.9629
388.9160, 398.7227
390.1130, 289.5566
391.3100, 382.4785
392.5060, 462.4941
393.7030, 226.5996
394.9000, 230.8027
396.0960, 121.0938
397.2920, 470.4844
398.4880, 221.9727
399.6840, 200.6523
400.8800, 246.2500
402.0750, 46.96094
403.2710, 108.9277
404.4660, 63.91211
405.6610, 295.0000
406.8560, 9.187500
408.0510, 54.47461
409.2450, 10.86719
410.4400, 78.63672
411.6340, 16.96484
412.8280, 294.6699
414.0220, 104.4805
415.2160, 228.3965
416.4100, 112.5840
417.6030, 191.4590
418.7970, 17.22656
419.9900, 8.105469
421.1830, 69.45312
422.3760, 66.07422
423.5690, 42.29883
424.7610, 94.42773
425.9540, 135.7539
427.1460, 110.9336
428.3380, 109.4336
429.5300, 225.7910
430.7220, 24.68359
431.9140, 121.4941
433.1050, 81.78711
434.2970, 254.1113
435.4880, 53.45898
436.6790, 71.85156
437.8700, 24.32812
439.0610, 87.90234
440.2510, 36.57422
441.4420, 67.74609
442.6320, 309.8555
443.8220, 46.90430
445.0120, 185.0156
446.2020, 11.15430
447.3910, 195.1738
448.5810, 162.2637
449.7700, 338.3848
450.9600, 369.6133
452.1490, 293.2949
453.3370, 365.5254
454.5260, 544.8574
455.7150, 424.2871
456.9030, 336.5449
458.0910, 589.1641
459.2800, 466.8730
460.4670, 493.6504
461.6550, 571.5293
462.8430, 660.9961
464.0300, 678.0371
465.2180, 810.1582
466.4050, 740.3594
467.5920, 916.6387
468.7790, 777.9902
469.9650, 1038.422
471.1520, 1155.920
472.3380, 958.4883
473.5250, 1046.123
474.7110, 1252.814
475.8970, 1321.570
477.0820, 1205.385
478.2680, 1405.260
479.4540, 1301.197
480.6390, 1462.199
481.8240, 1302.266
483.0090, 1669.428
484.1940, 1696.654
485.3780, 1789.945
486.5630, 1979.301
487.7470, 2002.965
488.9320, 1963.229
490.1160, 2088.873
491.3000, 2246.594
492.4830, 2170.381
493.6670, 2254.229
494.8500, 2247.199
496.0340, 2396.275
497.2170, 2426.439
498.4000, 2332.717
499.5820, 2410.117
500.7650, 2523.527
501.9480, 2456.055
503.1300, 2478.691
504.3120, 2530.746
505.4940, 2564.723
506.6760, 2599.943
507.8580, 2711.734
509.0390, 2728.609
510.2210, 2785.600
511.4020, 2786.678
512.5830, 3063.820
513.7640, 3193.062
514.9450, 3350.375
516.1250, 3284.785
517.3060, 3471.277
518.4860, 3344.852
519.6660, 3612.568
520.8460, 3650.377
522.0260, 3496.281
523.2060, 3836.250
524.3850, 3497.275
525.5650, 3476.361
526.7440, 3373.514
527.9230, 3460.756
529.1020, 3349.072
530.2810, 3122.451
531.4590, 3100.891
532.6380, 2977.402
533.8160, 2990.994
534.9940, 2902.668
536.1720, 2802.396
537.3500, 2467.186
538.5270, 2748.029
539.7050, 2277.928
540.8820, 2738.885
542.0590, 2477.893
543.2360, 2717.959
544.4130, 2518.648
545.5900, 2678.820
546.7660, 2661.266
547.9430, 2586.322
549.1190, 2673.650
550.2950, 2616.262
551.4710, 2617.305
552.6470, 2567.662
553.8220, 2660.193
554.9980, 2607.777
556.1730, 2763.410
557.3480, 2630.088
558.5230, 2756.434
559.6980, 2678.582
560.8730, 2619.080
562.0470, 2601.951
563.2220, 2553.143
564.3960, 2586.107
565.5700, 2637.621
566.7440, 2782.295
567.9170, 2798.400
569.0910, 2908.516
570.2640, 2980.760
571.4380, 3032.277
572.6110, 2798.156
573.7840, 2901.172
574.9570, 2419.535
576.1290, 2339.943
577.3020, 2536.391
578.4740, 2446.883
579.6460, 2089.418
580.8180, 1938.996
581.9900, 1985.609
583.1620, 1920.270
584.3330, 1797.979
585.5040, 1634.742
586.6760, 1756.553
587.8470, 1691.412
589.0180, 1523.320
590.1880, 1464.275
591.3590, 1374.279
592.5290, 1319.332
593.7000, 1334.441
594.8700, 1406.594
596.0400, 1415.797
597.2090, 1342.045
598.3790, 1269.340
599.5490, 1483.682
600.7180, 1257.068
601.8870, 1143.500
603.0560, 1239.012
604.2250, 1446.582
605.3940, 1212.195
606.5620, 1508.854
607.7300, 1450.559
608.8990, 1482.309
610.0670, 1610.100
611.2350, 1531.932
612.4020, 1566.805
613.5700, 1644.721
614.7370, 1608.676
615.9050, 1590.670
617.0720, 1738.707
618.2390, 1701.781
619.4060, 2108.895
620.5720, 1856.676
621.7390, 1665.867
622.9050, 1838.752
624.0710, 2309.053
625.2370, 2041.748
626.4030, 2514.086
627.5690, 2267.250
628.7340, 2276.660
629.9000, 2608.859
631.0650, 2889.641
632.2300, 3204.150
633.3950, 3624.605
634.5600, 2530.482
635.7240, 2532.129
636.8890, 2611.797
638.0530, 3152.545
639.2170, 3140.094
640.3810, 2494.545
641.5450, 2304.354
642.7080, 2177.328
643.8720, 2154.543
645.0350, 2162.625
646.1980, 2083.164
647.3610, 2087.252
648.5240, 2021.623
649.6870, 1914.816
650.8490, 1892.018
652.0120, 1822.553
653.1740, 1728.965
654.3360, 1752.180
655.4980, 1537.965
656.6600, 1514.654
657.8210, 1407.523
658.9830, 1509.049
660.1440, 1559.434
661.3050, 1378.293
662.4660, 1460.379
663.6270, 1562.479
664.7870, 1707.674
665.9480, 1593.719
667.1080, 1381.041
668.2680, 1719.500
669.4280, 1494.363
670.5880, 1797.523
671.7480, 1654.844
672.9070, 1662.754
674.0670, 1842.795
675.2260, 1854.988
676.3850, 2119.529
677.5440, 1890.734
678.7030, 2015.945
679.8610, 1994.162
681.0200, 2305.385
682.1780, 2422.611
683.3360, 2338.844
684.4940, 2470.086
685.6520, 2589.672
686.8090, 2746.043
687.9670, 2912.834
689.1240, 3200.092
690.2810, 3388.350
691.4380, 3612.609
692.5950, 3775.885
693.7520, 4031.160
694.9080, 4245.438
696.0650, 4479.715
697.2210, 4946.994
698.3770, 5076.289
699.5330, 5021.613
700.6880, 5450.938
701.8440, 5371.266
702.9990, 5463.598
704.1550, 5255.934
705.3100, 6005.270
706.4650, 5332.605
707.6190, 5398.957
708.7740, 5504.320
709.9290, 5060.697
711.0830, 5050.104
712.2370, 4714.510
713.3910, 4742.930
714.5450, 4426.346
715.6980, 6059.758
716.8520, 4599.168
718.0050, 3933.574
719.1580, 4647.977
720.3110, 3367.373
721.4640, 3158.768
722.6170, 2957.156
723.7700, 2437.539
724.9220, 2453.918
726.0740, 2247.289
727.2260, 1715.656
728.3780, 1782.018
729.5300, 1528.371
730.6810, 1351.719
731.8330, 1576.059
732.9840, 1343.391
734.1350, 1055.719
735.2860, 883.0371
736.4370, 836.3496
737.5880, 953.6523
738.7380, 766.9453
739.8880, 731.2305
741.0390, 536.2031
742.1890, 473.4707
743.3380, 433.7285
744.4880, 378.9746
745.6380, 315.3809
746.7870, 410.6074
747.9360, 641.8242
749.0850, 421.0312
750.2340, 165.2148
751.3830, 342.7344
752.5310, 429.9570
753.6800, 431.7656
754.8280, 92.45312
755.9760, 193.6172
757.1240, 118.2383
758.2720, 35.62109
759.4190, 198.7598
760.5670, 91.00391
761.7140, 68.15039
762.8610, 48.05859
764.0080, 109.9805
765.1550, 5.734375
766.3020, 88.26953
767.4480, 285.8418
768.5950, 13.13672
769.7410, 98.51953
770.8870, 22.83594
772.0330, 181.2461
773.1780, 126.7891
774.3240, 160.4355
775.4690, 144.2031
776.6140, 189.0859
777.7590, 155.1035
778.9040, 192.2402
780.0490, 194.5176
781.1940, 132.9336
782.3380, 147.4590
783.4820, 100.9023
784.6260, 47.75391
785.7700, 7.476563
786.9140, 165.2422
788.0580, 46.61328
789.2010, 93.16016
790.3450, 100.0605
791.4880, 32.22852
792.6310, 108.2109
793.7730, 21.39453
794.9160, 41.80859
796.0590, 251.5020
797.2010, 85.38477
798.3430, 93.92969
799.4850, 189.4414
800.6270, 94.59766
801.7690, 62.13867
802.9100, 23.46094
804.0520, 70.24414
805.1930, 22.01562
806.3340, 26.16016
807.4750, 65.31445
808.6160, 21.54688
809.7560, 49.45508
810.8970, 52.42188
812.0370, 255.5527
813.1770, 32.51367
814.3170, 456.4531
815.4570, 166.3809
816.5960, 103.2949
817.7360, 87.19531
818.8750, 282.0840
820.0140, 283.9590
821.1530, 186.8203
822.2920, 102.6699
823.4310, 142.1582
824.5690, 146.1230
825.7070, 203.1465
826.8460, 292.9473
827.9840, 336.7363
829.1220, 443.5137
830.2590, 368.2812
831.3970, 162.0371
832.5340, 288.7812
833.6710, 261.5137
834.8080, 340.2363
835.9450, 122.9492
837.0820, 305.6484
838.2190, 376.3398
839.3550, 556.0234
840.4910, 459.6934
841.6270, 401.3535
842.7630, 152.0039
843.8990, 185.6445
845.0350, 204.2754
846.1700, 211.9004
847.3060, 117.5137
848.4410, 238.1211
849.5760, 211.7148
850.7100, 256.3008
851.8450, 139.8809
852.9800, 319.4512
854.1140, 70.01172
855.2480, 286.5645
856.3820, 307.1113
857.5160, 207.6504
858.6500, 173.1855
859.7830, 210.7109
860.9170, 174.5977
862.0500, 155.7422
863.1830, 233.2500
864.3160, 232.7500
865.4480, 335.2441
866.5810, 351.7324
867.7130, 309.2207
868.8460, 328.7031
869.9780, 254.1797
871.1100, 319.6523
872.2410, 259.1211
873.3730, 35.58594
874.5050, 292.0469
875.6360, 177.5059
876.7670, 167.1387
877.8980, 56.99414
879.0290, 190.8945
880.1590, 239.3750
881.2900, 53.23828
882.4200, 94.59766
883.5500, 65.90820
884.6800, 29.97070
885.8100, 239.8125
886.9400, 3.228516
888.0690, 202.6777
889.1990, 229.3887
890.3280, 338.1055
891.4570, 269.1973
892.5860, 255.1562
893.7140, 418.7773
894.8430, 483.4023
895.9710, 178.5449
897.1000, 317.2520
898.2280, 126.5879
899.3560, 182.6035
900.4830, 389.6035
901.6110, 503.5957
902.7380, 534.9824
903.8660, 205.5059
904.9930, 332.9727
906.1200, 287.2148
907.2460, 230.3125
908.3730, 409.7871
909.5000, 139.6758
910.6260, 316.5391
911.7520, 315.1523
912.8780, 393.0254
914.0040, 295.4043
915.1290, 250.3359
916.2550, 382.8223
917.3800, 420.7051
918.5050, 303.1758
919.6300, 400.2051
920.7550, 351.9707
921.8800, 654.5391
923.0040, 554.8594
924.1290, 279.2109
925.2530, 734.8594
926.3770, 615.1680
927.5010, 487.9473
928.6250, 605.8750
929.7480, 601.9395
930.8720, 672.8633
931.9950, 751.1680
933.1180, 893.6543
934.2410, 794.7070
935.3640, 566.5703
936.4860, 962.4746
937.6090, 800.3242
938.7310, 1269.361
939.8530, 1768.176
940.9750, 1197.885
942.0970, 1291.238
943.2180, 1463.344
944.3400, 1299.332
945.4610, 1491.775
946.5820, 1528.129
947.7030, 1546.369
948.8240, 1678.301
949.9450, 1670.613
951.0650, 1780.006
952.1860, 1989.434
953.3060, 1881.896
954.4260, 2184.391
955.5460, 2098.945
956.6650, 2356.541
957.7850, 2412.496
958.9040, 2782.883
960.0230, 2488.607
961.1420, 2878.367
962.2610, 2800.158
963.3800, 2448.988
964.4990, 2779.854
965.6170, 2758.787
966.7350, 2694.758
967.8530, 2540.768
968.9710, 2613.820
970.0890, 2599.914
971.2070, 2761.043
972.3240, 2670.211
973.4410, 2266.416
974.5580, 2398.656
975.6750, 2337.934
976.7920, 2430.250
977.9090, 2175.605
979.0250, 2397.996
980.1410, 1960.428
981.2580, 2220.930
982.3740, 2006.471
983.4890, 1842.076
984.6050, 2066.723
985.7200, 1710.412
986.8360, 1732.148
987.9510, 1721.926
989.0660, 1751.742
990.1810, 1873.654
991.2950, 1681.605
992.4100, 1627.609
993.5240, 1817.652
994.6390, 1609.736
995.7530, 1814.875
996.8660, 1809.822
997.9800, 1952.289
999.0940, 1700.605
1000.207, 1775.979
1001.320, 1750.857
1002.433, 1609.859
1003.546, 1726.367
1004.659, 1530.941
1005.772, 1479.561
1006.884, 1731.256
1007.996, 1612.014
1009.108, 1506.816
1010.220, 1365.656
1011.332, 1439.848
1012.444, 1325.777
1013.555, 1285.750
1014.666, 1512.764
1015.777, 1442.656
1016.888, 1459.080
1017.999, 1495.889
1019.110, 1348.164
1020.220, 1446.434
1021.331, 1295.680
1022.441, 1226.037
1023.551, 1444.443
1024.661, 1366.904
1025.770, 1518.410
1026.880, 1308.961
1027.989, 1155.559
1029.098, 1333.203
1030.207, 1401.893
1031.316, 1382.662
1032.425, 1351.484
1033.533, 1340.359
1034.642, 1685.285
1035.750, 1234.275
1036.858, 1388.318
1037.966, 1414.660
1039.073, 1448.846
1040.181, 1464.188
1041.288, 1377.617
1042.396, 1303.152
1043.503, 1372.957
1044.610, 1616.502
1045.716, 1493.322
1046.823, 1592.248
1047.929, 1656.014
1049.036, 1532.410
1050.142, 1784.658
1051.248, 1622.238
1052.353, 1358.672
1053.459, 1988.150
1054.564, 1577.701
1055.670, 1818.311
1056.775, 1852.020
1057.880, 1849.797
1058.985, 1852.621
1060.089, 1710.527
1061.194, 2016.482
1062.298, 1965.621
1063.402, 2059.727
1064.506, 1841.898
1065.610, 1979.193
1066.713, 1987.564
1067.817, 1854.012
1068.920, 1896.838
1070.023, 2259.373
1071.126, 2049.953
1072.229, 2087.672
1073.332, 1827.375
1074.435, 1933.994
1075.537, 1979.773
1076.639, 2007.818
1077.741, 2028.264
1078.843, 1793.807
1079.945, 1966.844
1081.046, 1849.832
1082.148, 1727.078
1083.249, 1850.086
1084.350, 1676.893
1085.451, 1735.137
1086.551, 1746.426
1087.652, 1601.266
1088.752, 1646.463
1089.853, 1816.363
1090.953, 1631.805
1092.053, 1799.287
1093.152, 1702.807
1094.252, 1739.365
1095.351, 1947.963
1096.451, 1472.596
1097.550, 1722.660
1098.649, 1732.367
1099.748, 1605.109
1100.846, 1493.641
1101.945, 1651.373
1103.043, 1587.225
1104.141, 1401.111
1105.239, 1806.035
1106.337, 1530.912
1107.434, 1504.980
1108.532, 1342.828
1109.629, 1526.895
1110.726, 1620.781
1111.823, 1629.344
1112.920, 1304.268
1114.017, 1412.223
1115.113, 1349.480
1116.210, 1273.732
1117.306, 1445.043
1118.402, 1163.691
1119.498, 1329.934
1120.593, 1317.033
1121.689, 1398.453
1122.784, 1289.986
1123.879, 1239.258
1124.974, 1363.389
1126.069, 1389.168
1127.164, 1263.098
1128.259, 1337.613
1129.353, 1052.018
1130.447, 1092.016
1131.541, 1262.271
1132.635, 1143.412
1133.729, 867.6035
1134.822, 650.3477
1135.916, 600.1758
1137.009, 780.2227
1138.102, 877.3320
1139.195, 886.2754
1140.288, 549.2793
1141.380, 652.8242
1142.473, 579.8320
1143.565, 499.6992
1144.657, 665.3457
1145.749, 378.1328
1146.841, 539.9219
1147.932, 522.5488
1149.024, 594.5957
1150.115, 481.8594
1151.206, 423.8066
1152.297, 543.4590
1153.388, 564.9160
1154.479, 432.3066
1155.569, 504.2910
1156.659, 211.6523
1157.750, 374.4941
1158.839, 287.7363
1159.929, 301.9062
1161.019, 261.2695
1162.108, 357.5605
1163.198, 181.5117
1164.287, 141.3086
1165.376, 316.4043
1166.465, 436.2559
1167.553, 53.76562
1168.642, 295.8711
1169.730, 283.3496
1170.818, 138.8789
1171.906, 38.33594
1172.994, 237.4766
1174.082, 346.3828
1175.170, 369.8027
1176.257, 52.12305
1177.344, 175.7637
1178.431, 122.0586
1179.518, 61.12109
1180.605, 247.2402
1181.691, 20.78516
1182.778, 160.1523
1183.864, 161.8906
1184.950, 245.6562
1186.036, 151.8027
1187.122, 112.8125
1188.207, 251.5156
1189.292, 291.8379
1190.378, 177.5449
1191.463, 266.5430
1192.548, 7.648438
1193.632, 37.68555
1194.717, 219.7129
1195.801, 114.4609
1196.886, 206.7168
1197.970, 223.7129
1199.054, 101.2871
1200.137, 168.4805
1201.221, 181.0039
1202.305, 70.59180
1203.388, 178.7695
1204.471, 36.43164
1205.554, 85.81055
1206.637, 10.44727
1207.719, 65.15820
1208.802, 85.21289
1209.884, 38.23633
1210.966, 26.62500
1212.048, 14.47070
1213.130, 220.6289
1214.212, 21.77148
1215.293, 86.77344
1216.374, 87.03906
1217.456, 112.6504
1218.536, 47.45117
1219.617, 108.7559
1220.698, 63.37500
1221.778, 56.49609
1222.859, 92.60742
1223.939, 427.7227
1225.019, 182.8262
1226.099, 94.92383
1227.178, 142.9844
1228.258, 126.0215
1229.337, 143.0137
1230.417, 31.00391
1231.496, 15.05273
1232.574, 70.87500
1233.653, 86.79102
1234.732, 103.6953
1235.810, 105.5879
1236.888, 241.4668
1237.966, 33.33203
1239.044, 164.4160
1240.122, 43.25195
1241.199, 15.10742
1242.277, 106.0879
1243.354, 96.63281
1244.431, 75.65820
1245.508, 245.0469
1246.585, 0.3261720
1247.661, 1.726563
1248.738, 69.84180
1249.814, 32.39453
1250.890, 171.0684
1251.966, 66.34570
1253.042, 17.25781
1254.117, 221.0938
1255.193, 420.4277
1256.268, 11.25391
1257.343, 140.0195
1258.418, 13.72852
1259.493, 121.5176
1260.567, 4.416016
1261.642, 30.00586
1262.716, 27.05273
1263.790, 97.07227
1264.864, 52.91211
1265.938, 53.03516
1267.011, 77.04688
1268.085, 31.21680
1269.158, 287.5508
1270.231, 182.2949
1271.304, 171.0176
1272.377, 109.7188
1273.450, 287.3965
1274.522, 165.0801
1275.594, 191.6855
1276.666, 134.2949
1277.738, 62.11914
1278.810, 94.37695
1279.882, 371.8477
1280.953, 150.2949
1282.025, 105.7148
1283.096, 72.25586
1284.167, 36.60938
1285.238, 84.82812
1286.308, 129.2266
1287.379, 167.4883
1288.449, 290.7246
1289.519, 250.9355
1290.589, 282.1211
1291.659, 54.27930
1292.729, 60.53125
1293.798, 88.60742
1294.868, 104.6484
1295.937, 46.65625
1297.006, 145.3848
1298.075, 154.4277
1299.143, 150.2148
1300.212, 14.98047
1301.280, 155.6953
1302.348, 159.5176
1303.416, 290.1387
1304.484, 374.3438
1305.552, 103.2793
1306.620, 424.7988
1307.687, 336.2891
1308.754, 87.87109
1309.821, 223.2871
1310.888, 230.4336
1311.955, 209.7871
1313.021, 361.1133
1314.088, 406.4082
1315.154, 290.6719
1316.220, 343.9062
1317.286, 372.1055
1318.352, 630.2812
1319.417, 246.4766
1320.483, 353.5898
1321.548, 126.5664
1322.613, 424.6016
1323.678, 207.6094
1324.743, 300.5898
1325.807, 361.1934
1326.872, 425.9824
1327.936, 363.0117
1329.000, 493.5254
1330.064, 451.9922
1331.128, 539.6758
1332.191, 420.2773
1333.255, 392.2598
1334.318, 354.2891
1335.381, 318.8535
1336.444, 480.9512
1337.507, 193.7871
1338.569, 397.1621
1339.632, 509.6699
1340.694, 537.0645
1341.756, 214.2129
1342.818, 346.8184
1343.880, 297.2637
1344.941, 240.5664
1346.003, 423.9648
1347.064, 158.1406
1348.125, 341.3730
1349.186, 347.0742
1350.247, 434.7852
1351.308, 347.5723
1352.368, 312.7656
1353.428, 456.3613
1354.489, 501.2871
1355.549, 395.7988
1356.608, 561.2246
1357.668, 413.3340
1358.727, 568.6641
1359.787, 435.8008
1360.846, 399.9238
1361.905, 1049.289
1362.964, 323.4473
1364.022, 384.3965
1365.081, 641.3203
1366.139, 204.2207
1367.197, 284.0918
1368.255, 253.9375
1369.313, 307.7227
1370.371, 426.0234
1371.428, 475.9922
1372.486, 239.2070
1373.543, 717.1270
1374.600, 379.8945
1375.657, 632.4766
1376.713, 592.0918
1377.770, 945.1973
1378.826, 367.7676
1379.882, 652.3438
1380.938, 358.0703
1381.994, 406.6016
1383.050, 951.1113
1384.106, 320.1992
1385.161, 462.6680
1386.216, 281.0742
1387.271, 403.8008
1388.326, 159.3340
1389.381, 631.9473
1390.435, 240.4883
1391.490, 477.0762
1392.544, 326.5645
1393.598, 263.4004
1394.652, 493.9355
1395.705, 264.2266
1396.759, 487.3086
1397.812, 608.3340
1398.866, 234.2949
1399.919, 568.2344
1400.972, 506.1152
1402.024, 278.1582
1403.077, 314.9707
1404.129, 449.7617
1405.181, 462.1172
1406.233, 300.6523
1407.285, 433.3594
1408.337, 326.0449
1409.389, 188.5332
1410.440, 244.4668
1411.491, 286.1133
1412.542, 307.1523
1413.593, 341.6172
1414.644, 281.1152
1415.695, 555.5879
1416.745, 502.0273
1417.795, 398.4355
1418.845, 189.1797
1419.895, 234.9688
1420.945, 280.3613
1421.995, 335.9707
1423.044, 399.9023
1424.093, 278.2188
1425.142, 382.1406
1426.191, 192.9844
1427.240, 248.2305
1428.289, 158.0176
1429.337, 197.7773
1430.385, 369.6113
1431.433, 236.4082
1432.481, 520.6133
1433.529, 329.3340
1434.577, 168.0137
1435.624, 243.3789
1436.672, 334.0000
1437.719, 263.5938
1438.766, 445.1582
1439.812, 370.1738
1440.859, 250.8281
1441.905, 273.4141
1442.952, 237.9414
1443.998, 287.0664
1445.044, 181.8340
1446.090, 461.0742
1447.135, 275.8223
1448.181, 379.2832
1449.226, 304.8594
1450.271, 299.4824
