##NAMES=Braunite
##RRUFFID=R050388
##IDEAL CHEMISTRY=Mn^2+^Mn^3+^_6_SiO_12_
##LOCALITY=Langban, Filipstad, Varmland, Sweden
##OWNER=RRUFF
##SOURCE=University of Arizona Mineral Museum
##DESCRIPTION=Black crystals
##STATUS=The identification of this mineral has been confirmed by X-ray diffraction and chemical analysis
##URL=rruff.info/R050388
##MEASURED CHEMISTRY=(Mn^2+^_0.96_Mg_0.04_)_Î£=1_Mn^3+^_6.00_Si_1.00_O_12_
##PIN_ID=M00455
##ORIENTATION=Laser parallel to a* (1 0 0). Fiducial mark perpendicular to laser is parallel to c [0 0 1]
175.8340, 0.0000000E+00
177.0580, 41.59766
178.2820, 64.92969
179.5050, 95.74219
180.7290, 212.3828
181.9520, 14.32031
183.1760, 5.843750
184.3990, 82.53125
185.6220, 244.0078
186.8450, 569.9727
188.0670, 811.7383
189.2900, 869.5938
190.5120, 1116.391
191.7340, 1064.645
192.9560, 1389.719
194.1780, 1293.730
195.4000, 1584.926
196.6220, 1880.414
197.8430, 1898.852
199.0640, 2137.855
200.2860, 2066.379
201.5070, 2871.168
202.7270, 2828.441
203.9480, 2842.391
205.1690, 1718.340
206.3890, 913.3672
207.6090, 578.2266
208.8290, 185.7500
210.0490, 319.8750
211.2690, 507.3203
212.4890, 1017.027
213.7080, 1053.297
214.9280, 1253.242
216.1470, 1349.711
217.3660, 1597.129
218.5850, 1797.453
219.8030, 2209.043
221.0220, 1732.488
222.2400, 1499.145
223.4590, 2243.668
224.6770, 1928.598
225.8950, 1388.590
227.1120, 1475.977
228.3300, 1167.484
229.5480, 1101.750
230.7650, 871.9648
231.9820, 614.2070
233.1990, 445.1680
234.4160, 596.0977
235.6330, 509.2344
236.8490, 365.8281
238.0660, 580.7930
239.2820, 517.5430
240.4980, 739.9375
241.7140, 367.5625
242.9300, 702.8555
244.1460, 479.1758
245.3610, 119.7969
246.5770, 667.5156
247.7920, 339.0430
249.0070, 446.9531
250.2220, 224.1914
251.4370, 410.5430
252.6510, 511.3086
253.8660, 531.1211
255.0800, 226.8203
256.2940, 341.5000
257.5080, 288.5156
258.7220, 228.8320
259.9360, 402.9414
261.1490, 146.6289
262.3630, 317.3008
263.5760, 317.6953
264.7890, 396.1680
266.0020, 305.8789
267.2150, 267.8203
268.4270, 398.7422
269.6400, 556.1094
270.8520, 192.0703
272.0640, 294.0742
273.2760, 332.1250
274.4880, 294.2188
275.7000, 357.3516
276.9120, 393.5078
278.1230, 363.6992
279.3340, 317.9023
280.5450, 332.1133
281.7560, 77.67188
282.9670, 25.47656
284.1780, 90.61328
285.3880, 384.6562
286.5980, 141.6328
287.8090, 315.6016
289.0190, 58.47656
290.2290, 290.4102
291.4380, 65.74219
292.6480, 246.9180
293.8570, 165.0938
295.0670, 85.73828
296.2760, 34.58203
297.4850, 5.441406
298.6930, 64.78516
299.9020, 96.21875
301.1110, 6.156250
302.3190, 98.03516
303.5270, 178.2461
304.7350, 285.4297
305.9430, 136.6523
307.1510, 243.0078
308.3580, 30.55078
309.5660, 114.0703
310.7730, 263.4414
311.9800, 223.0508
313.1870, 82.73438
314.3940, 366.6016
315.6010, 36.46484
316.8070, 3.507813
318.0130, 58.57812
319.2200, 140.6680
320.4260, 14.73047
321.6310, 98.29688
322.8370, 282.9727
324.0430, 328.2617
325.2480, 248.9062
326.4540, 383.5898
327.6590, 438.4609
328.8640, 490.3477
330.0680, 781.7109
331.2730, 769.1172
332.4780, 1264.434
333.6820, 1389.668
334.8860, 1601.875
336.0900, 1825.848
337.2940, 1904.801
338.4980, 2322.641
339.7010, 2246.371
340.9050, 2459.988
342.1080, 2180.488
343.3110, 1897.871
344.5140, 1432.145
345.7170, 1557.312
346.9200, 979.3867
348.1220, 814.3672
349.3240, 818.2539
350.5270, 929.0469
351.7290, 893.7188
352.9310, 826.2969
354.1320, 618.3750
355.3340, 914.7031
356.5350, 589.7695
357.7370, 920.6758
358.9380, 835.4062
360.1390, 558.0469
361.3400, 424.5469
362.5400, 603.9219
363.7410, 397.2148
364.9410, 412.4609
366.1410, 414.4648
367.3410, 280.5430
368.5410, 542.5742
369.7410, 408.5742
370.9400, 556.5508
372.1400, 702.5195
373.3390, 933.4727
374.5380, 841.1875
375.7370, 590.8789
376.9360, 841.5664
378.1350, 852.0898
379.3330, 816.3945
380.5310, 890.4102
381.7300, 890.7734
382.9280, 962.9180
384.1260, 902.8555
385.3230, 866.6328
386.5210, 715.6016
387.7180, 658.0977
388.9160, 637.6602
390.1130, 584.6641
391.3100, 694.8164
392.5060, 512.2891
393.7030, 728.2812
394.9000, 1030.770
396.0960, 753.7852
397.2920, 521.6914
398.4880, 743.7891
399.6840, 593.5391
400.8800, 894.5430
402.0750, 619.0352
403.2710, 480.6602
404.4660, 542.7266
405.6610, 639.6641
406.8560, 694.3164
408.0510, 675.1133
409.2450, 442.6445
410.4400, 878.6406
411.6340, 661.4141
412.8280, 698.2734
414.0220, 889.5469
415.2160, 540.8203
416.4100, 794.4453
417.6030, 475.4492
418.7970, 630.5820
419.9900, 906.6953
421.1830, 864.2734
422.3760, 690.8359
423.5690, 719.3086
424.7610, 829.9531
425.9540, 1074.895
427.1460, 833.4453
428.3380, 1007.973
429.5300, 1105.133
430.7220, 1010.191
431.9140, 1171.359
433.1050, 1035.512
434.2970, 917.8047
435.4880, 1199.176
436.6790, 1148.512
437.8700, 804.3320
439.0610, 897.0078
440.2510, 1004.723
441.4420, 926.2695
442.6320, 1320.250
443.8220, 940.6797
445.0120, 1212.273
446.2020, 985.6680
447.3910, 1294.367
448.5810, 847.6719
449.7700, 901.6641
450.9600, 976.3281
452.1490, 946.6758
453.3370, 1114.203
454.5260, 1062.801
455.7150, 1193.215
456.9030, 1232.449
458.0910, 1237.445
459.2800, 1286.930
460.4670, 1369.883
461.6550, 1344.469
462.8430, 1505.270
464.0300, 1499.836
465.2180, 1548.578
466.4050, 1610.969
467.5920, 1635.430
468.7790, 1788.934
469.9650, 1743.492
471.1520, 2112.102
472.3380, 2015.770
473.5250, 2518.555
474.7110, 2512.418
475.8970, 2930.336
477.0820, 3365.309
478.2680, 3509.340
479.4540, 3512.418
480.6390, 3837.547
481.8240, 3967.738
483.0090, 3622.992
484.1940, 3584.309
485.3780, 3587.680
486.5630, 3353.105
487.7470, 3141.613
488.9320, 3022.188
490.1160, 2786.816
491.3000, 2631.512
492.4830, 2721.270
493.6670, 2508.090
494.8500, 2509.973
496.0340, 2275.918
497.2170, 2326.934
498.4000, 2534.012
499.5820, 2585.160
500.7650, 2419.375
501.9480, 2547.652
503.1300, 2434.047
504.3120, 2692.504
505.4940, 2550.039
506.6760, 2652.641
507.8580, 2960.320
509.0390, 2827.070
510.2210, 3373.898
511.4020, 3195.801
512.5830, 3844.789
513.7640, 3923.859
514.9450, 4030.004
516.1250, 4283.234
517.3060, 4509.539
518.4860, 4605.949
519.6660, 4629.434
520.8460, 4709.270
522.0260, 4591.637
523.2060, 4532.402
524.3850, 4482.242
525.5650, 3978.172
526.7440, 3810.195
527.9230, 3589.316
529.1020, 3348.605
530.2810, 3216.992
531.4590, 3219.516
532.6380, 2949.203
533.8160, 3113.031
534.9940, 2706.969
536.1720, 2473.992
537.3500, 2512.141
538.5270, 2516.406
539.7050, 2503.762
540.8820, 2642.227
542.0590, 2403.801
543.2360, 2420.473
544.4130, 2859.262
545.5900, 2568.168
546.7660, 2623.160
547.9430, 2503.262
549.1190, 2526.453
550.2950, 2628.734
551.4710, 2385.102
552.6470, 2415.566
553.8220, 2674.129
554.9980, 2461.773
556.1730, 2767.504
557.3480, 2336.328
558.5230, 2852.242
559.6980, 2855.270
560.8730, 3023.414
562.0470, 2488.660
563.2220, 2706.992
564.3960, 2644.406
565.5700, 2812.906
566.7440, 2500.484
567.9170, 2717.199
569.0910, 2675.031
570.2640, 2885.961
571.4380, 2846.004
572.6110, 2595.355
573.7840, 2659.680
574.9570, 2543.137
576.1290, 2247.676
577.3020, 2114.328
578.4740, 2097.793
579.6460, 1822.547
580.8180, 1809.688
581.9900, 1705.145
583.1620, 1374.492
584.3330, 1122.922
585.5040, 993.3672
586.6760, 811.7578
587.8470, 731.4805
589.0180, 588.3320
590.1880, 537.1250
591.3590, 490.8086
592.5290, 726.8008
593.7000, 424.5391
594.8700, 826.0547
596.0400, 541.1406
597.2090, 650.8594
598.3790, 357.0391
599.5490, 850.0352
600.7180, 774.0977
601.8870, 733.2383
603.0560, 754.4531
604.2250, 627.7773
605.3940, 709.1758
606.5620, 757.4844
607.7300, 934.6172
608.8990, 983.2383
610.0670, 1360.926
611.2350, 1548.684
612.4020, 1591.508
613.5700, 1711.766
614.7370, 1680.660
615.9050, 2530.914
617.0720, 2601.008
618.2390, 3159.164
619.4060, 2969.391
620.5720, 3418.680
621.7390, 3816.031
622.9050, 3891.738
624.0710, 4031.223
625.2370, 4125.766
626.4030, 3819.375
627.5690, 3886.000
628.7340, 3458.738
629.9000, 3329.375
631.0650, 3208.391
632.2300, 2868.316
633.3950, 2596.301
634.5600, 2280.348
635.7240, 2236.445
636.8890, 1912.609
638.0530, 1754.836
639.2170, 1405.121
640.3810, 1570.465
641.5450, 1444.863
642.7080, 900.3711
643.8720, 1034.895
645.0350, 969.4688
646.1980, 677.1016
647.3610, 956.7969
648.5240, 586.5391
649.6870, 879.9414
650.8490, 573.8008
652.0120, 365.8086
653.1740, 506.7812
654.3360, 197.3398
655.4980, 216.3281
656.6600, 492.4531
657.8210, 325.5430
658.9830, 290.7695
660.1440, 389.0508
661.3050, 139.3828
662.4660, 33.57422
663.6270, 50.96094
664.7870, 200.4922
665.9480, 32.36328
667.1080, 236.9219
668.2680, 276.2969
669.4280, 327.9336
670.5880, 232.4844
671.7480, 257.2695
672.9070, 183.2578
674.0670, 242.8711
675.2260, 231.0898
676.3850, 174.3281
677.5440, 162.9023
678.7030, 86.90625
679.8610, 388.7539
681.0200, 92.31250
682.1780, 152.8711
683.3360, 150.0312
684.4940, 165.1289
685.6520, 377.3242
686.8090, 242.5586
687.9670, 266.8203
689.1240, 290.8164
690.2810, 93.44531
691.4380, 259.0664
692.5950, 281.0117
693.7520, 248.4414
694.9080, 590.8945
696.0650, 600.3828
697.2210, 818.8867
698.3770, 738.6562
699.5330, 519.8828
700.6880, 523.7812
701.8440, 450.4062
702.9990, 430.0625
704.1550, 292.7422
705.3100, 247.9258
706.4650, 749.1758
707.6190, 173.9297
708.7740, 212.7109
709.9290, 350.5273
711.0830, 59.81641
712.2370, 75.78906
713.3910, 130.2969
714.5450, 163.3438
715.6980, 283.4023
716.8520, 92.92578
718.0050, 34.51172
719.1580, 79.89844
720.3110, 76.88672
721.4640, 294.0273
722.6170, 83.79688
723.7700, 679.7383
724.9220, 29.31250
726.0740, 206.6445
727.2260, 400.6094
728.3780, 57.41406
729.5300, 20.35156
730.6810, 53.21875
731.8330, 311.1172
732.9840, 30.87891
734.1350, 184.2773
735.2860, 282.5000
736.4370, 196.7227
737.5880, 162.9805
738.7380, 8.687500
739.8880, 331.4062
741.0390, 228.1250
742.1890, 72.84375
743.3380, 259.5703
744.4880, 97.29688
745.6380, 92.97266
746.7870, 110.1484
747.9360, 265.8398
749.0850, 289.5312
750.2340, 170.2266
751.3830, 259.0742
752.5310, 128.5039
753.6800, 6.007813
754.8280, 257.5078
755.9760, 294.0117
757.1240, 161.5156
758.2720, 466.0117
759.4190, 123.5117
760.5670, 12.99219
761.7140, 279.4883
762.8610, 75.96875
764.0080, 147.4453
765.1550, 77.08203
766.3020, 241.3398
767.4480, 212.7617
768.5950, 171.1758
769.7410, 212.5859
770.8870, 202.9961
772.0330, 246.0156
773.1780, 206.7891
774.3240, 179.5547
775.4690, 199.5391
776.6140, 69.95703
777.7590, 139.3281
778.9040, 69.69922
780.0490, 114.9375
781.1940, 68.34766
782.3380, 115.6250
783.4820, 231.8945
784.6260, 66.15625
785.7700, 206.4102
786.9140, 27.65625
788.0580, 295.8867
789.2010, 19.89453
790.3450, 62.34375
791.4880, 34.64062
792.6310, 4.613281
793.7730, 63.74609
794.9160, 47.13281
796.0590, 188.9297
797.2010, 83.98828
798.3430, 458.0312
799.4850, 109.9375
800.6270, 289.0117
801.7690, 247.9453
802.9100, 14.13281
804.0520, 24.25000
805.1930, 224.4180
806.3340, 39.73438
807.4750, 139.1055
808.6160, 90.58594
809.7560, 161.1445
810.8970, 19.17578
812.0370, 63.46875
813.1770, 8.253906
814.3170, 30.01953
815.4570, 96.16016
816.5960, 49.67188
817.7360, 28.42969
818.8750, 62.50391
820.0140, 119.4414
821.1530, 229.5352
822.2920, 232.4805
823.4310, 105.4180
824.5690, 159.3398
825.7070, 96.25000
826.8460, 297.1484
827.9840, 11.03906
829.1220, 57.89453
830.2590, 227.7305
831.3970, 138.5547
832.5340, 105.3711
833.6710, 42.17188
834.8080, 64.05469
835.9450, 56.35156
837.0820, 23.71484
838.2190, 96.87500
839.3550, 188.4453
840.4910, 301.0078
841.6270, 302.5898
842.7630, 176.0977
843.8990, 210.6250
845.0350, 96.13672
846.1700, 105.3633
847.3060, 204.9492
848.4410, 136.8359
849.5760, 20.32812
850.7100, 76.46484
851.8450, 76.58203
852.9800, 155.3125
854.1140, 33.90625
855.2480, 17.67578
856.3820, 48.77734
857.5160, 196.8555
858.6500, 32.67969
859.7830, 202.5781
860.9170, 311.2891
862.0500, 276.3594
863.1830, 149.1406
864.3160, 177.3047
865.4480, 64.89062
866.5810, 58.09375
867.7130, 56.79688
868.8460, 66.49609
869.9780, 75.17578
871.1100, 200.3477
872.2410, 62.01172
873.3730, 99.30078
874.5050, 249.9453
875.6360, 145.5898
876.7670, 360.2188
877.8980, 150.8516
879.0290, 307.4766
880.1590, 398.0977
881.2900, 188.7109
882.4200, 42.11719
883.5500, 489.4648
884.6800, 233.0430
885.8100, 245.6172
886.9400, 375.1914
888.0690, 335.3906
889.1990, 119.0234
890.3280, 300.3633
891.4570, 166.9219
892.5860, 551.4844
893.7140, 165.0508
894.8430, 426.6133
895.9710, 277.1719
897.1000, 312.4883
898.2280, 526.0078
899.3560, 433.5703
900.4830, 261.1328
901.6110, 246.7461
902.7380, 634.3125
903.8660, 491.8789
904.9930, 404.4492
906.1200, 170.0195
907.2460, 452.5938
908.3730, 433.1719
909.5000, 291.7539
910.6260, 240.3398
911.7520, 616.9297
912.8780, 187.5195
914.0040, 633.1172
915.1290, 300.7188
916.2550, 533.2773
917.3800, 565.8906
918.5050, 406.5039
919.6300, 654.1328
920.7550, 581.7578
921.8800, 700.3906
923.0040, 660.4375
924.1290, 720.0859
925.2530, 675.6406
926.3770, 693.3086
927.5010, 670.4375
928.6250, 938.2070
929.7480, 745.8945
930.8720, 440.6836
931.9950, 770.3906
933.1180, 708.1094
934.2410, 666.8398
935.3640, 897.7734
936.4860, 974.5195
937.6090, 810.2773
938.7310, 894.7695
939.8530, 925.6367
940.9750, 712.7539
942.0970, 796.6562
943.2180, 659.7578
944.3400, 1066.691
945.4610, 1162.488
946.5820, 742.7461
947.7030, 1365.465
948.8240, 796.2578
949.9450, 626.7695
951.0650, 875.9102
952.1860, 920.2695
953.3060, 1085.977
954.4260, 927.7656
955.5460, 986.0703
956.6650, 970.3516
957.7850, 974.6602
958.9040, 1061.199
960.0230, 971.2656
961.1420, 1017.699
962.2610, 851.1055
963.3800, 981.2734
964.4990, 957.1680
965.6170, 849.6406
966.7350, 991.1328
967.8530, 880.6562
968.9710, 999.2070
970.0890, 877.1094
971.2070, 1189.488
972.3240, 950.8086
973.4410, 933.4570
974.5580, 1225.125
975.6750, 1069.824
976.7920, 1109.551
977.9090, 1191.309
979.0250, 1259.086
980.1410, 1263.895
981.2580, 1244.172
982.3740, 1264.859
983.4890, 1126.867
984.6050, 1232.145
985.7200, 1210.926
986.8360, 1099.785
987.9510, 1354.125
989.0660, 1219.762
990.1810, 1192.484
991.2950, 1265.453
992.4100, 1249.906
993.5240, 1402.258
994.6390, 1283.637
995.7530, 1499.051
996.8660, 1352.508
997.9800, 1362.188
999.0940, 1894.512
1000.207, 1223.988
1001.320, 1703.434
1002.433, 1548.945
1003.546, 1274.539
1004.659, 1614.332
1005.772, 1306.195
1006.884, 1233.113
1007.996, 1346.113
1009.108, 1379.164
1010.220, 1275.281
1011.332, 1331.434
1012.444, 1138.625
1013.555, 1179.848
1014.666, 952.1133
1015.777, 1303.422
1016.888, 1557.352
1017.999, 1251.797
1019.110, 1288.281
1020.220, 1254.828
1021.331, 1309.414
1022.441, 1197.105
1023.551, 1258.863
1024.661, 1189.672
1025.770, 1473.512
1026.880, 1090.398
1027.989, 1543.328
1029.098, 1419.289
1030.207, 1441.297
1031.316, 1274.348
1032.425, 1377.441
1033.533, 1413.578
1034.642, 1499.762
1035.750, 1431.770
1036.858, 1531.332
1037.966, 1320.801
1039.073, 1463.309
1040.181, 1552.875
1041.288, 1395.480
1042.396, 1647.129
1043.503, 1417.816
1044.610, 1683.566
1045.716, 1376.352
1046.823, 1654.180
1047.929, 1845.055
1049.036, 1680.969
1050.142, 1591.961
1051.248, 1945.992
1052.353, 1884.070
1053.459, 1828.188
1054.564, 1961.352
1055.670, 1815.551
1056.775, 1539.801
1057.880, 1875.098
1058.985, 1748.449
1060.089, 1578.844
1061.194, 1707.277
1062.298, 2044.770
1063.402, 1905.305
1064.506, 1740.906
1065.610, 2042.555
1066.713, 1986.242
1067.817, 1652.977
1068.920, 1825.789
1070.023, 1838.645
1071.126, 1912.809
1072.229, 2220.430
1073.332, 1890.449
1074.435, 2162.578
1075.537, 2164.809
1076.639, 1708.703
1077.741, 1788.551
1078.843, 2093.992
1079.945, 1860.504
1081.046, 2091.953
1082.148, 1832.555
1083.249, 1997.223
1084.350, 1530.031
1085.451, 2174.496
1086.551, 1879.676
1087.652, 2035.539
1088.752, 1852.492
1089.853, 2066.480
1090.953, 1888.508
1092.053, 1782.574
1093.152, 2127.684
1094.252, 1738.828
1095.351, 1968.012
1096.451, 1943.250
1097.550, 1852.527
1098.649, 1594.867
1099.748, 1911.238
1100.846, 1729.652
1101.945, 2171.105
1103.043, 2050.629
1104.141, 1728.223
1105.239, 2019.172
1106.337, 1443.859
1107.434, 1815.590
1108.532, 1564.355
1109.629, 1681.164
1110.726, 1893.004
1111.823, 1843.887
1112.920, 1817.844
1114.017, 1670.805
1115.113, 1653.906
1116.210, 1547.090
1117.306, 1633.320
1118.402, 1781.023
1119.498, 1820.637
1120.593, 2016.922
1121.689, 1837.359
1122.784, 1822.480
1123.879, 1954.422
1124.974, 1597.020
1126.069, 1542.656
1127.164, 1503.328
1128.259, 1380.031
1129.353, 1479.770
1130.447, 1007.543
1131.541, 1110.348
1132.635, 1010.188
1133.729, 1116.066
1134.822, 1231.977
1135.916, 955.9414
1137.009, 1055.070
1138.102, 1405.473
1139.195, 933.5352
1140.288, 894.0156
1141.380, 760.5742
1142.473, 1041.734
1143.565, 801.9180
1144.657, 773.1367
1145.749, 981.3828
1146.841, 907.6602
1147.932, 912.9648
1149.024, 571.1523
1150.115, 648.1250
1151.206, 717.7578
1152.297, 596.1914
1153.388, 648.6523
1154.479, 589.1406
1155.569, 606.5898
1156.659, 583.1328
1157.750, 718.6992
1158.839, 655.2188
1159.929, 389.9141
1161.019, 600.5586
1162.108, 548.2305
1163.198, 499.9258
1164.287, 564.6445
1165.376, 656.8320
1166.465, 621.6055
1167.553, 534.9141
1168.642, 623.6172
1169.730, 501.4531
1170.818, 575.9531
1171.906, 759.8398
1172.994, 286.2812
1174.082, 624.2070
1175.170, 185.7383
1176.257, 553.7031
1177.344, 638.6836
1178.431, 329.6914
1179.518, 564.7148
1180.605, 411.7578
1181.691, 386.8164
1182.778, 602.8984
1183.864, 578.9961
1184.950, 574.6328
1186.036, 500.2461
1187.122, 483.4023
1188.207, 405.5703
1189.292, 335.7578
1190.378, 434.9648
1191.463, 174.1875
1192.548, 323.4258
1193.632, 291.6836
1194.717, 276.9609
1195.801, 210.2461
1196.886, 633.5586
1197.970, 347.8789
1199.054, 472.2148
1200.137, 254.5664
1201.221, 264.7695
1202.305, 59.42969
1203.388, 60.12109
1204.471, 98.51562
1205.554, 187.3867
1206.637, 54.57812
1207.719, 89.60156
1208.802, 131.5195
1209.884, 60.14453
1210.966, 178.7070
1212.048, 9.207031
1213.130, 26.74609
1214.212, 3.644531
1215.293, 25.51562
1216.374, 112.3789
1217.456, 33.71484
1218.536, 66.83203
1219.617, 240.9570
1220.698, 41.09766
1221.778, 279.2422
1222.859, 311.3945
1223.939, 147.5547
1225.019, 45.27734
1226.099, 31.87891
1227.178, 136.0391
1228.258, 460.4492
1229.337, 211.6250
1230.417, 258.8125
1231.496, 177.0156
1232.574, 28.22656
1233.653, 24.44141
1234.732, 2.867188
1235.810, 112.9062
1236.888, 22.14844
1237.966, 118.3984
1239.044, 107.7383
1240.122, 43.70703
1241.199, 133.1641
1242.277, 148.4258
1243.354, 137.7227
1244.431, 125.5625
1245.508, 88.22266
1246.585, 23.49219
1247.661, 114.2344
1248.738, 177.3945
1249.814, 126.0898
1250.890, 154.7891
1251.966, 142.2383
1253.042, 320.2695
1254.117, 210.3086
1255.193, 303.3398
1256.268, 129.3711
1257.343, 181.4062
1258.418, 251.4375
1259.493, 386.4688
1260.567, 359.5000
1261.642, 391.4727
1262.716, 405.0391
1263.790, 289.5781
1264.864, 323.6016
1265.938, 141.7500
1267.011, 30.02344
1268.085, 197.6172
1269.158, 43.40625
1270.231, 60.46484
1271.304, 232.4141
1272.377, 143.2969
1273.450, 145.1758
1274.522, 165.0469
1275.594, 265.9141
1276.666, 399.7773
1277.738, 127.3594
1278.810, 215.4062
1279.882, 42.82422
1280.953, 194.8867
1282.025, 831.6016
1283.096, 699.3633
1284.167, 31.00391
1285.238, 851.6836
1286.308, 440.3633
1287.379, 223.0312
1288.449, 232.6953
1289.519, 316.3555
1290.589, 94.00391
1291.659, 105.6484
1292.729, 381.2891
1293.798, 55.92188
1294.868, 140.5391
1295.937, 123.8516
1297.006, 320.3398
1298.075, 148.9688
1299.143, 6.265625
1300.212, 233.5352
1301.280, 58.79688
1302.348, 407.0742
1303.416, 9.312500
1304.484, 105.5195
1305.552, 397.7148
1306.620, 266.8984
1307.687, 282.0781
1308.754, 346.2500
1309.821, 227.4102
1310.888, 425.5625
1311.955, 161.7031
1313.021, 398.8438
1314.088, 335.9805
1315.154, 153.1094
1316.220, 357.2344
1317.286, 458.3477
1318.352, 418.4570
1319.417, 497.5508
1320.483, 550.7109
1321.548, 639.7227
1322.613, 571.7891
1323.678, 371.8398
1324.743, 145.0039
1325.807, 710.0312
1326.872, 445.0547
1327.936, 272.0586
1329.000, 399.0586
1330.064, 156.7773
1331.128, 191.0938
1332.191, 342.0625
1333.255, 510.0273
1334.318, 515.1016
1335.381, 582.3789
1336.444, 592.0039
1337.507, 493.8164
1338.569, 600.7305
1339.632, 374.7422
1340.694, 471.6211
1341.756, 688.4961
1342.818, 359.2578
1343.880, 560.7109
1344.941, 148.9102
