##NAMES=Braunite
##RRUFFID=R050388
##IDEAL CHEMISTRY=Mn^2+^Mn^3+^_6_SiO_12_
##LOCALITY=Langban, Filipstad, Varmland, Sweden
##OWNER=RRUFF
##SOURCE=University of Arizona Mineral Museum
##DESCRIPTION=Black crystals
##STATUS=The identification of this mineral has been confirmed by X-ray diffraction and chemical analysis
##URL=rruff.info/R050388
##MEASURED CHEMISTRY=(Mn^2+^_0.96_Mg_0.04_)_Î£=1_Mn^3+^_6.00_Si_1.00_O_12_
##PIN_ID=M00354
##ORIENTATION=Laser parallel to -c* (0 0 -1). Fiducial mark perpendicular to laser is parallel to a [1 0 0]
157.4550, 0.0000000E+00
158.6810, 3.906250
159.9080, 187.1641
161.1340, 10.96094
162.3590, 105.1719
163.5850, 610.8906
164.8110, 678.2695
166.0360, 621.0117
167.2610, 481.7891
168.4860, 422.1523
169.7110, 783.7578
170.9360, 1137.609
172.1610, 1083.410
173.3850, 1237.254
174.6100, 896.9648
175.8340, 1278.367
177.0580, 878.5938
178.2820, 1057.973
179.5050, 1046.980
180.7290, 1381.277
181.9520, 1189.727
183.1760, 1401.145
184.3990, 1636.461
185.6220, 2159.562
186.8450, 2732.211
188.0670, 3190.539
189.2900, 3267.328
190.5120, 3632.461
191.7340, 4416.793
192.9560, 5074.262
194.1780, 5519.809
195.4000, 6064.543
196.6220, 6847.387
197.8430, 7197.867
199.0640, 8043.832
200.2860, 9317.441
201.5070, 10112.84
202.7270, 10959.12
203.9480, 11095.40
205.1690, 11234.78
206.3890, 11362.00
207.6090, 11294.11
208.8290, 11213.56
210.0490, 10985.93
211.2690, 11119.66
212.4890, 10752.52
213.7080, 10619.41
214.9280, 9594.418
216.1470, 8768.051
217.3660, 8349.758
218.5850, 7783.727
219.8030, 7427.883
221.0220, 7016.930
222.2400, 6554.234
223.4590, 6228.891
224.6770, 5669.191
225.8950, 5127.086
227.1120, 4675.336
228.3300, 4097.684
229.5480, 3772.297
230.7650, 3258.012
231.9820, 2860.895
233.1990, 2483.988
234.4160, 1823.750
235.6330, 1910.844
236.8490, 1474.414
238.0660, 1343.203
239.2820, 1404.215
240.4980, 1354.434
241.7140, 1035.852
242.9300, 1034.465
244.1460, 558.2578
245.3610, 552.2266
246.5770, 554.3516
247.7920, 523.6367
249.0070, 614.0625
250.2220, 747.6289
251.4370, 395.3125
252.6510, 464.1172
253.8660, 189.0273
255.0800, 274.0430
256.2940, 326.1641
257.5080, 875.3750
258.7220, 792.5156
259.9360, 785.9883
261.1490, 864.5078
262.3630, 395.0000
263.5760, 226.9297
264.7890, 186.5234
266.0020, 283.0547
267.2150, 50.65625
268.4270, 261.2812
269.6400, 95.05469
270.8520, 31.36328
272.0640, 16.36328
273.2760, 243.8750
274.4880, 26.92969
275.7000, 93.76953
276.9120, 52.96875
278.1230, 312.0430
279.3340, 111.0820
280.5450, 135.0820
281.7560, 205.0273
282.9670, 52.07812
284.1780, 556.8594
285.3880, 244.8555
286.5980, 184.8711
287.8090, 475.9844
289.0190, 222.2695
290.2290, 52.44922
291.4380, 54.07422
292.6480, 63.23438
293.8570, 65.63672
295.0670, 181.1875
296.2760, 69.89062
297.4850, 139.6094
298.6930, 63.94141
299.9020, 48.57031
301.1110, 191.2344
302.3190, 693.0078
303.5270, 737.2031
304.7350, 787.9844
305.9430, 167.3242
307.1510, 76.98047
308.3580, 203.0586
309.5660, 93.20312
310.7730, 511.8906
311.9800, 37.44922
313.1870, 248.3242
314.3940, 706.1875
315.6010, 1515.129
316.8070, 392.1250
318.0130, 668.1719
319.2200, 667.2500
320.4260, 814.3438
321.6310, 1135.430
322.8370, 1090.516
324.0430, 1375.863
325.2480, 1682.633
326.4540, 1787.668
327.6590, 2054.684
328.8640, 2276.680
330.0680, 2423.656
331.2730, 2470.758
332.4780, 2320.871
333.6820, 2413.352
334.8860, 1651.125
336.0900, 1512.809
337.2940, 821.3984
338.4980, 974.9023
339.7010, 1387.332
340.9050, 742.6914
342.1080, 702.9961
343.3110, 739.2461
344.5140, 537.4531
345.7170, 334.6133
346.9200, 173.7500
348.1220, 464.8555
349.3240, 479.9336
350.5270, 325.9961
351.7290, 404.0234
352.9310, 256.0391
354.1320, 56.05078
355.3340, 263.0586
356.5350, 273.8477
357.7370, 37.59375
358.9380, 247.2188
360.1390, 258.7148
361.3400, 477.9609
362.5400, 639.1445
363.7410, 367.9961
364.9410, 217.5977
366.1410, 422.8633
367.3410, 18.13281
368.5410, 426.4727
369.7410, 569.0859
370.9400, 280.7148
372.1400, 364.4102
373.3390, 569.0977
374.5380, 370.8516
375.7370, 508.6797
376.9360, 556.5820
378.1350, 508.5547
379.3330, 354.5586
380.5310, 522.6094
381.7300, 195.7344
382.9280, 57.92578
384.1260, 321.1953
385.3230, 223.5312
386.5210, 295.9414
387.7180, 200.4180
388.9160, 213.9648
390.1130, 82.57812
391.3100, 215.2617
392.5060, 90.01953
393.7030, 28.16016
394.9000, 199.7305
396.0960, 79.68359
397.2920, 144.7070
398.4880, 206.6055
399.6840, 283.7695
400.8800, 292.0039
402.0750, 17.30469
403.2710, 53.67188
404.4660, 208.1094
405.6610, 352.6211
406.8560, 32.19531
408.0510, 131.8438
409.2450, 208.9609
410.4400, 408.7461
411.6340, 258.9062
412.8280, 360.8242
414.0220, 410.0000
415.2160, 366.4922
416.4100, 368.0586
417.6030, 430.8711
418.7970, 379.5391
419.9900, 340.1094
421.1830, 596.7383
422.3760, 286.5586
423.5690, 571.3164
424.7610, 760.8984
425.9540, 319.4180
427.1460, 320.1016
428.3380, 384.2031
429.5300, 471.2148
430.7220, 395.3281
431.9140, 29.48828
433.1050, 279.9688
434.2970, 115.0352
435.4880, 302.0273
436.6790, 341.5078
437.8700, 176.4492
439.0610, 362.1172
440.2510, 369.8789
441.4420, 552.4844
442.6320, 443.4336
443.8220, 520.4766
445.0120, 507.6172
446.2020, 496.8555
447.3910, 411.1680
448.5810, 490.5742
449.7700, 498.0547
450.9600, 294.6133
452.1490, 647.2461
453.3370, 720.9336
454.5260, 402.7188
455.7150, 497.5938
456.9030, 510.5586
458.0910, 701.6016
459.2800, 511.7617
460.4670, 350.0312
461.6550, 582.3750
462.8430, 518.7930
464.0300, 570.2969
465.2180, 788.8867
466.4050, 990.5781
467.5920, 868.3438
468.7790, 1009.215
469.9650, 991.1680
471.1520, 1140.195
472.3380, 808.3047
473.5250, 1081.488
474.7110, 929.7539
475.8970, 1113.098
477.0820, 1057.527
478.2680, 708.0352
479.4540, 888.6250
480.6390, 912.2969
481.8240, 933.0508
483.0090, 1201.883
484.1940, 998.8047
485.3780, 969.8047
486.5630, 995.8945
487.7470, 790.0703
488.9320, 833.3320
490.1160, 1082.684
491.3000, 1202.117
492.4830, 925.6445
493.6670, 1020.262
494.8500, 1035.965
496.0340, 1135.758
497.2170, 1252.641
498.4000, 1449.695
499.5820, 1546.805
500.7650, 1545.012
501.9480, 1734.309
503.1300, 1606.703
504.3120, 2298.191
505.4940, 2516.773
506.6760, 2609.457
507.8580, 2775.277
509.0390, 3075.199
510.2210, 3211.930
511.4020, 2967.113
512.5830, 2770.395
513.7640, 2911.785
514.9450, 2701.281
516.1250, 2353.883
517.3060, 2396.613
518.4860, 1914.457
519.6660, 2063.398
520.8460, 1877.449
522.0260, 1541.602
523.2060, 1362.867
524.3850, 1125.230
525.5650, 1222.719
526.7440, 1078.312
527.9230, 1067.008
529.1020, 949.8516
530.2810, 1063.836
531.4590, 1236.934
532.6380, 1268.133
533.8160, 1198.477
534.9940, 1124.930
536.1720, 1173.820
537.3500, 1204.844
538.5270, 1196.641
539.7050, 1247.547
540.8820, 1184.562
542.0590, 778.7422
543.2360, 934.0234
544.4130, 1104.410
545.5900, 754.9062
546.7660, 1073.336
547.9430, 1165.266
549.1190, 1293.102
550.2950, 1044.055
551.4710, 949.1914
552.6470, 1070.449
553.8220, 1107.848
554.9980, 993.3516
556.1730, 1488.016
557.3480, 1205.816
558.5230, 1422.746
559.6980, 1085.863
560.8730, 1339.109
562.0470, 1509.465
563.2220, 1483.953
564.3960, 1538.344
565.5700, 1446.504
566.7440, 1274.531
567.9170, 1684.734
569.0910, 1286.066
570.2640, 1860.676
571.4380, 1649.469
572.6110, 1548.441
573.7840, 1561.461
574.9570, 1152.855
576.1290, 1058.371
577.3020, 1091.008
578.4740, 1078.746
579.6460, 542.6211
580.8180, 702.5859
581.9900, 757.6602
583.1620, 595.8945
584.3330, 896.3477
585.5040, 801.8828
586.6760, 579.8125
587.8470, 711.0820
589.0180, 842.0898
590.1880, 779.9414
591.3590, 814.9141
592.5290, 1082.152
593.7000, 902.3828
594.8700, 1311.754
596.0400, 1227.852
597.2090, 1472.531
598.3790, 1831.230
599.5490, 2018.469
600.7180, 2293.910
601.8870, 2549.992
603.0560, 2831.734
604.2250, 3167.516
605.3940, 3491.070
606.5620, 4016.328
607.7300, 4436.270
608.8990, 5041.645
610.0670, 5495.230
611.2350, 6020.340
612.4020, 6409.875
613.5700, 6986.953
614.7370, 7307.328
615.9050, 7617.594
617.0720, 7709.828
618.2390, 7474.918
619.4060, 7466.469
620.5720, 7228.105
621.7390, 6680.836
622.9050, 6267.648
624.0710, 5949.547
625.2370, 5675.539
626.4030, 5097.617
627.5690, 4729.625
628.7340, 3715.051
629.9000, 3709.391
631.0650, 3345.809
632.2300, 2706.316
633.3950, 2677.910
634.5600, 2259.586
635.7240, 2132.367
636.8890, 1659.422
638.0530, 1946.184
639.2170, 1720.191
640.3810, 1647.285
641.5450, 1410.457
642.7080, 1423.711
643.8720, 1314.043
645.0350, 1191.461
646.1980, 1334.961
647.3610, 927.1016
648.5240, 856.7578
649.6870, 407.4922
650.8490, 816.8125
652.0120, 868.7031
653.1740, 940.6680
654.3360, 895.7109
655.4980, 913.0078
656.6600, 955.2305
657.8210, 813.1328
658.9830, 995.4688
660.1440, 845.8789
661.3050, 805.3633
662.4660, 1188.914
663.6270, 893.5430
664.7870, 1372.203
665.9480, 1231.969
667.1080, 1350.805
668.2680, 1420.723
669.4280, 1371.586
670.5880, 1564.625
671.7480, 1750.734
672.9070, 2008.777
674.0670, 1794.016
675.2260, 1927.320
676.3850, 2595.688
677.5440, 2724.582
678.7030, 2386.074
679.8610, 3025.629
681.0200, 3447.312
682.1780, 3654.988
683.3360, 4194.727
684.4940, 3900.523
685.6520, 4334.879
686.8090, 4535.121
687.9670, 4327.340
689.1240, 4140.891
690.2810, 4050.973
691.4380, 4067.605
692.5950, 3918.578
693.7520, 3373.828
694.9080, 3059.129
696.0650, 2611.480
697.2210, 2476.887
698.3770, 1963.336
699.5330, 1805.848
700.6880, 1640.898
701.8440, 1811.004
702.9990, 1191.746
704.1550, 1270.250
705.3100, 597.3125
706.4650, 547.3750
707.6190, 517.1719
708.7740, 654.5859
709.9290, 584.8320
711.0830, 504.1406
712.2370, 579.2773
713.3910, 329.5938
714.5450, 435.0664
715.6980, 226.1914
716.8520, 370.3555
718.0050, 310.6797
719.1580, 202.7812
720.3110, 174.2539
721.4640, 233.1211
722.6170, 57.83594
723.7700, 5.476563
724.9220, 66.08203
726.0740, 136.3281
727.2260, 46.23047
728.3780, 158.8789
729.5300, 60.66406
730.6810, 53.85156
731.8330, 104.3867
732.9840, 46.32812
734.1350, 116.9844
735.2860, 149.3945
736.4370, 53.03125
737.5880, 270.8516
738.7380, 191.1992
739.8880, 106.8242
741.0390, 36.32812
742.1890, 90.14844
743.3380, 67.63281
744.4880, 122.1836
745.6380, 41.69141
746.7870, 156.2617
747.9360, 177.4883
749.0850, 61.92578
750.2340, 14.44922
751.3830, 114.0547
752.5310, 1.421875
753.6800, 203.3984
754.8280, 10.26172
755.9760, 265.3164
757.1240, 263.1211
758.2720, 161.7148
759.4190, 229.3164
760.5670, 132.9336
761.7140, 95.71484
762.8610, 67.35547
764.0080, 20.02344
765.1550, 12.49219
766.3020, 79.37109
767.4480, 55.06250
768.5950, 24.76562
769.7410, 173.4805
770.8870, 89.19922
772.0330, 289.9297
773.1780, 19.66797
774.3240, 124.5859
775.4690, 60.89844
776.6140, 102.7656
777.7590, 155.4375
778.9040, 113.1172
780.0490, 287.8008
781.1940, 304.4883
782.3380, 137.5234
783.4820, 53.60547
784.6260, 152.6875
785.7700, 53.93750
786.9140, 165.5742
788.0580, 180.7930
789.2010, 130.7461
790.3450, 112.2891
791.4880, 402.8320
792.6310, 81.37891
793.7730, 75.07422
794.9160, 145.4258
796.0590, 203.9297
797.2010, 133.4297
798.3430, 238.9297
799.4850, 276.4336
800.6270, 71.94141
801.7690, 13.55859
802.9100, 103.9141
804.0520, 149.3906
805.1930, 116.1367
806.3340, 112.7461
807.4750, 102.5664
808.6160, 92.87891
809.7560, 125.8125
810.8970, 122.4023
812.0370, 177.6211
813.1770, 334.8359
814.3170, 62.95312
815.4570, 127.1953
816.5960, 289.3398
817.7360, 172.5195
818.8750, 509.5117
820.0140, 237.5312
821.1530, 195.5469
822.2920, 39.44141
823.4310, 42.51953
824.5690, 172.4570
825.7070, 63.39062
826.8460, 212.3086
827.9840, 17.77344
829.1220, 4.910156
830.2590, 214.9219
831.3970, 259.7383
832.5340, 326.5547
833.6710, 532.4492
834.8080, 485.1562
835.9450, 773.9492
837.0820, 358.7344
838.2190, 192.5156
839.3550, 121.2812
840.4910, 78.03906
841.6270, 11.33594
842.7630, 110.4883
843.8990, 1.179688
845.0350, 29.60938
846.1700, 110.4414
847.3060, 14.04688
848.4410, 41.60547
849.5760, 118.1406
850.7100, 36.66406
851.8450, 214.1523
852.9800, 223.6328
854.1140, 186.4062
855.2480, 283.5625
856.3820, 130.0156
857.5160, 3.542969
858.6500, 11.84375
859.7830, 234.0859
860.9170, 285.3320
862.0500, 219.2773
863.1830, 163.5977
864.3160, 61.01953
865.4480, 0.5000000
866.5810, 26.52734
867.7130, 109.4375
868.8460, 1.343750
869.9780, 48.69922
871.1100, 163.0859
872.2410, 1.992188
873.3730, 7.945313
874.5050, 77.56641
875.6360, 106.2422
876.7670, 211.5000
877.8980, 211.2305
879.0290, 171.8711
880.1590, 99.60938
881.2900, 291.2539
882.4200, 18.48828
883.5500, 5.414063
884.6800, 9.964844
885.8100, 124.4883
886.9400, 167.4531
888.0690, 313.9648
889.1990, 32.26172
890.3280, 15.75000
891.4570, 120.6992
892.5860, 33.14844
893.7140, 270.5859
894.8430, 397.0117
895.9710, 188.4297
897.1000, 96.84375
898.2280, 225.2500
899.3560, 120.6602
900.4830, 162.0586
901.6110, 209.4258
902.7380, 210.1719
903.8660, 312.1953
904.9930, 318.5703
906.1200, 189.9414
907.2460, 262.3086
908.3730, 228.6719
909.5000, 370.0000
910.6260, 300.1367
911.7520, 205.6484
912.8780, 690.9922
914.0040, 360.3281
915.1290, 342.6602
916.2550, 240.9883
917.3800, 34.31250
918.5050, 507.6250
919.6300, 609.9336
920.7550, 364.6719
921.8800, 392.9727
923.0040, 429.2773
924.1290, 207.0625
925.2530, 451.3633
926.3770, 219.6523
927.5010, 622.9492
928.6250, 419.2344
929.7480, 300.6758
930.8720, 379.9609
931.9950, 382.2500
933.1180, 619.5469
934.2410, 858.8398
935.3640, 570.1367
936.4860, 658.4336
937.6090, 528.7617
938.7310, 888.0625
939.8530, 556.3594
940.9750, 506.6484
942.0970, 888.0547
943.2180, 794.3555
944.3400, 933.7188
945.4610, 929.2109
946.5820, 1034.570
947.7030, 1150.941
948.8240, 1329.316
949.9450, 1189.270
951.0650, 1256.695
952.1860, 1174.117
953.3060, 1145.480
954.4260, 1127.918
955.5460, 1465.359
956.6650, 1390.805
957.7850, 1232.777
958.9040, 1154.949
960.0230, 1023.445
961.1420, 1144.172
962.2610, 874.6797
963.3800, 1304.703
964.4990, 1300.445
965.6170, 1147.977
966.7350, 1044.516
967.8530, 819.0664
968.9710, 1196.621
970.0890, 727.1875
971.2070, 936.7578
972.3240, 868.3398
973.4410, 594.9375
974.5580, 542.4492
975.6750, 870.2656
976.7920, 565.5703
977.9090, 799.9336
979.0250, 872.6211
980.1410, 615.7422
981.2580, 536.0859
982.3740, 615.4219
983.4890, 332.9883
984.6050, 765.4258
985.7200, 351.7656
986.8360, 228.5039
987.9510, 592.2500
989.0660, 774.0391
990.1810, 580.8359
991.2950, 658.4531
992.4100, 476.7188
993.5240, 607.8555
994.6390, 729.7188
995.7530, 765.6016
996.8660, 556.5078
997.9800, 517.4219
999.0940, 376.7109
1000.207, 396.1094
1001.320, 670.3906
1002.433, 431.6914
1003.546, 547.3281
1004.659, 461.2695
1005.772, 507.3320
1006.884, 404.5820
1007.996, 324.1836
1009.108, 537.2461
1010.220, 718.9531
1011.332, 606.2617
1012.444, 360.6250
1013.555, 380.0195
1014.666, 445.5156
1015.777, 602.9922
1016.888, 554.7227
1017.999, 576.4414
1019.110, 469.3164
1020.220, 467.9102
1021.331, 298.5352
1022.441, 177.1875
1023.551, 350.5781
1024.661, 504.4883
1025.770, 743.1992
1026.880, 904.7266
1027.989, 503.5000
1029.098, 759.3008
1030.207, 450.1328
1031.316, 896.8516
1032.425, 500.0312
1033.533, 737.9648
1034.642, 704.9297
1035.750, 762.9219
1036.858, 540.9375
1037.966, 388.0078
1039.073, 492.3047
1040.181, 723.2266
1041.288, 520.3789
1042.396, 981.5508
1043.503, 754.7578
1044.610, 767.0195
1045.716, 732.3281
1046.823, 489.6680
1047.929, 710.0352
1049.036, 802.4375
1050.142, 725.8594
1051.248, 664.5938
1052.353, 737.2969
1053.459, 742.5859
1054.564, 745.1680
1055.670, 746.5781
1056.775, 737.8398
1057.880, 727.1367
1058.985, 711.8867
1060.089, 757.6641
1061.194, 742.9883
1062.298, 747.3086
1063.402, 842.2031
1064.506, 765.1250
1065.610, 842.3086
1066.713, 789.2891
1067.817, 859.3008
1068.920, 926.3438
1070.023, 1208.414
1071.126, 774.7266
1072.229, 1184.879
1073.332, 939.0625
1074.435, 806.3164
1075.537, 998.6367
1076.639, 1069.117
1077.741, 1160.496
1078.843, 1092.957
1079.945, 1007.445
1081.046, 902.9648
1082.148, 890.1406
1083.249, 858.7461
1084.350, 1106.387
1085.451, 1124.051
1086.551, 771.6289
1087.652, 946.2539
1088.752, 1032.930
1089.853, 1041.883
1090.953, 713.6484
1092.053, 814.0820
1093.152, 742.4062
1094.252, 663.6836
1095.351, 824.6914
1096.451, 822.7148
1097.550, 713.8594
1098.649, 844.0312
1099.748, 951.2305
1100.846, 1190.469
1101.945, 902.7344
1103.043, 964.0312
1104.141, 993.3594
1105.239, 877.7148
1106.337, 779.1094
1107.434, 883.5352
1108.532, 992.9922
1109.629, 952.9102
1110.726, 608.0391
1111.823, 982.6250
1112.920, 758.2578
1114.017, 768.9102
1115.113, 936.1914
1116.210, 662.9453
1117.306, 565.7344
1118.402, 912.5625
1119.498, 733.4219
1120.593, 513.4531
1121.689, 968.3789
1122.784, 825.3359
1123.879, 828.3242
1124.974, 313.3672
1126.069, 479.4531
1127.164, 480.6836
1128.259, 682.7266
1129.353, 710.9102
1130.447, 385.1250
1131.541, 328.3789
1132.635, 381.6797
1133.729, 472.0273
1134.822, 354.4570
1135.916, 445.9336
1137.009, 496.4531
1138.102, 404.0000
1139.195, 512.9609
1140.288, 588.4102
1141.380, 506.1211
1142.473, 547.5898
1143.565, 322.0078
1144.657, 118.8477
1145.749, 492.7188
1146.841, 268.6562
1147.932, 344.6211
1149.024, 500.6562
1150.115, 347.7305
1151.206, 701.8359
1152.297, 528.9766
1153.388, 515.1484
1154.479, 263.3438
1155.569, 216.5742
1156.659, 132.1875
1157.750, 361.1367
1158.839, 194.4648
1159.929, 51.82422
1161.019, 495.8047
1162.108, 399.1445
1163.198, 67.89453
1164.287, 356.7891
1165.376, 374.2695
1166.465, 448.7812
1167.553, 51.31250
1168.642, 363.6641
1169.730, 254.2461
1170.818, 191.8633
1171.906, 354.5000
1172.994, 293.1602
1174.082, 404.8594
1175.170, 355.5742
1176.257, 236.3398
1177.344, 356.2930
1178.431, 122.1797
1179.518, 100.0898
1180.605, 190.0195
1181.691, 236.9766
1182.778, 474.9648
1183.864, 373.7422
1184.950, 371.4883
1186.036, 266.0742
1187.122, 228.1680
1188.207, 218.2891
1189.292, 251.4258
1190.378, 160.5859
1191.463, 79.78516
1192.548, 177.0039
1193.632, 238.2461
1194.717, 196.5078
1195.801, 79.20703
1196.886, 244.0820
1197.970, 54.38672
1199.054, 105.7188
1200.137, 190.0625
1201.221, 13.53906
1202.305, 6.878906
1203.388, 38.33203
1204.471, 56.80078
1205.554, 238.2969
1206.637, 266.1836
1207.719, 318.2344
1208.802, 185.6836
1209.884, 76.14062
1210.966, 402.6250
1212.048, 202.8516
1213.130, 66.60547
1214.212, 236.0820
1215.293, 337.5859
1216.374, 72.10156
1217.456, 199.6406
1218.536, 343.1992
1219.617, 128.2266
1220.698, 36.68359
1221.778, 190.8711
1222.859, 136.4570
1223.939, 182.0586
1225.019, 124.3867
1226.099, 134.5938
1227.178, 286.6875
1228.258, 109.3750
1229.337, 217.0742
1230.417, 156.7891
1231.496, 340.5234
1232.574, 321.2734
1233.653, 510.0391
1234.732, 206.8164
1235.810, 330.6172
1236.888, 280.4297
1237.966, 425.2578
1239.044, 555.1055
1240.122, 282.9648
1241.199, 305.8438
1242.277, 75.73047
1243.354, 300.6328
1244.431, 41.44922
1245.508, 197.4883
1246.585, 251.4531
1247.661, 158.4414
1248.738, 419.4453
1249.814, 119.5352
1250.890, 133.4414
1251.966, 398.4336
1253.042, 617.4453
1254.117, 152.4570
1255.193, 339.4844
1256.268, 84.52344
1257.343, 331.5742
1258.418, 182.6328
1259.493, 154.9844
1260.567, 216.7891
1261.642, 131.8789
1262.716, 54.98438
1263.790, 169.0977
1264.864, 196.3008
1265.938, 76.95312
1267.011, 413.4883
1268.085, 1.636719
1269.158, 43.78516
1270.231, 360.9453
1271.304, 166.8906
1272.377, 113.8008
1273.450, 235.2344
1274.522, 269.2812
1275.594, 251.3281
1276.666, 332.3945
1277.738, 183.8945
1278.810, 16.95703
1279.882, 80.02734
1280.953, 213.0977
1282.025, 409.1758
1283.096, 317.2656
1284.167, 415.3594
1285.238, 250.4609
1286.308, 35.69922
1287.379, 205.0078
1288.449, 63.10938
1289.519, 0.6210940
1290.589, 5.683594
1291.659, 66.58984
1292.729, 10.81250
1293.798, 170.2266
1294.868, 330.2695
1295.937, 96.30859
1297.006, 86.65234
1298.075, 277.3438
1299.143, 106.3320
1300.212, 474.3359
1301.280, 373.6367
1302.348, 379.8906
1303.416, 66.87891
1304.484, 41.65234
1305.552, 2.863281
1306.620, 255.1680
1307.687, 195.1328
1308.754, 289.0977
1309.821, 370.2695
1310.888, 378.6836
1311.955, 383.4922
1313.021, 370.4102
1314.088, 338.3516
1315.154, 123.1758
1316.220, 144.1172
1317.286, 302.0430
1318.352, 398.9648
1319.417, 168.1602
1320.483, 347.0820
1321.548, 267.9844
1322.613, 453.8906
1323.678, 453.7969
1324.743, 222.4766
1325.807, 596.3867
1326.872, 481.3008
1327.936, 395.2148
1329.000, 415.6094
