##NAMES=Braunite
##RRUFFID=R050390
##IDEAL CHEMISTRY=Mn^2+^Mn^3+^_6_SiO_12_
##LOCALITY=Oehrenstock, Thuringia, Germany
##OWNER=RRUFF
##SOURCE=University of Arizona Mineral Museum
##DESCRIPTION=Mass of black octahedra
##STATUS=The identification of this mineral has been confirmed by X-ray diffraction and chemical analysis
##URL=rruff.info/R050390
##MEASURED CHEMISTRY=(Mn^2+^_0.83_Ca_0.17_)_Î£=1_Mn^3+^_6.00_Si_1.00_O_12_
##PIN_ID=M00051
##ORIENTATION=Laser parallel to -a* (-1 0 0). Fiducial mark perpendicular to laser is parallel to -c [0 0 -1]
299.9020, 0.0000000E+00
301.1110, 239.1641
302.3190, 1.306641
303.5270, 88.95117
304.7350, 43.17383
305.9430, 136.3906
307.1510, 383.2383
308.3580, 224.7793
309.5660, 334.0137
310.7730, 230.9668
311.9800, 107.0176
313.1870, 31.63477
314.3940, 37.43164
315.6010, 2.138672
316.8070, 59.78320
318.0130, 151.9395
319.2200, 405.7695
320.4260, 535.4570
321.6310, 903.9180
322.8370, 1551.934
324.0430, 1549.412
325.2480, 2096.570
326.4540, 2142.662
327.6590, 2403.580
328.8640, 2861.082
330.0680, 3386.816
331.2730, 3712.863
332.4780, 4296.920
333.6820, 4677.857
334.8860, 5153.328
336.0900, 5587.422
337.2940, 6182.213
338.4980, 6693.746
339.7010, 7217.064
340.9050, 7001.219
342.1080, 6811.242
343.3110, 6962.178
344.5140, 6994.053
345.7170, 6297.902
346.9200, 6077.746
348.1220, 5907.609
349.3240, 5136.521
350.5270, 4768.492
351.7290, 4235.541
352.9310, 3749.799
354.1320, 3498.373
355.3340, 3082.387
356.5350, 2830.529
357.7370, 2571.553
358.9380, 2570.086
360.1390, 2460.883
361.3400, 2404.398
362.5400, 2151.219
363.7410, 2221.271
364.9410, 2075.174
366.1410, 1748.932
367.3410, 1815.625
368.5410, 1942.660
369.7410, 1725.025
370.9400, 1627.725
372.1400, 1661.631
373.3390, 1545.850
374.5380, 1686.107
375.7370, 1519.531
376.9360, 1591.133
378.1350, 1656.922
379.3330, 1826.898
380.5310, 2302.066
381.7300, 1510.443
382.9280, 1430.031
384.1260, 1897.832
385.3230, 1413.844
386.5210, 1821.072
387.7180, 1634.865
388.9160, 1032.174
390.1130, 1281.043
391.3100, 1187.123
392.5060, 838.4180
393.7030, 292.5977
394.9000, 704.4395
396.0960, 914.9766
397.2920, 935.0098
398.4880, 193.3242
399.6840, 435.7285
400.8800, 284.0508
402.0750, 116.4395
403.2710, 497.9316
404.4660, 131.9082
405.6610, 241.2852
406.8560, 214.3691
408.0510, 370.8633
409.2450, 130.8652
410.4400, 13.58594
411.6340, 293.4062
412.8280, 97.08594
414.0220, 180.9004
415.2160, 394.6719
416.4100, 387.2285
417.6030, 526.8223
418.7970, 334.7715
419.9900, 430.5801
421.1830, 102.2559
422.3760, 297.2871
423.5690, 80.12109
424.7610, 919.9746
425.9540, 419.1211
427.1460, 337.5195
428.3380, 239.9434
429.5300, 71.28906
430.7220, 7.732422
431.9140, 103.2715
433.1050, 404.3516
434.2970, 214.1543
435.4880, 161.1250
436.6790, 62.18359
437.8700, 273.4551
439.0610, 417.9473
440.2510, 1116.662
441.4420, 765.5938
442.6320, 1645.744
443.8220, 553.8984
445.0120, 886.0430
446.2020, 956.3965
447.3910, 1905.141
448.5810, 731.2520
449.7700, 998.8164
450.9600, 989.6074
452.1490, 1696.689
453.3370, 1347.049
454.5260, 1615.672
455.7150, 1796.543
456.9030, 2047.650
458.0910, 2008.035
459.2800, 2113.547
460.4670, 2335.301
461.6550, 3550.246
462.8430, 3748.393
464.0300, 3222.717
465.2180, 3856.217
466.4050, 5467.889
467.5920, 5070.729
468.7790, 5385.732
469.9650, 5383.898
471.1520, 5357.223
472.3380, 6125.697
473.5250, 6440.293
474.7110, 7081.004
475.8970, 7045.832
477.0820, 7953.773
478.2680, 8989.826
479.4540, 9582.996
480.6390, 9452.293
481.8240, 9562.705
483.0090, 9893.238
484.1940, 9836.695
485.3780, 10305.64
486.5630, 10573.26
487.7470, 10650.27
488.9320, 9965.520
490.1160, 10264.75
491.3000, 10169.87
492.4830, 10058.99
493.6670, 10497.24
494.8500, 9924.102
496.0340, 9804.109
497.2170, 9576.605
498.4000, 10167.84
499.5820, 9336.418
500.7650, 9871.893
501.9480, 9790.127
503.1300, 9162.203
504.3120, 9066.441
505.4940, 8928.867
506.6760, 8959.137
507.8580, 9172.398
509.0390, 9409.678
510.2210, 9706.766
511.4020, 10013.14
512.5830, 10113.71
513.7640, 10786.45
514.9450, 10891.33
516.1250, 11026.46
517.3060, 11463.80
518.4860, 11642.35
519.6660, 11598.13
520.8460, 11831.07
522.0260, 12004.26
523.2060, 11935.63
524.3850, 11696.18
525.5650, 11608.86
526.7440, 11056.71
527.9230, 10878.73
529.1020, 10477.88
530.2810, 10085.15
531.4590, 9120.555
532.6380, 8771.135
533.8160, 7897.912
534.9940, 7460.902
536.1720, 6837.055
537.3500, 6546.404
538.5270, 6048.875
539.7050, 6194.475
540.8820, 5331.221
542.0590, 4795.098
543.2360, 4788.092
544.4130, 4190.670
545.5900, 4092.424
546.7660, 3920.900
547.9430, 3799.377
549.1190, 4400.967
550.2950, 4344.686
551.4710, 4075.510
552.6470, 3551.426
553.8220, 3232.488
554.9980, 3372.660
556.1730, 3835.891
557.3480, 3281.193
558.5230, 3344.072
559.6980, 3883.627
560.8730, 3203.330
562.0470, 3430.873
563.2220, 3649.957
564.3960, 3300.984
565.5700, 3084.094
566.7440, 3156.322
567.9170, 3605.668
569.0910, 3307.150
570.2640, 3229.881
571.4380, 3224.025
572.6110, 3036.635
573.7840, 3249.562
574.9570, 3091.584
576.1290, 2839.693
577.3020, 2933.908
578.4740, 2804.234
579.6460, 2440.648
580.8180, 2486.143
581.9900, 2504.723
583.1620, 2653.387
584.3330, 2450.133
585.5040, 2240.973
586.6760, 2469.920
587.8470, 2360.906
589.0180, 2239.137
590.1880, 2389.398
591.3590, 2412.752
592.5290, 2211.203
593.7000, 2427.746
594.8700, 2561.383
596.0400, 2725.109
597.2090, 2637.928
598.3790, 2780.834
599.5490, 2878.828
600.7180, 3153.910
601.8870, 3299.076
603.0560, 3522.902
604.2250, 3875.232
605.3940, 4092.643
606.5620, 4375.135
607.7300, 4749.703
608.8990, 5102.348
610.0670, 5567.070
611.2350, 6134.867
612.4020, 6748.742
613.5700, 7455.684
614.7370, 8079.699
615.9050, 8374.789
617.0720, 9166.949
618.2390, 9853.176
619.4060, 10404.47
620.5720, 10594.84
621.7390, 11487.27
622.9050, 11911.93
624.0710, 12593.28
625.2370, 13067.94
626.4030, 13280.39
627.5690, 13749.14
628.7340, 13530.38
629.9000, 13826.32
631.0650, 13959.33
632.2300, 13583.42
633.3950, 13024.48
634.5600, 12595.85
635.7240, 12359.15
636.8890, 11968.48
638.0530, 11401.45
639.2170, 11185.67
640.3810, 10291.01
641.5450, 9380.074
642.7080, 8978.514
643.8720, 8172.596
645.0350, 7628.598
646.1980, 7260.752
647.3610, 6714.484
648.5240, 6376.062
649.6870, 5963.398
650.8490, 5638.289
652.0120, 5361.633
653.1740, 4902.598
654.3360, 4994.832
655.4980, 4580.102
656.6600, 4457.836
657.8210, 4033.885
658.9830, 3889.867
660.1440, 3643.117
661.3050, 3429.734
662.4660, 3506.967
663.6270, 3233.891
664.7870, 3374.289
665.9480, 2997.754
667.1080, 3035.771
668.2680, 2797.297
669.4280, 3057.568
670.5880, 2752.029
671.7480, 2965.316
672.9070, 2701.000
674.0670, 2647.328
675.2260, 2729.062
676.3850, 2707.719
677.5440, 2748.830
678.7030, 2798.916
679.8610, 3150.611
681.0200, 2850.404
682.1780, 3129.559
683.3360, 2911.117
684.4940, 3050.613
685.6520, 2663.387
686.8090, 2974.680
687.9670, 3164.406
689.1240, 3243.262
690.2810, 2860.719
691.4380, 3068.486
692.5950, 3046.404
693.7520, 3007.770
694.9080, 3299.023
696.0650, 2982.688
697.2210, 3270.006
698.3770, 3315.248
699.5330, 3471.494
700.6880, 3388.707
701.8440, 3254.654
702.9990, 3000.076
704.1550, 2978.250
705.3100, 2862.689
706.4650, 2998.307
707.6190, 2872.922
708.7740, 2765.984
709.9290, 2750.199
711.0830, 2579.719
712.2370, 2469.273
713.3910, 2460.062
714.5450, 2092.059
715.6980, 1807.273
716.8520, 2051.918
718.0050, 1714.801
719.1580, 1663.643
720.3110, 1556.441
721.4640, 1633.037
722.6170, 1371.756
723.7700, 1339.428
724.9220, 1285.213
726.0740, 1173.799
727.2260, 933.8555
728.3780, 839.3496
729.5300, 766.7969
730.6810, 1036.195
731.8330, 1346.545
732.9840, 800.8457
734.1350, 718.0957
735.2860, 692.8359
736.4370, 584.5625
737.5880, 556.5391
738.7380, 501.5820
739.8880, 457.5703
741.0390, 45.35742
742.1890, 897.3496
743.3380, 171.1426
744.4880, 393.8770
745.6380, 777.5547
746.7870, 693.1738
747.9360, 239.7344
749.0850, 239.2363
750.2340, 283.6797
751.3830, 283.0605
752.5310, 216.3770
753.6800, 508.6348
754.8280, 363.4688
755.9760, 92.95898
757.1240, 282.0254
758.2720, 195.0273
759.4190, 165.9629
760.5670, 82.83203
761.7140, 3.634766
762.8610, 21.34766
764.0080, 244.0254
765.1550, 152.3770
766.3020, 59.28906
767.4480, 75.91016
768.5950, 81.96094
769.7410, 159.9805
770.8870, 124.8613
772.0330, 63.57422
773.1780, 88.90234
774.3240, 47.81055
775.4690, 73.70312
776.6140, 22.15625
777.7590, 161.9512
778.9040, 42.98047
780.0490, 402.9180
781.1940, 135.2207
782.3380, 179.5508
783.4820, 96.90820
784.6260, 11.71680
785.7700, 553.4707
786.9140, 372.6387
788.0580, 461.7559
789.2010, 173.8887
790.3450, 7.160156
791.4880, 44.99805
792.6310, 360.0957
793.7730, 175.1973
794.9160, 227.0879
796.0590, 288.9180
797.2010, 21.67773
798.3430, 361.5078
799.4850, 99.94922
800.6270, 78.75977
801.7690, 52.18555
802.9100, 55.01172
804.0520, 88.84766
805.1930, 115.2480
806.3340, 187.4141
807.4750, 52.29688
808.6160, 99.78320
809.7560, 201.8672
810.8970, 260.1855
812.0370, 91.77148
813.1770, 202.5352
814.3170, 108.4648
815.4570, 32.37695
816.5960, 29.82617
817.7360, 15.82812
818.8750, 221.3633
820.0140, 80.32812
821.1530, 152.6660
822.2920, 24.55078
823.4310, 76.58398
824.5690, 111.6230
825.7070, 1.425781
826.8460, 180.3984
827.9840, 178.1426
829.1220, 44.19336
830.2590, 200.3223
831.3970, 118.7578
832.5340, 295.1094
833.6710, 47.38086
834.8080, 243.4844
835.9450, 90.60156
837.0820, 391.6582
838.2190, 71.58594
839.3550, 121.5781
840.4910, 327.0742
841.6270, 22.64844
842.7630, 33.87695
843.8990, 49.46289
845.0350, 59.66211
846.1700, 95.26172
847.3060, 47.74805
848.4410, 104.4023
849.5760, 85.28125
850.7100, 405.8770
851.8450, 9.599609
852.9800, 50.46875
854.1140, 239.7285
855.2480, 408.9316
856.3820, 463.6270
857.5160, 61.08008
858.6500, 248.7891
859.7830, 199.8242
860.9170, 141.1055
862.0500, 411.6504
863.1830, 75.20703
864.3160, 340.3926
865.4480, 365.2949
866.5810, 500.0664
867.7130, 396.7148
868.8460, 366.8340
869.9780, 574.9766
871.1100, 651.2051
872.2410, 520.1660
873.3730, 661.4863
874.5050, 315.9980
875.6360, 397.5645
876.7670, 663.3301
877.8980, 474.1309
879.0290, 414.9336
880.1590, 406.5586
881.2900, 750.1191
882.4200, 644.6152
883.5500, 878.0430
884.6800, 1077.408
885.8100, 578.7090
886.9400, 617.9492
888.0690, 532.1230
889.1990, 899.2363
890.3280, 701.2852
891.4570, 810.2754
892.5860, 623.2051
893.7140, 736.0703
894.8430, 789.8809
895.9710, 820.6289
897.1000, 945.3184
898.2280, 737.0059
899.3560, 1156.549
900.4830, 817.3105
901.6110, 1534.773
902.7380, 1149.770
903.8660, 1047.053
904.9930, 1078.273
906.1200, 1278.428
907.2460, 1519.619
908.3730, 1310.504
909.5000, 1688.461
910.6260, 1572.734
911.7520, 1560.498
912.8780, 1485.758
914.0040, 1460.691
915.1290, 1417.912
916.2550, 1382.762
917.3800, 1591.977
918.5050, 1783.281
919.6300, 1720.438
920.7550, 1467.023
921.8800, 1555.486
923.0040, 1426.385
924.1290, 1776.213
925.2530, 1427.219
926.3770, 1478.613
927.5010, 1636.744
928.6250, 1558.840
929.7480, 1857.480
930.8720, 1676.807
931.9950, 2055.205
933.1180, 1648.871
934.2410, 1950.805
935.3640, 2148.191
936.4860, 2232.412
937.6090, 1867.059
938.7310, 2085.932
939.8530, 2066.088
940.9750, 2046.221
942.0970, 2356.395
943.2180, 2057.439
944.3400, 2351.420
945.4610, 2398.756
946.5820, 2552.385
947.7030, 2478.574
948.8240, 2305.158
949.9450, 2273.734
951.0650, 2549.979
952.1860, 2487.797
953.3060, 2484.512
954.4260, 2632.865
955.5460, 2622.826
956.6650, 2646.037
957.7850, 2620.287
958.9040, 2639.305
960.0230, 2882.992
961.1420, 2905.141
962.2610, 3059.521
963.3800, 2781.934
964.4990, 2783.633
965.6170, 2704.188
966.7350, 2973.219
967.8530, 2684.951
968.9710, 2756.787
970.0890, 2456.555
971.2070, 2867.350
972.3240, 2976.152
973.4410, 2900.143
974.5580, 3296.328
975.6750, 2878.186
976.7920, 2885.777
977.9090, 2901.227
979.0250, 2978.674
980.1410, 2950.711
981.2580, 2877.627
982.3740, 2882.240
983.4890, 2926.830
984.6050, 3234.193
985.7200, 2923.344
986.8360, 3187.287
987.9510, 3320.547
989.0660, 3196.891
990.1810, 3709.438
991.2950, 3105.822
992.4100, 3192.404
993.5240, 3080.855
994.6390, 3182.367
995.7530, 3141.758
996.8660, 3248.340
997.9800, 3215.461
999.0940, 3079.131
1000.207, 3288.877
1001.320, 2939.723
1002.433, 3205.039
1003.546, 3349.465
1004.659, 3379.510
1005.772, 2952.420
1006.884, 3115.699
1007.996, 3042.445
1009.108, 2959.533
1010.220, 3206.023
1011.332, 2845.637
1012.444, 3087.008
1013.555, 3088.238
1014.666, 3199.430
1015.777, 3072.635
1016.888, 3019.402
1017.999, 3204.340
1019.110, 3257.482
1020.220, 3103.480
1021.331, 3221.945
1022.441, 2853.725
1023.551, 2912.656
1024.661, 3155.941
1025.770, 3014.141
1026.880, 3137.195
1027.989, 3159.453
1029.098, 2932.891
1030.207, 2823.822
1031.316, 2717.812
1032.425, 2697.867
1033.533, 2854.027
1034.642, 2896.406
1035.750, 2689.957
1036.858, 3033.600
1037.966, 3069.301
1039.073, 2951.107
1040.181, 3157.076
1041.288, 2902.205
1042.396, 3212.459
1043.503, 3082.770
1044.610, 3107.143
1045.716, 3320.578
1046.823, 3197.969
1047.929, 3374.660
1049.036, 3077.291
1050.142, 3463.980
1051.248, 3264.781
1052.353, 3318.705
1053.459, 3284.711
1054.564, 3596.719
1055.670, 3788.066
1056.775, 3865.125
1057.880, 3486.803
1058.985, 3697.363
1060.089, 3671.383
1061.194, 3635.814
1062.298, 3929.746
1063.402, 3616.881
1064.506, 3905.865
1065.610, 3958.230
1066.713, 3971.785
1067.817, 3799.605
1068.920, 3823.355
1070.023, 3880.045
1071.126, 3844.150
1072.229, 3868.008
1073.332, 4012.961
1074.435, 4043.334
1075.537, 3939.926
1076.639, 3994.420
1077.741, 3925.227
1078.843, 3866.932
1079.945, 3880.256
1081.046, 3689.510
1082.148, 3769.066
1083.249, 3621.203
1084.350, 3445.857
1085.451, 3686.719
1086.551, 3806.777
1087.652, 3815.266
1088.752, 3363.867
1089.853, 3510.055
1090.953, 3417.617
1092.053, 3314.543
1093.152, 3544.309
1094.252, 3161.391
1095.351, 3384.127
1096.451, 3361.166
1097.550, 3451.883
1098.649, 3305.797
1099.748, 3228.484
1100.846, 3125.646
1101.945, 3126.336
1103.043, 2964.729
1104.141, 2866.178
1105.239, 2850.219
1106.337, 2786.242
1107.434, 2804.906
1108.532, 2776.627
1109.629, 2522.291
1110.726, 2755.771
1111.823, 2868.385
1112.920, 2866.832
1114.017, 2408.035
1115.113, 2543.908
1116.210, 2442.744
1117.306, 2328.244
1118.402, 2548.057
1119.498, 2159.430
1120.593, 2369.303
1121.689, 2350.395
1122.784, 2430.107
1123.879, 2271.826
1124.974, 2187.127
1126.069, 2347.609
1127.164, 2369.266
1128.259, 2184.080
1129.353, 2275.029
1130.447, 1875.369
1131.541, 1798.824
1132.635, 1797.852
1133.729, 1744.922
1134.822, 1808.039
1135.916, 1695.199
1137.009, 1612.406
1138.102, 1578.195
1139.195, 1457.947
1140.288, 1426.281
1141.380, 1511.658
1142.473, 1432.008
1143.565, 1255.471
1144.657, 1475.973
1145.749, 1210.518
1146.841, 1036.105
1147.932, 1237.732
1149.024, 1334.973
1150.115, 1352.682
1151.206, 1255.430
1152.297, 1045.576
1153.388, 1041.400
1154.479, 904.2656
1155.569, 954.2715
1156.659, 809.2109
1157.750, 894.1914
1158.839, 792.2090
1159.929, 692.2598
1161.019, 605.4688
1162.108, 343.1348
1163.198, 607.2754
1164.287, 761.9629
1165.376, 811.6504
1166.465, 411.8613
1167.553, 576.1738
1168.642, 502.8672
1169.730, 421.5547
1170.818, 678.5410
1171.906, 330.2070
1172.994, 578.7930
1174.082, 752.5059
1175.170, 423.0762
1176.257, 316.5879
1177.344, 370.1211
1178.431, 500.6836
1179.518, 540.2656
1180.605, 386.8711
1181.691, 461.5000
1182.778, 332.1484
1183.864, 591.8203
1184.950, 348.5098
1186.036, 144.2207
1187.122, 377.9512
1188.207, 86.72266
1189.292, 212.4570
1190.378, 390.7305
1191.463, 454.5781
1192.548, 61.27344
1193.632, 258.3047
1194.717, 218.7832
1195.801, 130.6602
1196.886, 132.9648
1197.970, 275.6797
1199.054, 303.9766
1200.137, 124.8574
1201.221, 36.59180
1202.305, 38.52930
1203.388, 123.3301
1204.471, 121.2031
1205.554, 241.1738
1206.637, 1.939453
1207.719, 2.869141
1208.802, 106.1035
1209.884, 22.92773
1210.966, 78.44141
1212.048, 104.1426
1213.130, 97.75977
1214.212, 49.51953
1215.293, 45.18750
1216.374, 196.8965
1217.456, 81.39453
1218.536, 5.474609
1219.617, 158.6172
1220.698, 118.4258
1221.778, 97.86328
1222.859, 155.0215
1223.939, 44.85352
1225.019, 117.4902
1226.099, 95.91211
1227.178, 78.71680
1228.258, 98.18359
1229.337, 170.8984
1230.417, 5.824219
1231.496, 2.556641
1232.574, 183.6973
1233.653, 36.94531
1234.732, 76.18750
1235.810, 218.4219
1236.888, 150.6504
1237.966, 203.2871
1239.044, 151.9219
1240.122, 196.1953
1241.199, 38.28711
1242.277, 15.40430
1243.354, 171.4883
1244.431, 56.43750
1245.508, 45.41602
1246.585, 101.5566
1247.661, 60.48242
1248.738, 32.58008
1249.814, 145.2773
1250.890, 157.6172
1251.966, 124.0938
1253.042, 284.8691
1254.117, 331.2109
1255.193, 79.63867
1256.268, 99.76953
1257.343, 42.58398
1258.418, 24.32422
1259.493, 238.0781
1260.567, 106.4473
1261.642, 150.6172
1262.716, 167.4766
1263.790, 294.2500
1264.864, 182.9609
1265.938, 145.1797
1267.011, 345.4980
1268.085, 413.9492
1269.158, 275.1895
1270.231, 408.8438
1271.304, 55.74023
1272.377, 129.7148
1273.450, 387.9688
1274.522, 261.0645
1275.594, 398.9570
1276.666, 435.9727
1277.738, 14.63477
1278.810, 390.3340
1279.882, 421.2930
1280.953, 98.28125
1282.025, 446.6094
1283.096, 172.3398
1284.167, 120.2676
1285.238, 177.9629
1286.308, 210.2441
1287.379, 315.7441
1288.449, 224.6113
1289.519, 133.4570
1290.589, 69.02539
1291.659, 201.0488
1292.729, 88.20117
1293.798, 236.5703
1294.868, 357.1367
1295.937, 77.02930
1297.006, 109.1523
1298.075, 66.24023
1299.143, 84.72461
1300.212, 108.8184
1301.280, 31.04883
1302.348, 167.6211
1303.416, 122.2676
1304.484, 206.8750
1305.552, 214.4570
1306.620, 307.0137
1307.687, 318.5430
1308.754, 338.6797
1309.821, 460.5254
1310.888, 387.9746
1311.955, 363.3984
1313.021, 450.7949
1314.088, 314.1641
1315.154, 507.5098
1316.220, 373.8242
1317.286, 372.5371
1318.352, 485.7949
1319.417, 427.0254
1320.483, 614.2246
1321.548, 356.7852
1322.613, 643.1543
1323.678, 808.5566
1324.743, 856.0840
1325.807, 449.8359
1326.872, 633.8867
1327.936, 581.3262
1329.000, 515.5586
1330.064, 782.6055
1331.128, 442.0410
1332.191, 700.1465
1333.255, 721.6797
1334.318, 842.9570
1335.381, 736.2422
1336.444, 703.0137
1337.507, 907.9512
1338.569, 980.5762
1339.632, 844.1582
1340.694, 982.3828
1341.756, 633.8398
1342.818, 711.0840
1343.880, 973.8887
1344.941, 851.5234
1346.003, 991.1113
1347.064, 1032.627
1348.125, 608.5410
1349.186, 983.6992
1350.247, 1015.098
1351.308, 689.1406
1352.368, 1040.312
1353.428, 765.0156
1354.489, 717.4453
1355.549, 833.4609
1356.608, 773.9219
1357.668, 994.0215
1358.727, 948.8750
1359.787, 880.1152
1360.846, 914.9199
1361.905, 657.1367
1362.964, 942.0879
1364.022, 856.2480
1365.081, 954.6914
1366.139, 1094.859
1367.197, 905.6582
1368.255, 1064.537
1369.313, 698.2754
1370.371, 771.1895
1371.428, 796.9355
1372.486, 1099.254
1373.543, 731.7188
1374.600, 792.4980
1375.657, 1029.152
1376.713, 1014.375
1377.770, 1108.680
1378.826, 878.4395
1379.882, 791.3711
1380.938, 802.4922
1381.994, 995.5312
1383.050, 914.0625
1384.106, 1016.590
1385.161, 913.7969
1386.216, 503.1152
1387.271, 785.4746
1388.326, 937.5742
1389.381, 984.5254
1390.435, 574.3672
1391.490, 754.4609
1392.544, 697.9473
1393.598, 631.7227
1394.652, 894.9023
1395.705, 551.0742
1396.759, 808.9316
1397.812, 826.5859
1398.866, 953.2168
1399.919, 842.7227
1400.972, 805.7383
1402.024, 1006.844
1403.077, 1076.102
1404.129, 938.1348
1405.181, 1069.012
1406.233, 716.7031
1407.285, 791.5137
1408.337, 1050.229
1409.389, 924.1641
1410.440, 1063.631
1411.491, 1101.467
1412.542, 680.9785
1413.593, 1057.590
1414.644, 1091.717
1415.695, 769.6250
1416.745, 1118.768
1417.795, 843.3398
1418.845, 792.2324
1419.895, 897.5527
1420.945, 820.0391
1421.995, 1008.205
1423.044, 957.8359
1424.093, 884.9004
1425.142, 913.6074
1426.191, 640.7637
1427.240, 909.1074
1428.289, 811.9160
1429.337, 906.9980
1430.385, 807.7891
1431.433, 1062.111
1432.481, 1195.432
1433.529, 1214.318
1434.577, 776.4023
1435.624, 928.3848
1436.672, 843.7539
1437.719, 749.4258
1438.766, 984.4277
1439.812, 612.5254
1440.859, 842.9980
1441.905, 832.5801
1442.952, 931.9727
1443.998, 793.3164
1445.044, 728.0527
1446.090, 900.8145
1447.135, 941.6641
1448.181, 775.2246
1449.226, 881.4648
1450.271, 500.9316
1451.316, 547.4629
1452.361, 778.2598
