##NAMES=Braunite
##RRUFFID=R050385
##IDEAL CHEMISTRY=Mn^2+^Mn^3+^_6_SiO_12_
##LOCALITY=Jhabua District, Madhya Pradesh, India
##OWNER=RRUFF
##SOURCE=University of Arizona Mineral Museum
##DESCRIPTION=Black prismatic crystals
##STATUS=The identification of this mineral has been confirmed by X-ray diffraction and chemical analysis
##URL=rruff.info/R050385
##MEASURED CHEMISTRY=(Fe^2+^_0.61_Mn^2+^_0.39_)_Σ=1_(Mn^3+^_5.94_Al_0.06_)_Σ=6_Si_1.00_O_12_
##PIN_ID=M00114
##ORIENTATION=Laser parallel to c* (0 0 1). Fiducial mark perpendicular to laser is parallel to -b [0 -1 0]
178.2820, 0.0000000E+00
179.5050, 42.50684
180.7290, 26.88379
181.9520, 99.35352
183.1760, 542.7412
184.3990, 49.59766
185.6220, 715.6475
186.8450, 778.1816
188.0670, 1367.875
189.2900, 1383.261
190.5120, 1131.660
191.7340, 1399.412
192.9560, 1617.924
194.1780, 1820.239
195.4000, 2290.110
196.6220, 2506.566
197.8430, 3177.668
199.0640, 3188.804
200.2860, 3945.771
201.5070, 4645.871
202.7270, 4988.438
203.9480, 4506.075
205.1690, 3500.870
206.3890, 3056.231
207.6090, 3058.736
208.8290, 3321.037
210.0490, 3618.339
211.2690, 3789.493
212.4890, 3913.030
213.7080, 4002.755
214.9280, 4160.001
216.1470, 3919.574
217.3660, 3819.882
218.5850, 3514.150
219.8030, 3382.584
221.0220, 3148.076
222.2400, 2990.839
223.4590, 2821.984
224.6770, 2637.881
225.8950, 2506.010
227.1120, 2319.687
228.3300, 2183.550
229.5480, 2089.865
230.7650, 1920.871
231.9820, 1937.877
233.1990, 1861.923
234.4160, 1794.042
235.6330, 1853.135
236.8490, 1821.032
238.0660, 1937.566
239.2820, 1986.210
240.4980, 2028.480
241.7140, 2041.274
242.9300, 2042.344
244.1460, 1854.000
245.3610, 1886.697
246.5770, 1813.015
247.7920, 1570.833
249.0070, 1493.381
250.2220, 1385.158
251.4370, 1238.654
252.6510, 1232.257
253.8660, 1201.963
255.0800, 1149.104
256.2940, 1005.428
257.5080, 979.5078
258.7220, 906.6704
259.9360, 832.0781
261.1490, 823.3281
262.3630, 694.7612
263.5760, 685.6177
264.7890, 629.2397
266.0020, 596.4575
267.2150, 406.8379
268.4270, 415.3481
269.6400, 425.3975
270.8520, 379.4570
272.0640, 288.9160
273.2760, 155.1636
274.4880, 337.9595
275.7000, 387.0317
276.9120, 246.4165
278.1230, 252.7769
279.3340, 9.998535
280.5450, 49.45557
281.7560, 22.57568
282.9670, 41.98584
284.1780, 49.47656
285.3880, 58.54639
286.5980, 58.82324
287.8090, 85.33545
289.0190, 6.618164
290.2290, 91.76025
291.4380, 78.26318
292.6480, 79.52197
293.8570, 54.37305
295.0670, 93.90186
296.2760, 78.10742
297.4850, 32.85791
298.6930, 144.0151
299.9020, 65.25928
301.1110, 230.0620
302.3190, 58.10889
303.5270, 93.57178
304.7350, 52.06396
305.9430, 135.2705
307.1510, 120.6626
308.3580, 142.2031
309.5660, 17.06592
310.7730, 4.563477
311.9800, 44.29590
313.1870, 80.61182
314.3940, 142.0547
315.6010, 161.9888
316.8070, 281.9429
318.0130, 317.8398
319.2200, 599.4731
320.4260, 563.0957
321.6310, 732.7271
322.8370, 809.3770
324.0430, 1101.391
325.2480, 1110.496
326.4540, 1351.471
327.6590, 1322.023
328.8640, 1249.687
330.0680, 1215.628
331.2730, 1189.374
332.4780, 1213.109
333.6820, 1130.342
334.8860, 961.4546
336.0900, 958.0303
337.2940, 860.5239
338.4980, 701.9209
339.7010, 667.2090
340.9050, 562.3745
342.1080, 533.4102
343.3110, 456.3120
344.5140, 403.0791
345.7170, 381.7100
346.9200, 450.2046
348.1220, 406.5601
349.3240, 367.7705
350.5270, 413.8218
351.7290, 341.7017
352.9310, 198.4014
354.1320, 177.9077
355.3340, 356.2139
356.5350, 215.3169
357.7370, 295.2222
358.9380, 218.9424
360.1390, 352.4888
361.3400, 225.8730
362.5400, 335.1040
363.7410, 309.1909
364.9410, 334.1431
366.1410, 381.9590
367.3410, 284.6396
368.5410, 329.1675
369.7410, 239.5493
370.9400, 362.7471
372.1400, 307.8096
373.3390, 248.7217
374.5380, 357.3018
375.7370, 205.5864
376.9360, 220.6055
378.1350, 175.2769
379.3330, 247.7539
380.5310, 132.9106
381.7300, 205.7695
382.9280, 258.3721
384.1260, 304.6743
385.3230, 258.4663
386.5210, 201.3857
387.7180, 112.8452
388.9160, 157.1123
390.1130, 72.29102
391.3100, 169.4189
392.5060, 139.5181
393.7030, 165.6074
394.9000, 138.6929
396.0960, 151.7764
397.2920, 178.8560
398.4880, 212.9316
399.6840, 107.0034
400.8800, 126.0698
402.0750, 119.1299
403.2710, 150.1821
404.4660, 228.2275
405.6610, 237.2671
406.8560, 306.0513
408.0510, 282.8135
409.2450, 228.3535
410.4400, 223.7612
411.6340, 237.3433
412.8280, 306.0020
414.0220, 315.7090
415.2160, 273.1426
416.4100, 332.8481
417.6030, 319.8989
418.7970, 338.0718
419.9900, 299.6587
421.1830, 254.1240
422.3760, 284.6665
423.5690, 274.4482
424.7610, 199.6309
425.9540, 117.3359
427.1460, 271.2310
428.3380, 178.7725
429.5300, 42.32129
430.7220, 180.5137
431.9140, 138.1636
433.1050, 121.8794
434.2970, 206.6758
435.4880, 96.14209
436.6790, 55.65967
437.8700, 61.88770
439.0610, 18.76562
440.2510, 84.23242
441.4420, 37.73340
442.6320, 58.85742
443.8220, 77.94092
445.0120, 41.95557
446.2020, 38.04248
447.3910, 25.21777
448.5810, 4.157227
449.7700, 71.85107
450.9600, 28.41650
452.1490, 26.21484
453.3370, 28.20557
454.5260, 27.97949
455.7150, 116.4438
456.9030, 89.53223
458.0910, 184.3667
459.2800, 135.4409
460.4670, 322.3223
461.6550, 264.4019
462.8430, 422.3110
464.0300, 368.2437
465.2180, 517.1982
466.4050, 439.1753
467.5920, 585.1328
468.7790, 625.0693
469.9650, 750.9854
471.1520, 764.4824
472.3380, 670.7627
473.5250, 798.6348
474.7110, 693.3467
475.8970, 745.6875
477.0820, 658.1367
478.2680, 672.9336
479.4540, 689.7114
480.6390, 671.4722
481.8240, 670.1138
483.0090, 544.9385
484.1940, 600.6465
485.3780, 559.3379
486.5630, 441.9878
487.7470, 499.4058
488.9320, 408.7246
490.1160, 519.3218
491.3000, 549.7319
492.4830, 497.9736
493.6670, 621.4023
494.8500, 618.5254
496.0340, 637.0605
497.2170, 701.5088
498.4000, 693.7168
499.5820, 715.3364
500.7650, 907.2930
501.9480, 1194.945
503.1300, 1173.162
504.3120, 1292.854
505.4940, 1461.014
506.6760, 1571.073
507.8580, 1470.260
509.0390, 1503.662
510.2210, 1433.672
511.4020, 1424.901
512.5830, 1400.769
513.7640, 1351.166
514.9450, 1169.369
516.1250, 1180.341
517.3060, 1073.787
518.4860, 897.6450
519.6660, 883.6104
520.8460, 746.4106
522.0260, 780.5410
523.2060, 625.2231
524.3850, 465.2510
525.5650, 406.5508
526.7440, 378.1001
527.9230, 332.4941
529.1020, 354.6899
530.2810, 349.5566
531.4590, 400.6680
532.6380, 416.4678
533.8160, 352.7397
534.9940, 362.9619
536.1720, 419.3359
537.3500, 295.2129
538.5270, 346.8496
539.7050, 374.5879
540.8820, 379.7446
542.0590, 293.4985
543.2360, 324.9473
544.4130, 309.3140
545.5900, 291.9390
546.7660, 358.0024
547.9430, 312.2661
549.1190, 263.7368
550.2950, 356.2334
551.4710, 356.6099
552.6470, 280.0195
553.8220, 382.5522
554.9980, 313.1890
556.1730, 402.8643
557.3480, 440.5688
558.5230, 440.3062
559.6980, 316.0874
560.8730, 637.9014
562.0470, 469.7451
563.2220, 639.6401
564.3960, 566.5703
565.5700, 567.5586
566.7440, 640.6470
567.9170, 604.5239
569.0910, 631.5752
570.2640, 627.0938
571.4380, 687.0356
572.6110, 704.4810
573.7840, 832.0137
574.9570, 595.6177
576.1290, 407.2783
577.3020, 567.0210
578.4740, 503.7910
579.6460, 349.6924
580.8180, 390.5703
581.9900, 308.7393
583.1620, 226.8579
584.3330, 243.0679
585.5040, 329.8906
586.6760, 297.7891
587.8470, 203.8643
589.0180, 164.1821
590.1880, 145.7417
591.3590, 170.4312
592.5290, 184.2012
593.7000, 216.4189
594.8700, 280.7432
596.0400, 307.4756
597.2090, 399.4658
598.3790, 457.4990
599.5490, 453.5640
600.7180, 541.6592
601.8870, 530.7822
603.0560, 739.9307
604.2250, 731.2832
605.3940, 810.2588
606.5620, 790.5127
607.7300, 882.7773
608.8990, 872.0381
610.0670, 821.3218
611.2350, 861.6270
612.4020, 937.9575
613.5700, 892.3076
614.7370, 1047.684
615.9050, 1154.083
617.0720, 1017.251
618.2390, 1067.346
619.4060, 781.8120
620.5720, 851.3008
621.7390, 779.8115
622.9050, 748.3442
624.0710, 710.8994
625.2370, 728.4775
626.4030, 667.0771
627.5690, 506.6997
628.7340, 401.3462
629.9000, 413.0161
631.0650, 430.1587
632.2300, 427.8740
633.3950, 333.6138
634.5600, 447.3760
635.7240, 284.4561
636.8890, 269.2695
638.0530, 212.9463
639.2170, 328.8096
640.3810, 290.6987
641.5450, 262.9746
642.7080, 266.9131
643.8720, 248.8750
645.0350, 265.2476
646.1980, 322.2573
647.3610, 263.0269
648.5240, 413.9297
649.6870, 366.0503
650.8490, 375.6719
652.0120, 353.7939
653.1740, 375.9395
654.3360, 426.7905
655.4980, 454.9780
656.6600, 492.4639
657.8210, 520.5781
658.9830, 585.6855
660.1440, 634.9604
661.3050, 692.2578
662.4660, 777.2549
663.6270, 886.6279
664.7870, 872.2217
665.9480, 980.3418
667.1080, 1136.741
668.2680, 1167.406
669.4280, 1441.844
670.5880, 1404.878
671.7480, 1681.387
672.9070, 1821.054
674.0670, 1951.697
675.2260, 2447.233
676.3850, 2667.786
677.5440, 2897.760
678.7030, 3345.912
679.8610, 3543.971
681.0200, 3830.201
682.1780, 4090.030
683.3360, 4419.219
684.4940, 4495.565
685.6520, 4660.528
686.8090, 4729.902
687.9670, 4645.858
689.1240, 4694.071
690.2810, 4524.057
691.4380, 4426.999
692.5950, 4181.694
693.7520, 3941.378
694.9080, 3573.208
696.0650, 3219.978
697.2210, 2907.756
698.3770, 2595.387
699.5330, 2383.735
700.6880, 2266.549
701.8440, 1921.454
702.9990, 1797.457
704.1550, 1652.279
705.3100, 1456.986
706.4650, 1365.798
707.6190, 1272.638
708.7740, 1133.266
709.9290, 932.1133
711.0830, 844.8516
712.2370, 907.6436
713.3910, 604.1440
714.5450, 725.2930
715.6980, 618.3418
716.8520, 533.7271
718.0050, 564.6235
719.1580, 542.4907
720.3110, 474.0356
721.4640, 440.0151
722.6170, 389.0908
723.7700, 300.9585
724.9220, 337.6855
726.0740, 280.5566
727.2260, 331.4258
728.3780, 304.2930
729.5300, 265.8628
730.6810, 217.1382
731.8330, 234.8691
732.9840, 101.0962
734.1350, 194.5122
735.2860, 251.4907
736.4370, 265.0464
737.5880, 271.8257
738.7380, 298.6904
739.8880, 204.7842
741.0390, 177.3047
742.1890, 121.1001
743.3380, 67.96191
744.4880, 44.66748
745.6380, 0.7363280
746.7870, 52.38135
747.9360, 81.40967
749.0850, 87.64307
750.2340, 2.835938
751.3830, 35.56934
752.5310, 22.10938
753.6800, 5.782715
754.8280, 55.03271
755.9760, 16.58057
757.1240, 31.60498
758.2720, 31.95361
759.4190, 54.18213
760.5670, 28.99854
761.7140, 18.44580
762.8610, 55.29639
764.0080, 65.88330
765.1550, 35.20117
766.3020, 53.55518
767.4480, 90.12793
768.5950, 13.31201
769.7410, 59.23047
770.8870, 7.760742
772.0330, 93.27881
773.1780, 66.21631
774.3240, 5.246094
775.4690, 56.30518
776.6140, 15.10449
777.7590, 99.50049
778.9040, 45.11719
780.0490, 55.22949
781.1940, 94.56201
782.3380, 5.119629
783.4820, 102.1792
784.6260, 46.53613
785.7700, 12.29102
786.9140, 15.07031
788.0580, 71.87451
789.2010, 40.26562
790.3450, 48.39062
791.4880, 71.50000
792.6310, 77.55225
793.7730, 8.589355
794.9160, 90.39209
796.0590, 70.44287
797.2010, 91.44775
798.3430, 56.32129
799.4850, 0.1787110
800.6270, 21.98779
801.7690, 56.19092
802.9100, 63.44824
804.0520, 82.23584
805.1930, 13.60303
806.3340, 94.54785
807.4750, 41.82324
808.6160, 27.75537
809.7560, 65.68408
810.8970, 96.18701
812.0370, 42.23047
813.1770, 60.63037
814.3170, 2.988281
815.4570, 68.63916
816.5960, 50.35693
817.7360, 84.13281
818.8750, 60.98438
820.0140, 18.14160
821.1530, 35.84229
822.2920, 2.859863
823.4310, 34.90918
824.5690, 27.99707
825.7070, 20.88184
826.8460, 10.91943
827.9840, 6.561523
829.1220, 33.64990
830.2590, 36.08594
831.3970, 6.199219
832.5340, 104.4766
833.6710, 108.1328
834.8080, 16.76904
835.9450, 24.37793
837.0820, 54.96143
838.2190, 36.47510
839.3550, 39.03174
840.4910, 100.5166
841.6270, 64.01807
842.7630, 1.623047
843.8990, 119.7329
845.0350, 29.93066
846.1700, 78.35205
847.3060, 7.384766
848.4410, 8.835938
849.5760, 10.97656
850.7100, 21.13184
851.8450, 14.26172
852.9800, 8.675293
854.1140, 54.34473
855.2480, 61.34473
856.3820, 67.32471
857.5160, 110.2842
858.6500, 65.22510
859.7830, 87.39062
860.9170, 23.04688
862.0500, 106.9194
863.1830, 96.77344
864.3160, 150.6079
865.4480, 125.2456
866.5810, 117.2188
867.7130, 65.99512
868.8460, 37.75293
869.9780, 31.48730
871.1100, 48.54248
872.2410, 4.885254
873.3730, 113.5391
874.5050, 142.1733
875.6360, 147.7896
876.7670, 154.3867
877.8980, 166.9648
879.0290, 156.6577
880.1590, 115.0664
881.2900, 133.5889
882.4200, 100.0669
883.5500, 79.55322
884.6800, 82.02197
885.8100, 119.4717
886.9400, 158.9004
888.0690, 20.31494
889.1990, 250.7021
890.3280, 167.0713
891.4570, 108.4229
892.5860, 217.3579
893.7140, 234.6743
894.8430, 195.9731
895.9710, 221.2549
897.1000, 241.5195
898.2280, 255.7666
899.3560, 228.9966
900.4830, 248.2095
901.6110, 230.4053
902.7380, 243.5845
903.8660, 350.7471
904.9930, 207.4434
906.1200, 305.5728
907.2460, 251.6860
908.3730, 206.7822
909.5000, 258.5698
910.6260, 275.6343
911.7520, 336.8462
912.8780, 435.8828
914.0040, 438.9082
915.1290, 328.5562
916.2550, 375.5664
917.3800, 284.5615
918.5050, 297.1558
919.6300, 397.1216
920.7550, 361.3350
921.8800, 403.4248
923.0040, 401.3042
924.1290, 406.6914
925.2530, 392.5869
926.3770, 394.8608
927.5010, 489.9375
928.6250, 565.6089
929.7480, 618.3286
930.8720, 574.1064
931.9950, 648.5820
933.1180, 680.7910
934.2410, 711.0596
935.3640, 806.2197
936.4860, 779.1211
937.6090, 869.6655
938.7310, 911.8242
939.8530, 1005.794
940.9750, 1126.289
942.0970, 1193.020
943.2180, 1135.164
944.3400, 1247.846
945.4610, 1311.033
946.5820, 1354.840
947.7030, 1564.646
948.8240, 1505.328
949.9450, 1727.598
951.0650, 1778.701
952.1860, 1961.905
953.3060, 1920.945
954.4260, 1958.398
955.5460, 2175.500
956.6650, 2054.454
957.7850, 2366.801
958.9040, 2228.755
960.0230, 2099.137
961.1420, 1918.264
962.2610, 1915.626
963.3800, 1787.036
964.4990, 1587.912
965.6170, 1553.343
966.7350, 1412.351
967.8530, 1382.536
968.9710, 1247.141
970.0890, 1182.899
971.2070, 1154.945
972.3240, 1074.531
973.4410, 1066.029
974.5580, 1019.438
975.6750, 966.0293
976.7920, 845.7412
977.9090, 726.3525
979.0250, 735.9414
980.1410, 952.7461
981.2580, 671.3359
982.3740, 790.5312
983.4890, 665.6953
984.6050, 678.6523
985.7200, 684.9629
986.8360, 563.3779
987.9510, 658.4580
989.0660, 645.0293
990.1810, 632.6328
991.2950, 531.2705
992.4100, 609.9111
993.5240, 558.5596
994.6390, 568.2275
995.7530, 647.0605
996.8660, 604.7656
997.9800, 646.4814
999.0940, 584.2256
1000.207, 511.9727
1001.320, 629.7246
1002.433, 533.4785
1003.546, 683.8623
1004.659, 521.0547
1005.772, 446.6846
1006.884, 417.7354
1007.996, 504.5137
1009.108, 601.2979
1010.220, 380.0898
1011.332, 582.8926
1012.444, 506.7021
1013.555, 457.5176
1014.666, 459.3457
1015.777, 461.1807
1016.888, 497.0205
1017.999, 494.8672
1019.110, 437.7197
1020.220, 386.5781
1021.331, 500.4434
1022.441, 399.3916
1023.551, 500.2705
1024.661, 447.1553
1025.770, 561.0479
1026.880, 348.9482
1027.989, 501.8574
1029.098, 353.7725
1030.207, 435.6963
1031.316, 469.6270
1032.425, 444.5654
1033.533, 357.5127
1034.642, 400.4893
1035.750, 424.4287
1036.858, 420.4004
1037.966, 475.3789
1039.073, 493.3691
1040.181, 454.3682
1041.288, 473.3760
1042.396, 508.3916
1043.503, 467.4316
1044.610, 410.4814
1045.716, 499.3037
1046.823, 449.2158
1047.929, 609.3066
1049.036, 448.6689
1050.142, 598.7891
1051.248, 645.9189
1052.353, 412.0615
1053.459, 508.2129
1054.564, 551.3867
1055.670, 477.5762
1056.775, 596.7793
1057.880, 444.0137
1058.985, 527.2588
1060.089, 533.5146
1061.194, 495.8008
1062.298, 660.0986
1063.402, 531.4082
1064.506, 615.8662
1065.610, 500.2451
1066.713, 554.6348
1067.817, 669.0361
1068.920, 552.4512
1070.023, 500.8877
1071.126, 498.3535
1072.229, 540.8525
1073.332, 569.3623
1074.435, 572.1416
1075.537, 594.6270
1076.639, 565.9834
1077.741, 590.4844
1078.843, 543.0938
1079.945, 492.7471
1081.046, 483.4111
1082.148, 529.0879
1083.249, 331.7832
1084.350, 505.5166
1085.451, 478.2812
1086.551, 453.3350
1087.652, 579.1758
1088.752, 472.0420
1089.853, 407.9375
1090.953, 512.6875
1092.053, 461.6309
1093.152, 517.5889
1094.252, 367.5625
1095.351, 459.5586
1096.451, 500.5742
1097.550, 416.6191
1098.649, 431.6777
1099.748, 370.7588
1100.846, 348.8545
1101.945, 335.9619
1103.043, 342.0879
1104.141, 483.2275
1105.239, 450.3838
1106.337, 421.5693
1107.434, 353.7686
1108.532, 300.9824
1109.629, 364.2354
1110.726, 370.5098
1111.823, 400.7979
1112.920, 311.1533
1114.017, 245.4844
1115.113, 490.8408
1116.210, 435.0635
1117.306, 551.4648
1118.402, 728.8945
1119.498, 827.3418
1120.593, 885.8145
1121.689, 933.3018
1122.784, 1000.425
1123.879, 808.9375
1124.974, 723.5420
1126.069, 655.9375
1127.164, 533.5977
1128.259, 503.3945
1129.353, 367.4648
1130.447, 335.6729
1131.541, 339.2773
1132.635, 184.8926
1133.729, 294.5205
1134.822, 229.7070
1135.916, 329.3604
1137.009, 293.0283
1138.102, 154.7090
1139.195, 186.6846
1140.288, 244.1211
1141.380, 130.5332
1142.473, 41.54297
1143.565, 95.50000
1144.657, 125.1719
1145.749, 133.8828
1146.841, 49.75977
1147.932, 83.19727
1149.024, 69.53711
1150.115, 53.95703
1151.206, 103.9727
1152.297, 33.14648
1153.388, 82.14355
1154.479, 83.33008
1155.569, 106.4170
1156.659, 82.11426
1157.750, 72.46387
1158.839, 110.2383
1159.929, 121.7715
1161.019, 92.05664
1162.108, 116.5996
1163.198, 44.23145
1164.287, 56.92480
1165.376, 106.3252
1166.465, 79.04688
1167.553, 12.51562
1168.642, 74.51855
1169.730, 49.53320
1170.818, 4.556641
1171.906, 162.5918
1172.994, 50.63574
1174.082, 58.69141
1175.170, 11.76172
1176.257, 32.15527
1177.344, 34.06738
1178.431, 141.0225
1179.518, 82.86914
1180.605, 135.2246
1181.691, 83.32812
1182.778, 57.44141
1183.864, 36.56348
1184.950, 81.69434
1186.036, 21.83594
1187.122, 162.9863
1188.207, 47.14648
1189.292, 87.31543
1190.378, 46.49414
1191.463, 90.68262
1192.548, 52.87891
1193.632, 125.0908
1194.717, 56.68848
1195.801, 49.52246
1196.886, 9.742188
1197.970, 106.9697
1199.054, 83.20508
1200.137, 19.44922
1201.221, 199.7002
1202.305, 31.95996
1203.388, 11.22852
1204.471, 82.50391
1205.554, 60.78613
1206.637, 57.09277
1207.719, 28.59277
1208.802, 48.71973
1209.884, 107.0625
1210.966, 49.32520
1212.048, 71.78516
1213.130, 44.17871
1214.212, 54.58105
1215.293, 161.9932
1216.374, 9.589844
1217.456, 104.8369
1218.536, 241.2715
1219.617, 54.71289
1220.698, 60.83887
1221.778, 92.59180
1222.859, 13.02832
1223.939, 160.4707
1225.019, 41.91797
1226.099, 147.3721
1227.178, 162.8291
1228.258, 61.29297
1229.337, 94.76074
1230.417, 35.23242
1231.496, 172.7100
1232.574, 165.1895
1233.653, 140.6748
1234.732, 5.165039
1235.810, 236.6592
1236.888, 170.1572
1237.966, 221.6582
1239.044, 233.5928
1240.122, 275.6738
1241.199, 207.1875
1242.277, 1.704102
1243.354, 62.22559
1244.431, 73.75000
1245.508, 33.72168
1246.585, 50.79199
1247.661, 123.3105
1248.738, 50.78809
1249.814, 230.3604
1250.890, 56.88867
1251.966, 108.5791
1253.042, 36.89941
1254.117, 16.61914
1255.193, 63.14648
1256.268, 66.70703
1257.343, 52.29590
1258.418, 22.91113
1259.493, 89.53711
1260.567, 27.79004
1261.642, 25.72363
1262.716, 132.4512
1263.790, 4.215820
1264.864, 65.50781
1265.938, 204.4395
1267.011, 57.77051
1268.085, 127.0996
1269.158, 63.42969
1270.231, 5.239258
1271.304, 13.91406
1272.377, 4.408203
1273.450, 31.72852
1274.522, 23.95020
1275.594, 46.35254
1276.666, 79.65625
1277.738, 37.95898
1278.810, 14.27539
1279.882, 140.5752
1280.953, 158.8760
1282.025, 222.1748
1283.096, 31.47266
1284.167, 111.7158
1285.238, 90.65039
1286.308, 195.3623
1287.379, 43.65625
1288.449, 236.9492
1289.519, 59.24219
1290.589, 83.53320
1291.659, 146.8350
1292.729, 68.12207
1293.798, 118.4062
1294.868, 228.6885
1295.937, 88.96875
1297.006, 108.2461
1298.075, 49.52148
1299.143, 138.7930
1300.212, 58.06250
1301.280, 171.3262
1302.348, 150.5898
1303.416, 203.3545
1304.484, 187.6094
1305.552, 137.1084
1306.620, 50.25586
1307.687, 141.5430
1308.754, 125.5713
1309.821, 119.8037
1310.888, 163.0322
1311.955, 185.0850
1313.021, 142.4746
1314.088, 285.6885
1315.154, 234.9717
1316.220, 294.0254
1317.286, 266.4658
1318.352, 273.7881
1319.417, 237.1133
1320.483, 287.2959
1321.548, 278.0195
1322.613, 165.1924
1323.678, 220.6357
1324.743, 249.8076
1325.807, 301.9785
1326.872, 227.1543
1327.936, 222.3320
1329.000, 160.4980
1330.064, 171.3730
1331.128, 182.1406
1332.191, 213.2354
1333.255, 193.3936
1334.318, 241.3467
1335.381, 153.5000
1336.444, 244.0107
1337.507, 296.5928
1338.569, 277.4785
1339.632, 205.6250
1340.694, 334.0439
1341.756, 288.8809
1342.818, 226.1963
1343.880, 389.4375
1344.941, 205.8350
1346.003, 282.2832
