##NAMES=Brazilianite
##RRUFFID=R050319
##IDEAL CHEMISTRY=NaAl_3_(PO_4_)_2_(OH)_4_
##LOCALITY=Minas Gerais, Brazil
##OWNER=RRUFF
##SOURCE=American Museum of Natural History
##DESCRIPTION=Pale green fragment
##STATUS=The identification of this mineral has been confirmed by X-ray diffraction and chemical analysis
##URL=rruff.info/R050319
##MEASURED CHEMISTRY=Na_1.00_Al_3.00_(PO_4_)_2_(OH)_4_
##PIN_ID=M00246
##ORIENTATION=Laser parallel to (1 0 1). Fiducial mark perpendicular to laser is parallel to b [0 1 0]
86.07200, 0.0000000E+00
87.30800, 181.7715
88.54200, 593.8496
89.77700, 511.8486
91.01200, 178.4971
92.24600, 57.28320
93.48000, 18.94824
94.71400, 110.3467
95.94800, 492.5596
97.18200, 620.5625
98.41600, 943.5508
99.64900, 1311.874
100.8830, 1747.994
102.1160, 2611.477
103.3490, 3284.983
104.5820, 3255.239
105.8150, 2595.988
107.0470, 2255.005
108.2800, 2097.093
109.5120, 1803.411
110.7440, 1564.783
111.9760, 1674.083
113.2080, 1724.848
114.4400, 1885.964
115.6710, 1630.336
116.9030, 1263.872
118.1340, 1048.568
119.3650, 677.4619
120.5960, 567.4736
121.8270, 486.5098
123.0580, 579.4932
124.2880, 534.3320
125.5190, 590.9600
126.7490, 371.3701
127.9790, 547.5234
129.2090, 456.3604
130.4390, 418.8291
131.6680, 574.8867
132.8980, 595.4961
134.1270, 520.6250
135.3560, 807.2461
136.5850, 916.3340
137.8140, 1084.863
139.0430, 1108.818
140.2710, 1274.178
141.5000, 1277.926
142.7280, 1541.049
143.9560, 1687.531
145.1840, 1796.363
146.4120, 1896.531
147.6390, 1808.090
148.8670, 1697.713
150.0940, 1557.604
151.3210, 1482.496
152.5490, 1436.645
153.7750, 1402.941
155.0020, 1910.387
156.2290, 2009.984
157.4550, 2078.730
158.6810, 2729.629
159.9080, 3069.611
161.1340, 3869.496
162.3590, 4918.305
163.5850, 6055.299
164.8110, 6678.799
166.0360, 7088.951
167.2610, 7886.424
168.4860, 9416.947
169.7110, 11405.49
170.9360, 12813.05
172.1610, 12474.66
173.3850, 9837.312
174.6100, 7284.025
175.8340, 5365.801
177.0580, 3974.650
178.2820, 3110.574
179.5050, 2546.578
180.7290, 2002.668
181.9520, 1741.846
183.1760, 1696.113
184.3990, 1434.477
185.6220, 1389.938
186.8450, 1387.496
188.0670, 1391.154
189.2900, 1534.914
190.5120, 1476.775
191.7340, 1548.744
192.9560, 1562.818
194.1780, 1869.996
195.4000, 1978.279
196.6220, 2157.670
197.8430, 2351.168
199.0640, 2405.430
200.2860, 2380.479
201.5070, 2525.295
202.7270, 2544.217
203.9480, 2568.248
205.1690, 2785.385
206.3890, 2914.629
207.6090, 2772.980
208.8290, 2750.902
210.0490, 2424.924
211.2690, 2437.604
212.4890, 2363.682
213.7080, 2284.598
214.9280, 2246.777
216.1470, 2419.717
217.3660, 2597.668
218.5850, 2377.770
219.8030, 2457.988
221.0220, 2395.326
222.2400, 2331.779
223.4590, 2231.342
224.6770, 2391.012
225.8950, 2442.787
227.1120, 2716.668
228.3300, 2862.652
229.5480, 2897.746
230.7650, 2865.943
231.9820, 2733.246
233.1990, 2355.502
234.4160, 2126.215
235.6330, 1790.193
236.8490, 1759.127
238.0660, 1627.600
239.2820, 1574.260
240.4980, 1562.701
241.7140, 1636.207
242.9300, 1568.596
244.1460, 1437.092
245.3610, 1290.758
246.5770, 1402.104
247.7920, 956.8164
249.0070, 1191.447
250.2220, 1402.328
251.4370, 1274.439
252.6510, 1150.773
253.8660, 917.3184
255.0800, 778.0645
256.2940, 325.0078
257.5080, 599.1328
258.7220, 479.4414
259.9360, 800.9219
261.1490, 753.5664
262.3630, 537.3770
263.5760, 567.3418
264.7890, 800.4551
266.0020, 998.7168
267.2150, 1229.121
268.4270, 1539.371
269.6400, 1835.264
270.8520, 2256.139
272.0640, 2598.068
273.2760, 3102.121
274.4880, 3655.297
275.7000, 4404.594
276.9120, 4647.002
278.1230, 4046.525
279.3340, 3442.162
280.5450, 2661.906
281.7560, 2194.760
282.9670, 1587.721
284.1780, 1271.783
285.3880, 1177.953
286.5980, 1018.221
287.8090, 891.5918
289.0190, 1055.061
290.2290, 1188.627
291.4380, 1443.289
292.6480, 1464.049
293.8570, 1684.904
295.0670, 1701.846
296.2760, 1637.875
297.4850, 1439.984
298.6930, 1523.172
299.9020, 1051.438
301.1110, 1087.781
302.3190, 1302.205
303.5270, 1011.236
304.7350, 845.2852
305.9430, 832.9414
307.1510, 875.9648
308.3580, 1140.490
309.5660, 1385.383
310.7730, 1600.355
311.9800, 2230.398
313.1870, 2035.518
314.3940, 2123.707
315.6010, 2139.973
316.8070, 1658.312
318.0130, 1536.725
319.2200, 1343.213
320.4260, 1143.773
321.6310, 762.4102
322.8370, 604.1191
324.0430, 440.9023
325.2480, 441.7637
326.4540, 146.6953
327.6590, 109.7012
328.8640, 73.78125
330.0680, 104.0664
331.2730, 184.8613
332.4780, 200.1426
333.6820, 243.9922
334.8860, 210.0586
336.0900, 223.7383
337.2940, 224.3906
338.4980, 247.0176
339.7010, 236.8047
340.9050, 288.2109
342.1080, 165.7852
343.3110, 95.32422
344.5140, 64.18555
345.7170, 30.23242
346.9200, 257.4102
348.1220, 562.1230
349.3240, 613.9082
350.5270, 1057.764
351.7290, 1165.688
352.9310, 1328.684
354.1320, 1702.723
355.3340, 1844.736
356.5350, 2096.713
357.7370, 1894.650
358.9380, 1533.543
360.1390, 1535.400
361.3400, 1076.307
362.5400, 836.2734
363.7410, 599.3164
364.9410, 361.4355
366.1410, 662.6270
367.3410, 377.8906
368.5410, 488.2285
369.7410, 766.6406
370.9400, 402.1250
372.1400, 636.6816
373.3390, 611.3105
374.5380, 609.0117
375.7370, 508.7852
376.9360, 667.6289
378.1350, 251.5801
379.3330, 60.63477
380.5310, 160.7930
381.7300, 137.0527
382.9280, 162.5879
384.1260, 348.1895
385.3230, 261.8418
386.5210, 430.5137
387.7180, 518.2812
388.9160, 185.1836
390.1130, 253.0742
391.3100, 130.9863
392.5060, 74.12891
393.7030, 107.3359
394.9000, 264.5293
396.0960, 471.0078
397.2920, 529.4727
398.4880, 612.0234
399.6840, 815.6602
400.8800, 979.3789
402.0750, 1038.199
403.2710, 1093.105
404.4660, 1310.096
405.6610, 1383.590
406.8560, 1480.363
408.0510, 1630.623
409.2450, 1766.008
410.4400, 1842.473
411.6340, 1590.088
412.8280, 1747.822
414.0220, 1609.688
415.2160, 1448.689
416.4100, 1481.809
417.6030, 917.0527
418.7970, 1137.455
419.9900, 888.9727
421.1830, 726.5879
422.3760, 826.3262
423.5690, 701.2090
424.7610, 790.2031
425.9540, 730.2832
427.1460, 492.4492
428.3380, 555.7246
429.5300, 531.0762
430.7220, 669.5254
431.9140, 535.0566
433.1050, 627.7266
434.2970, 574.4785
435.4880, 570.3652
436.6790, 652.3379
437.8700, 643.3828
439.0610, 740.5039
440.2510, 673.7012
441.4420, 484.0059
442.6320, 672.3867
443.8220, 275.8770
445.0120, 509.4629
446.2020, 321.1172
447.3910, 469.8496
448.5810, 372.6680
449.7700, 599.5586
450.9600, 553.5566
452.1490, 617.6348
453.3370, 674.7910
454.5260, 711.0254
455.7150, 690.3438
456.9030, 464.7402
458.0910, 698.2070
459.2800, 446.7441
460.4670, 706.3477
461.6550, 523.0352
462.8430, 532.7930
464.0300, 634.6133
465.2180, 434.5078
466.4050, 441.4707
467.5920, 585.4961
468.7790, 492.5918
469.9650, 624.7559
471.1520, 614.9863
472.3380, 967.2832
473.5250, 1153.049
474.7110, 1370.135
475.8970, 1612.551
477.0820, 2096.891
478.2680, 2430.930
479.4540, 2748.355
480.6390, 3264.785
481.8240, 2991.119
483.0090, 3331.006
484.1940, 3175.354
485.3780, 3897.703
486.5630, 4012.342
487.7470, 4269.518
488.9320, 4470.008
490.1160, 5021.324
491.3000, 5450.705
492.4830, 5925.156
493.6670, 6449.385
494.8500, 7048.260
496.0340, 7531.914
497.2170, 7954.637
498.4000, 8612.428
499.5820, 8779.285
500.7650, 9228.207
501.9480, 9565.201
503.1300, 9506.266
504.3120, 9807.398
505.4940, 9818.598
506.6760, 9822.867
507.8580, 9641.205
509.0390, 9764.609
510.2210, 9877.076
511.4020, 9655.613
512.5830, 9526.215
513.7640, 9476.883
514.9450, 9232.617
516.1250, 9144.414
517.3060, 8801.281
518.4860, 8532.205
519.6660, 8551.199
520.8460, 8336.254
522.0260, 8918.375
523.2060, 9208.555
524.3850, 9189.797
525.5650, 9636.270
526.7440, 9626.586
527.9230, 10088.30
529.1020, 10336.55
530.2810, 10307.10
531.4590, 10533.86
532.6380, 10398.29
533.8160, 9999.699
534.9940, 9833.508
536.1720, 9097.383
537.3500, 8803.320
538.5270, 8267.322
539.7050, 7732.387
540.8820, 7347.512
542.0590, 6824.699
543.2360, 6829.703
544.4130, 6664.727
545.5900, 6969.133
546.7660, 7195.814
547.9430, 7631.301
549.1190, 8494.262
550.2950, 9156.961
551.4710, 10058.62
552.6470, 11452.05
553.8220, 12346.23
554.9980, 13399.66
556.1730, 14110.91
557.3480, 14737.87
558.5230, 14684.34
559.6980, 14685.84
560.8730, 14591.55
562.0470, 14337.76
563.2220, 13937.36
564.3960, 13486.73
565.5700, 12973.50
566.7440, 12145.10
567.9170, 11338.09
569.0910, 10330.71
570.2640, 9249.254
571.4380, 8226.914
572.6110, 7212.322
573.7840, 6665.473
574.9570, 6157.246
576.1290, 5529.779
577.3020, 5338.195
578.4740, 5132.215
579.6460, 5016.926
580.8180, 4845.162
581.9900, 4784.301
583.1620, 4978.695
584.3330, 5472.898
585.5040, 5583.674
586.6760, 6307.887
587.8470, 6618.035
589.0180, 7287.957
590.1880, 8411.516
591.3590, 9893.332
592.5290, 11281.77
593.7000, 12867.54
594.8700, 14342.86
596.0400, 15924.08
597.2090, 17496.18
598.3790, 18450.44
599.5490, 18282.71
600.7180, 16983.01
601.8870, 15862.48
603.0560, 14258.83
604.2250, 12738.28
605.3940, 11173.07
606.5620, 9860.572
607.7300, 9170.117
608.8990, 8429.684
610.0670, 8018.266
611.2350, 7650.871
612.4020, 7361.490
613.5700, 6922.129
614.7370, 6586.807
615.9050, 6128.471
617.0720, 5609.379
618.2390, 5144.293
619.4060, 4725.352
620.5720, 4152.496
621.7390, 3946.748
622.9050, 3746.176
624.0710, 3912.469
625.2370, 3663.949
626.4030, 4053.523
627.5690, 4170.127
628.7340, 4000.787
629.9000, 4009.520
631.0650, 4160.266
632.2300, 4236.023
633.3950, 4264.793
634.5600, 3914.619
635.7240, 3627.475
636.8890, 3262.340
638.0530, 2940.699
639.2170, 2681.266
640.3810, 2368.965
641.5450, 2215.852
642.7080, 1980.988
643.8720, 1818.812
645.0350, 1679.531
646.1980, 1628.430
647.3610, 1630.332
648.5240, 1741.234
649.6870, 1615.135
650.8490, 1794.037
652.0120, 1486.941
653.1740, 1645.842
654.3360, 1568.742
655.4980, 1784.639
656.6600, 1724.535
657.8210, 1418.426
658.9830, 1426.314
660.1440, 1547.197
661.3050, 1221.076
662.4660, 1014.949
663.6270, 1135.816
664.7870, 1005.678
665.9480, 1017.570
667.1080, 929.2988
668.2680, 785.7754
669.4280, 694.6309
670.5880, 588.8281
671.7480, 458.0586
672.9070, 594.3340
674.0670, 428.6289
675.2260, 254.9121
676.3850, 401.1855
677.5440, 451.4453
678.7030, 165.6934
679.8610, 94.92969
681.0200, 272.1484
682.1780, 34.64258
683.3360, 32.50977
684.4940, 90.63867
685.6520, 38.24609
686.8090, 260.8086
687.9670, 62.84766
689.1240, 133.1367
690.2810, 298.7715
691.4380, 238.3379
692.5950, 99.61523
693.7520, 152.9883
694.9080, 179.4863
696.0650, 89.12109
697.2210, 129.8516
698.3770, 255.6953
699.5330, 95.72461
700.6880, 16.85156
701.8440, 123.0430
702.9990, 200.3496
704.1550, 85.63281
705.3100, 56.07617
706.4650, 13.47461
707.6190, 64.17773
708.7740, 148.0781
709.9290, 27.25781
711.0830, 88.65234
712.2370, 193.0352
713.3910, 75.79297
714.5450, 179.5293
715.6980, 52.41211
716.8520, 144.4141
718.0050, 95.16211
719.1580, 134.8066
720.3110, 53.58008
721.4640, 67.93555
722.6170, 67.59180
723.7700, 4.775391
724.9220, 164.0742
726.0740, 93.34180
727.2260, 25.56445
728.3780, 142.7324
729.5300, 69.13867
730.6810, 88.05664
731.8330, 74.03125
732.9840, 52.66211
734.1350, 30.83984
735.2860, 70.95312
736.4370, 232.7188
737.5880, 287.4492
738.7380, 326.1484
739.8880, 34.81250
741.0390, 273.4141
742.1890, 220.5781
743.3380, 194.1699
744.4880, 328.4238
745.6380, 315.5430
746.7870, 522.5527
747.9360, 355.9375
749.0850, 562.3809
750.2340, 468.6914
751.3830, 477.0371
752.5310, 716.2754
753.6800, 612.2793
754.8280, 546.3926
755.9760, 965.0215
757.1240, 1080.309
758.2720, 717.4473
759.4190, 950.0176
760.5670, 1115.059
761.7140, 1135.434
762.8610, 1033.338
764.0080, 1039.820
765.1550, 1211.605
766.3020, 1137.242
767.4480, 1350.129
768.5950, 1107.775
769.7410, 1331.371
770.8870, 1083.248
772.0330, 1144.971
773.1780, 1045.166
774.3240, 991.5742
775.4690, 972.9297
776.6140, 1098.244
777.7590, 990.5059
778.9040, 1034.719
780.0490, 1131.885
781.1940, 721.3262
782.3380, 836.3945
783.4820, 1014.408
784.6260, 788.3750
785.7700, 1026.293
786.9140, 797.1621
788.0580, 1267.980
789.2010, 1354.752
790.3450, 1371.471
791.4880, 1320.141
792.6310, 1344.764
793.7730, 1598.334
794.9160, 1629.855
796.0590, 1600.332
797.2010, 1607.754
798.3430, 1610.129
799.4850, 1642.453
800.6270, 1696.729
801.7690, 1513.953
802.9100, 1644.129
804.0520, 1447.256
805.1930, 1412.332
806.3340, 1579.355
807.4750, 1466.330
808.6160, 1324.256
809.7560, 1463.129
810.8970, 1345.953
812.0370, 1167.723
813.1770, 1366.443
814.3170, 999.1113
815.4570, 1143.730
816.5960, 1046.297
817.7360, 863.8105
818.8750, 743.2754
820.0140, 883.9375
821.1530, 1077.588
822.2920, 1013.861
823.4310, 859.8730
824.5690, 631.0879
825.7070, 798.8359
826.8460, 702.8574
827.9840, 883.9238
829.1220, 737.2246
830.2590, 458.7969
831.3970, 622.1172
832.5340, 439.6289
833.6710, 337.4375
834.8080, 744.7422
835.9450, 336.0234
837.0820, 337.1016
838.2190, 482.6875
839.3550, 568.8945
840.4910, 206.1211
841.6270, 56.36719
842.7630, 339.5742
843.8990, 359.3984
845.0350, 320.5938
846.1700, 81.87109
847.3060, 61.03125
848.4410, 172.4375
849.5760, 96.10156
850.7100, 103.1484
851.8450, 143.4297
852.9800, 125.4688
854.1140, 166.9531
855.2480, 191.7383
856.3820, 246.3242
857.5160, 330.0117
858.6500, 421.4453
859.7830, 412.0703
860.9170, 250.1211
862.0500, 280.7383
863.1830, 308.4219
864.3160, 222.3281
865.4480, 239.2969
866.5810, 93.61719
867.7130, 161.0078
868.8460, 40.07031
869.9780, 38.42578
871.1100, 23.83984
872.2410, 232.8438
873.3730, 212.3750
874.5050, 277.0430
875.6360, 226.6523
876.7670, 246.6680
877.8980, 27.10547
879.0290, 138.5820
880.1590, 166.6445
881.2900, 54.48047
882.4200, 19.62109
883.5500, 124.6875
884.6800, 71.73828
885.8100, 128.3828
886.9400, 72.91016
888.0690, 104.7500
889.1990, 16.28906
890.3280, 99.36719
891.4570, 45.53516
892.5860, 296.7539
893.7140, 89.16016
894.8430, 161.6406
895.9710, 49.76562
897.1000, 66.84766
898.2280, 11.51953
899.3560, 152.2266
900.4830, 330.9570
901.6110, 158.8711
902.7380, 196.8047
903.8660, 217.1406
904.9930, 17.93359
906.1200, 1.035156
907.2460, 187.1641
908.3730, 85.39844
909.5000, 48.30078
910.6260, 124.9844
911.7520, 166.1406
912.8780, 109.3164
914.0040, 191.9609
915.1290, 19.59375
916.2550, 9.789063
917.3800, 21.81250
918.5050, 430.4023
919.6300, 328.9805
920.7550, 387.5469
921.8800, 146.1016
923.0040, 387.6445
924.1290, 220.1992
925.2530, 159.7422
926.3770, 273.2812
927.5010, 527.8086
928.6250, 544.3281
929.7480, 687.8750
930.8720, 805.3398
931.9950, 729.8359
933.1180, 764.3320
934.2410, 911.0898
935.3640, 936.8359
936.4860, 1195.777
937.6090, 1174.246
938.7310, 1263.715
939.8530, 1449.176
940.9750, 1490.637
942.0970, 1884.086
943.2180, 2060.578
944.3400, 2174.062
945.4610, 2117.551
946.5820, 2656.055
947.7030, 2893.562
948.8240, 2809.066
949.9450, 2916.574
951.0650, 3014.078
952.1860, 3107.586
953.3060, 2752.086
954.4260, 2983.598
955.5460, 3156.125
956.6650, 2959.664
957.7850, 3186.215
958.9040, 3266.836
960.0230, 3465.496
961.1420, 3592.215
962.2610, 3554.996
963.3800, 4004.855
964.4990, 4247.789
965.6170, 4513.770
966.7350, 5199.820
967.8530, 5409.988
968.9710, 6026.203
970.0890, 6381.477
971.2070, 6944.852
972.3240, 7466.301
973.4410, 7498.777
974.5580, 7814.305
975.6750, 8319.727
976.7920, 8501.109
977.9090, 8981.781
979.0250, 9670.516
980.1410, 10440.29
981.2580, 11324.64
982.3740, 12416.70
983.4890, 13802.35
984.6050, 15029.39
985.7200, 15869.56
986.8360, 16501.38
987.9510, 16739.15
989.0660, 16367.16
990.1810, 15383.27
991.2950, 14045.40
992.4100, 12706.57
993.5240, 11195.76
994.6390, 10067.01
995.7530, 9393.281
996.8660, 8418.582
997.9800, 8203.906
999.0940, 7959.266
1000.207, 7894.641
1001.320, 7849.910
1002.433, 8321.375
1003.546, 8635.172
1004.659, 9217.383
1005.772, 9946.633
1006.884, 10487.20
1007.996, 11761.79
1009.108, 13243.39
1010.220, 14796.02
1011.332, 17086.66
1012.444, 19195.76
1013.555, 21068.41
1014.666, 23330.38
1015.777, 25256.47
1016.888, 26750.65
1017.999, 27464.43
1019.110, 27653.15
1020.220, 26720.97
1021.331, 26059.76
1022.441, 24648.62
1023.551, 23237.71
1024.661, 21410.66
1025.770, 19951.09
1026.880, 18331.84
1027.989, 17213.74
1029.098, 16195.18
1030.207, 15005.13
1031.316, 14313.74
1032.425, 13995.79
1033.533, 13229.25
1034.642, 12825.39
1035.750, 12667.66
1036.858, 12215.66
1037.966, 11868.88
1039.073, 12043.13
1040.181, 11898.09
1041.288, 11446.17
1042.396, 10834.77
1043.503, 10798.14
1044.610, 10385.54
1045.716, 9641.961
1046.823, 9677.422
1047.929, 9172.910
1049.036, 8819.430
1050.142, 8962.648
1051.248, 8796.230
1052.353, 8622.840
1053.459, 8719.480
1054.564, 8927.156
1055.670, 8958.863
1056.775, 9287.359
1057.880, 9552.129
1058.985, 9279.926
1060.089, 9517.773
1061.194, 9369.641
1062.298, 9044.535
1063.402, 8894.465
1064.506, 8493.039
1065.610, 8168.027
1066.713, 7576.051
1067.817, 7204.105
1068.920, 6820.188
1070.023, 6202.309
1071.126, 5688.461
1072.229, 5326.301
1073.332, 5098.855
1074.435, 4621.105
1075.537, 4444.691
1076.639, 4179.000
1077.741, 3786.805
1078.843, 3625.734
1079.945, 3572.141
1081.046, 3213.578
1082.148, 3212.047
1083.249, 2941.551
1084.350, 2850.281
1085.451, 2333.848
1086.551, 2240.465
1087.652, 1680.109
1088.752, 1590.906
1089.853, 1560.113
1090.953, 1333.688
1092.053, 1100.973
1093.152, 1081.070
1094.252, 904.8320
1095.351, 838.5820
1096.451, 879.4766
1097.550, 791.3984
1098.649, 639.2891
1099.748, 668.4453
1100.846, 749.4492
1101.945, 718.6602
1103.043, 585.1992
1104.141, 215.7656
1105.239, 214.8672
1106.337, 499.9922
1107.434, 542.1445
1108.532, 840.8359
1109.629, 662.0625
1110.726, 760.6836
1111.823, 728.9570
1112.920, 1053.273
1114.017, 999.6211
1115.113, 1136.004
1116.210, 1356.406
1117.306, 1192.832
1118.402, 1252.285
1119.498, 1314.855
1120.593, 1459.352
1121.689, 1335.461
1122.784, 1396.004
1123.879, 1349.562
1124.974, 1231.145
1126.069, 936.7383
1127.164, 1030.363
1128.259, 1088.000
1129.353, 1433.500
1130.447, 1143.180
1131.541, 1080.871
1132.635, 1318.703
1133.729, 870.4375
1134.822, 1153.191
1135.916, 1122.965
1137.009, 1012.777
1138.102, 1266.621
1139.195, 898.4844
1140.288, 1223.363
1141.380, 1195.266
1142.473, 978.1914
1143.565, 1302.176
1144.657, 1480.141
1145.749, 1582.164
1146.841, 1588.254
1147.932, 1613.383
1149.024, 1524.539
1150.115, 1316.723
1151.206, 1464.922
1152.297, 1171.137
1153.388, 1309.371
1154.479, 1213.625
1155.569, 1082.945
1156.659, 1014.312
1157.750, 907.5430
1158.839, 880.6797
1159.929, 821.8438
1161.019, 906.4453
1162.108, 911.6719
1163.198, 1243.723
1164.287, 1021.398
1165.376, 1085.137
1166.465, 1133.887
1167.553, 933.7031
1168.642, 969.5820
1169.730, 1064.477
1170.818, 925.3906
1171.906, 813.3203
1172.994, 511.3086
1174.082, 567.3320
1175.170, 393.7109
1176.257, 647.4219
1177.344, 268.4844
1178.431, 252.5547
1179.518, 305.6406
1180.605, 172.7344
1181.691, 168.5469
1182.778, 154.9141
1183.864, 62.09766
1184.950, 78.23828
1186.036, 48.38672
1187.122, 100.4531
1188.207, 140.6797
1189.292, 451.8242
1190.378, 3.972656
1191.463, 122.1367
1192.548, 65.30469
1193.632, 6.484375
1194.717, 23.33203
1195.801, 97.85156
1196.886, 225.0469
1197.970, 111.2461
1199.054, 16.45703
1200.137, 94.67578
1201.221, 203.9023
1202.305, 35.13281
1203.388, 122.3672
1204.471, 140.6133
1205.554, 154.1406
1206.637, 129.0430
1207.719, 11.76953
1208.802, 106.5820
1209.884, 293.5586
1210.966, 89.70312
1212.048, 72.85156
1213.130, 59.00781
1214.212, 0.8359380
1215.293, 67.32422
1216.374, 112.4766
1217.456, 147.6406
1218.536, 19.18750
1219.617, 26.02734
1220.698, 160.0742
1221.778, 138.0078
1222.859, 213.0195
1223.939, 30.12500
1225.019, 268.2695
1226.099, 34.43750
1227.178, 121.1523
1228.258, 43.13281
1229.337, 189.4219
1230.417, 59.16016
1231.496, 44.25781
1232.574, 15.70703
1233.653, 95.16797
1234.732, 133.3086
1235.810, 43.78906
1236.888, 216.2695
1237.966, 5.746094
1239.044, 380.8594
1240.122, 134.6719
1241.199, 158.7148
1242.277, 67.95703
1243.354, 245.3398
1244.431, 102.7227
1245.508, 225.0977
1246.585, 53.48047
1247.661, 247.8555
1248.738, 73.77344
1249.814, 144.5391
1250.890, 80.14844
1251.966, 216.1094
1253.042, 183.3594
1254.117, 84.60547
1255.193, 96.89844
1256.268, 195.1406
1257.343, 177.3828
1258.418, 31.38281
1259.493, 109.8125
1260.567, 273.0039
1261.642, 33.80859
1262.716, 225.3359
1263.790, 330.4766
1264.864, 170.6133
1265.938, 368.7461
1267.011, 94.89453
1268.085, 287.0156
1269.158, 308.1328
