##NAMES=Brazilianite
##RRUFFID=R050319
##IDEAL CHEMISTRY=NaAl_3_(PO_4_)_2_(OH)_4_
##LOCALITY=Minas Gerais, Brazil
##OWNER=RRUFF
##SOURCE=American Museum of Natural History
##DESCRIPTION=Pale green fragment
##STATUS=The identification of this mineral has been confirmed by X-ray diffraction and chemical analysis
##URL=rruff.info/R050319
##MEASURED CHEMISTRY=Na_1.00_Al_3.00_(PO_4_)_2_(OH)_4_
##PIN_ID=M00275
##ORIENTATION=Laser parallel to b* (0 1 0). Fiducial mark perpendicular to laser is parallel to c [0 0 1]
81.13100, 0.0000000E+00
82.36700, 2.438965
83.60200, 327.9536
84.83700, 619.7002
86.07200, 817.3398
87.30800, 1070.163
88.54200, 1106.430
89.77700, 1322.202
91.01200, 1073.518
92.24600, 731.8804
93.48000, 486.9224
94.71400, 332.9727
95.94800, 158.1211
97.18200, 83.58887
98.41600, 134.1768
99.64900, 249.6973
100.8830, 573.9922
102.1160, 836.9336
103.3490, 1129.282
104.5820, 1436.835
105.8150, 1443.845
107.0470, 1272.864
108.2800, 1728.806
109.5120, 1843.282
110.7440, 1281.894
111.9760, 1125.549
113.2080, 1533.168
114.4400, 2380.676
115.6710, 3454.010
116.9030, 4339.107
118.1340, 5506.927
119.3650, 4554.453
120.5960, 2264.688
121.8270, 768.6318
123.0580, 239.2910
124.2880, 64.65430
125.5190, 110.3281
126.7490, 58.71289
127.9790, 10.54883
129.2090, 34.87988
130.4390, 30.25391
131.6680, 15.18164
132.8980, 10.21582
134.1270, 3.123047
135.3560, 104.1836
136.5850, 5.116211
137.8140, 30.79199
139.0430, 178.7383
140.2710, 243.9434
141.5000, 348.3926
142.7280, 492.0742
143.9560, 665.9775
145.1840, 953.0938
146.4120, 964.4111
147.6390, 960.9219
148.8670, 950.6182
150.0940, 868.9121
151.3210, 819.5381
152.5490, 670.7500
153.7750, 556.1201
155.0020, 455.9746
156.2290, 703.1934
157.4550, 869.9521
158.6810, 1001.212
159.9080, 1569.913
161.1340, 2368.154
162.3590, 3470.971
163.5850, 5067.354
164.8110, 6029.139
166.0360, 6787.328
167.2610, 7802.632
168.4860, 9861.886
169.7110, 12673.10
170.9360, 15841.29
172.1610, 18143.44
173.3850, 18130.58
174.6100, 15612.70
175.8340, 12048.82
177.0580, 8663.909
178.2820, 5904.975
179.5050, 3992.037
180.7290, 2556.102
181.9520, 1838.161
183.1760, 1489.222
184.3990, 1042.297
185.6220, 871.3896
186.8450, 815.5010
188.0670, 712.6328
189.2900, 601.7891
190.5120, 658.2930
191.7340, 675.0508
192.9560, 467.1367
194.1780, 716.2529
195.4000, 648.3965
196.6220, 789.5703
197.8430, 709.7734
199.0640, 874.0068
200.2860, 918.2705
201.5070, 1073.564
202.7270, 1216.889
203.9480, 1201.244
205.1690, 1181.630
206.3890, 1375.047
207.6090, 1462.496
208.8290, 1689.977
210.0490, 1651.490
211.2690, 1756.033
212.4890, 1925.607
213.7080, 1845.214
214.9280, 1833.852
216.1470, 1966.521
217.3660, 2114.225
218.5850, 2464.961
219.8030, 2365.732
221.0220, 2204.534
222.2400, 1938.374
223.4590, 1679.247
224.6770, 1672.153
225.8950, 1509.097
227.1120, 1497.354
228.3300, 1788.458
229.5480, 1707.587
230.7650, 1933.925
231.9820, 1960.352
233.1990, 1498.542
234.4160, 1248.734
235.6330, 1099.078
236.8490, 1010.060
238.0660, 1090.662
239.2820, 1262.950
240.4980, 1569.351
241.7140, 1920.322
242.9300, 2486.387
244.1460, 3034.805
245.3610, 3616.336
246.5770, 3872.648
247.7920, 4134.598
249.0070, 4649.813
250.2220, 5455.269
251.4370, 6297.568
252.6510, 6868.068
253.8660, 6530.682
255.0800, 5510.363
256.2940, 4073.156
257.5080, 2885.058
258.7220, 1904.060
259.9360, 1337.162
261.1490, 740.3574
262.3630, 655.6455
263.5760, 601.0215
264.7890, 556.4824
266.0020, 598.0254
267.2150, 870.6475
268.4270, 836.3467
269.6400, 1114.117
270.8520, 1302.961
272.0640, 1408.727
273.2760, 1683.781
274.4880, 1898.713
275.7000, 1965.358
276.9120, 2233.525
278.1230, 2068.586
279.3340, 1898.018
280.5450, 1784.270
281.7560, 1331.580
282.9670, 1186.028
284.1780, 1076.528
285.3880, 600.0781
286.5980, 728.6797
287.8090, 632.3281
289.0190, 395.0254
290.2290, 237.7705
291.4380, 249.5615
292.6480, 167.3984
293.8570, 204.2812
295.0670, 141.2080
296.2760, 76.17969
297.4850, 91.19336
298.6930, 62.74902
299.9020, 20.32324
301.1110, 7.572266
302.3190, 115.5557
303.5270, 92.71973
304.7350, 404.9199
305.9430, 299.1514
307.1510, 602.4150
308.3580, 950.7070
309.5660, 1116.025
310.7730, 1345.367
311.9800, 1564.732
313.1870, 1773.120
314.3940, 1798.532
315.6010, 1817.967
316.8070, 1688.426
318.0130, 1421.908
319.2200, 1241.417
320.4260, 1156.949
321.6310, 965.5078
322.8370, 800.0908
324.0430, 719.6992
325.2480, 917.3350
326.4540, 824.9961
327.6590, 666.6846
328.8640, 538.3984
330.0680, 507.1406
331.2730, 434.9102
332.4780, 540.7061
333.6820, 465.5303
334.8860, 390.3809
336.0900, 498.2246
337.2940, 427.0635
338.4980, 276.9297
339.7010, 502.8252
340.9050, 371.7510
342.1080, 515.7051
343.3110, 472.6895
344.5140, 626.7021
345.7170, 562.7461
346.9200, 929.8184
348.1220, 936.9189
349.3240, 1230.051
350.5270, 1373.212
351.7290, 1579.403
352.9310, 1945.625
354.1320, 2159.877
355.3340, 2430.159
356.5350, 2577.472
357.7370, 2918.814
358.9380, 2680.189
360.1390, 2519.593
361.3400, 1995.028
362.5400, 1535.494
363.7410, 1075.991
364.9410, 755.5195
366.1410, 418.0801
367.3410, 253.6699
368.5410, 208.2920
369.7410, 59.05371
370.9400, 130.3975
372.1400, 123.8359
373.3390, 197.2998
374.5380, 223.8242
375.7370, 286.4277
376.9360, 257.1436
378.1350, 249.9561
379.3330, 209.8662
380.5310, 197.8555
381.7300, 222.9180
382.9280, 321.0684
384.1260, 195.3525
385.3230, 319.7119
386.5210, 340.2061
387.7180, 309.8457
388.9160, 221.6172
390.1130, 160.4746
391.3100, 296.3926
392.5060, 265.4336
393.7030, 30.58398
394.9000, 100.7334
396.0960, 220.0859
397.2920, 266.9502
398.4880, 544.8594
399.6840, 766.8154
400.8800, 904.8145
402.0750, 1091.859
403.2710, 1457.951
404.4660, 1695.107
405.6610, 1970.330
406.8560, 2202.600
408.0510, 2349.914
409.2450, 2670.283
410.4400, 3176.744
411.6340, 3270.293
412.8280, 3403.924
414.0220, 3546.673
415.2160, 3553.518
416.4100, 3330.501
417.6030, 3030.602
418.7970, 2820.824
419.9900, 2793.147
421.1830, 2783.580
422.3760, 2743.106
423.5690, 2777.701
424.7610, 2800.369
425.9540, 2891.133
427.1460, 3206.971
428.3380, 3470.886
429.5300, 3939.844
430.7220, 4290.850
431.9140, 4926.899
433.1050, 5531.996
434.2970, 6202.138
435.4880, 6913.326
436.6790, 7677.560
437.8700, 8530.838
439.0610, 8725.166
440.2510, 9077.538
441.4420, 8641.958
442.6320, 8179.934
443.8220, 7242.950
445.0120, 6571.737
446.2020, 5841.344
447.3910, 5371.996
448.5810, 5186.694
449.7700, 5061.441
450.9600, 5040.236
452.1490, 5534.078
453.3370, 5777.966
454.5260, 6276.900
455.7150, 6547.883
456.9030, 7167.913
458.0910, 7437.990
459.2800, 8177.115
460.4670, 8599.290
461.6550, 9107.510
462.8430, 9764.780
464.0300, 10008.09
465.2180, 10549.46
466.4050, 10166.87
467.5920, 9833.334
468.7790, 9044.841
469.9650, 8127.400
471.1520, 7092.005
472.3380, 5855.660
473.5250, 4828.363
474.7110, 3832.115
475.8970, 3091.914
477.0820, 2625.762
478.2680, 2457.658
479.4540, 1733.604
480.6390, 1765.600
481.8240, 1635.645
483.0090, 1584.737
484.1940, 1659.880
485.3780, 1666.182
486.5630, 1715.313
487.7470, 1913.604
488.9320, 2005.941
490.1160, 2289.328
491.3000, 2510.766
492.4830, 2816.252
493.6670, 3122.066
494.8500, 3359.373
496.0340, 3841.004
497.2170, 4108.686
498.4000, 4602.416
499.5820, 4929.194
500.7650, 5164.019
501.9480, 5280.890
503.1300, 5362.822
504.3120, 5540.804
505.4940, 5548.835
506.6760, 5572.939
507.8580, 5594.092
509.0390, 5665.293
510.2210, 5881.537
511.4020, 6127.837
512.5830, 6225.289
513.7640, 6405.799
514.9450, 6453.023
516.1250, 6603.807
517.3060, 6606.203
518.4860, 6559.139
519.6660, 6765.836
520.8460, 6948.992
522.0260, 7145.419
523.2060, 7606.580
524.3850, 7726.467
525.5650, 8138.830
526.7440, 8728.420
527.9230, 8911.082
529.1020, 9395.670
530.2810, 9841.150
531.4590, 9973.792
532.6380, 10273.87
533.8160, 10245.54
534.9940, 10207.18
536.1720, 10247.73
537.3500, 9838.603
538.5270, 9732.456
539.7050, 9488.399
540.8820, 8976.423
542.0590, 8722.513
543.2360, 8480.672
544.4130, 8456.895
545.5900, 8613.047
546.7660, 8940.004
547.9430, 9353.446
549.1190, 10015.94
550.2950, 10764.12
551.4710, 11526.80
552.6470, 12883.25
553.8220, 14448.27
554.9980, 15742.03
556.1730, 17397.95
557.3480, 18761.95
558.5230, 20212.56
559.6980, 20882.64
560.8730, 21353.72
562.0470, 21823.92
563.2220, 22177.28
564.3960, 21676.94
565.5700, 20994.30
566.7440, 20039.98
567.9170, 18748.96
569.0910, 17208.40
570.2640, 15630.19
571.4380, 13579.06
572.6110, 11971.01
573.7840, 10298.00
574.9570, 8804.045
576.1290, 7908.168
577.3020, 6855.361
578.4740, 6014.598
579.6460, 5439.947
580.8180, 5195.358
581.9900, 4852.808
583.1620, 4513.297
584.3330, 4591.869
585.5040, 4506.488
586.6760, 4600.162
587.8470, 4800.873
589.0180, 5101.620
590.1880, 5460.404
591.3590, 6123.224
592.5290, 6628.078
593.7000, 7530.969
594.8700, 8431.894
596.0400, 9296.853
597.2090, 9816.854
598.3790, 10793.90
599.5490, 11141.98
600.7180, 11256.09
601.8870, 10929.24
603.0560, 10220.44
604.2250, 9490.685
605.3940, 9152.997
606.5620, 8749.041
607.7300, 8616.725
608.8990, 8383.138
610.0670, 8655.580
611.2350, 8693.061
612.4020, 8601.569
613.5700, 8516.106
614.7370, 8477.675
615.9050, 8044.270
617.0720, 7593.892
618.2390, 6587.607
619.4060, 6202.278
620.5720, 5400.234
621.7390, 5090.955
622.9050, 4645.701
624.0710, 4343.470
625.2370, 4401.422
626.4030, 4404.236
627.5690, 4744.073
628.7340, 4792.930
629.9000, 5149.808
631.0650, 5090.096
632.2300, 5561.014
633.3950, 5849.143
634.5600, 5675.109
635.7240, 5856.086
636.8890, 5358.078
638.0530, 5068.090
639.2170, 4488.119
640.3810, 4281.166
641.5450, 3596.227
642.7080, 3184.027
643.8720, 2780.893
645.0350, 2493.252
646.1980, 2361.949
647.3610, 2164.084
648.5240, 2035.232
649.6870, 1966.391
650.8490, 1622.271
652.0120, 1678.547
653.1740, 1685.771
654.3360, 1601.217
655.4980, 1790.998
656.6600, 1670.748
657.8210, 1500.271
658.9830, 1459.846
660.1440, 1680.910
661.3050, 1597.480
662.4660, 1490.188
663.6270, 1472.906
664.7870, 1219.859
665.9480, 1222.789
667.1080, 1128.809
668.2680, 930.3652
669.4280, 610.8926
670.5880, 658.8672
671.7480, 581.7305
672.9070, 579.6602
674.0670, 459.6914
675.2260, 534.5469
676.3850, 386.9590
677.5440, 332.3301
678.7030, 280.9043
679.8610, 290.4863
681.0200, 137.0156
682.1780, 110.5586
683.3360, 158.2441
684.4940, 91.93359
685.6520, 100.7539
686.8090, 13.81250
687.9670, 29.75977
689.1240, 45.01758
690.2810, 187.4512
691.4380, 180.5879
692.5950, 136.1660
693.7520, 289.6406
694.9080, 194.0898
696.0650, 320.1406
697.2210, 263.4844
698.3770, 284.3105
699.5330, 198.7812
700.6880, 227.0547
701.8440, 178.0762
702.9990, 62.15039
704.1550, 86.49609
705.3100, 133.7480
706.4650, 68.21484
707.6190, 85.61328
708.7740, 286.8301
709.9290, 270.5859
711.0830, 329.1211
712.2370, 282.6641
713.3910, 464.4707
714.5450, 533.1895
715.6980, 736.5195
716.8520, 785.0410
718.0050, 1017.451
719.1580, 1142.426
720.3110, 1196.732
721.4640, 1305.016
722.6170, 1181.957
723.7700, 1235.176
724.9220, 1053.490
726.0740, 1221.625
727.2260, 939.7227
728.3780, 923.7852
729.5300, 877.8105
730.6810, 784.7988
731.8330, 792.9785
732.9840, 598.6621
734.1350, 709.5371
735.2860, 724.6855
736.4370, 561.8301
737.5880, 734.5879
738.7380, 597.3066
739.8880, 483.6797
741.0390, 577.1465
742.1890, 541.7520
743.3380, 523.5840
744.4880, 453.1680
745.6380, 589.4668
746.7870, 574.8926
747.9360, 337.5391
749.0850, 270.1504
750.2340, 688.4434
751.3830, 360.4961
752.5310, 380.7012
753.6800, 417.8594
754.8280, 304.9727
755.9760, 211.0391
757.1240, 471.0586
758.2720, 183.0332
759.4190, 420.9551
760.5670, 460.8320
761.7140, 277.6602
762.8610, 199.4434
764.0080, 347.1738
765.1550, 393.8574
766.3020, 375.4922
767.4480, 335.0781
768.5950, 187.6172
769.7410, 370.1016
770.8870, 206.5352
772.0330, 245.9199
773.1780, 378.2520
774.3240, 394.5352
775.4690, 272.7695
776.6140, 311.9531
777.7590, 256.0879
778.9040, 256.1699
780.0490, 124.2012
781.1940, 173.1660
782.3380, 216.0703
783.4820, 29.92188
784.6260, 279.6680
785.7700, 363.3652
786.9140, 363.0078
788.0580, 183.6016
789.2010, 243.1367
790.3450, 334.6152
791.4880, 84.04492
792.6310, 143.3906
793.7730, 148.6699
794.9160, 255.8828
796.0590, 271.0410
797.2010, 147.1445
798.3430, 48.17969
799.4850, 126.1152
800.6270, 94.97852
801.7690, 340.7578
802.9100, 20.51758
804.0520, 177.0723
805.1930, 20.59570
806.3340, 85.00391
807.4750, 31.67773
808.6160, 148.5020
809.7560, 79.60547
810.8970, 36.62109
812.0370, 61.52539
813.1770, 132.3320
814.3170, 197.0625
815.4570, 10.72852
816.5960, 67.27344
817.7360, 181.7227
818.8750, 125.1055
820.0140, 280.4102
821.1530, 248.6562
822.2920, 28.95312
823.4310, 296.4609
824.5690, 209.4648
825.7070, 120.4180
826.8460, 150.6738
827.9840, 82.43164
829.1220, 84.40234
830.2590, 21.20312
831.3970, 148.4277
832.5340, 197.8789
833.6710, 88.25586
834.8080, 97.02148
835.9450, 75.67773
837.0820, 71.42188
838.2190, 15.33008
839.3550, 82.40039
840.4910, 75.80273
841.6270, 129.9453
842.7630, 101.4551
843.8990, 123.0117
845.0350, 125.8105
846.1700, 100.3711
847.3060, 98.22070
848.4410, 20.17578
849.5760, 22.80078
850.7100, 139.2656
851.8450, 83.46094
852.9800, 9.751953
854.1140, 249.0996
855.2480, 68.63086
856.3820, 98.75391
857.5160, 47.09375
858.6500, 57.60352
859.7830, 40.62109
860.9170, 17.80078
862.0500, 81.94336
863.1830, 71.04492
864.3160, 42.10547
865.4480, 137.1289
866.5810, 95.11328
867.7130, 101.1895
868.8460, 42.96680
869.9780, 72.83398
871.1100, 32.33008
872.2410, 52.54883
873.3730, 68.17188
874.5050, 52.85547
875.6360, 21.49609
876.7670, 113.8926
877.8980, 7.625000
879.0290, 171.8965
880.1590, 0.4687500
881.2900, 54.20312
882.4200, 63.07031
883.5500, 12.68555
884.6800, 45.48047
885.8100, 13.80859
886.9400, 35.19531
888.0690, 64.89062
889.1990, 66.94727
890.3280, 79.97070
891.4570, 186.9668
892.5860, 62.86328
893.7140, 62.80078
894.8430, 118.4492
895.9710, 190.3281
897.1000, 58.18164
898.2280, 19.00781
899.3560, 100.6426
900.4830, 164.4160
901.6110, 12.16211
902.7380, 158.8848
903.8660, 107.5820
904.9930, 48.86328
906.1200, 225.5098
907.2460, 91.94336
908.3730, 277.5352
909.5000, 177.1113
910.6260, 106.6660
911.7520, 177.1953
912.8780, 228.7031
914.0040, 308.1914
915.1290, 167.6602
916.2550, 321.3887
917.3800, 371.0430
918.5050, 371.2129
919.6300, 526.0410
920.7550, 378.4277
921.8800, 430.8086
923.0040, 517.1738
924.1290, 536.8125
925.2530, 476.0527
926.3770, 662.3750
927.5010, 792.5156
928.6250, 844.3691
929.7480, 782.3086
930.8720, 907.5430
931.9950, 983.8008
933.1180, 959.6426
934.2410, 1229.082
935.3640, 1240.480
936.4860, 1306.926
937.6090, 1545.215
938.7310, 1602.615
939.8530, 1798.990
940.9750, 1943.916
942.0970, 2101.908
943.2180, 2197.641
944.3400, 2514.494
945.4610, 2747.328
946.5820, 3080.184
947.7030, 3210.281
948.8240, 3412.840
949.9450, 3444.473
951.0650, 3876.920
952.1860, 3845.352
953.3060, 4236.828
954.4260, 4226.289
955.5460, 4470.596
956.6650, 4465.762
957.7850, 4974.543
958.9040, 5197.904
960.0230, 5842.879
961.1420, 6232.572
962.2610, 6904.900
963.3800, 7622.879
964.4990, 8603.262
965.6170, 9661.500
966.7350, 10894.64
967.8530, 12386.35
968.9710, 13626.27
970.0890, 15175.62
971.2070, 15985.57
972.3240, 16410.26
973.4410, 17113.02
974.5580, 16745.01
975.6750, 16407.62
976.7920, 15629.11
977.9090, 14739.75
979.0250, 14453.29
980.1410, 13677.95
981.2580, 13539.29
982.3740, 13411.84
983.4890, 13407.38
984.6050, 13689.64
985.7200, 14045.88
986.8360, 14375.73
987.9510, 14518.27
989.0660, 14148.91
990.1810, 13710.98
991.2950, 13412.74
992.4100, 12282.51
993.5240, 11295.62
994.6390, 10533.44
995.7530, 10126.15
996.8660, 9498.047
997.9800, 9072.963
999.0940, 9398.910
1000.207, 9093.914
1001.320, 9687.957
1002.433, 9765.023
1003.546, 10604.16
1004.659, 11096.36
1005.772, 12448.31
1006.884, 13514.30
1007.996, 15438.70
1009.108, 17687.15
1010.220, 19751.96
1011.332, 22585.66
1012.444, 26299.21
1013.555, 29919.53
1014.666, 33727.08
1015.777, 37214.91
1016.888, 40471.60
1017.999, 42750.07
1019.110, 44044.57
1020.220, 44371.36
1021.331, 43928.39
1022.441, 42800.25
1023.551, 40752.17
1024.661, 38420.11
1025.770, 36126.10
1026.880, 33567.14
1027.989, 31746.22
1029.098, 29665.34
1030.207, 28200.49
1031.316, 27006.68
1032.425, 25805.91
1033.533, 24430.19
1034.642, 24262.50
1035.750, 23377.85
1036.858, 22406.24
1037.966, 21960.67
1039.073, 21100.14
1040.181, 20619.65
1041.288, 19558.20
1042.396, 18821.80
1043.503, 18011.43
1044.610, 16768.11
1045.716, 15683.82
1046.823, 14385.57
1047.929, 13380.37
1049.036, 12324.39
1050.142, 11268.79
1051.248, 10377.85
1052.353, 9435.822
1053.459, 8618.863
1054.564, 7997.896
1055.670, 7566.021
1056.775, 7270.189
1057.880, 6913.426
1058.985, 6840.512
1060.089, 6572.812
1061.194, 6535.281
1062.298, 6604.686
1063.402, 6584.141
1064.506, 6753.641
1065.610, 6968.182
1066.713, 7286.326
1067.817, 7460.432
1068.920, 7381.145
1070.023, 7536.562
1071.126, 7340.301
1072.229, 7076.646
1073.332, 6650.598
1074.435, 6250.621
1075.537, 5918.705
1076.639, 5304.871
1077.741, 4959.594
1078.843, 4882.348
1079.945, 4477.691
1081.046, 4362.096
1082.148, 4041.551
1083.249, 3828.252
1084.350, 3671.824
1085.451, 3280.459
1086.551, 3177.141
1087.652, 2828.871
1088.752, 2741.645
1089.853, 2641.463
1090.953, 2181.348
1092.053, 2086.283
1093.152, 2136.264
1094.252, 1884.293
1095.351, 2039.371
1096.451, 1705.098
1097.550, 1703.953
1098.649, 1708.760
1099.748, 1701.283
1100.846, 1466.453
1101.945, 1583.238
1103.043, 1629.021
1104.141, 1895.637
1105.239, 1864.271
1106.337, 1952.895
1107.434, 2293.592
1108.532, 2793.355
1109.629, 3181.217
1110.726, 3640.145
1111.823, 4300.148
1112.920, 4906.229
1114.017, 5684.377
1115.113, 6316.594
1116.210, 6362.857
1117.306, 6440.465
1118.402, 6288.566
1119.498, 5425.029
1120.593, 4890.664
1121.689, 4141.303
1122.784, 3874.049
1123.879, 3199.750
1124.974, 2889.488
1126.069, 2631.945
1127.164, 2141.764
1128.259, 1992.619
1129.353, 1595.615
1130.447, 1576.535
1131.541, 1243.152
1132.635, 953.5996
1133.729, 994.6152
1134.822, 929.8242
1135.916, 722.6738
1137.009, 777.4902
1138.102, 773.0156
1139.195, 633.8887
1140.288, 707.8535
1141.380, 559.8887
1142.473, 625.1621
1143.565, 614.4922
1144.657, 619.8477
1145.749, 608.4336
1146.841, 637.7246
1147.932, 657.2109
1149.024, 595.7207
1150.115, 620.4199
1151.206, 594.7715
1152.297, 570.4414
1153.388, 563.0820
1154.479, 465.0508
1155.569, 445.0391
1156.659, 398.7520
1157.750, 326.9883
1158.839, 365.7480
1159.929, 215.5273
1161.019, 438.3301
1162.108, 469.1523
1163.198, 357.9961
1164.287, 237.7578
1165.376, 168.6465
1166.465, 279.9395
1167.553, 332.8691
1168.642, 419.8164
1169.730, 378.7871
1170.818, 162.7773
1171.906, 95.78711
1172.994, 148.8145
1174.082, 29.88672
1175.170, 209.9746
1176.257, 278.0820
1177.344, 133.2109
1178.431, 200.3535
1179.518, 13.48242
1180.605, 97.69336
1181.691, 93.11523
1182.778, 232.0684
1183.864, 100.2676
1184.950, 97.51562
1186.036, 357.6855
1187.122, 164.9043
1188.207, 3.136719
1189.292, 37.61719
1190.378, 33.63281
1191.463, 45.10547
1192.548, 188.1582
1193.632, 42.43945
1194.717, 81.72852
1195.801, 130.0332
1196.886, 173.6484
1197.970, 187.3887
1199.054, 107.8477
1200.137, 74.97461
1201.221, 32.78320
1202.305, 45.58984
1203.388, 157.6309
1204.471, 63.82812
1205.554, 51.03320
1206.637, 9.250000
1207.719, 16.52930
1208.802, 172.1445
1209.884, 169.0078
1210.966, 83.17188
1212.048, 234.3379
1213.130, 110.4863
1214.212, 137.6445
1215.293, 188.0195
1216.374, 9.263672
1217.456, 51.41016
1218.536, 87.60742
1219.617, 101.7656
1220.698, 25.92383
1221.778, 237.2637
1222.859, 10.42969
1223.939, 108.5977
1225.019, 18.41797
1226.099, 47.41016
1227.178, 7.263672
1228.258, 44.12500
1229.337, 89.79688
1230.417, 7.939453
1231.496, 137.8809
1232.574, 103.8984
1233.653, 10.97461
1234.732, 9.019531
1235.810, 36.87891
1236.888, 138.0156
1237.966, 120.9277
1239.044, 91.56055
1240.122, 74.44727
1241.199, 106.3711
1242.277, 101.2129
1243.354, 181.5742
1244.431, 95.44531
1245.508, 108.3105
1246.585, 17.49805
1247.661, 12.33203
1248.738, 91.14648
1249.814, 31.95508
1250.890, 39.52734
1251.966, 72.23242
1253.042, 86.49219
1254.117, 90.21094
1255.193, 21.91992
1256.268, 233.6113
1257.343, 251.2949
1258.418, 44.96484
1259.493, 75.62500
1260.567, 87.72266
1261.642, 35.84766
1262.716, 95.41211
1263.790, 92.04688
1264.864, 116.5723
