##NAMES=Brazilianite
##RRUFFID=R050504
##IDEAL CHEMISTRY=NaAl_3_(PO_4_)_2_(OH)_4_
##LOCALITY=CÃ³rrego Frio, Minas Gerais, Brazil
##OWNER=RRUFF
##SOURCE=Marcus Origlieri
##DESCRIPTION=Yellowish green fragment
##STATUS=The identification of this mineral has been confirmed by X-ray diffraction and chemical analysis
##URL=rruff.info/R050504
##MEASURED CHEMISTRY=Na_1.00_Al_3.00_(P_1.00_O_4_)_2_(OH)_4_
##PIN_ID=L00583
##ORIENTATION=Laser parallel to b* (0 1 0). Fiducial mark perpendicular to laser is parallel to c [0 0 1]
77.42300, 0.0000000E+00
78.65900, 60.66870
79.89500, 273.1907
81.13100, 560.1843
82.36700, 906.7944
83.60200, 1245.318
84.83700, 1379.665
86.07200, 1523.736
87.30800, 1624.397
88.54200, 1623.820
89.77700, 1369.583
91.01200, 1101.113
92.24600, 813.9492
93.48000, 529.4731
94.71400, 261.4585
95.94800, 176.9609
97.18200, 86.98633
98.41600, 64.52417
99.64900, 202.2632
100.8830, 325.5549
102.1160, 478.8149
103.3490, 613.6094
104.5820, 721.3372
105.8150, 653.0503
107.0470, 751.9766
108.2800, 1043.315
109.5120, 924.4277
110.7440, 1021.818
111.9760, 766.5103
113.2080, 938.2930
114.4400, 1050.471
115.6710, 893.9868
116.9030, 622.8181
118.1340, 416.9517
119.3650, 183.3728
120.5960, 14.92554
121.8270, 13.96558
123.0580, 116.7764
124.2880, 49.38428
125.5190, 4.811035
126.7490, 77.07983
127.9790, 17.78955
129.2090, 27.78149
130.4390, 7.942627
131.6680, 27.08887
132.8980, 53.52026
134.1270, 21.87817
135.3560, 43.10059
136.5850, 26.50879
137.8140, 83.46826
139.0430, 195.3020
140.2710, 361.8601
141.5000, 502.1604
142.7280, 673.2178
143.9560, 819.0452
145.1840, 1015.654
146.4120, 1105.058
147.6390, 1075.265
148.8670, 975.2871
150.0940, 927.1338
151.3210, 794.8059
152.5490, 682.3184
153.7750, 726.8457
155.0020, 747.4951
156.2290, 860.2275
157.4550, 997.0830
158.6810, 1286.947
159.9080, 1871.906
161.1340, 2687.999
162.3590, 4043.262
163.5850, 5512.529
164.8110, 6917.743
166.0360, 8401.877
167.2610, 10609.94
168.4860, 14024.93
169.7110, 18155.86
170.9360, 21009.73
172.1610, 21011.54
173.3850, 18351.29
174.6100, 15398.90
175.8340, 11973.45
177.0580, 8460.931
178.2820, 5955.368
179.5050, 4154.731
180.7290, 3003.030
181.9520, 2185.296
183.1760, 1752.944
184.3990, 1595.439
185.6220, 1416.544
186.8450, 1343.114
188.0670, 1312.744
189.2900, 1250.599
190.5120, 1155.317
191.7340, 1247.966
192.9560, 1337.692
194.1780, 1296.441
195.4000, 1266.209
196.6220, 1346.997
197.8430, 1370.805
199.0640, 1365.631
200.2860, 1443.476
201.5070, 1616.340
202.7270, 1500.223
203.9480, 1647.124
205.1690, 1622.039
206.3890, 1803.958
207.6090, 1948.874
208.8290, 2121.783
210.0490, 2259.688
211.2690, 2371.589
212.4890, 2358.487
213.7080, 2402.384
214.9280, 2603.282
216.1470, 2832.181
217.3660, 2990.083
218.5850, 2917.990
219.8030, 2707.901
221.0220, 2593.820
222.2400, 2392.746
223.4590, 2169.680
224.6770, 2136.888
225.8950, 1920.993
227.1120, 1995.639
228.3300, 2291.741
229.5480, 2264.162
230.7650, 2121.701
231.9820, 1883.635
233.1990, 1607.194
234.4160, 1430.197
235.6330, 1280.480
236.8490, 1219.682
238.0660, 1372.166
239.2820, 1580.445
240.4980, 1980.450
241.7140, 2632.156
242.9300, 3182.686
244.1460, 3894.570
245.3610, 4390.529
246.5770, 4806.987
247.7920, 5437.603
249.0070, 6546.531
250.2220, 7748.927
251.4370, 8566.345
252.6510, 8322.734
253.8660, 7005.127
255.0800, 5577.554
256.2940, 4120.012
257.5080, 2847.498
258.7220, 2024.008
259.9360, 1387.543
261.1490, 810.0996
262.3630, 627.6777
263.5760, 472.2749
264.7890, 497.8906
266.0020, 528.5244
267.2150, 731.7168
268.4270, 772.9585
269.6400, 1061.339
270.8520, 1295.452
272.0640, 1439.992
273.2760, 1764.090
274.4880, 1791.831
275.7000, 1915.585
276.9120, 1858.354
278.1230, 1657.324
279.3340, 1285.327
280.5450, 1257.390
281.7560, 890.6533
282.9670, 761.3823
284.1780, 575.1006
285.3880, 462.8096
286.5980, 199.5107
287.8090, 52.20557
289.0190, 126.1216
290.2290, 205.5112
291.4380, 190.9819
292.6480, 313.5293
293.8570, 247.1821
295.0670, 270.9238
296.2760, 329.7568
297.4850, 296.6968
298.6930, 265.7339
299.9020, 243.8589
301.1110, 196.0674
302.3190, 53.34717
303.5270, 43.33691
304.7350, 243.0078
305.9430, 321.6816
307.1510, 573.3569
308.3580, 675.0347
309.5660, 1086.713
310.7730, 1264.395
311.9800, 1561.079
313.1870, 1640.767
314.3940, 1542.458
315.6010, 1392.156
316.8070, 1229.857
318.0130, 1047.565
319.2200, 863.2803
320.4260, 724.0020
321.6310, 685.7319
322.8370, 527.4707
324.0430, 597.2183
325.2480, 501.9766
326.4540, 527.7446
327.6590, 568.5234
328.8640, 517.2920
330.0680, 493.8848
331.2730, 572.2490
332.4780, 601.3882
333.6820, 572.2710
334.8860, 470.9453
336.0900, 617.5005
337.2940, 525.0649
338.4980, 597.6582
339.7010, 601.2817
340.9050, 592.9346
342.1080, 696.6177
343.3110, 737.3320
344.5140, 751.0762
345.7170, 812.8521
346.9200, 958.8174
348.1220, 1246.497
349.3240, 1341.366
350.5270, 1642.269
351.7290, 1929.203
352.9310, 2108.169
354.1320, 2351.169
355.3340, 2626.202
356.5350, 2757.270
357.7370, 2707.371
358.9380, 2380.507
360.1390, 2105.677
361.3400, 1719.882
362.5400, 1244.122
363.7410, 981.3989
364.9410, 738.7104
366.1410, 473.0591
367.3410, 296.4443
368.5410, 229.8662
369.7410, 141.3296
370.9400, 91.83057
372.1400, 80.63379
373.3390, 46.11523
374.5380, 82.59912
375.7370, 179.1025
376.9360, 43.66943
378.1350, 32.23633
379.3330, 129.7988
380.5310, 110.3989
381.7300, 22.02832
382.9280, 32.35400
384.1260, 109.2334
385.3230, 159.8457
386.5210, 102.5063
387.7180, 110.1870
388.9160, 221.8906
390.1130, 27.66992
391.3100, 55.43262
392.5060, 64.18945
393.7030, 67.05664
394.9000, 191.3364
396.0960, 264.6504
397.2920, 429.2651
398.4880, 571.3823
399.6840, 734.8008
400.8800, 926.2656
402.0750, 1100.785
403.2710, 1496.346
404.4660, 1647.965
405.6610, 1888.644
406.8560, 2333.394
408.0510, 2573.223
409.2450, 3016.126
410.4400, 3372.116
411.6340, 3481.207
412.8280, 3661.408
414.0220, 3628.739
415.2160, 3416.188
416.4100, 3294.724
417.6030, 3202.386
418.7970, 2993.142
419.9900, 2807.001
421.1830, 2715.935
422.3760, 2808.953
423.5690, 2873.053
424.7610, 2965.227
425.9540, 3109.467
427.1460, 3345.750
428.3380, 3681.078
429.5300, 4239.451
430.7220, 4721.868
431.9140, 5450.132
433.1050, 6277.447
434.2970, 7259.189
435.4880, 8332.866
436.6790, 9093.366
437.8700, 9898.928
439.0610, 10184.20
440.2510, 9770.985
441.4420, 9163.945
442.6320, 8080.829
443.8220, 7121.105
445.0120, 6389.298
446.2020, 5690.970
447.3910, 5266.069
448.5810, 5088.279
449.7700, 4866.550
450.9600, 5150.879
452.1490, 5500.272
453.3370, 5758.724
454.5260, 6332.237
455.7150, 6928.811
456.9030, 7393.446
458.0910, 7929.143
459.2800, 8733.904
460.4670, 9300.725
461.6550, 10274.61
462.8430, 10629.55
464.0300, 11136.56
465.2180, 11124.63
466.4050, 10809.77
467.5920, 11065.97
468.7790, 9915.229
469.9650, 7831.552
471.1520, 6406.941
472.3380, 5338.394
473.5250, 4096.910
474.7110, 3136.492
475.8970, 2197.141
477.0820, 1775.858
478.2680, 1466.645
479.4540, 1150.502
480.6390, 1061.430
481.8240, 1012.427
483.0090, 989.4951
484.1940, 1012.263
485.3780, 1073.633
486.5630, 1166.120
487.7470, 1315.468
488.9320, 1494.888
490.1160, 1722.377
491.3000, 2038.937
492.4830, 2398.566
493.6670, 2879.266
494.8500, 3147.036
496.0340, 3598.875
497.2170, 4021.787
498.4000, 4424.766
499.5820, 4720.817
500.7650, 4962.937
501.9480, 5026.126
503.1300, 5348.386
504.3120, 5458.716
505.4940, 5437.116
506.6760, 5562.584
507.8580, 5498.122
509.0390, 5597.730
510.2210, 5767.408
511.4020, 6080.155
512.5830, 6189.970
513.7640, 6261.856
514.9450, 6534.733
516.1250, 6570.649
517.3060, 6826.740
518.4860, 6783.682
519.6660, 7085.219
520.8460, 7099.501
522.0260, 7229.685
523.2060, 7847.091
524.3850, 8131.351
525.5650, 8700.938
526.7440, 9088.924
527.9230, 9429.332
529.1020, 10064.03
530.2810, 10451.50
531.4590, 10762.01
532.6380, 10974.10
533.8160, 10925.99
534.9940, 10812.61
536.1720, 10761.88
537.3500, 10558.25
538.5270, 10353.69
539.7050, 10148.20
540.8820, 9813.806
542.0590, 9550.348
543.2360, 9713.518
544.4130, 9498.050
545.5900, 9877.523
546.7660, 10281.58
547.9430, 10852.26
549.1190, 11610.12
550.2950, 12653.29
551.4710, 13940.55
552.6470, 15391.75
553.8220, 17065.87
554.9980, 19113.35
556.1730, 20803.29
557.3480, 22669.93
558.5230, 23777.54
559.6980, 24668.94
560.8730, 25692.12
562.0470, 25789.34
563.2220, 25620.68
564.3960, 25348.73
565.5700, 24481.83
566.7440, 23111.22
567.9170, 21394.95
569.0910, 19279.77
570.2640, 17108.69
571.4380, 15125.70
572.6110, 12853.82
573.7840, 11142.04
574.9570, 9689.399
576.1290, 8288.918
577.3020, 7204.596
578.4740, 6680.473
579.6460, 5956.512
580.8180, 5423.735
581.9900, 4976.153
583.1620, 4915.728
584.3330, 4604.456
585.5040, 4532.334
586.6760, 4599.361
587.8470, 4616.489
589.0180, 4878.703
590.1880, 5293.970
591.3590, 5599.300
592.5290, 6188.688
593.7000, 6813.125
594.8700, 7760.608
596.0400, 8613.138
597.2090, 9418.714
598.3790, 10226.35
599.5490, 10516.04
600.7180, 10549.77
601.8870, 10384.57
603.0560, 10020.40
604.2250, 9644.276
605.3940, 9231.188
606.5620, 9138.145
607.7300, 9336.139
608.8990, 9701.171
610.0670, 9810.245
611.2350, 10204.36
612.4020, 10368.51
613.5700, 10420.69
614.7370, 10099.91
615.9050, 9566.173
617.0720, 8819.466
618.2390, 7877.794
619.4060, 6942.157
620.5720, 6126.555
621.7390, 5731.983
622.9050, 5163.446
624.0710, 4946.939
625.2370, 5082.464
626.4030, 5071.021
627.5690, 5316.606
628.7340, 5550.222
629.9000, 5835.868
631.0650, 6370.542
632.2300, 6524.242
633.3950, 6611.090
634.5600, 6602.495
635.7240, 6394.506
636.8890, 6104.313
638.0530, 5629.145
639.2170, 5063.001
640.3810, 4562.880
641.5450, 3842.783
642.7080, 3370.708
643.8720, 2938.655
645.0350, 2648.623
646.1980, 2200.613
647.3610, 1973.622
648.5240, 1839.651
649.6870, 1563.698
650.8490, 1480.765
652.0120, 1289.849
653.1740, 1163.949
654.3360, 1138.066
655.4980, 1088.226
656.6600, 1126.417
657.8210, 1042.649
658.9830, 949.9424
660.1440, 1049.273
661.3050, 1055.621
662.4660, 838.0166
663.6270, 831.5938
664.7870, 756.0508
665.9480, 656.5186
667.1080, 556.9536
668.2680, 480.4253
669.4280, 404.7681
670.5880, 335.8208
671.7480, 311.3652
672.9070, 284.1182
674.0670, 184.2573
675.2260, 210.8677
676.3850, 86.58252
677.5440, 80.96240
678.7030, 97.06494
679.8610, 59.29541
681.0200, 56.45752
682.1780, 88.68701
683.3360, 21.12744
684.4940, 106.0391
685.6520, 94.69336
686.8090, 154.0518
687.9670, 169.7534
689.1240, 154.6748
690.2810, 203.5698
691.4380, 233.4854
692.5950, 275.8926
693.7520, 275.2344
694.9080, 275.6104
696.0650, 168.8271
697.2210, 275.8257
698.3770, 187.4863
699.5330, 225.0405
700.6880, 101.6538
701.8440, 115.6025
702.9990, 86.62451
704.1550, 65.33545
705.3100, 10.83740
706.4650, 141.3418
707.6190, 249.4609
708.7740, 337.3271
709.9290, 418.4531
711.0830, 578.0410
712.2370, 772.6260
713.3910, 828.5576
714.5450, 1091.303
715.6980, 1213.152
716.8520, 1333.410
718.0050, 1550.311
719.1580, 1715.632
720.3110, 1777.615
721.4640, 1724.174
722.6170, 1742.339
723.7700, 1719.427
724.9220, 1728.757
726.0740, 1596.561
727.2260, 1540.674
728.3780, 1581.238
729.5300, 1449.637
730.6810, 1524.806
731.8330, 1613.003
732.9840, 1545.676
734.1350, 1349.167
735.2860, 1184.236
736.4370, 1181.045
737.5880, 1185.609
738.7380, 1111.575
739.8880, 1077.544
741.0390, 1079.247
742.1890, 1122.902
743.3380, 1072.512
744.4880, 1065.074
745.6380, 1041.589
746.7870, 1046.057
747.9360, 964.4761
749.0850, 1022.848
750.2340, 1003.170
751.3830, 929.4434
752.5310, 905.6680
753.6800, 897.8418
754.8280, 827.9673
755.9760, 897.0415
757.1240, 793.0659
758.2720, 810.0396
759.4190, 853.9624
760.5670, 839.8335
761.7140, 807.6533
762.8610, 751.4214
764.0080, 747.1372
765.1550, 796.8008
766.3020, 702.4111
767.4480, 721.9697
768.5950, 744.4751
769.7410, 696.9268
770.8870, 722.3252
772.0330, 712.6694
773.1780, 740.9609
774.3240, 751.1973
775.4690, 614.3794
776.6140, 704.5068
777.7590, 585.5796
778.9040, 544.5972
780.0490, 574.5605
781.1940, 575.4678
782.3380, 573.3198
783.4820, 480.1162
784.6260, 600.8564
785.7700, 476.5415
786.9140, 586.1699
788.0580, 453.7422
789.2010, 376.2578
790.3450, 493.7168
791.4880, 425.1196
792.6310, 390.4653
793.7730, 404.7544
794.9160, 380.9858
796.0590, 374.6035
797.2010, 298.2759
798.3430, 337.3330
799.4850, 347.3330
800.6270, 279.2739
801.7690, 350.1548
802.9100, 316.9771
804.0520, 216.7402
805.1930, 286.4351
806.3340, 241.0688
807.4750, 252.6377
808.6160, 221.1416
809.7560, 209.5776
810.8970, 190.9434
812.0370, 220.2349
813.1770, 167.4580
814.3170, 180.6021
815.4570, 258.6699
816.5960, 148.6743
817.7360, 185.5957
818.8750, 206.5825
820.0140, 163.9502
821.1530, 88.95654
822.2920, 129.0166
823.4310, 46.49658
824.5690, 66.33496
825.7070, 145.9858
826.8460, 101.3228
827.9840, 120.5815
829.1220, 42.89355
830.2590, 36.70654
831.3970, 50.70898
832.5340, 5.808105
833.6710, 40.38965
834.8080, 25.58398
835.9450, 83.57422
837.0820, 172.3833
838.2190, 61.27148
839.3550, 114.3096
840.4910, 61.08496
841.6270, 164.9263
842.7630, 131.1016
843.8990, 131.6509
845.0350, 97.33545
846.1700, 103.1362
847.3060, 144.0562
848.4410, 66.11475
849.5760, 121.2710
850.7100, 40.55176
851.8450, 91.91504
852.9800, 116.3853
854.1140, 64.97510
855.2480, 105.6562
856.3820, 102.4482
857.5160, 2.349121
858.6500, 14.30469
859.7830, 31.32080
860.9170, 69.40332
862.0500, 31.57227
863.1830, 70.80664
864.3160, 4.875000
865.4480, 48.48730
866.5810, 27.91943
867.7130, 0.5903320
868.8460, 55.05859
869.9780, 7.492188
871.1100, 6.886719
872.2410, 38.75635
873.3730, 53.45557
874.5050, 29.30029
875.6360, 32.02881
876.7670, 42.11133
877.8980, 65.21924
879.0290, 127.2969
880.1590, 53.34277
881.2900, 131.3584
882.4200, 114.3438
883.5500, 65.29980
884.6800, 90.22705
885.8100, 60.12500
886.9400, 191.9951
888.0690, 258.8369
889.1990, 249.6514
890.3280, 256.4395
891.4570, 218.2002
892.5860, 263.9351
893.7140, 305.6445
894.8430, 315.3291
895.9710, 298.9883
897.1000, 301.6240
898.2280, 310.2354
899.3560, 383.8237
900.4830, 379.3896
901.6110, 391.9326
902.7380, 471.4541
903.8660, 487.9546
904.9930, 517.4331
906.1200, 536.8921
907.2460, 541.3311
908.3730, 513.7510
909.5000, 464.1514
910.6260, 612.5332
911.7520, 574.8975
912.8780, 643.2441
914.0040, 634.5742
915.1290, 775.8872
916.2550, 698.1846
917.3800, 795.4663
918.5050, 799.7334
919.6300, 841.9863
920.7550, 869.2246
921.8800, 911.4497
923.0040, 964.6621
924.1290, 965.8027
925.2530, 1091.050
926.3770, 1005.230
927.5010, 1122.400
928.6250, 1214.559
929.7480, 1215.708
930.8720, 1269.849
931.9950, 1346.980
933.1180, 1416.106
934.2410, 1573.232
935.3640, 1604.357
936.4860, 1803.336
937.6090, 1826.448
938.7310, 2016.567
939.8530, 2105.751
940.9750, 2308.759
942.0970, 2506.305
943.2180, 2762.994
944.3400, 2944.133
945.4610, 3125.325
946.5820, 3331.048
947.7030, 3610.335
948.8240, 3786.534
949.9450, 3910.081
951.0650, 4021.939
952.1860, 4263.690
953.3060, 4560.435
954.4260, 4472.648
955.5460, 4832.081
956.6650, 5050.007
957.7850, 5510.683
958.9040, 5874.046
960.0230, 6379.718
961.1420, 7047.611
962.2610, 7812.453
963.3800, 8870.301
964.4990, 9835.607
965.6170, 11171.80
966.7350, 12734.78
967.8530, 14160.00
968.9710, 15719.77
970.0890, 17002.14
971.2070, 17912.38
972.3240, 18458.66
973.4410, 18916.26
974.5580, 18388.91
975.6750, 17774.23
976.7920, 16687.32
977.9090, 15771.77
979.0250, 14811.30
980.1410, 14077.12
981.2580, 13572.73
982.3740, 13250.89
983.4890, 13244.05
984.6050, 13180.86
985.7200, 13447.86
986.8360, 13562.76
987.9510, 13397.24
989.0660, 13289.09
990.1810, 12637.53
991.2950, 12096.30
992.4100, 11148.51
993.5240, 10411.12
994.6390, 9735.792
995.7530, 9516.221
996.8660, 9102.176
997.9800, 9043.814
999.0940, 8985.001
1000.207, 9333.346
1001.320, 9677.136
1002.433, 10321.43
1003.546, 11083.15
1004.659, 12209.74
1005.772, 13512.38
1006.884, 15175.28
1007.996, 17365.42
1009.108, 19921.15
1010.220, 22938.88
1011.332, 26648.86
1012.444, 30910.89
1013.555, 35241.95
1014.666, 39842.07
1015.777, 43748.21
1016.888, 47305.40
1017.999, 49874.62
1019.110, 50950.90
1020.220, 50835.22
1021.331, 49778.58
1022.441, 47702.98
1023.551, 44983.42
1024.661, 42251.91
1025.770, 39348.44
1026.880, 36622.02
1027.989, 34415.64
1029.098, 32801.30
1030.207, 30574.01
1031.316, 29505.77
1032.425, 27958.57
1033.533, 26820.42
1034.642, 26243.30
1035.750, 25349.24
1036.858, 24699.22
1037.966, 24070.26
1039.073, 23190.33
1040.181, 22485.46
1041.288, 21903.62
1042.396, 20722.84
1043.503, 19443.11
1044.610, 17915.42
1045.716, 16783.77
1046.823, 15469.18
1047.929, 14226.64
1049.036, 13035.14
1050.142, 11954.70
1051.248, 11024.29
1052.353, 10023.94
1053.459, 9133.642
1054.564, 8622.390
1055.670, 7891.186
1056.775, 7450.031
1057.880, 7119.936
1058.985, 6991.400
1060.089, 6707.396
1061.194, 6741.437
1062.298, 6698.530
1063.402, 6797.673
1064.506, 7000.957
1065.610, 7049.960
1066.713, 7336.251
1067.817, 7537.865
1068.920, 7386.257
1070.023, 7331.699
1071.126, 7077.444
1072.229, 6737.988
1073.332, 6109.583
1074.435, 5720.751
1075.537, 5395.904
1076.639, 4847.427
1077.741, 4435.278
1078.843, 4152.119
1079.945, 3859.269
1081.046, 3691.643
1082.148, 3451.438
1083.249, 3217.094
1084.350, 3145.042
1085.451, 2750.230
1086.551, 2576.481
1087.652, 2298.006
1088.752, 2371.581
1089.853, 2199.533
1090.953, 2020.339
1092.053, 1941.900
1093.152, 1864.804
1094.252, 1703.875
1095.351, 1652.446
1096.451, 1661.754
1097.550, 1699.498
1098.649, 1644.467
1099.748, 1633.354
1100.846, 1536.599
1101.945, 1645.616
1103.043, 1809.915
1104.141, 1717.990
1105.239, 1905.744
1106.337, 2158.456
1107.434, 2380.948
1108.532, 2687.580
1109.629, 3089.871
1110.726, 3634.261
1111.823, 4149.872
1112.920, 4733.481
1114.017, 5374.346
1115.113, 5791.459
1116.210, 5813.634
1117.306, 5769.883
1118.402, 5375.224
1119.498, 4824.592
1120.593, 4302.965
1121.689, 3855.303
1122.784, 3370.326
1123.879, 2996.239
1124.974, 2621.208
1126.069, 2341.922
1127.164, 2077.684
1128.259, 1889.026
1129.353, 1774.888
1130.447, 1507.803
1131.541, 1417.753
1132.635, 1193.750
1133.729, 1169.785
1134.822, 1125.859
1135.916, 1055.962
1137.009, 1003.096
1138.102, 900.2622
1139.195, 1003.467
1140.288, 794.7202
1141.380, 837.0103
1142.473, 870.3369
1143.565, 759.7109
1144.657, 716.1196
1145.749, 771.5566
1146.841, 898.0210
1147.932, 768.5117
1149.024, 974.0283
1150.115, 869.5757
1151.206, 759.1475
1152.297, 828.7544
1153.388, 823.3926
1154.479, 641.0571
1155.569, 744.7441
1156.659, 709.4668
1157.750, 666.2163
1158.839, 734.0088
1159.929, 534.8257
1161.019, 726.6704
1162.108, 639.5356
1163.198, 542.4238
1164.287, 597.3384
1165.376, 518.2744
1166.465, 583.2363
1167.553, 492.2383
1168.642, 615.2598
1169.730, 441.3008
1170.818, 550.3594
1171.906, 356.4370
1172.994, 457.5312
1174.082, 290.6426
1175.170, 375.7832
1176.257, 288.9526
1177.344, 280.1396
1178.431, 287.3467
1179.518, 236.5693
1180.605, 263.8076
1181.691, 186.0591
1182.778, 163.3252
1183.864, 213.6045
1184.950, 99.89551
1186.036, 109.1987
1187.122, 52.51416
1188.207, 6.839844
1189.292, 29.82275
1190.378, 11.51758
1191.463, 31.86768
1192.548, 10.22754
1193.632, 28.59668
1194.717, 4.025879
1195.801, 61.64160
1196.886, 106.7324
1197.970, 46.88623
1199.054, 86.48926
1200.137, 59.87109
1201.221, 65.74023
1202.305, 48.63135
1203.388, 130.0093
1204.471, 66.60791
1205.554, 16.24561
1206.637, 47.88525
1207.719, 2.461426
1208.802, 104.1914
1209.884, 71.88721
1210.966, 54.61182
1212.048, 40.35889
1213.130, 121.1226
1214.212, 74.94531
1215.293, 19.80420
1216.374, 14.32715
1217.456, 91.54248
1218.536, 89.45996
1219.617, 92.42725
1220.698, 1.553711
1221.778, 21.52686
1222.859, 130.5010
1223.939, 34.60498
1225.019, 103.7368
1226.099, 80.93262
1227.178, 53.18408
1228.258, 101.4756
1229.337, 160.8350
1230.417, 52.29541
1231.496, 45.80029
1232.574, 95.34766
1233.653, 72.96533
1234.732, 64.64258
1235.810, 45.37646
1236.888, 7.158691
1237.966, 44.03027
1239.044, 141.7900
1240.122, 108.7134
1241.199, 61.72363
1242.277, 138.7964
1243.354, 3.025391
1244.431, 137.8159
1245.508, 63.59375
1246.585, 104.3584
1247.661, 52.10986
1248.738, 140.8457
1249.814, 28.90479
1250.890, 12.59961
1251.966, 44.25879
1253.042, 13.00293
1254.117, 162.5845
1255.193, 158.6011
1256.268, 133.3428
1257.343, 51.87842
1258.418, 173.0317
1259.493, 115.5244
1260.567, 232.4624
