##NAMES=Brazilianite
##RRUFFID=R050126
##IDEAL CHEMISTRY=NaAl_3_(PO_4_)_2_(OH)_4_
##LOCALITY=Linopolis, Minas Gerais, Brazil
##OWNER=RRUFF
##SOURCE=Carlos and Paulo Vasconcelos
##DESCRIPTION=Pair of greenish yellow elongated crystals
##STATUS=The identification of this mineral has been confirmed by X-ray diffraction and chemical analysis
##URL=rruff.info/R050126
##MEASURED CHEMISTRY=Na_1.00_Al_3.00_(P_1.00_O_4_)_2_((OH)_3.80_F_0.20_)_Î£=4_
##PIN_ID=L00391
##ORIENTATION=Laser parallel to c* (0 0 1). Fiducial mark perpendicular to laser is parallel to a [1 0 0]
132.987, 0.000
134.381, 40.533
135.776, 172.996
137.170, 68.084
138.564, 23.385
139.958, 21.686
141.351, 78.192
142.745, 178.399
144.138, 255.644
145.530, 311.661
146.923, 386.291
148.315, 487.625
149.707, 615.672
151.099, 386.895
152.490, 407.083
153.881, 240.787
155.272, 302.052
156.663, 321.243
158.054, 371.939
159.444, 519.861
160.834, 651.825
162.224, 1061.713
163.613, 1414.453
165.002, 2030.656
166.391, 3090.886
167.780, 4726.659
169.169, 8194.735
170.557, 11456.701
171.945, 17275.936
173.333, 23462.756
174.720, 28657.449
176.108, 28840.262
177.495, 22411.404
178.881, 15951.065
180.268, 9749.419
181.654, 6306.608
183.040, 3935.767
184.426, 2721.009
185.812, 1872.437
187.197, 1328.139
188.582, 1004.195
189.967, 723.675
191.351, 760.645
192.736, 507.156
194.120, 491.255
195.504, 534.984
196.887, 608.962
198.271, 975.741
199.654, 1364.062
201.036, 1848.135
202.419, 2190.660
203.801, 2535.819
205.184, 2943.374
206.565, 3312.322
207.947, 4071.629
209.328, 4325.236
210.710, 4815.123
212.090, 4893.293
213.471, 4738.752
214.851, 4610.505
216.232, 3933.566
217.611, 3826.936
218.991, 3494.594
220.370, 3629.550
221.750, 3673.827
223.129, 3428.423
224.507, 3520.339
225.886, 3124.568
227.264, 3290.105
228.642, 3445.944
230.019, 4241.080
231.397, 4851.501
232.774, 5382.208
234.151, 5611.186
235.528, 4596.426
236.904, 3670.916
238.281, 2361.651
239.656, 1672.624
241.032, 1342.830
242.408, 1195.263
243.783, 1416.919
245.158, 1494.796
246.533, 1834.890
247.907, 1725.197
249.282, 1618.689
250.656, 1571.326
252.029, 1477.098
253.403, 1554.009
254.776, 1683.063
256.149, 1581.269
257.522, 1047.626
258.895, 369.141
260.267, 167.183
261.639, 586.340
263.011, 705.329
264.382, 849.144
265.754, 879.783
267.125, 701.242
268.496, 636.518
269.866, 388.608
271.237, 263.510
272.607, 74.779
273.977, 388.261
275.346, 754.939
276.716, 1522.815
278.085, 2074.892
279.454, 2909.111
280.823, 3136.924
282.191, 3112.005
283.559, 2716.499
284.927, 2047.788
286.295, 1607.258
287.662, 1108.979
289.030, 936.947
290.397, 596.161
291.763, 559.620
293.130, 538.321
294.496, 467.265
295.862, 592.448
297.228, 490.869
298.594, 600.592
299.959, 646.380
301.324, 616.285
302.689, 727.556
304.053, 533.275
305.418, 618.238
306.782, 573.473
308.146, 752.947
309.509, 830.635
310.873, 1072.515
312.236, 1636.569
313.599, 2041.786
314.961, 2935.152
316.324, 3557.646
317.686, 4023.250
319.048, 4489.950
320.409, 4381.741
321.771, 4952.619
323.132, 4914.581
324.493, 5126.627
325.854, 5149.756
327.214, 4696.969
328.574, 4576.266
329.934, 3789.645
331.294, 3541.045
332.654, 2928.410
334.013, 2537.750
335.372, 2333.077
336.731, 1853.403
338.089, 1791.740
339.448, 1419.096
340.806, 1357.480
342.164, 1217.900
343.521, 1105.363
344.879, 1266.874
346.236, 1108.438
347.593, 1580.061
348.949, 1586.747
350.306, 2149.499
351.662, 2694.321
353.018, 3425.217
354.373, 4485.188
355.729, 5697.240
357.084, 7501.369
358.439, 9035.583
359.794, 10569.882
361.148, 11624.138
362.503, 10687.625
363.857, 10120.115
365.210, 8061.935
366.564, 6243.528
367.917, 4739.292
369.270, 3304.229
370.623, 2476.329
371.976, 1671.623
373.328, 1328.086
374.680, 997.732
376.032, 803.565
377.384, 817.562
378.735, 801.755
380.086, 1037.128
381.437, 1090.688
382.788, 1248.440
384.138, 1542.372
385.488, 1500.511
386.838, 1731.827
388.188, 1389.335
389.538, 1425.042
390.887, 1163.925
392.236, 1153.001
393.585, 1248.248
394.933, 1083.688
396.282, 1483.316
397.630, 1696.125
398.977, 1965.132
400.325, 2516.318
401.672, 2888.679
403.020, 3753.229
404.366, 4012.956
405.713, 4828.877
407.059, 5505.972
408.406, 6023.250
409.752, 6990.717
411.097, 7248.352
412.443, 8166.191
413.788, 8254.196
415.133, 8582.385
416.478, 8820.757
417.822, 8089.291
419.167, 8157.990
420.511, 7196.853
421.854, 6945.855
423.198, 6454.282
424.541, 6147.906
425.884, 6384.590
427.227, 5762.760
428.570, 5789.505
429.912, 5147.953
431.254, 4670.948
432.596, 4093.724
433.938, 3265.082
435.280, 2949.383
436.621, 2250.801
437.962, 1902.336
439.303, 1701.987
440.643, 1309.751
441.983, 1287.629
443.323, 875.623
444.663, 947.734
446.003, 775.968
447.342, 741.323
448.681, 939.800
450.020, 892.396
451.359, 1129.112
452.697, 1354.947
454.035, 1325.897
455.373, 1494.963
456.711, 1209.144
458.048, 1232.438
459.386, 956.844
460.723, 767.356
462.059, 758.979
463.396, 532.710
464.732, 668.550
466.068, 577.504
467.404, 925.562
468.740, 1157.723
470.075, 1218.986
471.410, 1674.349
472.745, 1590.812
474.080, 1932.374
475.414, 1862.034
476.748, 1760.791
478.082, 1911.644
479.416, 1714.593
480.749, 1979.638
482.083, 1946.777
483.416, 2087.011
484.749, 2335.337
486.081, 2313.758
487.413, 2675.271
488.745, 2710.875
490.077, 3207.573
491.409, 3368.360
492.740, 3562.238
494.072, 4312.208
495.402, 4475.269
496.733, 5300.420
498.064, 6175.662
499.394, 6740.995
500.724, 7986.418
502.054, 8341.930
503.383, 9507.532
504.712, 9513.223
506.041, 9859.002
507.370, 10534.871
508.699, 10090.825
510.027, 10596.869
511.355, 10312.999
512.683, 10759.216
514.011, 11055.517
515.338, 10861.906
516.666, 11668.379
517.993, 11604.938
519.319, 11921.577
520.646, 12148.347
521.972, 12025.154
523.298, 12792.047
524.624, 12683.138
525.950, 13900.462
527.275, 14179.708
528.600, 14550.758
529.925, 16529.820
531.250, 16376.535
532.574, 17787.680
533.898, 18222.275
535.222, 18778.572
536.546, 19359.373
537.869, 18328.404
539.193, 18603.625
540.516, 17401.141
541.839, 16370.193
543.161, 15966.328
544.484, 14339.404
545.806, 14425.934
547.128, 13176.148
548.449, 13418.480
549.771, 13565.345
551.092, 12956.866
552.413, 14453.495
553.734, 14395.278
555.054, 15977.235
556.374, 17526.643
557.694, 19080.857
559.014, 22000.836
560.334, 22959.959
561.653, 25102.893
562.972, 25993.482
564.291, 25558.021
565.610, 26857.900
566.928, 25370.150
568.247, 25804.629
569.565, 24404.021
570.882, 22861.988
572.200, 21671.402
573.517, 18804.740
574.834, 16838.686
576.151, 14587.684
577.468, 12857.234
578.784, 11827.030
580.100, 10150.813
581.416, 9909.204
582.732, 9290.393
584.047, 9157.067
585.362, 9441.091
586.677, 9423.582
587.992, 10536.168
589.307, 10827.751
590.621, 12369.796
591.935, 14091.274
593.249, 15762.841
594.563, 19324.535
595.876, 21686.139
597.189, 26227.766
598.502, 31169.406
599.815, 34821.059
601.127, 39472.742
602.440, 39584.426
603.752, 39816.125
605.064, 36627.844
606.375, 30379.582
607.686, 26741.326
608.998, 21723.074
610.308, 18714.840
611.619, 16226.610
612.930, 13748.395
614.240, 12620.180
615.550, 10571.974
616.860, 9853.772
618.169, 8415.581
619.478, 7167.387
620.787, 6559.198
622.096, 5434.012
623.405, 5351.825
624.713, 4677.639
626.021, 4275.453
627.329, 4368.266
628.637, 3915.076
629.945, 4023.882
631.252, 4101.685
632.559, 4263.483
633.866, 4566.275
635.172, 4478.062
636.479, 4778.840
637.785, 4751.611
639.091, 4660.372
640.396, 4511.125
641.702, 3773.868
643.007, 3502.598
644.312, 2925.317
645.617, 2363.023
646.921, 2296.715
648.226, 1696.393
649.530, 1628.055
650.834, 1373.702
652.137, 1205.332
653.441, 1294.945
654.744, 924.540
656.047, 1062.115
657.350, 817.670
658.652, 743.206
659.954, 786.719
661.256, 545.211
662.558, 633.680
663.860, 574.125
665.161, 397.546
666.462, 495.942
667.763, 331.312
669.064, 363.656
670.365, 183.972
671.665, 201.260
672.965, 114.520
674.265, 74.750
675.564, 77.949
676.864, 6.157
678.163, 18.292
679.462, 21.394
680.760, 75.538
682.059, 4.547
683.357, 35.601
684.655, 59.716
685.953, 22.909
687.250, 140.146
688.548, 46.523
689.845, 96.564
691.142, 119.125
692.438, 26.808
693.735, 153.235
695.031, 88.135
696.327, 120.146
697.623, 140.288
698.918, 89.574
700.214, 195.831
701.509, 87.412
702.804, 142.115
704.098, 171.814
705.393, 80.840
706.687, 151.083
707.981, 69.397
709.275, 147.833
710.568, 147.109
711.861, 102.877
713.155, 173.977
714.447, 103.076
715.740, 86.326
717.032, 141.969
718.325, 101.536
719.617, 158.235
720.908, 81.145
722.200, 116.205
723.491, 147.987
724.782, 64.404
726.073, 195.630
727.364, 55.697
728.654, 114.038
729.944, 116.605
731.234, 35.101
732.524, 39.507
733.814, 39.445
735.103, 69.704
736.392, 10.474
737.681, 163.692
738.969, 27.519
740.258, 89.958
741.546, 145.712
742.834, 155.932
744.122, 221.523
745.409, 205.089
746.697, 288.313
747.984, 289.692
749.270, 260.004
750.557, 417.246
751.844, 328.420
753.130, 472.526
754.416, 458.564
755.701, 468.533
756.987, 627.434
758.272, 558.266
759.557, 642.030
760.842, 736.725
762.127, 744.351
763.411, 863.907
764.695, 843.395
765.979, 932.813
767.263, 1003.163
768.547, 947.443
769.830, 1067.653
771.113, 1019.794
772.396, 977.865
773.679, 1073.867
774.961, 960.799
776.243, 992.662
777.525, 944.455
778.807, 973.178
780.089, 992.832
781.370, 895.416
782.651, 997.931
783.932, 857.375
785.213, 923.751
786.493, 911.057
787.773, 855.293
789.053, 975.460
790.333, 980.558
791.613, 984.586
792.892, 971.545
794.171, 981.415
795.450, 981.596
796.729, 991.009
798.007, 984.693
799.285, 992.308
800.563, 980.855
801.841, 972.651
803.119, 951.745
804.396, 932.088
805.673, 899.363
806.950, 844.571
808.227, 841.712
809.504, 756.785
810.780, 698.792
812.056, 676.733
813.332, 707.606
814.607, 733.414
815.883, 584.155
817.158, 500.832
818.433, 615.442
819.708, 508.987
820.982, 544.468
822.256, 560.884
823.531, 359.235
824.804, 460.521
826.078, 406.745
827.352, 424.904
828.625, 422.001
829.898, 300.034
831.170, 438.959
832.443, 343.866
833.715, 371.711
834.988, 378.387
836.259, 312.863
837.531, 312.445
838.803, 310.260
840.074, 281.094
841.345, 342.302
842.616, 216.114
843.886, 309.508
845.157, 301.219
846.427, 201.460
847.697, 295.502
848.966, 255.373
850.236, 215.982
851.505, 220.079
852.774, 168.114
854.043, 179.239
855.312, 175.934
856.580, 129.966
857.849, 145.906
859.117, 71.337
860.384, 123.125
861.652, 146.831
862.919, 63.407
864.186, 157.821
865.453, 36.185
866.720, 73.989
867.986, 81.427
869.253, 37.265
870.519, 71.234
871.784, 85.901
873.050, 20.003
874.315, 17.585
875.581, 29.190
876.846, 30.815
878.110, 90.079
879.375, 48.547
880.639, 70.459
881.903, 161.296
883.167, 31.753
884.431, 91.260
885.694, 85.318
886.957, 38.623
888.220, 88.903
889.483, 48.795
890.746, 71.426
892.008, 30.385
893.270, 18.500
894.532, 64.850
895.794, 72.935
897.056, 1.915
898.317, 40.397
899.578, 24.959
900.839, 32.302
902.099, 104.522
903.360, 72.842
904.620, 143.151
905.880, 222.451
907.140, 207.740
908.399, 231.021
909.659, 283.293
910.918, 239.558
912.177, 421.814
913.435, 364.064
914.694, 422.309
915.952, 541.548
917.210, 436.781
918.468, 631.010
919.726, 604.234
920.983, 636.455
922.240, 890.674
923.497, 865.890
924.754, 992.106
926.011, 1011.321
927.267, 1121.539
928.523, 1322.755
929.779, 1360.972
931.035, 1541.192
932.290, 1824.414
933.546, 1806.637
934.801, 2224.862
936.056, 2302.090
937.310, 2686.328
938.565, 3056.573
939.819, 3203.825
941.073, 3866.091
942.327, 4275.368
943.580, 4782.653
944.833, 5608.958
946.087, 5874.280
947.340, 7003.623
948.592, 7530.990
949.845, 8158.367
951.097, 9035.771
952.349, 9013.204
953.601, 9800.653
954.853, 9578.131
956.104, 9025.636
957.355, 9203.148
958.606, 8600.710
959.857, 8558.288
961.108, 8625.900
962.358, 8323.542
963.608, 8751.196
964.858, 9178.881
966.108, 9326.587
967.357, 10354.328
968.607, 10592.111
969.856, 12129.909
971.105, 13527.752
972.353, 14035.638
973.602, 15993.538
974.850, 16161.470
976.098, 16819.430
977.346, 17317.406
978.594, 16685.436
979.841, 17393.488
981.088, 17231.531
982.335, 17329.645
983.582, 19007.775
984.828, 19325.943
986.075, 21304.168
987.321, 23602.414
988.567, 23780.730
989.812, 26549.088
991.058, 25507.475
992.303, 24395.975
993.548, 23054.100
994.793, 19862.719
996.038, 18551.414
997.282, 16229.817
998.526, 14628.649
999.770, 14307.544
1001.014, 12976.512
1002.258, 13125.562
1003.501, 13574.532
1004.744, 13543.752
1005.987, 14611.541
1007.230, 15342.257
1008.473, 17001.738
1009.715, 19160.377
1010.957, 20990.020
1012.199, 25119.736
1013.441, 28219.223
1014.682, 32149.131
1015.923, 38714.328
1017.164, 41574.422
1018.405, 47114.609
1019.646, 49531.133
1020.886, 49081.484
1022.127, 50895.914
1023.367, 46786.473
1024.606, 44417.105
1025.846, 42026.383
1027.085, 37137.227
1028.325, 35003.805
1029.564, 31573.121
1030.802, 28591.643
1032.041, 27405.314
1033.279, 24465.830
1034.517, 23374.189
1035.755, 21923.021
1036.993, 19913.701
1038.230, 19832.666
1039.468, 17943.225
1040.705, 17053.100
1041.942, 16784.316
1043.178, 15136.170
1044.415, 14876.527
1045.651, 13708.479
1046.887, 12290.430
1048.123, 11671.688
1049.358, 10543.767
1050.594, 9895.885
1051.829, 9498.047
1053.064, 8690.246
1054.299, 8662.487
1055.533, 8234.768
1056.768, 7947.088
1058.002, 8129.449
1059.236, 8051.938
1060.469, 8234.381
1061.703, 8186.861
1062.936, 8059.601
1064.169, 8252.165
1065.402, 7824.768
1066.635, 7577.502
1067.867, 7430.186
1069.100, 6662.911
1070.332, 6685.877
1071.564, 6418.683
1072.795, 6003.101
1074.027, 6090.989
1075.258, 5705.515
1076.489, 5784.484
1077.720, 5772.493
1078.950, 5368.277
1080.181, 5648.366
1081.411, 5435.509
1082.641, 5338.679
1083.871, 5479.888
1085.100, 5094.477
1086.330, 5293.596
1087.559, 4989.209
1088.788, 4698.582
1090.016, 4932.146
1091.245, 4424.686
1092.473, 4267.159
1093.701, 4188.616
1094.929, 3767.255
1096.157, 3776.698
1097.384, 3469.339
1098.612, 3158.581
1099.839, 3335.288
1101.066, 2792.113
1102.292, 2814.556
1103.519, 2791.611
1104.745, 2483.564
1105.971, 2641.126
1107.197, 2396.475
1108.423, 2310.776
1109.648, 2408.561
1110.873, 2121.598
1112.098, 2232.015
1113.323, 2281.616
1114.548, 2099.486
1115.772, 2338.969
1116.996, 2179.175
1118.220, 2103.373
1119.444, 2224.586
1120.667, 1886.916
1121.891, 1940.524
1123.114, 1873.826
1124.337, 1697.616
1125.560, 1820.036
1126.782, 1658.615
1128.004, 1630.999
1129.227, 1728.407
1130.448, 1454.975
1131.670, 1492.258
1132.892, 1485.980
1134.113, 1298.609
1135.334, 1469.836
1136.555, 1275.520
1137.776, 1313.557
1138.996, 1383.620
1140.216, 1180.385
1141.436, 1228.348
1142.656, 1362.800
1143.876, 1116.701
1145.095, 1313.670
1146.315, 1114.677
1147.534, 1186.213
1148.753, 1197.799
1149.971, 961.903
1151.190, 1191.810
1152.408, 1123.024
1153.626, 1021.082
1154.844, 1231.500
1156.061, 1040.157
1157.279, 1147.342
1158.496, 1205.727
1159.713, 1116.961
1160.930, 1163.115
1162.146, 1204.653
1163.363, 1090.855
1164.579, 1247.582
1165.795, 1023.331
1167.010, 1078.596
1168.226, 1039.359
1169.441, 875.749
1170.657, 994.266
1171.871, 788.825
1173.086, 679.189
1174.301, 728.665
1175.515, 504.121
1176.729, 533.545
1177.943, 535.265
1179.157, 403.755
1180.370, 437.257
1181.584, 410.105
1182.797, 313.768
1184.010, 354.754
1185.222, 246.458
1186.435, 224.043
1187.647, 288.027
1188.859, 170.764
1190.071, 203.396
1191.283, 156.488
1192.494, 85.184
1193.706, 213.913
1194.917, 73.932
1196.128, 102.569
1197.338, 97.831
1198.549, 79.609
1199.759, 128.249
1200.969, 84.152
1202.179, 14.891
1203.389, 146.531
1204.598, 6.541
1205.807, 32.096
1207.016, 173.184
1208.225, 14.868
1209.434, 156.760
1210.642, 52.450
1211.850, 5.920
1213.058, 52.698
1214.266, 19.756
1215.474, 12.581
1216.681, 136.024
1217.889, 26.477
1219.096, 44.113
1220.302, 26.211
1221.509, 34.496
1222.715, 34.202
1223.922, 28.101
1225.128, 10.584
1226.334, 2.622
1227.539, 5.798
1228.745, 35.405
1229.950, 37.924
1231.155, 25.319
1232.360, 9.843
1233.564, 47.252
1234.769, 29.720
1235.973, 1.296
1237.177, 58.458
1238.381, 40.103
1239.584, 56.777
1240.787, 67.472
1241.991, 19.764
1243.194, 76.038
1244.396, 65.413
1245.599, 17.305
1246.801, 73.122
1248.004, 33.121
1249.206, 4.837
1250.407, 116.969
1251.609, 16.079
1252.810, 61.262
1254.012, 51.173
1255.212, 27.563
1256.413, 41.666
1257.614, 10.959
1258.814, 45.344
1260.014, 85.196
1261.214, 41.290
1262.414, 77.259
1263.614, 75.850
1264.813, 35.510
1266.012, 15.156
1267.211, 8.625
1268.410, 20.638
1269.609, 87.005
1270.807, 33.173
1272.005, 3.698
1273.203, 2.539
1274.401, 57.520
1275.598, 29.413
1276.796, 14.276
1277.993, 82.255
1279.190, 87.786
1280.387, 95.252
1281.583, 15.134
1282.780, 64.991
1283.976, 89.501
1285.172, 12.720
1286.368, 3.107
1287.563, 79.698
1288.759, 24.626
1289.954, 71.137
1291.149, 44.745
1292.343, 19.323
1293.538, 73.988
1294.732, 39.502
1295.927, 32.986
1297.121, 103.535
1298.314, 6.051
1299.508, 56.320
1300.701, 94.659
1301.895, 18.034
1303.087, 95.225
1304.280, 47.452
1305.473, 1.364
1306.665, 133.772
1307.857, 69.873
1309.049, 70.942
1310.241, 156.267
1311.433, 18.267
1312.624, 119.224
1313.815, 100.151
1315.006, 98.044
1316.197, 189.904
1317.388, 118.733
1318.578, 132.532
1319.768, 233.295
1320.958, 100.029
1322.148, 199.733
1323.338, 180.405
1324.527, 100.046
1325.716, 125.656
1326.906, 95.237
1328.094, 125.777
1329.283, 202.286
1330.471, 101.763
1331.660, 130.199
1332.848, 157.590
1334.035, 99.948
1335.223, 148.271
1336.411, 142.560
1337.598, 108.816
1338.785, 193.037
1339.972, 96.226
1341.158, 138.380
1342.345, 235.501
1343.531, 124.592
1344.717, 151.644
1345.903, 234.663
1347.089, 124.652
1348.274, 188.520
1349.459, 113.444
1350.644, 125.335
1351.829, 203.978
1353.014, 166.805
1354.198, 181.600
1355.383, 184.273
1356.567, 119.008
1357.751, 173.711
1358.934, 248.487
1360.118, 96.132
1361.301, 226.174
1362.484, 166.759
1363.667, 156.716
1364.850, 156.245
1366.032, 157.747
1367.215, 157.322
1368.397, 224.918
1369.579, 157.403
1370.760, 172.778
1371.942, 156.125
1373.123, 90.104
1374.304, 214.551
1375.485, 162.637
1376.666, 167.714
1377.847, 203.406
1379.027, 123.302
1380.207, 187.023
1381.387, 224.013
1382.567, 177.358
1383.747, 192.651
1384.926, 189.848
1386.105, 98.006
1387.284, 205.136
1388.463, 137.993
1389.641, 162.979
1390.820, 210.254
1391.998, 95.346
1393.176, 137.257
1394.354, 136.397
1395.532, 81.524
1396.709, 182.681
1397.886, 117.313
1399.063, 110.529
1400.240, 203.015
1401.417, 47.348
1402.593, 116.109
1403.769, 182.707
1404.945, 116.426
1406.121, 117.734
1407.297, 146.497
1408.472, 60.502
1409.648, 147.904
1410.823, 69.340
1411.998, 90.589
1413.172, 133.874
1414.347, 83.069
1415.521, 97.369
1416.695, 87.535
1417.869, 24.044
1419.043, 122.557
1420.216, 106.679
1421.390, 61.647
1422.563, 133.201
1423.736, 87.296
1424.909, 21.732
1426.081, 124.114
1427.254, 14.902
1428.426, 65.274
1429.598, 120.950
1430.770, 56.329
1431.941, 105.892
1433.113, 155.055
1434.284, 54.316
1435.455, 148.673
1436.626, 86.048
1437.796, 56.476
1438.967, 188.067
1440.137, 157.004
1441.307, 143.519
1442.477, 218.932
1443.646, 108.492
1444.816, 171.764
1445.985, 145.234
1447.154, 90.345
1448.323, 186.927
1449.492, 139.412
1450.660, 14.875
1451.829, 191.444
1452.997, 91.796
1454.165, 137.535
1455.332, 177.666
1456.500, 107.805
1457.667, 144.507
1458.834, 166.320
1460.001, 76.953
1461.168, 145.092
1462.335, 97.209
1463.501, 82.726
1464.667, 190.526
1465.833, 142.601
1466.999, 59.768
1468.165, 164.968
1469.330, 97.637
1470.495, 123.228
1471.660, 138.033
1472.825, 117.142
1473.990, 130.466
1475.154, 67.154
1476.318, 34.398
1477.482, 179.665
1478.646, 71.302
1479.810, 52.933
1480.974, 128.567
1482.137, 56.284
1483.300, 72.047
1484.463, 154.576
1485.626, 48.350
1486.788, 118.150
1487.950, 126.953
1489.113, 23.786
1490.275, 121.589
1491.436, 223.376
1492.598, 133.159
1493.759, 149.969
1494.920, 44.953
1496.081, 51.061
1497.242, 110.239
1498.403, 6.522
1499.563, 35.775
1500.724, 65.172
1501.884, 18.688
1503.043, 122.295
1504.203, 65.017
1505.363, 136.894
1506.522, 101.185
1507.681, 169.279
1508.840, 1.059
1509.999, 100.561
1511.157, 22.000
1512.315, 32.642
1513.474, 131.274
1514.632, 0.056
1515.789, 0.000
##END=



