##NAMES=Brazilianite
##RRUFFID=R050126
##IDEAL CHEMISTRY=NaAl_3_(PO_4_)_2_(OH)_4_
##LOCALITY=Linopolis, Minas Gerais, Brazil
##OWNER=RRUFF
##SOURCE=Carlos and Paulo Vasconcelos
##DESCRIPTION=Pair of greenish yellow elongated crystals
##STATUS=The identification of this mineral has been confirmed by X-ray diffraction and chemical analysis
##URL=rruff.info/R050126
##MEASURED CHEMISTRY=Na_1.00_Al_3.00_(P_1.00_O_4_)_2_((OH)_3.80_F_0.20_)_Î£=4_
##PIN_ID=L00391
##ORIENTATION=Laser parallel to c* (0 0 1). Fiducial mark perpendicular to laser is parallel to a [1 0 0]
134.381, 0.000
135.776, 48.838
137.170, 91.769
138.564, 28.156
139.958, 167.284
141.351, 225.365
142.745, 506.545
144.138, 710.121
145.530, 1267.752
146.923, 1724.351
148.315, 1999.125
149.707, 2318.670
151.099, 2023.610
152.490, 1560.530
153.881, 1192.987
155.272, 910.601
156.663, 643.054
158.054, 634.078
159.444, 794.456
160.834, 1135.201
162.224, 1728.848
163.613, 2654.354
165.002, 3893.356
166.391, 5290.723
167.780, 6108.268
169.169, 6560.567
170.557, 5863.483
171.945, 5516.904
173.333, 5196.741
174.720, 5158.923
176.108, 4735.391
177.495, 3594.093
178.881, 2660.990
180.268, 1648.056
181.654, 1129.270
183.040, 677.616
184.426, 451.083
185.812, 381.729
187.197, 261.203
188.582, 369.203
189.967, 269.369
191.351, 403.016
192.736, 422.967
194.120, 574.281
195.504, 735.010
196.887, 910.202
198.271, 1187.825
199.654, 1084.437
201.036, 1223.153
202.419, 1094.490
203.801, 957.475
205.184, 920.133
206.565, 910.037
207.947, 925.559
209.328, 992.366
210.710, 1098.928
212.090, 1150.260
213.471, 1076.381
214.851, 1121.305
216.232, 1044.047
217.611, 1237.617
218.991, 1501.015
220.370, 1954.230
221.750, 2150.329
223.129, 2089.339
224.507, 1993.279
225.886, 1585.162
227.264, 1486.002
228.642, 1328.809
230.019, 1382.590
231.397, 1572.354
232.774, 1701.103
234.151, 1976.844
235.528, 1750.447
236.904, 1775.278
238.281, 1600.218
239.656, 1603.212
241.032, 1734.641
242.408, 1987.807
243.783, 2220.085
245.158, 2172.719
246.533, 2017.501
247.907, 1876.934
249.282, 1370.200
250.656, 971.566
252.029, 459.029
253.403, 385.585
254.776, 369.233
256.149, 405.969
257.522, 317.793
258.895, 160.703
260.267, 77.700
261.639, 18.783
263.011, 63.953
264.382, 79.209
265.754, 107.553
267.125, 305.982
268.496, 382.496
269.866, 633.080
271.237, 599.719
272.607, 815.400
273.977, 1042.124
275.346, 1425.890
276.716, 2081.700
278.085, 2814.554
279.454, 3862.455
280.823, 4264.386
282.191, 4277.349
283.559, 3692.358
284.927, 2713.418
286.295, 2059.529
287.662, 1356.689
289.030, 987.902
290.397, 640.167
291.763, 520.486
293.130, 530.857
294.496, 434.284
295.862, 681.765
297.228, 657.300
298.594, 900.891
299.959, 928.648
301.324, 972.396
302.689, 1107.001
304.053, 928.121
305.418, 972.575
306.782, 939.361
308.146, 988.435
309.509, 991.761
310.873, 1083.311
312.236, 1410.061
313.599, 1688.991
314.961, 2208.083
316.324, 2611.322
317.686, 3030.692
319.048, 3270.184
320.409, 2981.785
321.771, 2848.488
323.132, 2249.286
324.493, 2064.171
325.854, 1829.139
327.214, 1374.179
328.574, 1210.284
329.934, 654.447
331.294, 628.662
332.654, 228.921
334.013, 51.224
335.372, 94.435
336.731, 300.085
338.089, 248.782
339.448, 417.512
340.806, 329.321
342.164, 406.188
343.521, 451.131
344.879, 486.166
346.236, 541.301
347.593, 439.552
348.949, 505.891
350.306, 332.342
351.662, 252.876
353.018, 179.492
354.373, 34.818
355.729, 52.106
357.084, 281.378
358.439, 530.636
359.794, 677.883
361.148, 835.122
362.503, 652.322
363.857, 728.513
365.210, 489.702
366.564, 342.892
367.917, 413.084
369.270, 325.282
370.623, 561.484
371.976, 560.694
373.328, 618.913
374.680, 674.143
376.032, 583.397
377.384, 637.673
378.735, 612.990
380.086, 778.334
381.437, 665.729
382.788, 689.186
384.138, 616.692
385.488, 400.270
386.838, 499.896
388.188, 318.579
389.538, 403.322
390.887, 309.111
392.236, 412.951
393.585, 562.833
394.933, 503.778
396.282, 799.769
397.630, 907.791
398.977, 1184.796
400.325, 1435.586
401.672, 1574.091
403.020, 2045.276
404.366, 2042.071
405.713, 2314.532
407.059, 2441.799
408.406, 2459.037
409.752, 2663.329
411.097, 2401.672
412.443, 2286.078
413.788, 2201.532
415.133, 1962.036
416.478, 1840.588
417.822, 1459.190
419.167, 1362.841
420.511, 1086.541
421.854, 920.290
423.198, 750.045
424.541, 622.018
425.884, 638.725
427.227, 386.668
428.570, 446.661
429.912, 350.701
431.254, 369.790
432.596, 400.927
433.938, 423.789
435.280, 545.345
436.621, 596.627
437.962, 699.957
439.303, 876.334
440.643, 987.760
441.983, 1230.233
443.323, 1156.755
444.663, 1227.325
446.003, 1072.942
447.342, 851.608
448.681, 947.322
450.020, 762.083
451.359, 840.892
452.697, 974.748
454.035, 1118.651
455.373, 1412.602
456.711, 1528.601
458.048, 1863.646
459.386, 1905.738
460.723, 2054.876
462.059, 2337.063
463.396, 2295.299
464.732, 2471.584
466.068, 2275.924
467.404, 2332.310
468.740, 2240.739
470.075, 1888.210
471.410, 1816.724
472.745, 1597.277
474.080, 1710.870
475.414, 1885.502
476.748, 1906.172
478.082, 2476.880
479.416, 2796.625
480.749, 3413.406
482.083, 3792.224
483.416, 4273.077
484.749, 4920.967
486.081, 5257.891
487.413, 6009.851
488.745, 6119.844
490.077, 6979.872
491.409, 7469.936
492.740, 7810.031
494.072, 8920.163
495.402, 9190.327
496.733, 10474.456
498.064, 11516.581
499.394, 12301.769
500.724, 13906.553
502.054, 14536.890
503.383, 15892.422
504.712, 16155.160
506.041, 16615.732
507.370, 17322.877
508.699, 16946.453
510.027, 17945.908
511.355, 17496.303
512.683, 17931.549
514.011, 18591.148
515.338, 17631.902
516.666, 18062.699
517.993, 17023.539
519.319, 16754.428
520.646, 15815.366
521.972, 14716.347
523.298, 14647.373
524.624, 13788.448
525.950, 14089.565
527.275, 13750.733
528.600, 13921.947
529.925, 15103.208
531.250, 14624.514
532.574, 15545.866
533.898, 15667.495
535.222, 15911.418
536.546, 16004.407
537.869, 15051.913
539.193, 15076.013
540.516, 14015.088
541.839, 12987.110
543.161, 12325.852
544.484, 10839.300
545.806, 10667.666
547.128, 9797.667
548.449, 9708.580
549.771, 9846.063
551.092, 9674.353
552.413, 10861.030
553.734, 11152.419
555.054, 12649.593
556.374, 14053.559
557.694, 15517.792
559.014, 17750.176
560.334, 18463.719
561.653, 19287.656
562.972, 19320.277
564.291, 17944.662
565.610, 17877.461
566.928, 16390.344
568.247, 16344.119
569.565, 15407.181
570.882, 14472.906
572.200, 13926.139
573.517, 12309.443
574.834, 11342.861
576.151, 10186.345
577.468, 9119.933
578.784, 8713.601
580.100, 7647.335
581.416, 7541.144
582.732, 7125.011
584.047, 6988.964
585.362, 7203.009
586.677, 6987.113
587.992, 7681.284
589.307, 7855.501
590.621, 8529.771
591.935, 9384.104
593.249, 9758.480
594.563, 11522.907
595.876, 12527.377
597.189, 15151.889
598.502, 18166.443
599.815, 21051.029
601.127, 24835.664
602.440, 26610.328
603.752, 28525.033
605.064, 28139.770
606.375, 24554.551
607.686, 22349.361
608.998, 18644.217
610.308, 16299.104
611.619, 14244.025
612.930, 12668.982
614.240, 12313.975
615.550, 11318.998
616.860, 11344.059
618.169, 10809.154
619.478, 10184.278
620.787, 9709.440
622.096, 8414.635
623.405, 8069.861
624.713, 6885.119
626.021, 6310.407
627.329, 5885.729
628.637, 5260.081
629.945, 5287.464
631.252, 5040.875
632.559, 4977.319
633.866, 5363.792
635.172, 5187.294
636.479, 5506.826
637.785, 5309.387
639.091, 5168.975
640.396, 5013.592
641.702, 4180.237
643.007, 4088.910
644.312, 3510.610
645.617, 3003.337
646.921, 3030.092
648.226, 2596.873
649.530, 2647.679
650.834, 2403.512
652.137, 2451.370
653.441, 2542.254
654.744, 2425.191
656.047, 2714.235
657.350, 2567.371
658.652, 2765.644
659.954, 2894.029
661.256, 2746.546
662.558, 3002.209
663.860, 2743.023
665.161, 2509.006
666.462, 2446.128
667.763, 2042.409
669.064, 1889.800
670.365, 1570.281
671.665, 1429.835
672.965, 1187.411
674.265, 863.007
675.564, 888.623
676.864, 644.258
678.163, 631.911
679.462, 518.583
680.760, 386.273
682.059, 378.981
683.357, 194.706
684.655, 195.448
685.953, 190.207
687.250, 15.981
688.548, 118.771
689.845, 6.425
691.142, 71.610
692.438, 46.807
693.735, 140.008
695.031, 69.251
696.327, 164.509
697.623, 214.822
698.918, 154.216
700.214, 234.729
701.509, 143.270
702.804, 171.447
704.098, 185.354
705.393, 121.223
706.687, 132.531
707.981, 100.754
709.275, 181.994
710.568, 103.834
711.861, 38.772
713.155, 40.329
714.447, 52.304
715.740, 17.996
717.032, 20.518
718.325, 42.637
719.617, 20.111
720.908, 25.405
722.200, 85.748
723.491, 7.687
724.782, 79.384
726.073, 19.257
727.364, 118.605
728.654, 65.370
729.944, 100.766
731.234, 177.214
732.524, 105.116
733.814, 213.847
735.103, 183.487
736.392, 160.122
737.681, 325.168
738.969, 261.908
740.258, 343.532
741.546, 388.623
742.834, 403.972
744.122, 506.823
745.409, 476.599
746.697, 631.394
747.984, 633.550
749.270, 695.724
750.557, 867.703
751.844, 789.901
753.130, 928.982
754.416, 992.688
755.701, 1096.457
756.987, 1317.131
758.272, 1185.788
759.557, 1472.428
760.842, 1540.052
762.127, 1552.658
763.411, 1806.246
764.695, 1782.816
765.979, 1979.369
767.263, 2025.902
768.547, 1942.417
769.830, 2126.913
771.113, 1939.391
772.396, 1934.848
773.679, 1968.286
774.961, 1745.703
776.243, 1767.102
777.525, 1603.479
778.807, 1604.835
780.089, 1567.172
781.370, 1387.486
782.651, 1534.780
783.932, 1379.052
785.213, 1430.303
786.493, 1489.531
787.773, 1453.738
789.053, 1610.922
790.333, 1535.083
791.613, 1800.223
792.892, 1858.339
794.171, 1843.432
795.450, 2163.502
796.729, 2234.549
798.007, 2343.572
799.285, 2553.572
800.563, 2615.547
801.841, 2786.499
803.119, 2686.428
804.396, 2711.331
805.673, 2928.211
806.950, 2741.066
808.227, 2692.898
809.504, 2678.704
810.780, 2498.485
812.056, 2519.241
813.332, 2348.971
814.607, 2266.674
815.883, 2097.349
817.158, 1966.997
818.433, 1923.616
819.708, 1703.207
820.982, 1720.767
822.256, 1621.296
823.531, 1335.795
824.804, 1421.262
826.078, 1262.698
827.352, 1160.102
828.625, 1163.474
829.898, 1016.813
831.170, 987.121
832.443, 999.397
833.715, 842.640
834.988, 862.851
836.259, 682.030
837.531, 710.177
838.803, 637.291
840.074, 548.373
841.345, 607.422
842.616, 504.438
843.886, 507.195
845.157, 409.668
846.427, 344.093
847.697, 415.013
848.966, 269.351
850.236, 241.729
851.505, 245.171
852.774, 124.911
854.043, 234.951
855.312, 140.089
856.580, 111.599
857.849, 58.205
859.117, 15.755
860.384, 29.469
861.652, 8.697
862.919, 13.587
864.186, 42.731
865.453, 78.738
866.720, 35.504
867.986, 68.433
869.253, 145.540
870.519, 30.084
871.784, 143.321
873.050, 69.357
874.315, 82.822
875.581, 156.389
876.846, 57.888
878.110, 116.682
879.375, 63.171
880.639, 62.173
881.903, 200.263
883.167, 26.514
884.431, 177.834
885.694, 80.301
886.957, 31.865
888.220, 64.499
889.483, 8.220
890.746, 67.998
892.008, 130.863
893.270, 11.849
894.532, 48.892
895.794, 36.989
897.056, 5.836
898.317, 43.364
899.578, 76.365
900.839, 3.933
902.099, 89.719
903.360, 65.346
904.620, 71.946
905.880, 125.518
907.140, 102.067
908.399, 204.593
909.659, 183.097
910.918, 178.579
912.177, 306.040
913.435, 236.479
914.694, 360.896
915.952, 381.293
917.210, 327.669
918.468, 484.024
919.726, 410.359
920.983, 451.673
922.240, 618.967
923.497, 603.240
924.754, 705.495
926.011, 666.730
927.267, 781.946
928.523, 838.143
929.779, 880.320
931.035, 941.479
932.290, 1098.622
933.546, 1116.746
934.801, 1307.856
936.056, 1284.949
937.310, 1509.026
938.565, 1615.088
939.819, 1706.133
941.073, 1982.163
942.327, 2072.182
943.580, 2284.183
944.833, 2699.172
946.087, 2668.147
947.340, 3010.116
948.592, 3186.084
949.845, 3343.043
951.097, 3617.999
952.349, 3659.961
953.601, 3846.914
954.853, 3916.871
956.104, 3814.825
957.355, 4041.773
958.606, 4077.728
959.857, 4178.676
961.108, 4473.623
962.358, 4454.575
963.608, 4753.516
964.858, 5118.458
966.108, 5292.395
967.357, 5816.333
968.607, 5924.284
969.856, 6693.223
971.105, 7317.163
972.353, 7698.118
973.602, 8869.061
974.850, 9380.007
976.098, 10400.947
977.346, 11441.882
978.594, 12002.828
979.841, 13523.767
981.088, 14724.702
982.335, 16035.646
983.582, 18396.582
984.828, 20047.533
986.075, 22958.475
987.321, 26059.428
988.567, 27220.387
989.812, 28382.377
991.058, 29082.297
992.303, 27543.254
993.548, 25784.197
994.793, 22275.162
996.038, 20406.139
997.282, 18057.117
998.526, 16158.127
999.770, 15379.146
1001.014, 13860.193
1002.258, 13661.288
1003.501, 13521.476
1004.744, 12892.646
1005.987, 13703.428
1007.230, 13443.909
1008.473, 14193.323
1009.715, 15329.158
1010.957, 16067.883
1012.199, 18374.615
1013.441, 20101.400
1014.682, 22101.277
1015.923, 25784.279
1017.164, 27140.080
1018.405, 30123.824
1019.646, 31092.797
1020.886, 30159.078
1022.127, 30788.273
1023.367, 28452.199
1024.606, 26645.303
1025.846, 25043.809
1027.085, 22298.561
1028.325, 21049.650
1029.564, 19224.229
1030.802, 17818.900
1032.041, 17394.953
1033.279, 16081.953
1034.517, 15779.501
1035.755, 15483.224
1036.993, 14670.038
1038.230, 15374.858
1039.468, 14673.274
1040.705, 14777.995
1041.942, 15148.834
1043.178, 14467.204
1044.415, 14673.317
1045.651, 14363.934
1046.887, 13793.623
1048.123, 13940.297
1049.358, 13411.607
1050.594, 13270.901
1051.829, 13452.389
1053.064, 12873.655
1054.299, 13595.039
1055.533, 13266.799
1056.768, 13318.495
1058.002, 14030.281
1059.236, 13932.087
1060.469, 14363.907
1061.703, 14455.742
1062.936, 14097.591
1064.169, 14299.458
1065.402, 13601.337
1066.635, 13043.238
1067.867, 12765.148
1069.100, 11397.081
1070.332, 11319.026
1071.564, 10630.989
1072.795, 9933.030
1074.027, 9825.031
1075.258, 8957.048
1076.489, 8839.083
1077.720, 8661.130
1078.950, 8003.201
1080.181, 7955.590
1081.411, 7317.694
1082.641, 6795.695
1083.871, 6659.832
1085.100, 5883.224
1086.330, 5671.875
1087.559, 5134.066
1088.788, 4539.596
1090.016, 4395.846
1091.245, 3773.086
1092.473, 3401.998
1093.701, 3177.762
1094.929, 2800.685
1096.157, 2616.368
1097.384, 2364.904
1098.612, 2070.818
1099.839, 2166.135
1101.066, 1858.297
1102.292, 1826.971
1103.519, 1819.789
1104.745, 1604.008
1105.971, 1785.761
1107.197, 1714.783
1108.423, 1708.780
1109.648, 1882.876
1110.873, 1901.435
1112.098, 2179.220
1113.323, 2431.160
1114.548, 2699.899
1115.772, 3114.991
1116.996, 3297.579
1118.220, 3426.169
1119.444, 3711.998
1120.667, 3344.771
1121.891, 3387.361
1123.114, 3421.911
1124.337, 3185.008
1125.560, 3387.416
1126.782, 3193.170
1128.004, 3049.538
1129.227, 3160.337
1130.448, 2854.675
1131.670, 2855.018
1132.892, 2676.137
1134.113, 2482.692
1135.334, 2677.752
1136.555, 2435.702
1137.776, 2355.396
1138.996, 2458.089
1140.216, 2188.053
1141.436, 2294.178
1142.656, 2293.273
1143.876, 2101.236
1145.095, 2284.026
1146.315, 2044.126
1147.534, 2165.098
1148.753, 2104.679
1149.971, 1761.712
1151.190, 1892.831
1152.408, 1718.964
1153.626, 1470.105
1154.844, 1559.708
1156.061, 1329.167
1157.279, 1306.192
1158.496, 1400.527
1159.713, 1207.625
1160.930, 1285.873
1162.146, 1234.071
1163.363, 1111.207
1164.579, 1308.681
1165.795, 1150.589
1167.010, 1207.861
1168.226, 1150.453
1169.441, 1068.887
1170.657, 1137.343
1171.871, 977.498
1173.086, 828.008
1174.301, 954.751
1175.515, 652.453
1176.729, 669.090
1177.943, 650.112
1179.157, 528.857
1180.370, 582.698
1181.584, 423.852
1182.797, 363.824
1184.010, 475.923
1185.222, 309.149
1186.435, 355.110
1187.647, 380.282
1188.859, 250.483
1190.071, 267.551
1191.283, 228.010
1192.494, 201.268
1193.706, 199.066
1194.917, 183.910
1196.128, 170.060
1197.338, 187.248
1198.549, 162.531
1199.759, 196.780
1200.969, 179.234
1202.179, 122.414
1203.389, 223.595
1204.598, 76.928
1205.807, 129.111
1207.016, 134.294
1208.225, 49.546
1209.434, 140.745
1210.642, 140.085
1211.850, 46.443
1213.058, 75.627
1214.266, 57.956
1215.474, 44.234
1216.681, 86.482
1217.889, 3.175
1219.096, 36.003
1220.302, 59.274
1221.509, 6.697
1222.715, 64.871
1223.922, 25.560
1225.128, 16.268
1226.334, 13.999
1227.539, 31.686
1228.745, 34.464
1229.950, 11.271
1231.155, 18.562
1232.360, 47.568
1233.564, 12.306
1234.769, 30.099
1235.973, 50.012
1237.177, 19.731
1238.381, 14.645
1239.584, 37.577
1240.787, 64.259
1241.991, 28.268
1243.194, 49.311
1244.396, 86.264
1245.599, 17.381
1246.801, 73.439
1248.004, 42.625
1249.206, 31.856
1250.407, 70.984
1251.609, 26.296
1252.810, 40.648
1254.012, 72.924
1255.212, 23.652
1256.413, 49.745
1257.614, 19.263
1258.814, 46.804
1260.014, 83.224
1261.214, 42.399
1262.414, 41.253
1263.614, 91.787
1264.813, 12.496
1266.012, 22.229
1267.211, 20.554
1268.410, 12.325
1269.609, 64.087
1270.807, 41.129
1272.005, 13.722
1273.203, 51.500
1274.401, 4.646
1275.598, 58.278
1276.796, 5.952
1277.993, 27.923
1279.190, 66.920
1280.387, 30.666
1281.583, 11.379
1282.780, 5.555
1283.976, 39.689
1285.172, 63.410
1286.368, 1.670
1287.563, 52.515
1288.759, 23.654
1289.954, 32.574
1291.149, 62.363
1292.343, 1.864
1293.538, 55.028
1294.732, 40.763
1295.927, 41.481
1297.121, 43.250
1298.314, 1.924
1299.508, 26.574
1300.701, 88.204
1301.895, 9.812
1303.087, 85.394
1304.280, 57.956
1305.473, 17.505
1306.665, 118.007
1307.857, 42.492
1309.049, 6.955
1310.241, 116.389
1311.433, 47.801
1312.624, 90.192
1313.815, 95.563
1315.006, 31.914
1316.197, 130.241
1317.388, 64.549
1318.578, 87.838
1319.768, 129.105
1320.958, 50.352
1322.148, 123.579
1323.338, 100.048
1324.527, 55.973
1325.716, 96.135
1326.906, 73.277
1328.094, 62.395
1329.283, 147.484
1330.471, 80.552
1331.660, 86.596
1332.848, 127.615
1334.035, 59.606
1335.223, 89.573
1336.411, 105.515
1337.598, 69.434
1338.785, 163.329
1339.972, 124.201
1341.158, 103.051
1342.345, 113.023
1343.531, 74.861
1344.717, 144.643
1345.903, 204.429
1347.089, 98.168
1348.274, 172.885
1349.459, 146.581
1350.644, 120.254
1351.829, 133.906
1353.014, 100.536
1354.198, 97.145
1355.383, 146.787
1356.567, 105.354
1357.751, 117.901
1358.934, 125.551
1360.118, 44.053
1361.301, 155.471
1362.484, 121.086
1363.667, 90.524
1364.850, 158.942
1366.032, 70.028
1367.215, 149.406
1368.397, 122.452
1369.579, 110.857
1370.760, 165.277
1371.942, 119.480
1373.123, 69.400
1374.304, 151.004
1375.485, 148.194
1376.666, 126.674
1377.847, 163.941
1379.027, 115.043
1380.207, 154.136
1381.387, 153.377
1382.567, 85.473
1383.747, 154.437
1384.926, 143.867
1386.105, 103.310
1387.284, 164.022
1388.463, 105.601
1389.641, 114.599
1390.820, 124.733
1391.998, 77.994
1393.176, 153.938
1394.354, 138.123
1395.532, 80.257
1396.709, 119.862
1397.886, 80.824
1399.063, 94.107
1400.240, 130.390
1401.417, 51.835
1402.593, 29.454
1403.769, 97.215
1404.945, 45.264
1406.121, 94.362
1407.297, 109.171
1408.472, 15.056
1409.648, 110.597
1410.823, 67.966
1411.998, 58.699
1413.172, 147.306
1414.347, 46.955
1415.521, 58.352
1416.695, 101.128
1417.869, 18.628
1419.043, 116.206
1420.216, 105.371
1421.390, 6.420
1422.563, 122.548
1423.736, 70.614
1424.909, 24.550
1426.081, 107.367
1427.254, 24.301
1428.426, 100.097
1429.598, 85.066
1430.770, 9.616
1431.941, 91.671
1433.113, 104.413
1434.284, 32.225
1435.455, 130.795
1436.626, 84.285
1437.796, 47.581
1438.967, 151.021
1440.137, 84.394
1441.307, 152.401
1442.477, 129.806
1443.646, 60.610
1444.816, 143.601
1445.985, 128.625
1447.154, 51.503
1448.323, 119.156
1449.492, 121.096
1450.660, 88.498
1451.829, 137.314
1452.997, 80.240
1454.165, 107.442
1455.332, 140.443
1456.500, 63.620
1457.667, 82.977
1458.834, 140.674
1460.001, 72.436
1461.168, 120.900
1462.335, 94.687
1463.501, 39.345
1464.667, 113.889
1465.833, 62.410
1466.999, 114.041
1468.165, 117.968
1469.330, 50.820
1470.495, 110.413
1471.660, 99.299
1472.825, 40.125
1473.990, 92.195
1475.154, 74.584
1476.318, 60.453
1477.482, 117.535
1478.646, 79.901
1479.810, 58.284
1480.974, 143.699
1482.137, 2.144
1483.300, 24.654
1484.463, 73.218
1485.626, 25.815
1486.788, 66.438
1487.950, 68.063
1489.113, 38.709
1490.275, 66.321
1491.436, 72.981
1492.598, 34.644
1493.759, 99.407
1494.920, 19.229
1496.081, 73.175
1497.242, 113.209
1498.403, 7.317
1499.563, 125.295
1500.724, 77.171
1501.884, 5.121
1503.043, 133.365
1504.203, 96.690
1505.363, 5.889
1506.522, 101.856
1507.681, 89.384
1508.840, 23.809
1509.999, 115.871
1511.157, 33.360
1512.315, 70.755
1513.474, 75.707
1514.632, 0.055
1515.789, 0.000
##END=



