##NAMES=Brazilianite
##RRUFFID=R050319
##IDEAL CHEMISTRY=NaAl_3_(PO_4_)_2_(OH)_4_
##LOCALITY=Minas Gerais, Brazil
##OWNER=RRUFF
##SOURCE=American Museum of Natural History
##DESCRIPTION=Pale green fragment
##STATUS=The identification of this mineral has been confirmed by X-ray diffraction and chemical analysis
##URL=rruff.info/R050319
##MEASURED CHEMISTRY=Na_1.00_Al_3.00_(PO_4_)_2_(OH)_4_
##PIN_ID=M00246
##ORIENTATION=Laser parallel to (1 0 1). Fiducial mark perpendicular to laser is parallel to b [0 1 0]
86.07200, 0.0000000E+00
87.30800, 1142.745
88.54200, 2109.242
89.77700, 1795.906
91.01200, 910.8008
92.24600, 165.1641
93.48000, 3.784180
94.71400, 48.88672
95.94800, 384.6074
97.18200, 702.1641
98.41600, 907.5723
99.64900, 1777.119
100.8830, 2828.367
102.1160, 4525.098
103.3490, 5974.621
104.5820, 6451.152
105.8150, 5215.689
107.0470, 4189.969
108.2800, 3790.804
109.5120, 3257.289
110.7440, 2634.180
111.9760, 2611.689
113.2080, 2531.766
114.4400, 2812.363
115.6710, 2342.441
116.9030, 1539.961
118.1340, 933.9590
119.3650, 831.5762
120.5960, 571.8066
121.8270, 123.5840
123.0580, 105.8418
124.2880, 17.52344
125.5190, 142.4023
126.7490, 35.98047
127.9790, 20.77148
129.2090, 200.1875
130.4390, 8.117188
131.6680, 16.66211
132.8980, 128.5801
134.1270, 118.3613
135.3560, 246.4688
136.5850, 380.7441
137.8140, 778.1797
139.0430, 984.7598
140.2710, 1125.479
141.5000, 1598.322
142.7280, 1852.289
143.9560, 2309.369
145.1840, 2428.689
146.4120, 2678.850
147.6390, 2528.240
148.8670, 2468.299
150.0940, 2271.918
151.3210, 1950.932
152.5490, 1976.371
153.7750, 1970.896
155.0020, 1883.424
156.2290, 2283.828
157.4550, 2770.117
158.6810, 3165.299
159.9080, 3819.402
161.1340, 4537.508
162.3590, 5724.629
163.5850, 6666.764
164.8110, 6997.914
166.0360, 6685.062
167.2610, 5993.209
168.4860, 5286.344
169.7110, 4652.463
170.9360, 4298.545
172.1610, 3658.570
173.3850, 3180.549
174.6100, 2569.484
175.8340, 2117.383
177.0580, 1647.246
178.2820, 1520.070
179.5050, 1400.744
180.7290, 1488.287
181.9520, 1379.662
183.1760, 1369.094
184.3990, 1242.652
185.6220, 1585.312
186.8450, 1726.982
188.0670, 1786.646
189.2900, 1896.309
190.5120, 1938.605
191.7340, 2077.641
192.9560, 1990.311
194.1780, 2128.984
195.4000, 2140.662
196.6220, 2357.346
197.8430, 2258.363
199.0640, 2203.730
200.2860, 2046.432
201.5070, 1911.141
202.7270, 1686.859
203.9480, 1593.588
205.1690, 1546.639
206.3890, 1421.080
207.6090, 1568.842
208.8290, 1652.617
210.0490, 1751.340
211.2690, 1858.102
212.4890, 2030.305
213.7080, 2084.826
214.9280, 2341.055
216.1470, 2575.018
217.3660, 2672.561
218.5850, 2968.607
219.8030, 3023.551
221.0220, 2771.287
222.2400, 2784.305
223.4590, 2369.355
224.6770, 2205.430
225.8950, 2140.527
227.1120, 2336.648
228.3300, 2353.793
229.5480, 2456.961
230.7650, 2500.150
231.9820, 2709.367
233.1990, 2785.342
234.4160, 2808.762
235.6330, 2935.371
236.8490, 2705.051
238.0660, 2887.738
239.2820, 2776.383
240.4980, 3120.959
241.7140, 2954.465
242.9300, 2767.873
244.1460, 2724.129
245.3610, 2131.213
246.5770, 1922.170
247.7920, 1584.031
249.0070, 1634.820
250.2220, 1269.555
251.4370, 1233.215
252.6510, 1085.369
253.8660, 1042.301
255.0800, 976.7539
256.2940, 750.9336
257.5080, 956.1797
258.7220, 817.4941
259.9360, 1076.871
261.1490, 963.3105
262.3630, 1030.809
263.5760, 1060.367
264.7890, 919.9785
266.0020, 1165.646
267.2150, 1156.361
268.4270, 1192.654
269.6400, 1325.869
270.8520, 1557.049
272.0640, 1625.541
273.2760, 1987.949
274.4880, 2043.990
275.7000, 2682.545
276.9120, 2688.764
278.1230, 2460.879
279.3340, 1991.016
280.5450, 1669.160
281.7560, 1350.480
282.9670, 1283.799
284.1780, 1236.885
285.3880, 1048.197
286.5980, 894.5449
287.8090, 679.9238
289.0190, 1036.338
290.2290, 1062.783
291.4380, 1240.262
292.6480, 1208.770
293.8570, 1237.311
295.0670, 1283.879
296.2760, 1326.650
297.4850, 1333.008
298.6930, 1359.520
299.9020, 1364.332
301.1110, 1370.982
302.3190, 1428.645
303.5270, 1421.322
304.7350, 1355.018
305.9430, 1244.729
307.1510, 1429.457
308.3580, 1333.205
309.5660, 1653.969
310.7730, 1865.750
311.9800, 1887.551
313.1870, 2259.371
314.3940, 2331.207
315.6010, 2054.062
316.8070, 2035.938
318.0130, 1740.830
319.2200, 1857.746
320.4260, 1580.682
321.6310, 1683.639
322.8370, 1318.615
324.0430, 1081.613
325.2480, 963.6348
326.4540, 735.6797
327.6590, 599.2969
328.8640, 353.8398
330.0680, 282.9570
331.2730, 147.0957
332.4780, 89.74219
333.6820, 261.5898
334.8860, 238.4883
336.0900, 202.4355
337.2940, 225.4160
338.4980, 340.4414
339.7010, 281.5352
340.9050, 340.1055
342.1080, 113.9062
343.3110, 299.1367
344.5140, 121.4297
345.7170, 79.26758
346.9200, 156.0117
348.1220, 67.68945
349.3240, 43.41602
350.5270, 22.83203
351.7290, 261.9316
352.9310, 114.2754
354.1320, 53.49414
355.3340, 201.2539
356.5350, 274.8613
357.7370, 340.3535
358.9380, 216.6738
360.1390, 253.8789
361.3400, 145.9805
362.5400, 257.0645
363.7410, 339.1836
364.9410, 529.3242
366.1410, 529.4395
367.3410, 668.5938
368.5410, 651.7852
369.7410, 806.0176
370.9400, 730.2871
372.1400, 752.5957
373.3390, 863.9434
374.5380, 928.3281
375.7370, 888.7637
376.9360, 646.2168
378.1350, 755.7109
379.3330, 644.2305
380.5310, 485.7773
381.7300, 542.3477
382.9280, 485.9473
384.1260, 603.5723
385.3230, 480.2227
386.5210, 704.9043
387.7180, 730.6094
388.9160, 492.3477
390.1130, 935.1133
391.3100, 687.9121
392.5060, 1078.742
393.7030, 1092.605
394.9000, 1193.500
396.0960, 1543.428
397.2920, 1556.389
398.4880, 1703.391
399.6840, 1645.430
400.8800, 1714.512
402.0750, 1795.635
403.2710, 1713.797
404.4660, 1757.000
405.6610, 1383.244
406.8560, 1346.537
408.0510, 1014.879
409.2450, 1172.277
410.4400, 895.7461
411.6340, 731.3203
412.8280, 363.9590
414.0220, 246.6953
415.2160, 261.5137
416.4100, 225.4941
417.6030, 185.4277
418.7970, 143.6270
419.9900, 73.17969
421.1830, 199.9258
422.3760, 98.70312
423.5690, 207.4219
424.7610, 174.1367
425.9540, 68.84961
427.1460, 62.51953
428.3380, 86.84570
429.5300, 153.2832
430.7220, 393.7637
431.9140, 630.2852
433.1050, 583.8477
434.2970, 636.4512
435.4880, 789.1055
436.6790, 997.7988
437.8700, 1229.535
439.0610, 1416.328
440.2510, 1081.160
441.4420, 985.0723
442.6320, 923.0508
443.8220, 754.0781
445.0120, 912.1523
446.2020, 921.3086
447.3910, 880.5566
448.5810, 856.8730
449.7700, 834.2324
450.9600, 956.6348
452.1490, 941.0801
453.3370, 1314.568
454.5260, 1586.102
455.7150, 1699.676
456.9030, 1709.293
458.0910, 1589.957
459.2800, 1677.666
460.4670, 1612.615
461.6550, 1639.213
462.8430, 1575.049
464.0300, 1491.934
465.2180, 1492.857
466.4050, 1476.832
467.5920, 1155.850
468.7790, 1210.912
469.9650, 1546.020
471.1520, 1341.170
472.3380, 1518.367
473.5250, 1769.611
474.7110, 2414.902
475.8970, 2624.270
477.0820, 3063.633
478.2680, 3712.459
479.4540, 3960.486
480.6390, 4181.262
481.8240, 4697.092
483.0090, 5044.730
484.1940, 5580.809
485.3780, 5793.518
486.5630, 6489.408
487.7470, 7054.893
488.9320, 7366.795
490.1160, 7968.477
491.3000, 8707.492
492.4830, 9304.561
493.6670, 10371.07
494.8500, 11248.25
496.0340, 12078.94
497.2170, 12938.52
498.4000, 13826.45
499.5820, 14435.85
500.7650, 14812.32
501.9480, 15376.85
503.1300, 15433.44
504.3120, 15799.08
505.4940, 16137.79
506.6760, 16026.56
507.8580, 16268.39
509.0390, 16093.28
510.2210, 16423.23
511.4020, 15760.24
512.5830, 15501.31
513.7640, 15406.45
514.9450, 14308.64
516.1250, 13764.89
517.3060, 13073.21
518.4860, 12984.58
519.6660, 12440.02
520.8460, 11996.51
522.0260, 11777.07
523.2060, 11679.68
524.3850, 11694.35
525.5650, 11922.09
526.7440, 12282.88
527.9230, 12316.74
529.1020, 12352.65
530.2810, 12340.62
531.4590, 12481.65
532.6380, 12380.75
533.8160, 11921.90
534.9940, 11053.11
536.1720, 10311.38
537.3500, 9721.705
538.5270, 9018.092
539.7050, 8602.535
540.8820, 7814.041
542.0590, 7201.604
543.2360, 6911.227
544.4130, 6801.902
545.5900, 6976.844
546.7660, 7060.641
547.9430, 8011.820
549.1190, 8573.012
550.2950, 9531.492
551.4710, 10293.01
552.6470, 11897.60
553.8220, 12828.90
554.9980, 14037.63
556.1730, 15452.92
557.3480, 15663.68
558.5230, 15678.52
559.6980, 15427.89
560.8730, 14744.44
562.0470, 14445.48
563.2220, 13596.37
564.3960, 13087.08
565.5700, 12566.85
566.7440, 11920.03
567.9170, 11366.96
569.0910, 10633.55
570.2640, 9436.564
571.4380, 9038.457
572.6110, 8085.402
573.7840, 7348.391
574.9570, 6839.430
576.1290, 6418.473
577.3020, 5995.604
578.4740, 6064.787
579.6460, 5846.648
580.8180, 5814.920
581.9900, 5729.836
583.1620, 5943.771
584.3330, 6315.891
585.5040, 6672.738
586.6760, 7026.660
587.8470, 7451.385
589.0180, 8096.375
590.1880, 9247.000
591.3590, 10804.67
592.5290, 11997.38
593.7000, 14107.14
594.8700, 15996.93
596.0400, 17723.76
597.2090, 19779.63
598.3790, 21224.55
599.5490, 22112.52
600.7180, 21981.53
601.8870, 20990.59
603.0560, 19211.71
604.2250, 17206.88
605.3940, 15407.11
606.5620, 14049.61
607.7300, 12203.77
608.8990, 11612.19
610.0670, 10874.71
611.2350, 9942.271
612.4020, 10074.94
613.5700, 9889.707
614.7370, 9731.582
615.9050, 9094.508
617.0720, 8743.504
618.2390, 8249.656
619.4060, 7326.973
620.5720, 6905.438
621.7390, 6489.012
622.9050, 5728.801
624.0710, 5651.746
625.2370, 5370.830
626.4030, 5296.012
627.5690, 5129.361
628.7340, 4999.320
629.9000, 4830.316
631.0650, 4815.900
632.2300, 4841.518
633.3950, 4806.166
634.5600, 4840.859
635.7240, 4600.586
636.8890, 4138.381
638.0530, 3648.232
639.2170, 3362.113
640.3810, 3220.023
641.5450, 2894.963
642.7080, 2857.928
643.8720, 2393.920
645.0350, 2527.938
646.1980, 2614.977
647.3610, 2609.047
648.5240, 2389.137
649.6870, 2591.254
650.8490, 2398.393
652.0120, 2597.559
653.1740, 2586.746
654.3360, 2691.957
655.4980, 2549.188
656.6600, 2776.441
657.8210, 2651.715
658.9830, 2512.010
660.1440, 2411.324
661.3050, 2377.660
662.4660, 2137.010
663.6270, 2029.383
664.7870, 1612.771
665.9480, 1395.178
667.1080, 1380.602
668.2680, 895.0430
669.4280, 1010.500
670.5880, 883.9727
671.7480, 747.4609
672.9070, 635.9629
674.0670, 620.4805
675.2260, 587.0137
676.3850, 419.5566
677.5440, 253.1133
678.7030, 292.6855
679.8610, 359.2695
681.0200, 298.8633
682.1780, 53.46680
683.3360, 77.08008
684.4940, 3.292969
685.6520, 82.33789
686.8090, 7.019531
687.9670, 51.37695
689.1240, 54.75195
690.2810, 125.1445
691.4380, 260.5938
692.5950, 81.16211
693.7520, 223.7676
694.9080, 111.4746
696.0650, 269.2383
697.2210, 116.1289
698.3770, 105.9199
699.5330, 123.9844
700.6880, 136.9531
701.8440, 40.02344
702.9990, 22.95703
704.1550, 169.9336
705.3100, 108.9590
706.4650, 85.00977
707.6190, 37.09570
708.7740, 115.1953
709.9290, 220.6367
711.0830, 111.6270
712.2370, 41.46094
713.3910, 152.2969
714.5450, 0.8671880
715.6980, 94.95117
716.8520, 159.7695
718.0050, 28.41406
719.1580, 83.37109
720.3110, 110.8438
721.4640, 75.13281
722.6170, 10.52344
723.7700, 18.16406
724.9220, 120.6934
726.0740, 164.5684
727.2260, 67.12500
728.3780, 62.26758
729.5300, 50.65039
730.6810, 82.02539
731.8330, 125.3984
732.9840, 66.76562
734.1350, 115.1250
735.2860, 52.47656
736.4370, 138.9512
737.5880, 210.9883
738.7380, 243.0820
739.8880, 168.4922
741.0390, 323.9785
742.1890, 145.7656
743.3380, 558.6641
744.4880, 546.8867
745.6380, 483.5469
746.7870, 368.5371
747.9360, 668.5957
749.0850, 654.7988
750.2340, 603.0566
751.3830, 835.6289
752.5310, 881.7402
753.6800, 932.6836
754.8280, 971.7402
755.9760, 1086.381
757.1240, 1380.447
758.2720, 1105.031
759.4190, 1297.674
760.5670, 1539.115
761.7140, 1491.059
762.8610, 1760.174
764.0080, 1580.812
765.1550, 1728.592
766.3020, 1623.326
767.4480, 1655.873
768.5950, 1761.734
769.7410, 1578.566
770.8870, 1586.365
772.0330, 1716.133
773.1780, 1312.447
774.3240, 1601.291
775.4690, 1297.777
776.6140, 1326.092
777.7590, 1286.699
778.9040, 1221.396
780.0490, 1138.936
781.1940, 1065.443
782.3380, 1012.035
783.4820, 1026.506
784.6260, 1028.510
785.7700, 1076.131
786.9140, 1139.938
788.0580, 1237.770
789.2010, 1362.484
790.3450, 1546.762
791.4880, 1687.957
792.6310, 1804.117
793.7730, 1740.240
794.9160, 2093.328
796.0590, 2124.379
797.2010, 2328.396
798.3430, 2222.377
799.4850, 2394.320
800.6270, 2581.229
801.7690, 2867.100
802.9100, 2573.934
804.0520, 2230.730
805.1930, 2437.492
806.3340, 2383.215
807.4750, 2486.904
808.6160, 2379.625
809.7560, 2258.168
810.8970, 2133.744
812.0370, 1855.283
813.1770, 1804.783
814.3170, 2008.246
815.4570, 1595.674
816.5960, 1907.064
817.7360, 1779.416
818.8750, 1582.729
820.0140, 1555.006
821.1530, 1387.244
822.2920, 1533.242
823.4310, 1106.404
824.5690, 1021.201
825.7070, 1288.004
826.8460, 1055.539
827.9840, 984.0566
829.1220, 781.5137
830.2590, 1017.283
831.3970, 946.6445
832.5340, 854.4668
833.6710, 778.8359
834.8080, 752.1543
835.9450, 700.8691
837.0820, 856.5605
838.2190, 598.3281
839.3550, 635.9961
840.4910, 523.0488
841.6270, 346.5625
842.7630, 629.5430
843.8990, 391.8184
845.0350, 366.7363
846.1700, 370.0391
847.3060, 163.4863
848.4410, 302.8984
849.5760, 473.2793
850.7100, 323.6328
851.8450, 402.9941
852.9800, 215.2852
854.1140, 224.5449
855.2480, 268.1328
856.3820, 196.3320
857.5160, 435.9023
858.6500, 335.4688
859.7830, 397.8672
860.9170, 115.5547
862.0500, 102.1758
863.1830, 308.0078
864.3160, 144.5898
865.4480, 280.5508
866.5810, 355.4844
867.7130, 206.3867
868.8460, 286.2656
869.9780, 154.1172
871.1100, 145.9414
872.2410, 52.74219
873.3730, 31.06250
874.5050, 71.22266
875.6360, 19.90625
876.7670, 15.46094
877.8980, 11.10938
879.0290, 8.625000
880.1590, 76.91406
881.2900, 84.54688
882.4200, 68.71875
883.5500, 188.0547
884.6800, 2.7344000E-02
885.8100, 192.9570
886.9400, 151.0938
888.0690, 240.3594
889.1990, 0.1875000
890.3280, 50.67969
891.4570, 92.85547
892.5860, 196.4961
893.7140, 142.2930
894.8430, 16.78516
895.9710, 286.1758
897.1000, 120.3359
898.2280, 28.38672
899.3560, 54.92188
900.4830, 170.3086
901.6110, 43.83203
902.7380, 74.42188
903.8660, 140.9023
904.9930, 112.8477
906.1200, 137.4844
907.2460, 120.7422
908.3730, 40.98438
909.5000, 7.191406
910.6260, 20.36719
911.7520, 26.47266
912.8780, 151.6289
914.0040, 74.72656
915.1290, 189.8008
916.2550, 135.3438
917.3800, 214.2305
918.5050, 184.9102
919.6300, 333.9062
920.7550, 297.8906
921.8800, 280.8477
923.0040, 223.7969
924.1290, 17.71875
925.2530, 61.62500
926.3770, 80.14844
927.5010, 427.3789
928.6250, 297.2305
929.7480, 494.0898
930.8720, 691.9531
931.9950, 488.8047
933.1180, 542.6406
934.2410, 647.4609
935.3640, 864.3203
936.4860, 634.1641
937.6090, 858.0078
938.7310, 1047.832
939.8530, 1076.652
940.9750, 1382.449
942.0970, 1164.238
943.2180, 1514.016
944.3400, 1485.777
945.4610, 1486.574
946.5820, 1944.359
947.7030, 1769.164
948.8240, 1673.961
949.9450, 1960.742
951.0650, 2061.516
952.1860, 2195.277
953.3060, 2121.031
954.4260, 2263.770
955.5460, 2231.500
956.6650, 2321.223
957.7850, 2300.961
958.9040, 2298.684
960.0230, 2516.406
961.1420, 2576.090
962.2610, 2953.867
963.3800, 2976.660
964.4990, 3043.559
965.6170, 3430.492
966.7350, 3778.508
967.8530, 4318.594
968.9710, 4361.746
970.0890, 4701.922
971.2070, 5258.094
972.3240, 6142.297
973.4410, 6587.527
974.5580, 7505.754
975.6750, 8083.980
976.7920, 9032.273
977.9090, 9984.590
979.0250, 10813.93
980.1410, 12804.28
981.2580, 14195.66
982.3740, 16399.89
983.4890, 18696.27
984.6050, 20582.71
985.7200, 22329.14
986.8360, 23783.58
987.9510, 24070.01
989.0660, 23408.45
990.1810, 22273.95
991.2950, 20395.44
992.4100, 18484.96
993.5240, 16088.52
994.6390, 14137.08
995.7530, 12932.14
996.8660, 11836.18
997.9800, 11169.89
999.0940, 10301.63
1000.207, 9924.367
1001.320, 9781.133
1002.433, 9831.898
1003.546, 9678.672
1004.659, 9941.438
1005.772, 10024.21
1006.884, 10577.86
1007.996, 11159.93
1009.108, 12323.95
1010.220, 13378.64
1011.332, 14797.25
1012.444, 16104.56
1013.555, 17971.75
1014.666, 19143.61
1015.777, 20755.02
1016.888, 21454.11
1017.999, 22299.11
1019.110, 22271.97
1020.220, 21787.76
1021.331, 21123.23
1022.441, 19429.16
1023.551, 18354.25
1024.661, 17009.22
1025.770, 15814.60
1026.880, 14631.55
1027.989, 13712.26
1029.098, 12727.33
1030.207, 12216.88
1031.316, 11666.91
1032.425, 11279.77
1033.533, 11139.09
1034.642, 11092.27
1035.750, 10828.48
1036.858, 10926.86
1037.966, 11131.92
1039.073, 10723.00
1040.181, 10983.09
1041.288, 10859.21
1042.396, 11060.78
1043.503, 10933.79
1044.610, 10521.16
1045.716, 10478.69
1046.823, 10582.91
1047.929, 9957.031
1049.036, 10303.30
1050.142, 10179.59
1051.248, 9855.891
1052.353, 10042.22
1053.459, 10010.57
1054.564, 10040.95
1055.670, 9923.348
1056.775, 10470.77
1057.880, 10069.76
1058.985, 10416.18
1060.089, 10416.66
1061.194, 10490.17
1062.298, 10337.66
1063.402, 9826.703
1064.506, 9609.281
1065.610, 9411.352
1066.713, 8620.977
1067.817, 8583.738
1068.920, 7734.402
1070.023, 7442.117
1071.126, 7442.832
1072.229, 6842.566
1073.332, 6712.324
1074.435, 6606.105
1075.537, 6352.910
1076.639, 6317.945
1077.741, 6126.008
1078.843, 5598.879
1079.945, 5383.750
1081.046, 5238.668
1082.148, 4714.609
1083.249, 4535.566
1084.350, 3965.551
1085.451, 3490.559
1086.551, 3202.586
1087.652, 3012.637
1088.752, 2503.711
1089.853, 2227.711
1090.953, 2204.832
1092.053, 1739.969
1093.152, 1615.133
1094.252, 1488.145
1095.351, 1206.824
1096.451, 1042.355
1097.550, 1013.234
1098.649, 931.3359
1099.748, 774.2812
1100.846, 689.5859
1101.945, 681.9141
1103.043, 642.2617
1104.141, 634.6289
1105.239, 223.0078
1106.337, 766.4102
1107.434, 761.8320
1108.532, 694.2969
1109.629, 1109.754
1110.726, 1294.227
1111.823, 1399.719
1112.920, 1811.230
1114.017, 1983.758
1115.113, 2029.332
1116.210, 2567.676
1117.306, 2751.277
1118.402, 2672.902
1119.498, 2658.539
1120.593, 2477.234
1121.689, 2352.465
1122.784, 2596.152
1123.879, 2514.859
1124.974, 2476.578
1126.069, 2378.543
1127.164, 2194.297
1128.259, 2191.746
1129.353, 2330.633
1130.447, 1835.441
1131.541, 1784.270
1132.635, 1790.312
1133.729, 1505.172
1134.822, 1722.039
1135.916, 1867.926
1137.009, 1616.824
1138.102, 1553.738
1139.195, 1390.680
1140.288, 1595.645
1141.380, 1695.645
1142.473, 1673.668
1143.565, 1617.723
1144.657, 1731.812
1145.749, 1504.926
1146.841, 1525.090
1147.932, 1711.305
1149.024, 1434.531
1150.115, 1577.844
1151.206, 1192.176
1152.297, 1055.594
1153.388, 1236.078
1154.479, 951.6523
1155.569, 945.2578
1156.659, 788.9023
1157.750, 886.6133
1158.839, 719.4023
1159.929, 760.2539
1161.019, 669.1367
1162.108, 564.1055
1163.198, 860.1523
1164.287, 966.2109
1165.376, 667.3086
1166.465, 817.4844
1167.553, 485.6914
1168.642, 354.9453
1169.730, 924.2070
1170.818, 587.4844
1171.906, 578.7695
1172.994, 660.0625
1174.082, 331.3711
1175.170, 479.6992
1176.257, 457.0391
1177.344, 281.3984
1178.431, 220.7617
1179.518, 424.1445
1180.605, 250.5273
1181.691, 226.9258
1182.778, 330.3281
1183.864, 141.7422
1184.950, 138.1641
1186.036, 163.5977
1187.122, 70.53906
1188.207, 89.48828
1189.292, 32.95312
1190.378, 47.42188
1191.463, 88.90234
1192.548, 113.6133
1193.632, 98.16016
1194.717, 107.2500
1195.801, 19.32812
1196.886, 92.08984
1197.970, 218.4844
1199.054, 195.8438
1200.137, 53.82031
1201.221, 16.50000
1202.305, 20.82812
1203.388, 90.16016
1204.471, 234.5000
1205.554, 223.9766
1206.637, 5.671875
1207.719, 178.3203
1208.802, 240.9492
1209.884, 124.7734
1210.966, 90.44141
1212.048, 126.6602
1213.130, 254.8828
1214.212, 189.1133
1215.293, 246.9805
1216.374, 28.58984
1217.456, 192.8320
1218.536, 117.0820
1219.617, 66.66406
1220.698, 196.5508
1221.778, 63.76953
1222.859, 86.99219
1223.939, 11.78125
1225.019, 102.5625
1226.099, 194.3984
1227.178, 55.33594
1228.258, 121.3125
1229.337, 181.3555
1230.417, 52.50781
1231.496, 46.47266
1232.574, 163.3320
1233.653, 23.19531
1234.732, 177.0625
1235.810, 18.92969
1236.888, 56.79688
1237.966, 53.33594
1239.044, 131.4961
1240.122, 47.32812
1241.199, 113.1641
1242.277, 114.1055
1243.354, 33.05859
1244.431, 135.8086
1245.508, 152.3828
1246.585, 66.32812
1247.661, 34.05859
1248.738, 279.7891
1249.814, 26.48828
1250.890, 97.78906
1251.966, 391.8398
1253.042, 88.46484
1254.117, 161.0859
1255.193, 5.710938
1256.268, 233.3203
1257.343, 7.0312999E-02
1258.418, 149.4844
1259.493, 117.3555
1260.567, 273.8398
1261.642, 52.67578
1262.716, 106.7578
1263.790, 239.1992
1264.864, 271.6367
1265.938, 210.0703
1267.011, 330.4414
1268.085, 207.4570
