##NAMES=Brazilianite
##RRUFFID=R050126
##IDEAL CHEMISTRY=NaAl_3_(PO_4_)_2_(OH)_4_
##LOCALITY=Linopolis, Minas Gerais, Brazil
##OWNER=RRUFF
##SOURCE=Carlos and Paulo Vasconcelos
##DESCRIPTION=Pair of greenish yellow elongated crystals
##STATUS=The identification of this mineral has been confirmed by X-ray diffraction and chemical analysis
##URL=rruff.info/R050126
##MEASURED CHEMISTRY=Na_1.00_Al_3.00_(P_1.00_O_4_)_2_((OH)_3.80_F_0.20_)_Î£=4_
##PIN_ID=L00391
##ORIENTATION=Laser parallel to c* (0 0 1). Fiducial mark perpendicular to laser is parallel to a [1 0 0]
134.381, 0.000
135.776, 6.308
137.170, 39.445
138.564, 35.196
139.958, 174.648
141.351, 384.286
142.745, 785.965
144.138, 1240.175
145.530, 1975.979
146.923, 2711.825
148.315, 3101.584
149.707, 3505.674
151.099, 3113.535
152.490, 2619.542
153.881, 1915.102
155.272, 1377.689
156.663, 1004.854
158.054, 940.216
159.444, 1146.462
160.834, 1530.614
162.224, 2611.359
163.613, 3981.725
165.002, 5877.294
166.391, 7849.619
167.780, 8873.348
169.169, 9028.198
170.557, 7393.952
171.945, 5940.427
173.333, 4431.478
174.720, 3420.987
176.108, 2802.859
177.495, 1996.017
178.881, 1539.399
180.268, 1049.969
181.654, 790.695
183.040, 609.555
184.426, 531.531
185.812, 529.098
187.197, 431.414
188.582, 617.051
189.967, 628.316
191.351, 794.353
192.736, 920.000
194.120, 1125.789
195.504, 1260.601
196.887, 1464.509
198.271, 1694.578
199.654, 1608.872
201.036, 1675.443
202.419, 1389.344
203.801, 1033.617
205.184, 718.302
206.565, 372.433
207.947, 402.042
209.328, 294.161
210.710, 498.816
212.090, 650.036
213.471, 843.843
214.851, 1148.264
216.232, 1359.317
217.611, 1808.030
218.991, 2235.434
220.370, 2864.567
221.750, 3150.495
223.129, 3164.252
224.507, 3042.866
225.886, 2342.358
227.264, 2103.744
228.642, 1736.037
230.019, 1933.249
231.397, 1924.390
232.774, 2019.466
234.151, 2398.484
235.528, 2295.845
236.904, 2567.153
238.281, 2399.767
239.656, 2627.134
241.032, 2982.416
242.408, 3231.810
243.783, 3732.035
245.158, 3699.002
246.533, 3728.389
247.907, 3194.208
249.282, 2426.180
250.656, 1783.351
252.029, 1237.003
253.403, 1084.486
254.776, 864.057
256.149, 882.712
257.522, 711.448
258.895, 607.264
260.267, 497.158
261.639, 407.130
263.011, 496.178
264.382, 440.302
265.754, 534.499
267.125, 669.768
268.496, 675.103
269.866, 723.487
271.237, 595.897
272.607, 760.321
273.977, 703.207
275.346, 586.184
276.716, 861.622
278.085, 1196.065
279.454, 1637.518
280.823, 1946.979
282.191, 1861.452
283.559, 1680.937
284.927, 1297.437
286.295, 1057.953
287.662, 776.486
289.030, 869.037
290.397, 549.608
291.763, 591.201
293.130, 731.815
294.496, 705.455
295.862, 942.119
297.228, 911.809
298.594, 1179.526
299.959, 1157.397
301.324, 1251.086
302.689, 1401.519
304.053, 1266.530
305.418, 1421.092
306.782, 1340.085
308.146, 1508.447
309.509, 1456.127
310.873, 1371.087
312.236, 1591.291
313.599, 1527.711
314.961, 1878.324
316.324, 2024.105
317.686, 2360.035
319.048, 2630.099
320.409, 2571.280
321.771, 2670.566
323.132, 2491.949
324.493, 2404.418
325.854, 2145.964
327.214, 1774.575
328.574, 1485.241
329.934, 977.949
331.294, 751.692
332.654, 298.463
334.013, 101.258
335.372, 68.932
336.731, 311.146
338.089, 312.450
339.448, 566.847
340.806, 479.406
342.164, 508.106
343.521, 614.957
344.879, 488.984
346.236, 591.159
347.593, 403.508
348.949, 371.982
350.306, 318.581
351.662, 264.315
353.018, 243.194
354.373, 117.224
355.729, 177.376
357.084, 66.664
358.439, 5.056
359.794, 70.532
361.148, 120.896
362.503, 35.728
363.857, 74.569
365.210, 13.186
366.564, 78.993
367.917, 205.127
369.270, 459.228
370.623, 819.296
371.976, 927.341
373.328, 1223.359
374.680, 1207.361
376.032, 1093.358
377.384, 1155.355
378.735, 1012.367
380.086, 1009.381
381.437, 933.421
382.788, 1025.493
384.138, 993.591
385.488, 889.730
386.838, 949.875
388.188, 821.043
389.538, 949.223
390.887, 925.414
392.236, 985.619
393.585, 1194.828
394.933, 1269.049
396.282, 1541.270
397.630, 1707.487
398.977, 1889.638
400.325, 2287.456
401.672, 2381.772
403.020, 2704.568
404.366, 2712.875
405.713, 2895.826
407.059, 3018.508
408.406, 2770.013
409.752, 2831.394
411.097, 2423.714
412.443, 2294.032
413.788, 1908.340
415.133, 1584.680
416.478, 1455.060
417.822, 1072.481
419.167, 927.944
420.511, 591.449
421.854, 491.995
423.198, 413.583
424.541, 200.212
425.884, 302.883
427.227, 185.596
428.570, 311.350
429.912, 253.146
431.254, 356.985
432.596, 553.865
433.938, 581.788
435.280, 948.754
436.621, 1020.762
437.962, 1372.813
439.303, 1738.907
440.643, 1866.045
441.983, 2274.228
443.323, 2255.453
444.663, 2373.723
446.003, 2104.037
447.342, 1765.395
448.681, 1759.798
450.020, 1495.245
451.359, 1661.738
452.697, 1823.276
454.035, 1965.858
455.373, 2489.486
456.711, 2600.159
458.048, 3227.877
459.386, 3233.642
460.723, 3597.451
462.059, 3929.304
463.396, 3837.202
464.732, 4140.141
466.068, 3920.123
467.404, 3828.142
468.740, 3574.194
470.075, 3117.279
471.410, 3090.396
472.745, 2646.544
474.080, 2738.720
475.414, 2891.926
476.748, 3218.158
478.082, 3899.419
479.416, 4192.708
480.749, 5256.019
482.083, 5788.357
483.416, 6505.722
484.749, 7443.112
486.081, 8080.529
487.413, 9107.966
488.745, 9335.432
490.077, 10542.919
491.409, 11410.434
492.740, 11837.972
494.072, 13485.535
495.402, 14072.899
496.733, 15942.496
498.064, 17316.959
499.394, 18571.305
500.724, 20959.654
502.054, 21543.480
503.383, 23925.486
504.712, 24000.775
506.041, 24923.969
507.370, 25770.752
508.699, 25199.330
510.027, 26669.898
511.355, 26123.840
512.683, 26891.223
514.011, 27519.955
515.338, 26066.633
516.666, 26739.578
517.993, 24929.420
519.319, 24502.920
520.646, 23122.627
521.972, 21350.797
523.298, 21022.654
524.624, 19410.055
525.950, 19813.355
527.275, 19310.982
528.600, 18889.549
529.925, 20388.170
531.250, 19547.576
532.574, 20886.295
533.898, 20456.373
535.222, 20738.795
536.546, 20631.664
537.869, 19097.646
539.193, 18900.268
540.516, 17118.113
541.839, 15876.890
543.161, 15244.070
544.484, 13374.864
545.806, 13296.858
547.128, 12022.922
548.449, 11905.958
549.771, 12159.099
551.092, 11712.831
552.413, 13563.854
553.734, 14057.015
555.054, 16157.153
556.374, 18146.904
557.694, 20397.621
559.014, 23887.588
560.334, 24607.658
561.653, 25967.850
562.972, 25818.145
564.291, 23908.553
565.610, 23749.074
566.928, 21699.715
568.247, 21620.494
569.565, 20261.379
570.882, 19163.480
572.200, 18464.600
573.517, 16355.832
574.834, 15237.203
576.151, 13538.669
577.468, 12170.255
578.784, 11611.964
580.100, 10243.782
581.416, 10185.712
582.732, 9467.730
584.047, 9249.845
585.362, 9522.056
586.677, 9114.342
587.992, 9866.729
589.307, 9799.187
590.621, 10551.735
591.935, 11464.375
593.249, 11837.084
594.563, 14089.876
595.876, 15282.728
597.189, 18565.643
598.502, 22368.621
599.815, 25941.664
601.127, 31424.760
602.440, 34037.918
603.752, 36881.133
605.064, 36724.402
606.375, 32287.729
607.686, 29721.113
608.998, 24794.551
610.308, 21828.051
611.619, 19281.602
612.930, 17165.209
614.240, 16818.877
615.550, 15422.593
616.860, 15846.366
618.169, 15200.194
619.478, 14324.080
620.787, 14058.016
622.096, 12142.004
623.405, 11636.051
624.713, 9980.147
626.021, 9094.297
627.329, 8688.500
628.637, 7452.757
629.945, 7697.064
631.252, 7381.424
632.559, 7195.835
633.866, 7790.299
635.172, 7504.814
636.479, 7949.380
637.785, 7413.998
639.091, 7388.667
640.396, 7153.385
641.702, 6028.153
643.007, 5822.974
644.312, 5007.843
645.617, 4453.762
646.921, 4265.731
648.226, 3592.749
649.530, 3664.816
650.834, 3383.932
652.137, 3359.097
653.441, 3599.312
654.744, 3323.617
656.047, 3687.071
657.350, 3589.678
658.652, 3850.503
659.954, 4071.523
661.256, 3775.747
662.558, 4149.200
663.860, 3902.853
665.161, 3535.729
666.462, 3482.780
667.763, 2797.998
669.064, 2658.368
670.365, 2142.875
671.665, 1927.515
672.965, 1690.252
674.265, 1148.104
675.564, 1296.041
676.864, 959.047
678.163, 883.137
679.462, 738.272
680.760, 468.482
682.059, 534.742
683.357, 317.071
684.655, 179.447
685.953, 191.865
687.250, 37.678
688.548, 34.810
689.845, 59.663
691.142, 128.112
692.438, 137.559
693.735, 209.007
695.031, 126.484
696.327, 244.960
697.623, 261.480
698.918, 226.054
700.214, 297.289
701.509, 98.970
702.804, 195.371
704.098, 122.327
705.393, 123.027
706.687, 134.984
707.981, 58.497
709.275, 115.562
710.568, 17.653
711.861, 44.374
713.155, 29.799
714.447, 30.885
715.740, 50.908
717.032, 34.330
718.325, 105.515
719.617, 31.357
720.908, 102.280
722.200, 31.003
723.491, 26.464
724.782, 169.064
726.073, 11.020
727.364, 230.874
728.654, 83.589
729.944, 58.126
731.234, 243.377
732.524, 55.040
733.814, 247.147
735.103, 234.633
736.392, 227.824
737.681, 480.016
738.969, 364.868
740.258, 428.995
741.546, 509.777
742.834, 471.660
744.122, 653.461
745.409, 582.850
746.697, 808.903
747.984, 819.563
749.270, 759.201
750.557, 1014.008
751.844, 926.637
753.130, 1196.203
754.416, 1150.202
755.701, 1275.922
756.987, 1613.641
758.272, 1460.358
759.557, 1792.073
760.842, 1850.785
762.127, 1819.494
763.411, 2215.199
764.695, 2141.902
765.979, 2310.600
767.263, 2413.292
768.547, 2368.981
769.830, 2526.664
771.113, 2383.341
772.396, 2368.012
773.679, 2328.677
774.961, 2056.335
776.243, 2162.986
777.525, 1886.629
778.807, 1803.265
780.089, 1713.893
781.370, 1547.512
782.651, 1594.122
783.932, 1485.723
785.213, 1423.314
786.493, 1542.896
787.773, 1465.468
789.053, 1669.029
790.333, 1562.579
791.613, 1843.119
792.892, 1989.646
794.171, 1969.163
795.450, 2310.667
796.729, 2409.160
798.007, 2545.639
799.285, 2928.106
800.563, 2921.561
801.841, 3207.001
803.119, 3172.428
804.396, 3297.842
805.673, 3428.241
806.950, 3333.625
808.227, 3428.995
809.504, 3337.351
810.780, 3187.690
812.056, 3205.013
813.332, 2844.318
814.607, 2911.605
815.883, 2638.873
817.158, 2509.120
818.433, 2484.345
819.708, 2249.549
820.982, 2198.730
822.256, 2119.887
823.531, 1698.020
824.804, 1887.127
826.078, 1632.209
827.352, 1570.265
828.625, 1551.294
829.898, 1298.297
831.170, 1420.271
832.443, 1154.219
833.715, 1093.138
834.988, 1103.029
836.259, 883.891
837.531, 987.725
838.803, 807.529
840.074, 684.304
841.345, 784.315
842.616, 503.031
843.886, 642.413
845.157, 535.468
846.427, 328.102
847.697, 512.641
848.966, 313.563
850.236, 271.281
851.505, 279.098
852.774, 134.526
854.043, 183.361
855.312, 131.015
856.580, 99.622
857.849, 87.273
859.117, 36.151
860.384, 45.810
861.652, 16.494
862.919, 49.944
864.186, 19.388
865.453, 190.448
866.720, 76.524
867.986, 128.870
869.253, 150.357
870.519, 113.996
871.784, 139.768
873.050, 92.688
874.315, 152.730
875.581, 195.927
876.846, 86.302
878.110, 154.795
879.375, 75.535
880.639, 136.298
881.903, 181.207
883.167, 33.284
884.431, 151.452
885.694, 142.774
886.957, 101.244
888.220, 96.841
889.483, 17.561
890.746, 60.363
892.008, 49.269
893.270, 20.728
894.532, 62.337
895.794, 44.495
897.056, 39.723
898.317, 35.032
899.578, 46.570
900.839, 13.876
902.099, 145.602
903.360, 86.050
904.620, 88.460
905.880, 125.834
907.140, 162.176
908.399, 211.490
909.659, 212.778
910.918, 246.039
912.177, 357.274
913.435, 315.481
914.694, 372.663
915.952, 571.818
917.210, 405.947
918.468, 660.050
919.726, 565.128
920.983, 587.179
922.240, 747.205
923.497, 697.204
924.754, 895.179
926.011, 894.128
927.267, 846.052
928.523, 1040.951
929.779, 1023.825
931.035, 1147.678
932.290, 1331.506
933.546, 1265.309
934.801, 1564.088
936.056, 1513.843
937.310, 1703.573
938.565, 1853.299
939.819, 1939.000
941.073, 2326.682
942.327, 2355.355
943.580, 2538.008
944.833, 2889.656
946.087, 2857.283
947.340, 3334.891
948.592, 3436.495
949.845, 3525.075
951.097, 3856.649
952.349, 3816.206
953.601, 4021.743
954.853, 4073.271
956.104, 4027.798
957.355, 4333.313
958.606, 4318.811
959.857, 4431.291
961.108, 4752.763
962.358, 4769.232
963.608, 5104.684
964.858, 5531.120
966.108, 5755.553
967.357, 6338.977
968.607, 6494.406
969.856, 7295.820
971.105, 8158.235
972.353, 8550.654
973.602, 10103.061
974.850, 10665.473
976.098, 12127.889
977.346, 13530.291
978.594, 14362.696
979.841, 16575.090
981.088, 18347.477
982.335, 20419.865
983.582, 23962.250
984.828, 26104.631
986.075, 30227.008
987.321, 34779.383
988.567, 36051.754
989.812, 37866.980
991.058, 38656.449
992.303, 36678.816
993.548, 34431.160
994.793, 29363.508
996.038, 26955.869
997.282, 23658.232
998.526, 21290.631
999.770, 20383.043
1001.014, 18205.490
1002.258, 17777.967
1003.501, 17500.098
1004.744, 16732.645
1005.987, 17554.930
1007.230, 17176.762
1008.473, 17928.346
1009.715, 19328.195
1010.957, 19938.598
1012.199, 22985.584
1013.441, 24800.596
1014.682, 27377.512
1015.923, 31813.654
1017.164, 33126.941
1018.405, 36826.941
1019.646, 37675.543
1020.886, 36436.402
1022.127, 37255.633
1023.367, 33827.793
1024.606, 31706.176
1025.846, 30011.840
1027.085, 26464.381
1028.325, 25092.625
1029.564, 23035.902
1030.802, 21275.371
1032.041, 20822.043
1033.279, 19328.010
1034.517, 19106.586
1035.755, 18885.736
1036.993, 17977.523
1038.230, 18889.617
1039.468, 18196.730
1040.705, 18311.195
1041.942, 18966.402
1043.178, 18075.969
1044.415, 18600.451
1045.651, 17961.029
1046.887, 17477.027
1048.123, 17673.381
1049.358, 16854.143
1050.594, 16661.936
1051.829, 16714.574
1053.064, 15796.405
1054.299, 16488.312
1055.533, 16030.797
1056.768, 15983.569
1058.002, 16506.361
1059.236, 15999.161
1060.469, 16351.977
1061.703, 16434.809
1062.936, 15927.650
1064.169, 16180.511
1065.402, 15323.381
1066.635, 14836.268
1067.867, 14799.167
1069.100, 13242.083
1070.332, 13335.012
1071.564, 12597.954
1072.795, 11920.911
1074.027, 12043.884
1075.258, 10946.870
1076.489, 10879.874
1077.720, 10612.890
1078.950, 9696.468
1080.181, 9819.516
1081.411, 8962.576
1082.641, 8375.651
1083.871, 8218.743
1085.100, 7121.850
1086.330, 6868.913
1087.559, 6123.053
1088.788, 5396.980
1090.016, 5167.011
1091.245, 4325.854
1092.473, 3940.968
1093.701, 3567.503
1094.929, 3103.241
1096.157, 2859.455
1097.384, 2593.718
1098.612, 2245.029
1099.839, 2352.387
1101.066, 2005.122
1102.292, 1914.792
1103.519, 1967.750
1104.745, 1700.114
1105.971, 1963.165
1107.197, 1761.016
1108.423, 1956.255
1109.648, 2074.454
1110.873, 2133.407
1112.098, 2573.976
1113.323, 2963.589
1114.548, 3286.677
1115.772, 3942.931
1116.996, 4144.034
1118.220, 4356.429
1119.444, 4691.052
1120.667, 4368.704
1121.891, 4374.983
1123.114, 4424.298
1124.337, 4212.650
1125.560, 4405.875
1126.782, 4077.019
1128.004, 3936.606
1129.227, 4110.235
1130.448, 3651.318
1131.670, 3668.445
1132.892, 3588.294
1134.113, 3233.153
1135.334, 3465.885
1136.555, 3151.422
1137.776, 3103.206
1138.996, 3249.196
1140.216, 2849.998
1141.436, 3007.416
1142.656, 2927.994
1143.876, 2697.983
1145.095, 2921.240
1146.315, 2617.864
1147.534, 2682.929
1148.753, 2706.455
1149.971, 2263.472
1151.190, 2401.813
1152.408, 2093.058
1153.626, 1841.061
1154.844, 1863.644
1156.061, 1634.158
1157.279, 1555.184
1158.496, 1552.927
1159.713, 1361.033
1160.930, 1447.702
1162.146, 1310.624
1163.363, 1215.735
1164.579, 1332.493
1165.795, 1143.475
1167.010, 1231.835
1168.226, 1204.704
1169.441, 1039.195
1170.657, 1154.579
1171.871, 1016.333
1173.086, 877.970
1174.301, 951.782
1175.515, 759.512
1176.729, 745.208
1177.943, 654.128
1179.157, 553.122
1180.370, 605.990
1181.584, 482.307
1182.797, 437.526
1184.010, 523.648
1185.222, 404.955
1186.435, 405.159
1187.647, 394.538
1188.859, 282.980
1190.071, 350.346
1191.283, 321.095
1192.494, 224.411
1193.706, 334.725
1194.917, 201.272
1196.128, 243.629
1197.338, 289.212
1198.549, 168.760
1199.759, 246.150
1200.969, 210.106
1202.179, 152.731
1203.389, 239.129
1204.598, 136.758
1205.807, 173.387
1207.016, 176.867
1208.225, 11.777
1209.434, 187.179
1210.642, 109.800
1211.850, 48.435
1213.058, 162.831
1214.266, 73.462
1215.474, 109.884
1216.681, 123.274
1217.889, 69.054
1219.096, 67.439
1220.302, 10.035
1221.509, 10.639
1222.715, 64.013
1223.922, 26.556
1225.128, 17.806
1226.334, 51.165
1227.539, 34.836
1228.745, 51.196
1229.950, 30.746
1231.155, 85.462
1232.360, 73.977
1233.564, 27.017
1234.769, 64.428
1235.973, 22.154
1237.177, 78.727
1238.381, 9.543
1239.584, 15.366
1240.787, 75.920
1241.991, 26.204
1243.194, 58.684
1244.396, 25.408
1245.599, 9.351
1246.801, 44.238
1248.004, 79.321
1249.206, 36.618
1250.407, 12.739
1251.609, 6.901
1252.810, 46.588
1254.012, 60.606
1255.212, 5.884
1256.413, 16.169
1257.614, 47.534
1258.814, 37.943
1260.014, 87.201
1261.214, 3.636
1262.414, 71.178
1263.614, 73.705
1264.813, 9.271
1266.012, 81.944
1267.211, 65.431
1268.410, 17.186
1269.609, 45.972
1270.807, 11.791
1272.005, 49.649
1273.203, 33.371
1274.401, 23.650
1275.598, 55.232
1276.796, 2.004
1277.993, 33.009
1279.190, 30.042
1280.387, 6.017
1281.583, 2.940
1282.780, 79.047
1283.976, 65.900
1285.172, 20.258
1286.368, 10.653
1287.563, 38.445
1288.759, 46.780
1289.954, 3.945
1291.149, 36.768
1292.343, 16.541
1293.538, 47.243
1294.732, 24.885
1295.927, 9.428
1297.121, 57.347
1298.314, 2.912
1299.508, 25.454
1300.701, 66.966
1301.895, 28.546
1303.087, 63.002
1304.280, 28.431
1305.473, 23.833
1306.665, 102.275
1307.857, 33.615
1309.049, 29.933
1310.241, 89.214
1311.433, 39.469
1312.624, 89.696
1313.815, 141.895
1315.006, 66.070
1316.197, 106.216
1317.388, 77.338
1318.578, 114.433
1319.768, 143.591
1320.958, 97.636
1322.148, 98.656
1323.338, 156.683
1324.527, 65.652
1325.716, 87.596
1326.906, 124.516
1328.094, 93.410
1329.283, 126.302
1330.471, 95.145
1331.660, 89.959
1332.848, 113.745
1334.035, 65.504
1335.223, 140.444
1336.411, 159.147
1337.598, 102.821
1338.785, 152.467
1339.972, 105.082
1341.158, 114.670
1342.345, 171.252
1343.531, 67.819
1344.717, 102.319
1345.903, 184.891
1347.089, 103.338
1348.274, 103.758
1349.459, 140.220
1350.644, 75.586
1351.829, 159.952
1353.014, 110.857
1354.198, 108.143
1355.383, 196.402
1356.567, 109.636
1357.751, 159.844
1358.934, 204.112
1360.118, 93.264
1361.301, 191.391
1362.484, 118.492
1363.667, 116.565
1364.850, 189.614
1366.032, 157.995
1367.215, 176.375
1368.397, 172.309
1369.579, 107.182
1370.760, 171.009
1371.942, 124.860
1373.123, 94.614
1374.304, 137.357
1375.485, 76.028
1376.666, 106.835
1377.847, 161.506
1379.027, 121.471
1380.207, 165.825
1381.387, 221.082
1382.567, 105.090
1383.747, 183.857
1384.926, 196.884
1386.105, 110.795
1387.284, 185.316
1388.463, 135.955
1389.641, 178.760
1390.820, 195.033
1391.998, 124.494
1393.176, 155.813
1394.354, 160.377
1395.532, 81.109
1396.709, 174.180
1397.886, 114.039
1399.063, 135.758
1400.240, 171.244
1401.417, 65.148
1402.593, 83.795
1403.769, 174.736
1404.945, 89.610
1406.121, 77.940
1407.297, 152.174
1408.472, 44.115
1409.648, 166.636
1410.823, 107.284
1411.998, 81.745
1413.172, 130.112
1414.347, 44.302
1415.521, 79.777
1416.695, 102.186
1417.869, 37.323
1419.043, 108.053
1420.216, 120.846
1421.390, 55.782
1422.563, 87.651
1423.736, 56.812
1424.909, 62.366
1426.081, 141.842
1427.254, 60.106
1428.426, 92.068
1429.598, 114.431
1430.770, 58.719
1431.941, 136.988
1433.113, 131.179
1434.284, 50.170
1435.455, 163.939
1436.626, 61.272
1437.796, 34.590
1438.967, 126.188
1440.137, 74.054
1441.307, 77.194
1442.477, 152.142
1443.646, 48.674
1444.816, 128.229
1445.985, 158.076
1447.154, 50.178
1448.323, 135.830
1449.492, 62.390
1450.660, 74.204
1451.829, 130.772
1452.997, 68.884
1454.165, 59.547
1455.332, 154.443
1456.500, 63.334
1457.667, 70.645
1458.834, 94.608
1460.001, 31.129
1461.168, 108.394
1462.335, 120.050
1463.501, 42.634
1464.667, 77.039
1465.833, 116.026
1466.999, 87.049
1468.165, 121.599
1469.330, 42.039
1470.495, 103.997
1471.660, 142.551
1472.825, 68.801
1473.990, 132.294
1475.154, 6.038
1476.318, 71.432
1477.482, 111.710
1478.646, 90.130
1479.810, 67.124
1480.974, 131.729
1482.137, 37.016
1483.300, 33.655
1484.463, 125.098
1485.626, 17.871
1486.788, 92.739
1487.950, 80.673
1489.113, 24.667
1490.275, 124.298
1491.436, 34.361
1492.598, 20.714
1493.759, 177.367
1494.920, 77.327
1496.081, 53.436
1497.242, 120.598
1498.403, 20.445
1499.563, 99.647
1500.724, 80.942
1501.884, 61.867
1503.043, 98.485
1504.203, 101.910
1505.363, 3.731
1506.522, 93.367
1507.681, 23.286
1508.840, 29.912
1509.999, 102.015
1511.157, 15.665
1512.315, 69.546
1513.474, 81.906
1514.632, 13.047
