##NAMES=Brazilianite
##RRUFFID=R050504
##IDEAL CHEMISTRY=NaAl_3_(PO_4_)_2_(OH)_4_
##LOCALITY=CÃ³rrego Frio, Minas Gerais, Brazil
##OWNER=RRUFF
##SOURCE=Marcus Origlieri
##DESCRIPTION=Yellowish green fragment
##STATUS=The identification of this mineral has been confirmed by X-ray diffraction and chemical analysis
##URL=rruff.info/R050504
##MEASURED CHEMISTRY=Na_1.00_Al_3.00_(P_1.00_O_4_)_2_(OH)_4_
##PIN_ID=L00567
##ORIENTATION=Laser parallel to (1 0 1). Fiducial mark perpendicular to laser is parallel to b [0 1 0]
78.65900, 0.0000000E+00
79.89500, 177.5728
81.13100, 771.0518
82.36700, 1436.308
83.60200, 1948.771
84.83700, 2540.277
86.07200, 3172.505
87.30800, 3752.127
88.54200, 4067.023
89.77700, 3686.693
91.01200, 4245.178
92.24600, 2924.916
93.48000, 2969.268
94.71400, 3365.808
95.94800, 4352.260
97.18200, 4904.146
98.41600, 5411.756
99.64900, 6370.223
100.8830, 7956.092
102.1160, 9724.137
103.3490, 10369.45
104.5820, 10383.45
105.8150, 9729.972
107.0470, 8547.063
108.2800, 7098.674
109.5120, 5478.900
110.7440, 4255.553
111.9760, 3678.656
113.2080, 3412.351
114.4400, 3244.452
115.6710, 2903.729
116.9030, 2187.943
118.1340, 1505.900
119.3650, 949.4648
120.5960, 432.5732
121.8270, 232.1611
123.0580, 80.88281
124.2880, 153.6689
125.5190, 231.2871
126.7490, 253.8203
127.9790, 363.3545
129.2090, 247.9746
130.4390, 287.7500
131.6680, 338.7295
132.8980, 166.9541
134.1270, 44.46387
135.3560, 43.70508
136.5850, 451.5215
137.8140, 876.9531
139.0430, 1220.973
140.2710, 1692.555
141.5000, 1896.674
142.7280, 2284.909
143.9560, 2513.596
145.1840, 2832.537
146.4120, 2862.266
147.6390, 2864.487
148.8670, 2710.719
150.0940, 2310.968
151.3210, 2080.238
152.5490, 1982.403
153.7750, 2170.217
155.0020, 2624.864
156.2290, 3156.441
157.4550, 3611.020
158.6810, 4420.814
159.9080, 5958.100
161.1340, 6393.104
162.3590, 7708.943
163.5850, 8749.088
164.8110, 9456.301
166.0360, 9452.519
167.2610, 9476.750
168.4860, 9709.999
169.7110, 9768.285
170.9360, 9326.616
172.1610, 8749.000
173.3850, 8069.445
174.6100, 6940.940
175.8340, 5780.367
177.0580, 4329.631
178.2820, 3035.738
179.5050, 2073.707
180.7290, 1610.729
181.9520, 1206.860
183.1760, 1206.104
184.3990, 1215.461
185.6220, 1107.932
186.8450, 1178.514
188.0670, 1246.207
189.2900, 1336.012
190.5120, 1487.924
191.7340, 1557.946
192.9560, 1562.074
194.1780, 1825.312
195.4000, 1980.653
196.6220, 2154.100
197.8430, 2187.650
199.0640, 2375.303
200.2860, 2449.057
201.5070, 2575.911
202.7270, 2819.866
203.9480, 2728.921
205.1690, 2788.150
206.3890, 2960.899
207.6090, 3148.915
208.8290, 3243.444
210.0490, 3320.908
211.2690, 3441.625
212.4890, 3529.373
213.7080, 3581.836
214.9280, 3626.226
216.1470, 3623.328
217.3660, 3699.550
218.5850, 3845.879
219.8030, 3744.300
221.0220, 3670.812
222.2400, 3587.414
223.4590, 3416.105
224.6770, 3384.889
225.8950, 3326.704
227.1120, 3308.463
228.3300, 3392.840
229.5480, 3435.991
230.7650, 3680.480
231.9820, 3417.032
233.1990, 3277.429
234.4160, 2961.521
235.6330, 2620.248
236.8490, 2334.309
238.0660, 2103.908
239.2820, 1945.991
240.4980, 1812.983
241.7140, 1707.556
242.9300, 1528.754
244.1460, 1338.405
245.3610, 1192.002
246.5770, 1001.665
247.7920, 813.1260
249.0070, 665.9688
250.2220, 536.1807
251.4370, 461.2109
252.6510, 424.1084
253.8660, 495.2334
255.0800, 420.6074
256.2940, 380.2217
257.5080, 302.0645
258.7220, 566.1250
259.9360, 568.6797
261.1490, 776.8496
262.3630, 873.4951
263.5760, 1189.316
264.7890, 1467.308
266.0020, 1962.461
267.2150, 2505.768
268.4270, 3333.223
269.6400, 4090.270
270.8520, 4659.202
272.0640, 5217.703
273.2760, 6041.561
274.4880, 7178.488
275.7000, 7729.949
276.9120, 8111.090
278.1230, 7697.489
279.3340, 6834.218
280.5450, 5877.724
281.7560, 4731.529
282.9670, 3459.439
284.1780, 2566.451
285.3880, 1926.564
286.5980, 1513.776
287.8090, 1245.082
289.0190, 1337.480
290.2290, 1220.959
291.4380, 1283.505
292.6480, 1320.104
293.8570, 1367.755
295.0670, 1362.259
296.2760, 1549.216
297.4850, 1396.027
298.6930, 1319.891
299.9020, 1469.811
301.1110, 1263.789
302.3190, 1367.825
303.5270, 1604.919
304.7350, 1726.070
305.9430, 2129.278
307.1510, 2623.537
308.3580, 2968.846
309.5660, 3333.203
310.7730, 3948.609
311.9800, 4420.062
313.1870, 4519.563
314.3940, 4599.115
315.6010, 4170.716
316.8070, 3715.366
318.0130, 3123.064
319.2200, 2563.813
320.4260, 1966.612
321.6310, 1681.461
322.8370, 1324.359
324.0430, 1051.312
325.2480, 696.3174
326.4540, 443.3750
327.6590, 342.4863
328.8640, 50.65039
330.0680, 49.84473
331.2730, 175.9316
332.4780, 148.7285
333.6820, 220.5410
334.8860, 342.3867
336.0900, 431.2900
337.2940, 397.2773
338.4980, 490.3379
339.7010, 496.4951
340.9050, 551.7500
342.1080, 658.1162
343.3110, 495.6221
344.5140, 518.2256
345.7170, 368.9346
346.9200, 25.71191
348.1220, 47.52051
349.3240, 280.7812
350.5270, 701.0400
351.7290, 880.1885
352.9310, 1378.167
354.1320, 1557.910
355.3340, 1621.381
356.5350, 1720.523
357.7370, 1868.396
358.9380, 1910.164
360.1390, 1994.974
361.3400, 1632.852
362.5400, 1419.797
363.7410, 1318.810
364.9410, 1087.889
366.1410, 1176.036
367.3410, 1016.252
368.5410, 1013.535
369.7410, 1031.886
370.9400, 925.3701
372.1400, 959.9717
373.3390, 827.6768
374.5380, 637.4785
375.7370, 538.3682
376.9360, 412.3438
378.1350, 343.4004
379.3330, 127.5361
380.5310, 47.73535
381.7300, 145.0283
382.9280, 112.8418
384.1260, 217.6924
385.3230, 316.6279
386.5210, 327.6943
387.7180, 432.8955
388.9160, 307.2842
390.1130, 40.20117
391.3100, 5.282227
392.5060, 327.2500
393.7030, 400.8467
394.9000, 670.5156
396.0960, 923.2549
397.2920, 1435.065
398.4880, 1571.948
399.6840, 1987.900
400.8800, 2221.924
402.0750, 2344.017
403.2710, 2605.179
404.4660, 2768.410
405.6610, 2837.709
406.8560, 2930.081
408.0510, 2918.525
409.2450, 2933.038
410.4400, 2848.633
411.6340, 2481.322
412.8280, 2351.138
414.0220, 2176.088
415.2160, 2064.181
416.4100, 1545.429
417.6030, 1492.828
418.7970, 1283.388
419.9900, 877.1309
421.1830, 705.0420
422.3760, 686.1387
423.5690, 679.3818
424.7610, 644.7490
425.9540, 716.2461
427.1460, 630.8271
428.3380, 861.5244
429.5300, 912.3350
430.7220, 972.2744
431.9140, 1232.309
433.1050, 1230.405
434.2970, 1324.595
435.4880, 1372.851
436.6790, 1770.218
437.8700, 1720.652
439.0610, 1653.201
440.2510, 1612.833
441.4420, 1473.543
442.6320, 1185.343
443.8220, 1147.208
445.0120, 1005.182
446.2020, 931.2305
447.3910, 1138.379
448.5810, 1148.601
449.7700, 1198.914
450.9600, 1287.291
452.1490, 1564.734
453.3370, 1492.243
454.5260, 1713.858
455.7150, 1763.564
456.9030, 2072.356
458.0910, 1900.215
459.2800, 2018.138
460.4670, 1854.125
461.6550, 1932.178
462.8430, 1879.295
464.0300, 1834.477
465.2180, 1762.725
466.4050, 1663.037
467.5920, 1809.416
468.7790, 1991.860
469.9650, 2433.370
471.1520, 2825.945
472.3380, 3153.684
473.5250, 3708.435
474.7110, 4253.365
475.8970, 5038.811
477.0820, 5759.381
478.2680, 6365.365
479.4540, 7075.547
480.6390, 7564.646
481.8240, 8361.573
483.0090, 8849.182
484.1940, 9445.602
485.3780, 9916.841
486.5630, 10549.66
487.7470, 11441.22
488.9320, 12061.34
490.1160, 13250.22
491.3000, 14297.97
492.4830, 15314.88
493.6670, 16588.88
494.8500, 18086.97
496.0340, 19397.13
497.2170, 20776.39
498.4000, 21614.73
499.5820, 22549.17
500.7650, 23386.69
501.9480, 23525.30
503.1300, 24094.01
504.3120, 24080.81
505.4940, 24526.70
506.6760, 24843.68
507.8580, 24836.75
509.0390, 24651.91
510.2210, 24367.16
511.4020, 24016.50
512.5830, 23821.93
513.7640, 23316.44
514.9450, 22307.05
516.1250, 21910.75
517.3060, 20986.53
518.4860, 20815.40
519.6660, 20549.36
520.8460, 20241.40
522.0260, 20404.50
523.2060, 21195.88
524.3850, 21678.21
525.5650, 22484.44
526.7440, 23280.12
527.9230, 23876.59
529.1020, 24396.61
530.2810, 24766.87
531.4590, 25057.36
532.6380, 24667.69
533.8160, 24091.97
534.9940, 22872.09
536.1720, 21642.30
537.3500, 20502.60
538.5270, 19277.99
539.7050, 17783.48
540.8820, 16819.06
542.0590, 15559.73
543.2360, 15100.49
544.4130, 14784.34
545.5900, 15156.28
546.7660, 15617.30
547.9430, 16570.22
549.1190, 17907.79
550.2950, 19487.16
551.4710, 21046.12
552.6470, 23529.39
553.8220, 24840.96
554.9980, 26276.57
556.1730, 27824.74
557.3480, 28364.53
558.5230, 28675.72
559.6980, 27905.43
560.8730, 27496.91
562.0470, 26639.04
563.2220, 25893.28
564.3960, 24683.11
565.5700, 23695.06
566.7440, 22479.79
567.9170, 20968.10
569.0910, 19109.73
570.2640, 17398.42
571.4380, 16056.29
572.6110, 14209.72
573.7840, 12842.56
574.9570, 12160.51
576.1290, 11100.92
577.3020, 10714.01
578.4740, 10263.56
579.6460, 9961.270
580.8180, 10193.04
581.9900, 10572.98
583.1620, 10813.45
584.3330, 11547.79
585.5040, 12579.62
586.6760, 13792.18
587.8470, 15412.43
589.0180, 17352.96
590.1880, 20061.41
591.3590, 22658.28
592.5290, 26109.22
593.7000, 29416.07
594.8700, 32955.32
596.0400, 35590.53
597.2090, 38085.44
598.3790, 39285.96
599.5490, 39026.31
600.7180, 37302.95
601.8870, 34319.52
603.0560, 30749.19
604.2250, 26776.96
605.3940, 23306.82
606.5620, 20403.75
607.7300, 18380.74
608.8990, 16679.78
610.0670, 15729.94
611.2350, 15143.22
612.4020, 14564.62
613.5700, 14345.12
614.7370, 13690.72
615.9050, 13035.44
617.0720, 12386.30
618.2390, 11623.38
619.4060, 10478.70
620.5720, 9780.199
621.7390, 8960.898
622.9050, 8584.836
624.0710, 8264.969
625.2370, 7779.324
626.4030, 7747.926
627.5690, 7650.715
628.7340, 7849.727
629.9000, 7710.906
631.0650, 8116.156
632.2300, 8013.471
633.3950, 7888.818
634.5600, 7546.230
635.7240, 7356.674
636.8890, 6765.150
638.0530, 6344.652
639.2170, 5684.193
640.3810, 5176.758
641.5450, 4529.354
642.7080, 4388.977
643.8720, 4033.625
645.0350, 3928.297
646.1980, 3799.996
647.3610, 3861.719
648.5240, 3837.465
649.6870, 3974.232
650.8490, 3922.023
652.0120, 3971.834
653.1740, 4110.775
654.3360, 4344.518
655.4980, 4358.385
656.6600, 4454.273
657.8210, 4514.180
658.9830, 4336.352
660.1440, 4036.039
661.3050, 3927.990
662.4660, 3595.965
663.6270, 3355.969
664.7870, 2821.049
665.9480, 2600.195
667.1080, 2292.430
668.2680, 1935.775
669.4280, 1662.232
670.5880, 1465.826
671.7480, 1345.525
672.9070, 1078.250
674.0670, 895.0078
675.2260, 899.7715
676.3850, 757.5391
677.5440, 512.3105
678.7030, 566.0859
679.8610, 583.8652
681.0200, 294.6445
682.1780, 297.4258
683.3360, 152.2051
684.4940, 79.98438
685.6520, 62.14453
686.8090, 21.46094
687.9670, 3.701172
689.1240, 16.04688
690.2810, 51.21484
691.4380, 103.5117
692.5950, 223.8750
693.7520, 203.3633
694.9080, 208.9707
696.0650, 198.6992
697.2210, 167.5469
698.3770, 138.5000
699.5330, 301.5469
700.6880, 223.6016
701.8440, 256.1328
702.9990, 194.6523
704.1550, 176.2988
705.3100, 152.0664
706.4650, 192.9434
707.6190, 92.95508
708.7740, 159.0469
709.9290, 210.2578
711.0830, 80.61719
712.2370, 135.9453
713.3910, 66.51367
714.5450, 76.10547
715.6980, 148.4551
716.8520, 82.12305
718.0050, 153.4629
719.1580, 15.29883
720.3110, 3.484375
721.4640, 36.83984
722.6170, 70.06250
723.7700, 105.3926
724.9220, 22.04102
726.0740, 71.84766
727.2260, 32.72656
728.3780, 36.15039
729.5300, 195.6680
730.6810, 197.3574
731.8330, 94.55273
732.9840, 89.49805
734.1350, 19.69727
735.2860, 12.31055
736.4370, 180.7949
737.5880, 248.4551
738.7380, 209.1992
739.8880, 498.4160
741.0390, 533.9434
742.1890, 579.5742
743.3380, 638.1289
744.4880, 741.2090
745.6380, 644.1875
746.7870, 713.1328
747.9360, 808.0957
749.0850, 916.5098
750.2340, 1082.395
751.3830, 1195.986
752.5310, 1404.693
753.6800, 1494.855
754.8280, 1696.068
755.9760, 1605.514
757.1240, 1948.738
758.2720, 1925.584
759.4190, 2272.523
760.5670, 2267.939
761.7140, 2407.746
762.8610, 2415.998
764.0080, 2691.211
765.1550, 2461.844
766.3020, 2708.814
767.4480, 2664.428
768.5950, 2535.271
769.7410, 2475.238
770.8870, 2480.951
772.0330, 2409.412
773.1780, 2413.434
774.3240, 2358.943
775.4690, 2362.391
776.6140, 2377.189
777.7590, 2248.498
778.9040, 2116.740
780.0490, 2422.912
781.1940, 2229.018
782.3380, 2363.051
783.4820, 2247.020
784.6260, 2628.916
785.7700, 2717.742
786.9140, 2699.500
788.0580, 2941.188
789.2010, 3360.803
790.3450, 3502.352
791.4880, 3576.828
792.6310, 3652.232
793.7730, 3891.566
794.9160, 4167.830
796.0590, 4448.021
797.2010, 4361.146
798.3430, 4364.195
799.4850, 4495.172
800.6270, 4617.078
801.7690, 4542.914
802.9100, 4672.676
804.0520, 4413.365
805.1930, 4360.980
806.3340, 4046.521
807.4750, 3858.990
808.6160, 3630.385
809.7560, 3520.701
810.8970, 3607.945
812.0370, 3408.109
813.1770, 3016.199
814.3170, 3012.213
815.4570, 2670.152
816.5960, 2592.016
817.7360, 2334.801
818.8750, 2250.512
820.0140, 2143.148
821.1530, 1999.707
822.2920, 2027.191
823.4310, 1994.598
824.5690, 1638.127
825.7070, 1664.029
826.8460, 1632.135
827.9840, 1473.660
829.1220, 1514.889
830.2590, 1425.840
831.3970, 1216.766
832.5340, 1302.141
833.6710, 1067.898
834.8080, 965.2695
835.9450, 851.1328
837.0820, 924.2363
838.2190, 773.7051
839.3550, 838.0723
840.4910, 736.8496
841.6270, 675.5156
842.7630, 630.4199
843.8990, 549.7480
845.0350, 473.6602
846.1700, 360.7266
847.3060, 318.5254
848.4410, 323.7520
849.5760, 333.5918
850.7100, 164.3262
851.8450, 336.5977
852.9800, 143.2031
854.1140, 257.3398
855.2480, 281.3301
856.3820, 14.73633
857.5160, 98.99414
858.6500, 26.20117
859.7830, 169.5293
860.9170, 159.3574
862.0500, 4.533203
863.1830, 122.8574
864.3160, 76.98438
865.4480, 84.02148
866.5810, 89.59570
867.7130, 124.6445
868.8460, 64.43750
869.9780, 26.83203
871.1100, 72.25000
872.2410, 147.0293
873.3730, 61.96680
874.5050, 128.7734
875.6360, 185.9141
876.7670, 129.0547
877.8980, 132.6094
879.0290, 53.77734
880.1590, 48.32227
881.2900, 0.9707030
882.4200, 13.30664
883.5500, 166.4863
884.6800, 251.4414
885.8100, 215.5996
886.9400, 85.94336
888.0690, 74.40234
889.1990, 69.02930
890.3280, 87.58789
891.4570, 253.3145
892.5860, 316.2402
893.7140, 10.39258
894.8430, 62.61328
895.9710, 152.9277
897.1000, 2.380859
898.2280, 44.89453
899.3560, 31.48438
900.4830, 25.85352
901.6110, 81.84961
902.7380, 31.64844
903.8660, 113.4902
904.9930, 56.59180
906.1200, 153.6602
907.2460, 113.3047
908.3730, 144.6270
909.5000, 87.52930
910.6260, 319.3984
911.7520, 6.236328
912.8780, 94.03906
914.0040, 62.81250
915.1290, 383.5586
916.2550, 166.2754
917.3800, 412.9648
918.5050, 195.6250
919.6300, 534.2598
920.7550, 570.8711
921.8800, 503.4531
923.0040, 465.0117
924.1290, 396.5469
925.2530, 726.0586
926.3770, 651.5469
927.5010, 784.0137
928.6250, 865.4590
929.7480, 957.8848
930.8720, 1169.289
931.9950, 1362.682
933.1180, 1419.053
934.2410, 1690.412
935.3640, 1738.752
936.4860, 2038.078
937.6090, 2418.383
938.7310, 2508.674
939.8530, 2960.949
940.9750, 3106.223
942.0970, 3343.484
943.2180, 3808.738
944.3400, 4339.980
945.4610, 4293.209
946.5820, 4487.430
947.7030, 4663.637
948.8240, 5092.838
949.9450, 5156.035
951.0650, 5414.217
952.1860, 5427.412
953.3060, 5382.600
954.4260, 5693.795
955.5460, 5458.988
956.6650, 5569.189
957.7850, 5981.426
958.9040, 5878.660
960.0230, 6177.910
961.1420, 6602.184
962.2610, 7063.475
963.3800, 7437.777
964.4990, 7935.105
965.6170, 8640.492
966.7350, 9130.932
967.8530, 9944.443
968.9710, 10922.01
970.0890, 11595.62
971.2070, 12644.30
972.3240, 13702.07
973.4410, 14579.96
974.5580, 15622.95
975.6750, 16763.00
976.7920, 18206.10
977.9090, 19759.27
979.0250, 21641.49
980.1410, 24082.77
981.2580, 26859.12
982.3740, 30229.54
983.4890, 33590.00
984.6050, 36356.51
985.7200, 39020.94
986.8360, 40718.52
987.9510, 40444.91
989.0660, 39275.46
990.1810, 37515.19
991.2950, 33855.30
992.4100, 30283.52
993.5240, 26629.50
994.6390, 23808.85
995.7530, 21279.30
996.8660, 19373.06
997.9800, 18018.34
999.0940, 17485.07
1000.207, 16679.08
1001.320, 16526.21
1002.433, 16320.84
1003.546, 17108.70
1004.659, 17786.67
1005.772, 18517.03
1006.884, 20176.64
1007.996, 21640.71
1009.108, 24095.68
1010.220, 26764.17
1011.332, 30001.36
1012.444, 33507.43
1013.555, 36546.61
1014.666, 40124.24
1015.777, 42588.97
1016.888, 44311.73
1017.999, 45492.33
1019.110, 44742.73
1020.220, 43732.51
1021.331, 42322.57
1022.441, 40723.50
1023.551, 37116.00
1024.661, 34529.44
1025.770, 31914.63
1026.880, 29537.04
1027.989, 27663.81
1029.098, 26148.47
1030.207, 24461.63
1031.316, 23713.40
1032.425, 22493.70
1033.533, 22235.03
1034.642, 21535.92
1035.750, 21190.45
1036.858, 21004.32
1037.966, 20858.94
1039.073, 20566.43
1040.181, 20428.14
1041.288, 19941.65
1042.396, 19492.46
1043.503, 19514.32
1044.610, 18568.22
1045.716, 18396.74
1046.823, 17936.74
1047.929, 17551.78
1049.036, 17154.88
1050.142, 17013.01
1051.248, 16912.19
1052.353, 16948.42
1053.459, 17081.70
1054.564, 17417.04
1055.670, 17515.42
1056.775, 18222.84
1057.880, 18301.31
1058.985, 18494.83
1060.089, 18864.40
1061.194, 18682.03
1062.298, 18201.20
1063.402, 17655.92
1064.506, 17293.77
1065.610, 16369.59
1066.713, 15593.26
1067.817, 14807.18
1068.920, 13969.24
1070.023, 13276.26
1071.126, 12647.33
1072.229, 11778.78
1073.332, 11228.36
1074.435, 10814.61
1075.537, 10313.51
1076.639, 10012.17
1077.741, 9358.568
1078.843, 9002.014
1079.945, 8505.516
1081.046, 8060.768
1082.148, 7471.855
1083.249, 6979.508
1084.350, 6517.031
1085.451, 5856.805
1086.551, 5433.650
1087.652, 4894.713
1088.752, 4176.055
1089.853, 3911.852
1090.953, 3528.047
1092.053, 3064.340
1093.152, 2811.910
1094.252, 2592.689
1095.351, 2337.902
1096.451, 2149.162
1097.550, 1824.473
1098.649, 1588.830
1099.748, 1609.500
1100.846, 1581.955
1101.945, 1225.457
1103.043, 1328.434
1104.141, 1406.092
1105.239, 1190.848
1106.337, 1344.625
1107.434, 1409.359
1108.532, 1431.137
1109.629, 1542.957
1110.726, 1606.824
1111.823, 1872.990
1112.920, 2047.285
1114.017, 2292.615
1115.113, 2338.811
1116.210, 2694.953
1117.306, 2816.582
1118.402, 2770.549
1119.498, 3066.680
1120.593, 3121.941
1121.689, 3040.246
1122.784, 3239.543
1123.879, 3188.621
1124.974, 3153.658
1126.069, 3194.336
1127.164, 3408.438
1128.259, 3074.066
1129.353, 3352.980
1130.447, 2923.824
1131.541, 2958.898
1132.635, 3037.055
1133.729, 3030.730
1134.822, 3074.715
1135.916, 2881.900
1137.009, 2986.346
1138.102, 3075.311
1139.195, 3274.941
1140.288, 3184.359
1141.380, 3371.145
1142.473, 3853.863
1143.565, 3716.004
1144.657, 4049.342
1145.749, 3966.906
1146.841, 4078.420
1147.932, 3915.420
1149.024, 3740.148
1150.115, 3301.980
1151.206, 3009.922
1152.297, 2755.963
1153.388, 2669.498
1154.479, 2224.490
1155.569, 2782.688
1156.659, 3164.969
1157.750, 3465.037
1158.839, 1775.547
1159.929, 1778.275
1161.019, 1641.900
1162.108, 1697.812
1163.198, 1676.549
1164.287, 1523.342
1165.376, 1475.461
1166.465, 1419.549
1167.553, 1364.904
1168.642, 1377.648
1169.730, 1282.527
1170.818, 1375.527
1171.906, 1261.613
1172.994, 1068.686
1174.082, 1079.779
1175.170, 1038.895
1176.257, 914.0352
1177.344, 764.1973
1178.431, 645.3789
1179.518, 527.7578
1180.605, 364.7969
1181.691, 323.0312
1182.778, 275.3809
1183.864, 212.6484
1184.950, 239.9336
1186.036, 100.2324
1187.122, 361.5469
1188.207, 409.8770
1189.292, 216.2227
1190.378, 60.57812
1191.463, 222.9512
1192.548, 33.66211
1193.632, 105.9414
1194.717, 56.65625
1195.801, 122.7480
1196.886, 44.83594
1197.970, 162.5820
1199.054, 3.990234
1200.137, 139.4473
1201.221, 33.89453
1202.305, 20.49219
1203.388, 86.90820
1204.471, 53.46484
1205.554, 63.95312
1206.637, 18.50977
1207.719, 79.93555
1208.802, 52.75195
1209.884, 12.21680
1210.966, 31.94141
1212.048, 23.36523
1213.130, 25.09375
1214.212, 103.4395
1215.293, 6.119141
1216.374, 84.44531
1217.456, 25.79102
1218.536, 80.03320
1219.617, 176.6582
1220.698, 37.29492
1221.778, 60.00781
1222.859, 116.7422
1223.939, 65.52734
1225.019, 71.66016
1226.099, 54.86328
1227.178, 21.05273
1228.258, 101.6465
1229.337, 51.11914
1230.417, 106.2012
1231.496, 63.36133
1232.574, 82.48047
1233.653, 41.36523
1234.732, 169.2715
1235.810, 103.2676
1236.888, 179.9551
1237.966, 109.8906
1239.044, 197.8867
1240.122, 111.8125
1241.199, 64.60938
1242.277, 4.873047
1243.354, 6.205078
1244.431, 8.949219
1245.508, 133.9277
1246.585, 72.19141
1247.661, 76.59766
1248.738, 1.271484
1249.814, 115.9199
1250.890, 121.6953
1251.966, 58.31836
1253.042, 115.7402
1254.117, 33.05469
1255.193, 120.3867
1256.268, 93.04297
1257.343, 3.699219
1258.418, 69.42773
1259.493, 50.22461
1260.567, 3.966797
1261.642, 13.33594
1262.716, 6.646484
