##NAMES=Brazilianite
##RRUFFID=R050319
##IDEAL CHEMISTRY=NaAl_3_(PO_4_)_2_(OH)_4_
##LOCALITY=Minas Gerais, Brazil
##OWNER=RRUFF
##SOURCE=American Museum of Natural History
##DESCRIPTION=Pale green fragment
##STATUS=The identification of this mineral has been confirmed by X-ray diffraction and chemical analysis
##URL=rruff.info/R050319
##MEASURED CHEMISTRY=Na_1.00_Al_3.00_(PO_4_)_2_(OH)_4_
##PIN_ID=M00315
##ORIENTATION=Laser parallel to c* (0 0 1). Fiducial mark perpendicular to laser is parallel to a [1 0 0]
82.36700, 0.0000000E+00
83.60200, 298.7363
84.83700, 903.8262
86.07200, 1390.742
87.30800, 1730.149
88.54200, 2086.525
89.77700, 1905.729
91.01200, 1479.532
92.24600, 1078.545
93.48000, 825.1406
94.71400, 1188.862
95.94800, 1815.668
97.18200, 2064.808
98.41600, 2400.096
99.64900, 2712.848
100.8830, 3526.055
102.1160, 4618.724
103.3490, 5738.588
104.5820, 6346.416
105.8150, 5625.469
107.0470, 4389.865
108.2800, 3549.199
109.5120, 3254.104
110.7440, 2808.130
111.9760, 2586.180
113.2080, 2654.166
114.4400, 2836.076
115.6710, 2722.066
116.9030, 1897.207
118.1340, 1072.366
119.3650, 439.4229
120.5960, 83.27441
121.8270, 26.14844
123.0580, 173.8652
124.2880, 35.90430
125.5190, 119.3301
126.7490, 179.2002
127.9790, 91.57031
129.2090, 86.48535
130.4390, 82.99707
131.6680, 137.1553
132.8980, 170.0029
134.1270, 6.434570
135.3560, 148.1416
136.5850, 290.0986
137.8140, 700.2900
139.0430, 866.7031
140.2710, 1304.324
141.5000, 1573.144
142.7280, 1733.148
143.9560, 2142.332
145.1840, 2441.157
146.4120, 2542.525
147.6390, 2556.854
148.8670, 2238.197
150.0940, 1950.082
151.3210, 1648.781
152.5490, 1521.307
153.7750, 1422.672
155.0020, 1634.886
156.2290, 1946.948
157.4550, 2261.895
158.6810, 2556.789
159.9080, 2879.716
161.1340, 3265.034
162.3590, 3939.729
163.5850, 4465.768
164.8110, 4937.961
166.0360, 4868.100
167.2610, 4355.170
168.4860, 4335.156
169.7110, 4360.057
170.9360, 4680.872
172.1610, 4813.617
173.3850, 4517.303
174.6100, 3672.929
175.8340, 2798.487
177.0580, 2205.823
178.2820, 1709.942
179.5050, 1494.865
180.7290, 1324.630
181.9520, 1133.218
183.1760, 1172.801
184.3990, 1019.387
185.6220, 975.9766
186.8450, 1017.573
188.0670, 997.1777
189.2900, 1163.795
190.5120, 1247.421
191.7340, 1171.060
192.9560, 1310.711
194.1780, 1356.376
195.4000, 1225.056
196.6220, 1387.749
197.8430, 1246.459
199.0640, 1209.185
200.2860, 1174.928
201.5070, 1075.688
202.7270, 993.4668
203.9480, 906.2646
205.1690, 940.0820
206.3890, 916.2998
207.6090, 1134.616
208.8290, 1192.359
210.0490, 1387.638
211.2690, 1821.511
212.4890, 2129.740
213.7080, 2349.681
214.9280, 2610.519
216.1470, 2944.588
217.3660, 3183.696
218.5850, 3186.861
219.8030, 3172.075
221.0220, 2863.332
222.2400, 2531.623
223.4590, 2260.946
224.6770, 2048.299
225.8950, 1970.687
227.1120, 2028.108
228.3300, 2084.567
229.5480, 2031.201
230.7650, 2087.537
231.9820, 2054.778
233.1990, 2284.577
234.4160, 2309.743
235.6330, 2522.146
236.8490, 2663.205
238.0660, 2951.986
239.2820, 3090.164
240.4980, 3201.812
241.7140, 3276.412
242.9300, 3303.898
244.1460, 3392.389
245.3610, 3484.016
246.5770, 3455.533
247.7920, 3454.060
249.0070, 3829.516
250.2220, 4592.599
251.4370, 5473.250
252.6510, 5758.699
253.8660, 5373.927
255.0800, 3752.027
256.2940, 2761.237
257.5080, 1724.553
258.7220, 1486.967
259.9360, 1544.477
261.1490, 1485.080
262.3630, 1164.770
263.5760, 1246.543
264.7890, 1206.395
266.0020, 1355.322
267.2150, 1536.319
268.4270, 1645.996
269.6400, 1662.996
270.8520, 1840.609
272.0640, 1785.033
273.2760, 2098.410
274.4880, 2137.752
275.7000, 2115.549
276.9120, 2120.681
278.1230, 1832.092
279.3340, 1244.885
280.5450, 1095.481
281.7560, 1081.187
282.9670, 1000.944
284.1780, 1136.754
285.3880, 1235.613
286.5980, 1406.522
287.8090, 1569.481
289.0190, 1713.061
290.2290, 1877.547
291.4380, 2099.650
292.6480, 2396.791
293.8570, 2738.963
295.0670, 2596.156
296.2760, 2414.368
297.4850, 2180.601
298.6930, 1818.854
299.9020, 1431.131
301.1110, 1290.432
302.3190, 1252.756
303.5270, 1313.104
304.7350, 1423.480
305.9430, 1657.881
307.1510, 1965.307
308.3580, 2270.755
309.5660, 2690.227
310.7730, 3041.717
311.9800, 3672.229
313.1870, 3896.764
314.3940, 3775.322
315.6010, 3474.904
316.8070, 2835.510
318.0130, 2287.140
319.2200, 1963.796
320.4260, 1591.479
321.6310, 1228.878
322.8370, 1154.926
324.0430, 677.6924
325.2480, 499.4893
326.4540, 385.3203
327.6590, 34.81738
328.8640, 7.052734
330.0680, 72.06152
331.2730, 136.1777
332.4780, 139.3096
333.6820, 310.4570
334.8860, 182.6631
336.0900, 363.8945
337.2940, 230.1953
338.4980, 371.5332
339.7010, 405.9414
340.9050, 431.4277
342.1080, 397.9990
343.3110, 410.6445
344.5140, 348.2275
345.7170, 201.1514
346.9200, 183.9609
348.1220, 20.20898
349.3240, 171.4072
350.5270, 418.6445
351.7290, 683.8682
352.9310, 961.0332
354.1320, 1316.074
355.3340, 1553.967
356.5350, 1763.702
357.7370, 1922.222
358.9380, 1687.538
360.1390, 1573.729
361.3400, 1193.897
362.5400, 944.1230
363.7410, 706.4043
364.9410, 458.7402
366.1410, 461.1338
367.3410, 499.5830
368.5410, 365.0889
369.7410, 475.6514
370.9400, 344.2705
372.1400, 311.9482
373.3390, 351.6836
374.5380, 392.4814
375.7370, 352.3350
376.9360, 325.2393
378.1350, 226.1934
379.3330, 90.19531
380.5310, 109.7559
381.7300, 304.7197
382.9280, 167.7861
384.1260, 233.8896
385.3230, 273.0586
386.5210, 219.3115
387.7180, 185.6191
388.9160, 153.9648
390.1130, 85.66699
391.3100, 165.3477
392.5060, 146.0791
393.7030, 252.8613
394.9000, 583.6992
396.0960, 627.5918
397.2920, 1009.541
398.4880, 1043.549
399.6840, 1310.617
400.8800, 1457.745
402.0750, 1770.934
403.2710, 2066.211
404.4660, 2231.605
405.6610, 2246.131
406.8560, 2437.772
408.0510, 2503.515
409.2450, 2599.359
410.4400, 2647.316
411.6340, 2458.410
412.8280, 2375.657
414.0220, 2174.095
415.2160, 1975.684
416.4100, 1584.452
417.6030, 1306.386
418.7970, 1148.465
419.9900, 882.7021
421.1830, 731.0752
422.3760, 792.5732
423.5690, 729.2295
424.7610, 783.0146
425.9540, 972.9141
427.1460, 1172.892
428.3380, 1582.965
429.5300, 2068.112
430.7220, 2864.338
431.9140, 3503.627
433.1050, 4387.977
434.2970, 5290.389
435.4880, 6189.862
436.6790, 7021.396
437.8700, 7787.994
439.0610, 7754.037
440.2510, 7982.379
441.4420, 7133.168
442.6320, 6533.018
443.8220, 5672.931
445.0120, 4844.910
446.2020, 4338.953
447.3910, 3953.062
448.5810, 3829.235
449.7700, 4005.473
450.9600, 4155.775
452.1490, 4502.146
453.3370, 4961.582
454.5260, 5198.083
455.7150, 5464.652
456.9030, 5868.288
458.0910, 6013.994
459.2800, 6597.765
460.4670, 6887.604
461.6550, 7238.512
462.8430, 7594.487
464.0300, 7988.533
465.2180, 8012.649
466.4050, 7991.834
467.5920, 7502.088
468.7790, 6820.411
469.9650, 6225.805
471.1520, 5479.123
472.3380, 5012.835
473.5250, 4563.362
474.7110, 4525.494
475.8970, 4434.570
477.0820, 4479.756
478.2680, 4666.561
479.4540, 5184.886
480.6390, 5379.188
481.8240, 5884.354
483.0090, 6395.652
484.1940, 6631.611
485.3780, 6933.688
486.5630, 7012.186
487.7470, 7251.504
488.9320, 7143.605
490.1160, 7287.889
491.3000, 7488.447
492.4830, 7855.314
493.6670, 8396.266
494.8500, 8915.301
496.0340, 9475.425
497.2170, 10301.63
498.4000, 10995.93
499.5820, 11396.31
500.7650, 11811.79
501.9480, 12102.35
503.1300, 12395.00
504.3120, 12638.75
505.4940, 12811.59
506.6760, 12911.59
507.8580, 12916.53
509.0390, 12877.64
510.2210, 12670.84
511.4020, 12392.13
512.5830, 12209.33
513.7640, 11965.06
514.9450, 11675.54
516.1250, 11486.20
517.3060, 11205.93
518.4860, 10914.77
519.6660, 11018.68
520.8460, 11088.69
522.0260, 11280.79
523.2060, 11760.46
524.3850, 11905.61
525.5650, 12659.53
526.7440, 13204.05
527.9230, 13839.65
529.1020, 14147.38
530.2810, 14663.16
531.4590, 14818.88
532.6380, 14952.80
533.8160, 14404.81
534.9940, 14123.91
536.1720, 13785.11
537.3500, 12881.40
538.5270, 12182.78
539.7050, 11871.25
540.8820, 11044.82
542.0590, 10530.48
543.2360, 10329.22
544.4130, 10150.97
545.5900, 10133.00
546.7660, 10607.01
547.9430, 11082.05
549.1190, 12107.99
550.2950, 12840.95
551.4710, 13956.27
552.6470, 15185.70
553.8220, 16247.16
554.9980, 17594.54
556.1730, 18621.97
557.3480, 19727.63
558.5230, 20009.03
559.6980, 20244.15
560.8730, 20186.66
562.0470, 20067.28
563.2220, 19536.17
564.3960, 19319.60
565.5700, 18774.65
566.7440, 18027.97
567.9170, 16790.67
569.0910, 15483.05
570.2640, 14049.58
571.4380, 12896.01
572.6110, 11773.02
573.7840, 10410.59
574.9570, 9927.496
576.1290, 9219.508
577.3020, 8741.594
578.4740, 8611.756
579.6460, 8166.988
580.8180, 8038.318
581.9900, 7957.709
583.1620, 7758.182
584.3330, 7809.742
585.5040, 7955.389
586.6760, 8396.154
587.8470, 8422.982
589.0180, 9223.992
590.1880, 9896.871
591.3590, 11045.96
592.5290, 12014.12
593.7000, 13450.36
594.8700, 14705.71
596.0400, 15889.15
597.2090, 16692.69
598.3790, 17224.31
599.5490, 17425.04
600.7180, 16634.85
601.8870, 15599.75
603.0560, 13796.75
604.2250, 12289.82
605.3940, 11000.95
606.5620, 10089.13
607.7300, 9410.367
608.8990, 8795.691
610.0670, 8485.133
611.2350, 8639.641
612.4020, 8235.305
613.5700, 8046.055
614.7370, 7964.904
615.9050, 7362.877
617.0720, 7083.016
618.2390, 6628.293
619.4060, 6172.740
620.5720, 5638.371
621.7390, 5219.119
622.9050, 4935.020
624.0710, 4881.141
625.2370, 4834.426
626.4030, 4990.861
627.5690, 5046.508
628.7340, 5046.336
629.9000, 5102.266
631.0650, 5389.297
632.2300, 5354.377
633.3950, 5357.492
634.5600, 5111.645
635.7240, 4901.832
636.8890, 4563.055
638.0530, 4189.311
639.2170, 3326.602
640.3810, 3139.924
641.5450, 2730.279
642.7080, 2823.666
643.8720, 2369.082
645.0350, 2476.527
646.1980, 2216.004
647.3610, 2351.508
648.5240, 2311.041
649.6870, 2319.598
650.8490, 2524.180
652.0120, 2522.791
653.1740, 2867.426
654.3360, 2909.084
655.4980, 3089.764
656.6600, 3160.467
657.8210, 3131.193
658.9830, 3270.938
660.1440, 3051.703
661.3050, 3034.490
662.4660, 2778.293
663.6270, 2440.145
664.7870, 2386.086
665.9480, 1981.088
667.1080, 1660.160
668.2680, 1439.312
669.4280, 1416.531
670.5880, 1176.807
671.7480, 915.1309
672.9070, 793.4668
674.0670, 608.8145
675.2260, 499.7227
676.3850, 426.5371
677.5440, 332.9121
678.7030, 409.2949
679.8610, 342.5254
681.0200, 65.08203
682.1780, 194.4824
683.3360, 119.1133
684.4940, 221.7637
685.6520, 285.5234
686.8090, 213.4277
687.9670, 156.4434
689.1240, 152.5410
690.2810, 188.8027
691.4380, 289.0098
692.5950, 301.4531
693.7520, 312.0586
694.9080, 292.8379
696.0650, 308.7832
697.2210, 218.9004
698.3770, 211.1465
699.5330, 263.5234
700.6880, 185.0195
701.8440, 88.74023
702.9990, 186.4590
704.1550, 227.0586
705.3100, 161.4277
706.4650, 28.52539
707.6190, 88.67188
708.7740, 0.1796880
709.9290, 12.25391
711.0830, 59.20898
712.2370, 153.6836
713.3910, 154.6113
714.5450, 238.7891
715.6980, 274.5703
716.8520, 324.6621
718.0050, 503.6621
719.1580, 564.7793
720.3110, 702.2949
721.4640, 579.3613
722.6170, 401.6426
723.7700, 523.3789
724.9220, 440.0020
726.0740, 526.7402
727.2260, 499.8945
728.3780, 419.3242
729.5300, 545.1699
730.6810, 416.5898
731.8330, 437.6230
732.9840, 514.8418
734.1350, 604.6113
735.2860, 466.0586
736.4370, 390.0605
737.5880, 513.5879
738.7380, 503.2852
739.8880, 406.8613
741.0390, 555.8301
742.1890, 517.4238
743.3380, 500.4062
744.4880, 486.2949
745.6380, 422.7773
746.7870, 607.4082
747.9360, 716.5996
749.0850, 576.6465
750.2340, 781.7969
751.3830, 806.5469
752.5310, 678.2852
753.6800, 819.9492
754.8280, 837.7012
755.9760, 729.4531
757.1240, 913.1914
758.2720, 986.7070
759.4190, 1143.418
760.5670, 1259.084
761.7140, 1142.637
762.8610, 1324.857
764.0080, 1397.021
765.1550, 1173.654
766.3020, 1268.277
767.4480, 1243.197
768.5950, 1347.127
769.7410, 1346.727
770.8870, 1317.801
772.0330, 1368.543
773.1780, 1283.227
774.3240, 1275.846
775.4690, 1389.400
776.6140, 1272.895
777.7590, 1356.324
778.9040, 1348.689
780.0490, 1358.992
781.1940, 1224.230
782.3380, 1237.404
783.4820, 1253.512
784.6260, 1404.557
785.7700, 1341.535
786.9140, 1284.447
788.0580, 1630.295
789.2010, 1628.078
790.3450, 1671.793
791.4880, 1794.439
792.6310, 1962.021
793.7730, 1807.535
794.9160, 2196.980
796.0590, 1956.363
797.2010, 2081.676
798.3430, 2128.922
799.4850, 2163.100
800.6270, 2022.209
801.7690, 2025.254
802.9100, 2056.225
804.0520, 2013.129
805.1930, 1976.965
806.3340, 1861.730
807.4750, 1848.525
808.6160, 1845.051
809.7560, 1728.604
810.8970, 1581.084
812.0370, 1414.496
813.1770, 1478.836
814.3170, 1464.104
815.4570, 1353.305
816.5960, 1190.432
817.7360, 1158.484
818.8750, 1059.469
820.0140, 940.3809
821.1530, 1102.312
822.2920, 855.9883
823.4310, 890.6953
824.5690, 887.3965
825.7070, 752.2109
826.8460, 672.0273
827.9840, 656.5039
829.1220, 698.8906
830.2590, 588.2539
831.3970, 586.7168
832.5340, 564.1562
833.6710, 497.3730
834.8080, 409.8828
835.9450, 409.6660
837.0820, 263.0898
838.2190, 161.0547
839.3550, 379.4844
840.4910, 203.0254
841.6270, 92.95312
842.7630, 236.6250
843.8990, 249.9297
845.0350, 44.43359
846.1700, 28.03125
847.3060, 61.58984
848.4410, 32.83594
849.5760, 34.00195
850.7100, 55.91406
851.8450, 6.046875
852.9800, 66.91602
854.1140, 36.71680
855.2480, 34.55664
856.3820, 90.06055
857.5160, 11.61719
858.6500, 24.91016
859.7830, 17.54492
860.9170, 162.2773
862.0500, 152.8184
863.1830, 12.57812
864.3160, 33.68945
865.4480, 106.3125
866.5810, 5.576172
867.7130, 32.92578
868.8460, 85.37891
869.9780, 95.96094
871.1100, 76.67383
872.2410, 71.51172
873.3730, 81.77539
874.5050, 86.54297
875.6360, 70.74414
876.7670, 95.06055
877.8980, 27.50000
879.0290, 43.96875
880.1590, 44.38281
881.2900, 68.74414
882.4200, 84.94336
883.5500, 207.7422
884.6800, 16.72070
885.8100, 259.7734
886.9400, 17.03125
888.0690, 35.36523
889.1990, 52.77734
890.3280, 216.2793
891.4570, 74.04492
892.5860, 205.6719
893.7140, 93.55273
894.8430, 48.45898
895.9710, 43.42773
897.1000, 214.6426
898.2280, 115.1230
899.3560, 228.8535
900.4830, 193.4492
901.6110, 116.9004
902.7380, 9.457031
903.8660, 132.9375
904.9930, 126.1895
906.1200, 94.68555
907.2460, 132.7012
908.3730, 181.1895
909.5000, 193.4219
910.6260, 265.6270
911.7520, 88.80078
912.8780, 186.9473
914.0040, 195.0625
915.1290, 248.1504
916.2550, 277.4824
917.3800, 258.2461
918.5050, 305.2500
919.6300, 294.2305
920.7550, 285.1855
921.8800, 335.1172
923.0040, 322.0254
924.1290, 214.9062
925.2530, 390.7656
926.3770, 493.6035
927.5010, 345.4160
928.6250, 590.2109
929.7480, 475.9824
930.8720, 567.7422
931.9950, 788.4824
933.1180, 744.2031
934.2410, 877.9062
935.3640, 967.5918
936.4860, 1179.260
937.6090, 1391.912
938.7310, 1522.547
939.8530, 1572.168
940.9750, 1826.773
942.0970, 1789.363
943.2180, 1924.941
944.3400, 2133.508
945.4610, 2341.061
946.5820, 2597.602
947.7030, 2545.168
948.8240, 2708.725
949.9450, 2920.273
951.0650, 3056.811
952.1860, 3385.338
953.3060, 3468.871
954.4260, 3632.396
955.5460, 3826.922
956.6650, 4144.590
957.7850, 4668.109
958.9040, 4956.844
960.0230, 5642.629
961.1420, 6206.475
962.2610, 6840.375
963.3800, 7747.322
964.4990, 8487.359
965.6170, 9524.475
966.7350, 10745.68
967.8530, 12035.98
968.9710, 13247.38
970.0890, 14563.88
971.2070, 15558.43
972.3240, 16103.11
973.4410, 16962.00
974.5580, 17448.88
975.6750, 18308.58
976.7920, 17723.99
977.9090, 18134.07
979.0250, 18533.17
980.1410, 19411.58
981.2580, 20591.56
982.3740, 21869.97
983.4890, 23636.38
984.6050, 25296.94
985.7200, 26430.12
986.8360, 27189.32
987.9510, 26793.20
989.0660, 26273.22
990.1810, 24559.11
991.2950, 22382.61
992.4100, 20125.61
993.5240, 18108.38
994.6390, 16128.71
995.7530, 14822.03
996.8660, 13718.47
997.9800, 13046.38
999.0940, 12483.02
1000.207, 11985.23
1001.320, 11999.87
1002.433, 11955.89
1003.546, 12123.74
1004.659, 12589.03
1005.772, 13179.63
1006.884, 14157.67
1007.996, 15367.30
1009.108, 16778.54
1010.220, 18558.01
1011.332, 20650.08
1012.444, 22825.52
1013.555, 25220.57
1014.666, 27883.71
1015.777, 30178.26
1016.888, 32120.65
1017.999, 33344.48
1019.110, 33207.48
1020.220, 33539.36
1021.331, 32299.66
1022.441, 31105.97
1023.551, 29616.35
1024.661, 27878.62
1025.770, 26394.90
1026.880, 24754.17
1027.989, 23683.65
1029.098, 22742.94
1030.207, 22043.26
1031.316, 21184.68
1032.425, 20629.43
1033.533, 20048.22
1034.642, 19884.53
1035.750, 19066.83
1036.858, 19347.82
1037.966, 18656.79
1039.073, 18681.79
1040.181, 18119.86
1041.288, 17701.98
1042.396, 17152.14
1043.503, 16331.36
1044.610, 15640.62
1045.716, 14852.92
1046.823, 14214.27
1047.929, 13374.68
1049.036, 12606.13
1050.142, 12080.63
1051.248, 11403.18
1052.353, 11124.78
1053.459, 10377.42
1054.564, 9906.117
1055.670, 9583.859
1056.775, 9438.656
1057.880, 9103.500
1058.985, 9059.396
1060.089, 8777.344
1061.194, 8558.340
1062.298, 8379.387
1063.402, 8233.617
1064.506, 8334.805
1065.610, 8089.008
1066.713, 8005.367
1067.817, 8061.672
1068.920, 7725.031
1070.023, 7983.514
1071.126, 7661.973
1072.229, 7861.488
1073.332, 7654.053
1074.435, 7402.670
1075.537, 7587.768
1076.639, 7435.490
1077.741, 7343.268
1078.843, 7348.098
1079.945, 6949.582
1081.046, 6726.088
1082.148, 6299.078
1083.249, 6243.119
1084.350, 5808.215
1085.451, 5469.742
1086.551, 4935.941
1087.652, 4829.027
1088.752, 4534.193
1089.853, 4238.930
1090.953, 4032.346
1092.053, 3620.100
1093.152, 3553.375
1094.252, 3214.244
1095.351, 3079.873
1096.451, 2816.115
1097.550, 2817.846
1098.649, 2961.660
1099.748, 2747.828
1100.846, 2921.703
1101.945, 2883.227
1103.043, 3146.199
1104.141, 3276.373
1105.239, 3514.193
1106.337, 4135.736
1107.434, 4651.246
1108.532, 5128.451
1109.629, 5994.711
1110.726, 7017.010
1111.823, 8094.355
1112.920, 9366.777
1114.017, 10734.26
1115.113, 12164.66
1116.210, 12171.01
1117.306, 12108.08
1118.402, 11657.51
1119.498, 10763.30
1120.593, 10026.55
1121.689, 9493.150
1122.784, 8834.113
1123.879, 8394.670
1124.974, 7751.738
1126.069, 7666.488
1127.164, 7060.594
1128.259, 6617.090
1129.353, 6288.430
1130.447, 5855.350
1131.541, 5635.471
1132.635, 5367.336
1133.729, 5242.945
1134.822, 4939.967
1135.916, 4782.738
1137.009, 4807.592
1138.102, 4965.518
1139.195, 4978.852
1140.288, 5582.930
1141.380, 6139.928
1142.473, 6892.148
1143.565, 7953.600
1144.657, 8676.973
1145.749, 9309.635
1146.841, 9960.172
1147.932, 9824.662
1149.024, 9580.227
1150.115, 8475.074
1151.206, 7464.791
1152.297, 6043.588
1153.388, 4997.465
1154.479, 4420.395
1155.569, 3604.381
1156.659, 3225.467
1157.750, 2430.588
1158.839, 2306.799
1159.929, 2032.119
1161.019, 1849.428
1162.108, 1876.770
1163.198, 1718.660
1164.287, 1626.205
1165.376, 1520.617
1166.465, 1425.197
1167.553, 1281.840
1168.642, 1203.514
1169.730, 1148.051
1170.818, 1251.951
1171.906, 1110.803
1172.994, 885.5879
1174.082, 918.3984
1175.170, 670.2344
1176.257, 722.0996
1177.344, 501.9844
1178.431, 504.8984
1179.518, 496.8320
1180.605, 315.7949
1181.691, 366.7773
1182.778, 304.7871
1183.864, 188.8184
1184.950, 111.8711
1186.036, 219.9473
1187.122, 115.0469
1188.207, 160.1660
1189.292, 139.4609
1190.378, 69.64453
1191.463, 90.84766
1192.548, 62.50195
1193.632, 59.68359
1194.717, 10.56641
1195.801, 98.83398
1196.886, 5.876953
1197.970, 15.42773
1199.054, 14.14844
1200.137, 2.220703
1201.221, 36.46680
1202.305, 34.84961
1203.388, 119.2500
1204.471, 169.6660
1205.554, 22.90039
1206.637, 57.54102
1207.719, 31.99805
1208.802, 115.4707
1209.884, 176.0449
1210.966, 25.61328
1212.048, 54.82227
1213.130, 74.27148
1214.212, 210.7344
1215.293, 68.78711
1216.374, 54.67969
1217.456, 53.84570
1218.536, 28.37891
1219.617, 101.9082
1220.698, 167.4727
1221.778, 71.89844
1222.859, 103.7207
1223.939, 74.64062
1225.019, 33.50977
1226.099, 57.20117
1227.178, 148.3223
1228.258, 22.35742
1229.337, 85.04297
1230.417, 36.23633
1231.496, 167.4766
1232.574, 174.7285
1233.653, 268.0586
1234.732, 227.9824
1235.810, 59.02539
1236.888, 56.09570
1237.966, 72.80664
1239.044, 112.8105
1240.122, 27.62109
1241.199, 194.5332
1242.277, 56.45117
1243.354, 103.3906
1244.431, 36.66797
1245.508, 162.7422
1246.585, 12.08789
1247.661, 238.0840
1248.738, 145.6094
1249.814, 150.6992
1250.890, 10.89648
1251.966, 50.48438
1253.042, 195.9316
1254.117, 229.5371
1255.193, 17.99609
1256.268, 13.43945
1257.343, 8.138672
1258.418, 217.2598
1259.493, 43.34375
1260.567, 141.0020
1261.642, 172.3457
1262.716, 67.97852
1263.790, 47.86523
1264.864, 101.4277
1265.938, 92.70312
