##NAMES=Brazilianite
##RRUFFID=R050126
##IDEAL CHEMISTRY=NaAl_3_(PO_4_)_2_(OH)_4_
##LOCALITY=Linopolis, Minas Gerais, Brazil
##OWNER=RRUFF
##SOURCE=Carlos and Paulo Vasconcelos
##DESCRIPTION=Pair of greenish yellow elongated crystals
##STATUS=The identification of this mineral has been confirmed by X-ray diffraction and chemical analysis
##URL=rruff.info/R050126
##MEASURED CHEMISTRY=Na_1.00_Al_3.00_(P_1.00_O_4_)_2_((OH)_3.80_F_0.20_)_Î£=4_
##PIN_ID=L00438
##ORIENTATION=Laser parallel to -a* (-1 0 0). Fiducial mark perpendicular to laser is parallel to b [0 1 0]
134.381, 0.000
135.776, 141.076
137.170, 3.733
138.564, 0.751
139.958, 45.574
141.351, 99.459
142.745, 365.945
144.138, 552.109
145.530, 879.962
146.923, 1282.156
148.315, 1473.984
149.707, 1736.084
151.099, 1535.294
152.490, 1440.493
153.881, 1086.982
155.272, 819.575
156.663, 558.812
158.054, 424.961
159.444, 370.204
160.834, 278.704
162.224, 322.621
163.613, 372.029
165.002, 578.009
166.391, 894.795
167.780, 1431.557
169.169, 2379.480
170.557, 3922.667
171.945, 6237.560
173.333, 8588.589
174.720, 10822.766
176.108, 10887.074
177.495, 8541.737
178.881, 6199.586
180.268, 3953.473
181.654, 2747.390
183.040, 1872.333
184.426, 1395.312
185.812, 1060.371
187.197, 843.794
188.582, 738.361
189.967, 584.888
191.351, 483.376
192.736, 400.828
194.120, 356.242
195.504, 295.517
196.887, 274.275
198.271, 224.987
199.654, 139.418
201.036, 87.885
202.419, 19.055
203.801, 1.058
205.184, 12.433
206.565, 143.052
207.947, 102.898
209.328, 13.958
210.710, 55.218
212.090, 44.336
213.471, 172.714
214.851, 440.928
216.232, 778.989
217.611, 1356.048
218.991, 1921.435
220.370, 2397.283
221.750, 2608.927
223.129, 2399.540
224.507, 1940.125
225.886, 1303.687
227.264, 914.224
228.642, 535.736
230.019, 413.224
231.397, 226.687
232.774, 206.127
234.151, 250.066
235.528, 192.452
236.904, 345.201
238.281, 475.990
239.656, 745.435
241.032, 1091.772
242.408, 1598.793
243.783, 2141.792
245.158, 2662.773
246.533, 3514.735
247.907, 4067.681
249.282, 4855.614
250.656, 5757.532
252.029, 7355.422
253.403, 9811.200
254.776, 11905.693
256.149, 12757.879
257.522, 11047.574
258.895, 7752.122
260.267, 5125.494
261.639, 3281.716
263.011, 2422.378
264.382, 1708.141
265.754, 1435.276
267.125, 1311.708
268.496, 1277.117
269.866, 1405.559
271.237, 1549.035
272.607, 1901.546
273.977, 2222.092
275.346, 2567.673
276.716, 3066.290
278.085, 3250.940
279.454, 3321.620
280.823, 2776.324
282.191, 2224.050
283.559, 1556.797
284.927, 1025.565
286.295, 739.356
287.662, 378.172
289.030, 385.013
290.397, 217.882
291.763, 161.778
293.130, 189.704
294.496, 102.661
295.862, 212.649
297.228, 108.669
298.594, 183.724
299.959, 77.859
301.324, 36.287
302.689, 73.001
304.053, 7.627
305.418, 60.014
306.782, 128.708
308.146, 342.444
309.509, 613.209
310.873, 983.990
312.236, 1589.781
313.599, 2158.579
314.961, 2814.382
316.324, 3082.190
317.686, 2957.988
319.048, 2687.754
320.409, 2021.490
321.771, 1555.204
323.132, 957.900
324.493, 668.583
325.854, 452.256
327.214, 226.922
328.574, 216.583
329.934, 62.241
331.294, 106.898
332.654, 36.554
334.013, 73.164
335.372, 77.530
336.731, 8.713
338.089, 37.816
339.448, 4.062
340.806, 2.070
342.164, 13.788
343.521, 13.638
344.879, 62.519
346.236, 11.696
347.593, 160.887
348.949, 158.099
350.306, 361.331
351.662, 538.582
353.018, 718.851
354.373, 1062.140
355.729, 1358.448
357.084, 1837.777
358.439, 2315.126
359.794, 2692.493
361.148, 2830.871
362.503, 2526.258
363.857, 2112.648
365.210, 1539.042
366.564, 1001.019
367.917, 665.104
369.270, 280.445
370.623, 102.569
371.976, 85.796
373.328, 164.602
374.680, 233.029
376.032, 252.666
377.384, 243.346
378.735, 228.068
380.086, 216.016
381.437, 206.724
382.788, 168.449
384.138, 187.333
385.488, 169.223
386.838, 157.127
388.188, 196.034
389.538, 160.955
390.887, 160.887
392.236, 140.827
393.585, 52.773
394.933, 48.704
396.282, 5.380
397.630, 71.485
398.977, 113.617
400.325, 306.760
401.672, 343.899
403.020, 603.028
404.366, 629.177
405.713, 869.356
407.059, 1127.566
408.406, 1410.805
409.752, 1897.076
411.097, 2088.377
412.443, 2668.709
413.788, 3087.074
415.133, 3233.469
416.478, 3354.898
417.822, 3095.272
419.167, 3154.518
420.511, 2850.646
421.854, 2620.678
423.198, 2451.641
424.541, 2439.547
425.884, 2570.393
427.227, 2599.198
428.570, 2893.023
429.912, 3167.891
431.254, 3731.805
432.596, 4459.765
433.938, 5255.770
435.280, 6670.822
436.621, 8106.921
437.962, 10093.063
439.303, 12259.254
440.643, 14095.491
441.983, 15911.773
443.323, 15738.102
444.663, 15524.476
446.003, 13620.900
447.342, 11657.368
448.681, 10353.883
450.020, 8750.447
451.359, 8257.053
452.697, 7983.711
454.035, 8090.413
455.373, 8747.164
456.711, 9033.964
458.048, 10280.806
459.386, 10747.699
460.723, 11944.639
462.059, 13261.554
463.396, 14057.357
464.732, 16254.329
466.068, 17228.020
467.404, 18734.854
468.740, 19622.010
470.075, 19169.209
471.410, 18646.447
472.745, 16113.718
474.080, 14171.026
475.414, 11358.372
476.748, 8845.753
478.082, 7083.173
479.416, 5278.648
480.749, 4386.165
482.083, 3395.724
483.416, 2873.351
484.749, 2522.024
486.081, 2194.751
487.413, 2128.545
488.745, 1879.404
490.077, 1916.332
491.409, 1934.331
492.740, 1924.410
494.072, 2150.252
495.402, 2119.502
496.733, 2462.844
498.064, 2761.917
499.394, 3070.263
500.724, 3585.930
502.054, 3833.068
503.383, 4400.488
504.712, 4547.053
506.041, 4777.002
507.370, 5026.217
508.699, 4922.348
510.027, 5220.581
511.355, 5149.895
512.683, 5358.282
514.011, 5734.768
515.338, 5703.320
516.666, 6278.966
517.993, 6317.689
519.319, 6637.487
520.646, 6807.381
521.972, 6817.336
523.298, 7297.355
524.624, 7187.458
525.950, 7827.618
527.275, 7967.865
528.600, 8318.179
529.925, 9398.559
531.250, 9569.064
532.574, 10554.956
533.898, 10996.502
535.222, 11734.188
536.546, 12090.792
537.869, 11878.139
539.193, 12346.581
540.516, 11855.899
541.839, 11636.732
543.161, 11479.103
544.484, 10703.412
545.806, 10956.371
547.128, 10321.440
548.449, 10663.783
549.771, 10687.484
551.092, 10501.382
552.413, 11786.244
553.734, 11805.744
555.054, 13185.521
556.374, 14127.077
557.694, 15598.731
559.014, 18270.434
560.334, 19562.182
561.653, 22003.975
562.972, 23275.818
564.291, 23647.705
565.610, 25099.641
566.928, 24201.617
568.247, 24983.648
569.565, 23805.723
570.882, 22507.842
572.200, 21220.012
573.517, 18412.223
574.834, 16424.473
576.151, 14046.779
577.468, 12179.122
578.784, 10681.517
580.100, 8843.954
581.416, 8136.440
582.732, 6968.971
584.047, 6371.549
585.362, 5883.176
586.677, 5134.850
587.992, 4995.568
589.307, 4404.336
590.621, 4291.150
591.935, 4108.010
593.249, 3801.917
594.563, 4013.868
595.876, 3708.865
597.189, 3944.906
598.502, 4297.994
599.815, 4413.125
601.127, 4925.302
602.440, 5086.521
603.752, 5589.782
605.064, 5850.090
606.375, 5601.439
607.686, 5770.831
608.998, 5661.267
610.308, 5916.743
611.619, 6171.259
612.930, 6393.818
614.240, 7103.419
615.550, 7127.060
616.860, 7820.741
618.169, 7734.463
619.478, 7278.224
620.787, 7022.025
622.096, 5906.872
623.405, 5753.759
624.713, 4870.701
626.021, 4595.685
627.329, 4488.706
628.637, 4113.764
629.945, 4425.860
631.252, 4407.993
632.559, 4602.162
633.866, 5136.369
635.172, 5212.611
636.479, 5786.241
637.785, 5539.737
639.091, 5476.732
640.396, 5298.919
641.702, 4473.773
643.007, 4217.008
644.312, 3545.131
645.617, 3009.130
646.921, 2835.140
648.226, 2294.470
649.530, 2230.070
650.834, 1900.056
652.137, 1895.574
653.441, 1912.360
654.744, 1668.775
656.047, 1968.233
657.350, 1714.428
658.652, 1911.148
659.954, 1978.984
661.256, 1978.926
662.558, 2138.053
663.860, 2066.292
665.161, 1929.269
666.462, 1942.561
667.763, 1640.577
669.064, 1725.083
670.365, 1712.551
671.665, 1427.115
672.965, 1254.712
674.265, 1098.052
675.564, 1086.278
676.864, 932.598
678.163, 922.468
679.462, 835.048
680.760, 760.667
682.059, 769.600
683.357, 607.150
684.655, 583.015
685.953, 514.785
687.250, 401.861
688.548, 423.128
689.845, 293.299
691.142, 233.539
692.438, 191.373
693.735, 181.385
695.031, 114.944
696.327, 33.813
697.623, 45.125
698.918, 26.411
700.214, 103.847
701.509, 23.094
702.804, 70.183
704.098, 51.550
705.393, 14.618
706.687, 17.803
707.981, 61.780
709.275, 16.634
710.568, 117.382
711.861, 199.134
713.155, 227.882
714.447, 467.623
715.740, 613.357
717.032, 692.084
718.325, 970.804
719.617, 1125.516
720.908, 1416.220
722.200, 1593.916
723.491, 1675.603
724.782, 1799.281
726.073, 1650.948
727.364, 1858.607
728.654, 1619.255
729.944, 1528.893
731.234, 1502.520
732.524, 1319.136
733.814, 1326.740
735.103, 1192.332
736.392, 1122.913
737.681, 1219.480
738.969, 1030.036
740.258, 966.578
741.546, 914.106
742.834, 984.621
744.122, 897.122
745.409, 804.608
746.697, 864.079
747.984, 743.536
749.270, 691.977
750.557, 721.402
751.844, 611.811
753.130, 567.204
754.416, 502.580
755.701, 499.939
756.987, 516.281
758.272, 354.606
759.557, 427.913
760.842, 358.201
762.127, 312.471
763.411, 393.723
764.695, 290.955
765.979, 311.168
767.263, 337.362
768.547, 270.535
769.830, 298.688
771.113, 222.822
772.396, 213.934
773.679, 312.025
774.961, 210.095
776.243, 236.144
777.525, 220.171
778.807, 171.176
780.089, 153.158
781.370, 96.118
782.651, 126.055
783.932, 109.969
785.213, 58.859
786.493, 108.726
787.773, 44.569
789.053, 31.388
790.333, 32.819
791.613, 21.915
792.892, 12.618
794.171, 68.716
795.450, 1.869
796.729, 18.589
798.007, 63.103
799.285, 59.695
800.563, 74.366
801.841, 78.123
803.119, 112.969
804.396, 101.922
805.673, 156.979
806.950, 144.166
808.227, 73.479
809.504, 104.881
810.780, 179.389
812.056, 107.041
813.332, 139.801
814.607, 108.686
815.883, 126.679
817.158, 143.792
818.433, 123.032
819.708, 175.389
820.982, 90.891
822.256, 66.493
823.531, 161.183
824.804, 35.009
826.078, 146.907
827.352, 78.934
828.625, 77.055
829.898, 142.269
831.170, 23.609
832.443, 35.014
833.715, 99.488
834.988, 9.067
836.259, 114.701
837.531, 8.447
838.803, 7.247
840.074, 92.102
841.345, 16.945
842.616, 94.049
843.886, 47.142
845.157, 24.309
846.427, 58.538
847.697, 46.154
848.966, 31.816
850.236, 26.556
851.505, 62.181
852.774, 9.720
854.043, 37.305
855.312, 28.402
856.580, 87.197
857.849, 24.544
859.117, 32.684
860.384, 10.262
861.652, 31.040
862.919, 62.312
864.186, 92.559
865.453, 89.827
866.720, 100.976
867.986, 89.146
869.253, 88.291
870.519, 133.411
871.784, 76.506
873.050, 107.576
874.315, 98.622
875.581, 159.643
876.846, 202.640
878.110, 140.612
879.375, 216.561
880.639, 196.486
881.903, 180.388
883.167, 258.266
884.431, 248.121
885.694, 274.953
886.957, 273.762
888.220, 286.548
889.483, 304.486
890.746, 270.054
892.008, 325.774
893.270, 327.472
894.532, 313.148
895.794, 346.802
897.056, 325.436
898.317, 360.048
899.578, 422.640
900.839, 346.211
902.099, 451.762
903.360, 380.292
904.620, 379.802
905.880, 435.293
907.140, 371.764
908.399, 419.216
909.659, 453.649
910.918, 481.062
912.177, 559.458
913.435, 448.834
914.694, 500.193
915.952, 611.534
917.210, 550.857
918.468, 687.163
919.726, 609.452
920.983, 630.724
922.240, 801.978
923.497, 696.217
924.754, 772.439
926.011, 841.646
927.267, 920.838
928.523, 961.016
929.779, 971.179
931.035, 1080.326
932.290, 1220.459
933.546, 1128.581
934.801, 1342.690
936.056, 1350.786
937.310, 1473.869
938.565, 1545.946
939.819, 1572.010
941.073, 1714.064
942.327, 1766.760
943.580, 2005.616
944.833, 2130.016
946.087, 2203.246
947.340, 2435.847
948.592, 2535.104
949.845, 2729.506
951.097, 3039.077
952.349, 3163.680
953.601, 3539.997
954.853, 3924.088
956.104, 4056.828
957.355, 4672.073
958.606, 5056.095
959.857, 5596.522
961.108, 6448.958
962.358, 7105.700
963.608, 8285.964
964.858, 9424.159
966.108, 10674.292
967.357, 12693.286
968.607, 13791.212
969.856, 16600.430
971.105, 18756.377
972.353, 20107.646
973.602, 22960.461
974.850, 22997.348
976.098, 23462.178
977.346, 23130.002
978.594, 21362.131
979.841, 20874.400
981.088, 19322.615
982.335, 18138.320
983.582, 18013.340
984.828, 16944.361
986.075, 17051.102
987.321, 17421.248
988.567, 16598.121
989.812, 17425.113
991.058, 16096.836
992.303, 15395.400
993.548, 14787.101
994.793, 13431.808
996.038, 13158.005
997.282, 12352.107
998.526, 12091.751
999.770, 12281.166
1001.014, 11697.472
1002.258, 12237.367
1003.501, 12696.122
1004.744, 13015.915
1005.987, 14175.610
1007.230, 14525.628
1008.473, 16105.415
1009.715, 17845.367
1010.957, 19383.615
1012.199, 22773.639
1013.441, 25363.793
1014.682, 28643.979
1015.923, 33914.199
1017.164, 36034.430
1018.405, 41114.695
1019.646, 43094.984
1020.886, 43285.297
1022.127, 45465.621
1023.367, 42575.988
1024.606, 41716.395
1025.846, 40296.797
1027.085, 36627.246
1028.325, 35827.719
1029.564, 32968.199
1030.802, 31048.723
1032.041, 30499.266
1033.279, 28639.834
1034.517, 28390.434
1035.755, 27581.055
1036.993, 26081.707
1038.230, 26682.381
1039.468, 25223.090
1040.705, 24773.822
1041.942, 24544.576
1043.178, 22695.363
1044.415, 22146.180
1045.651, 20537.018
1046.887, 18677.885
1048.123, 17828.783
1049.358, 15969.708
1050.594, 14860.665
1051.829, 13941.648
1053.064, 12102.658
1054.299, 11703.696
1055.533, 10444.765
1056.768, 9635.864
1058.002, 9466.991
1059.236, 8488.146
1060.469, 8239.333
1061.703, 7920.547
1062.936, 7441.793
1064.169, 7363.067
1065.402, 6949.373
1066.635, 6868.707
1067.867, 6812.072
1069.100, 6142.466
1070.332, 6342.892
1071.564, 6009.346
1072.795, 5618.837
1074.027, 5680.354
1075.258, 5195.212
1076.489, 5187.789
1077.720, 5022.398
1078.950, 4696.036
1080.181, 4740.717
1081.411, 4329.811
1082.641, 4286.991
1083.871, 4276.755
1085.100, 3809.693
1086.330, 3858.737
1087.559, 3748.598
1088.788, 3437.296
1090.016, 3460.167
1091.245, 3045.494
1092.473, 3006.666
1093.701, 2904.711
1094.929, 2709.766
1096.157, 2692.562
1097.384, 2676.546
1098.612, 2583.125
1099.839, 2923.276
1101.066, 2666.946
1102.292, 2902.193
1103.519, 3097.777
1104.745, 3176.204
1105.971, 3635.531
1107.197, 3961.082
1108.423, 4531.306
1109.648, 5390.476
1110.873, 6111.208
1112.098, 7440.740
1113.323, 8704.374
1114.548, 9970.252
1115.772, 11448.754
1116.996, 11542.483
1118.220, 11289.776
1119.444, 10689.147
1120.667, 9064.365
1121.891, 8111.808
1123.114, 7085.747
1124.337, 6182.345
1125.560, 5816.016
1126.782, 4911.910
1128.004, 4444.737
1129.227, 4132.287
1130.448, 3397.546
1131.670, 3209.113
1132.892, 2852.154
1134.113, 2485.214
1135.334, 2435.483
1136.555, 2150.650
1137.776, 2104.545
1138.996, 2172.439
1140.216, 2025.919
1141.436, 2273.343
1142.656, 2403.862
1143.876, 2530.403
1145.095, 2998.719
1146.315, 3192.873
1147.534, 3482.746
1148.753, 3465.154
1149.971, 3114.423
1151.190, 2951.166
1152.408, 2472.904
1153.626, 2054.095
1154.844, 1770.793
1156.061, 1455.643
1157.279, 1290.189
1158.496, 1216.691
1159.713, 1018.562
1160.930, 962.155
1162.146, 907.694
1163.363, 761.637
1164.579, 778.206
1165.795, 746.210
1167.010, 703.162
1168.226, 672.565
1169.441, 549.634
1170.657, 614.630
1171.871, 470.800
1173.086, 452.824
1174.301, 511.211
1175.515, 386.276
1176.729, 374.341
1177.943, 331.418
1179.157, 240.508
1180.370, 273.610
1181.584, 229.725
1182.797, 218.893
1184.010, 234.031
1185.222, 210.180
1186.435, 212.341
1187.647, 170.616
1188.859, 122.798
1190.071, 197.990
1191.283, 125.278
1192.494, 112.489
1193.706, 179.710
1194.917, 83.968
1196.128, 91.207
1197.338, 150.454
1198.549, 75.726
1199.759, 118.989
1200.969, 82.299
1202.179, 39.583
1203.389, 177.882
1204.598, 30.186
1205.807, 56.486
1207.016, 118.842
1208.225, 38.170
1209.434, 112.488
1210.642, 20.960
1211.850, 11.289
1213.058, 95.622
1214.266, 10.964
1215.474, 45.306
1216.681, 31.653
1217.889, 5.038
1219.096, 47.393
1220.302, 19.249
1221.509, 19.109
1222.715, 19.469
1223.922, 7.875
1225.128, 3.287
1226.334, 20.347
1227.539, 21.888
1228.745, 44.683
1229.950, 7.635
1231.155, 40.960
1232.360, 18.609
1233.564, 28.929
1234.769, 31.523
1235.973, 14.183
1237.177, 85.826
1238.381, 11.460
1239.584, 63.278
1240.787, 56.908
1241.991, 41.682
1243.194, 96.511
1244.396, 71.340
1245.599, 45.266
1246.801, 83.865
1248.004, 38.834
1249.206, 49.772
1250.407, 77.234
1251.609, 30.363
1252.810, 86.580
1254.012, 51.369
1255.212, 41.680
1256.413, 67.999
1257.614, 3.295
1258.814, 36.738
1260.014, 76.176
1261.214, 2.378
1262.414, 52.113
1263.614, 82.619
1264.813, 14.253
1266.012, 47.630
1267.211, 37.116
1268.410, 13.844
1269.609, 60.462
1270.807, 14.153
1272.005, 26.971
1273.203, 51.947
1274.401, 22.173
1275.598, 48.646
1276.796, 22.213
1277.993, 11.842
1279.190, 22.081
1280.387, 2.877
1281.583, 12.859
1282.780, 10.904
1283.976, 43.184
1285.172, 15.926
1286.368, 18.179
1287.563, 66.053
1288.759, 9.133
1289.954, 33.770
1291.149, 0.594
1292.343, 31.370
1293.538, 37.171
1294.732, 26.918
1295.927, 81.642
1297.121, 46.392
1298.314, 12.001
1299.508, 75.607
1300.701, 41.150
1301.895, 44.664
1303.087, 92.210
1304.280, 45.665
1305.473, 49.197
1306.665, 92.614
1307.857, 51.975
1309.049, 89.314
1310.241, 107.615
1311.433, 63.890
1312.624, 90.189
1313.815, 145.417
1315.006, 84.599
1316.197, 124.801
1317.388, 74.928
1318.578, 116.029
1319.768, 144.124
1320.958, 147.176
1322.148, 127.201
1323.338, 155.220
1324.527, 133.195
1325.716, 119.135
1326.906, 215.051
1328.094, 148.870
1329.283, 180.800
1330.471, 110.633
1331.660, 149.437
1332.848, 180.212
1334.035, 118.959
1335.223, 202.715
1336.411, 157.405
1337.598, 137.064
1338.785, 189.695
1339.972, 147.299
1341.158, 143.875
1342.345, 157.421
1343.531, 140.939
1344.717, 150.153
1345.903, 149.504
1347.089, 151.350
1348.274, 154.758
1349.459, 144.139
1350.644, 153.493
1351.829, 164.869
1353.014, 128.169
1354.198, 164.441
1355.383, 166.710
1356.567, 161.928
1357.751, 180.119
1358.934, 173.330
1360.118, 157.469
1361.301, 215.830
1362.484, 178.918
1363.667, 178.668
1364.850, 219.704
1366.032, 159.726
1367.215, 159.711
1368.397, 180.730
1369.579, 149.250
1370.760, 132.687
1371.942, 123.680
1373.123, 124.549
1374.304, 132.406
1375.485, 146.798
1376.666, 157.432
1377.847, 174.382
1379.027, 166.362
1380.207, 177.758
1381.387, 169.443
1382.567, 130.981
1383.747, 149.571
1384.926, 148.320
1386.105, 130.187
1387.284, 139.277
1388.463, 86.033
1389.641, 118.580
1390.820, 101.987
1391.998, 57.604
1393.176, 109.541
1394.354, 132.698
1395.532, 52.737
1396.709, 151.808
1397.886, 89.656
1399.063, 70.423
1400.240, 125.379
1401.417, 83.444
1402.593, 69.702
1403.769, 72.362
1404.945, 63.831
1406.121, 86.027
1407.297, 40.504
1408.472, 44.181
1409.648, 88.787
1410.823, 52.467
1411.998, 56.146
1413.172, 93.650
1414.347, 16.917
1415.521, 87.492
1416.695, 61.498
1417.869, 33.169
1419.043, 76.244
1420.216, 66.277
1421.390, 42.245
1422.563, 67.086
1423.736, 74.923
1424.909, 44.534
1426.081, 93.102
1427.254, 37.732
1428.426, 68.248
1429.598, 92.712
1430.770, 49.066
1431.941, 60.379
1433.113, 63.628
1434.284, 50.708
1435.455, 56.566
1436.626, 54.596
1437.796, 43.540
1438.967, 68.344
1440.137, 60.122
1441.307, 76.820
1442.477, 110.259
1443.646, 50.595
1444.816, 69.996
1445.985, 35.273
1447.154, 53.148
1448.323, 66.222
1449.492, 54.404
1450.660, 69.279
1451.829, 111.444
1452.997, 38.030
1454.165, 47.163
1455.332, 69.291
1456.500, 35.035
1457.667, 57.908
1458.834, 92.755
1460.001, 40.671
1461.168, 96.579
1462.335, 64.144
1463.501, 38.882
1464.667, 77.521
1465.833, 73.368
1466.999, 58.282
1468.165, 78.264
1469.330, 37.456
1470.495, 82.150
1471.660, 90.439
1472.825, 48.301
1473.990, 73.609
1475.154, 24.872
1476.318, 49.883
1477.482, 91.721
1478.646, 61.048
1479.810, 45.522
1480.974, 79.773
1482.137, 37.748
1483.300, 41.266
1484.463, 74.849
1485.626, 22.156
1486.788, 38.613
1487.950, 48.294
1489.113, 44.846
1490.275, 54.973
1491.436, 13.011
1492.598, 43.682
1493.759, 60.363
1494.920, 18.086
1496.081, 25.599
1497.242, 97.425
1498.403, 12.307
1499.563, 55.259
1500.724, 3.729
1501.884, 40.156
1503.043, 86.276
1504.203, 31.911
1505.363, 21.127
1506.522, 79.099
1507.681, 7.734
1508.840, 33.425
1509.999, 50.967
1511.157, 0.053
1512.315, 47.201
1513.474, 52.690
1514.632, 0.077
1515.789, 0.000
##END=



