##NAMES=Brazilianite
##RRUFFID=R050504
##IDEAL CHEMISTRY=NaAl_3_(PO_4_)_2_(OH)_4_
##LOCALITY=CÃ³rrego Frio, Minas Gerais, Brazil
##OWNER=RRUFF
##SOURCE=Marcus Origlieri
##DESCRIPTION=Yellowish green fragment
##STATUS=The identification of this mineral has been confirmed by X-ray diffraction and chemical analysis
##URL=rruff.info/R050504
##MEASURED CHEMISTRY=Na_1.00_Al_3.00_(P_1.00_O_4_)_2_(OH)_4_
##PIN_ID=L00677
##ORIENTATION=Laser parallel to -c* (0 0 -1). Fiducial mark perpendicular to laser is parallel to a [1 0 0]
72.47700, 0.0000000E+00
73.71400, 21.13818
74.95100, 341.5125
76.18700, 1031.976
77.42300, 1936.580
78.65900, 3244.774
79.89500, 4900.669
81.13100, 6949.782
82.36700, 9090.034
83.60200, 10613.74
84.83700, 11510.33
86.07200, 11552.09
87.30800, 11143.49
88.54200, 10702.12
89.77700, 9364.789
91.01200, 7935.594
92.24600, 7094.090
93.48000, 6984.435
94.71400, 7674.513
95.94800, 8457.672
97.18200, 9016.172
98.41600, 9619.350
99.64900, 11489.43
100.8830, 14525.49
102.1160, 17581.00
103.3490, 19427.64
104.5820, 17068.25
105.8150, 11965.30
107.0470, 7859.680
108.2800, 5653.290
109.5120, 3853.048
110.7440, 2219.864
111.9760, 1265.672
113.2080, 788.4194
114.4400, 727.0576
115.6710, 534.5413
116.9030, 261.8252
118.1340, 172.8628
119.3650, 27.89722
120.5960, 86.16797
121.8270, 155.5957
123.0580, 122.9919
124.2880, 114.3711
125.5190, 197.7329
126.7490, 241.0566
127.9790, 223.3184
129.2090, 243.9287
130.4390, 170.5786
131.6680, 195.5317
132.8980, 51.32227
134.1270, 9.094727
135.3560, 90.75293
136.5850, 221.6567
137.8140, 305.8066
139.0430, 446.0483
140.2710, 598.4087
141.5000, 751.7344
142.7280, 937.8701
143.9560, 1147.251
145.1840, 1335.880
146.4120, 1464.691
147.6390, 1293.584
148.8670, 1050.680
150.0940, 899.0259
151.3210, 865.6387
152.5490, 874.5210
153.7750, 828.6646
155.0020, 923.0547
156.2290, 1083.680
157.4550, 1225.531
158.6810, 1662.597
159.9080, 2393.841
161.1340, 3518.227
162.3590, 5213.737
163.5850, 7053.378
164.8110, 8623.639
166.0360, 9854.961
167.2610, 12393.27
168.4860, 16232.31
169.7110, 20593.95
170.9360, 23465.52
172.1610, 22774.03
173.3850, 17942.44
174.6100, 13056.69
175.8340, 9359.858
177.0580, 6486.106
178.2820, 4456.598
179.5050, 3035.348
180.7290, 2106.355
181.9520, 1532.619
183.1760, 1142.134
184.3990, 952.9004
185.6220, 931.9150
186.8450, 849.1763
188.0670, 884.7119
189.2900, 974.6333
190.5120, 997.9985
191.7340, 1144.885
192.9560, 1335.382
194.1780, 1804.521
195.4000, 1928.282
196.6220, 2123.526
197.8430, 2599.994
199.0640, 2808.623
200.2860, 3083.415
201.5070, 3385.372
202.7270, 3483.493
203.9480, 3653.779
205.1690, 3565.231
206.3890, 3701.850
207.6090, 3595.633
208.8290, 3409.584
210.0490, 3297.700
211.2690, 2958.982
212.4890, 2631.431
213.7080, 2428.044
214.9280, 2629.822
216.1470, 2882.767
217.3660, 3087.875
218.5850, 3137.148
219.8030, 2875.414
221.0220, 2740.917
222.2400, 2608.669
223.4590, 2697.627
224.6770, 2933.421
225.8950, 3222.822
227.1120, 3517.654
228.3300, 4010.780
229.5480, 3945.134
230.7650, 3698.675
231.9820, 3083.338
233.1990, 2352.013
234.4160, 1879.609
235.6330, 1793.133
236.8490, 1680.624
238.0660, 1816.116
239.2820, 1945.634
240.4980, 2382.196
241.7140, 2492.819
242.9300, 2642.353
244.1460, 2496.430
245.3610, 2017.118
246.5770, 1731.228
247.7920, 1550.799
249.0070, 1872.007
250.2220, 2082.244
251.4370, 2371.694
252.6510, 1916.352
253.8660, 1093.211
255.0800, 393.2681
256.2940, 144.4839
257.5080, 383.0933
258.7220, 470.6191
259.9360, 513.0840
261.1490, 680.5015
262.3630, 594.9150
263.5760, 418.3071
264.7890, 229.6392
266.0020, 129.9619
267.2150, 405.6616
268.4270, 766.8037
269.6400, 978.9468
270.8520, 1164.793
272.0640, 1258.348
273.2760, 1580.794
274.4880, 2194.461
275.7000, 2785.265
276.9120, 3104.323
278.1230, 3363.293
279.3340, 3705.340
280.5450, 3595.662
281.7560, 3414.087
282.9670, 3166.641
284.1780, 2984.322
285.3880, 2601.132
286.5980, 2015.068
287.8090, 1539.132
289.0190, 1218.321
290.2290, 999.6362
291.4380, 818.0767
292.6480, 804.6421
293.8570, 747.3320
295.0670, 869.1484
296.2760, 690.0889
297.4850, 724.1538
298.6930, 795.3428
299.9020, 1016.654
301.1110, 995.6982
302.3190, 1172.672
303.5270, 1582.290
304.7350, 2017.751
305.9430, 2627.373
307.1510, 3368.908
308.3580, 4211.965
309.5660, 5207.007
310.7730, 6171.259
311.9800, 7062.492
313.1870, 7548.788
314.3940, 8007.708
315.6010, 8310.841
316.8070, 8525.990
318.0130, 8903.102
319.2200, 9208.409
320.4260, 9232.317
321.6310, 9222.506
322.8370, 8719.823
324.0430, 8334.273
325.2480, 7699.854
326.4540, 7110.563
327.6590, 6619.400
328.8640, 6057.367
330.0680, 5401.458
331.2730, 4968.677
332.4780, 4566.020
333.6820, 4107.489
334.8860, 3871.079
336.0900, 3419.791
337.2940, 3300.623
338.4980, 3175.571
339.7010, 3213.632
340.9050, 3414.184
342.1080, 3863.090
343.3110, 4161.483
344.5140, 4890.985
345.7170, 5615.594
346.9200, 6912.312
348.1220, 8285.138
349.3240, 9975.068
350.5270, 11810.11
351.7290, 13812.25
352.9310, 16180.51
354.1320, 18245.87
355.3340, 20203.33
356.5350, 21012.89
357.7370, 20599.56
358.9380, 18886.34
360.1390, 16248.21
361.3400, 13260.20
362.5400, 10487.28
363.7410, 8220.467
364.9410, 6407.787
366.1410, 4909.228
367.3410, 3795.782
368.5410, 2804.442
369.7410, 1834.205
370.9400, 1184.068
372.1400, 764.0283
373.3390, 649.0859
374.5380, 513.2393
375.7370, 550.4888
376.9360, 694.8325
378.1350, 944.2715
379.3330, 1195.808
380.5310, 1371.438
381.7300, 1258.167
382.9280, 1311.994
384.1260, 1201.917
385.3230, 1002.938
386.5210, 982.0557
387.7180, 787.2725
388.9160, 889.5894
390.1130, 974.0088
391.3100, 1166.534
392.5060, 1507.167
393.7030, 1841.911
394.9000, 2322.765
396.0960, 2843.729
397.2920, 3407.801
398.4880, 3934.982
399.6840, 4743.273
400.8800, 5518.528
402.0750, 6151.203
403.2710, 7029.279
404.4660, 7762.206
405.6610, 8393.814
406.8560, 9369.619
408.0510, 9645.226
409.2450, 10321.28
410.4400, 10448.69
411.6340, 10626.28
412.8280, 10376.07
414.0220, 9895.054
415.2160, 9361.229
416.4100, 8832.627
417.6030, 8458.904
418.7970, 8088.060
419.9900, 7810.110
421.1830, 7528.387
422.3760, 7402.891
423.5690, 7156.595
424.7610, 6745.488
425.9540, 6136.546
427.1460, 5246.762
428.3380, 4607.135
429.5300, 3889.662
430.7220, 3321.346
431.9140, 2892.175
433.1050, 2515.176
434.2970, 2147.330
435.4880, 1863.650
436.6790, 1584.126
437.8700, 1311.773
439.0610, 998.5771
440.2510, 659.5537
441.4420, 415.6812
442.6320, 205.9502
443.8220, 14.62646
445.0120, 44.09375
446.2020, 137.4380
447.3910, 262.7051
448.5810, 176.9517
449.7700, 237.1577
450.9600, 345.3501
452.1490, 262.5786
453.3370, 404.8130
454.5260, 501.1123
455.7150, 434.5220
456.9030, 432.0103
458.0910, 416.7139
459.2800, 543.2119
460.4670, 291.9824
461.6550, 189.7744
462.8430, 23.54590
464.0300, 229.7622
465.2180, 445.1626
466.4050, 685.6548
467.5920, 867.2388
468.7790, 1036.913
469.9650, 1017.678
471.1520, 1178.533
472.3380, 1159.476
473.5250, 1148.509
474.7110, 1145.630
475.8970, 1261.839
477.0820, 1352.134
478.2680, 1550.517
479.4540, 1689.986
480.6390, 1966.540
481.8240, 2081.179
483.0090, 2424.902
484.1940, 2566.710
485.3780, 3041.601
486.5630, 3510.572
487.7470, 3929.628
488.9320, 4433.764
490.1160, 5105.981
491.3000, 5871.278
492.4830, 6780.654
493.6670, 7662.107
494.8500, 8608.643
496.0340, 9463.253
497.2170, 10373.94
498.4000, 10950.71
499.5820, 11743.55
500.7650, 12157.46
501.9480, 12565.45
503.1300, 12750.51
504.3120, 12679.65
505.4940, 12933.86
506.6760, 12955.14
507.8580, 13200.49
509.0390, 13485.91
510.2210, 13610.41
511.4020, 13934.97
512.5830, 14198.60
513.7640, 14427.29
514.9450, 14674.05
516.1250, 15277.88
517.3060, 15615.78
518.4860, 16080.74
519.6660, 17018.76
520.8460, 17766.85
522.0260, 18786.00
523.2060, 20205.22
524.3850, 21435.49
525.5650, 22462.83
526.7440, 24106.22
527.9230, 25057.68
529.1020, 26150.20
530.2810, 27044.77
531.4590, 26822.41
532.6380, 26695.10
533.8160, 26317.84
534.9940, 25210.64
536.1720, 24058.49
537.3500, 22482.39
538.5270, 20939.36
539.7050, 19668.39
540.8820, 18791.86
542.0590, 17609.14
543.2360, 16998.78
544.4130, 16495.60
545.5900, 16503.29
546.7660, 16897.16
547.9430, 17688.28
549.1190, 18588.16
550.2950, 20007.23
551.4710, 21639.88
552.6470, 23743.13
553.8220, 26243.17
554.9980, 28814.67
556.1730, 30643.80
557.3480, 32202.05
558.5230, 32913.38
559.6980, 33272.31
560.8730, 33436.18
562.0470, 33327.38
563.2220, 32980.84
564.3960, 32246.83
565.5700, 30927.60
566.7440, 28777.58
567.9170, 26729.18
569.0910, 24015.81
570.2640, 21791.15
571.4380, 19403.05
572.6110, 17336.58
573.7840, 15809.22
574.9570, 14674.94
576.1290, 13748.96
577.3020, 13371.14
578.4740, 13394.58
579.6460, 13365.43
580.8180, 13996.50
581.9900, 14914.36
583.1620, 15790.37
584.3330, 17557.16
585.5040, 19075.18
586.6760, 21170.68
587.8470, 24185.30
589.0180, 27485.02
590.1880, 31316.81
591.3590, 35807.12
592.5290, 40291.46
593.7000, 44742.07
594.8700, 48296.77
596.0400, 51649.93
597.2090, 53056.75
598.3790, 52322.75
599.5490, 49132.66
600.7180, 44397.45
601.8870, 38475.22
603.0560, 32378.32
604.2250, 27349.64
605.3940, 23015.78
606.5620, 19535.93
607.7300, 16928.09
608.8990, 14630.25
610.0670, 12540.43
611.2350, 11167.62
612.4020, 9626.836
613.5700, 8813.071
614.7370, 8057.311
615.9050, 7457.569
617.0720, 7102.842
618.2390, 6735.106
619.4060, 6539.384
620.5720, 6326.653
621.7390, 6216.909
622.9050, 6279.142
624.0710, 6070.359
625.2370, 5983.556
626.4030, 6264.739
627.5690, 6268.902
628.7340, 6275.041
629.9000, 6385.154
631.0650, 6354.243
632.2300, 6397.306
633.3950, 6251.341
634.5600, 6138.350
635.7240, 5742.330
636.8890, 5352.279
638.0530, 4934.198
639.2170, 4489.087
640.3810, 4213.029
641.5450, 3783.771
642.7080, 3696.564
643.8720, 3416.322
645.0350, 3240.047
646.1980, 3089.736
647.3610, 3281.389
648.5240, 3167.005
649.6870, 3172.584
650.8490, 3237.124
652.0120, 3264.625
653.1740, 3230.088
654.3360, 3384.510
655.4980, 3363.892
656.6600, 3427.230
657.8210, 3310.527
658.9830, 3257.781
660.1440, 3114.964
661.3050, 2859.156
662.4660, 2717.277
663.6270, 2428.352
664.7870, 2150.380
665.9480, 1830.361
667.1080, 1598.294
668.2680, 1324.180
669.4280, 1134.016
670.5880, 980.8018
671.7480, 782.5376
672.9070, 705.2227
674.0670, 484.9756
675.2260, 463.5566
676.3850, 381.0854
677.5440, 301.8174
678.7030, 261.7085
679.8610, 179.2734
681.0200, 116.3115
682.1780, 185.2051
683.3360, 109.4604
684.4940, 129.2939
685.6520, 84.32422
686.8090, 134.5054
687.9670, 12.69678
689.1240, 13.71826
690.2810, 26.79980
691.4380, 47.10596
692.5950, 41.32568
693.7520, 1.357910
694.9080, 38.62988
696.0650, 70.04736
697.2210, 21.79443
698.3770, 29.08838
699.5330, 58.23486
700.6880, 125.5088
701.8440, 111.7368
702.9990, 150.7666
704.1550, 129.7393
705.3100, 115.6343
706.4650, 76.07422
707.6190, 75.52686
708.7740, 69.29199
709.9290, 77.45020
711.0830, 38.52100
712.2370, 135.0308
713.3910, 71.75977
714.5450, 123.6680
715.6980, 77.76123
716.8520, 145.0596
718.0050, 87.49756
719.1580, 154.2056
720.3110, 71.13818
721.4640, 41.25244
722.6170, 85.53174
723.7700, 31.99854
724.9220, 55.59229
726.0740, 2.256348
727.2260, 16.86963
728.3780, 98.82227
729.5300, 132.0596
730.6810, 160.0308
731.8330, 216.7500
732.9840, 205.2686
734.1350, 231.6489
735.2860, 233.2300
736.4370, 232.6177
737.5880, 322.2148
738.7380, 362.5503
739.8880, 436.0303
741.0390, 348.5225
742.1890, 397.7041
743.3380, 416.9736
744.4880, 447.5181
745.6380, 452.7339
746.7870, 519.3467
747.9360, 607.6475
749.0850, 610.5347
750.2340, 706.8335
751.3830, 771.2925
752.5310, 742.5908
753.6800, 787.9302
754.8280, 772.5859
755.9760, 877.7964
757.1240, 882.3296
758.2720, 965.3999
759.4190, 1015.579
760.5670, 1097.077
761.7140, 1075.703
762.8610, 1105.588
764.0080, 1082.876
765.1550, 1162.237
766.3020, 1089.326
767.4480, 1257.315
768.5950, 1119.220
769.7410, 1117.040
770.8870, 1154.776
772.0330, 1120.427
773.1780, 1134.994
774.3240, 1049.477
775.4690, 1044.497
776.6140, 909.1895
777.7590, 1003.421
778.9040, 902.5693
780.0490, 908.6333
781.1940, 930.6147
782.3380, 867.5127
783.4820, 832.3286
784.6260, 868.0610
785.7700, 949.7114
786.9140, 1055.279
788.0580, 879.7656
789.2010, 962.1704
790.3450, 886.4937
791.4880, 924.7358
792.6310, 912.8975
793.7730, 997.9780
794.9160, 984.9785
796.0590, 1013.898
797.2010, 899.7388
798.3430, 1055.499
799.4850, 877.1812
800.6270, 851.7847
801.7690, 816.3091
802.9100, 715.7554
804.0520, 678.1245
805.1930, 658.4160
806.3340, 665.6309
807.4750, 534.7686
808.6160, 632.8296
809.7560, 464.8154
810.8970, 399.7261
812.0370, 516.5601
813.1770, 422.3193
814.3170, 375.0034
815.4570, 346.6113
816.5960, 376.1416
817.7360, 309.1880
818.8750, 314.4121
820.0140, 382.2866
821.1530, 298.0664
822.2920, 396.0703
823.4310, 348.9702
824.5690, 334.8096
825.7070, 334.9917
826.8460, 220.0630
827.9840, 286.5845
829.1220, 208.4790
830.2590, 279.5566
831.3970, 228.1489
832.5340, 241.0640
833.6710, 247.8481
834.8080, 186.5068
835.9450, 241.5508
837.0820, 148.6201
838.2190, 185.3120
839.3550, 286.7290
840.4910, 187.5703
841.6270, 131.6069
842.7630, 66.40527
843.8990, 131.5396
845.0350, 72.59863
846.1700, 147.9282
847.3060, 100.6494
848.4410, 126.7192
849.5760, 147.6445
850.7100, 112.4600
851.8450, 78.94043
852.9800, 102.2305
854.1140, 36.23096
855.2480, 47.78027
856.3820, 168.0879
857.5160, 153.5605
858.6500, 56.86475
859.7830, 87.34912
860.9170, 37.95752
862.0500, 12.25293
863.1830, 57.86084
864.3160, 36.37646
865.4480, 64.78223
866.5810, 13.45996
867.7130, 94.74951
868.8460, 76.16895
869.9780, 54.89795
871.1100, 80.32812
872.2410, 95.85156
873.3730, 167.5117
874.5050, 149.3188
875.6360, 37.94824
876.7670, 121.4438
877.8980, 80.38086
879.0290, 85.04883
880.1590, 113.7256
881.2900, 43.46777
882.4200, 121.2461
883.5500, 154.0898
884.6800, 44.01416
885.8100, 194.9712
886.9400, 167.0259
888.0690, 110.1626
889.1990, 154.3540
890.3280, 163.6172
891.4570, 44.95557
892.5860, 168.3208
893.7140, 47.76025
894.8430, 22.22461
895.9710, 47.29443
897.1000, 6.194336
898.2280, 22.69434
899.3560, 41.20850
900.4830, 6.740723
901.6110, 9.718262
902.7380, 31.17139
903.8660, 78.62207
904.9930, 82.07031
906.1200, 80.51660
907.2460, 54.96143
908.3730, 196.4067
909.5000, 221.8521
910.6260, 185.2988
911.7520, 182.7480
912.8780, 316.1997
914.0040, 405.6553
915.1290, 412.1143
916.2550, 470.5786
917.3800, 510.0493
918.5050, 501.5254
919.6300, 555.0088
920.7550, 652.5010
921.8800, 678.0010
923.0040, 790.5112
924.1290, 877.0327
925.2530, 943.5693
926.3770, 1087.122
927.5010, 1214.688
928.6250, 1470.271
929.7480, 1530.869
930.8720, 1790.480
931.9950, 1927.120
933.1180, 2162.784
934.2410, 2511.479
935.3640, 2804.193
936.4860, 3334.927
937.6090, 3793.682
938.7310, 4374.477
939.8530, 4864.292
940.9750, 5559.130
942.0970, 6183.009
943.2180, 6855.916
944.3400, 7750.849
945.4610, 8481.829
946.5820, 9060.728
947.7030, 9589.787
948.8240, 9872.872
949.9450, 10036.73
951.0650, 10330.41
952.1860, 10207.40
953.3060, 10031.90
954.4260, 9967.524
955.5460, 9852.769
956.6650, 9682.412
957.7850, 9575.839
958.9040, 9672.083
960.0230, 10013.30
961.1420, 10320.63
962.2610, 11190.87
963.3800, 12182.05
964.4990, 13072.47
965.6170, 14594.94
966.7350, 16076.02
967.8530, 17937.48
968.9710, 19652.22
970.0890, 21077.43
971.2070, 22274.45
972.3240, 23365.53
973.4410, 23657.49
974.5580, 24098.19
975.6750, 24441.75
976.7920, 24262.01
977.9090, 24728.06
979.0250, 25266.89
980.1410, 26291.98
981.2580, 28129.38
982.3740, 30682.63
983.4890, 33144.27
984.6050, 36277.07
985.7200, 38599.96
986.8360, 40301.96
987.9510, 40199.12
989.0660, 38886.34
990.1810, 36097.80
991.2950, 31914.37
992.4100, 27764.06
993.5240, 24121.88
994.6390, 20738.81
995.7530, 18514.84
996.8660, 16565.87
997.9800, 15265.10
999.0940, 14600.49
1000.207, 14267.58
1001.320, 14377.04
1002.433, 14719.73
1003.546, 15298.67
1004.659, 16254.79
1005.772, 17833.80
1006.884, 19550.06
1007.996, 21468.17
1009.108, 24295.61
1010.220, 28393.98
1011.332, 31237.39
1012.444, 35176.12
1013.555, 39257.77
1014.666, 43347.11
1015.777, 46786.77
1016.888, 49147.00
1017.999, 50574.54
1019.110, 50680.46
1020.220, 49731.95
1021.331, 47662.27
1022.441, 44847.72
1023.551, 41631.11
1024.661, 38255.18
1025.770, 35539.67
1026.880, 32960.84
1027.989, 30418.44
1029.098, 28195.93
1030.207, 26355.08
1031.316, 24666.07
1032.425, 23163.79
1033.533, 21918.09
1034.642, 20723.30
1035.750, 19595.76
1036.858, 18639.16
1037.966, 17875.92
1039.073, 16892.60
1040.181, 16126.34
1041.288, 15313.16
1042.396, 14144.04
1043.503, 13358.99
1044.610, 12370.00
1045.716, 11507.09
1046.823, 10613.24
1047.929, 9951.465
1049.036, 9202.752
1050.142, 8755.108
1051.248, 8361.533
1052.353, 7976.028
1053.459, 7718.588
1054.564, 7688.214
1055.670, 7731.911
1056.775, 7706.976
1057.880, 7916.363
1058.985, 8099.870
1060.089, 8427.285
1061.194, 8794.677
1062.298, 8972.797
1063.402, 9074.970
1064.506, 9504.799
1065.610, 9704.666
1066.713, 10215.77
1067.817, 10596.83
1068.920, 11094.33
1070.023, 11273.99
1071.126, 11614.33
1072.229, 11906.53
1073.332, 12328.96
1074.435, 12391.90
1075.537, 12639.78
1076.639, 12805.02
1077.741, 12775.37
1078.843, 12849.25
1079.945, 12896.43
1081.046, 12850.66
1082.148, 12803.95
1083.249, 12517.33
1084.350, 12269.69
1085.451, 12046.07
1086.551, 11703.61
1087.652, 11387.73
1088.752, 10974.84
1089.853, 10452.09
1090.953, 9938.358
1092.053, 9372.347
1093.152, 9043.643
1094.252, 8635.427
1095.351, 7946.497
1096.451, 7776.205
1097.550, 7333.243
1098.649, 6998.113
1099.748, 6842.672
1100.846, 6533.746
1101.945, 6381.181
1103.043, 6343.802
1104.141, 6176.983
1105.239, 6303.364
1106.337, 6329.424
1107.434, 6455.358
1108.532, 6969.851
1109.629, 7496.419
1110.726, 7850.986
1111.823, 8575.043
1112.920, 9362.045
1114.017, 9875.279
1115.113, 10340.20
1116.210, 9971.580
1117.306, 9564.152
1118.402, 8819.912
1119.498, 7852.896
1120.593, 6713.882
1121.689, 6045.023
1122.784, 5239.115
1123.879, 4709.753
1124.974, 4165.121
1126.069, 3802.101
1127.164, 3552.101
1128.259, 3296.641
1129.353, 2914.430
1130.447, 2839.113
1131.541, 2771.577
1132.635, 2438.986
1133.729, 2354.904
1134.822, 2166.867
1135.916, 2155.237
1137.009, 2179.906
1138.102, 1960.932
1139.195, 1968.013
1140.288, 1962.166
1141.380, 1987.400
1142.473, 1798.944
1143.565, 1816.396
1144.657, 1770.396
1145.749, 1837.568
1146.841, 1773.693
1147.932, 1712.440
1149.024, 1666.429
1150.115, 1464.961
1151.206, 1530.805
1152.297, 1302.536
1153.388, 1435.327
1154.479, 1184.665
1155.569, 1097.640
1156.659, 1071.973
1157.750, 988.3320
1158.839, 977.9819
1159.929, 930.3950
1161.019, 871.6416
1162.108, 833.7607
1163.198, 763.0474
1164.287, 727.5557
1165.376, 636.2769
1166.465, 645.5005
1167.553, 608.7451
1168.642, 565.0107
1169.730, 492.2964
1170.818, 425.0479
1171.906, 467.3691
1172.994, 397.7075
1174.082, 351.3442
1175.170, 289.4360
1176.257, 234.8872
1177.344, 174.2944
1178.431, 133.7163
1179.518, 156.1523
1180.605, 96.60156
1181.691, 124.0635
1182.778, 71.53809
1183.864, 109.0244
1184.950, 42.52197
1186.036, 71.03125
1187.122, 19.45020
1188.207, 30.92529
1189.292, 32.39893
1190.378, 25.21631
1191.463, 20.27881
1192.548, 4.192383
1193.632, 12.73145
1194.717, 81.72314
1195.801, 56.19775
1196.886, 81.68262
1197.970, 27.18994
1199.054, 48.29980
1200.137, 2.206055
1201.221, 113.7109
1202.305, 5.256348
1203.388, 6.197266
1204.471, 97.34717
1205.554, 30.92920
1206.637, 9.488770
1207.719, 113.0850
1208.802, 65.73096
1209.884, 68.40479
1210.966, 22.89111
1212.048, 42.20264
1213.130, 63.50439
1214.212, 41.15967
1215.293, 38.92188
1216.374, 58.35400
1217.456, 46.52881
1218.536, 25.30566
1219.617, 61.16895
1220.698, 23.07666
1221.778, 51.00684
1222.859, 2.040039
1223.939, 58.93896
1225.019, 15.43213
1226.099, 17.55273
1227.178, 37.60986
1228.258, 3.295898
1229.337, 72.81543
1230.417, 29.98486
1231.496, 29.80859
1232.574, 33.38135
1233.653, 23.63965
1234.732, 87.71826
1235.810, 48.03369
1236.888, 59.29492
1237.966, 33.72900
1239.044, 64.20117
1240.122, 13.71289
1241.199, 34.93018
1242.277, 68.05273
1243.354, 64.61426
1244.431, 25.37109
1245.508, 62.17822
1246.585, 42.94189
1247.661, 4.4922002E-02
1248.738, 80.81543
1249.814, 62.83203
1250.890, 94.92480
1251.966, 45.11426
1253.042, 3.057129
1254.117, 76.31787
1255.193, 59.38867
1256.268, 2.737305
