##NAMES=Brazilianite
##RRUFFID=R050319
##IDEAL CHEMISTRY=NaAl_3_(PO_4_)_2_(OH)_4_
##LOCALITY=Minas Gerais, Brazil
##OWNER=RRUFF
##SOURCE=American Museum of Natural History
##DESCRIPTION=Pale green fragment
##STATUS=The identification of this mineral has been confirmed by X-ray diffraction and chemical analysis
##URL=rruff.info/R050319
##MEASURED CHEMISTRY=Na_1.00_Al_3.00_(PO_4_)_2_(OH)_4_
##PIN_ID=M00183
##ORIENTATION=Laser parallel to a* (1 0 0). Fiducial mark perpendicular to laser is parallel to -b [0 -1 0]
86.07200, 0.0000000E+00
87.30800, 66.12354
88.54200, 223.0234
89.77700, 181.8794
91.01200, 208.1431
92.24600, 208.3589
93.48000, 4.996094
94.71400, 143.2603
95.94800, 24.84668
97.18200, 6.040527
98.41600, 20.13721
99.64900, 34.25537
100.8830, 11.95947
102.1160, 59.94971
103.3490, 202.9731
104.5820, 201.8169
105.8150, 362.3149
107.0470, 534.3413
108.2800, 526.5815
109.5120, 599.4209
110.7440, 553.5371
111.9760, 580.6392
113.2080, 527.7710
114.4400, 484.8530
115.6710, 502.8110
116.9030, 419.5796
118.1340, 429.0972
119.3650, 353.3096
120.5960, 213.1689
121.8270, 254.6313
123.0580, 233.7495
124.2880, 221.4038
125.5190, 315.7202
126.7490, 393.6685
127.9790, 442.2393
129.2090, 284.3906
130.4390, 421.0693
131.6680, 285.2261
132.8980, 249.8218
134.1270, 401.8198
135.3560, 384.1895
136.5850, 486.9019
137.8140, 765.9331
139.0430, 822.6577
140.2710, 1129.868
141.5000, 1127.734
142.7280, 1255.844
143.9560, 1390.183
145.1840, 1370.740
146.4120, 1389.501
147.6390, 1216.456
148.8670, 1271.594
150.0940, 1001.906
151.3210, 945.3848
152.5490, 751.0205
153.7750, 860.8071
155.0020, 758.7383
156.2290, 744.8066
157.4550, 882.1118
158.6810, 1252.229
159.9080, 1860.890
161.1340, 2740.739
162.3590, 4232.021
163.5850, 5769.814
164.8110, 6999.211
166.0360, 7730.113
167.2610, 8631.410
168.4860, 10208.05
169.7110, 11732.81
170.9360, 12214.56
172.1610, 11561.24
173.3850, 10433.86
174.6100, 9072.438
175.8340, 7393.968
177.0580, 5515.465
178.2820, 3931.934
179.5050, 2860.378
180.7290, 1978.799
181.9520, 1600.207
183.1760, 1339.599
184.3990, 1060.981
185.6220, 1008.356
186.8450, 884.7256
188.0670, 881.0933
189.2900, 736.4604
190.5120, 764.8281
191.7340, 711.1997
192.9560, 639.5762
194.1780, 685.9590
195.4000, 575.3486
196.6220, 589.7476
197.8430, 591.1562
199.0640, 546.5747
200.2860, 546.0039
201.5070, 630.4438
202.7270, 518.8950
203.9480, 495.3579
205.1690, 431.8315
206.3890, 500.3125
207.6090, 415.8159
208.8290, 768.3271
210.0490, 780.8516
211.2690, 1076.388
212.4890, 1113.938
213.7080, 1453.503
214.9280, 1537.081
216.1470, 1762.674
217.3660, 1863.282
218.5850, 1830.905
219.8030, 1688.543
221.0220, 1586.197
222.2400, 1268.867
223.4590, 1091.555
224.6770, 887.2578
225.8950, 703.9775
227.1120, 607.7158
228.3300, 533.8755
229.5480, 549.2876
230.7650, 565.8999
231.9820, 715.0703
233.1990, 846.2314
234.4160, 1053.256
235.6330, 1188.007
236.8490, 1325.395
238.0660, 1574.690
239.2820, 2018.784
240.4980, 2522.657
241.7140, 3189.225
242.9300, 4240.165
244.1460, 5087.130
245.3610, 5616.657
246.5770, 6045.937
247.7920, 6236.497
249.0070, 6958.637
250.2220, 7628.081
251.4370, 7527.383
252.6510, 6830.349
253.8660, 6013.222
255.0800, 5058.507
256.2940, 3939.900
257.5080, 2914.392
258.7220, 1936.980
259.9360, 1596.658
261.1490, 1087.423
262.3630, 807.2715
263.5760, 852.1973
264.7890, 916.2002
266.0020, 959.2754
267.2150, 1094.850
268.4270, 1370.634
269.6400, 1446.912
270.8520, 1554.253
272.0640, 1867.653
273.2760, 1946.111
274.4880, 1961.624
275.7000, 1952.965
276.9120, 1658.807
278.1230, 1605.472
279.3340, 1391.185
280.5450, 984.9414
281.7560, 822.7437
282.9670, 534.5879
284.1780, 473.4736
285.3880, 247.4004
286.5980, 310.3657
287.8090, 173.3691
289.0190, 115.4106
290.2290, 142.4873
291.4380, 303.5991
292.6480, 252.7466
293.8570, 283.9272
295.0670, 351.1416
296.2760, 270.3887
297.4850, 378.6670
298.6930, 245.9771
299.9020, 311.3179
301.1110, 273.6895
302.3190, 540.0908
303.5270, 565.5215
304.7350, 717.9771
305.9430, 907.4556
307.1510, 1076.957
308.3580, 1297.478
309.5660, 1592.017
310.7730, 1465.572
311.9800, 1634.141
313.1870, 1586.722
314.3940, 1513.313
315.6010, 1247.915
316.8070, 1041.527
318.0130, 796.1504
319.2200, 712.7847
320.4260, 507.4307
321.6310, 439.0889
322.8370, 336.7588
324.0430, 287.4424
325.2480, 456.1382
326.4540, 270.8477
327.6590, 370.5703
328.8640, 328.3066
330.0680, 355.0566
331.2730, 485.8213
332.4780, 360.6006
333.6820, 432.3936
334.8860, 400.2012
336.0900, 489.0244
337.2940, 426.8633
338.4980, 531.7168
339.7010, 396.5850
340.9050, 627.4688
342.1080, 593.3682
343.3110, 514.2842
344.5140, 672.2158
345.7170, 789.1631
346.9200, 828.1270
348.1220, 1182.106
349.3240, 1235.104
350.5270, 1412.115
351.7290, 1607.146
352.9310, 1821.191
354.1320, 1872.255
355.3340, 1855.336
356.5350, 1936.433
357.7370, 1652.548
358.9380, 1519.681
360.1390, 1242.830
361.3400, 853.9990
362.5400, 566.1836
363.7410, 446.3877
364.9410, 291.6094
366.1410, 124.8506
367.3410, 12.89062
368.5410, 90.62891
369.7410, 146.3818
370.9400, 197.1621
372.1400, 76.98242
373.3390, 150.8643
374.5380, 147.8818
375.7370, 64.00488
376.9360, 71.20703
378.1350, 113.4238
379.3330, 137.6738
380.5310, 229.9707
381.7300, 326.3613
382.9280, 266.8936
384.1260, 244.5381
385.3230, 369.2852
386.5210, 346.1973
387.7180, 251.2607
388.9160, 291.4316
390.1130, 233.7305
391.3100, 150.1289
392.5060, 227.5850
393.7030, 214.1387
394.9000, 29.78125
396.0960, 2.427734
397.2920, 0.9355470
398.4880, 167.3105
399.6840, 328.7178
400.8800, 400.1592
402.0750, 704.6377
403.2710, 883.1484
404.4660, 1211.691
405.6610, 1388.269
406.8560, 1820.894
408.0510, 1960.552
409.2450, 2177.242
410.4400, 2247.988
411.6340, 2314.937
412.8280, 2439.693
414.0220, 2340.625
415.2160, 2260.634
416.4100, 2235.711
417.6030, 2254.875
418.7970, 2193.116
419.9900, 2025.453
421.1830, 1971.868
422.3760, 2173.324
423.5690, 2334.840
424.7610, 2691.431
425.9540, 2921.082
427.1460, 3545.765
428.3380, 4068.482
429.5300, 4807.230
430.7220, 5866.012
431.9140, 6684.826
433.1050, 7664.673
434.2970, 8406.551
435.4880, 9468.465
436.6790, 10024.41
437.8700, 10107.39
439.0610, 10091.40
440.2510, 9806.443
441.4420, 8959.521
442.6320, 7982.633
443.8220, 7314.775
445.0120, 6665.951
446.2020, 6042.161
447.3910, 5611.404
448.5810, 5599.682
449.7700, 5665.992
450.9600, 5948.335
452.1490, 6496.713
453.3370, 6966.125
454.5260, 7794.568
455.7150, 8547.047
456.9030, 9129.560
458.0910, 10329.11
459.2800, 10855.69
460.4670, 11488.30
461.6550, 11902.96
462.8430, 12308.64
464.0300, 12376.36
465.2180, 12155.11
466.4050, 11331.90
467.5920, 10449.72
468.7790, 9355.584
469.9650, 8072.479
471.1520, 6807.410
472.3380, 5711.377
473.5250, 4594.381
474.7110, 3837.138
475.8970, 3243.491
477.0820, 2650.602
478.2680, 2327.747
479.4540, 2073.929
480.6390, 1871.417
481.8240, 1895.402
483.0090, 1783.693
484.1940, 1865.021
485.3780, 1953.383
486.5630, 2042.783
487.7470, 2093.221
488.9320, 2188.692
490.1160, 2562.203
491.3000, 2624.748
492.4830, 2971.332
493.6670, 3204.959
494.8500, 3523.625
496.0340, 3898.326
497.2170, 4043.065
498.4000, 4430.841
499.5820, 4638.653
500.7650, 4950.504
501.9480, 5049.416
503.1300, 5087.369
504.3120, 5118.375
505.4940, 5276.422
506.6760, 5446.508
507.8580, 5391.649
509.0390, 5505.830
510.2210, 5851.279
511.4020, 5921.559
512.5830, 6039.844
513.7640, 6310.260
514.9450, 6295.426
516.1250, 6457.604
517.3060, 6593.994
518.4860, 6793.990
519.6660, 6933.674
520.8460, 7238.105
522.0260, 7305.270
523.2060, 7866.209
524.3850, 8006.578
525.5650, 8358.531
526.7440, 8786.903
527.9230, 9125.064
529.1020, 9284.694
530.2810, 9628.966
531.4590, 10015.99
532.6380, 10074.48
533.8160, 9972.936
534.9940, 9874.038
536.1720, 9704.069
537.3500, 9670.457
538.5270, 9331.385
539.7050, 9097.600
540.8820, 9164.571
542.0590, 8875.606
543.2360, 8888.098
544.4130, 9159.260
545.5900, 9302.500
546.7660, 9903.795
547.9430, 10392.03
549.1190, 11406.43
550.2950, 12342.89
551.4710, 13656.03
552.6470, 15091.03
553.8220, 16319.94
554.9980, 18020.91
556.1730, 19368.38
557.3480, 20453.91
558.5230, 21669.88
559.6980, 21945.77
560.8730, 22544.65
562.0470, 22508.05
563.2220, 22264.98
564.3960, 21371.04
565.5700, 20341.11
566.7440, 19189.44
567.9170, 17380.68
569.0910, 15988.98
570.2640, 14066.34
571.4380, 12336.75
572.6110, 10854.20
573.7840, 9561.698
574.9570, 8442.231
576.1290, 7478.819
577.3020, 6514.446
578.4740, 6023.119
579.6460, 5287.840
580.8180, 4744.598
581.9900, 4610.393
583.1620, 4328.235
584.3330, 4041.115
585.5040, 4027.033
586.6760, 3748.987
587.8470, 3795.979
589.0180, 3679.008
590.1880, 3658.071
591.3590, 3877.172
592.5290, 4247.322
593.7000, 4462.510
594.8700, 4937.732
596.0400, 5167.990
597.2090, 5514.285
598.3790, 5723.629
599.5490, 6145.010
600.7180, 6144.428
601.8870, 6404.881
603.0560, 6502.365
604.2250, 6514.889
605.3940, 6781.465
606.5620, 7107.074
607.7300, 7567.738
608.8990, 7709.437
610.0670, 8032.164
611.2350, 8157.922
612.4020, 8231.715
613.5700, 8178.539
614.7370, 8018.389
615.9050, 7613.273
617.0720, 6819.191
618.2390, 6362.144
619.4060, 5773.125
620.5720, 5221.135
621.7390, 5054.172
622.9050, 4675.240
624.0710, 4811.352
625.2370, 4875.492
626.4030, 5048.660
627.5690, 5166.854
628.7340, 5278.076
629.9000, 5551.322
631.0650, 5751.597
632.2300, 5734.951
633.3950, 5621.568
634.5600, 5486.008
635.7240, 5168.383
636.8890, 4719.779
638.0530, 4455.199
639.2170, 3821.723
640.3810, 3323.189
641.5450, 2790.350
642.7080, 2503.371
643.8720, 2155.925
645.0350, 2054.361
646.1980, 1660.292
647.3610, 1486.781
648.5240, 1324.590
649.6870, 953.5918
650.8490, 985.2734
652.0120, 961.8633
653.1740, 791.1934
654.3360, 796.3506
655.4980, 638.2861
656.6600, 713.4600
657.8210, 566.1348
658.9830, 500.6406
660.1440, 508.7559
661.3050, 575.0957
662.4660, 388.0771
663.6270, 454.7363
664.7870, 334.7578
665.9480, 294.3008
667.1080, 245.5986
668.2680, 364.2715
669.4280, 313.2363
670.5880, 322.1855
671.7480, 363.4307
672.9070, 290.7383
674.0670, 247.8672
675.2260, 170.4717
676.3850, 275.1689
677.5440, 329.7871
678.7030, 225.0410
679.8610, 156.4209
681.0200, 145.6602
682.1780, 22.18066
683.3360, 134.7412
684.4940, 96.08105
685.6520, 104.4600
686.8090, 81.12305
687.9670, 49.20898
689.1240, 103.5381
690.2810, 106.7266
691.4380, 136.2070
692.5950, 233.7275
693.7520, 13.75000
694.9080, 188.1689
696.0650, 152.6680
697.2210, 223.7920
698.3770, 188.0986
699.5330, 249.6768
700.6880, 192.2451
701.8440, 28.92285
702.9990, 115.3525
704.1550, 161.7197
705.3100, 113.4795
706.4650, 67.85742
707.6190, 215.5322
708.7740, 373.0967
709.9290, 467.0498
711.0830, 547.8379
712.2370, 729.8418
713.3910, 876.8311
714.5450, 945.8203
715.6980, 1076.798
716.8520, 1238.707
718.0050, 1387.958
719.1580, 1432.870
720.3110, 1525.766
721.4640, 1476.770
722.6170, 1329.970
723.7700, 1321.812
724.9220, 1210.637
726.0740, 1137.442
727.2260, 1018.230
728.3780, 960.9980
729.5300, 886.7461
730.6810, 903.6328
731.8330, 755.3408
732.9840, 779.0303
734.1350, 804.6963
735.2860, 687.3428
736.4370, 710.0029
737.5880, 584.6064
738.7380, 598.0020
739.8880, 659.5596
741.0390, 550.0947
742.1890, 459.1309
743.3380, 543.2617
744.4880, 336.7480
745.6380, 541.1074
746.7870, 447.5312
747.9360, 351.9199
749.0850, 385.2832
750.2340, 313.5312
751.3830, 301.6816
752.5310, 291.3154
753.6800, 261.6836
754.8280, 295.7832
755.9760, 252.8301
757.1240, 287.0049
758.2720, 213.1543
759.4190, 282.2744
760.5670, 159.5488
761.7140, 246.2686
762.8610, 197.3037
764.0080, 230.3086
765.1550, 357.2852
766.3020, 196.2305
767.4480, 187.1465
768.5950, 364.2266
769.7410, 119.0830
770.8870, 45.90723
772.0330, 113.6875
773.1780, 147.4336
774.3240, 187.1494
775.4690, 182.8350
776.6140, 122.4873
777.7590, 247.1084
778.9040, 27.30273
780.0490, 83.20117
781.1940, 16.66699
782.3380, 69.07031
783.4820, 96.43164
784.6260, 3.755859
785.7700, 115.0098
786.9140, 32.22852
788.0580, 12.61035
789.2010, 23.47266
790.3450, 53.49219
791.4880, 95.53809
792.6310, 150.3076
793.7730, 19.11621
794.9160, 88.86133
796.0590, 64.43652
797.2010, 178.1553
798.3430, 68.71094
799.4850, 68.78125
800.6270, 14.38867
801.7690, 82.08008
802.9100, 88.89355
804.0520, 35.83496
805.1930, 71.87207
806.3340, 125.9717
807.4750, 23.77441
808.6160, 115.5098
809.7560, 28.79883
810.8970, 25.20312
812.0370, 47.70215
813.1770, 48.30859
814.3170, 15.02148
815.4570, 9.234375
816.5960, 70.28711
817.7360, 45.34570
818.8750, 25.34473
820.0140, 51.88574
821.1530, 28.24023
822.2920, 125.5391
823.4310, 120.2764
824.5690, 123.0801
825.7070, 62.73438
826.8460, 88.78809
827.9840, 94.26660
829.1220, 85.34180
830.2590, 44.51855
831.3970, 27.64160
832.5340, 20.27148
833.6710, 6.837891
834.8080, 85.96387
835.9450, 15.19238
837.0820, 68.42969
838.2190, 59.15723
839.3550, 14.36035
840.4910, 92.55762
841.6270, 15.50586
842.7630, 35.69434
843.8990, 73.79395
845.0350, 56.96777
846.1700, 32.20508
847.3060, 14.49121
848.4410, 44.18066
849.5760, 28.67383
850.7100, 52.56152
851.8450, 15.99512
852.9800, 21.47754
854.1140, 27.99023
855.2480, 32.45215
856.3820, 31.86719
857.5160, 32.74512
858.6500, 27.59863
859.7830, 25.00391
860.9170, 152.2021
862.0500, 56.46582
863.1830, 137.7012
864.3160, 95.91113
865.4480, 121.0938
866.5810, 66.74902
867.7130, 67.35254
868.8460, 51.42773
869.9780, 117.4785
871.1100, 173.5039
872.2410, 85.49414
873.3730, 44.44434
874.5050, 31.64160
875.6360, 45.23926
876.7670, 112.0977
877.8980, 25.06934
879.0290, 101.2637
880.1590, 2.472656
881.2900, 107.8115
882.4200, 4.833984
883.5500, 18.45703
884.6800, 16.05859
885.8100, 8.638672
886.9400, 5.802734
888.0690, 49.73340
889.1990, 6.751953
890.3280, 41.25879
891.4570, 40.79590
892.5860, 75.63770
893.7140, 77.05078
894.8430, 104.4453
895.9710, 13.17871
897.1000, 103.8242
898.2280, 118.4766
899.3560, 255.7578
900.4830, 190.3721
901.6110, 52.26855
902.7380, 188.4990
903.8660, 15.28711
904.9930, 88.90723
906.1200, 93.02637
907.2460, 166.8955
908.3730, 70.94824
909.5000, 103.0791
910.6260, 148.1943
911.7520, 253.2949
912.8780, 170.3018
914.0040, 144.3750
915.1290, 220.7627
916.2550, 176.2988
917.3800, 309.3125
918.5050, 317.4531
919.6300, 397.1270
920.7550, 445.2520
921.8800, 359.0674
923.0040, 315.7061
924.1290, 396.6904
925.2530, 285.8086
926.3770, 474.2402
927.5010, 276.9160
928.6250, 449.8535
929.7480, 530.6182
930.8720, 746.9414
931.9950, 595.4707
933.1180, 682.4277
934.2410, 688.2090
935.3640, 746.4004
936.4860, 761.9912
937.6090, 865.3350
938.7310, 849.2402
939.8530, 962.4844
940.9750, 1144.465
942.0970, 1084.266
943.2180, 1366.167
944.3400, 1337.875
945.4610, 1553.604
946.5820, 1504.566
947.7030, 1705.156
948.8240, 1878.728
949.9450, 2038.434
951.0650, 2383.521
952.1860, 2564.423
953.3060, 2842.637
954.4260, 3101.856
955.5460, 3416.320
956.6650, 3789.371
957.7850, 4153.391
958.9040, 4632.379
960.0230, 5434.453
961.1420, 6353.564
962.2610, 7213.276
963.3800, 8177.203
964.4990, 9289.151
965.6170, 10631.55
966.7350, 11938.36
967.8530, 13176.20
968.9710, 14393.64
970.0890, 15521.21
971.2070, 16007.02
972.3240, 16047.76
973.4410, 16287.59
974.5580, 15969.19
975.6750, 15001.72
976.7920, 14142.65
977.9090, 13214.47
979.0250, 12737.98
980.1410, 12126.61
981.2580, 11728.87
982.3740, 11426.30
983.4890, 11436.53
984.6050, 11190.78
985.7200, 11193.06
986.8360, 10958.37
987.9510, 10762.75
989.0660, 10328.80
990.1810, 9706.196
991.2950, 9167.614
992.4100, 8763.593
993.5240, 8075.057
994.6390, 8128.559
995.7530, 8097.088
996.8660, 7546.640
997.9800, 7673.221
999.0940, 7766.826
1000.207, 8071.481
1001.320, 8600.004
1002.433, 9224.873
1003.546, 10175.46
1004.659, 11085.23
1005.772, 12448.04
1006.884, 13892.84
1007.996, 15661.70
1009.108, 17993.77
1010.220, 20858.69
1011.332, 23657.63
1012.444, 27427.07
1013.555, 30698.43
1014.666, 34087.43
1015.777, 37073.55
1016.888, 39498.64
1017.999, 40872.75
1019.110, 41550.89
1020.220, 41590.05
1021.331, 40346.16
1022.441, 38499.39
1023.551, 36694.54
1024.661, 34704.96
1025.770, 32976.45
1026.880, 31024.79
1027.989, 29327.18
1029.098, 28019.60
1030.207, 26735.87
1031.316, 25754.70
1032.425, 24771.21
1033.533, 24190.75
1034.642, 23416.34
1035.750, 22781.95
1036.858, 22594.60
1037.966, 21774.08
1039.073, 21128.79
1040.181, 20152.54
1041.288, 19296.87
1042.396, 18309.14
1043.503, 17328.00
1044.610, 16276.89
1045.716, 15120.81
1046.823, 14034.77
1047.929, 12785.76
1049.036, 11721.81
1050.142, 10954.91
1051.248, 10172.05
1052.353, 9373.625
1053.459, 8777.103
1054.564, 8214.817
1055.670, 7728.771
1056.775, 7213.337
1057.880, 6954.750
1058.985, 6683.214
1060.089, 6509.059
1061.194, 6241.646
1062.298, 6067.551
1063.402, 5955.447
1064.506, 5707.158
1065.610, 5602.987
1066.713, 5421.809
1067.817, 5222.021
1068.920, 5126.611
1070.023, 4810.696
1071.126, 4607.838
1072.229, 4338.993
1073.332, 3961.270
1074.435, 3556.997
1075.537, 3363.732
1076.639, 3229.573
1077.741, 2802.771
1078.843, 2818.277
1079.945, 2521.037
1081.046, 2412.771
1082.148, 2307.695
1083.249, 2185.457
1084.350, 2078.279
1085.451, 1671.635
1086.551, 1746.539
1087.652, 1484.493
1088.752, 1521.488
1089.853, 1258.547
1090.953, 1246.640
1092.053, 1222.741
1093.152, 1007.738
1094.252, 1111.010
1095.351, 1033.354
1096.451, 934.7100
1097.550, 897.0195
1098.649, 910.3584
1099.748, 886.8789
1100.846, 986.1895
1101.945, 970.6631
1103.043, 977.5293
1104.141, 1121.142
1105.239, 1346.584
1106.337, 1584.174
1107.434, 1928.424
1108.532, 2304.449
1109.629, 2657.709
1110.726, 2949.879
1111.823, 3546.090
1112.920, 4028.947
1114.017, 4219.758
1115.113, 4342.754
1116.210, 4535.710
1117.306, 4233.002
1118.402, 4164.912
1119.498, 3936.139
1120.593, 3584.228
1121.689, 3230.351
1122.784, 3003.051
1123.879, 2704.225
1124.974, 2376.434
1126.069, 2241.047
1127.164, 1899.307
1128.259, 1513.593
1129.353, 1485.151
1130.447, 1216.508
1131.541, 1197.939
1132.635, 920.3516
1133.729, 1050.483
1134.822, 1052.883
1135.916, 948.3828
1137.009, 931.4570
1138.102, 978.7480
1139.195, 1048.880
1140.288, 1190.214
1141.380, 1351.859
1142.473, 1647.527
1143.565, 1885.217
1144.657, 2123.931
1145.749, 2212.689
1146.841, 2444.472
1147.932, 2285.298
1149.024, 2152.146
1150.115, 2091.015
1151.206, 1741.904
1152.297, 1473.815
1153.388, 1356.748
1154.479, 976.7021
1155.569, 889.6758
1156.659, 743.6748
1157.750, 712.1152
1158.839, 613.1582
1159.929, 563.8594
1161.019, 506.9414
1162.108, 465.7031
1163.198, 496.1807
1164.287, 465.3379
1165.376, 489.5127
1166.465, 473.7637
1167.553, 443.9150
1168.642, 431.1416
1169.730, 467.3877
1170.818, 418.6504
1171.906, 222.9297
1172.994, 250.2285
1174.082, 177.5420
1175.170, 337.8730
1176.257, 197.2441
1177.344, 66.64551
1178.431, 185.0264
1179.518, 83.42090
1180.605, 87.83203
1181.691, 171.2568
1182.778, 117.3037
1183.864, 44.10938
1184.950, 31.46289
1186.036, 29.03027
1187.122, 11.59180
1188.207, 27.85645
1189.292, 29.31641
1190.378, 16.21094
1191.463, 29.26855
1192.548, 65.24023
1193.632, 10.75977
1194.717, 65.72754
1195.801, 0.2255860
1196.886, 105.7334
1197.970, 87.25000
1199.054, 76.77637
1200.137, 74.68750
1201.221, 0.1455080
1202.305, 70.33203
1203.388, 1.169922
1204.471, 36.41699
1205.554, 34.91699
1206.637, 55.42480
1207.719, 40.94922
1208.802, 139.5156
1209.884, 118.0146
1210.966, 24.59375
1212.048, 116.1807
1213.130, 35.18262
1214.212, 41.54980
1215.293, 8.079102
1216.374, 164.2891
1217.456, 18.66016
1218.536, 47.03516
1219.617, 62.41309
1220.698, 34.79297
1221.778, 32.82422
1222.859, 98.45801
1223.939, 7.855469
1225.019, 49.83105
1226.099, 12.54492
1227.178, 45.73047
1228.258, 37.52051
1229.337, 39.79688
1230.417, 40.62305
1231.496, 87.38965
1232.574, 12.33203
1233.653, 27.93164
1234.732, 37.80273
1235.810, 71.13574
1236.888, 47.36426
1237.966, 138.2178
1239.044, 27.14453
1240.122, 41.09668
1241.199, 40.08105
1242.277, 103.8984
1243.354, 30.12305
1244.431, 27.82422
1245.508, 43.76660
1246.585, 82.02246
1247.661, 26.14258
1248.738, 27.70605
1249.814, 101.5488
1250.890, 43.38672
1251.966, 19.21875
1253.042, 68.04004
1254.117, 192.8574
1255.193, 44.33203
1256.268, 58.75781
1257.343, 86.51855
1258.418, 11.94531
1259.493, 169.9189
1260.567, 64.52637
1261.642, 62.14453
1262.716, 28.82910
1263.790, 12.50000
1264.864, 153.3008
1265.938, 5.046875
1267.011, 118.5840
1268.085, 161.1895
1269.158, 125.7881
