##NAMES=Brazilianite
##RRUFFID=R050126
##IDEAL CHEMISTRY=NaAl_3_(PO_4_)_2_(OH)_4_
##LOCALITY=Linopolis, Minas Gerais, Brazil
##OWNER=RRUFF
##SOURCE=Carlos and Paulo Vasconcelos
##DESCRIPTION=Pair of greenish yellow elongated crystals
##STATUS=The identification of this mineral has been confirmed by X-ray diffraction and chemical analysis
##URL=rruff.info/R050126
##MEASURED CHEMISTRY=Na_1.00_Al_3.00_(P_1.00_O_4_)_2_((OH)_3.80_F_0.20_)_Î£=4_
##PIN_ID=L00438
##ORIENTATION=Laser parallel to -a* (-1 0 0). Fiducial mark perpendicular to laser is parallel to b [0 1 0]
134.381, 0.000
135.776, 91.863
137.170, 6.137
138.564, 12.254
139.958, 79.138
141.351, 68.515
142.745, 305.700
144.138, 500.994
145.530, 869.120
146.923, 1180.868
148.315, 1385.564
149.707, 1608.952
151.099, 1395.797
152.490, 1161.339
153.881, 825.963
155.272, 613.827
156.663, 381.623
158.054, 272.383
159.444, 328.133
160.834, 381.102
162.224, 678.825
163.613, 1031.298
165.002, 1558.320
166.391, 2213.733
167.780, 2801.430
169.169, 3331.326
170.557, 3746.372
171.945, 4608.314
173.333, 5273.169
174.720, 5947.183
176.108, 5888.314
177.495, 4456.540
178.881, 3333.841
180.268, 2117.204
181.654, 1416.621
183.040, 952.085
184.426, 653.747
185.812, 545.886
187.197, 354.960
188.582, 404.552
189.967, 253.125
191.351, 287.072
192.736, 227.437
194.120, 240.269
195.504, 326.605
196.887, 319.479
198.271, 395.930
199.654, 320.079
201.036, 378.878
202.419, 315.340
203.801, 220.490
205.184, 142.352
206.565, 60.056
207.947, 51.713
209.328, 167.602
210.710, 46.706
212.090, 63.619
213.471, 202.867
214.851, 514.843
216.232, 680.025
217.611, 1077.075
218.991, 1425.023
220.370, 1904.884
221.750, 2028.684
223.129, 1838.435
224.507, 1698.144
225.886, 1199.821
227.264, 1115.469
228.642, 737.094
230.019, 672.698
231.397, 637.284
232.774, 627.855
234.151, 696.736
235.528, 779.542
236.904, 972.867
238.281, 1125.223
239.656, 1372.395
241.032, 1668.423
242.408, 2056.328
243.783, 2362.573
245.158, 2636.551
246.533, 2983.575
247.907, 3012.672
249.282, 3185.842
250.656, 3634.081
252.029, 4327.389
253.403, 5526.746
254.776, 6288.071
256.149, 6588.388
257.522, 5508.771
258.895, 3871.224
260.267, 2514.746
261.639, 1497.341
263.011, 1128.293
264.382, 719.473
265.754, 666.260
267.125, 648.120
268.496, 657.052
269.866, 796.042
271.237, 768.081
272.607, 1013.159
273.977, 1015.278
275.346, 1202.438
276.716, 1363.640
278.085, 1395.886
279.454, 1450.177
280.823, 1211.513
282.191, 987.896
283.559, 706.325
284.927, 517.803
286.295, 484.331
287.662, 361.907
289.030, 507.534
290.397, 626.213
291.763, 908.944
293.130, 1169.728
294.496, 1497.565
295.862, 1899.457
297.228, 2099.403
298.594, 2147.066
299.959, 2217.177
301.324, 1935.471
302.689, 1587.287
304.053, 1199.097
305.418, 1075.099
306.782, 912.260
308.146, 821.559
309.509, 904.976
310.873, 998.492
312.236, 1368.096
313.599, 1635.779
314.961, 2042.532
316.324, 2083.348
317.686, 2217.222
319.048, 2173.127
320.409, 1776.064
321.771, 1607.032
323.132, 1252.032
324.493, 1063.065
325.854, 822.129
327.214, 564.221
328.574, 469.338
329.934, 277.478
331.294, 171.639
332.654, 69.181
334.013, 96.010
335.372, 109.911
336.731, 192.041
338.089, 140.243
339.448, 277.462
340.806, 261.735
342.164, 283.058
343.521, 405.435
344.879, 364.900
346.236, 437.441
347.593, 305.078
348.949, 311.775
350.306, 172.542
351.662, 99.354
353.018, 40.791
354.373, 368.923
355.729, 483.045
357.084, 910.159
358.439, 1133.270
359.794, 1397.379
361.148, 1571.488
362.503, 1385.601
363.857, 1266.717
365.210, 951.838
366.564, 650.967
367.917, 487.105
369.270, 311.253
370.623, 343.969
371.976, 247.100
373.328, 442.714
374.680, 436.109
376.032, 474.375
377.384, 526.668
378.735, 587.019
380.086, 673.407
381.437, 540.864
382.788, 477.398
384.138, 334.998
385.488, 98.686
386.838, 132.454
388.188, 34.716
389.538, 26.182
390.887, 3.487
392.236, 36.168
393.585, 63.240
394.933, 79.358
396.282, 119.544
397.630, 170.693
398.977, 238.751
400.325, 347.671
401.672, 436.374
403.020, 685.805
404.366, 759.930
405.713, 998.832
407.059, 1220.654
408.406, 1408.525
409.752, 1713.448
411.097, 1760.423
412.443, 1995.449
413.788, 1981.526
415.133, 2119.656
416.478, 2161.838
417.822, 1904.072
419.167, 1938.358
420.511, 1521.697
421.854, 1489.088
423.198, 1230.532
424.541, 1100.027
425.884, 1164.560
427.227, 1002.139
428.570, 1295.771
429.912, 1339.453
431.254, 1723.188
432.596, 2051.975
433.938, 2613.812
435.280, 3452.701
436.621, 4164.643
437.962, 5366.635
439.303, 6522.677
440.643, 7509.772
441.983, 8626.920
443.323, 8304.116
444.663, 8331.366
446.003, 7248.666
447.342, 6106.017
448.681, 5518.420
450.020, 4638.874
451.359, 4438.378
452.697, 4298.933
454.035, 4342.540
455.373, 4834.196
456.711, 5063.903
458.048, 5826.661
459.386, 6034.469
460.723, 6762.327
462.059, 7480.228
463.396, 8048.176
464.732, 9156.171
466.068, 9664.211
467.404, 10542.291
468.740, 10840.417
470.075, 10548.583
471.410, 10326.793
472.745, 8885.039
474.080, 8073.328
475.414, 6741.656
476.748, 5698.026
478.082, 5199.436
479.416, 4444.886
480.749, 4659.374
482.083, 4441.903
483.416, 4547.472
484.749, 4779.082
486.081, 4970.729
487.413, 5502.417
488.745, 5407.146
490.077, 5769.912
491.409, 5718.719
492.740, 5502.565
494.072, 5816.450
495.402, 5574.827
496.733, 6008.461
498.064, 6314.269
499.394, 6583.282
500.724, 7293.912
502.054, 7575.623
503.383, 8316.094
504.712, 8398.987
506.041, 8644.527
507.370, 8895.623
508.699, 8785.143
510.027, 9224.355
511.355, 8912.328
512.683, 9254.694
514.011, 9374.241
515.338, 9103.857
516.666, 9493.524
517.993, 9063.241
519.319, 9103.010
520.646, 8902.828
521.972, 8422.700
523.298, 8562.624
524.624, 8292.595
525.950, 8722.617
527.275, 8572.700
528.600, 8852.836
529.925, 9803.024
531.250, 9545.041
532.574, 10405.887
533.898, 10739.521
535.222, 11182.160
536.546, 11304.439
537.869, 10952.851
539.193, 11177.115
540.516, 10387.802
541.839, 9940.893
543.161, 9781.050
544.484, 9016.348
545.806, 9129.627
547.128, 8498.854
548.449, 8660.206
549.771, 8859.180
551.092, 8659.860
552.413, 9665.170
553.734, 9734.070
555.054, 10846.762
556.374, 11758.449
557.694, 13050.234
559.014, 15382.104
560.334, 16094.056
561.653, 17706.096
562.972, 18388.225
564.291, 18060.430
565.610, 18842.732
566.928, 18075.123
568.247, 18517.604
569.565, 17400.154
570.882, 16652.789
572.200, 15885.503
573.517, 14068.283
574.834, 12841.140
576.151, 11394.044
577.468, 10217.014
578.784, 9560.028
580.100, 8443.097
581.416, 8396.215
582.732, 7859.376
584.047, 7582.582
585.362, 7435.830
586.677, 6799.122
587.992, 6872.456
589.307, 6275.832
590.621, 6319.249
591.935, 6382.707
593.249, 6186.205
594.563, 6709.745
595.876, 6793.325
597.189, 7686.945
598.502, 8590.602
599.815, 9504.300
601.127, 11078.037
602.440, 11461.811
603.752, 12395.623
605.064, 12159.473
606.375, 11123.359
607.686, 10387.285
608.998, 9221.248
610.308, 8545.241
611.619, 7989.275
612.930, 7763.345
614.240, 8157.449
615.550, 7901.585
616.860, 8375.758
618.169, 8229.966
619.478, 7834.207
620.787, 7648.481
622.096, 6592.788
623.405, 6517.128
624.713, 5554.502
626.021, 5131.905
627.329, 4888.342
628.637, 4473.810
629.945, 4588.308
631.252, 4419.838
632.559, 4535.399
633.866, 4876.989
635.172, 4759.609
636.479, 5114.260
637.785, 4773.939
639.091, 4894.646
640.396, 4642.383
641.702, 3970.148
643.007, 3637.942
644.312, 3053.762
645.617, 2525.609
646.921, 2407.484
648.226, 1987.386
649.530, 1974.313
650.834, 1666.267
652.137, 1610.276
653.441, 1672.345
654.744, 1448.478
656.047, 1678.696
657.350, 1560.983
658.652, 1658.376
659.954, 1780.870
661.256, 1694.470
662.558, 1865.208
663.860, 1759.072
665.161, 1627.081
666.462, 1561.199
667.763, 1266.428
669.064, 1245.730
670.365, 940.086
671.665, 909.465
672.965, 764.863
674.265, 588.281
675.564, 633.718
676.864, 453.174
678.163, 452.648
679.462, 342.141
680.760, 197.650
682.059, 262.177
683.357, 160.879
684.655, 115.189
685.953, 98.788
687.250, 58.552
688.548, 19.264
689.845, 91.229
691.142, 65.724
692.438, 54.365
693.735, 176.141
695.031, 94.626
696.327, 210.147
697.623, 247.898
698.918, 194.618
700.214, 276.557
701.509, 238.331
702.804, 164.264
704.098, 227.219
705.393, 150.210
706.687, 179.040
707.981, 74.486
709.275, 130.824
710.568, 10.879
711.861, 46.913
713.155, 47.759
714.447, 256.321
715.740, 289.857
717.032, 367.441
718.325, 534.253
719.617, 584.679
720.908, 703.283
722.200, 818.759
723.491, 900.545
724.782, 1026.934
726.073, 893.027
727.364, 1058.864
728.654, 901.951
729.944, 800.929
731.234, 857.930
732.524, 712.232
733.814, 806.006
735.103, 674.700
736.392, 528.910
737.681, 762.322
738.969, 489.046
740.258, 589.431
741.546, 566.802
742.834, 538.163
744.122, 603.504
745.409, 508.830
746.697, 561.140
747.984, 569.434
749.270, 546.782
750.557, 626.044
751.844, 537.289
753.130, 599.518
754.416, 510.728
755.701, 558.922
756.987, 652.098
758.272, 535.255
759.557, 600.395
760.842, 616.516
762.127, 646.618
763.411, 708.702
764.695, 601.766
765.979, 771.810
767.263, 783.835
768.547, 760.839
769.830, 885.824
771.113, 785.788
772.396, 764.731
773.679, 752.654
774.961, 676.555
776.243, 719.435
777.525, 642.293
778.807, 664.130
780.089, 625.945
781.370, 542.737
782.651, 596.507
783.932, 476.254
785.213, 488.978
786.493, 516.680
787.773, 475.358
789.053, 526.013
790.333, 538.645
791.613, 574.252
792.892, 592.835
794.171, 597.395
795.450, 681.930
796.729, 700.441
798.007, 644.928
799.285, 732.390
800.563, 733.827
801.841, 838.240
803.119, 759.628
804.396, 777.990
805.673, 821.328
806.950, 793.641
808.227, 771.928
809.504, 664.189
810.780, 693.425
812.056, 692.633
813.332, 532.815
814.607, 607.970
815.883, 568.098
817.158, 480.197
818.433, 483.267
819.708, 433.309
820.982, 413.320
822.256, 415.302
823.531, 275.252
824.804, 347.173
826.078, 271.062
827.352, 279.921
828.625, 296.749
829.898, 204.545
831.170, 295.312
832.443, 197.046
833.715, 217.750
834.988, 201.422
836.259, 123.063
837.531, 140.660
838.803, 195.218
840.074, 127.743
841.345, 142.465
842.616, 82.384
843.886, 128.561
845.157, 95.759
846.427, 28.326
847.697, 80.758
848.966, 32.345
850.236, 28.512
851.505, 18.277
852.774, 65.030
854.043, 12.493
855.312, 52.945
856.580, 25.359
857.849, 96.691
859.117, 120.880
860.384, 54.169
861.652, 154.729
862.919, 116.914
864.186, 83.917
865.453, 164.928
866.720, 129.071
867.986, 113.327
869.253, 130.687
870.519, 103.158
871.784, 113.728
873.050, 117.400
874.315, 132.176
875.581, 138.064
876.846, 53.065
878.110, 113.135
879.375, 78.304
880.639, 51.554
881.903, 82.870
883.167, 15.733
884.431, 42.694
885.694, 23.821
886.957, 3.690
888.220, 2.763
889.483, 97.182
890.746, 16.582
892.008, 49.957
893.270, 47.313
894.532, 42.648
895.794, 57.965
897.056, 75.262
898.317, 59.541
899.578, 109.801
900.839, 24.044
902.099, 133.266
903.360, 78.472
904.620, 104.659
905.880, 147.830
907.140, 150.983
908.399, 211.120
909.659, 135.240
910.918, 169.343
912.177, 240.430
913.435, 192.501
914.694, 261.556
915.952, 335.596
917.210, 331.620
918.468, 410.629
919.726, 361.624
920.983, 336.604
922.240, 502.569
923.497, 456.520
924.754, 557.457
926.011, 539.380
927.267, 639.289
928.523, 705.186
929.779, 715.069
931.035, 811.939
932.290, 914.798
933.546, 867.643
934.801, 1062.477
936.056, 1033.299
937.310, 1185.110
938.565, 1241.911
939.819, 1270.700
941.073, 1523.480
942.327, 1481.252
943.580, 1704.015
944.833, 1922.777
946.087, 1847.530
947.340, 2180.286
948.592, 2270.053
949.845, 2360.814
951.097, 2661.580
952.349, 2757.362
953.601, 2982.139
954.853, 3179.927
956.104, 3378.721
957.355, 3811.515
958.606, 3957.321
959.857, 4464.127
961.108, 4955.957
962.358, 5395.799
963.608, 6112.643
964.858, 6869.495
966.108, 7657.361
967.357, 8967.236
968.607, 9727.129
969.856, 11457.021
971.105, 12856.928
972.353, 13776.843
973.602, 15646.759
974.850, 15906.683
976.098, 16586.609
977.346, 16796.537
978.594, 15976.491
979.841, 16296.445
981.088, 15916.404
982.335, 15826.376
983.582, 16506.342
984.828, 16636.322
986.075, 17846.303
987.321, 19145.135
988.567, 19204.402
989.812, 20344.393
991.058, 19273.348
992.303, 18412.688
993.548, 17360.293
994.793, 15399.436
996.038, 14647.748
997.282, 13373.197
998.526, 12541.356
999.770, 12477.550
1001.014, 11643.949
1002.258, 11730.286
1003.501, 11991.811
1004.744, 11957.209
1005.987, 12790.570
1007.230, 12896.004
1008.473, 13887.466
1009.715, 15537.743
1010.957, 16532.607
1012.199, 19061.369
1013.441, 21052.822
1014.682, 23636.434
1015.923, 27605.004
1017.164, 29255.869
1018.405, 32927.777
1019.646, 34268.645
1020.886, 34141.301
1022.127, 35523.352
1023.367, 33085.227
1024.606, 32096.258
1025.846, 30846.977
1027.085, 28083.109
1028.325, 27195.541
1029.564, 25230.248
1030.802, 23966.705
1032.041, 23411.291
1033.279, 22001.861
1034.517, 21799.139
1035.755, 21239.957
1036.993, 20099.861
1038.230, 20770.262
1039.468, 19751.467
1040.705, 19332.369
1041.942, 19213.615
1043.178, 18124.885
1044.415, 17846.176
1045.651, 16687.492
1046.887, 15638.830
1048.123, 15050.191
1049.358, 13921.579
1050.594, 13172.917
1051.829, 12244.349
1053.064, 11275.803
1054.299, 11097.281
1055.533, 10188.785
1056.768, 9760.311
1058.002, 9591.863
1059.236, 8903.438
1060.469, 8855.038
1061.703, 8546.662
1062.936, 8198.308
1064.169, 8129.978
1065.402, 7721.674
1066.635, 7523.395
1067.867, 7465.138
1069.100, 6806.907
1070.332, 6998.701
1071.564, 6651.520
1072.795, 6428.363
1074.027, 6490.232
1075.258, 5901.125
1076.489, 6007.043
1077.720, 5817.985
1078.950, 5471.955
1080.181, 5514.975
1081.411, 5231.993
1082.641, 4944.036
1083.871, 4945.107
1085.100, 4587.300
1086.330, 4390.520
1087.559, 4113.667
1088.788, 3721.917
1090.016, 3776.731
1091.245, 3340.002
1092.473, 3182.156
1093.701, 3114.433
1094.929, 2837.346
1096.157, 2854.523
1097.384, 2682.875
1098.612, 2608.553
1099.839, 2810.303
1101.066, 2656.322
1102.292, 2736.198
1103.519, 3067.204
1104.745, 2963.215
1105.971, 3315.902
1107.197, 3431.905
1108.423, 3885.130
1109.648, 4544.362
1110.873, 4955.969
1112.098, 5838.223
1113.323, 6812.935
1114.548, 7756.662
1115.772, 8864.917
1116.996, 8977.986
1118.220, 9044.846
1119.444, 8931.034
1120.667, 7864.932
1121.891, 7499.292
1123.114, 7014.550
1124.337, 6382.573
1125.560, 6392.504
1126.782, 5840.375
1128.004, 5514.904
1129.227, 5506.086
1130.448, 4819.076
1131.670, 4807.322
1132.892, 4441.723
1134.113, 4211.158
1135.334, 4382.910
1136.555, 4090.149
1137.776, 4196.263
1138.996, 4427.863
1140.216, 4435.125
1141.436, 5092.371
1142.656, 5503.788
1143.876, 6120.090
1145.095, 7419.185
1146.315, 7973.991
1147.534, 8778.286
1148.753, 8953.406
1149.971, 7907.180
1151.190, 7343.485
1152.408, 6101.634
1153.626, 5105.159
1154.844, 4524.799
1156.061, 3627.675
1157.279, 3244.922
1158.496, 2942.206
1159.713, 2564.037
1160.930, 2348.165
1162.146, 2188.296
1163.363, 1958.329
1164.579, 2024.065
1165.795, 1817.304
1167.010, 1759.437
1168.226, 1653.862
1169.441, 1458.142
1170.657, 1508.756
1171.871, 1367.139
1173.086, 1195.537
1174.301, 1197.974
1175.515, 984.492
1176.729, 912.012
1177.943, 810.610
1179.157, 764.284
1180.370, 724.890
1181.584, 604.735
1182.797, 581.380
1184.010, 611.075
1185.222, 458.977
1186.435, 475.661
1187.647, 368.397
1188.859, 315.256
1190.071, 395.966
1191.283, 361.808
1192.494, 182.596
1193.706, 376.328
1194.917, 247.065
1196.128, 251.808
1197.338, 253.759
1198.549, 195.535
1199.759, 203.296
1200.969, 180.484
1202.179, 150.280
1203.389, 198.055
1204.598, 88.911
1205.807, 135.695
1207.016, 173.520
1208.225, 61.376
1209.434, 156.169
1210.642, 104.966
1211.850, 68.765
1213.058, 121.567
1214.266, 36.458
1215.474, 68.264
1216.681, 97.072
1217.889, 41.105
1219.096, 99.916
1220.302, 41.727
1221.509, 39.539
1222.715, 65.351
1223.922, 18.259
1225.128, 1.072
1226.334, 28.898
1227.539, 13.842
1228.745, 56.652
1229.950, 5.538
1231.155, 5.459
1232.360, 32.344
1233.564, 3.253
1234.769, 25.336
1235.973, 0.547
1237.177, 51.760
1238.381, 44.004
1239.584, 60.237
1240.787, 94.505
1241.991, 60.171
1243.194, 67.126
1244.396, 98.396
1245.599, 17.816
1246.801, 81.116
1248.004, 49.627
1249.206, 32.183
1250.407, 73.112
1251.609, 28.757
1252.810, 110.423
1254.012, 77.096
1255.212, 17.861
1256.413, 58.539
1257.614, 64.352
1258.814, 47.214
1260.014, 86.040
1261.214, 1.000
1262.414, 60.984
1263.614, 49.013
1264.813, 11.091
1266.012, 17.153
1267.211, 30.087
1268.410, 7.751
1269.609, 85.974
1270.807, 4.042
1272.005, 13.265
1273.203, 38.316
1274.401, 34.384
1275.598, 20.925
1276.796, 6.194
1277.993, 5.541
1279.190, 88.903
1280.387, 19.764
1281.583, 3.378
1282.780, 18.999
1283.976, 28.778
1285.172, 26.683
1286.368, 44.112
1287.563, 41.387
1288.759, 52.156
1289.954, 1.562
1291.149, 11.961
1292.343, 0.660
1293.538, 28.379
1294.732, 16.284
1295.927, 23.180
1297.121, 83.573
1298.314, 33.154
1299.508, 40.155
1300.701, 30.520
1301.895, 9.716
1303.087, 78.704
1304.280, 44.853
1305.473, 49.003
1306.665, 75.144
1307.857, 33.219
1309.049, 60.374
1310.241, 102.411
1311.433, 57.412
1312.624, 91.389
1313.815, 54.342
1315.006, 95.268
1316.197, 156.205
1317.388, 107.081
1318.578, 100.933
1319.768, 131.763
1320.958, 36.569
1322.148, 94.350
1323.338, 144.108
1324.527, 74.844
1325.716, 136.552
1326.906, 111.239
1328.094, 76.901
1329.283, 157.541
1330.471, 113.159
1331.660, 88.789
1332.848, 162.359
1334.035, 96.905
1335.223, 112.429
1336.411, 151.925
1337.598, 148.389
1338.785, 206.828
1339.972, 91.242
1341.158, 128.628
1342.345, 150.977
1343.531, 76.304
1344.717, 130.602
1345.903, 182.840
1347.089, 120.052
1348.274, 151.241
1349.459, 131.422
1350.644, 125.560
1351.829, 192.673
1353.014, 154.963
1354.198, 246.824
1355.383, 150.891
1356.567, 124.903
1357.751, 155.888
1358.934, 216.847
1360.118, 103.781
1361.301, 210.687
1362.484, 158.569
1363.667, 151.426
1364.850, 214.261
1366.032, 129.072
1367.215, 191.862
1368.397, 149.603
1369.579, 122.359
1370.760, 172.084
1371.942, 165.790
1373.123, 105.381
1374.304, 197.954
1375.485, 85.612
1376.666, 129.182
1377.847, 180.206
1379.027, 164.059
1380.207, 191.545
1381.387, 223.785
1382.567, 157.676
1383.747, 163.554
1384.926, 135.005
1386.105, 119.353
1387.284, 181.935
1388.463, 93.353
1389.641, 156.691
1390.820, 129.216
1391.998, 47.883
1393.176, 155.590
1394.354, 142.529
1395.532, 102.449
1396.709, 171.246
1397.886, 73.337
1399.063, 97.234
1400.240, 125.431
1401.417, 71.742
1402.593, 110.853
1403.769, 127.204
1404.945, 87.091
1406.121, 77.315
1407.297, 64.818
1408.472, 33.578
1409.648, 104.475
1410.823, 15.625
1411.998, 32.454
1413.172, 60.522
1414.347, 27.542
1415.521, 104.728
1416.695, 81.690
1417.869, 53.409
1419.043, 73.520
1420.216, 83.576
1421.390, 49.156
1422.563, 59.023
1423.736, 52.642
1424.909, 25.125
1426.081, 63.864
1427.254, 49.366
1428.426, 58.753
1429.598, 69.361
1430.770, 19.591
1431.941, 120.036
1433.113, 81.731
1434.284, 5.942
1435.455, 107.148
1436.626, 29.238
1437.796, 36.368
1438.967, 78.278
1440.137, 42.263
1441.307, 26.780
1442.477, 104.612
1443.646, 0.805
1444.816, 105.843
1445.985, 48.190
1447.154, 43.179
1448.323, 126.433
1449.492, 23.524
1450.660, 24.222
1451.829, 92.991
1452.997, 78.198
1454.165, 67.304
1455.332, 96.427
1456.500, 30.577
1457.667, 77.272
1458.834, 127.931
1460.001, 45.463
1461.168, 117.158
1462.335, 85.172
1463.501, 60.313
1464.667, 99.951
1465.833, 38.066
1466.999, 51.895
1468.165, 99.620
1469.330, 44.726
1470.495, 127.946
1471.660, 23.837
1472.825, 55.119
1473.990, 103.971
1475.154, 49.936
1476.318, 64.016
1477.482, 72.762
1478.646, 31.138
1479.810, 90.640
1480.974, 123.694
1482.137, 24.494
1483.300, 22.128
1484.463, 111.745
1485.626, 46.974
1486.788, 98.522
1487.950, 94.093
1489.113, 8.535
1490.275, 114.137
1491.436, 58.714
1492.598, 35.239
1493.759, 103.758
1494.920, 3.228
1496.081, 28.415
1497.242, 78.752
1498.403, 12.029
1499.563, 21.386
1500.724, 37.724
1501.884, 39.203
1503.043, 100.953
1504.203, 9.022
1505.363, 32.979
1506.522, 81.161
1507.681, 33.100
1508.840, 5.513
1509.999, 88.146
1511.157, 37.064
1512.315, 54.274
1513.474, 107.826
1514.632, 52.603
1515.789, 119.237
1516.947, 83.703
1518.104, 0.428
1519.261, 0.000
##END=



