##NAMES=Brazilianite
##RRUFFID=R050504
##IDEAL CHEMISTRY=NaAl_3_(PO_4_)_2_(OH)_4_
##LOCALITY=CÃ³rrego Frio, Minas Gerais, Brazil
##OWNER=RRUFF
##SOURCE=Marcus Origlieri
##DESCRIPTION=Yellowish green fragment
##STATUS=The identification of this mineral has been confirmed by X-ray diffraction and chemical analysis
##URL=rruff.info/R050504
##MEASURED CHEMISTRY=Na_1.00_Al_3.00_(P_1.00_O_4_)_2_(OH)_4_
##PIN_ID=L00856
##ORIENTATION=Laser parallel to -a* (-1 0 0). Fiducial mark perpendicular to laser is parallel to b [0 1 0]
79.89500, 0.0000000E+00
81.13100, 486.4385
82.36700, 1620.646
83.60200, 2494.243
84.83700, 3259.162
86.07200, 4840.633
87.30800, 5960.428
88.54200, 6056.051
89.77700, 5315.889
91.01200, 4273.637
92.24600, 3324.479
93.48000, 2335.710
94.71400, 1824.919
95.94800, 1922.373
97.18200, 1931.457
98.41600, 2148.961
99.64900, 3119.158
100.8830, 4867.951
102.1160, 6782.066
103.3490, 7822.715
104.5820, 7849.773
105.8150, 7100.829
107.0470, 6152.380
108.2800, 5575.972
109.5120, 4664.242
110.7440, 3816.365
111.9760, 3767.211
113.2080, 4013.918
114.4400, 3869.688
115.6710, 3258.383
116.9030, 2353.785
118.1340, 1567.699
119.3650, 1064.981
120.5960, 418.5098
121.8270, 208.1797
123.0580, 110.1025
124.2880, 56.42578
125.5190, 107.8740
126.7490, 420.5146
127.9790, 337.4150
129.2090, 291.6533
130.4390, 163.3057
131.6680, 280.4209
132.8980, 301.0322
134.1270, 188.1689
135.3560, 112.8574
136.5850, 253.8789
137.8140, 372.0186
139.0430, 641.5400
140.2710, 1169.424
141.5000, 1524.654
142.7280, 2220.215
143.9560, 2425.097
145.1840, 2870.967
146.4120, 2964.035
147.6390, 2861.795
148.8670, 2199.175
150.0940, 1954.315
151.3210, 1650.222
152.5490, 1570.910
153.7750, 1600.354
155.0020, 1660.572
156.2290, 1854.708
157.4550, 2423.824
158.6810, 2658.946
159.9080, 3451.090
161.1340, 4715.250
162.3590, 6169.424
163.5850, 7328.609
164.8110, 7521.807
166.0360, 7184.984
167.2610, 6810.107
168.4860, 6436.168
169.7110, 6383.178
170.9360, 6085.146
172.1610, 5442.087
173.3850, 4586.005
174.6100, 3858.904
175.8340, 3225.672
177.0580, 2796.172
178.2820, 1935.209
179.5050, 1645.023
180.7290, 1426.692
181.9520, 1415.333
183.1760, 1180.020
184.3990, 1144.753
185.6220, 1164.534
186.8450, 1164.764
188.0670, 1395.241
189.2900, 1418.166
190.5120, 1614.135
191.7340, 1899.149
192.9560, 1926.211
194.1780, 2078.744
195.4000, 2023.464
196.6220, 2146.655
197.8430, 2011.890
199.0640, 1874.166
200.2860, 1742.484
201.5070, 1430.845
202.7270, 1220.245
203.9480, 854.6875
205.1690, 706.1699
206.3890, 714.8076
207.6090, 794.0996
208.8290, 1248.736
210.0490, 1502.611
211.2690, 1717.475
212.4890, 2177.506
213.7080, 2457.486
214.9280, 2955.175
216.1470, 3376.572
217.3660, 3640.006
218.5850, 3665.165
219.8030, 3341.383
221.0220, 3369.646
222.2400, 3143.952
223.4590, 2613.300
224.6770, 2473.688
225.8950, 2500.119
227.1120, 2478.986
228.3300, 2657.515
229.5480, 2653.053
230.7650, 3005.875
231.9820, 2990.567
233.1990, 3040.872
234.4160, 3319.582
235.6330, 3348.574
236.8490, 3506.787
238.0660, 3539.158
239.2820, 3852.529
240.4980, 3719.804
241.7140, 3989.991
242.9300, 3743.131
244.1460, 3598.250
245.3610, 3129.371
246.5770, 2909.507
247.7920, 2740.671
249.0070, 2926.537
250.2220, 3361.684
251.4370, 3489.092
252.6510, 3237.074
253.8660, 2709.639
255.0800, 2101.238
256.2940, 1715.008
257.5080, 1184.934
258.7220, 982.0137
259.9360, 938.2344
261.1490, 893.5898
262.3630, 735.0703
263.5760, 773.6680
264.7890, 1000.377
266.0020, 894.1934
267.2150, 1003.107
268.4270, 986.1172
269.6400, 846.7793
270.8520, 889.1738
272.0640, 848.4512
273.2760, 974.8496
274.4880, 1097.045
275.7000, 1050.938
276.9120, 1226.508
278.1230, 1159.053
279.3340, 1176.859
280.5450, 1062.918
281.7560, 1127.420
282.9670, 1172.064
284.1780, 1190.578
285.3880, 1407.613
286.5980, 1366.709
287.8090, 1615.861
289.0190, 2196.068
290.2290, 2470.328
291.4380, 3054.625
292.6480, 3416.947
293.8570, 3730.277
295.0670, 3885.619
296.2760, 3608.967
297.4850, 3134.328
298.6930, 2598.701
299.9020, 2271.086
301.1110, 2090.488
302.3190, 1875.902
303.5270, 1683.336
304.7350, 1566.779
305.9430, 1674.242
307.1510, 1692.721
308.3580, 1636.215
309.5660, 1929.725
310.7730, 2018.250
311.9800, 2120.791
313.1870, 2437.350
314.3940, 2541.924
315.6010, 2496.518
316.8070, 2348.129
318.0130, 2288.760
319.2200, 2270.406
320.4260, 1944.074
321.6310, 1968.764
322.8370, 1618.473
324.0430, 1385.203
325.2480, 1211.961
326.4540, 896.7734
327.6590, 531.5527
328.8640, 394.3887
330.0680, 57.25000
331.2730, 143.8848
332.4780, 273.0566
333.6820, 332.3066
334.8860, 452.6406
336.0900, 521.0938
337.2940, 352.6797
338.4980, 496.3574
339.7010, 637.1621
340.9050, 476.1309
342.1080, 547.2207
343.3110, 567.4492
344.5140, 565.8242
345.7170, 434.3418
346.9200, 500.9688
348.1220, 219.7227
349.3240, 131.5332
350.5270, 138.6230
351.7290, 141.6992
352.9310, 383.5586
354.1320, 502.1074
355.3340, 601.3848
356.5350, 886.3242
357.7370, 821.9336
358.9380, 900.2480
360.1390, 708.3594
361.3400, 835.4492
362.5400, 567.5840
363.7410, 591.7715
364.9410, 687.0078
366.1410, 788.2949
367.3410, 900.6328
368.5410, 956.0215
369.7410, 1050.133
370.9400, 1140.385
372.1400, 1167.520
373.3390, 1282.139
374.5380, 1276.805
375.7370, 1257.510
376.9360, 1018.250
378.1350, 993.0234
379.3330, 650.8281
380.5310, 770.6641
381.7300, 439.5273
382.9280, 374.4219
384.1260, 183.3457
385.3230, 341.3008
386.5210, 290.2852
387.7180, 306.3008
388.9160, 215.3516
390.1130, 457.4336
391.3100, 658.5488
392.5060, 821.6973
393.7030, 926.8809
394.9000, 1060.102
396.0960, 1166.367
397.2920, 1470.676
398.4880, 1492.031
399.6840, 1628.436
400.8800, 1830.887
402.0750, 1716.391
403.2710, 1921.982
404.4660, 1783.646
405.6610, 1763.363
406.8560, 1747.221
408.0510, 1553.250
409.2450, 1583.371
410.4400, 1533.602
411.6340, 1377.955
412.8280, 1181.365
414.0220, 841.9414
415.2160, 690.6602
416.4100, 517.4648
417.6030, 383.4727
418.7970, 91.66992
419.9900, 159.0410
421.1830, 144.4453
422.3760, 73.84570
423.5690, 174.1348
424.7610, 13.60156
425.9540, 154.4219
427.1460, 192.3066
428.3380, 531.2832
429.5300, 992.3105
430.7220, 1216.387
431.9140, 1670.508
433.1050, 2238.674
434.2970, 2624.885
435.4880, 3541.139
436.6790, 4075.439
437.8700, 4487.781
439.0610, 4294.172
440.2510, 4102.605
441.4420, 3890.084
442.6320, 3351.611
443.8220, 2917.184
445.0120, 2778.803
446.2020, 2232.469
447.3910, 2221.180
448.5810, 2377.939
449.7700, 2132.746
450.9600, 2463.600
452.1490, 2672.502
453.3370, 3050.453
454.5260, 3463.451
455.7150, 3678.500
456.9030, 3975.596
458.0910, 4288.262
459.2800, 4661.938
460.4670, 4877.188
461.6550, 5051.484
462.8430, 5357.834
464.0300, 5162.234
465.2180, 5111.688
466.4050, 5072.193
467.5920, 4659.752
468.7790, 4350.361
469.9650, 4256.023
471.1520, 4242.742
472.3380, 4133.514
473.5250, 4280.223
474.7110, 4519.799
475.8970, 5156.887
477.0820, 5744.580
478.2680, 6288.307
479.4540, 6726.113
480.6390, 7345.879
481.8240, 7920.332
483.0090, 8329.465
484.1940, 8904.316
485.3780, 9329.121
486.5630, 9677.867
487.7470, 9883.836
488.9320, 10156.64
490.1160, 10509.69
491.3000, 11125.35
492.4830, 11769.33
493.6670, 12370.88
494.8500, 13364.59
496.0340, 14349.70
497.2170, 15190.89
498.4000, 16295.16
499.5820, 16786.52
500.7650, 17542.97
501.9480, 17569.49
503.1300, 17998.11
504.3120, 18246.82
505.4940, 18486.62
506.6760, 18693.50
507.8580, 18541.46
509.0390, 18724.52
510.2210, 18652.67
511.4020, 18007.90
512.5830, 17695.22
513.7640, 17044.62
514.9450, 16259.12
516.1250, 15984.70
517.3060, 15048.37
518.4860, 14563.12
519.6660, 13977.96
520.8460, 13615.89
522.0260, 13366.91
523.2060, 13393.01
524.3850, 13827.20
525.5650, 14372.47
526.7440, 14780.83
527.9230, 15230.28
529.1020, 15250.81
530.2810, 15632.43
531.4590, 15522.14
532.6380, 15639.93
533.8160, 14837.81
534.9940, 14132.77
536.1720, 13664.82
537.3500, 12756.95
538.5270, 12010.17
539.7050, 11161.49
540.8820, 10230.88
542.0590, 9789.355
543.2360, 9534.803
544.4130, 9605.398
545.5900, 9553.734
546.7660, 9833.637
547.9430, 10280.40
549.1190, 11277.37
550.2950, 12278.39
551.4710, 14016.78
552.6470, 15641.47
553.8220, 17538.43
554.9980, 19164.70
556.1730, 20783.96
557.3480, 21498.91
558.5230, 21554.37
559.6980, 21544.03
560.8730, 21322.10
562.0470, 21008.72
563.2220, 20764.88
564.3960, 20029.20
565.5700, 19572.04
566.7440, 18548.45
567.9170, 17208.86
569.0910, 16341.41
570.2640, 15029.37
571.4380, 13880.91
572.6110, 12442.29
573.7840, 11602.73
574.9570, 10764.23
576.1290, 10450.80
577.3020, 9842.430
578.4740, 9694.129
579.6460, 9455.938
580.8180, 9177.812
581.9900, 9136.748
583.1620, 8797.746
584.3330, 9127.803
585.5040, 9099.930
586.6760, 9333.111
587.8470, 10111.38
589.0180, 10860.75
590.1880, 11707.19
591.3590, 12890.69
592.5290, 14641.25
593.7000, 16428.91
594.8700, 18887.68
596.0400, 21128.53
597.2090, 23102.48
598.3790, 24943.53
599.5490, 25374.67
600.7180, 24905.93
601.8870, 23508.34
603.0560, 21350.89
604.2250, 19384.51
605.3940, 17003.19
606.5620, 15394.93
607.7300, 14383.76
608.8990, 13473.70
610.0670, 12919.80
611.2350, 12987.05
612.4020, 12921.41
613.5700, 12543.91
614.7370, 12407.50
615.9050, 12001.26
617.0720, 11454.20
618.2390, 10634.34
619.4060, 9550.670
620.5720, 8543.252
621.7390, 7978.033
622.9050, 7395.045
624.0710, 7200.350
625.2370, 6767.902
626.4030, 6706.701
627.5690, 6596.730
628.7340, 6698.979
629.9000, 6803.404
631.0650, 6686.035
632.2300, 6901.795
633.3950, 6477.660
634.5600, 6322.570
635.7240, 6220.523
636.8890, 5605.516
638.0530, 5090.549
639.2170, 4616.621
640.3810, 4010.738
641.5450, 3498.895
642.7080, 3133.006
643.8720, 2946.314
645.0350, 2579.578
646.1980, 2470.873
647.3610, 2505.201
648.5240, 2447.561
649.6870, 2438.104
650.8490, 2423.375
652.0120, 2463.832
653.1740, 2450.346
654.3360, 2503.197
655.4980, 2507.367
656.6600, 2569.934
657.8210, 2702.529
658.9830, 2659.146
660.1440, 2394.793
661.3050, 2623.461
662.4660, 2219.154
663.6270, 2104.871
664.7870, 1642.607
665.9480, 1236.367
667.1080, 1293.146
668.2680, 1018.949
669.4280, 815.7676
670.5880, 795.6055
671.7480, 842.4609
672.9070, 664.3340
674.0670, 557.2227
675.2260, 239.1270
676.3850, 224.0469
677.5440, 233.9805
678.7030, 16.92969
679.8610, 187.8887
681.0200, 86.85742
682.1780, 28.16211
683.3360, 172.1836
684.4940, 127.2734
685.6520, 30.41016
686.8090, 384.5547
687.9670, 513.8770
689.1240, 193.4473
690.2810, 264.1074
691.4380, 316.8906
692.5950, 36.82422
693.7520, 353.7773
694.9080, 315.9023
696.0650, 27.18750
697.2210, 244.4863
698.3770, 261.9121
699.5330, 231.4746
700.6880, 220.8926
701.8440, 186.6914
702.9990, 136.5605
704.1550, 63.48438
705.3100, 34.41602
706.4650, 66.28906
707.6190, 168.2988
708.7740, 2.992188
709.9290, 15.86523
711.0830, 212.9180
712.2370, 257.1328
713.3910, 240.1465
714.5450, 281.9863
715.6980, 216.9629
716.8520, 261.5996
718.0050, 301.7402
719.1580, 296.6953
720.3110, 354.7207
721.4640, 329.8535
722.6170, 259.9355
723.7700, 260.8770
724.9220, 382.8672
726.0740, 224.7402
727.2260, 329.7461
728.3780, 190.3594
729.5300, 226.9883
730.6810, 130.1973
731.8330, 118.8828
732.9840, 172.5312
734.1350, 147.5020
735.2860, 269.9395
736.4370, 384.2188
737.5880, 440.9434
738.7380, 410.2305
739.8880, 488.8281
741.0390, 525.7344
742.1890, 549.0430
743.3380, 554.7891
744.4880, 591.4492
745.6380, 532.9199
746.7870, 481.8008
747.9360, 789.3086
749.0850, 759.3691
750.2340, 712.1270
751.3830, 1012.840
752.5310, 749.0234
753.6800, 1040.980
754.8280, 1051.832
755.9760, 1316.750
757.1240, 1424.205
758.2720, 1464.936
759.4190, 1547.348
760.5670, 1505.893
761.7140, 1792.781
762.8610, 1782.688
764.0080, 1963.084
765.1550, 1804.609
766.3020, 1659.615
767.4480, 1741.859
768.5950, 1985.197
769.7410, 1849.469
770.8870, 1810.291
772.0330, 1786.609
773.1780, 1566.867
774.3240, 1734.061
775.4690, 1463.607
776.6140, 1591.680
777.7590, 1302.170
778.9040, 1514.184
780.0490, 1402.064
781.1940, 1364.883
782.3380, 1094.641
783.4820, 1210.330
784.6260, 1203.959
785.7700, 1310.521
786.9140, 1482.016
788.0580, 1466.449
789.2010, 1427.812
790.3450, 1678.111
791.4880, 1942.344
792.6310, 2031.512
793.7730, 1961.613
794.9160, 2094.646
796.0590, 2374.611
797.2010, 2246.512
798.3430, 2423.344
799.4850, 2677.105
800.6270, 2596.801
801.7690, 2595.426
802.9100, 2650.986
804.0520, 2689.473
805.1930, 2665.893
806.3340, 2675.244
807.4750, 2415.527
808.6160, 2459.738
809.7560, 2421.883
810.8970, 2194.957
812.0370, 2248.961
813.1770, 2067.607
814.3170, 1754.762
815.4570, 1849.559
816.5960, 1809.270
817.7360, 1817.926
818.8750, 1662.512
820.0140, 1657.137
821.1530, 1549.428
822.2920, 1370.396
823.4310, 1320.611
824.5690, 1300.979
825.7070, 1085.154
826.8460, 1181.281
827.9840, 912.0625
829.1220, 714.5508
830.2590, 812.7812
831.3970, 434.7148
832.5340, 598.6777
833.6710, 679.9492
834.8080, 808.7285
835.9450, 755.8418
837.0820, 253.5039
838.2190, 582.1465
839.3550, 389.6309
840.4910, 255.8867
841.6270, 414.2578
842.7630, 239.0684
843.8990, 329.9668
845.0350, 187.7402
846.1700, 418.1074
847.3060, 121.8945
848.4410, 191.8555
849.5760, 122.7559
850.7100, 355.5938
851.8450, 218.3770
852.9800, 87.10547
854.1140, 69.23633
855.2480, 96.27734
856.3820, 214.7207
857.5160, 193.1094
858.6500, 197.4434
859.7830, 116.7188
860.9170, 204.9336
862.0500, 12.90625
863.1830, 31.85742
864.3160, 43.06836
865.4480, 130.9141
866.5810, 140.6973
867.7130, 42.57617
868.8460, 139.9746
869.9780, 7.453125
871.1100, 62.21680
872.2410, 45.01758
873.3730, 57.94141
874.5050, 154.9941
875.6360, 309.2266
876.7670, 226.7188
877.8980, 65.57617
879.0290, 105.8008
880.1590, 40.96875
881.2900, 60.93555
882.4200, 148.9648
883.5500, 336.1641
884.6800, 283.2891
885.8100, 121.3301
886.9400, 282.1875
888.0690, 5.279297
889.1990, 147.4590
890.3280, 20.79883
891.4570, 56.23438
892.5860, 12.21875
893.7140, 74.40039
894.8430, 56.13867
895.9710, 60.98438
897.1000, 148.9395
898.2280, 168.0449
899.3560, 67.31445
900.4830, 8.691406
901.6110, 106.8594
902.7380, 67.36133
903.8660, 49.81641
904.9930, 46.22070
906.1200, 84.57617
907.2460, 211.8867
908.3730, 253.1602
909.5000, 225.3906
910.6260, 71.58594
911.7520, 231.7363
912.8780, 9.152344
914.0040, 117.9062
915.1290, 275.9258
916.2550, 302.9062
917.3800, 210.8535
918.5050, 142.7656
919.6300, 184.6445
920.7550, 123.4883
921.8800, 300.2988
923.0040, 427.0762
924.1290, 484.8203
925.2530, 523.5332
926.3770, 509.2148
927.5010, 622.8652
928.6250, 758.4863
929.7480, 887.0762
930.8720, 753.6387
931.9950, 851.1719
933.1180, 1005.676
934.2410, 1178.152
935.3640, 1272.693
936.4860, 1409.830
937.6090, 1474.441
938.7310, 1631.828
939.8530, 1686.195
940.9750, 1797.533
942.0970, 1884.852
943.2180, 2217.145
944.3400, 2370.480
945.4610, 2490.805
946.5820, 2797.109
947.7030, 2851.406
948.8240, 2810.678
949.9450, 2977.936
951.0650, 3268.174
952.1860, 3113.395
953.3060, 3390.598
954.4260, 3432.783
955.5460, 3620.959
956.6650, 3838.162
957.7850, 4007.381
958.9040, 4279.594
960.0230, 4618.883
961.1420, 5076.309
962.2610, 5419.771
963.3800, 5894.318
964.4990, 6499.934
965.6170, 6891.547
966.7350, 8112.279
967.8530, 8712.113
968.9710, 9757.947
970.0890, 11062.84
971.2070, 11911.79
972.3240, 12603.52
973.4410, 13093.58
974.5580, 14071.73
975.6750, 14354.95
976.7920, 15056.25
977.9090, 15798.45
979.0250, 16847.81
980.1410, 18248.82
981.2580, 19966.23
982.3740, 22262.47
983.4890, 24551.53
984.6050, 26852.80
985.7200, 29377.33
986.8360, 30834.71
987.9510, 31548.46
989.0660, 30785.11
990.1810, 29175.11
991.2950, 26076.58
992.4100, 23797.86
993.5240, 20742.22
994.6390, 18877.73
995.7530, 17026.18
996.8660, 15353.73
997.9800, 14137.15
999.0940, 13629.95
1000.207, 13165.73
1001.320, 12975.69
1002.433, 13162.69
1003.546, 13438.63
1004.659, 13462.89
1005.772, 14217.85
1006.884, 15232.95
1007.996, 16498.34
1009.108, 17993.71
1010.220, 20196.49
1011.332, 22321.54
1012.444, 25048.70
1013.555, 28322.57
1014.666, 30642.24
1015.777, 32964.10
1016.888, 35247.53
1017.999, 35567.32
1019.110, 35934.55
1020.220, 35265.05
1021.331, 34193.60
1022.441, 32579.65
1023.551, 30746.94
1024.661, 28607.31
1025.770, 26658.60
1026.880, 25058.34
1027.989, 23942.79
1029.098, 22644.54
1030.207, 21669.14
1031.316, 20844.39
1032.425, 20331.59
1033.533, 19660.29
1034.642, 19490.84
1035.750, 19013.88
1036.858, 18702.68
1037.966, 18953.36
1039.073, 18938.08
1040.181, 18672.22
1041.288, 18254.85
1042.396, 18100.52
1043.503, 17569.21
1044.610, 16962.54
1045.716, 16329.32
1046.823, 15839.65
1047.929, 15360.45
1049.036, 14543.34
1050.142, 14050.27
1051.248, 13664.25
1052.353, 13371.26
1053.459, 13074.31
1054.564, 12826.41
1055.670, 12477.54
1056.775, 12448.72
1057.880, 12244.94
1058.985, 11860.20
1060.089, 11452.50
1061.194, 11537.84
1062.298, 11293.23
1063.402, 11066.65
1064.506, 10550.13
1065.610, 10106.64
1066.713, 10109.21
1067.817, 9634.904
1068.920, 9394.797
1070.023, 9167.576
1071.126, 8746.316
1072.229, 8502.617
1073.332, 8063.443
1074.435, 8090.311
1075.537, 7850.225
1076.639, 7554.891
1077.741, 7166.939
1078.843, 6946.281
1079.945, 6968.305
1081.046, 6442.439
1082.148, 6077.211
1083.249, 5855.432
1084.350, 5326.695
1085.451, 5012.004
1086.551, 4543.354
1087.652, 4089.752
1088.752, 3580.027
1089.853, 3452.203
1090.953, 3327.734
1092.053, 2794.309
1093.152, 2469.439
1094.252, 2650.496
1095.351, 2101.736
1096.451, 1878.602
1097.550, 2107.395
1098.649, 1727.307
1099.748, 1871.621
1100.846, 1947.539
1101.945, 1865.494
1103.043, 2050.490
1104.141, 2170.527
1105.239, 2137.844
1106.337, 2247.590
1107.434, 2440.621
1108.532, 3024.725
1109.629, 3216.045
1110.726, 3965.570
1111.823, 4352.713
1112.920, 4998.055
1114.017, 5781.105
1115.113, 6050.523
1116.210, 6681.867
1117.306, 6790.512
1118.402, 6513.252
1119.498, 6531.859
1120.593, 6071.152
1121.689, 6291.914
1122.784, 5960.371
1123.879, 5824.145
1124.974, 5785.326
1126.069, 5762.535
1127.164, 5411.824
1128.259, 5262.514
1129.353, 5249.488
1130.447, 4732.299
1131.541, 4766.387
1132.635, 4466.232
1133.729, 4806.393
1134.822, 4365.623
1135.916, 4645.943
1137.009, 4836.318
1138.102, 4917.766
1139.195, 5035.703
1140.288, 5708.289
1141.380, 6379.965
1142.473, 7171.779
1143.565, 7860.000
1144.657, 9007.965
1145.749, 9579.031
1146.841, 10194.09
1147.932, 9984.215
1149.024, 9583.430
1150.115, 8571.795
1151.206, 7326.391
1152.297, 6355.961
1153.388, 5439.756
1154.479, 4334.508
1155.569, 3890.346
1156.659, 3443.279
1157.750, 2794.748
1158.839, 2894.785
1159.929, 2173.885
1161.019, 2391.043
1162.108, 2460.258
1163.198, 1983.764
1164.287, 1920.145
1165.376, 1982.582
1166.465, 2131.062
1167.553, 1684.387
1168.642, 1872.924
1169.730, 1576.492
1170.818, 1537.092
1171.906, 1308.717
1172.994, 1212.363
1174.082, 971.0352
1175.170, 929.7285
1176.257, 847.4492
1177.344, 539.1895
1178.431, 818.9629
1179.518, 680.7539
1180.605, 356.5898
1181.691, 468.4473
1182.778, 495.3242
1183.864, 801.2188
1184.950, 413.1348
1186.036, 113.0684
1187.122, 284.0215
1188.207, 273.9922
1189.292, 285.9805
1190.378, 241.7559
1191.463, 252.0098
1192.548, 83.05078
1193.632, 124.1074
1194.717, 148.4648
1195.801, 10.55273
1196.886, 45.66992
1197.970, 3.433594
1199.054, 15.22266
1200.137, 79.85156
1201.221, 40.28125
1202.305, 28.57422
1203.388, 73.57617
1204.471, 110.7422
1205.554, 65.41797
1206.637, 293.3770
1207.719, 70.30664
1208.802, 1.244141
1209.884, 70.17578
1210.966, 231.8809
1212.048, 25.04883
1213.130, 101.0195
1214.212, 302.0996
1215.293, 56.18750
1216.374, 83.28516
1217.456, 249.3945
1218.536, 27.49219
1219.617, 22.37891
1220.698, 115.7305
1221.778, 26.85156
1222.859, 100.0234
1223.939, 9.822266
1225.019, 144.7344
1226.099, 1.691406
1227.178, 103.1758
1228.258, 163.3887
1229.337, 135.3652
1230.417, 89.52930
1231.496, 88.42773
1232.574, 108.3281
1233.653, 64.23242
1234.732, 40.85938
1235.810, 190.9707
1236.888, 129.3281
1237.966, 191.8008
1239.044, 11.30469
1240.122, 162.0820
1241.199, 4.541016
1242.277, 35.33398
1243.354, 52.13281
1244.431, 53.40234
1245.508, 68.09375
1246.585, 309.6074
1247.661, 4.294922
1248.738, 81.52344
1249.814, 106.2598
1250.890, 26.93359
1251.966, 135.8477
1253.042, 126.2480
1254.117, 95.65820
1255.193, 14.43555
1256.268, 22.56055
1257.343, 15.54297
1258.418, 50.50977
1259.493, 0.5078130
1260.567, 50.73047
1261.642, 107.5508
1262.716, 114.5684
