##NAMES=Brazilianite
##RRUFFID=R050126
##IDEAL CHEMISTRY=NaAl_3_(PO_4_)_2_(OH)_4_
##LOCALITY=Linopolis, Minas Gerais, Brazil
##OWNER=RRUFF
##SOURCE=Carlos and Paulo Vasconcelos
##DESCRIPTION=Pair of greenish yellow elongated crystals
##STATUS=The identification of this mineral has been confirmed by X-ray diffraction and chemical analysis
##URL=rruff.info/R050126
##MEASURED CHEMISTRY=Na_1.00_Al_3.00_(P_1.00_O_4_)_2_((OH)_3.80_F_0.20_)_Î£=4_
##PIN_ID=L00364
##ORIENTATION=Laser parallel to (1 0 1). Fiducial mark perpendicular to laser is parallel to b [0 1 0]
134.381, 0.000
135.776, 5.526
137.170, 63.660
138.564, 19.726
139.958, 8.290
141.351, 100.270
142.745, 138.738
144.138, 338.251
145.530, 405.634
146.923, 702.775
148.315, 775.815
149.707, 905.176
151.099, 782.676
152.490, 511.655
153.881, 471.369
155.272, 362.207
156.663, 509.723
158.054, 363.589
159.444, 489.556
160.834, 767.585
162.224, 1069.859
163.613, 1807.189
165.002, 2603.374
166.391, 3907.799
167.780, 5302.748
169.169, 7175.518
170.557, 9797.825
171.945, 13269.733
173.333, 17301.289
174.720, 20122.527
176.108, 20713.500
177.495, 16584.223
178.881, 11844.737
180.268, 7335.062
181.654, 4520.223
183.040, 2904.250
184.426, 1771.166
185.812, 1310.833
187.197, 889.107
188.582, 623.823
189.967, 556.275
191.351, 365.348
192.736, 438.083
194.120, 382.514
195.504, 365.674
196.887, 518.593
198.271, 703.611
199.654, 953.194
201.036, 1063.322
202.419, 1393.461
203.801, 1441.780
205.184, 1733.130
206.565, 1977.520
207.947, 2494.956
209.328, 2798.431
210.710, 2889.937
212.090, 2994.482
213.471, 2645.075
214.851, 2632.720
216.232, 2335.427
217.611, 2232.182
218.991, 2195.923
220.370, 2272.671
221.750, 2476.463
223.129, 2252.318
224.507, 2323.248
225.886, 1961.263
227.264, 2031.368
228.642, 2161.570
230.019, 2506.872
231.397, 2950.276
232.774, 3227.784
234.151, 3108.965
235.528, 3086.610
236.904, 2555.792
238.281, 2039.731
239.656, 1398.107
241.032, 1274.784
242.408, 1210.000
243.783, 1204.870
245.158, 1357.884
246.533, 1444.039
247.907, 1548.332
249.282, 1316.760
250.656, 1365.309
252.029, 1245.968
253.403, 1431.738
254.776, 1601.617
256.149, 1490.604
257.522, 1198.702
258.895, 569.909
260.267, 155.229
261.639, 137.338
263.011, 319.790
264.382, 301.171
265.754, 385.875
267.125, 81.026
268.496, 85.056
269.866, 69.028
271.237, 345.219
272.607, 435.516
273.977, 939.922
275.346, 1242.436
276.716, 2185.060
278.085, 3134.794
279.454, 4071.640
280.823, 4840.552
282.191, 4654.257
283.559, 4099.744
284.927, 2858.264
286.295, 2023.911
287.662, 1224.684
289.030, 862.581
290.397, 661.605
291.763, 527.752
293.130, 759.023
294.496, 909.418
295.862, 1199.936
297.228, 1351.576
298.594, 1562.337
299.959, 1702.495
301.324, 1412.086
302.689, 1420.430
304.053, 1029.526
305.418, 826.707
306.782, 760.223
308.146, 577.032
309.509, 695.102
310.873, 610.405
312.236, 848.918
313.599, 1254.625
314.961, 1599.508
316.324, 2259.553
317.686, 2417.745
319.048, 2698.071
320.409, 2418.521
321.771, 2064.086
323.132, 1854.762
324.493, 1546.543
325.854, 1568.424
327.214, 1202.400
328.574, 1045.465
329.934, 812.616
331.294, 500.847
332.654, 339.129
334.013, 24.546
335.372, 52.184
336.731, 265.787
338.089, 318.397
339.448, 281.027
340.806, 430.664
342.164, 222.343
343.521, 391.015
344.879, 259.716
346.236, 254.416
347.593, 157.113
348.949, 11.214
350.306, 204.593
351.662, 459.015
353.018, 819.472
354.373, 1238.966
355.729, 1755.499
357.084, 2209.071
358.439, 3181.686
359.794, 3399.345
361.148, 3952.048
362.503, 3688.691
363.857, 3346.973
365.210, 2817.998
366.564, 1975.021
367.917, 1604.108
369.270, 1070.262
370.623, 881.483
371.976, 747.770
373.328, 613.124
374.680, 754.543
376.032, 659.035
377.384, 850.594
378.735, 914.241
380.086, 990.993
381.437, 1083.811
382.788, 774.776
384.138, 888.833
385.488, 563.020
386.838, 414.320
388.188, 263.713
389.538, 39.259
390.887, 73.888
392.236, 117.342
393.585, 116.534
394.933, 18.495
396.282, 33.622
397.630, 418.825
398.977, 355.103
400.325, 860.295
401.672, 948.312
403.020, 1382.260
404.366, 1686.121
405.713, 1827.016
407.059, 2483.043
408.406, 2683.148
409.752, 3172.384
411.097, 3307.693
412.443, 3556.093
413.788, 3871.588
415.133, 3745.158
416.478, 4092.845
417.822, 3782.606
419.167, 3529.465
420.511, 3303.441
421.854, 2926.488
423.198, 2941.649
424.541, 2615.810
425.884, 2570.024
427.227, 2479.342
428.570, 2296.876
429.912, 2269.494
431.254, 2018.077
432.596, 1962.753
433.938, 1675.501
435.280, 1570.319
436.621, 1449.208
437.962, 1327.167
439.303, 1506.194
440.643, 1384.290
441.983, 1475.455
443.323, 1462.688
444.663, 1244.989
446.003, 1282.362
447.342, 1017.804
448.681, 1058.315
450.020, 1101.896
451.359, 1060.545
452.697, 1353.263
454.035, 1195.047
455.373, 1514.898
456.711, 1307.816
458.048, 1340.800
459.386, 1250.849
460.723, 996.963
462.059, 1218.150
463.396, 998.415
464.732, 1091.751
466.068, 1141.162
467.404, 895.642
468.740, 1022.189
470.075, 720.803
471.410, 866.481
472.745, 780.223
474.080, 756.027
475.414, 1158.895
476.748, 1101.822
478.082, 1579.810
479.416, 1873.857
480.749, 2185.963
482.083, 2778.128
483.416, 2845.350
484.749, 3334.630
486.081, 3510.966
487.413, 3806.359
488.745, 4196.808
490.077, 4318.312
491.409, 4778.871
492.740, 4879.482
494.072, 5670.151
495.402, 6069.718
496.733, 6498.266
498.064, 7476.664
499.394, 7772.275
500.724, 8949.996
502.054, 9329.653
503.383, 10070.553
504.712, 10582.536
506.041, 10561.715
507.370, 11141.244
508.699, 10685.737
510.027, 11087.034
511.355, 11038.416
512.683, 10989.854
514.011, 11741.349
515.338, 11152.895
516.666, 11444.499
517.993, 11386.156
519.319, 11107.868
520.646, 11149.634
521.972, 10521.454
523.298, 10783.328
524.624, 10725.258
525.950, 10937.246
527.275, 11229.286
528.600, 11191.385
529.925, 12473.541
531.250, 12415.751
532.574, 13218.020
533.898, 13770.339
535.222, 14043.235
536.546, 14355.667
537.869, 13912.382
539.193, 13922.943
540.516, 13235.561
541.839, 12096.150
543.161, 12163.696
544.484, 10900.477
545.806, 10773.588
547.128, 10201.387
548.449, 9994.109
549.771, 10520.060
551.092, 10089.849
552.413, 11262.058
553.734, 11701.316
555.054, 12943.122
556.374, 14530.549
557.694, 15982.734
559.014, 18316.693
560.334, 19480.137
561.653, 20747.990
562.972, 21672.219
564.291, 20707.676
565.610, 21534.340
566.928, 20718.438
568.247, 20574.410
569.565, 20098.266
570.882, 18405.211
572.200, 17723.832
573.517, 15647.864
574.834, 13651.839
576.151, 12306.146
577.468, 10574.915
578.784, 9919.429
580.100, 8533.740
581.416, 7997.042
582.732, 7581.450
584.047, 6948.083
585.362, 7357.522
586.677, 6862.257
587.992, 7169.498
589.307, 7504.434
590.621, 7689.420
591.935, 8754.550
593.249, 9159.606
594.563, 10724.687
595.876, 12289.793
597.189, 14304.921
598.502, 17630.074
599.815, 19895.250
601.127, 23220.438
602.440, 24905.645
603.752, 25610.871
605.064, 25116.113
606.375, 21441.369
607.686, 19316.645
608.998, 16611.934
610.308, 14567.237
611.619, 13482.554
612.930, 12007.884
614.240, 11723.230
615.550, 10898.585
616.860, 10453.952
618.169, 10099.333
619.478, 8784.723
620.787, 8390.122
622.096, 7225.534
623.405, 6560.954
624.713, 5816.382
626.021, 5191.819
627.329, 5047.261
628.637, 4719.712
629.945, 4615.170
631.252, 4893.633
632.559, 4719.102
633.866, 5334.576
635.172, 5300.053
636.479, 5595.535
637.785, 5761.022
639.091, 5376.510
640.396, 5402.001
641.702, 4719.495
643.007, 4177.989
644.312, 3908.485
645.617, 3049.981
646.921, 2966.478
648.226, 2492.975
649.530, 2296.469
650.834, 2207.962
652.137, 1904.455
653.441, 2065.952
654.744, 1716.460
656.047, 1782.021
657.350, 1919.645
658.652, 1706.326
659.954, 1889.095
661.256, 1662.906
662.558, 1648.796
663.860, 1767.734
665.161, 1204.720
666.462, 1446.730
667.763, 1129.734
669.064, 961.731
670.365, 1023.720
671.665, 682.700
672.965, 799.670
674.265, 539.631
675.564, 444.582
676.864, 554.521
678.163, 255.449
679.462, 463.366
680.760, 271.271
682.059, 264.163
683.357, 358.042
684.655, 75.908
685.953, 221.760
687.250, 32.857
688.548, 75.680
689.845, 175.487
691.142, 0.637
692.438, 91.400
693.735, 59.143
695.031, 119.457
696.327, 33.136
697.623, 272.541
698.918, 62.145
700.214, 204.460
701.509, 143.479
702.804, 56.410
704.098, 288.656
705.393, 18.854
706.687, 235.276
707.981, 174.699
709.275, 63.241
710.568, 267.833
711.861, 29.645
713.155, 100.118
714.447, 123.560
715.740, 115.332
717.032, 176.147
718.325, 65.562
719.617, 27.544
720.908, 147.236
722.200, 95.242
723.491, 126.475
724.782, 168.830
726.073, 25.113
727.364, 4.035
728.654, 174.168
729.944, 68.957
731.234, 166.021
732.524, 17.148
733.814, 66.865
735.103, 254.870
736.392, 40.940
737.681, 309.469
738.969, 91.014
740.258, 35.092
741.546, 303.494
742.834, 99.340
744.122, 331.437
745.409, 261.698
746.697, 224.532
747.984, 502.710
749.270, 325.848
750.557, 644.421
751.844, 511.476
753.130, 454.672
754.416, 797.644
755.701, 549.573
756.987, 916.461
758.272, 820.307
759.557, 801.110
760.842, 1132.872
762.127, 884.591
763.411, 1116.267
764.695, 1267.900
765.979, 1148.492
767.263, 1452.040
768.547, 1178.546
769.830, 1390.008
771.113, 1398.428
772.396, 1114.805
773.679, 1493.138
774.961, 1172.429
776.243, 1182.675
777.525, 1236.878
778.807, 918.039
780.089, 1246.156
781.370, 934.230
782.651, 1034.260
783.932, 1163.248
785.213, 825.191
786.493, 1165.092
787.773, 1004.949
789.053, 1055.763
790.333, 1190.533
791.613, 1115.260
792.892, 1298.945
794.171, 1182.585
795.450, 1334.183
796.729, 1553.737
798.007, 1334.248
799.285, 1642.715
800.563, 1571.140
801.841, 1521.521
803.119, 1719.860
804.396, 1483.155
805.673, 1656.408
806.950, 1553.618
808.227, 1396.786
809.504, 1579.910
810.780, 1189.993
812.056, 1298.033
813.332, 1273.029
814.607, 1037.982
815.883, 1166.892
817.158, 954.758
818.433, 850.580
819.708, 951.358
820.982, 733.093
822.256, 951.784
823.531, 581.431
824.804, 699.034
826.078, 768.594
827.352, 474.111
828.625, 741.585
829.898, 529.015
831.170, 558.403
832.443, 667.749
833.715, 304.051
834.988, 621.312
836.259, 378.530
837.531, 371.706
838.803, 597.840
840.074, 227.934
841.345, 486.981
842.616, 320.988
843.886, 214.954
845.157, 434.356
846.427, 131.235
847.697, 338.836
848.966, 305.604
850.236, 37.327
851.505, 392.068
852.774, 3.137
854.043, 129.409
855.312, 309.628
856.580, 40.828
857.849, 328.770
859.117, 21.848
860.384, 150.671
861.652, 223.871
862.919, 21.588
864.186, 116.036
865.453, 77.060
866.720, 67.926
867.986, 178.409
869.253, 155.729
870.519, 143.687
871.784, 28.742
873.050, 132.425
874.315, 144.171
875.581, 191.649
876.846, 118.600
878.110, 90.015
879.375, 166.736
880.639, 113.830
881.903, 283.001
883.167, 15.156
884.431, 2.010
885.694, 201.626
886.957, 182.968
888.220, 134.227
889.483, 28.434
890.746, 142.257
892.008, 191.227
893.270, 76.529
894.532, 97.920
895.794, 30.790
897.056, 172.677
898.317, 120.868
899.578, 173.426
900.839, 53.801
902.099, 53.832
903.360, 249.506
904.620, 47.167
905.880, 173.135
907.140, 228.427
908.399, 51.747
909.659, 258.057
910.918, 65.358
912.177, 201.651
913.435, 354.935
914.694, 27.213
915.952, 524.485
917.210, 299.749
918.468, 399.016
919.726, 588.277
920.983, 280.531
922.240, 643.786
923.497, 558.035
924.754, 504.278
926.011, 839.518
927.267, 638.753
928.523, 925.010
929.779, 996.263
931.035, 877.513
932.290, 1406.784
933.546, 1110.053
934.801, 1422.330
936.056, 1645.604
937.310, 1569.877
938.565, 2013.190
939.819, 1915.502
941.073, 2270.814
942.327, 2813.133
943.580, 2829.452
944.833, 3404.771
946.087, 3517.093
947.340, 3949.416
948.592, 4551.758
949.845, 4589.101
951.097, 5138.449
952.349, 5364.833
953.601, 5311.220
954.853, 5937.624
956.104, 5384.058
957.355, 5560.495
958.606, 5646.990
959.857, 5263.492
961.108, 5789.999
962.358, 5686.567
963.608, 5853.138
964.858, 6669.718
966.108, 6496.323
967.357, 7622.936
968.607, 8019.597
969.856, 8716.269
971.105, 10052.947
972.353, 10299.679
973.602, 11616.419
974.850, 12193.172
976.098, 12389.946
977.346, 13256.732
978.594, 12783.558
979.841, 13080.394
981.088, 13877.238
982.335, 13704.132
983.582, 15181.037
984.828, 16047.952
986.075, 17304.885
987.321, 20041.836
988.567, 20088.834
989.812, 22085.846
991.058, 21902.607
992.303, 20449.680
993.548, 19916.768
994.793, 17563.510
996.038, 16130.639
997.282, 15096.073
998.526, 13333.255
999.770, 13540.494
1001.014, 12722.999
1002.258, 13530.380
1003.501, 13791.443
1004.744, 13088.146
1005.987, 14315.738
1007.230, 14915.611
1008.473, 15833.354
1009.715, 18275.301
1010.957, 19813.172
1012.199, 23181.131
1013.441, 26497.105
1014.682, 29185.221
1015.923, 35286.008
1017.164, 37977.723
1018.405, 41976.059
1019.646, 44922.766
1020.886, 43941.223
1022.127, 45039.398
1023.367, 42328.328
1024.606, 39386.934
1025.846, 37902.723
1027.085, 33531.449
1028.325, 31434.176
1029.564, 29192.262
1030.802, 26171.111
1032.041, 25352.209
1033.279, 23541.158
1034.517, 22099.953
1035.755, 21756.871
1036.993, 19855.990
1038.230, 20057.648
1039.468, 19136.068
1040.705, 18135.352
1041.942, 18474.078
1043.178, 17223.461
1044.415, 16638.400
1045.651, 16387.070
1046.887, 14896.571
1048.123, 14700.495
1049.358, 13990.082
1050.594, 13140.143
1051.829, 13258.321
1053.064, 12328.029
1054.299, 12406.590
1055.533, 12346.365
1056.768, 11884.570
1058.002, 12694.418
1059.236, 12824.300
1060.469, 12694.226
1061.703, 13384.175
1062.936, 12684.456
1064.169, 12864.479
1065.402, 12574.539
1066.635, 11706.665
1067.867, 11606.792
1069.100, 10136.955
1070.332, 9738.071
1071.564, 9558.301
1072.795, 8268.575
1074.027, 8158.883
1075.258, 7279.225
1076.489, 6485.123
1077.720, 6685.534
1078.950, 5785.977
1080.181, 5541.548
1081.411, 5372.059
1082.641, 4491.316
1083.871, 4754.894
1085.100, 4093.505
1086.330, 3685.174
1087.559, 3792.864
1088.788, 3077.587
1090.016, 3101.371
1091.245, 2872.160
1092.473, 2320.982
1093.701, 2514.836
1094.929, 2122.722
1096.157, 1838.101
1097.384, 2049.051
1098.612, 1478.033
1099.839, 1756.387
1101.066, 1515.445
1102.292, 1145.491
1103.519, 1579.393
1104.745, 1137.544
1105.971, 1218.251
1107.197, 1373.462
1108.423, 1032.703
1109.648, 1319.932
1110.873, 1257.231
1112.098, 1087.635
1113.323, 1595.806
1114.548, 1225.193
1115.772, 1472.187
1116.996, 1701.632
1118.220, 1430.103
1119.444, 1853.520
1120.667, 1658.045
1121.891, 1410.678
1123.114, 1836.484
1124.337, 1413.091
1125.560, 1645.913
1126.782, 1681.576
1128.004, 1187.263
1129.227, 1811.784
1130.448, 1444.521
1131.670, 1414.311
1132.892, 1651.709
1134.113, 1191.519
1135.334, 1598.926
1136.555, 1526.789
1137.776, 1323.676
1138.996, 1932.848
1140.216, 1482.787
1141.436, 1578.748
1142.656, 2058.970
1143.876, 1612.977
1145.095, 2272.338
1146.315, 2334.703
1147.534, 2276.781
1148.753, 2840.296
1149.971, 2130.438
1151.190, 2217.630
1152.408, 2316.515
1153.626, 1641.750
1154.844, 1936.200
1156.061, 1719.033
1157.279, 1467.381
1158.496, 1878.349
1159.713, 1504.729
1160.930, 1587.137
1162.146, 1918.063
1163.363, 1411.534
1164.579, 1898.049
1165.795, 1680.361
1167.010, 1542.953
1168.226, 1978.064
1169.441, 1409.683
1170.657, 1596.356
1171.871, 1707.148
1173.086, 1051.900
1174.301, 1426.662
1175.515, 1167.480
1176.729, 789.337
1177.943, 1151.246
1179.157, 656.581
1180.370, 743.543
1181.584, 838.629
1182.797, 325.664
1184.010, 713.706
1185.222, 456.270
1186.435, 277.364
1187.647, 677.465
1188.859, 164.321
1190.071, 307.479
1191.283, 479.888
1192.494, 24.335
1193.706, 430.533
1194.917, 175.886
1196.128, 25.884
1197.338, 450.342
1198.549, 76.339
1199.759, 149.578
1200.969, 344.862
1202.179, 187.791
1203.389, 407.381
1204.598, 143.995
1205.807, 7.167
1207.016, 450.340
1208.225, 15.322
1209.434, 149.845
1210.642, 272.011
1211.850, 66.197
1213.058, 350.945
1214.266, 171.565
1215.474, 35.122
1216.681, 452.002
1217.889, 70.036
1219.096, 46.154
1220.302, 324.270
1221.509, 117.271
1222.715, 303.786
1223.922, 143.840
1225.128, 105.998
1226.334, 278.999
1227.539, 44.605
1228.745, 45.367
1229.950, 200.334
1231.155, 160.368
1232.360, 228.507
1233.564, 188.382
1234.769, 23.067
1235.973, 374.789
1237.177, 46.650
1238.381, 103.500
1239.584, 342.355
1240.787, 60.570
1241.991, 270.202
1243.194, 132.918
1244.396, 117.565
1245.599, 362.066
1246.801, 45.322
1248.004, 73.083
1249.206, 308.445
1250.407, 193.956
1251.609, 201.449
1252.810, 148.819
1254.012, 181.292
1255.212, 307.980
1256.413, 45.243
1257.614, 48.055
1258.814, 348.135
1260.014, 137.719
1261.214, 211.009
1262.414, 301.089
1263.614, 139.839
1264.813, 364.145
1266.012, 66.093
1267.211, 29.984
1268.410, 416.925
1269.609, 75.186
1270.807, 198.450
1272.005, 342.234
1273.203, 98.010
1274.401, 343.755
1275.598, 100.438
1276.796, 22.256
1277.993, 385.895
1279.190, 105.482
1280.387, 216.404
1281.583, 372.944
1282.780, 81.574
1283.976, 290.197
1285.172, 174.592
1286.368, 18.968
1287.563, 517.283
1288.759, 57.552
1289.954, 63.824
1291.149, 427.049
1292.343, 60.757
1293.538, 270.809
1294.732, 293.923
1295.927, 30.991
1297.121, 474.379
1298.314, 113.379
1299.508, 51.354
1300.701, 497.300
1301.895, 24.221
1303.087, 219.105
1304.280, 327.965
1305.473, 102.230
1306.665, 419.501
1307.857, 241.207
1309.049, 6.884
1310.241, 581.518
1311.433, 69.097
1312.624, 203.646
1313.815, 467.161
1315.006, 46.647
1316.197, 425.095
1317.388, 382.515
1318.578, 26.902
1319.768, 520.245
1320.958, 177.559
1322.148, 97.845
1323.338, 531.219
1324.527, 28.421
1325.716, 299.583
1326.906, 476.817
1328.094, 43.083
1329.283, 435.940
1330.471, 264.933
1331.660, 41.875
1332.848, 545.777
1334.035, 56.649
1335.223, 144.486
1336.411, 436.285
1337.598, 17.953
1338.785, 373.757
1339.972, 304.000
1341.158, 4.649
1342.345, 560.250
1343.531, 204.821
1344.717, 191.364
1345.903, 563.480
1347.089, 49.965
1348.274, 351.415
1349.459, 435.202
1350.644, 60.595
1351.829, 465.668
1353.014, 254.104
1354.198, 91.414
1355.383, 555.667
1356.567, 108.931
1357.751, 175.172
1358.934, 585.499
1360.118, 39.704
1361.301, 480.884
1362.484, 428.178
1363.667, 138.315
1364.850, 493.917
1366.032, 267.311
1367.215, 192.417
1368.397, 641.421
1369.579, 121.274
1370.760, 329.654
1371.942, 544.727
1373.123, 6.808
1374.304, 358.722
1375.485, 224.062
1376.666, 81.378
1377.847, 609.042
1379.027, 236.701
1380.207, 242.777
1381.387, 675.334
1382.567, 157.183
1383.747, 415.426
1384.926, 593.403
1386.105, 3.530
1387.284, 623.684
1388.463, 369.370
1389.641, 52.668
1390.820, 653.376
1391.998, 151.914
1393.176, 263.688
1394.354, 620.044
1395.532, 62.359
1396.709, 389.528
1397.886, 440.911
1399.063, 53.802
1400.240, 586.723
1401.417, 172.781
1402.593, 30.988
1403.769, 563.244
1404.945, 164.463
1406.121, 193.926
1407.297, 572.367
1408.472, 1.447
1409.648, 382.993
1410.823, 404.053
1411.998, 0.539
1413.172, 671.364
1414.347, 266.405
1415.521, 127.451
1416.695, 623.581
1417.869, 107.184
1419.043, 294.840
1420.216, 517.676
1421.390, 12.043
1422.563, 407.236
1423.736, 463.711
1424.909, 16.851
1426.081, 535.193
1427.254, 219.636
1428.426, 174.291
1429.598, 617.859
1430.770, 110.245
1431.941, 259.516
1433.113, 517.526
1434.284, 9.860
1435.455, 524.070
1436.626, 423.125
1437.796, 31.035
1438.967, 765.590
1440.137, 383.441
1441.307, 142.607
1442.477, 730.146
1443.646, 201.120
1444.816, 427.782
1445.985, 708.837
1447.154, 122.960
1448.323, 517.301
1449.492, 583.502
1450.660, 101.188
1451.829, 821.497
1452.997, 421.809
1454.165, 263.642
1455.332, 806.781
1456.500, 257.988
1457.667, 380.405
1458.834, 736.697
1460.001, 120.615
1461.168, 617.952
1462.335, 623.385
1463.501, 44.167
1464.667, 687.281
1465.833, 363.659
1466.999, 48.819
1468.165, 709.652
1469.330, 206.936
1470.495, 292.088
1471.660, 634.164
1472.825, 80.362
1473.990, 452.677
1475.154, 572.030
1476.318, 125.914
1477.482, 615.046
1478.646, 422.392
1479.810, 166.708
1480.974, 654.000
1482.137, 261.508
1483.300, 146.027
1484.463, 661.678
1485.626, 151.478
1486.788, 335.348
1487.950, 656.274
1489.113, 7.696
1490.275, 552.722
1491.436, 396.042
1492.598, 45.847
1493.759, 710.542
1494.920, 226.616
1496.081, 134.850
1497.242, 740.397
1498.403, 75.219
1499.563, 267.330
1500.724, 660.761
1501.884, 59.550
1503.043, 507.883
1504.203, 553.288
1505.363, 35.997
1506.522, 623.388
1507.681, 376.023
1508.840, 5.394
1509.999, 771.487
1511.157, 249.634
1512.315, 177.558
