##NAMES=Brazilianite
##RRUFFID=R050504
##IDEAL CHEMISTRY=NaAl_3_(PO_4_)_2_(OH)_4_
##LOCALITY=CÃ³rrego Frio, Minas Gerais, Brazil
##OWNER=RRUFF
##SOURCE=Marcus Origlieri
##DESCRIPTION=Yellowish green fragment
##STATUS=The identification of this mineral has been confirmed by X-ray diffraction and chemical analysis
##URL=rruff.info/R050504
##MEASURED CHEMISTRY=Na_1.00_Al_3.00_(P_1.00_O_4_)_2_(OH)_4_
##PIN_ID=L00856
##ORIENTATION=Laser parallel to -a* (-1 0 0). Fiducial mark perpendicular to laser is parallel to b [0 1 0]
79.89500, 0.0000000E+00
81.13100, 597.5640
82.36700, 1503.165
83.60200, 2385.179
84.83700, 3618.527
86.07200, 5244.084
87.30800, 6456.878
88.54200, 6561.717
89.77700, 5301.644
91.01200, 4211.422
92.24600, 3784.442
93.48000, 3163.768
94.71400, 2530.070
95.94800, 2465.865
97.18200, 2469.950
98.41600, 2923.418
99.64900, 4028.781
100.8830, 6364.117
102.1160, 8747.972
103.3490, 10005.33
104.5820, 9362.568
105.8150, 8713.828
107.0470, 8613.059
108.2800, 8069.177
109.5120, 6549.577
110.7440, 5349.061
111.9760, 4819.461
113.2080, 4546.846
114.4400, 4088.388
115.6710, 3238.022
116.9030, 2760.551
118.1340, 2186.764
119.3650, 1462.498
120.5960, 705.6270
121.8270, 166.0322
123.0580, 62.39160
124.2880, 184.7451
125.5190, 378.1162
126.7490, 364.5898
127.9790, 397.2354
129.2090, 372.1494
130.4390, 339.4199
131.6680, 336.0957
132.8980, 159.2148
134.1270, 139.8105
135.3560, 173.0908
136.5850, 535.4590
137.8140, 876.2686
139.0430, 1401.498
140.2710, 1954.125
141.5000, 2403.128
142.7280, 2985.488
143.9560, 3575.529
145.1840, 3986.346
146.4120, 4131.359
147.6390, 3868.485
148.8670, 3515.951
150.0940, 3250.054
151.3210, 3063.215
152.5490, 2650.172
153.7750, 2617.879
155.0020, 2770.368
156.2290, 3246.801
157.4550, 3830.242
158.6810, 4659.717
159.9080, 5527.238
161.1340, 7191.799
162.3590, 9087.390
163.5850, 10089.01
164.8110, 9848.648
166.0360, 9269.269
167.2610, 8576.824
168.4860, 7812.312
169.7110, 6630.746
170.9360, 5192.136
172.1610, 4035.494
173.3850, 3318.826
174.6100, 2654.140
175.8340, 2396.298
177.0580, 2050.979
178.2820, 1891.146
179.5050, 1805.954
180.7290, 1781.725
181.9520, 1677.506
183.1760, 1845.334
184.3990, 1828.211
185.6220, 1897.136
186.8450, 2101.109
188.0670, 2169.132
189.2900, 2294.201
190.5120, 2545.316
191.7340, 2844.475
192.9560, 2808.676
194.1780, 3015.920
195.4000, 3059.203
196.6220, 3071.525
197.8430, 2685.887
199.0640, 2434.287
200.2860, 2203.723
201.5070, 1964.195
202.7270, 1631.704
203.9480, 1406.246
205.1690, 1079.824
206.3890, 1216.838
207.6090, 1264.324
208.8290, 1689.103
210.0490, 2001.014
211.2690, 2574.709
212.4890, 2860.582
213.7080, 3072.125
214.9280, 3598.896
216.1470, 4110.351
217.3660, 4469.677
218.5850, 4391.879
219.8030, 4214.971
221.0220, 4180.062
222.2400, 3949.335
223.4590, 3714.674
224.6770, 3495.042
225.8950, 3465.917
227.1120, 3173.163
228.3300, 3479.050
229.5480, 3524.193
230.7650, 3568.759
231.9820, 3638.274
233.1990, 3795.764
234.4160, 3964.023
235.6330, 4112.886
236.8490, 4405.957
238.0660, 4481.170
239.2820, 4669.318
240.4980, 4734.293
241.7140, 4610.139
242.9300, 4483.900
244.1460, 3984.613
245.3610, 3570.301
246.5770, 2873.984
247.7920, 2485.674
249.0070, 2043.919
250.2220, 1873.128
251.4370, 1467.400
252.6510, 1320.962
253.8660, 1226.333
255.0800, 1184.889
256.2940, 1071.620
257.5080, 1112.516
258.7220, 1089.568
259.9360, 1146.769
261.1490, 939.1055
262.3630, 1021.570
263.5760, 955.1572
264.7890, 1062.854
266.0020, 1039.656
267.2150, 990.5566
268.4270, 882.5508
269.6400, 797.1611
270.8520, 692.6025
272.0640, 589.3555
273.2760, 497.4121
274.4880, 402.1055
275.7000, 411.5596
276.9120, 354.5840
278.1230, 544.8496
279.3340, 619.6055
280.5450, 642.3193
281.7560, 642.0996
282.9670, 658.9365
284.1780, 838.8271
285.3880, 963.7725
286.5980, 858.7666
287.8090, 956.8105
289.0190, 944.9033
290.2290, 1109.040
291.4380, 1336.209
292.6480, 1373.396
293.8570, 1471.593
295.0670, 1506.792
296.2760, 1622.991
297.4850, 1655.189
298.6930, 1597.389
299.9020, 1596.589
301.1110, 1648.791
302.3190, 1658.998
303.5270, 1708.209
304.7350, 1863.424
305.9430, 1834.642
307.1510, 1750.863
308.3580, 1650.089
309.5660, 1949.319
310.7730, 1808.554
311.9800, 2266.793
313.1870, 2373.036
314.3940, 2510.285
315.6010, 2734.539
316.8070, 2706.801
318.0130, 2646.070
319.2200, 2740.345
320.4260, 2630.627
321.6310, 2563.917
322.8370, 2340.218
324.0430, 1978.531
325.2480, 1627.860
326.4540, 1330.203
327.6590, 969.5615
328.8640, 681.9355
330.0680, 419.3232
331.2730, 172.7275
332.4780, 35.85645
333.6820, 204.4668
334.8860, 332.3242
336.0900, 478.9219
337.2940, 444.8330
338.4980, 623.8701
339.7010, 542.0820
340.9050, 462.4443
342.1080, 522.9375
343.3110, 432.5762
344.5140, 382.3359
345.7170, 248.2051
346.9200, 278.1504
348.1220, 184.1787
349.3240, 239.2676
350.5270, 280.4268
351.7290, 2.326172
352.9310, 150.0762
354.1320, 9.174805
355.3340, 245.9492
356.5350, 4.514648
357.7370, 25.65137
358.9380, 31.55859
360.1390, 42.29102
361.3400, 97.84082
362.5400, 330.3184
363.7410, 322.7119
364.9410, 600.0938
366.1410, 690.4795
367.3410, 946.8984
368.5410, 1009.358
369.7410, 1120.860
370.9400, 1143.405
372.1400, 1252.013
373.3390, 1047.666
374.5380, 976.3506
375.7370, 988.0625
376.9360, 845.7959
378.1350, 974.5488
379.3330, 938.3203
380.5310, 936.1084
381.7300, 852.9121
382.9280, 859.7314
384.1260, 931.5684
385.3230, 920.4219
386.5210, 1093.293
387.7180, 1308.184
388.9160, 1226.096
390.1130, 1531.026
391.3100, 1490.979
392.5060, 1977.953
393.7030, 1991.950
394.9000, 2205.977
396.0960, 2550.036
397.2920, 2695.133
398.4880, 2838.997
399.6840, 3123.440
400.8800, 2981.651
402.0750, 3015.901
403.2710, 3010.194
404.4660, 2834.545
405.6610, 2792.008
406.8560, 2261.566
408.0510, 2107.187
409.2450, 1765.882
410.4400, 1544.689
411.6340, 1131.557
412.8280, 891.5146
414.0220, 651.5996
415.2160, 372.8184
416.4100, 290.1924
417.6030, 139.7207
418.7970, 7.392578
419.9900, 21.81348
421.1830, 133.9209
422.3760, 175.9619
423.5690, 22.00000
424.7610, 35.04883
425.9540, 52.14648
427.1460, 146.2979
428.3380, 260.4912
429.5300, 527.7227
430.7220, 792.9902
431.9140, 1040.293
433.1050, 1281.640
434.2970, 1476.021
435.4880, 1742.458
436.6790, 2018.932
437.8700, 2211.443
439.0610, 2265.994
440.2510, 2197.596
441.4420, 2100.256
442.6320, 2218.971
443.8220, 2047.723
445.0120, 1966.517
446.2020, 1562.352
447.3910, 1477.227
448.5810, 1694.166
449.7700, 2014.154
450.9600, 2025.199
452.1490, 2482.331
453.3370, 2659.506
454.5260, 2988.724
455.7150, 3013.986
456.9030, 3193.292
458.0910, 3443.644
459.2800, 3322.040
460.4670, 3384.480
461.6550, 3260.969
462.8430, 3133.503
464.0300, 2925.084
465.2180, 2745.713
466.4050, 2575.389
467.5920, 2393.115
468.7790, 2371.889
469.9650, 2550.713
471.1520, 2827.587
472.3380, 3147.510
473.5250, 3658.484
474.7110, 4064.163
475.8970, 4950.123
477.0820, 5719.271
478.2680, 6409.994
479.4540, 6920.200
480.6390, 7948.480
481.8240, 8545.879
483.0090, 9099.500
484.1940, 9942.016
485.3780, 10687.04
486.5630, 11535.51
487.7470, 12259.04
488.9320, 13085.54
490.1160, 14389.41
491.3000, 15357.91
492.4830, 16900.30
493.6670, 18304.42
494.8500, 19722.24
496.0340, 21068.27
497.2170, 22467.78
498.4000, 23783.51
499.5820, 24766.08
500.7650, 25787.09
501.9480, 26312.60
503.1300, 27060.81
504.3120, 26975.65
505.4940, 27536.52
506.6760, 27448.46
507.8580, 27863.51
509.0390, 27847.64
510.2210, 27172.87
511.4020, 26862.18
512.5830, 26474.58
513.7640, 25484.08
514.9450, 24465.67
516.1250, 23106.34
517.3060, 22313.11
518.4860, 21118.97
519.6660, 20409.92
520.8460, 19450.96
522.0260, 19334.09
523.2060, 19407.31
524.3850, 19205.63
525.5650, 19646.03
526.7440, 19912.53
527.9230, 20535.12
529.1020, 20416.79
530.2810, 20682.57
531.4590, 20359.43
532.6380, 20072.38
533.8160, 19038.44
534.9940, 18066.57
536.1720, 17180.80
537.3500, 15794.13
538.5270, 14454.55
539.7050, 13370.05
540.8820, 12484.65
542.0590, 11639.35
543.2360, 10917.32
544.4130, 10722.80
545.5900, 10967.24
546.7660, 11317.10
547.9430, 12447.48
549.1190, 13624.39
550.2950, 15237.54
551.4710, 16931.57
552.6470, 19374.02
553.8220, 21279.70
554.9980, 23542.11
556.1730, 24951.14
557.3480, 25582.79
558.5230, 25899.41
559.6980, 25377.38
560.8730, 24874.94
562.0470, 24071.57
563.2220, 23003.81
564.3960, 22089.02
565.5700, 21159.94
566.7440, 19800.65
567.9170, 18827.40
569.0910, 17588.21
570.2640, 16111.94
571.4380, 14639.76
572.6110, 13361.64
573.7840, 12125.02
574.9570, 11117.06
576.1290, 10512.50
577.3020, 10219.70
578.4740, 9806.988
579.6460, 9354.383
580.8180, 9181.494
581.9900, 9335.537
583.1620, 9391.256
584.3330, 9853.004
585.5040, 10285.85
586.6760, 11049.78
587.8470, 12223.78
589.0180, 13319.25
590.1880, 15019.77
591.3590, 17259.23
592.5290, 20095.36
593.7000, 23077.82
594.8700, 26340.43
596.0400, 29530.12
597.2090, 32897.89
598.3790, 35231.77
599.5490, 36297.76
600.7180, 36100.86
601.8870, 34307.06
603.0560, 31607.40
604.2250, 28173.84
605.3940, 25222.39
606.5620, 22220.08
607.7300, 20082.87
608.8990, 18598.81
610.0670, 17444.84
611.2350, 16950.98
612.4020, 16598.21
613.5700, 16290.56
614.7370, 15899.05
615.9050, 15186.64
617.0720, 14396.43
618.2390, 13461.41
619.4060, 12449.63
620.5720, 11244.12
621.7390, 10125.87
622.9050, 9317.916
624.0710, 8907.240
625.2370, 8345.777
626.4030, 8186.572
627.5690, 8090.584
628.7340, 7939.828
629.9000, 7962.455
631.0650, 8038.906
632.2300, 8045.688
633.3950, 8021.625
634.5600, 7705.830
635.7240, 7373.969
636.8890, 6787.340
638.0530, 6383.799
639.2170, 5632.404
640.3810, 5033.096
641.5450, 4572.869
642.7080, 4125.059
643.8720, 3793.463
645.0350, 3565.629
646.1980, 3364.672
647.3610, 3295.766
648.5240, 3311.918
649.6870, 3420.123
650.8490, 3393.377
652.0120, 3705.688
653.1740, 3788.047
654.3360, 3791.459
655.4980, 4079.920
656.6600, 4109.430
657.8210, 4195.988
658.9830, 4138.596
660.1440, 3850.252
661.3050, 3529.951
662.4660, 3458.701
663.6270, 3174.492
664.7870, 2736.330
665.9480, 2368.211
667.1080, 2152.137
668.2680, 1801.105
669.4280, 1491.115
670.5880, 1340.166
671.7480, 1195.258
672.9070, 915.3887
674.0670, 794.9414
675.2260, 696.7676
676.3850, 508.0137
677.5440, 406.2988
678.7030, 361.6191
679.8610, 359.9746
681.0200, 166.3652
682.1780, 4.208984
683.3360, 24.75391
684.4940, 129.2773
685.6520, 359.8145
686.8090, 294.4688
687.9670, 128.2129
689.1240, 208.9727
690.2810, 346.7871
691.4380, 128.7207
692.5950, 262.6758
693.7520, 307.7148
694.9080, 243.8594
696.0650, 139.0801
697.2210, 155.3340
698.3770, 76.24609
699.5330, 11.92773
700.6880, 8.791016
701.8440, 103.4648
702.9990, 83.70898
704.1550, 151.9238
705.3100, 51.17773
706.4650, 71.43555
707.6190, 22.70508
708.7740, 107.0273
709.9290, 53.77930
711.0830, 53.54688
712.2370, 2.335938
713.3910, 137.1309
714.5450, 65.05664
715.6980, 72.73633
716.8520, 129.3672
718.0050, 27.16602
719.1580, 23.21484
720.3110, 80.63867
721.4640, 29.33398
722.6170, 110.0137
723.7700, 32.74414
724.9220, 174.6016
726.0740, 118.0918
727.2260, 67.81250
728.3780, 6.800781
729.5300, 21.97070
730.6810, 157.8418
731.8330, 134.7090
732.9840, 56.36133
734.1350, 169.5625
735.2860, 72.26758
736.4370, 119.1016
737.5880, 171.8281
738.7380, 168.5137
739.8880, 171.9102
741.0390, 298.6484
742.1890, 314.5527
743.3380, 591.0996
744.4880, 663.5215
745.6380, 554.3750
746.7870, 811.2754
747.9360, 782.7461
749.0850, 855.1094
750.2340, 988.9727
751.3830, 1066.543
752.5310, 1109.307
753.6800, 1317.980
754.8280, 1455.551
755.9760, 1476.891
757.1240, 1738.402
758.2720, 1855.572
759.4190, 2002.328
760.5670, 2253.488
761.7140, 2275.000
762.8610, 2314.152
764.0080, 2464.240
765.1550, 2411.920
766.3020, 2495.742
767.4480, 2446.689
768.5950, 2358.971
769.7410, 2231.875
770.8870, 2492.943
772.0330, 2308.262
773.1780, 2005.680
774.3240, 2135.691
775.4690, 1830.678
776.6140, 1751.621
777.7590, 1749.520
778.9040, 1583.375
780.0490, 1731.184
781.1940, 1652.947
782.3380, 1439.666
783.4820, 1606.338
784.6260, 1660.963
785.7700, 1826.543
786.9140, 1966.965
788.0580, 2037.248
789.2010, 2232.994
790.3450, 2275.381
791.4880, 2304.719
792.6310, 2561.006
793.7730, 2607.246
794.9160, 3063.438
796.0590, 2976.576
797.2010, 3222.664
798.3430, 3550.701
799.4850, 3549.688
800.6270, 3903.625
801.7690, 3578.508
802.9100, 3953.340
804.0520, 3851.117
805.1930, 3899.846
806.3340, 3758.520
807.4750, 3678.139
808.6160, 3560.705
809.7560, 3610.219
810.8970, 3345.676
812.0370, 3138.082
813.1770, 3143.430
814.3170, 2903.723
815.4570, 2676.963
816.5960, 2746.148
817.7360, 2234.275
818.8750, 2235.350
820.0140, 2365.176
821.1530, 2026.529
822.2920, 2220.965
823.4310, 1949.016
824.5690, 1833.578
825.7070, 1691.639
826.8460, 1574.504
827.9840, 1455.656
829.1220, 1431.154
830.2590, 1273.594
831.3970, 1153.336
832.5340, 1128.482
833.6710, 975.0566
834.8080, 983.6836
835.9450, 856.2109
837.0820, 854.6465
838.2190, 646.7363
839.3550, 569.4473
840.4910, 470.9688
841.6270, 537.9355
842.7630, 540.6953
843.8990, 611.4453
845.0350, 443.1641
846.1700, 401.9941
847.3060, 317.7754
848.4410, 347.5078
849.5760, 326.7910
850.7100, 295.4258
851.8450, 280.7051
852.9800, 147.2441
854.1140, 4.726563
855.2480, 150.1035
856.3820, 150.7852
857.5160, 7.560547
858.6500, 67.66602
859.7830, 33.62305
860.9170, 238.7559
862.0500, 87.71094
863.1830, 82.59961
864.3160, 192.0527
865.4480, 8.529297
866.5810, 62.95703
867.7130, 13.22266
868.8460, 158.7266
869.9780, 83.58984
871.1100, 34.84570
872.2410, 35.97266
873.3730, 50.90625
874.5050, 50.95703
875.6360, 63.12695
876.7670, 69.42383
877.8980, 104.8457
879.0290, 36.41602
880.1590, 131.0938
881.2900, 91.28125
882.4200, 172.9043
883.5500, 8.056641
884.6800, 87.29883
885.8100, 80.32617
886.9400, 173.1074
888.0690, 177.7148
889.1990, 18.49805
890.3280, 289.3750
891.4570, 48.48438
892.5860, 132.6992
893.7140, 161.0664
894.8430, 124.5957
895.9710, 85.26758
897.1000, 93.06250
898.2280, 86.02148
899.3560, 58.94727
900.4830, 8.984375
901.6110, 107.1504
902.7380, 159.4141
903.8660, 157.1699
904.9930, 36.28320
906.1200, 53.17773
907.2460, 32.59180
908.3730, 116.0430
909.5000, 39.19727
910.6260, 199.3926
911.7520, 242.5488
912.8780, 227.6719
914.0040, 188.7598
915.1290, 223.8145
916.2550, 334.8340
917.3800, 235.8203
918.5050, 311.7734
919.6300, 485.6953
920.7550, 366.5840
921.8800, 502.4414
923.0040, 445.2656
924.1290, 419.0586
925.2530, 711.8242
926.3770, 405.5547
927.5010, 535.2617
928.6250, 959.9355
929.7480, 759.5820
930.8720, 1163.203
931.9950, 1010.791
933.1180, 1131.357
934.2410, 1236.893
935.3640, 1387.402
936.4860, 1405.887
937.6090, 1697.348
938.7310, 1918.781
939.8530, 1998.191
940.9750, 2061.580
942.0970, 2375.945
943.2180, 2674.285
944.3400, 2561.602
945.4610, 2953.898
946.5820, 3074.184
947.7030, 3309.445
948.8240, 3073.688
949.9450, 3189.910
951.0650, 3398.111
952.1860, 3261.297
953.3060, 3385.461
954.4260, 3204.609
955.5460, 3638.740
956.6650, 3586.867
957.7850, 3634.014
958.9040, 3747.221
960.0230, 3895.465
961.1420, 4315.754
962.2610, 4421.053
963.3800, 4802.436
964.4990, 5268.840
965.6170, 5394.285
966.7350, 5997.793
967.8530, 6606.338
968.9710, 7155.930
970.0890, 7821.566
971.2070, 8825.209
972.3240, 9577.848
973.4410, 10626.48
974.5580, 11585.16
975.6750, 13122.87
976.7920, 14391.63
977.9090, 16136.41
979.0250, 18043.21
980.1410, 20970.04
981.2580, 23887.90
982.3740, 27405.78
983.4890, 30677.70
984.6050, 34480.64
985.7200, 37704.57
986.8360, 39521.52
987.9510, 40541.66
989.0660, 39817.63
990.1810, 38041.84
991.2950, 34832.10
992.4100, 31140.66
993.5240, 27803.17
994.6390, 24460.32
995.7530, 21649.38
996.8660, 19219.58
997.9800, 17563.70
999.0940, 16587.65
1000.207, 15669.82
1001.320, 15341.69
1002.433, 15012.10
1003.546, 15075.41
1004.659, 15273.19
1005.772, 15860.47
1006.884, 16802.65
1007.996, 18049.96
1009.108, 19754.33
1010.220, 21141.99
1011.332, 23644.34
1012.444, 25916.54
1013.555, 28829.10
1014.666, 31361.82
1015.777, 33258.11
1016.888, 34876.43
1017.999, 35339.16
1019.110, 35219.02
1020.220, 34236.40
1021.331, 33095.06
1022.441, 30630.54
1023.551, 28700.12
1024.661, 26410.83
1025.770, 24662.77
1026.880, 22738.55
1027.989, 21054.70
1029.098, 19887.25
1030.207, 19053.42
1031.316, 18346.24
1032.425, 17865.41
1033.533, 17203.64
1034.642, 17060.31
1035.750, 17051.83
1036.858, 16914.21
1037.966, 17242.26
1039.073, 17219.69
1040.181, 17338.95
1041.288, 17217.96
1042.396, 17002.86
1043.503, 17012.16
1044.610, 16494.48
1045.716, 15973.84
1046.823, 15684.24
1047.929, 15255.68
1049.036, 14837.16
1050.142, 14584.68
1051.248, 14243.23
1052.353, 14230.82
1053.459, 13829.45
1054.564, 13980.12
1055.670, 13630.83
1056.775, 13246.58
1057.880, 13355.38
1058.985, 12884.21
1060.089, 12951.08
1061.194, 12818.99
1062.298, 12764.95
1063.402, 12244.96
1064.506, 12112.00
1065.610, 11699.09
1066.713, 11576.22
1067.817, 10970.39
1068.920, 11088.61
1070.023, 10692.87
1071.126, 10371.19
1072.229, 10161.53
1073.332, 9837.818
1074.435, 9604.352
1075.537, 9381.828
1076.639, 9170.344
1077.741, 9073.904
1078.843, 8483.072
1079.945, 8245.723
1081.046, 7905.418
1082.148, 7292.154
1083.249, 6892.941
1084.350, 6278.771
1085.451, 5791.646
1086.551, 5124.564
1087.652, 4588.531
1088.752, 3876.840
1089.853, 3504.154
1090.953, 3223.627
1092.053, 2685.785
1093.152, 2503.975
1094.252, 2330.209
1095.351, 1937.645
1096.451, 1726.449
1097.550, 1564.996
1098.649, 1495.061
1099.748, 1317.592
1100.846, 1345.754
1101.945, 1078.873
1103.043, 1019.455
1104.141, 1181.080
1105.239, 1217.232
1106.337, 1380.168
1107.434, 1407.029
1108.532, 1653.676
1109.629, 2130.902
1110.726, 2256.777
1111.823, 2606.521
1112.920, 3297.121
1114.017, 3803.494
1115.113, 3952.562
1116.210, 4334.215
1117.306, 4680.328
1118.402, 4766.479
1119.498, 4804.564
1120.593, 4724.795
1121.689, 4720.875
1122.784, 4658.701
1123.879, 4589.717
1124.974, 4460.166
1126.069, 4409.102
1127.164, 4212.576
1128.259, 4200.170
1129.353, 4135.014
1130.447, 3869.766
1131.541, 3951.643
1132.635, 3908.430
1133.729, 3649.266
1134.822, 3848.166
1135.916, 3907.172
1137.009, 3516.230
1138.102, 3959.473
1139.195, 3904.609
1140.288, 4227.023
1141.380, 4194.340
1142.473, 4664.000
1143.565, 4852.471
1144.657, 5306.250
1145.749, 5188.203
1146.841, 5639.951
1147.932, 5500.830
1149.024, 5447.719
1150.115, 4699.240
1151.206, 4238.256
1152.297, 3686.314
1153.388, 3168.475
1154.479, 2609.734
1155.569, 2607.039
1156.659, 2080.477
1157.750, 2016.107
1158.839, 1739.371
1159.929, 1556.084
1161.019, 1462.893
1162.108, 1504.770
1163.198, 1374.717
1164.287, 1244.693
1165.376, 1329.307
1166.465, 1126.381
1167.553, 922.5312
1168.642, 1129.762
1169.730, 885.0215
1170.818, 781.3262
1171.906, 871.6641
1172.994, 578.0703
1174.082, 758.6895
1175.170, 622.1934
1176.257, 664.7754
1177.344, 537.3242
1178.431, 406.9180
1179.518, 187.5449
1180.605, 375.1680
1181.691, 548.8145
1182.778, 371.4824
1183.864, 346.1816
1184.950, 202.9043
1186.036, 221.6465
1187.122, 290.4102
1188.207, 137.1973
1189.292, 405.0039
1190.378, 167.8320
1191.463, 182.6777
1192.548, 91.07031
1193.632, 43.67578
1194.717, 101.1094
1195.801, 70.03516
1196.886, 81.98242
1197.970, 201.0996
1199.054, 93.07617
1200.137, 30.10156
1201.221, 5.117188
1202.305, 92.14648
1203.388, 52.18945
1204.471, 79.95703
1205.554, 98.31836
1206.637, 67.40430
1207.719, 16.50781
1208.802, 67.37500
1209.884, 79.73438
1210.966, 159.8613
1212.048, 137.9883
1213.130, 207.3555
1214.212, 155.5977
1215.293, 126.8555
1216.374, 131.0391
1217.456, 52.84961
1218.536, 50.56641
1219.617, 73.35156
1220.698, 18.15234
1221.778, 64.94727
1222.859, 58.24414
1223.939, 89.44531
1225.019, 122.3496
1226.099, 47.18359
1227.178, 6.025391
1228.258, 22.86328
1229.337, 0.6015630
1230.417, 136.2363
1231.496, 101.0586
1232.574, 90.00781
1233.653, 126.5723
1234.732, 37.23047
1235.810, 87.47461
1236.888, 147.4473
1237.966, 41.27148
1239.044, 116.2812
1240.122, 91.55078
1241.199, 119.5645
1242.277, 146.6934
1243.354, 76.94531
1244.431, 181.2402
1245.508, 92.63281
1246.585, 66.21094
1247.661, 152.7695
1248.738, 8.675781
1249.814, 56.86719
1250.890, 118.2539
1251.966, 68.78125
1253.042, 111.3125
1254.117, 135.3164
1255.193, 7.785156
1256.268, 97.65234
1257.343, 49.63281
1258.418, 131.0879
1259.493, 24.12109
1260.567, 95.43750
1261.642, 65.11133
1262.716, 98.96094
