##NAMES=Brazilianite
##RRUFFID=R050504
##IDEAL CHEMISTRY=NaAl_3_(PO_4_)_2_(OH)_4_
##LOCALITY=CÃ³rrego Frio, Minas Gerais, Brazil
##OWNER=RRUFF
##SOURCE=Marcus Origlieri
##DESCRIPTION=Yellowish green fragment
##STATUS=The identification of this mineral has been confirmed by X-ray diffraction and chemical analysis
##URL=rruff.info/R050504
##MEASURED CHEMISTRY=Na_1.00_Al_3.00_(P_1.00_O_4_)_2_(OH)_4_
##PIN_ID=L00567
##ORIENTATION=Laser parallel to (1 0 1). Fiducial mark perpendicular to laser is parallel to b [0 1 0]
83.60200, 0.0000000E+00
84.83700, 2.817383
86.07200, 265.6836
87.30800, 275.6289
88.54200, 193.8984
89.77700, 247.4814
91.01200, 268.5586
92.24600, 253.4004
93.48000, 170.5742
94.71400, 17.96680
95.94800, 109.9854
97.18200, 118.8057
98.41600, 153.9980
99.64900, 253.1494
100.8830, 399.9492
102.1160, 532.1348
103.3490, 527.4697
104.5820, 658.7490
105.8150, 718.8096
107.0470, 861.5020
108.2800, 927.6914
109.5120, 896.2559
110.7440, 648.0840
111.9760, 418.0771
113.2080, 350.1465
114.4400, 364.2168
115.6710, 424.2725
116.9030, 341.3203
118.1340, 368.2910
119.3650, 176.1084
120.5960, 313.7041
121.8270, 19.00098
123.0580, 155.9326
124.2880, 149.5059
125.5190, 95.73633
126.7490, 107.6035
127.9790, 161.0547
129.2090, 83.04688
130.4390, 37.53809
131.6680, 153.4961
132.8980, 301.8896
134.1270, 136.6914
135.3560, 286.8789
136.5850, 262.4316
137.8140, 439.3281
139.0430, 786.5527
140.2710, 602.0879
141.5000, 868.9229
142.7280, 1243.042
143.9560, 910.4355
145.1840, 732.1318
146.4120, 835.6934
147.6390, 976.2246
148.8670, 863.2930
150.0940, 963.5840
151.3210, 781.0020
152.5490, 908.5439
153.7750, 896.2080
155.0020, 1024.994
156.2290, 1299.900
157.4550, 1395.859
158.6810, 2062.699
159.9080, 2644.471
161.1340, 3887.254
162.3590, 5321.371
163.5850, 7189.139
164.8110, 8577.611
166.0360, 9521.649
167.2610, 10968.15
168.4860, 12811.72
169.7110, 13845.29
170.9360, 13205.85
172.1610, 12289.43
173.3850, 11636.02
174.6100, 10510.63
175.8340, 8843.264
177.0580, 6700.928
178.2820, 4753.627
179.5050, 4024.365
180.7290, 2378.144
181.9520, 1863.965
183.1760, 1364.834
184.3990, 1134.751
185.6220, 1135.719
186.8450, 1073.739
188.0670, 1103.813
189.2900, 1106.943
190.5120, 1096.499
191.7340, 1062.372
192.9560, 1095.673
194.1780, 1168.033
195.4000, 1149.451
196.6220, 1283.931
197.8430, 1389.469
199.0640, 1634.069
200.2860, 1722.521
201.5070, 1857.451
202.7270, 1887.232
203.9480, 1891.076
205.1690, 1766.980
206.3890, 1763.271
207.6090, 1846.473
208.8290, 1965.137
210.0490, 1912.404
211.2690, 1935.124
212.4890, 2114.098
213.7080, 2241.935
214.9280, 2113.515
216.1470, 2218.165
217.3660, 2171.886
218.5850, 2080.677
219.8030, 2167.535
221.0220, 2234.459
222.2400, 2252.444
223.4590, 2248.492
224.6770, 2216.604
225.8950, 2192.776
227.1120, 2145.452
228.3300, 2172.311
229.5480, 2037.674
230.7650, 1998.693
231.9820, 1947.489
233.1990, 1702.031
234.4160, 1630.121
235.6330, 1505.068
236.8490, 1257.632
238.0660, 1274.909
239.2820, 1111.546
240.4980, 973.8408
241.7140, 1160.263
242.9300, 1463.266
244.1460, 1624.730
245.3610, 1793.562
246.5770, 1858.732
247.7920, 1963.834
249.0070, 1924.862
250.2220, 1842.528
251.4370, 1755.698
252.6510, 1476.439
253.8660, 1372.626
255.0800, 1064.956
256.2940, 808.4229
257.5080, 567.0225
258.7220, 311.7480
259.9360, 240.5957
261.1490, 110.5615
262.3630, 93.64062
263.5760, 92.82812
264.7890, 172.1221
266.0020, 440.5166
267.2150, 416.0107
268.4270, 549.6006
269.6400, 811.2852
270.8520, 920.0605
272.0640, 1136.306
273.2760, 1449.877
274.4880, 1515.912
275.7000, 1565.030
276.9120, 1713.229
278.1230, 1555.506
279.3340, 1607.859
280.5450, 1486.290
281.7560, 1260.795
282.9670, 1136.372
284.1780, 1015.022
285.3880, 862.7422
286.5980, 985.5332
287.8090, 975.3916
289.0190, 1026.318
290.2290, 1323.311
291.4380, 1266.369
292.6480, 1477.489
293.8570, 1550.667
295.0670, 1596.899
296.2760, 1325.186
297.4850, 1316.527
298.6930, 990.9219
299.9020, 941.3701
301.1110, 751.8711
302.3190, 645.4248
303.5270, 567.0312
304.7350, 461.6914
305.9430, 594.4062
307.1510, 590.1758
308.3580, 760.9980
309.5660, 691.8711
310.7730, 901.7910
311.9800, 947.7568
313.1870, 845.7656
314.3940, 986.8184
315.6010, 912.9150
316.8070, 868.0566
318.0130, 830.2412
319.2200, 616.4697
320.4260, 561.7441
321.6310, 459.0625
322.8370, 293.4258
324.0430, 233.8350
325.2480, 130.5967
326.4540, 161.7861
327.6590, 35.67090
328.8640, 92.09766
330.0680, 199.5049
331.2730, 140.9170
332.4780, 75.32031
333.6820, 262.7012
334.8860, 47.10059
336.0900, 82.47363
337.2940, 173.8252
338.4980, 49.17676
339.7010, 30.49707
340.9050, 111.7861
342.1080, 19.94336
343.3110, 179.7129
344.5140, 247.9873
345.7170, 581.3867
346.9200, 603.2910
348.1220, 898.2412
349.3240, 1154.234
350.5270, 1435.273
351.7290, 1597.340
352.9310, 1919.362
354.1320, 2000.360
355.3340, 2023.160
356.5350, 2001.229
357.7370, 1907.171
358.9380, 1859.119
360.1390, 1771.115
361.3400, 1345.160
362.5400, 1290.254
363.7410, 955.3965
364.9410, 759.5869
366.1410, 556.8252
367.3410, 611.1133
368.5410, 541.4482
369.7410, 586.8311
370.9400, 577.2627
372.1400, 606.7422
373.3390, 587.2695
374.5380, 562.8467
375.7370, 527.5029
376.9360, 466.6396
378.1350, 372.0498
379.3330, 285.9346
380.5310, 114.8896
381.7300, 66.08496
382.9280, 166.0410
384.1260, 265.0234
385.3230, 393.0771
386.5210, 378.2598
387.7180, 437.5684
388.9160, 330.0293
390.1130, 332.5957
391.3100, 291.2686
392.5060, 317.0293
393.7030, 139.8916
394.9000, 114.2266
396.0960, 21.40430
397.2920, 90.62695
398.4880, 529.9219
399.6840, 481.2871
400.8800, 671.7207
402.0750, 599.2109
403.2710, 1004.758
404.4660, 1212.361
405.6610, 1474.021
406.8560, 1553.785
408.0510, 1886.637
409.2450, 1775.543
410.4400, 1969.572
411.6340, 2212.758
412.8280, 2213.059
414.0220, 2119.502
415.2160, 2204.043
416.4100, 2081.309
417.6030, 1965.496
418.7970, 1880.352
419.9900, 1749.283
421.1830, 1608.295
422.3760, 1500.416
423.5690, 1757.605
424.7610, 1553.869
425.9540, 1512.219
427.1460, 1681.670
428.3380, 1607.238
429.5300, 1790.867
430.7220, 1909.555
431.9140, 1945.293
433.1050, 2234.086
434.2970, 2427.932
435.4880, 2379.830
436.6790, 2429.787
437.8700, 2684.797
439.0610, 2382.859
440.2510, 2422.973
441.4420, 2354.141
442.6320, 2134.357
443.8220, 2067.629
445.0120, 2144.951
446.2020, 1772.326
447.3910, 1697.752
448.5810, 1641.230
449.7700, 1731.758
450.9600, 1603.340
452.1490, 1777.980
453.3370, 1631.670
454.5260, 1807.424
455.7150, 1881.229
456.9030, 2044.088
458.0910, 2127.000
459.2800, 2099.965
460.4670, 2271.980
461.6550, 2231.057
462.8430, 2330.184
464.0300, 2215.367
465.2180, 2113.600
466.4050, 2029.885
467.5920, 1840.223
468.7790, 1623.611
469.9650, 1532.053
471.1520, 1640.752
472.3380, 1450.855
473.5250, 1482.582
474.7110, 1731.268
475.8970, 1951.244
477.0820, 2043.740
478.2680, 2333.074
479.4540, 2634.783
480.6390, 2807.930
481.8240, 2872.262
483.0090, 3099.027
484.1940, 3303.371
485.3780, 3561.885
486.5630, 3566.072
487.7470, 3862.311
488.9320, 4002.605
490.1160, 4365.953
491.3000, 4921.355
492.4830, 5058.812
493.6670, 5635.322
494.8500, 5931.885
496.0340, 6242.502
497.2170, 6753.172
498.4000, 7037.898
499.5820, 7621.680
500.7650, 7360.512
501.9480, 7620.398
503.1300, 7936.344
504.3120, 7908.338
505.4940, 8020.389
506.6760, 8108.492
507.8580, 8063.652
509.0390, 8161.861
510.2210, 8235.129
511.4020, 7916.445
512.5830, 8089.816
513.7640, 8083.240
514.9450, 7819.717
516.1250, 8202.242
517.3060, 8050.824
518.4860, 8145.457
519.6660, 8037.137
520.8460, 8288.871
522.0260, 8334.656
523.2060, 8381.494
524.3850, 8788.422
525.5650, 9109.373
526.7440, 9337.023
527.9230, 9511.744
529.1020, 9846.324
530.2810, 9906.730
531.4590, 10086.05
532.6380, 10138.29
533.8160, 10078.86
534.9940, 9696.092
536.1720, 9460.912
537.3500, 8905.391
538.5270, 8547.223
539.7050, 8191.199
540.8820, 8020.123
542.0590, 7824.291
543.2360, 7544.053
544.4130, 7837.873
545.5900, 7988.742
546.7660, 8606.686
547.9430, 9071.965
549.1190, 9972.910
550.2950, 10772.13
551.4710, 12025.19
552.6470, 12915.67
553.8220, 14171.07
554.9980, 15745.77
556.1730, 16496.38
557.3480, 17416.19
558.5230, 18235.53
559.6980, 18533.37
560.8730, 18943.71
562.0470, 18764.88
563.2220, 18491.03
564.3960, 17882.32
565.5700, 16788.02
566.7440, 15847.19
567.9170, 14768.68
569.0910, 13466.95
570.2640, 12278.49
571.4380, 10690.06
572.6110, 9625.133
573.7840, 8786.211
574.9570, 7944.340
576.1290, 7260.256
577.3020, 6516.062
578.4740, 6149.318
579.6460, 5614.633
580.8180, 5304.979
581.9900, 5297.359
583.1620, 5171.775
584.3330, 5150.230
585.5040, 5292.715
586.6760, 5705.234
587.8470, 5917.785
589.0180, 6368.369
590.1880, 7089.010
591.3590, 8064.691
592.5290, 8988.764
593.7000, 10266.56
594.8700, 11479.41
596.0400, 12525.29
597.2090, 13047.80
598.3790, 13362.22
599.5490, 13806.19
600.7180, 13450.20
601.8870, 12869.92
603.0560, 11983.42
604.2250, 11281.68
605.3940, 10207.93
606.5620, 9523.234
607.7300, 8809.852
608.8990, 8455.209
610.0670, 8206.592
611.2350, 7572.359
612.4020, 7389.830
613.5700, 7119.410
614.7370, 6575.061
615.9050, 6122.768
617.0720, 5648.523
618.2390, 5035.367
619.4060, 4607.254
620.5720, 4352.203
621.7390, 4071.230
622.9050, 4317.295
624.0710, 4189.400
625.2370, 4187.559
626.4030, 4385.768
627.5690, 4327.990
628.7340, 4785.271
629.9000, 4855.568
631.0650, 5163.879
632.2300, 5144.207
633.3950, 5130.551
634.5600, 4849.908
635.7240, 4685.281
636.8890, 4361.672
638.0530, 3916.076
639.2170, 3634.053
640.3810, 3327.922
641.5450, 2898.365
642.7080, 2513.818
643.8720, 2175.285
645.0350, 2116.760
646.1980, 1704.246
647.3610, 1749.742
648.5240, 1628.246
649.6870, 1348.762
650.8490, 1430.285
652.0120, 1323.814
653.1740, 1224.354
654.3360, 1290.898
655.4980, 1123.453
656.6600, 1046.012
657.8210, 1019.537
658.9830, 757.1465
660.1440, 846.7207
661.3050, 731.3008
662.4660, 497.8867
663.6270, 516.4746
664.7870, 405.0898
665.9480, 417.7539
667.1080, 364.4902
668.2680, 245.3242
669.4280, 290.2539
670.5880, 208.2949
671.7480, 97.41797
672.9070, 293.6270
674.0670, 257.9082
675.2260, 174.2715
676.3850, 279.6699
677.5440, 160.0684
678.7030, 24.52734
679.8610, 21.15625
681.0200, 5.812500
682.1780, 104.5078
683.3360, 134.8223
684.4940, 97.13672
685.6520, 72.44141
686.8090, 149.1328
687.9670, 89.93164
689.1240, 64.59961
690.2810, 222.0547
691.4380, 353.6270
692.5950, 190.5605
693.7520, 304.6543
694.9080, 122.0723
696.0650, 237.9512
697.2210, 212.5898
698.3770, 0.4570310
699.5330, 41.34570
700.6880, 54.05469
701.8440, 169.2266
702.9990, 1.041016
704.1550, 23.41016
705.3100, 80.87109
706.4650, 135.1523
707.6190, 193.6328
708.7740, 25.21484
709.9290, 71.61523
711.0830, 129.4629
712.2370, 197.9004
713.3910, 246.8828
714.5450, 76.30859
715.6980, 86.53320
716.8520, 266.2578
718.0050, 400.5078
719.1580, 244.7051
720.3110, 523.8457
721.4640, 287.5117
722.6170, 341.2793
723.7700, 348.6855
724.9220, 309.0176
726.0740, 317.2129
727.2260, 246.2324
728.3780, 290.4199
729.5300, 216.8066
730.6810, 71.76172
731.8330, 196.1406
732.9840, 57.82812
734.1350, 206.0781
735.2860, 134.0430
736.4370, 143.8594
737.5880, 303.6426
738.7380, 249.7031
739.8880, 85.11328
741.0390, 181.2441
742.1890, 228.8633
743.3380, 276.1348
744.4880, 347.1758
745.6380, 205.7324
746.7870, 377.2578
747.9360, 270.7500
749.0850, 201.2148
750.2340, 269.1562
751.3830, 395.5020
752.5310, 439.9277
753.6800, 280.3477
754.8280, 599.6504
755.9760, 592.4141
757.1240, 645.6953
758.2720, 364.6113
759.4190, 732.4141
760.5670, 583.5469
761.7140, 656.7500
762.8610, 595.9805
764.0080, 657.7812
765.1550, 547.7695
766.3020, 590.2383
767.4480, 838.1523
768.5950, 720.0273
769.7410, 765.8652
770.8870, 799.6660
772.0330, 623.4277
773.1780, 600.1504
774.3240, 602.1836
775.4690, 619.9023
776.6140, 572.9492
777.7590, 528.0781
778.9040, 485.6074
780.0490, 526.0977
781.1940, 468.5488
782.3380, 497.9609
783.4820, 450.3320
784.6260, 506.6660
785.7700, 685.9590
786.9140, 514.2129
788.0580, 621.4258
789.2010, 605.5996
790.3450, 550.7324
791.4880, 497.8242
792.6310, 708.8770
793.7730, 661.8906
794.9160, 779.8633
796.0590, 773.7930
797.2010, 717.6836
798.3430, 636.5352
799.4850, 685.3477
800.6270, 748.1172
801.7690, 643.8477
802.9100, 770.5352
804.0520, 766.1836
805.1930, 677.7891
806.3340, 776.3555
807.4750, 521.8770
808.6160, 647.3555
809.7560, 549.7930
810.8970, 562.1855
812.0370, 384.5332
813.1770, 605.8398
814.3170, 614.1016
815.4570, 473.3203
816.5960, 665.1113
817.7360, 418.9668
818.8750, 363.5898
820.0140, 384.6328
821.1530, 319.6348
822.2920, 616.5938
823.4310, 288.4941
824.5690, 436.0703
825.7070, 119.9883
826.8460, 246.6367
827.9840, 211.4473
829.1220, 202.8496
830.2590, 194.3477
831.3970, 201.5449
832.5340, 77.84375
833.6710, 169.9512
834.8080, 44.53125
835.9450, 169.6113
837.0820, 123.2109
838.2190, 38.97070
839.3550, 44.75977
840.4910, 29.40820
841.6270, 61.63672
842.7630, 123.4141
843.8990, 133.8672
845.0350, 49.43945
846.1700, 103.9531
847.3060, 99.66992
848.4410, 82.16992
849.5760, 23.98633
850.7100, 75.79102
851.8450, 172.7891
852.9800, 39.09375
854.1140, 48.44141
855.2480, 101.1348
856.3820, 108.6836
857.5160, 33.20703
858.6500, 24.69922
859.7830, 45.15234
860.9170, 49.58008
862.0500, 61.97852
863.1830, 138.3496
864.3160, 73.30664
865.4480, 1.957031
866.5810, 121.1777
867.7130, 175.9863
868.8460, 22.92188
869.9780, 17.92383
871.1100, 48.03906
872.2410, 74.37500
873.3730, 71.79492
874.5050, 84.31445
875.6360, 59.50391
876.7670, 200.4121
877.8980, 114.1523
879.0290, 14.69141
880.1590, 92.22070
881.2900, 139.1699
882.4200, 7.750000
883.5500, 53.58789
884.6800, 129.9004
885.8100, 99.16602
886.9400, 202.9512
888.0690, 28.13281
889.1990, 19.19531
890.3280, 64.23633
891.4570, 25.73828
892.5860, 20.25000
893.7140, 63.78320
894.8430, 47.95703
895.9710, 96.00391
897.1000, 74.14453
898.2280, 0.3457030
899.3560, 103.5664
900.4830, 204.1406
901.6110, 150.1660
902.7380, 176.4336
903.8660, 250.0195
904.9930, 302.5898
906.1200, 130.1465
907.2460, 318.6875
908.3730, 33.21484
909.5000, 15.26953
910.6260, 0.7753910
911.7520, 170.7070
912.8780, 41.17578
914.0040, 173.6309
915.1290, 315.0781
916.2550, 206.5098
917.3800, 293.9316
918.5050, 245.3418
919.6300, 426.7441
920.7550, 254.1328
921.8800, 488.5137
923.0040, 249.8848
924.1290, 352.2480
925.2530, 225.6016
926.3770, 748.9492
927.5010, 641.2852
928.6250, 525.6152
929.7480, 712.9375
930.8720, 657.2520
931.9950, 609.5625
933.1180, 884.8652
934.2410, 954.1621
935.3640, 1008.453
936.4860, 1183.740
937.6090, 1295.021
938.7310, 1289.301
939.8530, 1492.580
940.9750, 1624.514
942.0970, 1955.127
943.2180, 2045.396
944.3400, 2392.664
945.4610, 2713.930
946.5820, 2690.197
947.7030, 2941.500
948.8240, 2941.836
949.9450, 3096.184
951.0650, 3250.570
952.1860, 3045.977
953.3060, 3329.443
954.4260, 3293.945
955.5460, 3347.449
956.6650, 3522.955
957.7850, 3578.463
958.9040, 3769.848
960.0230, 3898.410
961.1420, 4387.609
962.2610, 4867.994
963.3800, 5160.223
964.4990, 5813.713
965.6170, 6374.297
966.7350, 7034.113
967.8530, 7936.346
968.9710, 8930.258
970.0890, 9250.332
971.2070, 9269.408
972.3240, 9936.277
973.4410, 10027.58
974.5580, 9672.488
975.6750, 9680.930
976.7920, 9714.430
977.9090, 9645.723
979.0250, 9804.152
980.1410, 10272.19
981.2580, 10193.66
982.3740, 10580.71
983.4890, 11267.21
984.6050, 11853.16
985.7200, 12069.70
986.8360, 12431.42
987.9510, 12543.63
989.0660, 12156.33
990.1810, 11652.07
991.2950, 10888.87
992.4100, 10304.14
993.5240, 9491.316
994.6390, 8832.852
995.7530, 8295.514
996.8660, 7892.344
997.9800, 7673.346
999.0940, 7869.176
1000.207, 8088.801
1001.320, 8534.855
1002.433, 8932.473
1003.546, 9630.822
1004.659, 10631.60
1005.772, 11590.65
1006.884, 13244.85
1007.996, 14880.06
1009.108, 17051.01
1010.220, 19779.59
1011.332, 22683.48
1012.444, 25557.87
1013.555, 28592.61
1014.666, 31584.57
1015.777, 34409.02
1016.888, 35933.48
1017.999, 37284.97
1019.110, 37175.49
1020.220, 36836.52
1021.331, 35473.15
1022.441, 33509.68
1023.551, 31855.21
1024.661, 29740.86
1025.770, 27884.05
1026.880, 25809.71
1027.989, 23977.72
1029.098, 22284.86
1030.207, 21024.66
1031.316, 20162.39
1032.425, 19173.08
1033.533, 18626.20
1034.642, 18006.11
1035.750, 17335.54
1036.858, 16779.53
1037.966, 16237.54
1039.073, 15977.58
1040.181, 15123.65
1041.288, 14671.76
1042.396, 14281.89
1043.503, 13560.72
1044.610, 12832.85
1045.716, 11849.08
1046.823, 11526.35
1047.929, 10555.64
1049.036, 10107.98
1050.142, 9861.340
1051.248, 9438.734
1052.353, 9093.395
1053.459, 8896.629
1054.564, 8418.125
1055.670, 8416.650
1056.775, 8187.213
1057.880, 8366.809
1058.985, 8073.439
1060.089, 8297.102
1061.194, 7841.799
1062.298, 7845.531
1063.402, 7830.295
1064.506, 7585.094
1065.610, 7286.926
1066.713, 7079.797
1067.817, 6967.699
1068.920, 6109.637
1070.023, 6098.607
1071.126, 5358.615
1072.229, 5098.639
1073.332, 4740.715
1074.435, 4200.824
1075.537, 4181.982
1076.639, 3492.174
1077.741, 3259.398
1078.843, 3020.371
1079.945, 2841.609
1081.046, 2626.115
1082.148, 2401.877
1083.249, 2207.898
1084.350, 1966.447
1085.451, 1749.154
1086.551, 1551.299
1087.652, 1419.832
1088.752, 1223.395
1089.853, 983.9941
1090.953, 1107.623
1092.053, 1020.285
1093.152, 826.0684
1094.252, 788.8066
1095.351, 707.5781
1096.451, 600.3867
1097.550, 356.2266
1098.649, 454.1035
1099.748, 442.0078
1100.846, 514.9551
1101.945, 227.9316
1103.043, 229.9473
1104.141, 517.9941
1105.239, 24.65820
1106.337, 417.4297
1107.434, 227.5840
1108.532, 269.7773
1109.629, 367.0039
1110.726, 335.2598
1111.823, 802.5430
1112.920, 643.1270
1114.017, 602.1660
1115.113, 678.8262
1116.210, 361.2852
1117.306, 534.7871
1118.402, 503.8926
1119.498, 650.4492
1120.593, 365.3770
1121.689, 619.0312
1122.784, 399.7168
1123.879, 604.7051
1124.974, 525.1055
1126.069, 624.8789
1127.164, 789.2988
1128.259, 607.4512
1129.353, 601.3125
1130.447, 522.1992
1131.541, 795.1367
1132.635, 790.1055
1133.729, 905.0996
1134.822, 799.5566
1135.916, 940.6973
1137.009, 921.8730
1138.102, 1118.082
1139.195, 1195.311
1140.288, 1411.564
1141.380, 1659.867
1142.473, 1891.475
1143.565, 2264.902
1144.657, 2528.387
1145.749, 2777.902
1146.841, 2575.467
1147.932, 2832.051
1149.024, 2468.666
1150.115, 2439.305
1151.206, 2329.965
1152.297, 2102.676
1153.388, 1593.490
1154.479, 1507.322
1155.569, 1220.174
1156.659, 1236.102
1157.750, 1042.002
1158.839, 981.9258
1159.929, 1021.480
1161.019, 1231.902
1162.108, 1141.914
1163.198, 1200.963
1164.287, 1326.031
1165.376, 1100.146
1166.465, 1171.293
1167.553, 891.4980
1168.642, 1307.719
1169.730, 1124.521
1170.818, 1047.219
1171.906, 1009.494
1172.994, 836.7852
1174.082, 651.2305
1175.170, 622.5586
1176.257, 491.9062
1177.344, 401.2656
1178.431, 543.6445
1179.518, 239.0352
1180.605, 331.4414
1181.691, 222.8594
1182.778, 145.2949
1183.864, 159.7422
1184.950, 258.2012
1186.036, 212.6758
1187.122, 226.1602
1188.207, 265.6602
1189.292, 218.1699
1190.378, 258.8398
1191.463, 56.22461
1192.548, 231.7676
1193.632, 180.3223
1194.717, 28.88867
1195.801, 135.5820
1196.886, 151.1699
1197.970, 107.8301
1199.054, 172.4375
1200.137, 150.0527
1201.221, 124.6973
1202.305, 34.68555
1203.388, 88.86328
1204.471, 70.74023
1205.554, 120.2246
1206.637, 184.4102
1207.719, 96.07812
1208.802, 23.25000
1209.884, 158.3496
1210.966, 160.7402
1212.048, 52.15039
1213.130, 171.0020
1214.212, 29.99805
1215.293, 188.5508
1216.374, 114.1660
1217.456, 57.15039
1218.536, 156.4727
1219.617, 109.8008
1220.698, 230.1621
1221.778, 49.53320
1222.859, 45.07617
1223.939, 72.35156
1225.019, 240.7285
1226.099, 31.10938
1227.178, 299.0566
1228.258, 115.8340
1229.337, 118.2383
1230.417, 67.63281
1231.496, 67.02734
1232.574, 26.40625
1233.653, 21.83398
1234.732, 4.753906
1235.810, 45.34570
1236.888, 37.29883
1237.966, 87.83203
1239.044, 280.2148
1240.122, 20.59766
1241.199, 84.98242
1242.277, 11.36719
1243.354, 119.2539
1244.431, 156.9395
1245.508, 136.2852
1246.585, 71.49023
1247.661, 3.882813
1248.738, 188.0508
1249.814, 25.78125
1250.890, 129.5840
1251.966, 141.7773
1253.042, 14.91211
1254.117, 42.96094
1255.193, 147.1895
1256.268, 183.6680
1257.343, 130.2109
1258.418, 170.3906
1259.493, 106.5059
1260.567, 56.38086
1261.642, 220.2520
1262.716, 123.4258
1263.790, 154.0137
1264.864, 108.7402
1265.938, 183.4883
