##NAMES=Brazilianite
##RRUFFID=R050126
##IDEAL CHEMISTRY=NaAl_3_(PO_4_)_2_(OH)_4_
##LOCALITY=Linopolis, Minas Gerais, Brazil
##OWNER=RRUFF
##SOURCE=Carlos and Paulo Vasconcelos
##DESCRIPTION=Pair of greenish yellow elongated crystals
##STATUS=The identification of this mineral has been confirmed by X-ray diffraction and chemical analysis
##URL=rruff.info/R050126
##MEASURED CHEMISTRY=Na_1.00_Al_3.00_(P_1.00_O_4_)_2_((OH)_3.80_F_0.20_)_Î£=4_
##PIN_ID=L00537
##ORIENTATION=Laser parallel to b* (0 1 0). Fiducial mark perpendicular to laser is parallel to c [0 0 1]
134.381, 0.000
135.776, 2.279
137.170, 4.757
138.564, 43.693
139.958, 181.908
141.351, 160.913
142.745, 296.270
144.138, 277.294
145.530, 546.880
146.923, 585.354
148.315, 783.521
149.707, 925.636
151.099, 814.688
152.490, 748.820
153.881, 501.555
155.272, 450.362
156.663, 272.649
158.054, 253.751
159.444, 238.630
160.834, 173.903
162.224, 386.095
163.613, 476.815
165.002, 682.472
166.391, 879.667
167.780, 1185.103
169.169, 1802.293
170.557, 2751.513
171.945, 4450.872
173.333, 6157.465
174.720, 7635.375
176.108, 6932.722
177.495, 4643.619
178.881, 2887.058
180.268, 1527.078
181.654, 918.729
183.040, 459.052
184.426, 232.082
185.812, 171.845
187.197, 14.237
188.582, 37.492
189.967, 31.454
191.351, 22.596
192.736, 76.927
194.120, 10.432
195.504, 17.903
196.887, 69.123
198.271, 206.134
199.654, 330.153
201.036, 525.534
202.419, 559.973
203.801, 625.317
205.184, 672.392
206.565, 696.512
207.947, 808.678
209.328, 692.876
210.710, 799.096
212.090, 684.339
213.471, 602.608
214.851, 617.906
216.232, 521.151
217.611, 647.724
218.991, 777.792
220.370, 1133.680
221.750, 1175.557
223.129, 1065.569
224.507, 894.707
225.886, 627.956
227.264, 595.304
228.642, 535.741
230.019, 734.259
231.397, 824.844
232.774, 902.478
234.151, 896.149
235.528, 598.856
236.904, 444.595
238.281, 284.364
239.656, 330.163
241.032, 452.989
242.408, 664.839
243.783, 919.672
245.158, 973.426
246.533, 1190.032
247.907, 868.526
249.282, 685.002
250.656, 638.489
252.029, 689.990
253.403, 1258.507
254.776, 1688.041
256.149, 1961.592
257.522, 1410.928
258.895, 636.296
260.267, 204.116
261.639, 160.284
263.011, 217.844
264.382, 274.513
265.754, 212.124
267.125, 51.167
268.496, 11.472
269.866, 268.135
271.237, 263.829
272.607, 498.552
273.977, 438.308
275.346, 419.096
276.716, 458.918
278.085, 529.773
279.454, 809.663
280.823, 987.517
282.191, 1305.075
283.559, 1511.384
284.927, 1742.678
286.295, 1924.019
287.662, 1635.408
289.030, 1715.845
290.397, 1206.330
291.763, 948.862
293.130, 615.440
294.496, 353.065
295.862, 312.736
297.228, 117.453
298.594, 193.011
299.959, 112.429
301.324, 104.156
302.689, 161.838
304.053, 111.898
305.418, 192.995
306.782, 276.932
308.146, 514.781
309.509, 749.534
310.873, 1068.193
312.236, 1747.760
313.599, 2220.212
314.961, 2879.516
316.324, 2969.684
317.686, 3132.729
319.048, 3150.668
320.409, 2922.511
321.771, 3210.272
323.132, 2878.958
324.493, 3184.561
325.854, 2970.837
327.214, 2758.966
328.574, 2651.699
329.934, 2305.223
331.294, 2253.680
332.654, 1909.101
334.013, 1932.493
335.372, 1850.860
336.731, 1548.208
338.089, 1663.538
339.448, 1363.854
340.806, 1394.158
342.164, 1212.453
343.521, 1250.739
344.879, 1356.019
346.236, 1283.294
347.593, 1577.566
348.949, 1592.267
350.306, 1978.539
351.662, 2288.921
353.018, 2861.191
354.373, 3734.898
355.729, 4354.208
357.084, 5935.156
358.439, 7274.333
359.794, 8663.157
361.148, 9613.394
362.503, 8924.725
363.857, 8305.907
365.210, 6377.409
366.564, 5099.900
367.917, 3918.414
369.270, 2963.953
370.623, 2636.515
371.976, 1813.103
373.328, 1458.713
374.680, 928.350
376.032, 489.012
377.384, 227.701
378.735, 7.566
380.086, 55.187
381.437, 3.020
382.788, 22.207
384.138, 75.622
385.488, 99.515
386.838, 199.436
388.188, 27.411
389.538, 5.575
390.887, 40.530
392.236, 81.438
393.585, 17.334
394.933, 20.902
396.282, 2.007
397.630, 110.232
398.977, 241.507
400.325, 432.808
401.672, 481.741
403.020, 932.926
404.366, 992.331
405.713, 1374.773
407.059, 1642.244
408.406, 1861.748
409.752, 2549.297
411.097, 2798.870
412.443, 3366.486
413.788, 3426.129
415.133, 3761.812
416.478, 3948.537
417.822, 3636.291
419.167, 3732.108
420.511, 3069.947
421.854, 3022.814
423.198, 2736.244
424.541, 2671.308
425.884, 2834.897
427.227, 2501.834
428.570, 2646.766
429.912, 2349.922
431.254, 2172.087
432.596, 1956.049
433.938, 1563.030
435.280, 1600.162
436.621, 1403.319
437.962, 1540.494
439.303, 1640.691
440.643, 1651.907
441.983, 1865.143
443.323, 1605.398
444.663, 1589.672
446.003, 1197.968
447.342, 784.285
448.681, 560.622
450.020, 257.979
451.359, 207.356
452.697, 132.753
454.035, 85.168
455.373, 118.602
456.711, 18.055
458.048, 81.527
459.386, 52.441
460.723, 7.928
462.059, 60.039
463.396, 109.048
464.732, 45.152
466.068, 8.853
467.404, 96.483
468.740, 193.945
470.075, 176.409
471.410, 338.873
472.745, 179.339
474.080, 364.805
475.414, 204.273
476.748, 179.745
478.082, 169.219
479.416, 144.697
480.749, 201.178
482.083, 206.664
483.416, 300.153
484.749, 400.647
486.081, 425.146
487.413, 598.650
488.745, 628.161
490.077, 815.446
491.409, 1043.206
492.740, 1130.743
494.072, 1527.288
495.402, 1583.843
496.733, 2213.406
498.064, 2438.979
499.394, 2911.561
500.724, 3627.152
502.054, 3832.815
503.383, 4826.360
504.712, 4490.978
506.041, 4918.603
507.370, 5190.237
508.699, 4926.880
510.027, 5409.533
511.355, 5061.198
512.683, 5413.890
514.011, 5605.601
515.338, 5417.348
516.666, 5932.129
517.993, 5775.958
519.319, 6241.815
520.646, 6224.696
521.972, 6212.592
523.298, 6806.501
524.624, 6770.419
525.950, 7674.348
527.275, 7848.288
528.600, 8732.235
529.925, 9626.195
531.250, 9480.257
532.574, 10814.234
533.898, 10998.650
535.222, 11473.119
536.546, 11697.843
537.869, 11036.350
539.193, 11330.618
540.516, 10339.442
541.839, 9634.445
543.161, 9168.301
544.484, 8002.144
545.806, 8117.926
547.128, 7149.387
548.449, 7208.065
549.771, 6934.368
551.092, 6525.412
552.413, 7307.883
553.734, 7028.089
555.054, 7988.410
556.374, 8635.513
557.694, 9407.043
559.014, 11122.982
560.334, 11581.339
561.653, 12921.283
562.972, 13146.757
564.291, 13075.297
565.610, 13941.604
566.928, 13269.113
568.247, 13859.346
569.565, 13004.481
570.882, 12444.180
572.200, 11859.866
573.517, 10169.007
574.834, 9458.509
576.151, 7964.441
577.468, 7159.195
578.784, 6682.802
580.100, 5765.085
581.416, 5859.905
582.732, 5447.962
584.047, 5553.800
585.362, 5788.130
586.677, 5642.772
587.992, 6520.078
589.307, 6312.954
590.621, 7313.546
591.935, 8108.728
593.249, 8743.557
594.563, 10689.146
595.876, 11513.657
597.189, 13888.648
598.502, 16003.392
599.815, 17568.137
601.127, 19682.836
602.440, 18757.316
603.752, 18831.982
605.064, 16626.402
606.375, 13270.794
607.686, 11475.371
608.998, 8769.734
610.308, 7784.141
611.619, 6484.474
612.930, 5529.793
614.240, 5077.282
615.550, 4180.571
616.860, 3968.003
618.169, 3495.468
619.478, 3265.717
620.787, 3257.140
622.096, 2868.717
623.405, 3039.054
624.713, 2713.158
626.021, 2659.340
627.329, 2651.643
628.637, 2449.793
629.945, 2678.055
631.252, 2528.173
632.559, 2485.276
633.866, 2750.709
635.172, 2506.778
636.479, 2882.011
637.785, 2611.046
639.091, 2591.066
640.396, 2636.329
641.702, 2325.314
643.007, 2351.281
644.312, 2119.320
645.617, 2075.253
646.921, 2156.167
648.226, 1932.063
649.530, 2166.018
650.834, 2081.055
652.137, 2225.897
653.441, 2417.719
654.744, 2309.523
656.047, 2702.402
657.350, 2649.304
658.652, 2888.050
659.954, 3114.872
661.256, 3121.578
662.558, 3286.265
663.860, 3155.933
665.161, 3123.580
666.462, 3057.207
667.763, 2562.813
669.064, 2453.399
670.365, 1987.964
671.665, 1813.508
672.965, 1482.031
674.265, 1154.531
675.564, 1121.010
676.864, 823.468
678.163, 738.903
679.462, 651.315
680.760, 479.705
682.059, 508.072
683.357, 363.416
684.655, 280.737
685.953, 239.035
687.250, 149.309
688.548, 178.559
689.845, 70.785
691.142, 60.984
692.438, 35.155
693.735, 38.706
695.031, 31.369
696.327, 44.585
697.623, 13.391
698.918, 39.332
700.214, 120.755
701.509, 9.048
702.804, 81.191
704.098, 39.520
705.393, 4.917
706.687, 95.363
707.981, 17.100
709.275, 69.462
710.568, 72.106
711.861, 12.834
713.155, 78.616
714.447, 11.510
715.740, 27.408
717.032, 52.390
718.325, 23.550
719.617, 29.402
720.908, 6.432
722.200, 11.919
723.491, 55.190
724.782, 36.458
726.073, 45.084
727.364, 22.451
728.654, 35.985
729.944, 39.788
731.234, 19.619
732.524, 120.257
733.814, 33.509
735.103, 0.494
736.392, 68.831
737.681, 58.504
738.969, 64.737
740.258, 29.596
741.546, 9.662
742.834, 39.325
744.122, 105.022
745.409, 35.423
746.697, 83.617
747.984, 123.321
749.270, 68.900
750.557, 197.532
751.844, 95.102
753.130, 137.773
754.416, 133.361
755.701, 143.741
756.987, 191.084
758.272, 143.396
759.557, 196.677
760.842, 213.929
762.127, 151.150
763.411, 240.341
764.695, 183.502
765.979, 275.633
767.263, 233.736
768.547, 150.809
769.830, 271.852
771.113, 154.866
772.396, 219.850
773.679, 269.809
774.961, 145.740
776.243, 275.646
777.525, 154.536
778.807, 202.397
780.089, 222.230
781.370, 148.036
782.651, 228.812
783.932, 147.561
785.213, 203.281
786.493, 212.973
787.773, 90.638
789.053, 226.272
790.333, 127.880
791.613, 192.458
792.892, 203.010
794.171, 103.536
795.450, 242.032
796.729, 164.502
798.007, 139.946
799.285, 224.363
800.563, 169.755
801.841, 196.121
803.119, 136.461
804.396, 110.775
805.673, 233.063
806.950, 166.326
808.227, 210.564
809.504, 123.778
810.780, 111.967
812.056, 176.130
813.332, 118.269
814.607, 173.384
815.883, 186.475
817.158, 198.542
818.433, 249.587
819.708, 230.609
820.982, 345.607
822.256, 392.583
823.531, 345.537
824.804, 569.469
826.078, 528.379
827.352, 655.267
828.625, 765.133
829.898, 802.978
831.170, 936.802
832.443, 915.605
833.715, 1047.388
834.988, 1030.150
836.259, 873.892
837.531, 1021.613
838.803, 818.315
840.074, 734.998
841.345, 723.567
842.616, 560.211
843.886, 630.406
845.157, 450.540
846.427, 406.408
847.697, 497.483
848.966, 301.214
850.236, 410.812
851.505, 383.905
852.774, 304.679
854.043, 345.343
855.312, 291.085
856.580, 286.138
857.849, 289.763
859.117, 216.517
860.384, 309.554
861.652, 250.461
862.919, 194.047
864.186, 261.430
865.453, 118.500
866.720, 171.408
867.986, 108.896
869.253, 111.959
870.519, 98.427
871.784, 6.356
873.050, 80.209
874.315, 11.716
875.581, 27.147
876.846, 76.274
878.110, 35.512
879.375, 16.125
880.639, 3.761
881.903, 58.066
883.167, 2.724
884.431, 96.927
885.694, 39.429
886.957, 22.803
888.220, 99.866
889.483, 37.496
890.746, 89.377
892.008, 43.007
893.270, 30.068
894.532, 121.366
895.794, 8.712
897.056, 73.757
898.317, 70.948
899.578, 37.750
900.839, 60.212
902.099, 5.452
903.360, 3.621
904.620, 42.283
905.880, 8.709
907.140, 37.149
908.399, 61.447
909.659, 50.250
910.918, 21.863
912.177, 113.709
913.435, 28.585
914.694, 132.262
915.952, 165.151
917.210, 74.985
918.468, 228.885
919.726, 128.790
920.983, 196.520
922.240, 278.439
923.497, 185.210
924.754, 321.143
926.011, 262.083
927.267, 353.855
928.523, 485.819
929.779, 458.662
931.035, 556.655
932.290, 691.656
933.546, 633.527
934.801, 892.547
936.056, 839.447
937.310, 1053.485
938.565, 1209.543
939.819, 1247.262
941.073, 1594.342
942.327, 1714.254
943.580, 2035.356
944.833, 2333.487
946.087, 2405.367
947.340, 2984.522
948.592, 3121.714
949.845, 3335.833
951.097, 3798.068
952.349, 3729.316
953.601, 3936.581
954.853, 4007.797
956.104, 3787.927
957.355, 4195.248
958.606, 3881.604
959.857, 4123.973
961.108, 4299.287
962.358, 4198.583
963.608, 4973.027
964.858, 5169.399
966.108, 5553.880
967.357, 6560.382
968.607, 6848.906
969.856, 8229.449
971.105, 9218.016
972.353, 9666.604
973.602, 11305.216
974.850, 11173.862
976.098, 11882.525
977.346, 12051.209
978.594, 11479.914
979.841, 12318.637
981.088, 11987.385
982.335, 12486.167
983.582, 14074.963
984.828, 14313.796
986.075, 16432.646
987.321, 17931.523
988.567, 18120.436
989.812, 18667.795
991.058, 18208.326
992.303, 17207.316
993.548, 15686.353
994.793, 12855.417
996.038, 11894.500
997.282, 10133.606
998.526, 9022.751
999.770, 8741.929
1001.014, 7541.150
1002.258, 7840.404
1003.501, 7569.682
1004.744, 7229.028
1005.987, 8018.403
1007.230, 7537.833
1008.473, 8177.316
1009.715, 8986.832
1010.957, 9366.407
1012.199, 11246.022
1013.441, 11935.688
1014.682, 13515.412
1015.923, 16125.179
1017.164, 16704.994
1018.405, 19404.846
1019.646, 20424.734
1020.886, 20004.680
1022.127, 21304.506
1023.367, 19104.518
1024.606, 18723.709
1025.846, 17813.799
1027.085, 15453.934
1028.325, 15182.253
1029.564, 13582.467
1030.802, 12492.639
1032.041, 12270.152
1033.279, 10740.429
1034.517, 10725.972
1035.755, 10164.826
1036.993, 9154.451
1038.230, 9460.369
1039.468, 8459.590
1040.705, 8416.378
1041.942, 8275.555
1043.178, 7415.310
1044.415, 7440.798
1045.651, 6594.564
1046.887, 6001.302
1048.123, 5886.551
1049.358, 5121.282
1050.594, 5001.132
1051.829, 4642.919
1053.064, 4048.766
1054.299, 4224.501
1055.533, 3838.315
1056.768, 3604.332
1058.002, 3848.380
1059.236, 3631.765
1060.469, 3938.865
1061.703, 3985.991
1062.936, 4169.693
1064.169, 4652.871
1065.402, 4748.075
1066.635, 5282.304
1067.867, 5956.561
1069.100, 5966.843
1070.332, 7023.153
1071.564, 7054.487
1072.795, 7305.972
1074.027, 8017.355
1075.258, 7468.767
1076.489, 8071.872
1077.720, 7963.332
1078.950, 7427.548
1080.181, 8029.059
1081.411, 7400.594
1082.641, 7332.250
1083.871, 7573.834
1085.100, 6799.445
1086.330, 7199.150
1087.559, 6804.812
1088.788, 6320.853
1090.016, 6605.690
1091.245, 5742.424
1092.473, 5657.168
1093.701, 5521.948
1094.929, 4942.838
1096.157, 4988.655
1097.384, 4533.191
1098.612, 4364.170
1099.839, 4534.273
1101.066, 3958.854
1102.292, 4079.323
1103.519, 4147.286
1104.745, 3777.270
1105.971, 4335.577
1107.197, 4046.603
1108.423, 4316.223
1109.648, 4942.980
1110.873, 4983.069
1112.098, 6014.824
1113.323, 6688.952
1114.548, 7376.471
1115.772, 8881.313
1116.996, 8543.500
1118.220, 8517.419
1119.444, 8261.738
1120.667, 6584.829
1121.891, 6060.349
1123.114, 5147.629
1124.337, 4206.202
1125.560, 3895.259
1126.782, 3063.592
1128.004, 2693.668
1129.227, 2567.486
1130.448, 2016.913
1131.670, 2061.578
1132.892, 1693.995
1134.113, 1445.115
1135.334, 1683.406
1136.555, 1239.870
1137.776, 1233.741
1138.996, 1278.468
1140.216, 1038.825
1141.436, 1173.215
1142.656, 1059.756
1143.876, 924.307
1145.095, 1081.030
1146.315, 827.528
1147.534, 996.490
1148.753, 936.960
1149.971, 745.577
1151.190, 904.149
1152.408, 721.496
1153.626, 676.149
1154.844, 742.017
1156.061, 578.943
1157.279, 601.081
1158.496, 605.884
1159.713, 463.826
1160.930, 519.879
1162.146, 423.472
1163.363, 388.207
1164.579, 502.111
1165.795, 363.030
1167.010, 375.790
1168.226, 323.375
1169.441, 262.152
1170.657, 287.049
1171.871, 223.902
1173.086, 180.704
1174.301, 214.767
1175.515, 123.592
1176.729, 170.421
1177.943, 193.348
1179.157, 134.203
1180.370, 118.064
1181.584, 113.362
1182.797, 61.262
1184.010, 158.323
1185.222, 64.378
1186.435, 138.323
1187.647, 78.640
1188.859, 37.821
1190.071, 67.834
1191.283, 65.472
1192.494, 31.516
1193.706, 95.606
1194.917, 51.926
1196.128, 46.449
1197.338, 286.081
1198.549, 44.134
1199.759, 79.189
1200.969, 123.458
1202.179, 20.226
1203.389, 134.627
1204.598, 16.222
1205.807, 68.873
1207.016, 88.937
1208.225, 23.000
1209.434, 47.055
1210.642, 45.825
1211.850, 22.975
1213.058, 81.031
1214.266, 5.729
1215.474, 61.776
1216.681, 64.925
1217.889, 5.907
1219.096, 31.130
1220.302, 12.277
1221.509, 40.637
1222.715, 29.375
1223.922, 56.542
1225.128, 34.438
1226.334, 30.689
1227.539, 3.000
1228.745, 78.966
1229.950, 22.930
1231.155, 40.594
1232.360, 91.341
1233.564, 8.556
1234.769, 2.637
1235.973, 47.274
1237.177, 66.684
1238.381, 16.178
1239.584, 0.041
1240.787, 96.044
1241.991, 10.255
1243.194, 48.464
1244.396, 0.367
1245.599, 7.643
1246.801, 52.829
1248.004, 25.896
1249.206, 12.551
1250.407, 78.761
1251.609, 37.832
1252.810, 81.594
1254.012, 19.029
1255.212, 21.485
1256.413, 16.920
1257.614, 76.528
1258.814, 4.968
1260.014, 31.249
1261.214, 66.111
1262.414, 14.572
1263.614, 20.051
1264.813, 0.458
1266.012, 53.287
1267.211, 43.298
1268.410, 4.492
1269.609, 4.730
1270.807, 49.927
1272.005, 9.939
1273.203, 36.828
1274.401, 37.256
1275.598, 48.676
1276.796, 62.699
1277.993, 10.721
1279.190, 56.221
1280.387, 70.934
1281.583, 16.106
1282.780, 28.960
1283.976, 70.111
1285.172, 11.011
1286.368, 62.610
1287.563, 85.866
1288.759, 37.651
1289.954, 12.488
1291.149, 4.269
1292.343, 15.028
1293.538, 72.775
1294.732, 14.500
1295.927, 21.289
1297.121, 100.969
1298.314, 6.372
1299.508, 41.261
1300.701, 32.875
1301.895, 3.532
1303.087, 45.035
1304.280, 10.582
1305.473, 22.101
1306.665, 118.596
1307.857, 54.070
1309.049, 54.526
1310.241, 124.961
1311.433, 4.377
1312.624, 120.766
1313.815, 65.134
1315.006, 79.481
1316.197, 175.809
1317.388, 54.119
1318.578, 100.409
1319.768, 117.680
1320.958, 76.929
1322.148, 141.161
1323.338, 133.371
1324.527, 49.560
1325.716, 141.729
1326.906, 69.882
1328.094, 75.016
1329.283, 109.129
1330.471, 56.223
1331.660, 67.296
1332.848, 100.347
1334.035, 44.376
1335.223, 155.384
1336.411, 84.691
1337.598, 63.660
1338.785, 130.608
1339.972, 96.538
1341.158, 124.448
1342.345, 123.440
1343.531, 73.312
1344.717, 160.166
1345.903, 107.000
1347.089, 96.817
1348.274, 109.303
1349.459, 120.083
1350.644, 125.845
1351.829, 179.038
1353.014, 46.765
1354.198, 96.472
1355.383, 119.161
1356.567, 50.833
1357.751, 139.486
1358.934, 97.123
1360.118, 92.744
1361.301, 145.226
1362.484, 96.889
1363.667, 111.461
1364.850, 130.348
1366.032, 105.962
1367.215, 140.761
1368.397, 73.487
1369.579, 68.990
1370.760, 151.387
1371.942, 126.403
1373.123, 58.866
1374.304, 127.242
1375.485, 85.665
1376.666, 145.626
1377.847, 153.763
1379.027, 92.203
1380.207, 143.117
1381.387, 184.952
1382.567, 98.061
1383.747, 161.477
1384.926, 107.896
1386.105, 59.589
1387.284, 148.674
1388.463, 74.551
1389.641, 89.283
1390.820, 152.338
1391.998, 92.840
1393.176, 168.017
1394.354, 95.641
1395.532, 89.428
1396.709, 146.766
1397.886, 66.985
1399.063, 91.064
1400.240, 150.238
1401.417, 29.473
1402.593, 86.634
1403.769, 123.320
1404.945, 31.952
1406.121, 30.235
1407.297, 81.021
1408.472, 18.334
1409.648, 89.887
1410.823, 60.150
1411.998, 57.176
1413.172, 115.381
1414.347, 94.434
1415.521, 97.144
1416.695, 62.795
1417.869, 12.680
1419.043, 117.599
1420.216, 51.202
1421.390, 25.989
1422.563, 64.860
1423.736, 22.097
1424.909, 45.479
1426.081, 77.691
1427.254, 22.022
1428.426, 77.703
1429.598, 45.694
1430.770, 52.133
1431.941, 107.625
1433.113, 89.738
1434.284, 57.939
1435.455, 119.237
1436.626, 38.542
1437.796, 66.426
1438.967, 170.492
1440.137, 98.432
1441.307, 135.277
1442.477, 178.989
1443.646, 84.831
1444.816, 121.284
1445.985, 108.547
1447.154, 100.381
1448.323, 147.825
1449.492, 96.551
1450.660, 111.980
1451.829, 129.505
1452.997, 111.198
1454.165, 155.184
1455.332, 177.568
1456.500, 63.208
1457.667, 160.996
1458.834, 135.722
1460.001, 114.348
1461.168, 142.372
1462.335, 103.468
1463.501, 83.486
1464.667, 177.697
1465.833, 89.700
1466.999, 115.769
1468.165, 126.953
1469.330, 85.196
1470.495, 166.183
1471.660, 79.752
1472.825, 78.965
1473.990, 147.361
1475.154, 72.154
1476.318, 71.999
1477.482, 95.912
1478.646, 78.538
1479.810, 63.470
1480.974, 155.409
1482.137, 7.351
1483.300, 100.314
1484.463, 127.329
1485.626, 85.366
1486.788, 101.430
1487.950, 113.546
1489.113, 69.690
1490.275, 137.859
1491.436, 74.078
1492.598, 53.362
1493.759, 116.674
1494.920, 48.010
1496.081, 66.395
1497.242, 90.873
1498.403, 55.418
1499.563, 64.031
1500.724, 116.719
1501.884, 14.706
1503.043, 146.501
1504.203, 57.380
1505.363, 18.351
1506.522, 109.422
1507.681, 0.603
1508.840, 43.911
1509.999, 95.353
1511.157, 4.239
1512.315, 74.455
1513.474, 133.771
1514.632, 43.900
1515.789, 88.640
1516.947, 65.563
1518.104, 0.054
1519.261, 0.000
##END=



