##NAMES=Brazilianite
##RRUFFID=R050319
##IDEAL CHEMISTRY=NaAl_3_(PO_4_)_2_(OH)_4_
##LOCALITY=Minas Gerais, Brazil
##OWNER=RRUFF
##SOURCE=American Museum of Natural History
##DESCRIPTION=Pale green fragment
##STATUS=The identification of this mineral has been confirmed by X-ray diffraction and chemical analysis
##URL=rruff.info/R050319
##MEASURED CHEMISTRY=Na_1.00_Al_3.00_(PO_4_)_2_(OH)_4_
##PIN_ID=M00183
##ORIENTATION=Laser parallel to a* (1 0 0). Fiducial mark perpendicular to laser is parallel to -b [0 -1 0]
86.07200, 0.0000000E+00
87.30800, 138.9785
88.54200, 149.3359
89.77700, 222.8770
91.01200, 230.9424
92.24600, 279.6660
93.48000, 85.66406
94.71400, 151.3184
95.94800, 162.1836
97.18200, 317.7383
98.41600, 351.8359
99.64900, 547.8975
100.8830, 913.6152
102.1160, 1020.726
103.3490, 1165.029
104.5820, 1288.104
105.8150, 1486.979
107.0470, 1564.149
108.2800, 1493.059
109.5120, 1365.074
110.7440, 1212.046
111.9760, 1037.242
113.2080, 950.6543
114.4400, 1170.183
115.6710, 979.7363
116.9030, 897.2402
118.1340, 605.7031
119.3650, 271.1670
120.5960, 197.5508
121.8270, 42.23438
123.0580, 75.73145
124.2880, 72.63379
125.5190, 140.3740
126.7490, 167.5049
127.9790, 121.3818
129.2090, 131.5586
130.4390, 285.6836
131.6680, 90.79199
132.8980, 26.64551
134.1270, 1.333008
135.3560, 402.6963
136.5850, 362.4189
137.8140, 696.4756
139.0430, 902.8457
140.2710, 1144.512
141.5000, 1325.454
142.7280, 1614.657
143.9560, 1810.110
145.1840, 1835.796
146.4120, 2140.723
147.6390, 2438.074
148.8670, 1507.329
150.0940, 1184.898
151.3210, 1123.227
152.5490, 1021.703
153.7750, 912.2041
155.0020, 836.7295
156.2290, 986.2812
157.4550, 1306.859
158.6810, 1516.468
159.9080, 1881.052
161.1340, 2606.487
162.3590, 3414.854
163.5850, 4410.453
164.8110, 4975.482
166.0360, 5460.996
167.2610, 6001.898
168.4860, 7007.976
169.7110, 7741.514
170.9360, 7936.180
172.1610, 7908.836
173.3850, 7580.458
174.6100, 6858.054
175.8340, 5533.631
177.0580, 4142.191
178.2820, 3103.738
179.5050, 2123.247
180.7290, 1626.740
181.9520, 1234.238
183.1760, 1000.741
184.3990, 750.2520
185.6220, 862.7764
186.8450, 952.3154
188.0670, 879.8721
189.2900, 786.4463
190.5120, 955.0420
191.7340, 755.6592
192.9560, 1021.297
194.1780, 1052.959
195.4000, 1035.644
196.6220, 1075.354
197.8430, 1045.088
199.0640, 1006.917
200.2860, 873.6318
201.5070, 894.4424
202.7270, 801.2783
203.9480, 736.1406
205.1690, 385.0283
206.3890, 528.9443
207.6090, 298.6855
208.8290, 657.9268
210.0490, 870.3398
211.2690, 982.1494
212.4890, 1146.174
213.7080, 1267.680
214.9280, 1501.039
216.1470, 1913.533
217.3660, 1727.386
218.5850, 1887.279
219.8030, 1986.211
221.0220, 1682.185
222.2400, 1638.195
223.4590, 1487.239
224.6770, 1283.311
225.8950, 1274.410
227.1120, 1192.539
228.3300, 1246.699
229.5480, 1199.888
230.7650, 1275.105
231.9820, 1385.355
233.1990, 1264.795
234.4160, 1507.234
235.6330, 1493.363
236.8490, 1653.170
238.0660, 1798.233
239.2820, 2062.588
240.4980, 2205.365
241.7140, 2448.617
242.9300, 2796.748
244.1460, 3262.433
245.3610, 3514.627
246.5770, 3765.322
247.7920, 4004.523
249.0070, 4233.061
250.2220, 4754.408
251.4370, 4908.618
252.6510, 4731.941
253.8660, 4615.163
255.0800, 3940.270
256.2940, 3012.560
257.5080, 2359.662
258.7220, 1604.875
259.9360, 1276.192
261.1490, 876.6094
262.3630, 551.1230
263.5760, 538.7275
264.7890, 693.4180
266.0020, 817.1924
267.2150, 894.0459
268.4270, 1050.487
269.6400, 1199.947
270.8520, 1393.546
272.0640, 1555.113
273.2760, 1752.315
274.4880, 1962.580
275.7000, 1946.903
276.9120, 1922.286
278.1230, 1760.725
279.3340, 1683.970
280.5450, 1473.500
281.7560, 1382.101
282.9670, 1403.750
284.1780, 1385.451
285.3880, 1553.199
286.5980, 1771.994
287.8090, 2017.836
289.0190, 2362.724
290.2290, 2526.653
291.4380, 2685.627
292.6480, 2795.644
293.8570, 2852.699
295.0670, 2704.462
296.2760, 2597.914
297.4850, 2193.064
298.6930, 1944.241
299.9020, 1519.444
301.1110, 1293.673
302.3190, 1049.929
303.5270, 1037.213
304.7350, 969.5234
305.9430, 957.8604
307.1510, 1053.225
308.3580, 1119.619
309.5660, 1440.040
310.7730, 1368.487
311.9800, 1401.957
313.1870, 1658.450
314.3940, 1579.966
315.6010, 1360.499
316.8070, 1310.052
318.0130, 1077.624
319.2200, 856.2168
320.4260, 632.8281
321.6310, 626.4590
322.8370, 273.1113
324.0430, 278.7852
325.2480, 29.47852
326.4540, 197.1885
327.6590, 20.08105
328.8640, 94.65430
330.0680, 108.5869
331.2730, 147.8438
332.4780, 53.12500
333.6820, 143.4072
334.8860, 130.7119
336.0900, 248.0371
337.2940, 209.4082
338.4980, 123.8174
339.7010, 221.2441
340.9050, 109.7129
342.1080, 44.19434
343.3110, 141.6777
344.5140, 46.81836
345.7170, 268.3340
346.9200, 238.8721
348.1220, 535.4326
349.3240, 443.0176
350.5270, 748.6260
351.7290, 821.2510
352.9310, 1168.879
354.1320, 1360.488
355.3340, 1570.040
356.5350, 1634.516
357.7370, 1692.869
358.9380, 1431.132
360.1390, 1423.354
361.3400, 1087.553
362.5400, 931.7812
363.7410, 769.0400
364.9410, 671.3301
366.1410, 674.6504
367.3410, 637.0010
368.5410, 725.3838
369.7410, 728.7959
370.9400, 641.2393
372.1400, 649.7158
373.3390, 767.2217
374.5380, 772.7598
375.7370, 624.3291
376.9360, 477.9297
378.1350, 371.4092
379.3330, 265.3018
380.5310, 57.06641
381.7300, 25.87598
382.9280, 144.2832
384.1260, 201.4863
385.3230, 240.4346
386.5210, 217.1367
387.7180, 274.5908
388.9160, 263.1562
390.1130, 234.8281
391.3100, 95.59180
392.5060, 5.384766
393.7030, 222.1650
394.9000, 389.0342
396.0960, 17.07031
397.2920, 125.1006
398.4880, 10.82910
399.6840, 35.77734
400.8800, 275.7559
402.0750, 245.7715
403.2710, 626.8301
404.4660, 631.9248
405.6610, 857.0557
406.8560, 1113.230
408.0510, 1073.447
409.2450, 1324.726
410.4400, 1200.059
411.6340, 1322.472
412.8280, 1326.975
414.0220, 1382.599
415.2160, 1249.323
416.4100, 1252.110
417.6030, 1146.004
418.7970, 966.0098
419.9900, 852.1338
421.1830, 808.4023
422.3760, 831.7988
423.5690, 955.2998
424.7610, 1199.896
425.9540, 1405.982
427.1460, 1763.254
428.3380, 2064.008
429.5300, 2604.798
430.7220, 3101.622
431.9140, 3711.482
433.1050, 4085.377
434.2970, 4880.309
435.4880, 5727.275
436.6790, 6049.275
437.8700, 6699.313
439.0610, 6661.387
440.2510, 6602.495
441.4420, 6231.640
442.6320, 5628.820
443.8220, 5142.037
445.0120, 4657.291
446.2020, 4266.000
447.3910, 3750.906
448.5810, 3732.268
449.7700, 3713.666
450.9600, 3786.100
452.1490, 4267.571
453.3370, 4445.078
454.5260, 4865.621
455.7150, 5457.201
456.9030, 5884.816
458.0910, 6417.471
459.2800, 6996.160
460.4670, 7558.887
461.6550, 8081.649
462.8430, 8222.450
464.0300, 8727.288
465.2180, 8412.159
466.4050, 8530.071
467.5920, 8160.018
468.7790, 7366.178
469.9650, 6924.203
471.1520, 6371.092
472.3380, 5767.191
473.5250, 5174.490
474.7110, 4681.666
475.8970, 4675.971
477.0820, 4328.414
478.2680, 4540.565
479.4540, 4488.354
480.6390, 4650.268
481.8240, 4813.861
483.0090, 4724.178
484.1940, 4933.592
485.3780, 4715.575
486.5630, 4675.312
487.7470, 4610.494
488.9320, 4721.177
490.1160, 4920.904
491.3000, 4975.678
492.4830, 5165.493
493.6670, 5491.354
494.8500, 5880.258
496.0340, 5922.207
497.2170, 6400.201
498.4000, 6511.238
499.5820, 7061.322
500.7650, 7199.453
501.9480, 7412.629
503.1300, 7399.852
504.3120, 7526.121
505.4940, 7749.441
506.6760, 7609.810
507.8580, 7704.225
509.0390, 7722.686
510.2210, 7651.195
511.4020, 7602.748
512.5830, 7654.352
513.7640, 7576.996
514.9450, 7506.688
516.1250, 7523.426
517.3060, 7335.211
518.4860, 7410.041
519.6660, 7347.914
520.8460, 7405.836
522.0260, 7777.801
523.2060, 7883.668
524.3850, 8239.762
525.5650, 8289.982
526.7440, 8652.148
527.9230, 8957.168
529.1020, 9167.609
530.2810, 9310.262
531.4590, 9371.330
532.6380, 9375.297
533.8160, 9278.652
534.9940, 9148.893
536.1720, 8923.527
537.3500, 8688.477
538.5270, 8520.391
539.7050, 8200.594
540.8820, 7874.092
542.0590, 7749.576
543.2360, 7685.412
544.4130, 7809.791
545.5900, 7999.732
546.7660, 8333.730
547.9430, 8906.871
549.1190, 9652.189
550.2950, 10470.52
551.4710, 11371.22
552.6470, 12531.19
553.8220, 13717.71
554.9980, 15118.67
556.1730, 15934.52
557.3480, 16936.82
558.5230, 17533.10
559.6980, 18060.35
560.8730, 18260.94
562.0470, 18375.51
563.2220, 18356.35
564.3960, 17909.59
565.5700, 17030.81
566.7440, 16414.30
567.9170, 15514.89
569.0910, 14274.95
570.2640, 13355.25
571.4380, 12019.32
572.6110, 11080.45
573.7840, 10144.62
574.9570, 9257.879
576.1290, 8540.229
577.3020, 8077.617
578.4740, 7569.049
579.6460, 7178.539
580.8180, 6601.102
581.9900, 6343.645
583.1620, 6255.379
584.3330, 5853.086
585.5040, 5895.820
586.6760, 5784.586
587.8470, 5964.379
589.0180, 5942.205
590.1880, 6200.061
591.3590, 6725.941
592.5290, 7045.854
593.7000, 7631.793
594.8700, 8284.762
596.0400, 8766.758
597.2090, 8968.785
598.3790, 9508.836
599.5490, 9562.938
600.7180, 9370.074
601.8870, 9339.244
603.0560, 8834.459
604.2250, 8756.699
605.3940, 8340.006
606.5620, 8035.348
607.7300, 7989.777
608.8990, 8452.256
610.0670, 8403.801
611.2350, 8351.402
612.4020, 8452.074
613.5700, 8366.777
614.7370, 8235.555
615.9050, 7762.426
617.0720, 7324.391
618.2390, 6696.449
619.4060, 6209.578
620.5720, 5904.811
621.7390, 5432.137
622.9050, 5177.535
624.0710, 5086.023
625.2370, 4681.590
626.4030, 4799.213
627.5690, 5123.898
628.7340, 5170.609
629.9000, 5216.334
631.0650, 5350.096
632.2300, 5040.873
633.3950, 5015.666
634.5600, 5035.477
635.7240, 4584.303
636.8890, 4384.148
638.0530, 4027.012
639.2170, 3371.889
640.3810, 3093.781
641.5450, 2612.688
642.7080, 2081.605
643.8720, 2068.590
645.0350, 1763.336
646.1980, 1437.285
647.3610, 1387.246
648.5240, 1553.400
649.6870, 1159.381
650.8490, 1192.367
652.0120, 1094.363
653.1740, 1002.367
654.3360, 1150.377
655.4980, 761.3945
656.6600, 945.4199
657.8210, 959.4473
658.9830, 773.4805
660.1440, 896.5215
661.3050, 772.5664
662.4660, 676.6113
663.6270, 507.6660
664.7870, 481.1406
665.9480, 347.8418
667.1080, 397.0156
668.2680, 241.2598
669.4280, 160.3848
670.5880, 168.4297
671.7480, 108.4082
672.9070, 182.9316
674.0670, 215.4902
675.2260, 308.0605
676.3850, 213.6914
677.5440, 62.41992
678.7030, 19.16797
679.8610, 114.9473
681.0200, 114.7324
682.1780, 115.5176
683.3360, 0.2968750
684.4940, 55.46875
685.6520, 38.08789
686.8090, 0.8378910
687.9670, 4.416016
689.1240, 72.27734
690.2810, 42.01953
691.4380, 144.0000
692.5950, 166.3301
693.7520, 297.9375
694.9080, 198.4746
696.0650, 23.38477
697.2210, 232.1953
698.3770, 261.0430
699.5330, 280.0371
700.6880, 373.2500
701.8440, 311.9434
702.9990, 220.7324
704.1550, 184.4414
705.3100, 43.52148
706.4650, 8.238281
707.6190, 10.57422
708.7740, 74.85352
709.9290, 199.8965
711.0830, 239.2441
712.2370, 318.4238
713.3910, 420.2500
714.5450, 502.3320
715.6980, 622.0742
716.8520, 914.0566
718.0050, 931.0371
719.1580, 954.0371
720.3110, 1103.836
721.4640, 1063.730
722.6170, 995.1426
723.7700, 811.5273
724.9220, 830.8887
726.0740, 823.3477
727.2260, 774.6543
728.3780, 627.9336
729.5300, 771.1875
730.6810, 700.4141
731.8330, 700.0840
732.9840, 430.2559
734.1350, 497.6660
735.2860, 630.0488
736.4370, 458.1348
737.5880, 554.7539
738.7380, 684.3477
739.8880, 454.4863
741.0390, 407.2188
742.1890, 313.1543
743.3380, 565.1074
744.4880, 512.2031
745.6380, 489.0176
746.7870, 387.9727
747.9360, 511.9941
749.0850, 387.1348
750.2340, 358.6367
751.3830, 471.1777
752.5310, 446.4219
753.6800, 567.1797
754.8280, 425.3359
755.9760, 432.9180
757.1240, 455.1855
758.2720, 459.0488
759.4190, 576.4551
760.5670, 606.9551
761.7140, 649.8379
762.8610, 774.1992
764.0080, 794.5000
765.1550, 853.9297
766.3020, 830.0527
767.4480, 745.1309
768.5950, 631.4141
769.7410, 868.4004
770.8870, 731.3379
772.0330, 619.2305
773.1780, 445.5547
774.3240, 588.1934
775.4690, 566.2402
776.6140, 678.9414
777.7590, 632.1777
778.9040, 695.7852
780.0490, 608.3438
781.1940, 338.8555
782.3380, 261.3164
783.4820, 481.7207
784.6260, 558.0781
785.7700, 319.3867
786.9140, 491.6445
788.0580, 478.8535
789.2010, 404.0117
790.3450, 495.1191
791.4880, 525.1816
792.6310, 536.1914
793.7730, 667.1523
794.9160, 595.0645
796.0590, 553.9258
797.2010, 556.7383
798.3430, 602.5020
799.4850, 777.2129
800.6270, 659.8750
801.7690, 478.4883
802.9100, 560.0508
804.0520, 743.5625
805.1930, 487.0234
806.3340, 642.4336
807.4750, 478.7910
808.6160, 583.0977
809.7560, 648.3516
810.8970, 516.5547
812.0370, 532.7012
813.1770, 457.7969
814.3170, 443.8418
815.4570, 553.8320
816.5960, 397.7676
817.7360, 430.6504
818.8750, 602.4805
820.0140, 380.2559
821.1530, 303.4883
822.2920, 263.1543
823.4310, 480.7578
824.5690, 313.6055
825.7070, 333.4941
826.8460, 275.7539
827.9840, 290.6309
829.1220, 311.2461
830.2590, 379.2930
831.3970, 270.9141
832.5340, 286.6211
833.6710, 177.8906
834.8080, 112.1641
835.9450, 217.4473
837.0820, 125.3984
838.2190, 331.3496
839.3550, 178.0234
840.4910, 30.69531
841.6270, 68.56445
842.7630, 13.54297
843.8990, 122.5957
845.0350, 14.73438
846.1700, 60.18164
847.3060, 53.91211
848.4410, 45.25586
849.5760, 107.6289
850.7100, 176.6426
851.8450, 46.17969
852.9800, 13.95312
854.1140, 35.33789
855.2480, 100.7148
856.3820, 34.78320
857.5160, 101.7695
858.6500, 229.5586
859.7830, 151.8516
860.9170, 166.1094
862.0500, 108.3340
863.1830, 141.5176
864.3160, 150.6699
865.4480, 176.7871
866.5810, 156.3926
867.7130, 60.91992
868.8460, 113.9336
869.9780, 75.37305
871.1100, 72.85547
872.2410, 103.7617
873.3730, 23.36328
874.5050, 24.55664
875.6360, 78.18555
876.7670, 46.11133
877.8980, 157.5195
879.0290, 116.8828
880.1590, 9.398438
881.2900, 197.9648
882.4200, 58.68750
883.5500, 109.4883
884.6800, 113.3926
885.8100, 73.40234
886.9400, 3.501953
888.0690, 41.63281
889.1990, 83.83398
890.3280, 156.1172
891.4570, 69.52539
892.5860, 19.00781
893.7140, 28.53906
894.8430, 44.11914
895.9710, 29.75781
897.1000, 3.447266
898.2280, 80.17383
899.3560, 53.97070
900.4830, 173.1738
901.6110, 151.2930
902.7380, 60.38867
903.8660, 75.53711
904.9930, 97.47461
906.1200, 61.46094
907.2460, 51.42383
908.3730, 14.63477
909.5000, 25.72070
910.6260, 11.83789
911.7520, 62.01953
912.8780, 23.14844
914.0040, 110.6582
915.1290, 147.4453
916.2550, 293.2148
917.3800, 137.9102
918.5050, 374.8398
919.6300, 634.5566
920.7550, 414.2539
921.8800, 149.7500
923.0040, 361.4180
924.1290, 433.0703
925.2530, 282.7051
926.3770, 386.3262
927.5010, 487.9316
928.6250, 533.5254
929.7480, 591.1055
930.8720, 631.2832
931.9950, 625.2500
933.1180, 681.8047
934.2410, 639.3691
935.3640, 658.9219
936.4860, 719.4609
937.6090, 783.9922
938.7310, 782.5137
939.8530, 857.0254
940.9750, 981.5254
942.0970, 1157.021
943.2180, 1281.809
944.3400, 1274.986
945.4610, 1581.457
946.5820, 1750.943
947.7030, 1856.426
948.8240, 1813.900
949.9450, 2088.395
951.0650, 2060.881
952.1860, 2337.363
953.3060, 2549.885
954.4260, 2955.406
955.5460, 3130.922
956.6650, 3101.033
957.7850, 3678.691
958.9040, 4014.209
960.0230, 4443.422
961.1420, 4973.816
962.2610, 5792.764
963.3800, 6233.922
964.4990, 7351.379
965.6170, 8060.051
966.7350, 9281.582
967.8530, 10331.46
968.9710, 11261.24
970.0890, 12029.98
971.2070, 12699.80
972.3240, 13120.75
973.4410, 13428.07
974.5580, 13285.39
975.6750, 13157.55
976.7920, 12917.03
977.9090, 12624.66
979.0250, 12425.88
980.1410, 12334.84
981.2580, 12533.20
982.3740, 13007.00
983.4890, 13541.46
984.6050, 13632.02
985.7200, 13947.31
986.8360, 14218.95
987.9510, 13845.34
989.0660, 13512.74
990.1810, 12937.13
991.2950, 12133.73
992.4100, 11151.25
993.5240, 10112.25
994.6390, 9189.268
995.7530, 8925.328
996.8660, 8306.328
997.9800, 8214.465
999.0940, 8435.664
1000.207, 8380.889
1001.320, 8843.133
1002.433, 9123.936
1003.546, 9787.229
1004.659, 10398.28
1005.772, 11312.34
1006.884, 12408.71
1007.996, 13761.53
1009.108, 15829.38
1010.220, 17875.66
1011.332, 20108.36
1012.444, 22910.83
1013.555, 25533.28
1014.666, 28506.58
1015.777, 30797.16
1016.888, 32766.59
1017.999, 34100.96
1019.110, 34479.24
1020.220, 34177.16
1021.331, 33751.06
1022.441, 32619.24
1023.551, 30914.90
1024.661, 29358.16
1025.770, 27771.98
1026.880, 25885.12
1027.989, 25054.79
1029.098, 23588.62
1030.207, 22710.49
1031.316, 21978.97
1032.425, 21117.96
1033.533, 20434.75
1034.642, 19890.72
1035.750, 19534.13
1036.858, 18959.37
1037.966, 18630.39
1039.073, 18243.71
1040.181, 17745.06
1041.288, 17122.45
1042.396, 16500.40
1043.503, 15783.03
1044.610, 15115.24
1045.716, 13899.78
1046.823, 13036.79
1047.929, 12471.41
1049.036, 11750.07
1050.142, 11040.77
1051.248, 10578.51
1052.353, 9959.299
1053.459, 9187.127
1054.564, 9049.992
1055.670, 8745.902
1056.775, 8246.855
1057.880, 8217.846
1058.985, 7832.879
1060.089, 7923.953
1061.194, 7363.066
1062.298, 7270.225
1063.402, 7011.984
1064.506, 6989.227
1065.610, 6550.783
1066.713, 6277.926
1067.817, 5913.289
1068.920, 6007.699
1070.023, 5632.152
1071.126, 5617.645
1072.229, 4979.195
1073.332, 4764.777
1074.435, 4505.400
1075.537, 4257.066
1076.639, 3861.775
1077.741, 3694.527
1078.843, 3296.867
1079.945, 3349.998
1081.046, 3225.879
1082.148, 3075.162
1083.249, 2980.232
1084.350, 2778.281
1085.451, 2605.723
1086.551, 2403.844
1087.652, 2080.984
1088.752, 1820.166
1089.853, 1609.395
1090.953, 1526.670
1092.053, 1448.988
1093.152, 1314.350
1094.252, 1290.758
1095.351, 1093.211
1096.451, 1128.832
1097.550, 1219.373
1098.649, 1123.367
1099.748, 1141.312
1100.846, 1135.078
1101.945, 1227.791
1103.043, 1306.027
1104.141, 1169.848
1105.239, 1481.715
1106.337, 1960.760
1107.434, 1876.303
1108.532, 2221.736
1109.629, 2702.029
1110.726, 2850.268
1111.823, 3208.121
1112.920, 4017.826
1114.017, 4481.145
1115.113, 4498.182
1116.210, 4788.609
1117.306, 4809.125
1118.402, 4775.947
1119.498, 4299.682
1120.593, 4256.387
1121.689, 4134.428
1122.784, 3869.271
1123.879, 3600.193
1124.974, 3387.307
1126.069, 3380.303
1127.164, 3248.545
1128.259, 2993.609
1129.353, 2795.705
1130.447, 2674.344
1131.541, 2780.045
1132.635, 2619.238
1133.729, 2601.777
1134.822, 2521.258
1135.916, 2738.553
1137.009, 3060.877
1138.102, 2902.586
1139.195, 3183.998
1140.288, 3850.461
1141.380, 4281.969
1142.473, 4947.512
1143.565, 5350.107
1144.657, 6296.734
1145.749, 6323.434
1146.841, 6681.176
1147.932, 6495.008
1149.024, 6012.449
1150.115, 5276.094
1151.206, 4784.211
1152.297, 4147.744
1153.388, 3567.488
1154.479, 3138.018
1155.569, 2511.234
1156.659, 2190.527
1157.750, 1830.871
1158.839, 1801.254
1159.929, 1526.678
1161.019, 1652.143
1162.108, 1633.648
1163.198, 1595.186
1164.287, 1542.787
1165.376, 1502.434
1166.465, 1446.318
1167.553, 1361.807
1168.642, 1310.531
1169.730, 1289.303
1170.818, 1176.859
1171.906, 1222.941
1172.994, 946.8086
1174.082, 763.7285
1175.170, 737.6758
1176.257, 480.6504
1177.344, 573.6484
1178.431, 561.6777
1179.518, 530.7285
1180.605, 435.8027
1181.691, 397.2207
1182.778, 292.0195
1183.864, 266.1641
1184.950, 274.3301
1186.036, 232.5156
1187.122, 316.7246
1188.207, 266.7754
1189.292, 62.20508
1190.378, 244.4785
1191.463, 137.7734
1192.548, 161.5664
1193.632, 90.57812
1194.717, 62.75000
1195.801, 17.90234
1196.886, 114.5410
1197.970, 80.80469
1199.054, 54.16992
1200.137, 91.55469
1201.221, 69.13672
1202.305, 5.558594
1203.388, 60.29883
1204.471, 276.4512
1205.554, 122.9238
1206.637, 80.41211
1207.719, 113.9160
1208.802, 114.5625
1209.884, 14.06445
1210.966, 99.44336
1212.048, 107.0312
1213.130, 123.4648
1214.212, 5.023438
1215.293, 173.4980
1216.374, 33.03320
1217.456, 36.43164
1218.536, 83.91211
1219.617, 71.40625
1220.698, 92.91211
1221.778, 93.00195
1222.859, 74.96484
1223.939, 78.51172
1225.019, 18.07031
1226.099, 0.3613280
1227.178, 174.2168
1228.258, 62.19336
1229.337, 208.6211
1230.417, 97.14062
1231.496, 147.3027
1232.574, 99.86133
1233.653, 58.55664
1234.732, 24.98633
1235.810, 17.43945
1236.888, 5.003906
1237.966, 58.35547
1239.044, 71.15820
1240.122, 135.7793
1241.199, 22.46289
1242.277, 54.15625
1243.354, 75.12305
1244.431, 37.59180
1245.508, 49.67383
1246.585, 96.03125
1247.661, 13.30859
1248.738, 40.41211
1249.814, 44.83789
1250.890, 108.9023
1251.966, 278.2930
1253.042, 118.5098
1254.117, 22.62109
1255.193, 215.7520
1256.268, 69.11719
1257.343, 145.0293
1258.418, 152.9707
1259.493, 119.0273
1260.567, 2.095703
1261.642, 97.81641
1262.716, 3.732422
1263.790, 31.63477
1264.864, 223.8281
1265.938, 322.7305
1267.011, 6.630859
1268.085, 181.1328
1269.158, 191.0215
