##NAMES=Brazilianite
##RRUFFID=R050504
##IDEAL CHEMISTRY=NaAl_3_(PO_4_)_2_(OH)_4_
##LOCALITY=CÃ³rrego Frio, Minas Gerais, Brazil
##OWNER=RRUFF
##SOURCE=Marcus Origlieri
##DESCRIPTION=Yellowish green fragment
##STATUS=The identification of this mineral has been confirmed by X-ray diffraction and chemical analysis
##URL=rruff.info/R050504
##MEASURED CHEMISTRY=Na_1.00_Al_3.00_(P_1.00_O_4_)_2_(OH)_4_
##PIN_ID=L00856
##ORIENTATION=Laser parallel to -a* (-1 0 0). Fiducial mark perpendicular to laser is parallel to b [0 1 0]
84.83700, 0.0000000E+00
86.07200, 43.25146
87.30800, 6.075195
88.54200, 129.8970
89.77700, 107.6460
91.01200, 221.6255
92.24600, 273.1021
93.48000, 175.2642
94.71400, 302.8408
95.94800, 257.9170
97.18200, 257.8145
98.41600, 436.0005
99.64900, 434.0356
100.8830, 631.5625
102.1160, 784.2935
103.3490, 799.9844
104.5820, 795.4482
105.8150, 751.5366
107.0470, 883.1201
108.2800, 998.0737
109.5120, 1002.282
110.7440, 914.6367
111.9760, 1073.041
113.2080, 1022.404
114.4400, 953.6489
115.6710, 973.7051
116.9030, 636.5264
118.1340, 497.0640
119.3650, 343.2612
120.5960, 284.0674
121.8270, 280.4956
123.0580, 138.5664
124.2880, 298.2686
125.5190, 130.5874
126.7490, 225.4980
127.9790, 256.9517
129.2090, 257.8984
130.4390, 249.2915
131.6680, 49.09229
132.8980, 7.267090
134.1270, 19.78516
135.3560, 56.62109
136.5850, 8.749512
137.8140, 328.1504
139.0430, 543.8047
140.2710, 475.6958
141.5000, 837.8081
142.7280, 1067.127
143.9560, 1202.641
145.1840, 1303.414
146.4120, 1427.318
147.6390, 1249.549
148.8670, 1077.990
150.0940, 896.6211
151.3210, 778.3726
152.5490, 674.2378
153.7750, 417.2119
155.0020, 310.2900
156.2290, 350.5654
157.4550, 390.7109
158.6810, 581.7441
159.9080, 834.0464
161.1340, 1457.681
162.3590, 2269.728
163.5850, 3272.166
164.8110, 4124.865
166.0360, 4672.837
167.2610, 5540.029
168.4860, 7095.240
169.7110, 8964.412
170.9360, 9756.517
172.1610, 9199.566
173.3850, 7843.566
174.6100, 6529.521
175.8340, 5015.441
177.0580, 3749.328
178.2820, 2731.188
179.5050, 1904.021
180.7290, 1363.835
181.9520, 1034.630
183.1760, 917.4092
184.3990, 767.1768
185.6220, 672.9326
186.8450, 575.6807
188.0670, 471.4219
189.2900, 388.1582
190.5120, 432.8916
191.7340, 338.6445
192.9560, 342.2920
194.1780, 289.0811
195.4000, 317.8125
196.6220, 369.5449
197.8430, 354.2793
199.0640, 281.0166
200.2860, 229.7568
201.5070, 237.5000
202.7270, 189.2471
203.9480, 150.9961
205.1690, 170.4648
206.3890, 212.1494
207.6090, 240.1787
208.8290, 421.3135
210.0490, 555.3242
211.2690, 798.2236
212.4890, 1006.944
213.7080, 1396.508
214.9280, 1586.200
216.1470, 1944.898
217.3660, 2019.605
218.5850, 1957.318
219.8030, 1757.042
221.0220, 1347.771
222.2400, 1048.510
223.4590, 828.2549
224.6770, 532.0088
225.8950, 356.7715
227.1120, 264.2266
228.3300, 362.6650
229.5480, 323.0361
230.7650, 446.7383
231.9820, 404.4922
233.1990, 605.7500
234.4160, 794.6543
235.6330, 1196.225
236.8490, 1306.146
238.0660, 1699.223
239.2820, 2113.953
240.4980, 2530.275
241.7140, 3316.336
242.9300, 4112.025
244.1460, 5223.225
245.3610, 5709.123
246.5770, 6146.670
247.7920, 6882.127
249.0070, 8166.995
250.2220, 9555.281
251.4370, 10093.81
252.6510, 9144.323
253.8660, 7360.943
255.0800, 5794.660
256.2940, 4438.471
257.5080, 3281.195
258.7220, 2271.343
259.9360, 1669.399
261.1490, 1340.529
262.3630, 1227.730
263.5760, 1134.998
264.7890, 1332.330
266.0020, 1373.724
267.2150, 1692.176
268.4270, 1931.684
269.6400, 2082.245
270.8520, 2337.857
272.0640, 2594.519
273.2760, 2626.226
274.4880, 2771.978
275.7000, 2459.771
276.9120, 2295.605
278.1230, 1795.480
279.3340, 1359.392
280.5450, 1048.340
281.7560, 757.3252
282.9670, 504.3428
284.1780, 275.3955
285.3880, 302.4785
286.5980, 296.5957
287.8090, 260.7412
289.0190, 345.9170
290.2290, 201.1230
291.4380, 336.3574
292.6480, 400.6191
293.8570, 304.9062
295.0670, 289.2197
296.2760, 382.5566
297.4850, 213.9189
298.6930, 293.3037
299.9020, 193.7129
301.1110, 230.1455
302.3190, 589.5996
303.5270, 675.0732
304.7350, 813.5615
305.9430, 1268.064
307.1510, 1404.580
308.3580, 1784.107
309.5660, 2059.643
310.7730, 2259.186
311.9800, 2273.458
313.1870, 2306.296
314.3940, 2014.859
315.6010, 1758.432
316.8070, 1410.011
318.0130, 989.5986
319.2200, 737.1934
320.4260, 504.7979
321.6310, 341.4121
322.8370, 145.0342
324.0430, 79.66699
325.2480, 2.308594
326.4540, 4.7851998E-02
327.6590, 154.5957
328.8640, 114.2510
330.0680, 96.91699
331.2730, 5.406250
332.4780, 3.728516
333.6820, 103.9502
334.8860, 41.64062
336.0900, 56.34082
337.2940, 31.05273
338.4980, 32.77344
339.7010, 51.50293
340.9050, 24.24414
342.1080, 207.9932
343.3110, 368.7559
344.5140, 342.5322
345.7170, 541.3232
346.9200, 778.1279
348.1220, 975.9473
349.3240, 1119.781
350.5270, 1212.632
351.7290, 1555.473
352.9310, 1754.329
354.1320, 2161.188
355.3340, 2143.049
356.5350, 2164.922
357.7370, 2120.803
358.9380, 1835.693
360.1390, 1461.600
361.3400, 990.5244
362.5400, 511.4658
363.7410, 478.4248
364.9410, 118.4023
366.1410, 102.3984
367.3410, 155.5869
368.5410, 214.6006
369.7410, 121.6582
370.9400, 273.7363
372.1400, 189.9189
373.3390, 175.2422
374.5380, 251.7295
375.7370, 247.3887
376.9360, 141.1426
378.1350, 198.9385
379.3330, 217.8086
380.5310, 183.7637
381.7300, 249.7881
382.9280, 290.9131
384.1260, 229.1631
385.3230, 187.5049
386.5210, 159.9219
387.7180, 148.3174
388.9160, 194.9277
390.1130, 150.5352
391.3100, 147.1982
392.5060, 134.9160
393.7030, 64.31836
394.9000, 34.41309
396.0960, 47.85254
397.2920, 295.1504
398.4880, 374.4805
399.6840, 519.8438
400.8800, 686.2402
402.0750, 885.4893
403.2710, 1123.239
404.4660, 1381.623
405.6610, 1668.150
406.8560, 1972.709
408.0510, 2276.302
409.2450, 2473.975
410.4400, 2569.680
411.6340, 2712.461
412.8280, 2681.316
414.0220, 2597.252
415.2160, 2399.264
416.4100, 2185.372
417.6030, 1989.572
418.7970, 1902.866
419.9900, 1872.226
421.1830, 1865.691
422.3760, 2085.230
423.5690, 2223.867
424.7610, 2513.550
425.9540, 2998.269
427.1460, 3402.042
428.3380, 4506.850
429.5300, 5332.691
430.7220, 6624.568
431.9140, 7726.480
433.1050, 9167.426
434.2970, 10769.41
435.4880, 12067.43
436.6790, 13261.48
437.8700, 13682.57
439.0610, 13637.69
440.2510, 13000.85
441.4420, 11565.04
442.6320, 10276.27
443.8220, 8935.534
445.0120, 8242.837
446.2020, 7400.173
447.3910, 7075.546
448.5810, 7000.958
449.7700, 7127.404
450.9600, 7470.887
452.1490, 8012.408
453.3370, 8635.967
454.5260, 9357.562
455.7150, 10257.19
456.9030, 11212.86
458.0910, 12326.57
459.2800, 12942.31
460.4670, 13780.10
461.6550, 14718.92
462.8430, 15248.78
464.0300, 15758.68
465.2180, 15483.62
466.4050, 14948.59
467.5920, 13592.61
468.7790, 12059.09
469.9650, 10323.47
471.1520, 8682.611
472.3380, 7139.787
473.5250, 5696.002
474.7110, 4530.215
475.8970, 3643.538
477.0820, 3063.877
478.2680, 2597.079
479.4540, 2212.501
480.6390, 2107.495
481.8240, 1776.575
483.0090, 1883.090
484.1940, 1729.943
485.3780, 1745.575
486.5630, 1787.249
487.7470, 1823.507
488.9320, 1892.726
490.1160, 2117.527
491.3000, 2233.371
492.4830, 2563.259
493.6670, 2775.189
494.8500, 3191.163
496.0340, 3316.178
497.2170, 3726.238
498.4000, 3987.342
499.5820, 4204.488
500.7650, 4418.678
501.9480, 4444.912
503.1300, 4699.190
504.3120, 4871.513
505.4940, 4781.877
506.6760, 5020.292
507.8580, 4999.771
509.0390, 5130.322
510.2210, 5235.502
511.4020, 5444.350
512.5830, 5724.484
513.7640, 5886.977
514.9450, 5949.447
516.1250, 6111.834
517.3060, 6138.832
518.4860, 6178.167
519.6660, 6463.675
520.8460, 6573.041
522.0260, 6922.385
523.2060, 7106.840
524.3850, 7687.569
525.5650, 8320.017
526.7440, 8813.190
527.9230, 9287.917
529.1020, 9712.490
530.2810, 10338.39
531.4590, 10357.04
532.6380, 10609.29
533.8160, 10764.86
534.9940, 10503.25
536.1720, 10212.46
537.3500, 10058.63
538.5270, 9672.028
539.7050, 9592.511
540.8820, 9328.066
542.0590, 8960.704
543.2360, 9289.402
544.4130, 8994.188
545.5900, 9271.045
546.7660, 9575.962
547.9430, 10301.94
549.1190, 11049.98
550.2950, 12009.33
551.4710, 13071.50
552.6470, 14469.56
553.8220, 16177.41
554.9980, 17787.06
556.1730, 19326.78
557.3480, 20834.27
558.5230, 21777.78
559.6980, 22630.88
560.8730, 23128.02
562.0470, 23326.44
563.2220, 23079.23
564.3960, 22519.62
565.5700, 21498.89
566.7440, 20202.95
567.9170, 18418.09
569.0910, 16774.24
570.2640, 14697.45
571.4380, 12799.71
572.6110, 11241.01
573.7840, 9672.359
574.9570, 8537.763
576.1290, 7335.219
577.3020, 6464.717
578.4740, 5779.259
579.6460, 5231.848
580.8180, 4866.479
581.9900, 4419.154
583.1620, 4087.873
584.3330, 3971.635
585.5040, 3702.438
586.6760, 3431.287
587.8470, 3450.176
589.0180, 3487.109
590.1880, 3694.082
591.3590, 3630.110
592.5290, 3820.188
593.7000, 3857.308
594.8700, 4325.467
596.0400, 4595.669
597.2090, 4866.912
598.3790, 5078.195
599.5490, 5349.539
600.7180, 5364.924
601.8870, 5513.344
603.0560, 5313.816
604.2250, 5512.332
605.3940, 5583.884
606.5620, 5861.475
607.7300, 5959.135
608.8990, 6400.834
610.0670, 6547.600
611.2350, 6897.414
612.4020, 6928.294
613.5700, 6926.211
614.7370, 6805.162
615.9050, 6450.182
617.0720, 6107.246
618.2390, 5563.349
619.4060, 5030.492
620.5720, 4611.667
621.7390, 4577.882
622.9050, 4331.135
624.0710, 4430.422
625.2370, 4430.748
626.4030, 4470.105
627.5690, 4690.496
628.7340, 4852.920
629.9000, 5002.371
631.0650, 5169.858
632.2300, 5601.373
633.3950, 5473.920
634.5600, 5441.495
635.7240, 5115.104
636.8890, 4618.741
638.0530, 4044.407
639.2170, 3645.102
640.3810, 3345.823
641.5450, 2886.574
642.7080, 2586.353
643.8720, 2302.156
645.0350, 1988.989
646.1980, 1807.460
647.3610, 1639.274
648.5240, 1541.341
649.6870, 1450.273
650.8490, 1480.099
652.0120, 1474.952
653.1740, 1484.623
654.3360, 1394.064
655.4980, 1533.501
656.6600, 1338.871
657.8210, 1338.097
658.9830, 1396.578
660.1440, 1335.296
661.3050, 1286.138
662.4660, 1285.749
663.6270, 1112.166
664.7870, 982.6826
665.9480, 854.7021
667.1080, 762.8467
668.2680, 659.5596
669.4280, 661.5078
670.5880, 678.3105
671.7480, 715.5732
672.9070, 647.1885
674.0670, 506.2256
675.2260, 374.2861
676.3850, 519.3203
677.5440, 394.0938
678.7030, 406.4199
679.8610, 318.5195
681.0200, 290.3877
682.1780, 241.4521
683.3360, 315.0654
684.4940, 33.12695
685.6520, 21.11035
686.8090, 214.0508
687.9670, 22.06152
689.1240, 212.2119
690.2810, 193.9824
691.4380, 200.0215
692.5950, 175.2412
693.7520, 203.6553
694.9080, 183.1592
696.0650, 256.4746
697.2210, 238.4570
698.3770, 245.3418
699.5330, 126.0723
700.6880, 288.6875
701.8440, 151.8037
702.9990, 235.0869
704.1550, 41.76172
705.3100, 73.54004
706.4650, 70.18066
707.6190, 190.2324
708.7740, 204.4482
709.9290, 354.8193
711.0830, 672.0146
712.2370, 608.1973
713.3910, 843.8838
714.5450, 998.9609
715.6980, 1269.107
716.8520, 1316.241
718.0050, 1506.360
719.1580, 1573.467
720.3110, 1666.558
721.4640, 1538.633
722.6170, 1570.695
723.7700, 1493.742
724.9220, 1445.773
726.0740, 1310.789
727.2260, 1268.787
728.3780, 1079.771
729.5300, 1067.219
730.6810, 1120.441
731.8330, 1031.372
732.9840, 911.2842
734.1350, 1014.177
735.2860, 790.5449
736.4370, 813.3994
737.5880, 719.0410
738.7380, 813.8564
739.8880, 694.6533
741.0390, 687.7246
742.1890, 646.9609
743.3380, 578.6924
744.4880, 738.4033
745.6380, 559.0088
746.7870, 593.7422
747.9360, 521.6738
749.0850, 383.2920
750.2340, 502.4414
751.3830, 443.0117
752.5310, 352.5566
753.6800, 529.9443
754.8280, 411.4385
755.9760, 187.5244
757.1240, 251.2188
758.2720, 297.6318
759.4190, 231.0195
760.5670, 274.3799
761.7140, 259.7109
762.8610, 184.0146
764.0080, 332.2910
765.1550, 447.5381
766.3020, 328.7568
767.4480, 340.9463
768.5950, 149.1074
769.7410, 164.2383
770.8870, 296.3398
772.0330, 226.4111
773.1780, 193.9316
774.3240, 230.9434
775.4690, 248.9238
776.6140, 252.5752
777.7590, 251.1729
778.9040, 263.6807
780.0490, 241.5371
781.1940, 200.3623
782.3380, 239.1562
783.4820, 69.91797
784.6260, 13.63477
785.7700, 22.71582
786.9140, 223.8447
788.0580, 84.37305
789.2010, 13.86035
790.3450, 104.2754
791.4880, 7.653320
792.6310, 150.9561
793.7730, 35.77832
794.9160, 35.39062
796.0590, 32.49707
797.2010, 20.46191
798.3430, 72.48730
799.4850, 28.61426
800.6270, 122.8115
801.7690, 43.15723
802.9100, 53.39258
804.0520, 43.88379
805.1930, 185.3135
806.3340, 19.70410
807.4750, 69.01953
808.6160, 47.71680
809.7560, 11.43555
810.8970, 26.49121
812.0370, 169.5156
813.1770, 43.28320
814.3170, 100.9805
815.4570, 1.618164
816.5960, 22.13184
817.7360, 8.574219
818.8750, 109.9355
820.0140, 19.74805
821.1530, 41.47559
822.2920, 114.6348
823.4310, 118.7529
824.5690, 110.8271
825.7070, 145.8594
826.8460, 9.601563
827.9840, 12.51953
829.1220, 7.446289
830.2590, 96.80176
831.3970, 32.74023
832.5340, 106.3486
833.6710, 116.2471
834.8080, 53.84082
835.9450, 17.87305
837.0820, 135.1357
838.2190, 170.4316
839.3550, 6.157227
840.4910, 71.57031
841.6270, 26.41992
842.7630, 27.50000
843.8990, 0.4863280
845.0350, 71.53418
846.1700, 43.46973
847.3060, 98.47559
848.4410, 24.39453
849.5760, 34.71191
850.7100, 24.86230
851.8450, 19.94824
852.9800, 228.7354
854.1140, 152.4971
855.2480, 171.2324
856.3820, 359.9453
857.5160, 55.63281
858.6500, 200.2969
859.7830, 85.93652
860.9170, 324.5527
862.0500, 148.1455
863.1830, 129.7158
864.3160, 117.2617
865.4480, 63.21387
866.5810, 42.73828
867.7130, 107.6992
868.8460, 199.1143
869.9780, 61.50879
871.1100, 24.12012
872.2410, 116.2236
873.3730, 92.45410
874.5050, 10.81055
875.6360, 27.05371
876.7670, 69.72461
877.8980, 25.54590
879.0290, 67.60547
880.1590, 170.7383
881.2900, 150.1484
882.4200, 2.118164
883.5500, 110.1094
884.6800, 125.8398
885.8100, 149.2285
886.9400, 43.62500
888.0690, 222.4600
889.1990, 108.7227
890.3280, 13.04004
891.4570, 35.21387
892.5860, 17.49219
893.7140, 131.2100
894.8430, 122.8955
895.9710, 142.5674
897.1000, 160.6426
898.2280, 136.0830
899.3560, 113.4902
900.4830, 94.10156
901.6110, 57.70020
902.7380, 37.28516
903.8660, 120.8564
904.9930, 169.4141
906.1200, 110.9600
907.2460, 33.49316
908.3730, 33.98535
909.5000, 93.51953
910.6260, 233.0127
911.7520, 212.4951
912.8780, 273.9668
914.0040, 205.4287
915.1290, 299.8799
916.2550, 178.3232
917.3800, 134.7568
918.5050, 102.1816
919.6300, 128.4932
920.7550, 93.11523
921.8800, 132.1113
923.0040, 128.1826
924.1290, 246.8086
925.2530, 386.5059
926.3770, 505.4473
927.5010, 377.7139
928.6250, 427.0586
929.7480, 445.5400
930.8720, 339.2559
931.9950, 449.2227
933.1180, 714.1953
934.2410, 558.3506
935.3640, 665.2500
936.4860, 672.2236
937.6090, 731.1875
938.7310, 917.6777
939.8530, 996.7549
940.9750, 1052.286
942.0970, 1267.135
943.2180, 1268.196
944.3400, 1262.879
945.4610, 1490.301
946.5820, 1650.375
947.7030, 1797.848
948.8240, 1947.679
949.9450, 2228.165
951.0650, 2346.118
952.1860, 2623.346
953.3060, 2802.840
954.4260, 3142.157
955.5460, 3748.941
956.6650, 3993.295
957.7850, 4580.773
958.9040, 5019.311
960.0230, 5955.809
961.1420, 6924.605
962.2610, 7893.906
963.3800, 8954.438
964.4990, 10384.17
965.6170, 11987.06
966.7350, 13658.01
967.8530, 15278.75
968.9710, 16841.11
970.0890, 18288.31
971.2070, 19201.33
972.3240, 19811.21
973.4410, 19590.53
974.5580, 19197.01
975.6750, 18284.83
976.7920, 17366.67
977.9090, 16299.55
979.0250, 15252.32
980.1410, 14702.32
981.2580, 14179.18
982.3740, 14079.25
983.4890, 14038.35
984.6050, 13958.99
985.7200, 13809.26
986.8360, 13823.47
987.9510, 13352.73
989.0660, 13000.01
990.1810, 11987.32
991.2950, 11118.65
992.4100, 10383.02
993.5240, 9827.146
994.6390, 9283.885
995.7530, 9103.369
996.8660, 8918.884
997.9800, 8821.426
999.0940, 8762.997
1000.207, 9017.116
1001.320, 9433.473
1002.433, 9980.134
1003.546, 10469.83
1004.659, 11113.55
1005.772, 12203.81
1006.884, 13628.60
1007.996, 15147.61
1009.108, 17138.46
1010.220, 19766.35
1011.332, 22539.96
1012.444, 25935.43
1013.555, 28915.41
1014.666, 32279.42
1015.777, 34979.55
1016.888, 37438.56
1017.999, 39121.40
1019.110, 39657.55
1020.220, 39313.18
1021.331, 38532.40
1022.441, 36959.67
1023.551, 35178.09
1024.661, 33077.43
1025.770, 31530.18
1026.880, 29784.31
1027.989, 28049.78
1029.098, 26820.26
1030.207, 25753.78
1031.316, 24836.33
1032.425, 24111.94
1033.533, 23338.57
1034.642, 23036.24
1035.750, 22776.96
1036.858, 22070.71
1037.966, 21516.50
1039.073, 21076.33
1040.181, 20409.20
1041.288, 19549.11
1042.396, 18646.59
1043.503, 17741.57
1044.610, 16732.61
1045.716, 15334.68
1046.823, 13981.79
1047.929, 13106.96
1049.036, 11967.15
1050.142, 10974.39
1051.248, 10397.67
1052.353, 9522.986
1053.459, 8733.162
1054.564, 8104.919
1055.670, 7555.812
1056.775, 6998.156
1057.880, 6640.443
1058.985, 6279.486
1060.089, 6072.183
1061.194, 5904.924
1062.298, 5762.709
1063.402, 5656.566
1064.506, 5507.592
1065.610, 5192.561
1066.713, 5222.099
1067.817, 4882.200
1068.920, 4725.354
1070.023, 4533.605
1071.126, 4391.786
1072.229, 4163.161
1073.332, 3905.590
1074.435, 3814.059
1075.537, 3734.271
1076.639, 3728.938
1077.741, 3456.580
1078.843, 3287.060
1079.945, 3073.398
1081.046, 3086.719
1082.148, 2948.658
1083.249, 2731.915
1084.350, 2793.281
1085.451, 2272.552
1086.551, 2405.329
1087.652, 2206.608
1088.752, 1969.927
1089.853, 1805.707
1090.953, 1944.116
1092.053, 1706.966
1093.152, 1756.454
1094.252, 1576.392
1095.351, 1594.130
1096.451, 1402.315
1097.550, 1450.007
1098.649, 1634.733
1099.748, 1607.521
1100.846, 1625.387
1101.945, 1821.286
1103.043, 1979.234
1104.141, 2253.059
1105.239, 2496.396
1106.337, 3010.125
1107.434, 3482.312
1108.532, 4078.562
1109.629, 4905.850
1110.726, 5950.157
1111.823, 6548.651
1112.920, 7559.811
1114.017, 8375.192
1115.113, 8845.645
1116.210, 8951.165
1117.306, 8632.397
1118.402, 7836.958
1119.498, 7125.920
1120.593, 6326.541
1121.689, 5449.967
1122.784, 4817.871
1123.879, 4336.578
1124.974, 4065.969
1126.069, 3577.642
1127.164, 3085.436
1128.259, 2711.256
1129.353, 2379.524
1130.447, 2254.980
1131.541, 1888.882
1132.635, 1807.822
1133.729, 1672.811
1134.822, 1590.922
1135.916, 1490.988
1137.009, 1400.082
1138.102, 1529.203
1139.195, 1652.560
1140.288, 1837.750
1141.380, 1929.966
1142.473, 2309.207
1143.565, 2620.482
1144.657, 3030.788
1145.749, 3109.119
1146.841, 3264.487
1147.932, 3265.910
1149.024, 2948.362
1150.115, 2610.858
1151.206, 2337.390
1152.297, 1913.976
1153.388, 1526.585
1154.479, 1275.215
1155.569, 1192.887
1156.659, 914.5791
1157.750, 655.2969
1158.839, 772.0439
1159.929, 529.8135
1161.019, 696.6035
1162.108, 488.4150
1163.198, 648.2490
1164.287, 620.1025
1165.376, 401.9795
1166.465, 594.8740
1167.553, 529.7900
1168.642, 594.7246
1169.730, 557.7588
1170.818, 342.0205
1171.906, 362.0254
1172.994, 335.0605
1174.082, 126.1182
1175.170, 88.19336
1176.257, 223.2852
1177.344, 102.3936
1178.431, 4.518555
1179.518, 40.65820
1180.605, 179.8145
1181.691, 4.986328
1182.778, 27.17188
1183.864, 79.62695
1184.950, 108.9199
1186.036, 17.27734
1187.122, 115.1074
1188.207, 98.96875
1189.292, 35.85352
1190.378, 4.260742
1191.463, 114.3877
1192.548, 70.52637
1193.632, 103.3672
1194.717, 54.16113
1195.801, 26.99023
1196.886, 59.84766
1197.970, 222.7002
1199.054, 28.35254
1200.137, 80.41504
1201.221, 20.51270
1202.305, 56.55664
1203.388, 44.63379
1204.471, 36.71973
1205.554, 13.18652
1206.637, 42.09473
1207.719, 128.0156
1208.802, 52.99316
1209.884, 6.991211
1210.966, 147.9922
1212.048, 60.17676
1213.130, 3.111328
1214.212, 125.0361
1215.293, 70.16309
1216.374, 2.324219
1217.456, 12.50879
1218.536, 58.34277
1219.617, 120.8203
1220.698, 94.95117
1221.778, 51.20801
1222.859, 55.61523
1223.939, 6.396484
1225.019, 60.86523
1226.099, 14.16309
1227.178, 39.52246
1228.258, 142.2090
1229.337, 156.6846
1230.417, 101.5869
1231.496, 175.2705
1232.574, 112.9609
1233.653, 25.64062
1234.732, 58.29785
1235.810, 23.03027
1236.888, 128.6133
1237.966, 138.6709
1239.044, 117.2559
1240.122, 72.11133
1241.199, 57.53613
1242.277, 17.98730
1243.354, 36.50391
1244.431, 143.9648
1245.508, 99.37988
1246.585, 24.01367
1247.661, 279.3975
1248.738, 5.851563
1249.814, 158.4961
1250.890, 26.83691
1251.966, 45.16309
1253.042, 154.4775
1254.117, 6.009766
1255.193, 40.86621
1256.268, 124.3555
1257.343, 347.5684
1258.418, 70.77344
1259.493, 88.15332
1260.567, 129.3438
1261.642, 124.5254
1262.716, 113.3818
1263.790, 67.85059
1264.864, 249.0703
1265.938, 232.2119
1267.011, 304.3438
