##NAMES=Brazilianite
##RRUFFID=R050319
##IDEAL CHEMISTRY=NaAl_3_(PO_4_)_2_(OH)_4_
##LOCALITY=Minas Gerais, Brazil
##OWNER=RRUFF
##SOURCE=American Museum of Natural History
##DESCRIPTION=Pale green fragment
##STATUS=The identification of this mineral has been confirmed by X-ray diffraction and chemical analysis
##URL=rruff.info/R050319
##MEASURED CHEMISTRY=Na_1.00_Al_3.00_(PO_4_)_2_(OH)_4_
##PIN_ID=M00315
##ORIENTATION=Laser parallel to c* (0 0 1). Fiducial mark perpendicular to laser is parallel to a [1 0 0]
86.07200, 0.0000000E+00
87.30800, 57.57227
88.54200, 196.2114
89.77700, 186.7832
91.01200, 227.2212
92.24600, 185.0371
93.48000, 236.2271
94.71400, 355.3442
95.94800, 710.8467
97.18200, 794.3486
98.41600, 1009.808
99.64900, 1617.184
100.8830, 2209.536
102.1160, 2959.821
103.3490, 3694.996
104.5820, 4203.985
105.8150, 3678.691
107.0470, 3004.034
108.2800, 2392.226
109.5120, 2121.374
110.7440, 1840.361
111.9760, 1894.138
113.2080, 2184.097
114.4400, 2587.417
115.6710, 2704.985
116.9030, 2095.709
118.1340, 1261.605
119.3650, 631.6797
120.5960, 156.8262
121.8270, 30.94336
123.0580, 66.94434
124.2880, 199.7764
125.5190, 53.43945
126.7490, 163.9463
127.9790, 168.2715
129.2090, 179.3477
130.4390, 25.89551
131.6680, 40.51953
132.8980, 269.5762
134.1270, 132.1133
135.3560, 65.17383
136.5850, 48.79883
137.8140, 113.9805
139.0430, 460.1367
140.2710, 664.6455
141.5000, 1008.486
142.7280, 1345.638
143.9560, 1471.082
145.1840, 2081.803
146.4120, 2198.786
147.6390, 2296.348
148.8670, 2233.235
150.0940, 1970.167
151.3210, 1584.692
152.5490, 1243.309
153.7750, 1051.979
155.0020, 888.7041
156.2290, 948.4824
157.4550, 678.3145
158.6810, 1038.203
159.9080, 913.2129
161.1340, 1213.452
162.3590, 1652.235
163.5850, 2180.701
164.8110, 2504.923
166.0360, 2578.849
167.2610, 3317.286
168.4860, 4169.958
169.7110, 5409.682
170.9360, 6610.325
172.1610, 7600.895
173.3850, 7210.396
174.6100, 5745.845
175.8340, 4385.242
177.0580, 3111.602
178.2820, 2312.928
179.5050, 1635.227
180.7290, 1354.505
181.9520, 1089.766
183.1760, 795.9521
184.3990, 761.0391
185.6220, 710.1064
186.8450, 713.1768
188.0670, 682.2539
189.2900, 672.3389
190.5120, 579.4355
191.7340, 646.5479
192.9560, 668.6738
194.1780, 593.8164
195.4000, 629.0166
196.6220, 517.1553
197.8430, 580.3535
199.0640, 586.5723
200.2860, 519.8125
201.5070, 705.0732
202.7270, 701.3574
203.9480, 490.6650
205.1690, 519.9951
206.3890, 409.3477
207.6090, 599.8965
208.8290, 787.4941
210.0490, 913.4062
211.2690, 1315.232
212.4890, 1547.738
213.7080, 1854.719
214.9280, 2258.741
216.1470, 2920.543
217.3660, 3084.910
218.5850, 3533.320
219.8030, 3193.770
221.0220, 2705.259
222.2400, 2194.785
223.4590, 1784.344
224.6770, 1441.933
225.8950, 1288.554
227.1120, 1043.205
228.3300, 1073.890
229.5480, 1191.607
230.7650, 1180.459
231.9820, 1141.287
233.1990, 1387.181
234.4160, 1529.768
235.6330, 1731.865
236.8490, 2109.552
238.0660, 2434.428
239.2820, 2844.489
240.4980, 3307.116
241.7140, 3964.124
242.9300, 4504.235
244.1460, 5145.904
245.3610, 5532.533
246.5770, 5987.352
247.7920, 6520.135
249.0070, 7610.289
250.2220, 9605.463
251.4370, 11787.98
252.6510, 12848.09
253.8660, 12130.34
255.0800, 9588.720
256.2940, 6788.008
257.5080, 4791.324
258.7220, 3476.753
259.9360, 2625.309
261.1490, 2309.986
262.3630, 1867.779
263.5760, 2049.683
264.7890, 2016.693
266.0020, 2480.805
267.2150, 2558.012
268.4270, 2817.312
269.6400, 3085.700
270.8520, 3620.173
272.0640, 3752.729
273.2760, 3989.365
274.4880, 4408.076
275.7000, 4242.863
276.9120, 3731.363
278.1230, 3187.695
279.3340, 2530.303
280.5450, 1769.545
281.7560, 1495.581
282.9670, 1235.029
284.1780, 1233.277
285.3880, 1238.585
286.5980, 1403.951
287.8090, 1425.377
289.0190, 1524.857
290.2290, 1527.395
291.4380, 1294.987
292.6480, 1456.633
293.8570, 1526.329
295.0670, 1281.070
296.2760, 1352.854
297.4850, 1189.675
298.6930, 990.5332
299.9020, 869.4297
301.1110, 837.3652
302.3190, 813.3379
303.5270, 1053.351
304.7350, 1250.399
305.9430, 1715.487
307.1510, 2060.613
308.3580, 2662.773
309.5660, 3319.966
310.7730, 3975.187
311.9800, 4557.436
313.1870, 4644.707
314.3940, 4379.002
315.6010, 3997.323
316.8070, 3131.667
318.0130, 2491.035
319.2200, 1734.430
320.4260, 1305.852
321.6310, 842.2998
322.8370, 718.7734
324.0430, 432.2764
325.2480, 271.8076
326.4540, 21.36719
327.6590, 26.94141
328.8640, 63.46680
330.0680, 56.87695
331.2730, 151.2881
332.4780, 243.7188
333.6820, 171.1934
334.8860, 74.69141
336.0900, 101.1934
337.2940, 146.7041
338.4980, 96.23242
339.7010, 37.76855
340.9050, 108.2969
342.1080, 4.164063
343.3110, 20.64258
344.5140, 109.1406
345.7170, 322.6738
346.9200, 563.2412
348.1220, 728.8438
349.3240, 1174.482
350.5270, 1430.156
351.7290, 1958.866
352.9310, 2555.580
354.1320, 3247.255
355.3340, 3630.819
356.5350, 4188.314
357.7370, 4306.744
358.9380, 3857.141
360.1390, 3717.511
361.3400, 2909.908
362.5400, 2169.350
363.7410, 1618.837
364.9410, 1192.367
366.1410, 1036.943
367.3410, 763.5654
368.5410, 511.2314
369.7410, 493.9434
370.9400, 400.7012
372.1400, 203.5039
373.3390, 72.35352
374.5380, 24.24707
375.7370, 14.17480
376.9360, 12.88672
378.1350, 188.9053
379.3330, 219.9668
380.5310, 293.0869
381.7300, 409.3047
382.9280, 354.6777
384.1260, 393.1797
385.3230, 412.2910
386.5210, 478.6426
387.7180, 382.6455
388.9160, 379.7949
390.1130, 275.0869
391.3100, 309.4707
392.5060, 130.9639
393.7030, 35.48340
394.9000, 79.98438
396.0960, 150.5117
397.2920, 223.0654
398.4880, 524.6748
399.6840, 794.3408
400.8800, 1021.063
402.0750, 1332.844
403.2710, 1691.680
404.4660, 1920.575
405.6610, 2271.527
406.8560, 2867.535
408.0510, 3017.604
409.2450, 3339.777
410.4400, 3796.045
411.6340, 3876.456
412.8280, 4014.982
414.0220, 3934.604
415.2160, 3632.408
416.4100, 3234.368
417.6030, 2966.512
418.7970, 2656.822
419.9900, 2426.271
421.1830, 2345.894
422.3760, 2287.677
423.5690, 2384.643
424.7610, 2585.754
425.9540, 2995.988
427.1460, 3468.338
428.3380, 4153.760
429.5300, 5036.281
430.7220, 5983.860
431.9140, 7273.497
433.1050, 8821.194
434.2970, 10521.95
435.4880, 12524.77
436.6790, 14385.64
437.8700, 15997.58
439.0610, 17069.58
440.2510, 17046.63
441.4420, 16003.76
442.6320, 14358.94
443.8220, 12258.18
445.0120, 10556.48
446.2020, 9381.850
447.3910, 8359.280
448.5810, 7810.770
449.7700, 7847.322
450.9600, 8206.939
452.1490, 8502.618
453.3370, 9046.360
454.5260, 9542.996
455.7150, 10212.04
456.9030, 10850.97
458.0910, 11656.96
459.2800, 12592.03
460.4670, 13207.16
461.6550, 14378.35
462.8430, 15272.60
464.0300, 16132.92
465.2180, 16447.31
466.4050, 16212.77
467.5920, 15884.29
468.7790, 14636.87
469.9650, 12871.25
471.1520, 11034.94
472.3380, 9084.139
473.5250, 7433.762
474.7110, 6013.315
475.8970, 5049.914
477.0820, 4286.531
478.2680, 3844.473
479.4540, 3638.052
480.6390, 3188.234
481.8240, 3122.246
483.0090, 3067.514
484.1940, 3061.039
485.3780, 3080.590
486.5630, 2939.048
487.7470, 2926.766
488.9320, 2842.558
490.1160, 2930.424
491.3000, 2912.363
492.4830, 3101.379
493.6670, 3409.468
494.8500, 3637.632
496.0340, 3967.871
497.2170, 4428.186
498.4000, 4926.575
499.5820, 5312.043
500.7650, 5717.586
501.9480, 5951.088
503.1300, 6155.905
504.3120, 6269.682
505.4940, 6391.537
506.6760, 6439.466
507.8580, 6621.477
509.0390, 6778.562
510.2210, 6920.725
511.4020, 7140.966
512.5830, 7155.285
513.7640, 7574.680
514.9450, 7494.152
516.1250, 7773.603
517.3060, 7888.934
518.4860, 7956.891
519.6660, 7841.600
520.8460, 8009.986
522.0260, 8706.802
523.2060, 9044.761
524.3850, 9730.142
525.5650, 10421.86
526.7440, 11111.47
527.9230, 11751.11
529.1020, 12743.03
530.2810, 13333.74
531.4590, 13714.79
532.6380, 14084.93
533.8160, 14203.55
534.9940, 14300.73
536.1720, 14034.32
537.3500, 13904.82
538.5270, 13360.96
539.7050, 12930.19
540.8820, 12208.51
542.0590, 11537.92
543.2360, 11369.43
544.4130, 11169.03
545.5900, 10956.73
546.7660, 11105.52
547.9430, 11343.40
549.1190, 12070.44
550.2950, 12657.50
551.4710, 13700.98
552.6470, 14542.54
553.8220, 16190.75
554.9980, 17522.23
556.1730, 19695.01
557.3480, 21174.36
558.5230, 22421.69
559.6980, 23525.28
560.8730, 24207.53
562.0470, 24734.54
563.2220, 24836.88
564.3960, 24816.06
565.5700, 24065.98
566.7440, 23157.89
567.9170, 21796.67
569.0910, 19691.29
570.2640, 17852.50
571.4380, 15502.23
572.6110, 13654.14
573.7840, 11954.12
574.9570, 10611.18
576.1290, 9331.379
577.3020, 8494.645
578.4740, 7731.980
579.6460, 7101.420
580.8180, 6478.951
581.9900, 6181.582
583.1620, 5800.305
584.3330, 5370.121
585.5040, 5411.014
586.6760, 5022.980
587.8470, 5236.010
589.0180, 5127.102
590.1880, 5327.270
591.3590, 5517.516
592.5290, 6170.820
593.7000, 6509.199
594.8700, 6722.650
596.0400, 7305.158
597.2090, 7758.758
598.3790, 8143.434
599.5490, 8143.209
600.7180, 8180.051
601.8870, 7750.949
603.0560, 7343.912
604.2250, 6960.010
605.3940, 6552.160
606.5620, 6348.984
607.7300, 6043.684
608.8990, 6068.027
610.0670, 6009.492
611.2350, 6055.037
612.4020, 6012.646
613.5700, 6059.365
614.7370, 5925.172
615.9050, 5627.102
617.0720, 5591.152
618.2390, 4983.336
619.4060, 4779.613
620.5720, 4417.980
621.7390, 4222.459
622.9050, 4035.020
624.0710, 3977.662
625.2370, 4144.406
626.4030, 4171.227
627.5690, 4271.129
628.7340, 4756.074
629.9000, 4876.062
631.0650, 4949.092
632.2300, 5142.164
633.3950, 5238.271
634.5600, 5279.424
635.7240, 4803.611
636.8890, 4852.838
638.0530, 4346.102
639.2170, 4033.402
640.3810, 3750.736
641.5450, 3377.727
642.7080, 3238.514
643.8720, 2829.953
645.0350, 2618.426
646.1980, 2484.932
647.3610, 2437.469
648.5240, 2468.879
649.6870, 2592.088
650.8490, 2721.268
652.0120, 3005.928
653.1740, 3215.617
654.3360, 3441.334
655.4980, 3611.078
656.6600, 3914.852
657.8210, 3999.660
658.9830, 4206.510
660.1440, 4119.398
661.3050, 4205.375
662.4660, 3876.436
663.6270, 3661.604
664.7870, 3205.902
665.9480, 2930.320
667.1080, 2862.865
668.2680, 2320.541
669.4280, 2073.359
670.5880, 1946.301
671.7480, 1565.361
672.9070, 1422.801
674.0670, 1262.053
675.2260, 1130.482
676.3850, 1056.826
677.5440, 692.5391
678.7030, 721.9395
679.8610, 629.3555
681.0200, 423.7812
682.1780, 436.9492
683.3360, 432.7383
684.4940, 156.7695
685.6520, 160.2793
686.8090, 105.7539
687.9670, 12.08398
689.1240, 175.2578
690.2810, 127.0391
691.4380, 328.9414
692.5950, 199.6504
693.7520, 131.9688
694.9080, 465.7637
696.0650, 358.6699
697.2210, 466.1504
698.3770, 402.8828
699.5330, 277.2715
700.6880, 409.0645
701.8440, 341.6504
702.9990, 314.8691
704.1550, 253.9688
705.3100, 182.6602
706.4650, 159.6523
707.6190, 1.210938
708.7740, 91.35742
709.9290, 115.9746
711.0830, 200.6797
712.2370, 312.1016
713.3910, 556.7207
714.5450, 644.2480
715.6980, 771.4961
716.8520, 966.6523
718.0050, 1070.178
719.1580, 1136.992
720.3110, 1306.939
721.4640, 1295.750
722.6170, 1267.254
723.7700, 1415.934
724.9220, 1198.875
726.0740, 1095.613
727.2260, 1060.734
728.3780, 1029.266
729.5300, 881.8125
730.6810, 951.2266
731.8330, 923.1816
732.9840, 721.7129
734.1350, 720.1992
735.2860, 826.9238
736.4370, 785.2207
737.5880, 833.2598
738.7380, 865.4238
739.8880, 864.7402
741.0390, 755.3496
742.1890, 668.1836
743.3380, 683.3438
744.4880, 701.9043
745.6380, 764.2383
746.7870, 621.4336
747.9360, 759.9297
749.0850, 552.9785
750.2340, 476.9727
751.3830, 495.0898
752.5310, 461.3262
753.6800, 467.9824
754.8280, 463.6602
755.9760, 519.0586
757.1240, 484.7148
758.2720, 547.3242
759.4190, 602.4883
760.5670, 585.9785
761.7140, 500.5566
762.8610, 480.5508
764.0080, 621.6797
765.1550, 478.0781
766.3020, 636.3301
767.4480, 569.8496
768.5950, 695.0020
769.7410, 587.1055
770.8870, 668.1582
772.0330, 625.2715
773.1780, 550.2227
774.3240, 571.1230
775.4690, 506.9707
776.6140, 522.1270
777.7590, 718.5117
778.9040, 556.2012
780.0490, 672.8379
781.1940, 707.4238
782.3380, 654.9531
783.4820, 739.4316
784.6260, 590.8535
785.7700, 632.2227
786.9140, 706.5391
788.0580, 773.7969
789.2010, 694.0020
790.3450, 777.1504
791.4880, 781.2461
792.6310, 725.2852
793.7730, 734.2676
794.9160, 802.1953
796.0590, 941.0664
797.2010, 784.8809
798.3430, 705.6387
799.4850, 849.3398
800.6270, 892.9805
801.7690, 725.5664
802.9100, 655.0918
804.0520, 534.5605
805.1930, 650.9648
806.3340, 634.3105
807.4750, 829.5977
808.6160, 491.8203
809.7560, 380.9824
810.8970, 517.0801
812.0370, 418.1133
813.1770, 519.0801
814.3170, 376.9863
815.4570, 562.8223
816.5960, 463.5957
817.7360, 460.3047
818.8750, 338.9512
820.0140, 374.5234
821.1530, 241.0312
822.2920, 437.4492
823.4310, 454.8027
824.5690, 330.0938
825.7070, 309.2324
826.8460, 264.3906
827.9840, 260.1348
829.1220, 377.8184
830.2590, 300.8672
831.3970, 333.6719
832.5340, 176.1875
833.6710, 353.1602
834.8080, 333.1738
835.9450, 26.04883
837.0820, 94.94922
838.2190, 149.3457
839.3550, 100.6758
840.4910, 72.49219
841.6270, 145.9258
842.7630, 3.398438
843.8990, 18.00781
845.0350, 39.74219
846.1700, 240.0801
847.3060, 358.4844
848.4410, 46.84180
849.5760, 34.88867
850.7100, 183.7168
851.8450, 65.28320
852.9800, 29.23438
854.1140, 91.87695
855.2480, 50.11328
856.3820, 85.44727
857.5160, 52.90430
858.6500, 65.45898
859.7830, 6.123047
860.9170, 4.001953
862.0500, 77.33789
863.1830, 39.49219
864.3160, 10.40234
865.4480, 28.36914
866.5810, 151.5820
867.7130, 22.50586
868.8460, 1.669922
869.9780, 72.10352
871.1100, 88.16406
872.2410, 35.53711
873.3730, 128.9902
874.5050, 5.570313
875.6360, 61.79102
876.7670, 16.88672
877.8980, 261.6289
879.0290, 65.43945
880.1590, 86.52734
881.2900, 15.40625
882.4200, 24.29883
883.5500, 251.8438
884.6800, 24.16992
885.8100, 31.44727
886.9400, 93.96875
888.0690, 1.521484
889.1990, 79.02930
890.3280, 61.33594
891.4570, 89.32812
892.5860, 36.07617
893.7140, 25.11914
894.8430, 49.71484
895.9710, 112.3926
897.1000, 27.52930
898.2280, 55.49805
899.3560, 60.52344
900.4830, 99.60742
901.6110, 299.2344
902.7380, 9.953125
903.8660, 263.8262
904.9930, 45.58008
906.1200, 147.3125
907.2460, 0.9824220
908.3730, 336.6953
909.5000, 80.35352
910.6260, 166.9844
911.7520, 163.5957
912.8780, 181.1836
914.0040, 243.7500
915.1290, 288.2988
916.2550, 351.7148
917.3800, 358.9297
918.5050, 478.8145
919.6300, 414.2832
920.7550, 430.7344
921.8800, 563.1680
923.0040, 367.5820
924.1290, 597.9805
925.2530, 549.3652
926.3770, 399.7363
927.5010, 558.0957
928.6250, 535.4219
929.7480, 698.7715
930.8720, 695.0859
931.9950, 854.3906
933.1180, 967.6816
934.2410, 1201.971
935.3640, 1192.254
936.4860, 1297.568
937.6090, 1217.871
938.7310, 1337.164
939.8530, 1434.488
940.9750, 1733.803
942.0970, 1622.131
943.2180, 1834.451
944.3400, 2118.764
945.4610, 2238.785
946.5820, 2421.084
947.7030, 2557.264
948.8240, 2872.561
949.9450, 3125.533
951.0650, 3526.838
952.1860, 3536.145
953.3060, 3938.451
954.4260, 4239.062
955.5460, 4698.062
956.6650, 5255.824
957.7850, 5858.121
958.9040, 6559.486
960.0230, 7421.816
961.1420, 7981.219
962.2610, 9419.854
963.3800, 10556.58
964.4990, 11803.05
965.6170, 13732.10
966.7350, 15561.61
967.8530, 17407.13
968.9710, 19863.13
970.0890, 21838.30
971.2070, 23589.01
972.3240, 24683.07
973.4410, 25462.83
974.5580, 25372.12
975.6750, 24821.21
976.7920, 24073.82
977.9090, 22769.70
979.0250, 22212.69
980.1410, 21655.11
981.2580, 21438.63
982.3740, 21515.80
983.4890, 22115.89
984.6050, 22453.58
985.7200, 23285.03
986.8360, 23517.79
987.9510, 23592.65
989.0660, 22992.16
990.1810, 21653.42
991.2950, 20286.55
992.4100, 18441.86
993.5240, 16966.49
994.6390, 15733.95
995.7530, 14741.15
996.8660, 13830.59
997.9800, 13132.65
999.0940, 12711.94
1000.207, 12423.96
1001.320, 12382.74
1002.433, 12530.99
1003.546, 12773.66
1004.659, 13272.39
1005.772, 13910.89
1006.884, 14620.85
1007.996, 16054.10
1009.108, 17362.23
1010.220, 19207.22
1011.332, 21778.93
1012.444, 24301.43
1013.555, 27389.61
1014.666, 30146.39
1015.777, 33328.39
1016.888, 36372.55
1017.999, 37973.40
1019.110, 39550.72
1020.220, 40104.09
1021.331, 39668.36
1022.441, 38338.49
1023.551, 37142.01
1024.661, 35272.68
1025.770, 33535.90
1026.880, 31539.64
1027.989, 30322.43
1029.098, 28927.66
1030.207, 27859.57
1031.316, 26749.38
1032.425, 26155.79
1033.533, 25248.07
1034.642, 24861.08
1035.750, 24524.24
1036.858, 23750.13
1037.966, 23587.39
1039.073, 22808.69
1040.181, 22585.06
1041.288, 21787.36
1042.396, 20906.81
1043.503, 20020.33
1044.610, 19010.89
1045.716, 17797.50
1046.823, 16575.17
1047.929, 15050.89
1049.036, 14155.65
1050.142, 13077.48
1051.248, 12158.35
1052.353, 11193.28
1053.459, 10624.25
1054.564, 9961.289
1055.670, 9136.375
1056.775, 8870.514
1057.880, 8491.824
1058.985, 8325.699
1060.089, 7929.203
1061.194, 7608.559
1062.298, 7557.969
1063.402, 7657.432
1064.506, 7510.949
1065.610, 7345.521
1066.713, 7369.477
1067.817, 7231.533
1068.920, 7231.371
1070.023, 7500.166
1071.126, 7274.016
1072.229, 7366.551
1073.332, 7520.510
1074.435, 7227.734
1075.537, 7489.818
1076.639, 7453.941
1077.741, 7266.117
1078.843, 7008.352
1079.945, 7058.898
1081.046, 7014.785
1082.148, 6857.502
1083.249, 6333.717
1084.350, 6192.543
1085.451, 5990.158
1086.551, 5682.215
1087.652, 5403.941
1088.752, 5124.678
1089.853, 4810.480
1090.953, 4651.734
1092.053, 4178.412
1093.152, 4248.383
1094.252, 3892.576
1095.351, 3749.668
1096.451, 3744.168
1097.550, 3751.059
1098.649, 3691.561
1099.748, 3752.473
1100.846, 3664.855
1101.945, 3937.410
1103.043, 4159.891
1104.141, 4550.125
1105.239, 5124.809
1106.337, 5513.547
1107.434, 6416.336
1108.532, 7392.184
1109.629, 8969.566
1110.726, 10210.32
1111.823, 12138.34
1112.920, 14102.44
1114.017, 16172.29
1115.113, 17986.66
1116.210, 19252.43
1117.306, 19255.36
1118.402, 18390.00
1119.498, 17137.66
1120.593, 15215.63
1121.689, 13341.72
1122.784, 12222.59
1123.879, 10890.30
1124.974, 10168.70
1126.069, 8830.795
1127.164, 8084.635
1128.259, 7145.631
1129.353, 6351.215
1130.447, 5704.502
1131.541, 5155.848
1132.635, 4692.254
1133.729, 4396.697
1134.822, 4136.201
1135.916, 3911.498
1137.009, 3853.715
1138.102, 3720.418
1139.195, 3816.600
1140.288, 4136.416
1141.380, 4271.273
1142.473, 4664.951
1143.565, 5353.025
1144.657, 6067.086
1145.749, 6729.576
1146.841, 7036.764
1147.932, 6907.988
1149.024, 6887.252
1150.115, 6287.152
1151.206, 5429.570
1152.297, 4574.023
1153.388, 3808.537
1154.479, 3022.920
1155.569, 2783.531
1156.659, 2210.180
1157.750, 1835.590
1158.839, 1744.344
1159.929, 1485.131
1161.019, 1425.969
1162.108, 1278.832
1163.198, 1112.738
1164.287, 1136.059
1165.376, 968.0547
1166.465, 794.1387
1167.553, 754.2578
1168.642, 782.4121
1169.730, 705.5938
1170.818, 656.3887
1171.906, 777.6270
1172.994, 654.9336
1174.082, 486.1914
1175.170, 522.5234
1176.257, 389.9902
1177.344, 289.3750
1178.431, 215.7871
1179.518, 270.2266
1180.605, 60.68945
1181.691, 200.1777
1182.778, 17.68945
1183.864, 239.2246
1184.950, 253.7852
1186.036, 284.3691
1187.122, 40.97656
1188.207, 7.394531
1189.292, 37.04492
1190.378, 14.08008
1191.463, 14.60156
1192.548, 27.96484
1193.632, 44.02734
1194.717, 41.77148
1195.801, 21.53516
1196.886, 82.67969
1197.970, 20.90039
1199.054, 211.1055
1200.137, 67.26953
1201.221, 136.0234
1202.305, 197.2051
1203.388, 69.50586
1204.471, 113.7676
1205.554, 5.935547
1206.637, 48.65625
1207.719, 64.39062
1208.802, 33.14062
1209.884, 10.09180
1210.966, 20.36719
1212.048, 11.52734
1213.130, 50.72852
1214.212, 38.93750
1215.293, 2.853516
1216.374, 152.3438
1217.456, 3.419922
1218.536, 34.19141
1219.617, 127.9766
1220.698, 110.2227
1221.778, 40.46680
1222.859, 24.28516
1223.939, 117.9551
1225.019, 36.75781
1226.099, 65.51953
1227.178, 51.82031
1228.258, 78.13867
1229.337, 65.48633
1230.417, 53.13477
1231.496, 88.23828
1232.574, 81.34961
1233.653, 60.05273
1234.732, 123.5117
1235.810, 7.916016
1236.888, 239.6504
1237.966, 57.47461
1239.044, 31.95117
1240.122, 35.58594
1241.199, 1.056641
1242.277, 119.5371
1243.354, 28.08789
1244.431, 71.33594
1245.508, 247.1738
1246.585, 17.11133
1247.661, 127.6113
1248.738, 169.5879
1249.814, 30.38867
1250.890, 95.22461
1251.966, 87.00586
1253.042, 99.89648
1254.117, 29.33594
1255.193, 95.35156
1256.268, 4.363281
1257.343, 46.65039
1258.418, 37.28906
1259.493, 78.21680
1260.567, 125.1445
1261.642, 207.0625
1262.716, 270.9766
1263.790, 199.9824
1264.864, 36.00195
1265.938, 40.88672
1267.011, 38.24414
1268.085, 91.42578
1269.158, 72.30859
