##NAMES=Brazilianite
##RRUFFID=R050504
##IDEAL CHEMISTRY=NaAl_3_(PO_4_)_2_(OH)_4_
##LOCALITY=CÃ³rrego Frio, Minas Gerais, Brazil
##OWNER=RRUFF
##SOURCE=Marcus Origlieri
##DESCRIPTION=Yellowish green fragment
##STATUS=The identification of this mineral has been confirmed by X-ray diffraction and chemical analysis
##URL=rruff.info/R050504
##MEASURED CHEMISTRY=Na_1.00_Al_3.00_(P_1.00_O_4_)_2_(OH)_4_
##PIN_ID=L00567
##ORIENTATION=Laser parallel to (1 0 1). Fiducial mark perpendicular to laser is parallel to b [0 1 0]
83.60200, 0.0000000E+00
84.83700, 331.3213
86.07200, 572.5479
87.30800, 852.6611
88.54200, 709.2090
89.77700, 530.3623
91.01200, 497.7500
92.24600, 231.1406
93.48000, 82.88184
94.71400, 34.06348
95.94800, 5.253906
97.18200, 12.86230
98.41600, 101.9531
99.64900, 101.0547
100.8830, 318.3369
102.1160, 554.7090
103.3490, 594.0811
104.5820, 658.3008
105.8150, 571.3477
107.0470, 896.2217
108.2800, 829.8643
109.5120, 836.2168
110.7440, 540.2197
111.9760, 344.8252
113.2080, 462.9883
114.4400, 562.6680
115.6710, 360.8740
116.9030, 338.6240
118.1340, 233.8760
119.3650, 125.5859
120.5960, 38.71289
121.8270, 35.22070
123.0580, 157.0771
124.2880, 28.69629
125.5190, 168.9209
126.7490, 29.91211
127.9790, 114.2441
129.2090, 88.03125
130.4390, 112.1113
131.6680, 7.444336
132.8980, 52.01172
134.1270, 58.79785
135.3560, 190.7910
136.5850, 265.9766
137.8140, 355.3467
139.0430, 444.8906
140.2710, 553.5986
141.5000, 533.4639
142.7280, 735.4795
143.9560, 778.6406
145.1840, 732.9746
146.4120, 876.9531
147.6390, 890.5254
148.8670, 859.5029
150.0940, 719.5283
151.3210, 728.6045
152.5490, 782.7295
153.7750, 826.6758
155.0020, 829.1338
156.2290, 1132.413
157.4550, 1248.721
158.6810, 1564.994
159.9080, 2465.242
161.1340, 3817.535
162.3590, 5511.172
163.5850, 7377.345
164.8110, 8893.053
166.0360, 9974.125
167.2610, 11484.40
168.4860, 14063.69
169.7110, 16021.94
170.9360, 15973.17
172.1610, 14462.39
173.3850, 12320.46
174.6100, 9713.199
175.8340, 7537.328
177.0580, 5323.457
178.2820, 3861.586
179.5050, 2707.722
180.7290, 1970.866
181.9520, 1435.023
183.1760, 1287.195
184.3990, 1106.383
185.6220, 926.5898
186.8450, 891.8154
188.0670, 934.0645
189.2900, 764.3350
190.5120, 880.6318
191.7340, 898.9531
192.9560, 929.3008
194.1780, 980.6768
195.4000, 1110.082
196.6220, 1320.515
197.8430, 1217.979
199.0640, 1459.476
200.2860, 1698.002
201.5070, 1709.561
202.7270, 2056.150
203.9480, 2157.773
205.1690, 1864.430
206.3890, 1920.054
207.6090, 2099.818
208.8290, 2025.158
210.0490, 2117.326
211.2690, 2152.864
212.4890, 1982.600
213.7080, 2014.895
214.9280, 2082.234
216.1470, 2158.615
217.3660, 2293.042
218.5850, 2337.512
219.8030, 2332.242
221.0220, 2301.576
222.2400, 2215.168
223.4590, 2236.800
224.6770, 2090.473
225.8950, 2176.186
227.1120, 2258.938
228.3300, 2463.732
229.5480, 2244.570
230.7650, 2281.854
231.9820, 1866.355
233.1990, 1709.966
234.4160, 1428.606
235.6330, 1060.341
236.8490, 1032.918
238.0660, 1012.154
239.2820, 905.0703
240.4980, 1064.696
241.7140, 1220.792
242.9300, 1340.255
244.1460, 1610.197
245.3610, 1626.409
246.5770, 1576.833
247.7920, 1949.270
249.0070, 1941.907
250.2220, 2117.640
251.4370, 1982.689
252.6510, 1588.831
253.8660, 1436.061
255.0800, 903.3740
256.2940, 713.7676
257.5080, 395.2393
258.7220, 374.7871
259.9360, 247.4082
261.1490, 37.10156
262.3630, 34.13672
263.5760, 10.68066
264.7890, 125.5596
266.0020, 134.5020
267.2150, 230.5049
268.4270, 394.5693
269.6400, 649.6924
270.8520, 806.5908
272.0640, 1010.830
273.2760, 1253.121
274.4880, 1430.467
275.7000, 1645.866
276.9120, 1708.315
278.1230, 1472.815
279.3340, 1497.365
280.5450, 1080.963
281.7560, 872.6104
282.9670, 822.3057
284.1780, 600.0488
285.3880, 661.8379
286.5980, 629.6738
287.8090, 660.5566
289.0190, 824.4854
290.2290, 879.4590
291.4380, 1092.478
292.6480, 1194.538
293.8570, 1285.637
295.0670, 1222.775
296.2760, 1178.951
297.4850, 1035.164
298.6930, 889.4160
299.9020, 651.7070
301.1110, 557.0342
302.3190, 457.4004
303.5270, 289.8037
304.7350, 441.2461
305.9430, 480.7275
307.1510, 462.2471
308.3580, 438.8027
309.5660, 813.3945
310.7730, 640.0205
311.9800, 879.6777
313.1870, 909.3652
314.3940, 1002.085
315.6010, 1017.835
316.8070, 696.6172
318.0130, 546.4316
319.2200, 586.2588
320.4260, 565.1133
321.6310, 577.0020
322.8370, 389.9238
324.0430, 299.8799
325.2480, 252.8701
326.4540, 1.893555
327.6590, 1.052734
328.8640, 92.02832
330.0680, 170.8564
331.2730, 217.7480
332.4780, 152.6572
333.6820, 97.57129
334.8860, 8.474609
336.0900, 112.3516
337.2940, 140.7783
338.4980, 63.05664
339.7010, 130.8730
340.9050, 127.3105
342.1080, 40.53223
343.3110, 218.7891
344.5140, 426.0820
345.7170, 317.4111
346.9200, 771.7764
348.1220, 1031.178
349.3240, 1203.616
350.5270, 1545.092
351.7290, 1959.588
352.9310, 2050.072
354.1320, 2317.486
355.3340, 2416.900
356.5350, 2259.317
357.7370, 2268.718
358.9380, 1937.155
360.1390, 1551.633
361.3400, 1273.152
362.5400, 1044.710
363.7410, 844.3086
364.9410, 690.7373
366.1410, 516.6260
367.3410, 511.3447
368.5410, 411.1045
369.7410, 439.9443
370.9400, 422.7432
372.1400, 469.6221
373.3390, 441.5430
374.5380, 447.5039
375.7370, 414.5166
376.9360, 436.5820
378.1350, 383.6973
379.3330, 184.8652
380.5310, 45.08203
381.7300, 147.6475
382.9280, 157.3975
384.1260, 367.1699
385.3230, 362.0664
386.5210, 298.0723
387.7180, 360.1641
388.9160, 353.3721
390.1130, 115.6963
391.3100, 372.0273
392.5060, 34.48340
393.7030, 117.9111
394.9000, 112.6523
396.0960, 199.2773
397.2920, 307.9648
398.4880, 336.7090
399.6840, 536.5010
400.8800, 864.3408
402.0750, 840.2285
403.2710, 1177.163
404.4660, 1579.188
405.6610, 1631.277
406.8560, 1947.049
408.0510, 2086.905
409.2450, 2182.195
410.4400, 2530.572
411.6340, 2548.035
412.8280, 2589.573
414.0220, 2441.204
415.2160, 2276.900
416.4100, 2247.671
417.6030, 2078.519
418.7970, 1837.495
419.9900, 2016.531
421.1830, 1757.636
422.3760, 1773.859
423.5690, 1859.131
424.7610, 1772.488
425.9540, 1638.920
427.1460, 1721.429
428.3380, 1582.009
429.5300, 1697.665
430.7220, 1750.372
431.9140, 1876.145
433.1050, 2031.963
434.2970, 1994.832
435.4880, 2195.765
436.6790, 2375.744
437.8700, 2370.770
439.0610, 2451.843
440.2510, 2346.963
441.4420, 2176.128
442.6320, 2152.342
443.8220, 1808.600
445.0120, 1779.906
446.2020, 1562.259
447.3910, 1521.657
448.5810, 1525.102
449.7700, 1470.595
450.9600, 1410.132
452.1490, 1545.717
453.3370, 1478.346
454.5260, 1726.023
455.7150, 1728.754
456.9030, 1577.533
458.0910, 1932.356
459.2800, 1707.234
460.4670, 1810.159
461.6550, 1853.135
462.8430, 1950.158
464.0300, 1842.258
465.2180, 1760.406
466.4050, 1457.602
467.5920, 1344.842
468.7790, 1395.131
469.9650, 1136.713
471.1520, 1174.221
472.3380, 1154.650
473.5250, 1272.730
474.7110, 1275.312
475.8970, 1664.486
477.0820, 1814.590
478.2680, 1966.074
479.4540, 2172.545
480.6390, 2365.309
481.8240, 2618.365
483.0090, 2658.064
484.1940, 2780.973
485.3780, 3052.930
486.5630, 3241.938
487.7470, 3684.990
488.9320, 3839.094
490.1160, 4119.244
491.3000, 4320.443
492.4830, 4778.691
493.6670, 5105.986
494.8500, 5563.330
496.0340, 5993.723
497.2170, 6195.164
498.4000, 6801.652
499.5820, 7063.189
500.7650, 7233.777
501.9480, 7187.412
503.1300, 7463.094
504.3120, 7340.828
505.4940, 7273.607
506.6760, 7427.434
507.8580, 7388.311
509.0390, 7495.234
510.2210, 7525.396
511.4020, 7577.225
512.5830, 7589.291
513.7640, 7620.404
514.9450, 7666.564
516.1250, 7803.770
517.3060, 7568.023
518.4860, 7556.320
519.6660, 7477.666
520.8460, 7703.057
522.0260, 7936.494
523.2060, 8263.977
524.3850, 8551.961
525.5650, 8914.477
526.7440, 9180.484
527.9230, 9358.861
529.1020, 9757.934
530.2810, 9652.586
531.4590, 9886.727
532.6380, 9713.818
533.8160, 9700.055
534.9940, 9531.246
536.1720, 8966.488
537.3500, 8627.045
538.5270, 8151.594
539.7050, 7947.594
540.8820, 7660.807
542.0590, 7248.064
543.2360, 7489.375
544.4130, 7400.736
545.5900, 7985.766
546.7660, 8231.000
547.9430, 8761.070
549.1190, 9723.791
550.2950, 10639.78
551.4710, 11775.09
552.6470, 12948.10
553.8220, 14314.14
554.9980, 15824.68
556.1730, 16665.63
557.3480, 17277.35
558.5230, 17935.77
559.6980, 18358.01
560.8730, 18653.27
562.0470, 18293.08
563.2220, 17933.02
564.3960, 17266.16
565.5700, 16530.07
566.7440, 15429.52
567.9170, 14043.41
569.0910, 12734.99
570.2640, 11345.83
571.4380, 10093.89
572.6110, 8725.438
573.7840, 7736.973
574.9570, 6980.242
576.1290, 6289.254
577.3020, 5651.998
578.4740, 5270.115
579.6460, 4863.066
580.8180, 4796.471
581.9900, 4570.367
583.1620, 4611.293
584.3330, 4700.736
585.5040, 4846.227
586.6760, 5197.238
587.8470, 5671.273
589.0180, 6258.340
590.1880, 7202.430
591.3590, 8126.547
592.5290, 9072.705
593.7000, 10462.89
594.8700, 11713.18
596.0400, 12636.01
597.2090, 13706.30
598.3790, 13859.62
599.5490, 13677.43
600.7180, 13052.80
601.8870, 12276.25
603.0560, 10998.71
604.2250, 10284.86
605.3940, 9549.945
606.5620, 8720.531
607.7300, 7956.168
608.8990, 7897.832
610.0670, 7492.512
611.2350, 7192.312
612.4020, 6869.090
613.5700, 6454.773
614.7370, 6251.758
615.9050, 5649.695
617.0720, 5236.709
618.2390, 4831.764
619.4060, 4586.861
620.5720, 4101.020
621.7390, 3752.199
622.9050, 3844.436
624.0710, 3627.738
625.2370, 4042.057
626.4030, 4101.391
627.5690, 4288.740
628.7340, 4701.105
629.9000, 4679.500
631.0650, 4905.912
632.2300, 4889.350
633.3950, 5068.799
634.5600, 4867.262
635.7240, 4708.734
636.8890, 4333.215
638.0530, 4026.289
639.2170, 3489.215
640.3810, 3204.727
641.5450, 2827.250
642.7080, 2335.783
643.8720, 2002.320
645.0350, 1692.871
646.1980, 1705.426
647.3610, 1560.988
648.5240, 1423.557
649.6870, 1355.131
650.8490, 977.7148
652.0120, 1140.303
653.1740, 801.8945
654.3360, 882.4922
655.4980, 903.0957
656.6600, 918.6992
657.8210, 756.3066
658.9830, 528.9180
660.1440, 828.5312
661.3050, 573.1484
662.4660, 655.7637
663.6270, 394.3828
664.7870, 262.0391
665.9480, 250.7305
667.1080, 238.5098
668.2680, 356.3770
669.4280, 364.3105
670.5880, 254.3262
671.7480, 99.42578
672.9070, 258.5469
674.0670, 86.75586
675.2260, 34.97266
676.3850, 44.78906
677.5440, 42.27734
678.7030, 30.61133
679.8610, 23.75195
681.0200, 70.89648
682.1780, 79.03711
683.3360, 154.5527
684.4940, 155.3184
685.6520, 54.74609
686.8090, 32.71289
687.9670, 109.7266
689.1240, 26.58984
690.2810, 131.6465
691.4380, 124.6172
692.5950, 89.54492
693.7520, 160.4160
694.9080, 32.71875
696.0650, 77.84375
697.2210, 87.91797
698.3770, 290.4570
699.5330, 13.32031
700.6880, 55.16211
701.8440, 247.6445
702.9990, 114.2363
704.1550, 114.8535
705.3100, 74.05664
706.4650, 79.35352
707.6190, 55.15820
708.7740, 73.59961
709.9290, 36.53125
711.0830, 31.69922
712.2370, 196.0996
713.3910, 50.50781
714.5450, 1.435547
715.6980, 258.1777
716.8520, 304.8730
718.0050, 305.1406
719.1580, 265.4336
720.3110, 287.9492
721.4640, 266.8633
722.6170, 280.1113
723.7700, 255.2715
724.9220, 255.4082
726.0740, 302.5234
727.2260, 278.6152
728.3780, 362.6836
729.5300, 332.4492
730.6810, 195.6250
731.8330, 281.8770
732.9840, 145.0273
734.1350, 60.83398
735.2860, 248.9199
736.4370, 177.8008
737.5880, 68.65625
738.7380, 299.5156
739.8880, 95.02148
741.0390, 317.9492
742.1890, 21.31641
743.3380, 133.0566
744.4880, 280.5469
745.6380, 261.1094
746.7870, 340.7051
747.9360, 403.2188
749.0850, 200.1621
750.2340, 236.2246
751.3830, 398.3184
752.5310, 261.7109
753.6800, 475.1836
754.8280, 433.3301
755.9760, 480.6953
757.1240, 595.0293
758.2720, 420.3398
759.4190, 520.7031
760.5670, 608.5723
761.7140, 634.3203
762.8610, 541.4141
764.0080, 458.4727
765.1550, 692.4941
766.3020, 540.4824
767.4480, 648.0488
768.5950, 608.9629
769.7410, 459.9062
770.8870, 505.7480
772.0330, 591.5547
773.1780, 642.3223
774.3240, 635.0352
775.4690, 565.7500
776.6140, 570.4082
777.7590, 471.0254
778.9040, 373.6113
780.0490, 412.1562
781.1940, 387.6641
782.3380, 510.1348
783.4820, 431.5684
784.6260, 594.9609
785.7700, 487.3184
786.9140, 398.6367
788.0580, 432.9199
789.2010, 514.1602
790.3450, 530.3652
791.4880, 532.5332
792.6310, 671.6602
793.7730, 651.7500
794.9160, 653.8008
796.0590, 742.8125
797.2010, 564.7871
798.3430, 663.7227
799.4850, 511.6172
800.6270, 773.4766
801.7690, 651.2969
802.9100, 635.0781
804.0520, 605.8203
805.1930, 587.5254
806.3340, 589.1895
807.4750, 576.8145
808.6160, 436.3984
809.7560, 393.9414
810.8970, 631.4453
812.0370, 341.9102
813.1770, 500.3301
814.3170, 400.2129
815.4570, 403.1152
816.5960, 391.5723
817.7360, 338.8301
818.8750, 300.0469
820.0140, 216.2246
821.1530, 296.3555
822.2920, 193.8242
823.4310, 242.1016
824.5690, 242.5430
825.7070, 202.3555
826.8460, 218.3262
827.9840, 190.0840
829.1220, 171.6953
830.2590, 155.2188
831.3970, 106.2422
832.5340, 93.85938
833.6710, 134.7129
834.8080, 161.8672
835.9450, 331.1973
837.0820, 79.52734
838.2190, 59.29688
839.3550, 171.9492
840.4910, 4.607422
841.6270, 132.0625
842.7630, 208.1914
843.8990, 24.10352
845.0350, 166.8867
846.1700, 47.37109
847.3060, 68.12500
848.4410, 141.8672
849.5760, 56.88867
850.7100, 243.6660
851.8450, 0.2578130
852.9800, 18.58594
854.1140, 103.0273
855.2480, 30.38867
856.3820, 100.1367
857.5160, 220.6328
858.6500, 70.10352
859.7830, 184.5527
860.9170, 246.9746
862.0500, 123.3730
863.1830, 152.7461
864.3160, 144.0996
865.4480, 100.2148
866.5810, 20.27148
867.7130, 36.98242
868.8460, 41.20703
869.9780, 54.66992
871.1100, 13.09766
872.2410, 83.99219
873.3730, 164.0586
874.5050, 46.63867
875.6360, 137.3379
876.7670, 2.435547
877.8980, 64.55078
879.0290, 63.37891
880.1590, 19.16211
881.2900, 117.4512
882.4200, 23.17188
883.5500, 70.77148
884.6800, 64.64453
885.8100, 84.19141
886.9400, 6.740234
888.0690, 147.6836
889.1990, 4.093750
890.3280, 60.52148
891.4570, 4.812500
892.5860, 51.10742
893.7140, 52.61133
894.8430, 23.39062
895.9710, 65.20117
897.1000, 81.06445
898.2280, 159.0137
899.3560, 105.0781
900.4830, 15.12891
901.6110, 102.1641
902.7380, 87.81445
903.8660, 98.14844
904.9930, 65.90039
906.1200, 125.0078
907.2460, 185.9043
908.3730, 243.7852
909.5000, 500.6543
910.6260, 206.5137
911.7520, 188.3613
912.8780, 344.1992
914.0040, 235.0234
915.1290, 225.8359
916.2550, 167.6426
917.3800, 259.4375
918.5050, 407.2246
919.6300, 336.0020
920.7550, 482.7695
921.8800, 316.5293
923.0040, 320.2793
924.1290, 407.0234
925.2530, 498.7617
926.3770, 572.4902
927.5010, 559.2129
928.6250, 587.9277
929.7480, 780.6387
930.8720, 574.3418
931.9950, 767.0703
933.1180, 977.7930
934.2410, 785.5117
935.3640, 1085.227
936.4860, 1053.938
937.6090, 1288.645
938.7310, 1458.352
939.8530, 1728.055
940.9750, 1834.754
942.0970, 2034.451
943.2180, 1998.145
944.3400, 2395.846
945.4610, 2528.551
946.5820, 2850.250
947.7030, 2869.961
948.8240, 3115.680
949.9450, 3295.410
951.0650, 3039.156
952.1860, 3277.918
953.3060, 3245.680
954.4260, 3391.451
955.5460, 3329.844
956.6650, 3551.680
957.7850, 3655.795
958.9040, 3669.887
960.0230, 4018.777
961.1420, 4300.533
962.2610, 4578.461
963.3800, 4900.260
964.4990, 5733.973
965.6170, 6250.598
966.7350, 6919.609
967.8530, 7544.465
968.9710, 8428.238
970.0890, 9012.438
971.2070, 9434.896
972.3240, 9612.336
973.4410, 9824.391
974.5580, 9776.004
975.6750, 9454.590
976.7920, 8958.242
977.9090, 9096.953
979.0250, 9052.168
980.1410, 9578.984
981.2580, 9553.211
982.3740, 9917.789
983.4890, 10658.31
984.6050, 10973.23
985.7200, 11892.50
986.8360, 12206.20
987.9510, 12102.82
989.0660, 11758.86
990.1810, 11115.86
991.2950, 10354.93
992.4100, 9685.059
993.5240, 8724.146
994.6390, 8190.322
995.7530, 7658.531
996.8660, 7358.486
997.9800, 7344.027
999.0940, 7290.340
1000.207, 7554.668
1001.320, 7950.145
1002.433, 8763.266
1003.546, 9333.477
1004.659, 10053.03
1005.772, 11289.29
1006.884, 12850.74
1007.996, 14708.22
1009.108, 17000.67
1010.220, 19395.48
1011.332, 22215.88
1012.444, 25680.47
1013.555, 28917.38
1014.666, 31971.16
1015.777, 34247.87
1016.888, 36248.55
1017.999, 37354.29
1019.110, 37055.61
1020.220, 36589.79
1021.331, 35411.93
1022.441, 33260.78
1023.551, 30958.54
1024.661, 28944.63
1025.770, 26729.49
1026.880, 24989.37
1027.989, 23065.27
1029.098, 21611.10
1030.207, 20377.43
1031.316, 19538.88
1032.425, 18552.97
1033.533, 17947.08
1034.642, 17334.25
1035.750, 16690.44
1036.858, 15944.04
1037.966, 15595.29
1039.073, 15197.51
1040.181, 14527.81
1041.288, 14041.16
1042.396, 13505.52
1043.503, 12768.92
1044.610, 11931.35
1045.716, 11439.81
1046.823, 10752.31
1047.929, 9893.830
1049.036, 9414.383
1050.142, 8899.967
1051.248, 8418.582
1052.353, 8152.229
1053.459, 7865.908
1054.564, 7762.619
1055.670, 7832.357
1056.775, 7616.131
1057.880, 7621.938
1058.985, 7533.773
1060.089, 7541.641
1061.194, 7498.543
1062.298, 7299.477
1063.402, 7335.441
1064.506, 7132.988
1065.610, 6809.020
1066.713, 6459.082
1067.817, 6187.648
1068.920, 5992.303
1070.023, 5490.619
1071.126, 5219.812
1072.229, 4721.031
1073.332, 4464.289
1074.435, 3834.576
1075.537, 3438.902
1076.639, 3358.473
1077.741, 2855.285
1078.843, 2802.703
1079.945, 2771.342
1081.046, 2443.020
1082.148, 2026.537
1083.249, 1911.084
1084.350, 1914.273
1085.451, 1569.887
1086.551, 1437.562
1087.652, 1318.238
1088.752, 1198.242
1089.853, 1071.982
1090.953, 847.7617
1092.053, 959.5742
1093.152, 741.3516
1094.252, 775.2246
1095.351, 715.1270
1096.451, 618.0605
1097.550, 543.0293
1098.649, 491.1504
1099.748, 524.0312
1100.846, 533.2051
1101.945, 224.3047
1103.043, 406.1016
1104.141, 383.5391
1105.239, 67.09375
1106.337, 48.31836
1107.434, 215.6465
1108.532, 391.9414
1109.629, 185.2617
1110.726, 316.1152
1111.823, 103.5098
1112.920, 267.3184
1114.017, 215.8340
1115.113, 564.3750
1116.210, 456.9922
1117.306, 471.8477
1118.402, 344.0879
1119.498, 445.9141
1120.593, 421.0078
1121.689, 376.8965
1122.784, 442.8281
1123.879, 389.1758
1124.974, 498.4570
1126.069, 670.4551
1127.164, 590.0859
1128.259, 601.1328
1129.353, 697.7617
1130.447, 665.7676
1131.541, 452.8789
1132.635, 516.1816
1133.729, 722.3691
1134.822, 496.5762
1135.916, 759.8086
1137.009, 869.0820
1138.102, 819.3887
1139.195, 963.7148
1140.288, 1218.061
1141.380, 1213.426
1142.473, 1386.395
1143.565, 1577.861
1144.657, 1951.369
1145.749, 2122.928
1146.841, 2194.807
1147.932, 2312.160
1149.024, 2148.840
1150.115, 1936.533
1151.206, 1711.268
1152.297, 1591.949
1153.388, 1273.750
1154.479, 1320.641
1155.569, 1347.479
1156.659, 1121.352
1157.750, 1205.287
1158.839, 908.1777
1159.929, 1168.137
1161.019, 1079.146
1162.108, 1013.207
1163.198, 907.3125
1164.287, 911.6562
1165.376, 961.6797
1166.465, 974.9062
1167.553, 990.9238
1168.642, 1124.344
1169.730, 899.5625
1170.818, 878.8105
1171.906, 690.0762
1172.994, 686.3516
1174.082, 440.6426
1175.170, 673.9453
1176.257, 471.2637
1177.344, 454.5898
1178.431, 357.9316
1179.518, 285.2832
1180.605, 340.6504
1181.691, 337.0273
1182.778, 406.4180
1183.864, 241.8164
1184.950, 296.1191
1186.036, 86.65039
1187.122, 279.0859
1188.207, 189.5293
1189.292, 179.9824
1190.378, 296.4453
1191.463, 292.0137
1192.548, 242.4941
1193.632, 23.98633
1194.717, 151.3711
1195.801, 93.07812
1196.886, 178.5371
1197.970, 16.00195
1199.054, 115.4785
1200.137, 8.039063
1201.221, 50.44922
1202.305, 71.94336
1203.388, 130.4453
1204.471, 205.9551
1205.554, 5.470703
1206.637, 38.00977
1207.719, 16.21875
1208.802, 86.48633
1209.884, 56.99219
1210.966, 34.48828
1212.048, 195.0078
1213.130, 43.50977
1214.212, 17.98438
1215.293, 97.53320
1216.374, 26.94727
1217.456, 178.8477
1218.536, 246.6348
1219.617, 164.7637
1220.698, 205.8340
1221.778, 79.27930
1222.859, 204.3145
1223.939, 25.99023
1225.019, 37.29688
1226.099, 170.8105
1227.178, 104.1211
1228.258, 40.56836
1229.337, 148.2754
1230.417, 4.154297
1231.496, 36.36523
1232.574, 78.40234
1233.653, 71.23242
1234.732, 0.1015630
1235.810, 59.02148
1236.888, 13.85156
1237.966, 222.2598
1239.044, 213.3730
1240.122, 100.5176
1241.199, 35.72070
1242.277, 46.41992
1243.354, 135.0020
1244.431, 108.2695
1245.508, 85.40039
1246.585, 70.13867
1247.661, 7.816406
1248.738, 130.1523
1249.814, 17.08984
1250.890, 251.0195
1251.966, 260.9434
1253.042, 146.1406
1254.117, 16.31836
1255.193, 83.47656
1256.268, 35.37891
1257.343, 47.44336
1258.418, 80.79883
1259.493, 53.76367
1260.567, 176.8027
1261.642, 9.429688
1262.716, 125.2129
1263.790, 251.2285
1264.864, 185.8340
1265.938, 329.5527
