##NAMES=Brazilianite
##RRUFFID=R050504
##IDEAL CHEMISTRY=NaAl_3_(PO_4_)_2_(OH)_4_
##LOCALITY=CÃ³rrego Frio, Minas Gerais, Brazil
##OWNER=RRUFF
##SOURCE=Marcus Origlieri
##DESCRIPTION=Yellowish green fragment
##STATUS=The identification of this mineral has been confirmed by X-ray diffraction and chemical analysis
##URL=rruff.info/R050504
##MEASURED CHEMISTRY=Na_1.00_Al_3.00_(P_1.00_O_4_)_2_(OH)_4_
##PIN_ID=L00583
##ORIENTATION=Laser parallel to b* (0 1 0). Fiducial mark perpendicular to laser is parallel to c [0 0 1]
72.47700, 0.0000000E+00
73.71400, 26.53076
74.95100, 351.3887
76.18700, 1070.222
77.42300, 1967.551
78.65900, 3029.485
79.89500, 4560.232
81.13100, 6792.512
82.36700, 8866.615
83.60200, 10661.75
84.83700, 12029.45
86.07200, 12887.39
87.30800, 13455.95
88.54200, 13485.00
89.77700, 12270.63
91.01200, 10891.17
92.24600, 9874.862
93.48000, 9082.388
94.71400, 8854.048
95.94800, 9121.869
97.18200, 9537.993
98.41600, 10221.53
99.64900, 12630.43
100.8830, 15857.72
102.1160, 19672.82
103.3490, 21481.29
104.5820, 20336.15
105.8150, 16962.34
107.0470, 14147.26
108.2800, 10749.79
109.5120, 7019.846
110.7440, 4414.304
111.9760, 3100.078
113.2080, 2840.127
114.4400, 2487.438
115.6710, 2229.980
116.9030, 1614.760
118.1340, 1048.729
119.3650, 542.8071
120.5960, 302.8687
121.8270, 31.21289
123.0580, 0.3647460
124.2880, 130.7651
125.5190, 184.2563
126.7490, 326.1489
127.9790, 287.4619
129.2090, 351.9761
130.4390, 314.6812
131.6680, 417.8882
132.8980, 237.6084
134.1270, 222.8545
135.3560, 101.6367
136.5850, 6.966309
137.8140, 128.1475
139.0430, 331.7505
140.2710, 540.5010
141.5000, 809.0654
142.7280, 1051.872
143.9560, 1357.082
145.1840, 1611.688
146.4120, 1672.175
147.6390, 1887.665
148.8670, 1656.039
150.0940, 1508.778
151.3210, 1316.901
152.5490, 1203.697
153.7750, 925.4902
155.0020, 896.9141
156.2290, 802.7979
157.4550, 1022.315
158.6810, 1203.780
159.9080, 1609.250
161.1340, 2238.380
162.3590, 3197.680
163.5850, 4359.059
164.8110, 5422.528
166.0360, 6255.093
167.2610, 7787.717
168.4860, 10486.54
169.7110, 13817.88
170.9360, 16027.31
172.1610, 16093.68
173.3850, 13997.78
174.6100, 11580.49
175.8340, 8909.791
177.0580, 6213.815
178.2820, 3859.805
179.5050, 2437.977
180.7290, 1534.355
181.9520, 864.9424
183.1760, 685.7354
184.3990, 488.0117
185.6220, 301.9180
186.8450, 349.7988
188.0670, 320.2280
189.2900, 427.8618
190.5120, 483.7012
191.7340, 484.7432
192.9560, 763.9868
194.1780, 780.4287
195.4000, 1048.065
196.6220, 1253.894
197.8430, 1505.915
199.0640, 1723.127
200.2860, 1950.532
201.5070, 2097.126
202.7270, 2259.908
203.9480, 2119.880
205.1690, 2170.062
206.3890, 2177.454
207.6090, 2473.035
208.8290, 2387.800
210.0490, 2235.749
211.2690, 2228.881
212.4890, 2102.195
213.7080, 2141.693
214.9280, 2282.372
216.1470, 2434.232
217.3660, 2698.271
218.5850, 2614.492
219.8030, 2642.325
221.0220, 2349.014
222.2400, 2227.537
223.4590, 2006.597
224.6770, 1861.722
225.8950, 1960.624
227.1120, 2182.087
228.3300, 2397.928
229.5480, 2549.045
230.7650, 2577.315
231.9820, 2248.240
233.1990, 1943.347
234.4160, 1635.945
235.6330, 1379.875
236.8490, 1455.332
238.0660, 1569.872
239.2820, 1722.103
240.4980, 2073.604
241.7140, 2524.310
242.9300, 2664.620
244.1460, 2815.583
245.3610, 2655.772
246.5770, 2456.772
247.7920, 2508.906
249.0070, 3130.176
250.2220, 3852.048
251.4370, 4409.889
252.6510, 4308.974
253.8660, 3613.293
255.0800, 2767.842
256.2940, 1819.612
257.5080, 917.5972
258.7220, 376.7920
259.9360, 134.1929
261.1490, 126.2124
262.3630, 121.4795
263.5760, 12.61133
264.7890, 177.4102
266.0020, 521.6104
267.2150, 778.9824
268.4270, 1106.529
269.6400, 1237.920
270.8520, 1468.629
272.0640, 1512.867
273.2760, 1694.640
274.4880, 1740.116
275.7000, 1931.324
276.9120, 2083.115
278.1230, 2221.345
279.3340, 2704.090
280.5450, 3002.009
281.7560, 3256.887
282.9670, 3572.977
284.1780, 3587.497
285.3880, 3320.161
286.5980, 2812.967
287.8090, 2249.915
289.0190, 1452.002
290.2290, 994.2275
291.4380, 621.5918
292.6480, 358.0918
293.8570, 145.7285
295.0670, 31.49805
296.2760, 55.60645
297.4850, 46.60254
298.6930, 73.48438
299.9020, 147.7363
301.1110, 280.0811
302.3190, 499.5488
303.5270, 844.1377
304.7350, 1351.842
305.9430, 1839.659
307.1510, 2692.586
308.3580, 3522.624
309.5660, 4437.770
310.7730, 5398.027
311.9800, 6305.395
313.1870, 6596.779
314.3940, 6812.143
315.6010, 6651.623
316.8070, 6580.213
318.0130, 6655.916
319.2200, 6643.737
320.4260, 6766.674
321.6310, 6692.731
322.8370, 6379.910
324.0430, 5984.211
325.2480, 5670.633
326.4540, 5090.178
327.6590, 4674.845
328.8640, 4355.631
330.0680, 3972.516
331.2730, 3730.471
332.4780, 3406.516
333.6820, 3002.679
334.8860, 2982.061
336.0900, 2629.369
337.2940, 2569.831
338.4980, 2517.572
339.7010, 2458.330
340.9050, 2699.201
342.1080, 2771.188
343.3110, 3113.291
344.5140, 3903.510
345.7170, 4291.842
346.9200, 5318.290
348.1220, 6300.852
349.3240, 7797.527
350.5270, 9156.312
351.7290, 11047.21
352.9310, 13028.23
354.1320, 15107.35
355.3340, 17224.58
356.5350, 18708.93
357.7370, 19076.38
358.9380, 18729.95
360.1390, 16790.63
361.3400, 14646.41
362.5400, 12350.30
363.7410, 9678.304
364.9410, 7642.455
366.1410, 5954.745
367.3410, 4612.156
368.5410, 3474.686
369.7410, 2348.325
370.9400, 1697.073
372.1400, 822.9268
373.3390, 459.8838
374.5380, 173.0557
375.7370, 362.9717
376.9360, 461.9443
378.1350, 318.0166
379.3330, 167.1250
380.5310, 116.2041
381.7300, 75.23438
382.9280, 114.1973
384.1260, 246.1074
385.3230, 330.0195
386.5210, 495.9668
387.7180, 547.0225
388.9160, 541.2080
390.1130, 553.5186
391.3100, 344.9551
392.5060, 246.4189
393.7030, 31.13477
394.9000, 459.8125
396.0960, 647.6152
397.2920, 957.5449
398.4880, 1711.598
399.6840, 2162.775
400.8800, 2623.076
402.0750, 3230.502
403.2710, 3821.468
404.4660, 4653.164
405.6610, 5153.233
406.8560, 5995.771
408.0510, 6708.035
409.2450, 7188.324
410.4400, 7760.810
411.6340, 8125.489
412.8280, 8061.377
414.0220, 7766.492
415.2160, 7480.861
416.4100, 6902.494
417.6030, 6418.436
418.7970, 6140.674
419.9900, 5761.227
421.1830, 5653.077
422.3760, 5605.233
423.5690, 5483.652
424.7610, 5389.320
425.9540, 5018.205
427.1460, 4693.303
428.3380, 4311.566
429.5300, 3793.979
430.7220, 3755.579
431.9140, 3624.318
433.1050, 3829.199
434.2970, 4014.229
435.4880, 4213.391
436.6790, 4632.674
437.8700, 4750.093
439.0610, 4727.123
440.2510, 4335.186
441.4420, 3721.804
442.6320, 3103.320
443.8220, 2226.334
445.0120, 1774.464
446.2020, 1106.707
447.3910, 937.0635
448.5810, 669.5322
449.7700, 532.1123
450.9600, 583.8037
452.1490, 567.6104
453.3370, 672.5283
454.5260, 571.5566
455.7150, 586.6953
456.9030, 543.9434
458.0910, 551.3008
459.2800, 648.7666
460.4670, 791.3418
461.6550, 1046.025
462.8430, 1312.816
464.0300, 1439.715
465.2180, 1579.721
466.4050, 1718.832
467.5920, 1621.049
468.7790, 1624.370
469.9650, 1424.797
471.1520, 998.3271
472.3380, 671.9609
473.5250, 482.6973
474.7110, 198.5371
475.8970, 95.47852
477.0820, 58.47852
478.2680, 49.34863
479.4540, 51.13184
480.6390, 5.170898
481.8240, 23.56934
483.0090, 339.0664
484.1940, 508.6611
485.3780, 702.3535
486.5630, 1090.143
487.7470, 1347.028
488.9320, 1967.011
490.1160, 2334.087
491.3000, 3062.258
492.4830, 3652.524
493.6670, 4472.883
494.8500, 5237.334
496.0340, 5975.880
497.2170, 7000.517
498.4000, 7801.244
499.5820, 8572.062
500.7650, 9268.967
501.9480, 9533.965
503.1300, 10076.05
504.3120, 10308.23
505.4940, 10410.49
506.6760, 10586.83
507.8580, 10603.27
509.0390, 11042.79
510.2210, 11350.40
511.4020, 11384.10
512.5830, 11751.88
513.7640, 12066.75
514.9450, 12400.71
516.1250, 12797.75
517.3060, 13412.96
518.4860, 13609.77
519.6660, 14244.57
520.8460, 15038.88
522.0260, 15916.81
523.2060, 16981.20
524.3850, 18333.55
525.5650, 19488.29
526.7440, 20880.86
527.9230, 21866.36
529.1020, 23183.41
530.2810, 23793.85
531.4590, 24248.76
532.6380, 24344.07
533.8160, 24343.73
534.9940, 23523.41
536.1720, 22864.13
537.3500, 21738.97
538.5270, 20011.92
539.7050, 19017.98
540.8820, 17732.15
542.0590, 16567.43
543.2360, 15784.82
544.4130, 15259.33
545.5900, 15037.48
546.7660, 15063.15
547.9430, 15460.77
549.1190, 16050.63
550.2950, 17023.84
551.4710, 18416.76
552.6470, 20179.11
553.8220, 22370.41
554.9980, 24779.22
556.1730, 26836.08
557.3480, 28564.26
558.5230, 30095.32
559.6980, 30962.44
560.8730, 31082.04
562.0470, 31697.40
563.2220, 31323.94
564.3960, 30723.24
565.5700, 29970.84
566.7440, 28416.25
567.9170, 26878.21
569.0910, 24421.66
570.2640, 22035.29
571.4380, 19985.01
572.6110, 17638.47
573.7840, 15844.85
574.9570, 14514.65
576.1290, 13201.48
577.3020, 12674.69
578.4740, 12155.78
579.6460, 12034.49
580.8180, 12176.70
581.9900, 12614.57
583.1620, 13043.14
584.3330, 14145.27
585.5040, 15160.22
586.6760, 16576.77
587.8470, 18466.25
589.0180, 20594.73
590.1880, 23478.31
591.3590, 26254.96
592.5290, 29578.24
593.7000, 32994.97
594.8700, 36700.80
596.0400, 39437.41
597.2090, 41566.02
598.3790, 42202.65
599.5490, 40855.29
600.7180, 38037.94
601.8870, 33726.59
603.0560, 29079.26
604.2250, 24750.98
605.3940, 20777.66
606.5620, 17683.34
607.7300, 15205.03
608.8990, 13298.72
610.0670, 11463.41
611.2350, 10224.10
612.4020, 9135.793
613.5700, 8504.478
614.7370, 7801.162
615.9050, 7229.842
617.0720, 6815.516
618.2390, 6510.082
619.4060, 6091.837
620.5720, 5711.547
621.7390, 5631.086
622.9050, 5522.717
624.0710, 5288.340
625.2370, 5200.951
626.4030, 5059.550
627.5690, 5252.137
628.7340, 5366.707
629.9000, 5495.264
631.0650, 5516.803
632.2300, 5605.326
633.3950, 5618.830
634.5600, 5507.315
635.7240, 5589.781
636.8890, 5292.227
638.0530, 5187.648
639.2170, 4796.049
640.3810, 4432.425
641.5450, 4527.778
642.7080, 4218.105
643.8720, 4286.407
645.0350, 4237.678
646.1980, 4413.924
647.3610, 4510.366
648.5240, 4690.028
649.6870, 4966.204
650.8490, 5288.424
652.0120, 5689.111
653.1740, 5805.728
654.3360, 6088.929
655.4980, 6673.769
656.6600, 6994.168
657.8210, 7061.396
658.9830, 7042.427
660.1440, 7029.190
661.3050, 6720.694
662.4660, 6298.659
663.6270, 5870.718
664.7870, 5418.700
665.9480, 4762.935
667.1080, 4129.971
668.2680, 3540.207
669.4280, 2922.131
670.5880, 2528.849
671.7480, 1945.829
672.9070, 1721.845
674.0670, 1320.527
675.2260, 1032.384
676.3850, 916.8579
677.5440, 649.1802
678.7030, 595.3301
679.8610, 470.3828
681.0200, 368.3931
682.1780, 284.0898
683.3360, 189.1738
684.4940, 87.78906
685.6520, 58.15283
686.8090, 52.85693
687.9670, 70.89648
689.1240, 116.1040
690.2810, 203.3979
691.4380, 190.5654
692.5950, 165.1250
693.7520, 199.9292
694.9080, 195.7534
696.0650, 196.4731
697.2210, 219.7979
698.3770, 232.6343
699.5330, 230.3188
700.6880, 205.7446
701.8440, 141.5278
702.9990, 147.5908
704.1550, 97.56201
705.3100, 90.15918
706.4650, 156.4697
707.6190, 31.77100
708.7740, 17.75781
709.9290, 120.1099
711.0830, 79.57031
712.2370, 63.42139
713.3910, 38.96875
714.5450, 121.9644
715.6980, 246.3340
716.8520, 127.8628
718.0050, 239.0234
719.1580, 273.4951
720.3110, 239.1577
721.4640, 345.6064
722.6170, 296.7417
723.7700, 316.3091
724.9220, 378.1055
726.0740, 400.8379
727.2260, 406.4346
728.3780, 394.9868
729.5300, 386.9238
730.6810, 320.2959
731.8330, 383.4805
732.9840, 366.8701
734.1350, 497.0342
735.2860, 571.9771
736.4370, 560.0933
737.5880, 573.4854
738.7380, 538.0693
739.8880, 494.0713
741.0390, 446.9136
742.1890, 430.1714
743.3380, 488.3247
744.4880, 588.3745
745.6380, 476.0435
746.7870, 599.8843
747.9360, 558.6216
749.0850, 634.2539
750.2340, 568.7822
751.3830, 453.2051
752.5310, 780.5229
753.6800, 625.0542
754.8280, 938.8442
755.9760, 613.8472
757.1240, 663.7529
758.2720, 696.5596
759.4190, 689.2676
760.5670, 719.8779
761.7140, 774.3721
762.8610, 725.8008
764.0080, 753.0557
765.1550, 728.2388
766.3020, 777.3164
767.4480, 782.2891
768.5950, 818.1562
769.7410, 805.9180
770.8870, 802.1260
772.0330, 853.1245
773.1780, 785.5698
774.3240, 663.9097
775.4690, 681.1445
776.6140, 602.2739
777.7590, 576.2988
778.9040, 573.2188
780.0490, 526.0332
781.1940, 596.7427
782.3380, 501.9048
783.4820, 638.8486
784.6260, 408.2451
785.7700, 377.5342
786.9140, 441.7139
788.0580, 308.7886
789.2010, 359.7495
790.3450, 362.6006
791.4880, 226.3423
792.6310, 324.9604
793.7730, 272.4673
794.9160, 214.8584
796.0590, 227.1260
797.2010, 188.2720
798.3430, 192.2900
799.4850, 183.1812
800.6270, 220.9443
801.7690, 168.5864
802.9100, 122.1001
804.0520, 161.4717
805.1930, 13.71338
806.3340, 164.7705
807.4750, 134.6997
808.6160, 34.49316
809.7560, 162.1147
810.8970, 103.6084
812.0370, 72.95996
813.1770, 78.15918
814.3170, 78.20801
815.4570, 57.10840
816.5960, 55.85352
817.7360, 53.44385
818.8750, 2.878906
820.0140, 9.135742
821.1530, 32.78027
822.2920, 32.40723
823.4310, 13.84814
824.5690, 69.23096
825.7070, 42.15283
826.8460, 110.0791
827.9840, 120.5601
829.1220, 100.4121
830.2590, 3.585449
831.3970, 8.965820
832.5340, 8.373535
833.6710, 74.64160
834.8080, 64.60547
835.9450, 65.81250
837.0820, 116.2896
838.2190, 13.73584
839.3550, 100.3970
840.4910, 145.8696
841.6270, 66.72119
842.7630, 129.4243
843.8990, 110.7373
845.0350, 84.60596
846.1700, 180.6885
847.3060, 121.9346
848.4410, 111.9917
849.5760, 118.0039
850.7100, 177.4902
851.8450, 173.0640
852.9800, 69.08789
854.1140, 228.0337
855.2480, 2.671875
856.3820, 19.82715
857.5160, 15.65723
858.6500, 49.19580
859.7830, 32.30469
860.9170, 20.73682
862.0500, 6.149902
863.1830, 30.60205
864.3160, 113.9766
865.4480, 69.69922
866.5810, 88.53027
867.7130, 72.96631
868.8460, 98.01025
869.9780, 10.13770
871.1100, 57.05176
872.2410, 94.01953
873.3730, 26.95068
874.5050, 8.882324
875.6360, 35.22559
876.7670, 32.37842
877.8980, 18.42578
879.0290, 39.14844
880.1590, 27.88232
881.2900, 48.41846
882.4200, 142.2393
883.5500, 115.8652
884.6800, 155.4595
885.8100, 26.02441
886.9400, 46.55957
888.0690, 113.0664
889.1990, 153.5459
890.3280, 149.9985
891.4570, 160.4253
892.5860, 188.9565
893.7140, 199.5811
894.8430, 228.5610
895.9710, 246.8945
897.1000, 252.2070
898.2280, 281.4980
899.3560, 211.7705
900.4830, 346.0249
901.6110, 313.2612
902.7380, 240.4810
903.8660, 474.6855
904.9930, 343.8750
906.1200, 512.0503
907.2460, 331.2124
908.3730, 547.3633
909.5000, 536.5024
910.6260, 462.6318
911.7520, 594.7520
912.8780, 542.8638
914.0040, 495.9683
915.1290, 739.0669
916.2550, 602.1597
917.3800, 748.2480
918.5050, 867.3325
919.6300, 965.4146
920.7550, 901.2695
921.8800, 1011.276
923.0040, 1063.940
924.1290, 1107.929
925.2530, 1200.432
926.3770, 1268.973
927.5010, 1360.776
928.6250, 1477.174
929.7480, 1596.898
930.8720, 1677.821
931.9950, 1870.437
933.1180, 2092.881
934.2410, 2357.228
935.3640, 2653.792
936.4860, 3012.107
937.6090, 3348.517
938.7310, 3801.681
939.8530, 4214.501
940.9750, 4693.352
942.0970, 5199.047
943.2180, 5693.044
944.3400, 6340.883
945.4610, 6982.811
946.5820, 7491.148
947.7030, 7989.355
948.8240, 8471.931
949.9450, 8692.516
951.0650, 9029.554
952.1860, 9006.515
953.3060, 9157.513
954.4260, 9229.836
955.5460, 9269.717
956.6650, 9217.164
957.7850, 9384.830
958.9040, 9856.850
960.0230, 10245.85
961.1420, 10760.87
962.2610, 11846.16
963.3800, 12929.14
964.4990, 14399.45
965.6170, 15977.94
966.7350, 17816.38
967.8530, 20038.64
968.9710, 22259.44
970.0890, 24455.64
971.2070, 26416.60
972.3240, 27785.22
973.4410, 28988.08
974.5580, 29314.17
975.6750, 29715.09
976.7920, 29207.58
977.9090, 29453.71
979.0250, 29849.76
980.1410, 30665.93
981.2580, 32103.46
982.3740, 33939.36
983.4890, 36567.21
984.6050, 39287.01
985.7200, 41530.46
986.8360, 43466.48
987.9510, 44235.34
989.0660, 43310.51
990.1810, 40892.33
991.2950, 37553.93
992.4100, 33222.71
993.5240, 29135.78
994.6390, 25659.38
995.7530, 22714.73
996.8660, 20481.12
997.9800, 18625.61
999.0940, 17746.12
1000.207, 16883.22
1001.320, 16619.85
1002.433, 16387.65
1003.546, 16681.21
1004.659, 16992.97
1005.772, 18017.93
1006.884, 19328.97
1007.996, 21132.15
1009.108, 23229.39
1010.220, 25911.19
1011.332, 29198.12
1012.444, 32704.62
1013.555, 36883.19
1014.666, 40428.85
1015.777, 44151.85
1016.888, 47121.67
1017.999, 49260.58
1019.110, 50279.56
1020.220, 50208.61
1021.331, 48750.76
1022.441, 46516.98
1023.551, 43931.30
1024.661, 41070.69
1025.770, 38208.16
1026.880, 35675.73
1027.989, 32967.37
1029.098, 30786.10
1030.207, 28935.92
1031.316, 27410.82
1032.425, 26126.80
1033.533, 24605.88
1034.642, 23346.03
1035.750, 22523.27
1036.858, 21453.60
1037.966, 20928.02
1039.073, 20077.52
1040.181, 19309.11
1041.288, 18096.78
1042.396, 17291.54
1043.503, 16212.40
1044.610, 15132.33
1045.716, 14268.35
1046.823, 13122.47
1047.929, 12051.67
1049.036, 11281.96
1050.142, 10317.33
1051.248, 9748.798
1052.353, 9298.350
1053.459, 8662.993
1054.564, 8389.725
1055.670, 8185.348
1056.775, 8043.259
1057.880, 8201.890
1058.985, 8366.986
1060.089, 8636.603
1061.194, 9034.308
1062.298, 9650.205
1063.402, 10353.46
1064.506, 11396.69
1065.610, 12334.69
1066.713, 13577.24
1067.817, 14734.72
1068.920, 15758.80
1070.023, 16696.14
1071.126, 17426.13
1072.229, 17977.63
1073.332, 18389.03
1074.435, 18461.41
1075.537, 18507.81
1076.639, 18387.62
1077.741, 18293.42
1078.843, 18225.66
1079.945, 17863.02
1081.046, 17940.44
1082.148, 17356.38
1083.249, 17075.56
1084.350, 16555.00
1085.451, 16145.11
1086.551, 15766.04
1087.652, 14836.06
1088.752, 14368.49
1089.853, 13662.12
1090.953, 13192.56
1092.053, 12421.85
1093.152, 12108.77
1094.252, 11354.17
1095.351, 10870.56
1096.451, 10256.34
1097.550, 9804.336
1098.649, 9526.671
1099.748, 9120.033
1100.846, 9024.352
1101.945, 9056.275
1103.043, 9045.976
1104.141, 9196.894
1105.239, 9418.124
1106.337, 10113.38
1107.434, 10660.57
1108.532, 11712.63
1109.629, 12969.29
1110.726, 14734.57
1111.823, 16664.76
1112.920, 18597.57
1114.017, 20647.01
1115.113, 22065.89
1116.210, 22659.43
1117.306, 22096.04
1118.402, 20803.98
1119.498, 18712.54
1120.593, 16043.27
1121.689, 13967.11
1122.784, 11919.00
1123.879, 10243.94
1124.974, 8821.221
1126.069, 7728.701
1127.164, 6875.819
1128.259, 6160.990
1129.353, 5298.213
1130.447, 4652.488
1131.541, 4242.832
1132.635, 3831.230
1133.729, 3524.687
1134.822, 3212.190
1135.916, 2893.752
1137.009, 2802.364
1138.102, 2557.033
1139.195, 2387.760
1140.288, 2292.538
1141.380, 2266.364
1142.473, 2027.243
1143.565, 1953.170
1144.657, 1846.138
1145.749, 1722.151
1146.841, 1829.205
1147.932, 1553.319
1149.024, 1690.474
1150.115, 1497.691
1151.206, 1422.955
1152.297, 1293.265
1153.388, 1294.612
1154.479, 1165.994
1155.569, 1170.417
1156.659, 1072.873
1157.750, 1067.365
1158.839, 974.8945
1159.929, 891.4561
1161.019, 808.0527
1162.108, 860.6797
1163.198, 820.3369
1164.287, 721.0244
1165.376, 635.7422
1166.465, 656.4902
1167.553, 579.2656
1168.642, 546.0703
1169.730, 535.9014
1170.818, 463.7598
1171.906, 332.6436
1172.994, 259.5518
1174.082, 255.4824
1175.170, 173.2598
1176.257, 261.4131
1177.344, 161.4092
1178.431, 152.4268
1179.518, 288.4624
1180.605, 203.5181
1181.691, 46.59180
1182.778, 181.6831
1183.864, 74.79150
1184.950, 68.91650
1186.036, 38.94336
1187.122, 32.20117
1188.207, 61.63965
1189.292, 37.51367
1190.378, 20.31934
1191.463, 51.14746
1192.548, 211.9814
1193.632, 101.8916
1194.717, 96.83008
1195.801, 11.79590
1196.886, 94.75977
1197.970, 45.75342
1199.054, 31.75879
1200.137, 134.7725
1201.221, 44.83936
1202.305, 2.921875
1203.388, 191.0068
1204.471, 117.1792
1205.554, 14.40576
1206.637, 60.64160
1207.719, 127.9077
1208.802, 131.2402
1209.884, 76.64062
1210.966, 36.08398
1212.048, 95.55518
1213.130, 95.08252
1214.212, 75.33105
1215.293, 68.25879
1216.374, 111.8979
1217.456, 57.61084
1218.536, 174.3716
1219.617, 109.2432
1220.698, 16.19287
1221.778, 27.17627
1222.859, 68.20068
1223.939, 135.2886
1225.019, 67.47607
1226.099, 117.7310
1227.178, 116.7129
1228.258, 38.14453
1229.337, 98.64893
1230.417, 78.14941
1231.496, 2.776855
1232.574, 44.49951
1233.653, 12.29004
1234.732, 61.13330
1235.810, 58.05762
1236.888, 37.46729
1237.966, 47.40186
1239.044, 5.824707
1240.122, 27.65186
1241.199, 38.79346
1242.277, 45.29932
1243.354, 30.90186
1244.431, 8.587891
1245.508, 101.4292
1246.585, 40.01660
1247.661, 94.63477
1248.738, 50.66260
1249.814, 176.3223
1250.890, 148.7456
1251.966, 170.2319
1253.042, 136.7256
1254.117, 116.9907
1255.193, 113.7271
1256.268, 174.9580
