##NAMES=Brazilianite
##RRUFFID=R050126
##IDEAL CHEMISTRY=NaAl_3_(PO_4_)_2_(OH)_4_
##LOCALITY=Linopolis, Minas Gerais, Brazil
##OWNER=RRUFF
##SOURCE=Carlos and Paulo Vasconcelos
##DESCRIPTION=Pair of greenish yellow elongated crystals
##STATUS=The identification of this mineral has been confirmed by X-ray diffraction and chemical analysis
##URL=rruff.info/R050126
##MEASURED CHEMISTRY=Na_1.00_Al_3.00_(P_1.00_O_4_)_2_((OH)_3.80_F_0.20_)_Î£=4_
##PIN_ID=L00364
##ORIENTATION=Laser parallel to (1 0 1). Fiducial mark perpendicular to laser is parallel to b [0 1 0]
134.381, 0.000
135.776, 133.040
137.170, 471.006
138.564, 30.084
139.958, 549.952
141.351, 65.865
142.745, 555.597
144.138, 470.241
145.530, 630.292
146.923, 1159.417
148.315, 733.583
149.707, 1410.059
151.099, 751.589
152.490, 922.204
153.881, 484.169
155.272, 475.866
156.663, 725.821
158.054, 345.664
159.444, 889.104
160.834, 471.074
162.224, 1172.686
163.613, 1473.696
165.002, 2110.885
166.391, 3579.703
167.780, 4579.349
169.169, 7400.849
170.557, 9942.450
171.945, 15064.134
173.333, 20125.891
174.720, 25277.701
176.108, 26569.582
177.495, 20071.504
178.881, 14123.457
180.268, 8135.452
181.654, 5507.481
183.040, 3359.559
184.426, 2205.688
185.812, 1732.889
187.197, 762.890
188.582, 1153.042
189.967, 438.911
191.351, 687.530
192.736, 560.932
194.120, 322.143
195.504, 776.188
196.887, 338.091
198.271, 1019.460
199.654, 789.233
201.036, 1258.306
202.419, 1610.965
203.801, 1658.756
205.184, 2514.479
206.565, 2239.149
207.947, 3593.779
209.328, 3458.369
210.710, 3982.923
212.090, 4057.448
213.471, 3501.963
214.851, 3846.473
216.232, 2740.991
217.611, 3225.504
218.991, 2909.948
220.370, 3234.293
221.750, 3638.625
223.129, 2942.971
224.507, 3527.348
225.886, 2441.774
227.264, 2996.262
228.642, 2820.819
230.019, 3295.451
231.397, 4120.166
232.774, 4034.970
234.151, 4085.911
235.528, 3705.883
236.904, 3429.013
238.281, 2208.207
239.656, 1420.169
241.032, 1393.881
242.408, 487.961
243.783, 1040.182
245.158, 515.542
246.533, 936.040
247.907, 994.673
249.282, 709.438
250.656, 1329.321
252.029, 725.320
253.403, 1657.431
254.776, 1387.655
256.149, 1567.992
257.522, 1405.444
258.895, 237.012
260.267, 554.696
261.639, 551.501
263.011, 16.408
264.382, 319.939
265.754, 187.895
267.125, 393.182
268.496, 147.119
269.866, 830.124
271.237, 288.495
272.607, 1030.996
273.977, 1422.625
275.346, 1640.387
276.716, 3156.279
278.085, 3761.302
279.454, 5606.460
280.823, 5851.610
282.191, 5946.666
283.559, 5241.658
284.927, 3216.689
286.295, 2831.857
287.662, 1309.161
289.030, 1276.598
290.397, 694.169
291.763, 573.875
293.130, 1183.715
294.496, 853.687
295.862, 1921.791
297.228, 1377.028
298.594, 2154.396
299.959, 2058.925
301.324, 1582.320
302.689, 1947.435
304.053, 774.365
305.418, 1216.569
306.782, 725.209
308.146, 672.232
309.509, 921.599
310.873, 372.271
312.236, 1430.224
313.599, 1126.431
314.961, 2150.873
316.324, 2518.530
317.686, 2606.383
319.048, 3034.420
320.409, 1882.623
321.771, 2150.984
323.132, 1188.495
324.493, 1175.148
325.854, 1232.938
327.214, 459.853
328.574, 1002.890
329.934, 157.043
331.294, 603.300
332.654, 92.640
334.013, 148.947
335.372, 136.506
336.731, 582.967
338.089, 213.501
339.448, 470.958
340.806, 235.449
342.164, 40.919
343.521, 541.328
344.879, 308.213
346.236, 365.174
347.593, 343.433
348.949, 135.111
350.306, 576.857
351.662, 1192.659
353.018, 838.510
354.373, 2176.414
355.729, 2136.370
357.084, 3246.381
358.439, 4266.447
359.794, 4416.569
361.148, 5656.749
362.503, 4546.664
363.857, 4676.443
365.210, 3566.198
366.564, 2515.911
367.917, 2265.688
369.270, 1007.526
370.623, 1545.430
371.976, 673.485
373.328, 942.605
374.680, 928.792
376.032, 534.044
377.384, 1306.362
378.735, 636.852
380.086, 1427.408
381.437, 1038.032
382.788, 804.787
384.138, 1059.610
385.488, 54.653
386.838, 643.766
388.188, 263.004
389.538, 61.668
390.887, 156.276
392.236, 652.702
393.585, 75.796
394.933, 672.599
396.282, 54.022
397.630, 102.287
398.977, 236.488
400.325, 614.120
401.672, 64.557
403.020, 1229.923
404.366, 858.242
405.713, 1432.733
407.059, 2144.304
408.406, 1875.951
409.752, 3277.730
411.097, 2859.586
412.443, 3851.618
413.788, 3883.727
415.133, 3875.913
416.478, 4838.213
417.822, 3900.590
419.167, 4553.146
420.511, 3645.776
421.854, 3438.482
423.198, 3581.331
424.541, 2685.621
425.884, 3648.542
427.227, 2634.119
428.570, 3095.736
429.912, 2978.562
431.254, 2342.159
432.596, 2985.118
433.938, 1948.156
435.280, 2611.271
436.621, 1944.475
437.962, 1817.754
439.303, 2391.122
440.643, 1624.566
441.983, 2618.088
443.323, 1851.685
444.663, 2015.358
446.003, 2079.109
447.342, 1162.938
448.681, 2116.843
450.020, 1230.823
451.359, 1684.881
452.697, 1839.012
454.035, 1233.218
455.373, 2097.498
456.711, 1141.852
458.048, 1926.277
459.386, 1420.776
460.723, 1165.346
462.059, 2029.998
463.396, 974.732
464.732, 1889.552
466.068, 1294.463
467.404, 1339.452
468.740, 1714.518
470.075, 829.658
471.410, 1874.873
472.745, 890.158
474.080, 1605.515
475.414, 1800.938
476.748, 1486.431
478.082, 2781.990
479.416, 2147.616
480.749, 3643.307
482.083, 3659.062
483.416, 4014.879
484.749, 4940.762
486.081, 4416.705
487.413, 5792.709
488.745, 5148.775
490.077, 5934.900
491.409, 6661.086
492.740, 6017.328
494.072, 7923.633
495.402, 7273.206
496.733, 8369.627
498.064, 9746.054
499.394, 9602.589
500.724, 11975.585
502.054, 11621.207
503.383, 13185.885
504.712, 13455.116
506.041, 13211.948
507.370, 14411.059
508.699, 13088.005
510.027, 14315.011
511.355, 13512.076
512.683, 13719.200
514.011, 14996.393
515.338, 13583.644
516.666, 15070.951
517.993, 14298.314
519.319, 14445.734
520.646, 14833.230
521.972, 13280.782
523.298, 14658.391
524.624, 13604.970
525.950, 14592.689
527.275, 14790.491
528.600, 14378.347
529.925, 16916.256
531.250, 15753.695
532.574, 17531.727
533.898, 17919.857
535.222, 18038.045
536.546, 19066.285
537.869, 17568.176
539.193, 18386.543
540.516, 17325.002
541.839, 15987.125
543.161, 16365.683
544.484, 13808.918
545.806, 14557.658
547.128, 13416.404
548.449, 13133.893
549.771, 14040.363
551.092, 12806.089
552.413, 15452.217
553.734, 15018.804
555.054, 16825.357
556.374, 19154.533
557.694, 20175.822
559.014, 24345.037
560.334, 24844.586
561.653, 27137.633
562.972, 28407.201
564.291, 26867.600
565.610, 29007.338
566.928, 26517.104
568.247, 27408.127
569.565, 26188.068
570.882, 23830.164
572.200, 23820.180
573.517, 19960.227
574.834, 18368.414
576.151, 16088.557
577.468, 13662.169
578.784, 13082.407
580.100, 10522.671
581.416, 10518.153
582.732, 9498.531
584.047, 8788.626
585.362, 9419.184
586.677, 7889.843
587.992, 9207.125
589.307, 8747.968
590.621, 9296.088
591.935, 10817.069
593.249, 10508.072
594.563, 13370.519
595.876, 14201.623
597.189, 17124.922
598.502, 21496.098
599.815, 23617.295
601.127, 28808.506
602.440, 29749.742
603.752, 30850.986
605.064, 30312.328
606.375, 24673.678
607.686, 22795.039
608.998, 18246.414
610.308, 16217.805
611.619, 14719.204
612.930, 12340.617
614.240, 12712.041
615.550, 10523.473
616.860, 10484.914
618.169, 10106.365
619.478, 8347.821
620.787, 8759.288
622.096, 6780.761
623.405, 7102.240
624.713, 6233.726
626.021, 5435.215
627.329, 6306.708
628.637, 5028.205
629.945, 5909.707
631.252, 5981.209
632.559, 5602.715
633.866, 7204.222
635.172, 6285.729
636.479, 7497.235
637.785, 7338.742
639.091, 6860.248
640.396, 7531.754
641.702, 5603.256
643.007, 5834.756
644.312, 4896.252
645.617, 3647.746
646.921, 4219.234
648.226, 2580.720
649.530, 3252.197
650.834, 2663.670
652.137, 2105.138
653.441, 2866.631
654.744, 1528.115
656.047, 2479.725
657.350, 1811.325
658.652, 1653.021
659.954, 2244.760
661.256, 1116.501
662.558, 2038.352
663.860, 1610.191
665.161, 1062.101
666.462, 1843.996
667.763, 755.881
669.064, 1547.752
670.365, 1021.768
671.665, 743.610
672.965, 1315.438
674.265, 119.250
675.564, 1119.047
676.864, 553.534
678.163, 391.298
679.462, 1098.044
680.760, 135.229
682.059, 811.392
683.357, 417.856
684.655, 129.438
685.953, 920.001
687.250, 292.846
688.548, 654.498
689.845, 222.796
691.142, 138.094
692.438, 778.367
693.735, 345.304
695.031, 615.710
696.327, 97.033
697.623, 179.006
698.918, 549.802
700.214, 501.043
701.509, 503.407
702.804, 106.215
704.098, 269.921
705.393, 496.215
706.687, 463.580
707.981, 374.248
709.275, 51.812
710.568, 272.936
711.861, 496.820
713.155, 327.842
714.447, 502.636
715.740, 169.127
717.032, 120.612
718.325, 741.676
719.617, 223.815
720.908, 645.210
722.200, 355.195
723.491, 56.496
724.782, 861.302
726.073, 229.853
727.364, 778.664
728.654, 425.140
729.944, 0.012
731.234, 1001.320
732.524, 239.027
733.814, 607.985
735.103, 360.952
736.392, 98.321
737.681, 1012.415
738.969, 167.893
740.258, 583.861
741.546, 564.283
742.834, 56.740
744.122, 1059.000
745.409, 43.210
746.697, 845.271
747.984, 697.311
749.270, 239.277
750.557, 1309.198
751.844, 203.065
753.130, 910.661
754.416, 937.402
755.701, 393.643
756.987, 1431.279
758.272, 443.860
759.557, 1210.393
760.842, 1456.866
762.127, 662.286
763.411, 1889.654
764.695, 925.968
765.979, 1572.228
767.263, 1978.434
768.547, 834.584
769.830, 2190.681
771.113, 1116.724
772.396, 1292.713
773.679, 1768.647
774.961, 764.528
776.243, 1910.354
777.525, 1046.126
778.807, 1211.845
780.089, 1687.508
781.370, 593.118
782.651, 1688.674
783.932, 1134.175
785.213, 1179.623
786.493, 1995.017
787.773, 780.357
789.053, 1965.644
790.333, 1280.876
791.613, 1216.055
792.892, 1891.178
794.171, 1076.250
795.450, 2131.268
796.729, 1746.232
798.007, 1531.142
799.285, 2486.000
800.563, 1390.807
801.841, 2325.558
803.119, 1990.259
804.396, 1584.907
805.673, 2449.504
806.950, 1314.048
808.227, 1878.539
809.504, 1722.981
810.780, 967.370
812.056, 2041.706
813.332, 935.990
814.607, 1440.221
815.883, 1584.401
817.158, 608.528
818.433, 1732.603
819.708, 836.625
820.982, 1210.594
822.256, 1444.511
823.531, 203.375
824.804, 1432.166
826.078, 685.906
827.352, 569.594
828.625, 1303.229
829.898, 140.816
831.170, 1270.314
832.443, 733.762
833.715, 476.159
834.988, 1191.593
836.259, 122.891
837.531, 1028.101
838.803, 751.263
840.074, 201.376
841.345, 1137.964
842.616, 13.035
843.886, 873.826
845.157, 706.642
846.427, 69.411
847.697, 1258.508
848.966, 2.862
850.236, 503.644
851.505, 872.492
852.774, 204.088
854.043, 942.570
855.312, 136.728
856.580, 366.884
857.849, 918.636
859.117, 234.330
860.384, 989.315
861.652, 251.099
862.919, 145.354
864.186, 1025.615
865.453, 435.701
866.720, 702.760
867.986, 264.112
869.253, 183.693
870.519, 792.952
871.784, 294.910
873.050, 404.304
874.315, 355.204
875.581, 373.920
876.846, 1475.602
878.110, 16.212
879.375, 664.681
880.639, 565.236
881.903, 126.229
883.167, 1238.141
884.431, 131.439
885.694, 95.483
886.957, 815.791
888.220, 248.918
889.483, 971.101
890.746, 121.231
892.008, 8.218
893.270, 821.879
894.532, 356.037
895.794, 605.396
897.056, 195.282
898.317, 252.056
899.578, 857.699
900.839, 272.509
902.099, 525.789
903.360, 525.442
904.620, 197.039
905.880, 1062.566
907.140, 27.835
908.399, 201.763
909.659, 581.354
910.918, 339.037
912.177, 840.421
913.435, 49.874
914.694, 329.435
915.952, 1228.992
917.210, 68.546
918.468, 1288.112
919.726, 737.676
920.983, 257.239
922.240, 1646.801
923.497, 316.363
924.754, 1135.925
926.011, 1215.488
927.267, 505.051
928.523, 1804.666
929.779, 844.283
931.035, 1383.904
932.290, 2093.527
933.546, 953.154
934.801, 2482.821
936.056, 1702.491
937.310, 1982.167
938.565, 3051.852
939.819, 1891.540
941.073, 3261.237
942.327, 3310.943
943.580, 3160.654
944.833, 4670.432
946.087, 3640.219
947.340, 5170.016
948.592, 5779.900
949.845, 5139.797
951.097, 6979.744
952.349, 6049.699
953.601, 6459.670
954.853, 7429.728
956.104, 5909.795
957.355, 7229.877
958.606, 6360.036
959.857, 6200.212
961.108, 7360.398
962.358, 6180.604
963.608, 7290.822
964.858, 7981.084
966.108, 7201.359
967.357, 9571.652
968.607, 8952.024
969.856, 10502.413
971.105, 12452.818
972.353, 11743.264
973.602, 14843.732
974.850, 14482.090
976.098, 14782.622
977.346, 16313.175
978.594, 14423.801
979.841, 15974.453
981.088, 16051.415
982.335, 15452.113
983.582, 17942.834
984.828, 17353.574
986.075, 19604.396
987.321, 22521.369
988.567, 21472.342
989.812, 25303.334
991.058, 23892.736
992.303, 22563.885
993.548, 22625.076
994.793, 18686.279
996.038, 18637.514
997.282, 16713.693
998.526, 14615.172
999.770, 15708.340
1001.014, 13729.877
1002.258, 14581.511
1003.501, 15872.800
1004.744, 14714.650
1005.987, 17775.580
1007.230, 17427.535
1008.473, 19089.645
1009.715, 22781.705
1010.957, 23424.029
1012.199, 28796.453
1013.441, 32508.920
1014.682, 35721.535
1015.923, 44273.613
1017.164, 46256.441
1018.405, 52419.312
1019.646, 54168.418
1020.886, 53741.441
1022.127, 54134.273
1023.367, 52227.484
1024.606, 48920.754
1025.846, 47979.723
1027.085, 41033.137
1028.325, 39626.512
1029.564, 36360.117
1030.802, 31983.771
1032.041, 32310.064
1033.279, 28723.893
1034.517, 27620.375
1035.755, 27344.465
1036.993, 23878.602
1038.230, 25388.975
1039.468, 23253.330
1040.705, 22097.693
1041.942, 23301.900
1043.178, 20346.441
1044.415, 20771.947
1045.651, 19756.645
1046.887, 17251.465
1048.123, 18124.328
1049.358, 15929.035
1050.594, 15560.986
1051.829, 15795.979
1053.064, 13560.640
1054.299, 14727.934
1055.533, 13933.089
1056.768, 12750.354
1058.002, 14405.610
1059.236, 13195.419
1060.469, 13984.789
1061.703, 14580.211
1062.936, 13441.061
1064.169, 14846.592
1065.402, 13542.180
1066.635, 12530.310
1067.867, 13355.991
1069.100, 10471.730
1070.332, 11257.513
1071.564, 10493.348
1072.795, 8579.236
1074.027, 9495.175
1075.258, 7311.161
1076.489, 7047.744
1077.720, 7593.827
1078.950, 5260.056
1080.181, 6196.235
1081.411, 5412.461
1082.641, 4255.941
1083.871, 5572.305
1085.100, 3668.715
1086.330, 4085.609
1087.559, 4242.233
1088.788, 2718.904
1090.016, 4085.621
1091.245, 2852.385
1092.473, 2321.680
1093.701, 3328.537
1094.929, 1645.440
1096.157, 2430.363
1097.384, 2377.360
1098.612, 1122.716
1099.839, 2659.804
1101.066, 1246.934
1102.292, 1431.090
1103.519, 2298.307
1104.745, 665.563
1105.971, 1887.247
1107.197, 1644.591
1108.423, 791.975
1109.648, 2059.406
1110.873, 736.877
1112.098, 1189.686
1113.323, 1617.235
1114.548, 224.823
1115.772, 1715.900
1116.996, 1163.567
1118.220, 841.271
1119.444, 2183.636
1120.667, 771.420
1121.891, 1464.954
1123.114, 1882.833
1124.337, 640.746
1125.560, 2070.627
1126.782, 1338.611
1128.004, 936.628
1129.227, 2355.577
1130.448, 643.681
1131.670, 1702.756
1132.892, 1850.931
1134.113, 639.137
1135.334, 2441.947
1136.555, 1220.239
1137.776, 1348.561
1138.996, 2519.761
1140.216, 978.149
1141.436, 2227.119
1142.656, 2295.618
1143.876, 1294.145
1145.095, 3251.814
1146.315, 2100.438
1147.534, 2629.129
1148.753, 3539.088
1149.971, 1707.834
1151.190, 3066.693
1152.408, 2495.578
1153.626, 1354.490
1154.844, 2958.322
1156.061, 1617.277
1157.279, 1976.344
1158.496, 2730.674
1159.713, 1259.783
1160.930, 2438.910
1162.146, 2100.933
1163.363, 1380.228
1164.579, 2790.787
1165.795, 1440.109
1167.010, 2819.511
1168.226, 3254.863
1169.441, 1184.379
1170.657, 2673.907
1171.871, 2008.066
1173.086, 1097.726
1174.301, 2697.395
1175.515, 797.126
1176.729, 1346.819
1177.943, 1887.180
1179.157, 486.925
1180.370, 1636.676
1181.584, 892.664
1182.797, 162.464
1184.010, 1582.266
1185.222, 4.874
1186.435, 644.743
1187.647, 1195.601
1188.859, 45.478
1190.071, 1045.357
1191.283, 622.124
1192.494, 2.089
1193.706, 1102.049
1194.917, 236.945
1196.128, 302.976
1197.338, 852.953
1198.549, 227.073
1199.759, 1152.808
1200.969, 504.470
1202.179, 85.622
1203.389, 1544.263
1204.598, 121.697
1205.807, 338.130
1207.016, 1078.033
1208.225, 459.448
1209.434, 990.216
1210.642, 470.774
1211.850, 69.578
1213.058, 1300.032
1214.266, 30.940
1215.474, 630.530
1216.681, 814.579
1217.889, 1261.674
1219.096, 941.239
1220.302, 310.801
1221.509, 199.650
1222.715, 1199.789
1223.922, 19.841
1225.128, 469.259
1226.334, 1208.662
1227.539, 131.935
1228.745, 1377.371
1229.950, 706.666
1231.155, 34.637
1232.360, 1523.895
1233.564, 333.161
1234.769, 502.407
1235.973, 1281.608
1237.177, 188.132
1238.381, 1060.962
1239.584, 519.976
1240.787, 269.483
1241.991, 1349.333
1243.194, 111.852
1244.396, 327.946
1245.599, 1266.649
1246.801, 244.310
1248.004, 1134.283
1249.206, 1032.805
1250.407, 197.423
1251.609, 1560.965
1252.810, 399.346
1254.012, 339.377
1255.212, 1427.675
1256.413, 44.043
1257.614, 894.299
1258.814, 962.408
1260.014, 168.866
1261.214, 1329.136
1262.414, 497.125
1263.614, 23.302
1264.813, 1574.521
1266.012, 37.672
1267.211, 862.543
1268.410, 1220.256
1269.609, 132.138
1270.807, 1325.395
1272.005, 642.887
1273.203, 80.422
1274.401, 1627.819
1275.598, 75.195
1276.796, 763.724
1277.993, 1291.015
1279.190, 321.788
1280.387, 1436.203
1281.583, 903.137
1282.780, 30.021
1283.976, 1466.854
1285.172, 213.655
1286.368, 402.021
1287.563, 1388.701
1288.759, 224.651
1289.954, 1106.044
1291.149, 1202.530
1292.343, 88.950
1293.538, 1516.766
1294.732, 393.090
1295.927, 519.370
1297.121, 1625.605
1298.314, 11.805
1299.508, 927.929
1300.701, 1334.014
1301.895, 149.943
1303.087, 1447.083
1304.280, 622.896
1305.473, 58.432
1306.665, 1634.046
1307.857, 129.477
1309.049, 534.845
1310.241, 1620.152
1311.433, 5.414
1312.624, 1330.590
1313.815, 865.715
1315.006, 30.779
1316.197, 1566.155
1317.388, 501.083
1318.578, 425.959
1319.768, 1711.367
1320.958, 63.863
1322.148, 1010.791
1323.338, 1395.366
1324.527, 150.110
1325.716, 1384.292
1326.906, 798.641
1328.094, 82.924
1329.283, 1607.169
1330.471, 231.324
1331.660, 695.425
1332.848, 1550.052
1334.035, 4.030
1335.223, 1347.863
1336.411, 1071.545
1337.598, 245.250
1338.785, 1869.070
1339.972, 522.662
1341.158, 676.181
1342.345, 2040.253
1343.531, 123.675
1344.717, 1247.040
1345.903, 1569.112
1347.089, 42.389
1348.274, 1471.110
1349.459, 746.393
1350.644, 79.502
1351.829, 1627.198
1353.014, 250.217
1354.198, 733.193
1355.383, 1483.752
1356.567, 166.646
1357.751, 1399.506
1358.934, 1304.081
1360.118, 96.898
1361.301, 1869.684
1362.484, 573.884
1363.667, 636.594
1364.850, 1848.651
1366.032, 332.647
1367.215, 1205.135
1368.397, 1467.719
1369.579, 69.811
1370.760, 1445.332
1371.942, 768.610
1373.123, 369.268
1374.304, 1262.364
1375.485, 630.062
1376.666, 801.654
1377.847, 1937.139
1379.027, 231.568
1380.207, 1388.420
1381.387, 1596.774
1382.567, 144.737
1383.747, 1713.440
1384.926, 879.654
1386.105, 210.521
1387.284, 2046.456
1388.463, 386.592
1389.641, 682.343
1390.820, 1883.212
1391.998, 163.556
1393.176, 1312.498
1394.354, 1437.697
1395.532, 99.189
1396.709, 1713.109
1397.886, 856.873
1399.063, 451.638
1400.240, 1947.136
1401.417, 298.053
1402.593, 891.663
1403.769, 1865.791
1404.945, 76.185
1406.121, 1318.316
1407.297, 1571.896
1408.472, 5.396
1409.648, 2062.487
1410.823, 935.851
1411.998, 508.811
1413.172, 2107.846
1414.347, 418.910
1415.521, 953.457
1416.695, 1625.938
1417.869, 141.880
1419.043, 1584.045
1420.216, 1160.937
1421.390, 202.814
1422.563, 1920.857
1423.736, 728.202
1424.909, 437.990
1426.081, 2079.142
1427.254, 39.708
1428.426, 1008.985
1429.598, 1819.837
1430.770, 59.333
1431.941, 1398.633
1433.113, 1372.479
1434.284, 63.052
1435.455, 1819.253
1436.626, 838.388
1437.796, 456.728
1438.967, 2207.205
1440.137, 494.021
1441.307, 1124.215
1442.477, 1883.327
1443.646, 143.460
1444.816, 1654.409
1445.985, 1428.395
1447.154, 307.058
1448.323, 1965.589
1449.492, 1111.852
1450.660, 337.193
1451.829, 2235.834
1452.997, 592.112
1454.165, 919.709
1455.332, 1885.281
1456.500, 243.562
1457.667, 1567.838
1458.834, 1585.543
1460.001, 192.252
1461.168, 2080.266
1462.335, 1074.245
1463.501, 535.869
1464.667, 2243.769
1465.833, 591.687
1466.999, 839.347
1468.165, 2323.729
1469.330, 311.472
1470.495, 1576.744
1471.660, 1814.920
1472.825, 187.970
1473.990, 1945.999
1475.154, 1160.249
1476.318, 422.967
1477.482, 2010.333
1478.646, 717.562
1479.810, 784.672
1480.974, 2077.451
1482.137, 275.570
1483.300, 1293.994
1484.463, 1963.083
1485.626, 12.273
1486.788, 1771.604
1487.950, 1399.305
1489.113, 33.961
1490.275, 2185.720
1491.436, 875.896
1492.598, 506.228
1493.759, 2226.459
1494.920, 347.459
1496.081, 945.094
1497.242, 1947.700
1498.403, 20.986
