##NAMES=Brazilianite
##RRUFFID=R050504
##IDEAL CHEMISTRY=NaAl_3_(PO_4_)_2_(OH)_4_
##LOCALITY=CÃ³rrego Frio, Minas Gerais, Brazil
##OWNER=RRUFF
##SOURCE=Marcus Origlieri
##DESCRIPTION=Yellowish green fragment
##STATUS=The identification of this mineral has been confirmed by X-ray diffraction and chemical analysis
##URL=rruff.info/R050504
##MEASURED CHEMISTRY=Na_1.00_Al_3.00_(P_1.00_O_4_)_2_(OH)_4_
##PIN_ID=L00583
##ORIENTATION=Laser parallel to b* (0 1 0). Fiducial mark perpendicular to laser is parallel to c [0 0 1]
77.42300, 0.0000000E+00
78.65900, 4.031250
79.89500, 187.2727
81.13100, 444.9937
82.36700, 779.1472
83.60200, 1042.666
84.83700, 1352.875
86.07200, 1427.326
87.30800, 1504.138
88.54200, 1494.382
89.77700, 1366.921
91.01200, 1192.284
92.24600, 931.8906
93.48000, 548.4512
94.71400, 338.6589
95.94800, 184.2124
97.18200, 81.83325
98.41600, 45.28101
99.64900, 97.40894
100.8830, 132.4819
102.1160, 215.0706
103.3490, 270.8433
104.5820, 345.7471
105.8150, 335.0361
107.0470, 401.7935
108.2800, 450.2920
109.5120, 480.2920
110.7440, 579.9053
111.9760, 605.6982
113.2080, 706.1699
114.4400, 667.1733
115.6710, 606.4600
116.9030, 562.8096
118.1340, 336.2534
119.3650, 235.1006
120.5960, 15.66064
121.8270, 59.05518
123.0580, 17.11865
124.2880, 5.116699
125.5190, 4.372559
126.7490, 72.37207
127.9790, 41.34570
129.2090, 69.47363
130.4390, 65.55078
131.6680, 76.37158
132.8980, 74.76465
134.1270, 53.72656
135.3560, 117.1177
136.5850, 144.1631
137.8140, 218.8867
139.0430, 380.3096
140.2710, 574.4526
141.5000, 794.3325
142.7280, 900.9658
143.9560, 1176.366
145.1840, 1196.546
146.4120, 1321.518
147.6390, 1326.291
148.8670, 1198.877
150.0940, 1160.286
151.3210, 1028.500
152.5490, 1022.480
153.7750, 964.3281
155.0020, 779.2012
156.2290, 1043.197
157.4550, 1237.274
158.6810, 1501.381
159.9080, 2100.586
161.1340, 2938.974
162.3590, 4100.543
163.5850, 5885.244
164.8110, 7276.919
166.0360, 8755.524
167.2610, 11093.06
168.4860, 15072.55
169.7110, 19620.98
170.9360, 23051.35
172.1610, 22917.69
173.3850, 20420.97
174.6100, 17290.20
175.8340, 13831.40
177.0580, 10000.56
178.2820, 6813.690
179.5050, 4786.789
180.7290, 3386.858
181.9520, 2625.898
183.1760, 2063.003
184.3990, 1724.302
185.6220, 1540.943
186.8450, 1550.855
188.0670, 1518.406
189.2900, 1489.280
190.5120, 1518.347
191.7340, 1496.259
192.9560, 1467.256
194.1780, 1390.285
195.4000, 1552.345
196.6220, 1448.435
197.8430, 1419.554
199.0640, 1348.702
200.2860, 1465.877
201.5070, 1499.081
202.7270, 1594.311
203.9480, 1641.568
205.1690, 1681.846
206.3890, 1696.136
207.6090, 1891.425
208.8290, 2068.710
210.0490, 2163.993
211.2690, 2259.274
212.4890, 2450.843
213.7080, 2605.321
214.9280, 2775.124
216.1470, 2955.413
217.3660, 3056.705
218.5850, 3127.004
219.8030, 2925.310
221.0220, 2792.624
222.2400, 2519.946
223.4590, 2322.279
224.6770, 2068.920
225.8950, 2022.288
227.1120, 1924.438
228.3300, 2202.602
229.5480, 2142.854
230.7650, 2096.112
231.9820, 1871.278
233.1990, 1635.153
234.4160, 1318.571
235.6330, 1298.405
236.8490, 1297.743
238.0660, 1320.857
239.2820, 1526.247
240.4980, 2109.876
241.7140, 2579.314
242.9300, 3392.681
244.1460, 3979.508
245.3610, 4672.500
246.5770, 5073.854
247.7920, 6018.829
249.0070, 7259.234
250.2220, 8612.331
251.4370, 9352.286
252.6510, 8881.300
253.8660, 7845.373
255.0800, 6366.496
256.2940, 4738.667
257.5080, 3228.880
258.7220, 2071.132
259.9360, 1368.420
261.1490, 831.7432
262.3630, 618.0977
263.5760, 525.4824
264.7890, 474.8960
266.0020, 526.3364
267.2150, 660.6851
268.4270, 727.5088
269.6400, 941.8911
270.8520, 1218.426
272.0640, 1355.979
273.2760, 1601.555
274.4880, 1811.150
275.7000, 1924.766
276.9120, 1801.399
278.1230, 1509.043
279.3340, 1445.684
280.5450, 1088.310
281.7560, 874.9209
282.9670, 715.5166
284.1780, 450.1006
285.3880, 355.6729
286.5980, 155.2358
287.8090, 1.789063
289.0190, 41.68945
290.2290, 266.2100
291.4380, 339.8252
292.6480, 287.5522
293.8570, 302.3774
295.0670, 359.3047
296.2760, 354.3447
297.4850, 347.4966
298.6930, 371.7568
299.9020, 315.1309
301.1110, 250.6045
302.3190, 181.1626
303.5270, 18.78760
304.7350, 82.55908
305.9430, 310.8994
307.1510, 496.2412
308.3580, 826.5835
309.5660, 1124.926
310.7730, 1348.270
311.9800, 1601.614
313.1870, 1732.961
314.3940, 1702.311
315.6010, 1520.663
316.8070, 1267.019
318.0130, 1089.379
319.2200, 868.7441
320.4260, 762.1143
321.6310, 714.4902
322.8370, 596.8716
324.0430, 621.2603
325.2480, 586.6558
326.4540, 618.0591
327.6590, 602.4692
328.8640, 640.8525
330.0680, 703.0732
331.2730, 737.0298
332.4780, 703.7173
333.6820, 785.1289
334.8860, 819.2769
336.0900, 761.2490
337.2940, 746.1992
338.4980, 727.1777
339.7010, 701.1855
340.9050, 808.2231
342.1080, 792.2896
343.3110, 946.3853
344.5140, 1032.511
345.7170, 1109.667
346.9200, 1234.854
348.1220, 1401.070
349.3240, 1527.317
350.5270, 1835.595
351.7290, 2108.905
352.9310, 2268.247
354.1320, 2555.619
355.3340, 2690.024
356.5350, 2969.463
357.7370, 2851.934
358.9380, 2686.438
360.1390, 2363.977
361.3400, 1913.549
362.5400, 1441.156
363.7410, 1158.797
364.9410, 804.4731
366.1410, 560.1851
367.3410, 508.9326
368.5410, 428.7158
369.7410, 224.5488
370.9400, 75.42773
372.1400, 35.34961
373.3390, 4.698242
374.5380, 73.41260
375.7370, 30.78857
376.9360, 113.8447
378.1350, 120.9390
379.3330, 71.07617
380.5310, 3.232422
381.7300, 54.37695
382.9280, 20.53271
384.1260, 116.6846
385.3230, 38.87549
386.5210, 184.0688
387.7180, 100.3320
388.9160, 121.6250
390.1130, 183.9561
391.3100, 85.35352
392.5060, 56.77197
393.7030, 9.803711
394.9000, 73.40186
396.0960, 195.0337
397.2920, 212.6992
398.4880, 440.3989
399.6840, 709.1353
400.8800, 794.9150
402.0750, 1021.751
403.2710, 1360.656
404.4660, 1643.637
405.6610, 1997.677
406.8560, 2288.799
408.0510, 2745.999
409.2450, 3124.262
410.4400, 3391.604
411.6340, 3604.185
412.8280, 3899.554
414.0220, 3736.183
415.2160, 3770.897
416.4100, 3579.714
417.6030, 3120.618
418.7970, 3066.616
419.9900, 2850.694
421.1830, 2864.842
422.3760, 2790.040
423.5690, 2850.292
424.7610, 2916.587
425.9540, 3108.925
427.1460, 3459.309
428.3380, 3721.735
429.5300, 4403.208
430.7220, 4943.720
431.9140, 5523.154
433.1050, 6609.256
434.2970, 7623.308
435.4880, 8762.083
436.6790, 9794.964
437.8700, 10593.02
439.0610, 10859.79
440.2510, 10387.92
441.4420, 9885.500
442.6320, 8800.732
443.8220, 7807.349
445.0120, 6756.824
446.2020, 6022.449
447.3910, 5509.507
448.5810, 5241.335
449.7700, 5069.722
450.9600, 5246.168
452.1490, 5435.678
453.3370, 5981.250
454.5260, 6508.884
455.7150, 7030.581
456.9030, 7916.344
458.0910, 8638.165
459.2800, 9275.055
460.4670, 10062.01
461.6550, 10684.02
462.8430, 11369.10
464.0300, 11935.25
465.2180, 12123.45
466.4050, 11701.73
467.5920, 10872.07
468.7790, 10015.47
469.9650, 8491.939
471.1520, 7036.473
472.3380, 5708.073
473.5250, 4318.740
474.7110, 3309.475
475.8970, 2534.279
477.0820, 1913.155
478.2680, 1559.102
479.4540, 1250.123
480.6390, 1045.217
481.8240, 1119.385
483.0090, 1014.626
484.1940, 1070.941
485.3780, 1125.330
486.5630, 1258.791
487.7470, 1366.328
488.9320, 1702.938
490.1160, 2042.621
491.3000, 2171.379
492.4830, 2620.210
493.6670, 2982.115
494.8500, 3673.094
496.0340, 3929.147
497.2170, 4296.273
498.4000, 4768.474
499.5820, 5183.749
500.7650, 5607.096
501.9480, 5704.519
503.1300, 5861.014
504.3120, 5865.583
505.4940, 5946.227
506.6760, 5937.943
507.8580, 6036.734
509.0390, 6094.597
510.2210, 6491.535
511.4020, 6517.545
512.5830, 6785.629
513.7640, 7028.787
514.9450, 7146.512
516.1250, 7312.666
517.3060, 7467.235
518.4860, 7593.275
519.6660, 7718.948
520.8460, 7917.391
522.0260, 8193.103
523.2060, 8507.403
524.3850, 8881.315
525.5650, 9334.819
526.7440, 9766.296
527.9230, 10336.19
529.1020, 10942.36
530.2810, 11242.26
531.4590, 11589.20
532.6380, 11921.94
533.8160, 12167.22
534.9940, 11917.25
536.1720, 11871.78
537.3500, 11700.63
538.5270, 11344.61
539.7050, 11002.71
540.8820, 10824.10
542.0590, 10538.79
543.2360, 10543.40
544.4130, 10604.81
545.5900, 10887.86
546.7660, 11207.38
547.9430, 11934.79
549.1190, 12586.34
550.2950, 13662.06
551.4710, 14933.97
552.6470, 16824.51
553.8220, 18498.76
554.9980, 20748.97
556.1730, 22613.52
557.3480, 24302.18
558.5230, 25991.05
559.6980, 26971.94
560.8730, 27601.33
562.0470, 28264.21
563.2220, 28255.64
564.3960, 28012.07
565.5700, 26634.64
566.7440, 25211.31
567.9170, 23518.08
569.0910, 21421.97
570.2640, 19103.94
571.4380, 16626.01
572.6110, 14245.19
573.7840, 12358.48
574.9570, 10700.89
576.1290, 9097.470
577.3020, 7968.240
578.4740, 7104.191
579.6460, 6395.304
580.8180, 5732.393
581.9900, 5424.069
583.1620, 4903.710
584.3330, 4818.545
585.5040, 4769.553
586.6760, 4703.720
587.8470, 4706.013
589.0180, 4790.393
590.1880, 5176.834
591.3590, 5563.331
592.5290, 6179.883
593.7000, 6911.488
594.8700, 7584.146
596.0400, 8603.855
597.2090, 9257.618
598.3790, 10305.43
599.5490, 10621.30
600.7180, 10823.21
601.8870, 10546.17
603.0560, 10326.19
604.2250, 9916.248
605.3940, 9710.357
606.5620, 9715.515
607.7300, 9898.722
608.8990, 10245.97
610.0670, 10680.27
611.2350, 11062.61
612.4020, 11132.00
613.5700, 11250.43
614.7370, 11152.91
615.9050, 10341.43
617.0720, 9749.989
618.2390, 8543.593
619.4060, 7654.238
620.5720, 6667.924
621.7390, 5908.651
622.9050, 5659.417
624.0710, 5555.223
625.2370, 5399.068
626.4030, 5458.951
627.5690, 5571.871
628.7340, 6022.827
629.9000, 6338.821
631.0650, 6733.849
632.2300, 7159.911
633.3950, 7288.008
634.5600, 7317.142
635.7240, 7231.306
636.8890, 6636.502
638.0530, 6112.731
639.2170, 5437.992
640.3810, 4679.284
641.5450, 4087.605
642.7080, 3588.956
643.8720, 2974.336
645.0350, 2569.176
646.1980, 2286.179
647.3610, 1871.642
648.5240, 1626.131
649.6870, 1532.646
650.8490, 1260.186
652.0120, 1155.749
653.1740, 1036.337
654.3360, 897.9492
655.4980, 853.6431
656.6600, 843.3140
657.8210, 794.1416
658.9830, 734.9575
660.1440, 776.8306
661.3050, 670.7988
662.4660, 668.7271
663.6270, 578.6440
664.7870, 533.7373
665.9480, 548.7666
667.1080, 444.3022
668.2680, 367.2144
669.4280, 300.3965
670.5880, 260.1519
671.7480, 230.1416
672.9070, 96.88525
674.0670, 143.9443
675.2260, 46.28516
676.3850, 102.6460
677.5440, 104.4316
678.7030, 79.22070
679.8610, 6.734863
681.0200, 55.15039
682.1780, 123.5225
683.3360, 171.9941
684.4940, 196.5884
685.6520, 127.9756
686.8090, 210.0103
687.9670, 190.0283
689.1240, 136.5249
690.2810, 189.0308
691.4380, 174.3828
692.5950, 282.3008
693.7520, 257.3560
694.9080, 184.6724
696.0650, 246.5513
697.2210, 174.1353
698.3770, 200.4297
699.5330, 132.6040
700.6880, 81.55176
701.8440, 4.024902
702.9990, 6.494629
704.1550, 188.6006
705.3100, 152.7827
706.4650, 299.3945
707.6190, 352.1729
708.7740, 543.5693
709.9290, 611.6416
711.0830, 872.2334
712.2370, 976.2583
713.3910, 1054.780
714.5450, 1295.738
715.6980, 1434.100
716.8520, 1555.725
718.0050, 1743.676
719.1580, 1950.948
720.3110, 1941.393
721.4640, 2055.454
722.6170, 1944.676
723.7700, 2033.667
724.9220, 1993.606
726.0740, 1832.840
727.2260, 1898.137
728.3780, 1631.291
729.5300, 1507.401
730.6810, 1546.546
731.8330, 1481.573
732.9840, 1502.558
734.1350, 1455.498
735.2860, 1362.396
736.4370, 1355.248
737.5880, 1258.057
738.7380, 1248.820
739.8880, 1290.539
741.0390, 1156.212
742.1890, 1106.838
743.3380, 1287.419
744.4880, 1141.953
745.6380, 1155.438
746.7870, 1074.877
747.9360, 1054.268
749.0850, 1012.611
750.2340, 1094.904
751.3830, 1089.149
752.5310, 988.3447
753.6800, 912.4902
754.8280, 990.5864
755.9760, 967.6323
757.1240, 856.6270
758.2720, 781.5713
759.4190, 859.4639
760.5670, 822.3052
761.7140, 828.0942
762.8610, 846.8315
764.0080, 810.5156
765.1550, 790.1475
766.3020, 831.7261
767.4480, 868.2515
768.5950, 643.7231
769.7410, 735.1411
770.8870, 672.5049
772.0330, 619.8145
773.1780, 651.0693
774.3240, 721.2690
775.4690, 662.4141
776.6140, 639.5034
777.7590, 595.5376
778.9040, 566.3491
780.0490, 451.4380
781.1940, 510.3042
782.3380, 441.1138
783.4820, 399.8672
784.6260, 505.5630
785.7700, 444.2021
786.9140, 303.7847
788.0580, 406.3091
789.2010, 285.7759
790.3450, 412.1851
791.4880, 327.5366
792.6310, 333.8301
793.7730, 267.0659
794.9160, 255.3931
796.0590, 268.3584
797.2010, 269.4150
798.3430, 261.4121
799.4850, 344.3481
800.6270, 185.2251
801.7690, 261.0327
802.9100, 314.7793
804.0520, 72.46533
805.1930, 197.0493
806.3340, 139.5645
807.4750, 49.99902
808.6160, 116.3218
809.7560, 164.5571
810.8970, 89.71729
812.0370, 25.21924
813.1770, 60.69385
814.3170, 32.50049
815.4570, 16.84863
816.5960, 117.6567
817.7360, 17.87158
818.8750, 97.77588
820.0140, 12.76221
821.1530, 6.933594
822.2920, 54.45117
823.4310, 4.485840
824.5690, 3.369629
825.7070, 76.61133
826.8460, 103.4258
827.9840, 112.9272
829.1220, 62.95508
830.2590, 87.72021
831.3970, 189.4741
832.5340, 140.6177
833.6710, 123.9180
834.8080, 152.4551
835.9450, 147.6411
837.0820, 158.1914
838.2190, 171.8452
839.3550, 156.7197
840.4910, 201.3760
841.6270, 124.8369
842.7630, 149.4292
843.8990, 106.1655
845.0350, 102.0205
846.1700, 66.99219
847.3060, 141.0601
848.4410, 102.2632
849.5760, 64.57812
850.7100, 9.985840
851.8450, 82.45557
852.9800, 73.02393
854.1140, 14.31445
855.2480, 24.39502
856.3820, 56.83105
857.5160, 1.984863
858.6500, 62.85156
859.7830, 45.79932
860.9170, 47.54443
862.0500, 46.09473
863.1830, 24.96680
864.3160, 51.79785
865.4480, 97.59082
866.5810, 17.34570
867.7130, 51.06104
868.8460, 62.73877
869.9780, 53.37891
871.1100, 97.98340
872.2410, 55.55225
873.3730, 107.0850
874.5050, 262.5830
875.6360, 89.04639
876.7670, 188.4756
877.8980, 214.8711
879.0290, 105.2329
880.1590, 95.56152
881.2900, 187.8589
882.4200, 287.1226
883.5500, 229.3555
884.6800, 206.5576
885.8100, 245.7290
886.9400, 369.8701
888.0690, 326.9810
889.1990, 380.0635
890.3280, 408.9185
891.4570, 410.1421
892.5860, 420.1396
893.7140, 443.1099
894.8430, 397.0527
895.9710, 449.9692
897.1000, 417.8604
898.2280, 532.7261
899.3560, 500.5664
900.4830, 548.8589
901.6110, 627.1753
902.7380, 602.9443
903.8660, 547.6904
904.9930, 535.4136
906.1200, 561.2573
907.2460, 635.7959
908.3730, 654.4556
909.5000, 636.0952
910.6260, 698.7144
911.7520, 730.3145
912.8780, 781.8960
914.0040, 834.4590
915.1290, 824.0049
916.2550, 906.5332
917.3800, 927.0444
918.5050, 1036.540
919.6300, 1122.020
920.7550, 1022.484
921.8800, 1097.934
923.0040, 1074.370
924.1290, 1104.792
925.2530, 1181.202
926.3770, 1276.610
927.5010, 1216.011
928.6250, 1202.399
929.7480, 1399.729
930.8720, 1374.998
931.9950, 1367.326
933.1180, 1661.660
934.2410, 1722.968
935.3640, 1837.362
936.4860, 1925.792
937.6090, 1998.103
938.7310, 2131.964
939.8530, 2241.508
940.9750, 2388.164
942.0970, 2626.621
943.2180, 2786.581
944.3400, 2912.388
945.4610, 3094.507
946.5820, 3432.386
947.7030, 3564.028
948.8240, 3882.684
949.9450, 3970.924
951.0650, 4109.193
952.1860, 4264.231
953.3060, 4408.759
954.4260, 4651.271
955.5460, 4971.910
956.6650, 5207.568
957.7850, 5510.239
958.9040, 6136.463
960.0230, 6599.673
961.1420, 7231.342
962.2610, 8072.000
963.3800, 9125.499
964.4990, 10310.57
965.6170, 11597.74
966.7350, 13298.14
967.8530, 14897.10
968.9710, 16610.74
970.0890, 18242.04
971.2070, 19093.24
972.3240, 20042.19
973.4410, 19785.58
974.5580, 19672.09
975.6750, 18918.96
976.7920, 17731.77
977.9090, 16626.14
979.0250, 15617.36
980.1410, 14889.97
981.2580, 14163.93
982.3740, 13691.36
983.4890, 13472.37
984.6050, 13662.89
985.7200, 13926.97
986.8360, 13936.66
987.9510, 13741.09
989.0660, 13446.20
990.1810, 12906.98
991.2950, 12076.60
992.4100, 11342.60
993.5240, 10559.45
994.6390, 9951.521
995.7530, 9659.648
996.8660, 9394.479
997.9800, 9272.246
999.0940, 9396.157
1000.207, 9770.108
1001.320, 10223.03
1002.433, 10644.06
1003.546, 11710.14
1004.659, 12847.26
1005.772, 14110.42
1006.884, 15966.62
1007.996, 18179.86
1009.108, 20929.15
1010.220, 24215.49
1011.332, 28199.86
1012.444, 32601.28
1013.555, 37395.74
1014.666, 42570.26
1015.777, 47091.81
1016.888, 50582.42
1017.999, 53410.06
1019.110, 54825.76
1020.220, 54846.50
1021.331, 53721.29
1022.441, 51707.14
1023.551, 48768.02
1024.661, 45545.94
1025.770, 43100.93
1026.880, 39809.96
1027.989, 37367.02
1029.098, 35080.15
1030.207, 33332.34
1031.316, 31783.55
1032.425, 30215.83
1033.533, 29448.16
1034.642, 28339.53
1035.750, 27426.96
1036.858, 26785.43
1037.966, 26223.96
1039.073, 25476.54
1040.181, 24749.16
1041.288, 23698.84
1042.396, 22638.57
1043.503, 21436.35
1044.610, 19920.19
1045.716, 18345.08
1046.823, 17159.02
1047.929, 15541.00
1049.036, 14203.04
1050.142, 13235.14
1051.248, 12133.29
1052.353, 10899.49
1053.459, 9962.746
1054.564, 9341.053
1055.670, 8692.415
1056.775, 8153.827
1057.880, 7786.174
1058.985, 7590.059
1060.089, 7268.000
1061.194, 7216.631
1062.298, 7148.408
1063.402, 7342.143
1064.506, 7393.988
1065.610, 7481.750
1066.713, 7857.443
1067.817, 7903.564
1068.920, 7883.145
1070.023, 7958.865
1071.126, 7605.346
1072.229, 7061.850
1073.332, 6533.930
1074.435, 6075.973
1075.537, 5702.911
1076.639, 5120.060
1077.741, 4653.756
1078.843, 4347.412
1079.945, 4075.400
1081.046, 3743.117
1082.148, 3528.917
1083.249, 3413.209
1084.350, 3146.448
1085.451, 3040.762
1086.551, 2714.233
1087.652, 2461.798
1088.752, 2356.954
1089.853, 2198.694
1090.953, 2116.473
1092.053, 2034.849
1093.152, 1881.517
1094.252, 1832.155
1095.351, 1853.598
1096.451, 1859.603
1097.550, 1602.602
1098.649, 1531.325
1099.748, 1644.850
1100.846, 1535.105
1101.945, 1672.338
1103.043, 1785.877
1104.141, 1768.266
1105.239, 2107.420
1106.337, 2131.059
1107.434, 2314.785
1108.532, 2644.458
1109.629, 3093.364
1110.726, 3597.684
1111.823, 4161.935
1112.920, 4795.863
1114.017, 5071.065
1115.113, 5664.347
1116.210, 5828.701
1117.306, 5588.113
1118.402, 5515.575
1119.498, 4951.101
1120.593, 4343.687
1121.689, 3835.310
1122.784, 3443.979
1123.879, 3035.683
1124.974, 2824.423
1126.069, 2487.222
1127.164, 2277.070
1128.259, 2048.994
1129.353, 1720.949
1130.447, 1587.962
1131.541, 1388.008
1132.635, 1292.084
1133.729, 1170.218
1134.822, 1065.385
1135.916, 902.5864
1137.009, 964.8208
1138.102, 849.1016
1139.195, 942.4165
1140.288, 881.7686
1141.380, 802.1753
1142.473, 715.6240
1143.565, 730.1016
1144.657, 718.6128
1145.749, 700.7480
1146.841, 824.7451
1147.932, 756.3755
1149.024, 686.0332
1150.115, 817.7280
1151.206, 715.4556
1152.297, 702.2100
1153.388, 720.0483
1154.479, 788.9160
1155.569, 655.8130
1156.659, 574.7329
1157.750, 706.6772
1158.839, 646.6445
1159.929, 635.6357
1161.019, 702.6514
1162.108, 591.6885
1163.198, 613.7495
1164.287, 564.8311
1165.376, 638.9365
1166.465, 507.0635
1167.553, 470.2095
1168.642, 363.3750
1169.730, 333.2603
1170.818, 246.7646
1171.906, 321.9863
1172.994, 292.2256
1174.082, 362.4819
1175.170, 335.7549
1176.257, 268.0444
1177.344, 265.3496
1178.431, 254.6704
1179.518, 251.0063
1180.605, 233.3516
1181.691, 176.7217
1182.778, 182.1001
1183.864, 117.4917
1184.950, 57.89697
1186.036, 51.31445
1187.122, 89.74365
1188.207, 33.66162
1189.292, 73.36133
1190.378, 17.92090
1191.463, 9.523926
1192.548, 2.020996
1193.632, 117.4404
1194.717, 102.0884
1195.801, 77.64795
1196.886, 93.22900
1197.970, 35.83838
1199.054, 18.45410
1200.137, 103.0713
1201.221, 95.72607
1202.305, 110.4165
1203.388, 82.15186
1204.471, 39.91895
1205.554, 140.7002
1206.637, 140.5464
1207.719, 23.45947
1208.802, 142.3823
1209.884, 62.37646
1210.966, 71.40137
1212.048, 25.53760
1213.130, 74.52148
1214.212, 53.11133
1215.293, 84.75488
1216.374, 83.93701
1217.456, 146.1699
1218.536, 120.4878
1219.617, 62.87793
1220.698, 124.3125
1221.778, 114.8252
1222.859, 36.41162
1223.939, 29.96729
1225.019, 91.65918
1226.099, 81.35059
1227.178, 94.10547
1228.258, 22.93018
1229.337, 143.7896
1230.417, 40.74805
1231.496, 12.24609
1232.574, 134.7798
1233.653, 17.90527
1234.732, 24.92969
1235.810, 62.74609
1236.888, 93.84961
1237.966, 24.34521
1239.044, 67.11572
1240.122, 41.87305
1241.199, 48.85352
1242.277, 12.36182
1243.354, 87.05469
1244.431, 112.7998
1245.508, 151.7446
1246.585, 173.6655
1247.661, 173.1504
1248.738, 169.9609
1249.814, 126.6172
1250.890, 142.6846
1251.966, 147.0088
1253.042, 156.6719
1254.117, 185.1875
1255.193, 210.9419
1256.268, 232.4233
1257.343, 282.3677
1258.418, 299.9648
1259.493, 384.6831
1260.567, 283.5000
