##NAMES=Brazilianite
##RRUFFID=R050504
##IDEAL CHEMISTRY=NaAl_3_(PO_4_)_2_(OH)_4_
##LOCALITY=CÃ³rrego Frio, Minas Gerais, Brazil
##OWNER=RRUFF
##SOURCE=Marcus Origlieri
##DESCRIPTION=Yellowish green fragment
##STATUS=The identification of this mineral has been confirmed by X-ray diffraction and chemical analysis
##URL=rruff.info/R050504
##MEASURED CHEMISTRY=Na_1.00_Al_3.00_(P_1.00_O_4_)_2_(OH)_4_
##PIN_ID=L00677
##ORIENTATION=Laser parallel to -c* (0 0 -1). Fiducial mark perpendicular to laser is parallel to a [1 0 0]
72.47700, 0.0000000E+00
73.71400, 19.63452
74.95100, 13.19385
76.18700, 391.3896
77.42300, 950.9878
78.65900, 1926.938
79.89500, 3223.109
81.13100, 4757.534
82.36700, 6547.327
83.60200, 8534.146
84.83700, 11076.41
86.07200, 13612.44
87.30800, 16439.08
88.54200, 18509.72
89.77700, 17876.53
91.01200, 14280.67
92.24600, 10779.02
93.48000, 8013.145
94.71400, 5868.415
95.94800, 4456.077
97.18200, 3833.286
98.41600, 4129.550
99.64900, 5900.280
100.8830, 9055.633
102.1160, 13082.00
103.3490, 17776.09
104.5820, 19873.16
105.8150, 17506.14
107.0470, 14339.23
108.2800, 11882.56
109.5120, 9197.061
110.7440, 7396.540
111.9760, 6821.775
113.2080, 7582.588
114.4400, 8090.831
115.6710, 6991.375
116.9030, 5069.105
118.1340, 3862.919
119.3650, 2454.723
120.5960, 1366.436
121.8270, 600.9878
123.0580, 194.3125
124.2880, 75.67188
125.5190, 71.02441
126.7490, 314.7773
127.9790, 274.9683
129.2090, 378.6328
130.4390, 365.8027
131.6680, 319.5073
132.8980, 217.7754
134.1270, 152.6313
135.3560, 87.90137
136.5850, 398.8003
137.8140, 845.0703
139.0430, 1282.250
140.2710, 1845.089
141.5000, 2703.040
142.7280, 3867.701
143.9560, 5043.406
145.1840, 6178.964
146.4120, 6500.899
147.6390, 6490.377
148.8670, 5900.542
150.0940, 5096.481
151.3210, 4160.245
152.5490, 3613.875
153.7750, 3083.396
155.0020, 3070.822
156.2290, 3284.166
157.4550, 3840.436
158.6810, 4789.644
159.9080, 6305.794
161.1340, 8711.864
162.3590, 12065.84
163.5850, 15249.74
164.8110, 16851.55
166.0360, 15929.32
167.2610, 13846.02
168.4860, 11430.69
169.7110, 9224.311
170.9360, 7346.902
172.1610, 5879.436
173.3850, 4574.778
174.6100, 3842.752
175.8340, 3266.396
177.0580, 2835.012
178.2820, 2618.797
179.5050, 2537.631
180.7290, 2274.472
181.9520, 2226.319
183.1760, 2410.174
184.3990, 2540.034
185.6220, 2578.898
186.8450, 2756.768
188.0670, 2786.639
189.2900, 3081.514
190.5120, 3319.391
191.7340, 3727.271
192.9560, 3999.151
194.1780, 4230.034
195.4000, 4516.918
196.6220, 4661.804
197.8430, 4443.691
199.0640, 4052.578
200.2860, 3357.468
201.5070, 2603.360
202.7270, 2021.920
203.9480, 1572.255
205.1690, 1455.304
206.3890, 1503.577
207.6090, 1693.422
208.8290, 2173.374
210.0490, 2581.544
211.2690, 3115.850
212.4890, 3439.714
213.7080, 3935.560
214.9280, 4844.621
216.1470, 5299.589
217.3660, 6189.372
218.5850, 6708.870
219.8030, 6424.545
221.0220, 5943.698
222.2400, 5341.701
223.4590, 4773.137
224.6770, 4327.652
225.8950, 4030.015
227.1120, 4184.055
228.3300, 4323.625
229.5480, 4703.634
230.7650, 4943.014
231.9820, 5128.723
233.1990, 5129.691
234.4160, 5357.796
235.6330, 5368.988
236.8490, 5506.282
238.0660, 5998.683
239.2820, 6353.194
240.4980, 6773.819
241.7140, 7032.554
242.9300, 6774.398
244.1460, 6040.348
245.3610, 5121.297
246.5770, 4153.927
247.7920, 3261.018
249.0070, 2619.598
250.2220, 2323.006
251.4370, 2284.576
252.6510, 2107.299
253.8660, 1843.164
255.0800, 1657.164
256.2940, 1480.286
257.5080, 1323.521
258.7220, 1404.862
259.9360, 1355.302
261.1490, 1341.833
262.3630, 1278.449
263.5760, 1427.146
264.7890, 1582.918
266.0020, 1394.762
267.2150, 1533.672
268.4270, 1402.646
269.6400, 1309.683
270.8520, 1064.283
272.0640, 859.2061
273.2760, 945.6787
274.4880, 1143.156
275.7000, 1157.973
276.9120, 1333.877
278.1230, 1298.603
279.3340, 1222.988
280.5450, 994.9443
281.7560, 841.5000
282.9670, 931.8706
284.1780, 948.4668
285.3880, 1024.090
286.5980, 1110.724
287.8090, 1111.355
289.0190, 1073.976
290.2290, 1168.581
291.4380, 1302.166
292.6480, 1338.730
293.8570, 1480.275
295.0670, 1573.802
296.2760, 1668.755
297.4850, 1771.809
298.6930, 1886.291
299.9020, 1957.758
301.1110, 2074.213
302.3190, 2236.655
303.5270, 2342.084
304.7350, 2386.504
305.9430, 2336.912
307.1510, 2462.310
308.3580, 2362.698
309.5660, 2546.079
310.7730, 2604.450
311.9800, 2825.813
313.1870, 3076.169
314.3940, 3430.519
315.6010, 3554.861
316.8070, 3801.198
318.0130, 3936.528
319.2200, 4063.854
320.4260, 3893.176
321.6310, 3801.498
322.8370, 3483.818
324.0430, 2998.138
325.2480, 2549.456
326.4540, 1903.771
327.6590, 1418.084
328.8640, 1054.398
330.0680, 648.7104
331.2730, 195.0215
332.4780, 74.67676
333.6820, 241.4404
334.8860, 350.3096
336.0900, 497.3110
337.2940, 597.4824
338.4980, 543.8501
339.7010, 696.3994
340.9050, 554.1694
342.1080, 514.1235
343.3110, 470.2495
344.5140, 457.5347
345.7170, 321.9775
346.9200, 240.5405
348.1220, 192.2148
349.3240, 196.1660
350.5270, 148.5371
351.7290, 206.3931
352.9310, 39.77002
354.1320, 153.5430
355.3340, 46.67480
356.5350, 57.04053
357.7370, 175.6152
358.9380, 100.3965
360.1390, 147.3486
361.3400, 107.4863
362.5400, 34.79785
363.7410, 126.7681
364.9410, 510.3730
366.1410, 852.0371
367.3410, 1321.746
368.5410, 1546.493
369.7410, 1786.273
370.9400, 1754.083
372.1400, 1613.921
373.3390, 1519.784
374.5380, 1448.670
375.7370, 1286.578
376.9360, 1312.507
378.1350, 1284.457
379.3330, 1337.427
380.5310, 1299.417
381.7300, 1330.427
382.9280, 1360.458
384.1260, 1444.509
385.3230, 1501.579
386.5210, 1587.670
387.7180, 1633.781
388.9160, 1857.912
390.1130, 2104.064
391.3100, 2299.238
392.5060, 2616.438
393.7030, 2866.667
394.9000, 3217.926
396.0960, 3570.215
397.2920, 3937.532
398.4880, 4098.879
399.6840, 4310.255
400.8800, 4492.659
402.0750, 4416.093
403.2710, 4335.525
404.4660, 4089.058
405.6610, 3814.609
406.8560, 3503.237
408.0510, 3058.936
409.2450, 2483.743
410.4400, 2099.661
411.6340, 1656.683
412.8280, 1333.802
414.0220, 967.0259
415.2160, 630.3726
416.4100, 428.8345
417.6030, 231.4385
418.7970, 105.1772
419.9900, 25.93408
421.1830, 60.93750
422.3760, 165.8540
423.5690, 128.7427
424.7610, 142.6206
425.9540, 105.5366
427.1460, 188.5200
428.3380, 347.6147
429.5300, 565.7437
430.7220, 750.9092
431.9140, 1157.109
433.1050, 1402.344
434.2970, 1869.612
435.4880, 2384.918
436.6790, 2684.260
437.8700, 3197.638
439.0610, 3343.056
440.2510, 3203.521
441.4420, 3091.022
442.6320, 2674.590
443.8220, 2536.202
445.0120, 2212.891
446.2020, 2078.634
447.3910, 2134.558
448.5810, 2139.310
449.7700, 2396.223
450.9600, 2882.179
452.1490, 3124.204
453.3370, 3850.271
454.5260, 3969.385
455.7150, 4259.544
456.9030, 4481.749
458.0910, 4680.001
459.2800, 4791.301
460.4670, 4704.650
461.6550, 4868.048
462.8430, 4548.496
464.0300, 4370.107
465.2180, 3992.848
466.4050, 3781.152
467.5920, 3211.810
468.7790, 2992.521
469.9650, 3065.287
471.1520, 3247.107
472.3380, 3777.984
473.5250, 4294.918
474.7110, 5163.422
475.8970, 5986.152
477.0820, 6979.187
478.2680, 7898.923
479.4540, 8832.906
480.6390, 9826.690
481.8240, 10644.94
483.0090, 11755.71
484.1940, 12755.54
485.3780, 13754.99
486.5630, 14591.33
487.7470, 15869.61
488.9320, 17104.01
490.1160, 18846.35
491.3000, 20259.66
492.4830, 22025.90
493.6670, 24072.10
494.8500, 25963.09
496.0340, 28209.06
497.2170, 30546.57
498.4000, 32421.57
499.5820, 33787.20
500.7650, 35058.12
501.9480, 35852.70
503.1300, 36872.78
504.3120, 36969.44
505.4940, 37188.65
506.6760, 37875.20
507.8580, 38155.57
509.0390, 38114.05
510.2210, 38284.65
511.4020, 38226.36
512.5830, 36939.16
513.7640, 35583.09
514.9450, 33826.13
516.1250, 32367.27
517.3060, 30440.52
518.4860, 29099.89
519.6660, 27673.37
520.8460, 26598.95
522.0260, 25973.65
523.2060, 25869.46
524.3850, 25836.38
525.5650, 26534.42
526.7440, 27156.56
527.9230, 27790.81
529.1020, 28408.18
530.2810, 28385.66
531.4590, 28567.26
532.6380, 27895.96
533.8160, 26851.77
534.9940, 25510.71
536.1720, 23592.74
537.3500, 21785.90
538.5270, 19947.17
539.7050, 18117.55
540.8820, 16556.04
542.0590, 15366.65
543.2360, 14676.38
544.4130, 14006.21
545.5900, 14109.70
546.7660, 14194.60
547.9430, 15243.86
549.1190, 16915.36
550.2950, 18825.54
551.4710, 21453.73
552.6470, 24592.63
553.8220, 28411.00
554.9980, 31952.19
556.1730, 34403.44
557.3480, 35809.99
558.5230, 36047.33
559.6980, 35384.05
560.8730, 34401.51
562.0470, 32841.02
563.2220, 31482.91
564.3960, 30403.70
565.5700, 29623.31
566.7440, 28104.15
567.9170, 26614.30
569.0910, 24406.88
570.2640, 22348.04
571.4380, 20402.30
572.6110, 18193.66
573.7840, 16520.12
574.9570, 14993.68
576.1290, 13911.34
577.3020, 12969.66
578.4740, 12368.97
579.6460, 11932.95
580.8180, 11617.17
581.9900, 11709.34
583.1620, 11859.36
584.3330, 12358.14
585.5040, 12963.41
586.6760, 14025.18
587.8470, 15291.57
589.0180, 16695.00
590.1880, 18849.34
591.3590, 21268.42
592.5290, 24532.07
593.7000, 28595.43
594.8700, 33332.95
596.0400, 38884.61
597.2090, 44778.43
598.3790, 49325.41
599.5490, 51700.57
600.7180, 51937.90
601.8870, 49306.41
603.0560, 45369.10
604.2250, 39913.96
605.3940, 34768.96
606.5620, 30529.15
607.7300, 27416.49
608.8990, 25004.99
610.0670, 23473.65
611.2350, 22926.45
612.4020, 22581.41
613.5700, 22557.53
614.7370, 22137.81
615.9050, 21276.24
617.0720, 20430.90
618.2390, 18702.82
619.4060, 16981.01
620.5720, 15398.49
621.7390, 13920.29
622.9050, 12634.41
624.0710, 11938.86
625.2370, 11200.61
626.4030, 10806.63
627.5690, 10868.90
628.7340, 10690.43
629.9000, 10932.18
631.0650, 11121.13
632.2300, 11266.25
633.3950, 11183.56
634.5600, 11099.03
635.7240, 10466.68
636.8890, 9912.470
638.0530, 8919.419
639.2170, 8067.500
640.3810, 7067.715
641.5450, 6193.091
642.7080, 5652.609
643.8720, 5303.277
645.0350, 5083.088
646.1980, 4696.019
647.3610, 4585.035
648.5240, 4635.123
649.6870, 4585.284
650.8490, 4632.516
652.0120, 4759.816
653.1740, 5028.188
654.3360, 5103.627
655.4980, 5354.135
656.6600, 5632.711
657.8210, 5661.352
658.9830, 5513.058
660.1440, 5470.827
661.3050, 5092.662
662.4660, 4746.559
663.6270, 4273.518
664.7870, 3719.539
665.9480, 3459.620
667.1080, 3044.762
668.2680, 2384.960
669.4280, 2060.218
670.5880, 1863.531
671.7480, 1594.902
672.9070, 1345.328
674.0670, 1131.808
675.2260, 959.3408
676.3850, 771.9277
677.5440, 648.5659
678.7030, 502.2554
679.8610, 367.9951
681.0200, 273.7837
682.1780, 153.1631
683.3360, 54.50586
684.4940, 60.56250
685.6520, 124.6050
686.8090, 257.6436
687.9670, 217.7334
689.1240, 395.8608
690.2810, 391.1064
691.4380, 362.4712
692.5950, 329.9438
693.7520, 358.5112
694.9080, 355.1885
696.0650, 319.5298
697.2210, 237.8589
698.3770, 240.6431
699.5330, 211.8096
700.6880, 154.8687
701.8440, 168.9438
702.9990, 219.0352
704.1550, 103.1411
705.3100, 21.22266
706.4650, 56.75098
707.6190, 3.214844
708.7740, 34.83838
709.9290, 20.91943
711.0830, 36.08301
712.2370, 79.15430
713.3910, 79.31250
714.5450, 47.49609
715.6980, 46.87256
716.8520, 132.5596
718.0050, 24.05811
719.1580, 10.63672
720.3110, 54.43994
721.4640, 92.06250
722.6170, 13.14258
723.7700, 140.6855
724.9220, 29.30029
726.0740, 100.5542
727.2260, 13.28662
728.3780, 19.30078
729.5300, 38.06934
730.6810, 65.57031
731.8330, 90.21533
732.9840, 163.8682
734.1350, 121.3267
735.2860, 342.7178
736.4370, 279.9761
737.5880, 401.2236
738.7380, 376.7905
739.8880, 622.6050
741.0390, 578.6641
742.1890, 707.2266
743.3380, 810.2065
744.4880, 879.3672
745.6380, 1016.761
746.7870, 1009.211
747.9360, 1287.546
749.0850, 1259.995
750.2340, 1485.090
751.3830, 1646.900
752.5310, 1785.803
753.6800, 1985.666
754.8280, 2181.823
755.9760, 2426.267
757.1240, 2626.876
758.2720, 2745.262
759.4190, 2911.659
760.5670, 3085.865
761.7140, 3207.142
762.8610, 3329.644
764.0080, 3384.521
765.1550, 3505.558
766.3020, 3462.215
767.4480, 3502.317
768.5950, 3572.539
769.7410, 3384.317
770.8870, 3285.128
772.0330, 3091.993
773.1780, 2953.723
774.3240, 2871.586
775.4690, 2685.404
776.6140, 2609.864
777.7590, 2543.171
778.9040, 2327.427
780.0490, 2237.633
781.1940, 2270.785
782.3380, 2233.884
783.4820, 2337.929
784.6260, 2293.918
785.7700, 2334.854
786.9140, 2621.733
788.0580, 2596.556
789.2010, 2817.321
790.3450, 3026.030
791.4880, 3315.681
792.6310, 3639.273
793.7730, 3949.806
794.9160, 4111.280
796.0590, 4505.695
797.2010, 4793.048
798.3430, 4926.342
799.4850, 5361.575
800.6270, 5409.745
801.7690, 5381.853
802.9100, 5628.899
804.0520, 5605.884
805.1930, 5514.804
806.3340, 5505.659
807.4750, 5297.453
808.6160, 5149.181
809.7560, 5006.844
810.8970, 4783.442
812.0370, 4502.976
813.1770, 4247.443
814.3170, 4098.844
815.4570, 3873.178
816.5960, 3662.445
817.7360, 3516.646
818.8750, 3310.778
820.0140, 3139.843
821.1530, 2839.841
822.2920, 2750.227
823.4310, 2623.246
824.5690, 2557.950
825.7070, 2297.454
826.8460, 2275.326
827.9840, 2067.234
829.1220, 2033.481
830.2590, 1906.544
831.3970, 1676.331
832.5340, 1641.353
833.6710, 1554.117
834.8080, 1362.125
835.9450, 1337.799
837.0820, 1212.783
838.2190, 1117.466
839.3550, 1047.283
840.4910, 904.4053
841.6270, 849.0547
842.7630, 673.8228
843.8990, 677.5527
845.0350, 490.6958
846.1700, 595.3071
847.3060, 364.8579
848.4410, 511.3511
849.5760, 315.7847
850.7100, 393.1592
851.8450, 270.4736
852.9800, 227.7271
854.1140, 254.9146
855.2480, 306.0215
856.3820, 146.9414
857.5160, 177.9282
858.6500, 136.9429
859.7830, 192.3623
860.9170, 169.5391
862.0500, 212.0591
863.1830, 54.00928
864.3160, 7.922852
865.4480, 20.94434
866.5810, 52.75977
867.7130, 63.05664
868.8460, 93.06543
869.9780, 106.2446
871.1100, 105.6016
872.2410, 72.13428
873.3730, 247.8262
874.5050, 221.7690
875.6360, 130.9478
876.7670, 247.3154
877.8980, 128.9312
879.0290, 136.7329
880.1590, 172.7236
881.2900, 145.9219
882.4200, 132.3130
883.5500, 163.8882
884.6800, 87.66309
885.8100, 115.5972
886.9400, 144.7046
888.0690, 163.9985
889.1990, 133.4888
890.3280, 156.1567
891.4570, 131.0151
892.5860, 104.0483
893.7140, 7.242188
894.8430, 73.54248
895.9710, 72.98486
897.1000, 20.43457
898.2280, 35.23584
899.3560, 130.9775
900.4830, 44.12891
901.6110, 61.20703
902.7380, 36.21436
903.8660, 74.14795
904.9930, 97.01562
906.1200, 87.54541
907.2460, 167.5669
908.3730, 91.25879
909.5000, 132.8921
910.6260, 146.4717
911.7520, 179.9990
912.8780, 212.4780
914.0040, 241.9102
915.1290, 351.2974
916.2550, 340.6387
917.3800, 281.9355
918.5050, 460.1880
919.6300, 600.3975
920.7550, 551.5630
921.8800, 619.6855
923.0040, 579.7666
924.1290, 787.8057
925.2530, 716.8027
926.3770, 762.7598
927.5010, 935.6763
928.6250, 1000.553
929.7480, 1076.391
930.8720, 1317.190
931.9950, 1397.952
933.1180, 1494.676
934.2410, 1731.362
935.3640, 1796.012
936.4860, 2103.625
937.6090, 2296.202
938.7310, 2540.744
939.8530, 2746.252
940.9750, 2970.727
942.0970, 3235.170
943.2180, 3493.582
944.3400, 3745.960
945.4610, 3816.310
946.5820, 4057.629
947.7030, 4289.916
948.8240, 4377.176
949.9450, 4367.404
951.0650, 4561.606
952.1860, 4650.778
953.3060, 4771.931
954.4260, 4719.059
955.5460, 4998.162
956.6650, 5004.253
957.7850, 5051.342
958.9040, 5278.446
960.0230, 5525.580
961.1420, 5777.736
962.2610, 6081.954
963.3800, 6466.230
964.4990, 6821.562
965.6170, 7249.940
966.7350, 7811.387
967.8530, 8614.911
968.9710, 9345.508
970.0890, 10266.14
971.2070, 11149.83
972.3240, 12244.55
973.4410, 13732.31
974.5580, 15042.11
975.6750, 16616.98
976.7920, 18662.89
977.9090, 20804.80
979.0250, 23461.74
980.1410, 26488.68
981.2580, 30418.63
982.3740, 35019.60
983.4890, 40277.57
984.6050, 45573.55
985.7200, 50492.54
986.8360, 54707.34
987.9510, 56758.88
989.0660, 56560.61
990.1810, 54006.58
991.2950, 49458.80
992.4100, 44109.62
993.5240, 38446.75
994.6390, 33601.94
995.7530, 30076.93
996.8660, 26819.58
997.9800, 24653.71
999.0940, 22837.54
1000.207, 21856.19
1001.320, 21167.26
1002.433, 20544.89
1003.546, 20584.67
1004.659, 20536.67
1005.772, 21536.75
1006.884, 22452.97
1007.996, 23654.20
1009.108, 25881.13
1010.220, 28373.82
1011.332, 31433.28
1012.444, 34782.24
1013.555, 38659.84
1014.666, 42195.25
1015.777, 45069.43
1016.888, 47759.59
1017.999, 48693.89
1019.110, 48518.07
1020.220, 46910.63
1021.331, 44525.48
1022.441, 41814.24
1023.551, 39451.04
1024.661, 35899.55
1025.770, 32681.80
1026.880, 30327.89
1027.989, 28086.20
1029.098, 26350.50
1030.207, 24962.85
1031.316, 23951.42
1032.425, 23212.61
1033.533, 22735.54
1034.642, 22663.08
1035.750, 22538.11
1036.858, 22666.69
1037.966, 22790.13
1039.073, 22896.02
1040.181, 23149.85
1041.288, 22930.63
1042.396, 22926.68
1043.503, 23041.29
1044.610, 22558.07
1045.716, 22173.21
1046.823, 21567.48
1047.929, 21147.79
1049.036, 20717.13
1050.142, 20453.74
1051.248, 20311.93
1052.353, 20123.39
1053.459, 20056.88
1054.564, 19989.41
1055.670, 20013.98
1056.775, 20208.59
1057.880, 20102.24
1058.985, 20089.92
1060.089, 20067.64
1061.194, 19728.81
1062.298, 19540.35
1063.402, 18997.20
1064.506, 18350.08
1065.610, 17902.00
1066.713, 16977.96
1067.817, 16608.96
1068.920, 15896.01
1070.023, 15423.10
1071.126, 14977.23
1072.229, 14438.40
1073.332, 14107.61
1074.435, 13742.49
1075.537, 13502.78
1076.639, 13033.12
1077.741, 12683.00
1078.843, 12034.43
1079.945, 11695.90
1081.046, 11120.61
1082.148, 10268.16
1083.249, 9531.781
1084.350, 8803.423
1085.451, 7788.977
1086.551, 7102.708
1087.652, 6353.276
1088.752, 5615.269
1089.853, 4884.720
1090.953, 4413.979
1092.053, 3782.096
1093.152, 3397.357
1094.252, 2902.260
1095.351, 2659.338
1096.451, 2255.166
1097.550, 2074.335
1098.649, 2016.677
1099.748, 1737.613
1100.846, 1676.625
1101.945, 1493.498
1103.043, 1585.164
1104.141, 1492.980
1105.239, 1631.328
1106.337, 1673.719
1107.434, 1785.896
1108.532, 1983.458
1109.629, 2365.025
1110.726, 2753.881
1111.823, 3223.759
1112.920, 4064.535
1114.017, 4571.917
1115.113, 5249.262
1116.210, 5785.946
1117.306, 5888.402
1118.402, 5927.467
1119.498, 5913.014
1120.593, 5745.374
1121.689, 5587.781
1122.784, 5555.458
1123.879, 5207.816
1124.974, 5369.344
1126.069, 5057.628
1127.164, 4897.909
1128.259, 4711.014
1129.353, 4498.652
1130.447, 4372.255
1131.541, 4170.661
1132.635, 4083.394
1133.729, 4004.039
1134.822, 3977.344
1135.916, 4037.419
1137.009, 3892.414
1138.102, 3881.466
1139.195, 3789.450
1140.288, 3651.672
1141.380, 3585.848
1142.473, 3469.033
1143.565, 3371.881
1144.657, 3190.159
1145.749, 3431.589
1146.841, 3159.838
1147.932, 2961.952
1149.024, 2850.803
1150.115, 2522.030
1151.206, 2330.152
1152.297, 2127.854
1153.388, 1946.183
1154.479, 1803.517
1155.569, 1691.075
1156.659, 1581.738
1157.750, 1493.295
1158.839, 1307.749
1159.929, 1168.655
1161.019, 1108.635
1162.108, 1210.043
1163.198, 1061.210
1164.287, 926.3599
1165.376, 1059.604
1166.465, 954.6221
1167.553, 810.6895
1168.642, 890.4922
1169.730, 649.6040
1170.818, 718.9624
1171.906, 675.2437
1172.994, 626.6235
1174.082, 583.8394
1175.170, 539.2427
1176.257, 456.3364
1177.344, 473.6143
1178.431, 422.9087
1179.518, 435.2197
1180.605, 275.5469
1181.691, 291.8896
1182.778, 232.2476
1183.864, 237.6206
1184.950, 267.0083
1186.036, 229.4111
1187.122, 157.8267
1188.207, 124.2563
1189.292, 147.6992
1190.378, 75.15479
1191.463, 55.22754
1192.548, 11.88965
1193.632, 22.59961
1194.717, 77.10010
1195.801, 178.6123
1196.886, 149.1348
1197.970, 181.6675
1199.054, 174.3975
1200.137, 76.86133
1201.221, 110.4219
1202.305, 121.1904
1203.388, 62.76807
1204.471, 38.64697
1205.554, 76.93848
1206.637, 45.53027
1207.719, 30.45264
1208.802, 8.356445
1209.884, 87.34961
1210.966, 12.94775
1212.048, 94.87354
1213.130, 5.590332
1214.212, 57.20996
1215.293, 69.07031
1216.374, 17.53613
1217.456, 35.85498
1218.536, 72.25146
1219.617, 99.44629
1220.698, 93.14307
1221.778, 42.97168
1222.859, 44.46387
1223.939, 32.14648
1225.019, 8.387207
1226.099, 25.33496
1227.178, 34.41504
1228.258, 74.92334
1229.337, 97.48682
1230.417, 127.5176
1231.496, 14.97510
1232.574, 84.65039
1233.653, 52.31885
1234.732, 106.0679
1235.810, 103.9893
1236.888, 129.8555
1237.966, 85.61182
1239.044, 99.03467
1240.122, 117.0864
1241.199, 67.20850
1242.277, 63.12451
1243.354, 86.29199
1244.431, 67.40234
1245.508, 102.3320
1246.585, 1.277344
1247.661, 7.993652
1248.738, 45.42285
1249.814, 8.282715
1250.890, 102.3916
1251.966, 8.837891
1253.042, 65.17480
1254.117, 49.65869
1255.193, 75.36816
1256.268, 73.14258
