##NAMES=Brazilianite
##RRUFFID=R050126
##IDEAL CHEMISTRY=NaAl_3_(PO_4_)_2_(OH)_4_
##LOCALITY=Linopolis, Minas Gerais, Brazil
##OWNER=RRUFF
##SOURCE=Carlos and Paulo Vasconcelos
##DESCRIPTION=Pair of greenish yellow elongated crystals
##STATUS=The identification of this mineral has been confirmed by X-ray diffraction and chemical analysis
##URL=rruff.info/R050126
##MEASURED CHEMISTRY=Na_1.00_Al_3.00_(P_1.00_O_4_)_2_((OH)_3.80_F_0.20_)_Î£=4_
##PIN_ID=L00537
##ORIENTATION=Laser parallel to b* (0 1 0). Fiducial mark perpendicular to laser is parallel to c [0 0 1]
134.381, 0.000
135.776, 37.130
137.170, 55.205
138.564, 9.870
139.958, 91.196
141.351, 78.227
142.745, 201.379
144.138, 261.014
145.530, 345.692
146.923, 553.219
148.315, 630.316
149.707, 746.670
151.099, 600.022
152.490, 509.369
153.881, 289.445
155.272, 175.234
156.663, 113.175
158.054, 123.104
159.444, 143.707
160.834, 165.757
162.224, 410.090
163.613, 471.589
165.002, 838.165
166.391, 1357.831
167.780, 2151.659
169.169, 3636.492
170.557, 5937.539
171.945, 9864.482
173.333, 13939.391
174.720, 17615.406
176.108, 16464.172
177.495, 11225.601
178.881, 7055.470
180.268, 3968.566
181.654, 2525.940
183.040, 1642.657
184.426, 1123.773
185.812, 802.338
187.197, 485.396
188.582, 463.989
189.967, 320.149
191.351, 292.910
192.736, 197.299
194.120, 154.342
195.504, 128.149
196.887, 91.390
198.271, 167.063
199.654, 106.113
201.036, 149.831
202.419, 45.765
203.801, 23.391
205.184, 34.436
206.565, 3.855
207.947, 136.538
209.328, 129.631
210.710, 267.441
212.090, 396.565
213.471, 471.963
214.851, 665.175
216.232, 742.794
217.611, 1085.650
218.991, 1386.146
220.370, 1782.691
221.750, 1954.448
223.129, 1760.059
224.507, 1520.470
225.886, 1064.907
227.264, 952.370
228.642, 815.857
230.019, 974.367
231.397, 1065.898
232.774, 1168.450
234.151, 1183.019
235.528, 844.604
236.904, 692.204
238.281, 493.815
239.656, 397.437
241.032, 441.065
242.408, 585.697
243.783, 915.332
245.158, 1273.969
246.533, 1819.604
247.907, 2121.238
249.282, 2570.869
250.656, 3143.496
252.029, 3927.116
253.403, 5521.726
254.776, 6712.018
256.149, 7291.873
257.522, 5605.824
258.895, 3364.808
260.267, 2004.397
261.639, 1058.700
263.011, 737.262
264.382, 425.924
265.754, 337.128
267.125, 254.528
268.496, 206.000
269.866, 289.116
271.237, 276.225
272.607, 436.328
273.977, 552.426
275.346, 725.519
276.716, 953.607
278.085, 1126.691
279.454, 1325.769
280.823, 1170.839
282.191, 1098.897
283.559, 862.943
284.927, 631.971
286.295, 532.986
287.662, 289.992
289.030, 190.988
290.397, 95.976
291.763, 19.043
293.130, 29.069
294.496, 150.101
295.862, 81.173
297.228, 135.384
298.594, 130.785
299.959, 162.188
301.324, 157.150
302.689, 149.530
304.053, 130.313
305.418, 94.551
306.782, 56.761
308.146, 37.053
309.509, 95.903
310.873, 259.783
312.236, 587.688
313.599, 763.612
314.961, 1098.547
316.324, 1185.489
317.686, 1243.434
319.048, 1072.377
320.409, 763.317
321.771, 622.247
323.132, 429.164
324.493, 530.064
325.854, 408.946
327.214, 289.808
328.574, 298.649
329.934, 239.470
331.294, 340.269
332.654, 309.046
334.013, 403.797
335.372, 488.514
336.731, 437.210
338.089, 565.883
339.448, 465.530
340.806, 493.137
342.164, 507.695
343.521, 464.200
344.879, 530.657
346.236, 506.068
347.593, 596.438
348.949, 569.767
350.306, 709.059
351.662, 757.316
353.018, 819.541
354.373, 1085.735
355.729, 1120.900
357.084, 1469.038
358.439, 1686.151
359.794, 1917.238
361.148, 1981.299
362.503, 1684.331
363.857, 1474.333
365.210, 1066.301
366.564, 707.200
367.917, 466.964
369.270, 270.735
370.623, 230.249
371.976, 115.080
373.328, 106.888
374.680, 31.675
376.032, 24.564
377.384, 62.896
378.735, 95.585
380.086, 97.215
381.437, 118.251
382.788, 76.545
384.138, 59.039
385.488, 69.607
386.838, 71.202
388.188, 91.808
389.538, 73.422
390.887, 106.054
392.236, 94.701
393.585, 50.375
394.933, 65.061
396.282, 21.766
397.630, 7.522
398.977, 58.811
400.325, 126.103
401.672, 182.399
403.020, 304.699
404.366, 328.004
405.713, 548.313
407.059, 677.627
408.406, 834.946
409.752, 1214.269
411.097, 1440.596
412.443, 1933.930
413.788, 2114.267
415.133, 2460.610
416.478, 2669.959
417.822, 2581.310
419.167, 2577.640
420.511, 2322.895
421.854, 2251.060
423.198, 2057.166
424.541, 1955.212
425.884, 2113.197
427.227, 1991.108
428.570, 2142.979
429.912, 2144.620
431.254, 2309.082
432.596, 2579.919
433.938, 2777.729
435.280, 3406.645
436.621, 3852.576
437.962, 4760.520
439.303, 5729.477
440.643, 6662.448
441.983, 7867.433
443.323, 7548.432
444.663, 7685.447
446.003, 6672.475
447.342, 5505.517
448.681, 5003.573
450.020, 4062.644
451.359, 4039.455
452.697, 3733.602
454.035, 3625.364
455.373, 3865.605
456.711, 3901.359
458.048, 4519.549
459.386, 4595.455
460.723, 5254.767
462.059, 5822.147
463.396, 6245.908
464.732, 7236.200
466.068, 7571.782
467.404, 8421.660
468.740, 8732.960
470.075, 8439.668
471.410, 8397.325
472.745, 6942.664
474.080, 6207.017
475.414, 4750.387
476.748, 3604.788
478.082, 2912.213
479.416, 2209.677
480.749, 1908.172
482.083, 1558.694
483.416, 1397.238
484.749, 1328.814
486.081, 1198.417
487.413, 1380.046
488.745, 1220.698
490.077, 1481.387
491.409, 1507.107
492.740, 1505.864
494.072, 1879.656
495.402, 1897.480
496.733, 2249.344
498.064, 2533.245
499.394, 2826.182
500.724, 3348.155
502.054, 3468.162
503.383, 4037.211
504.712, 4092.292
506.041, 4211.408
507.370, 4456.560
508.699, 4228.731
510.027, 4550.924
511.355, 4347.136
512.683, 4607.361
514.011, 4701.623
515.338, 4753.894
516.666, 5255.176
517.993, 5087.468
519.319, 5365.770
520.646, 5470.081
521.972, 5332.405
523.298, 5687.738
524.624, 5427.082
525.950, 5944.437
527.275, 5861.803
528.600, 5965.183
529.925, 6778.570
531.250, 6658.973
532.574, 7456.149
533.898, 7548.308
535.222, 8037.009
536.546, 8373.292
537.869, 7937.471
539.193, 8439.414
540.516, 7881.546
541.839, 7743.924
543.161, 7717.869
544.484, 7016.550
545.806, 7363.555
547.128, 6721.498
548.449, 7218.334
549.771, 7170.976
551.092, 7138.908
552.413, 8235.815
553.734, 8081.909
555.054, 9196.815
556.374, 10044.529
557.694, 11223.643
559.014, 13433.109
560.334, 14202.876
561.653, 16082.661
562.972, 16862.467
564.291, 17102.293
565.610, 18262.133
566.928, 17421.998
568.247, 18441.883
569.565, 17211.781
570.882, 16261.696
572.200, 15491.634
573.517, 12911.588
574.834, 11831.564
576.151, 9661.557
577.468, 8201.567
578.784, 7292.598
580.100, 5879.645
581.416, 5485.712
582.732, 4652.799
584.047, 4280.904
585.362, 4042.029
586.677, 3479.175
587.992, 3658.340
589.307, 3165.528
590.621, 3284.736
591.935, 3297.966
593.249, 3113.216
594.563, 3465.485
595.876, 3382.774
597.189, 3888.083
598.502, 4387.411
599.815, 4934.759
601.127, 5979.125
602.440, 6175.511
603.752, 6919.916
605.064, 6922.340
606.375, 6342.783
607.686, 6458.246
608.998, 5800.725
610.308, 6209.565
611.619, 6219.086
612.930, 6553.651
614.240, 7352.260
615.550, 7285.947
616.860, 8092.633
618.169, 7963.445
619.478, 7474.328
620.787, 7210.324
622.096, 5811.356
623.405, 5498.634
624.713, 4557.979
626.021, 4159.212
627.329, 3997.069
628.637, 3665.725
629.945, 3933.710
631.252, 3924.836
632.559, 4255.308
633.866, 4756.259
635.172, 4762.549
636.479, 5489.136
637.785, 5277.939
639.091, 5289.153
640.396, 5143.772
641.702, 4315.818
643.007, 4095.775
644.312, 3419.211
645.617, 2857.127
646.921, 2631.666
648.226, 2095.183
649.530, 2016.317
650.834, 1622.316
652.137, 1446.238
653.441, 1411.910
654.744, 1127.138
656.047, 1178.861
657.350, 979.707
658.652, 914.115
659.954, 954.968
661.256, 776.006
662.558, 884.427
663.860, 803.855
665.161, 751.590
666.462, 810.089
667.763, 670.781
669.064, 751.033
670.365, 635.582
671.665, 627.186
672.965, 619.792
674.265, 449.401
675.564, 562.011
676.864, 430.624
678.163, 447.238
679.462, 480.853
680.760, 302.470
682.059, 357.088
683.357, 272.707
684.655, 272.328
685.953, 249.949
687.250, 136.571
688.548, 226.194
689.845, 113.819
691.142, 154.445
692.438, 93.076
693.735, 14.278
695.031, 49.391
696.327, 12.500
697.623, 57.766
698.918, 27.012
700.214, 98.238
701.509, 3.520
702.804, 60.698
704.098, 94.912
705.393, 27.134
706.687, 74.340
707.981, 0.458
709.275, 16.716
710.568, 49.122
711.861, 123.982
713.155, 137.850
714.447, 227.720
715.740, 334.590
717.032, 440.456
718.325, 636.320
719.617, 695.326
720.908, 910.185
722.200, 914.040
723.491, 947.892
724.782, 1086.740
726.073, 899.585
727.364, 1041.426
728.654, 878.264
729.944, 747.097
731.234, 811.927
732.524, 614.751
733.814, 620.572
735.103, 604.388
736.392, 494.199
737.681, 566.006
738.969, 415.807
740.258, 462.604
741.546, 405.395
742.834, 347.180
744.122, 366.960
745.409, 265.735
746.697, 326.503
747.984, 285.266
749.270, 242.022
750.557, 306.773
751.844, 199.517
753.130, 229.254
754.416, 180.984
755.701, 168.708
756.987, 138.425
758.272, 79.135
759.557, 150.837
760.842, 81.533
762.127, 50.220
763.411, 85.901
764.695, 1.573
765.979, 49.232
767.263, 59.882
768.547, 35.523
769.830, 89.157
771.113, 5.218
772.396, 28.385
773.679, 46.980
774.961, 52.436
776.243, 55.101
777.525, 11.626
778.807, 4.863
780.089, 36.622
781.370, 57.905
782.651, 10.515
783.932, 58.083
785.213, 11.738
786.493, 16.422
787.773, 71.141
789.053, 43.923
790.333, 95.753
791.613, 66.660
792.892, 56.628
794.171, 30.653
795.450, 68.721
796.729, 50.852
798.007, 42.037
799.285, 33.272
800.563, 90.552
801.841, 57.908
803.119, 83.322
804.396, 80.808
805.673, 63.364
806.950, 90.982
808.227, 83.676
809.504, 75.443
810.780, 77.277
812.056, 70.176
813.332, 93.148
814.607, 64.193
815.883, 70.300
817.158, 70.472
818.433, 11.709
819.708, 23.979
820.982, 4.710
822.256, 12.374
823.531, 72.982
824.804, 43.596
826.078, 74.162
827.352, 42.717
828.625, 127.259
829.898, 66.790
831.170, 214.310
832.443, 174.817
833.715, 166.313
834.988, 206.798
836.259, 133.272
837.531, 191.734
838.803, 180.185
840.074, 142.625
841.345, 83.054
842.616, 65.472
843.886, 104.879
845.157, 43.275
846.427, 59.660
847.697, 92.789
848.966, 10.153
850.236, 51.281
851.505, 82.908
852.774, 28.657
854.043, 57.849
855.312, 68.132
856.580, 52.455
857.849, 85.673
859.117, 76.319
860.384, 82.708
861.652, 58.912
862.919, 76.795
864.186, 80.025
865.453, 17.244
866.720, 97.453
867.986, 59.652
869.253, 64.841
870.519, 112.020
871.784, 0.812
873.050, 64.343
874.315, 32.488
875.581, 49.623
876.846, 113.749
878.110, 20.865
879.375, 98.972
880.639, 85.069
881.903, 56.157
883.167, 79.237
884.431, 73.307
885.694, 77.368
886.957, 85.420
888.220, 44.464
889.483, 162.498
890.746, 62.525
892.008, 65.542
893.270, 100.552
894.532, 41.554
895.794, 116.547
897.056, 86.533
898.317, 91.511
899.578, 172.482
900.839, 93.445
902.099, 123.401
903.360, 113.349
904.620, 132.290
905.880, 179.224
907.140, 159.151
908.399, 211.073
909.659, 204.988
910.918, 183.899
912.177, 261.803
913.435, 186.701
914.694, 300.600
915.952, 298.493
917.210, 238.039
918.468, 340.920
919.726, 344.795
920.983, 297.666
922.240, 416.531
923.497, 393.444
924.754, 447.299
926.011, 432.148
927.267, 460.957
928.523, 540.797
929.779, 481.461
931.035, 596.122
932.290, 722.950
933.546, 580.196
934.801, 773.671
936.056, 766.833
937.310, 850.866
938.565, 907.572
939.819, 912.807
941.073, 1126.719
942.327, 1162.347
943.580, 1275.773
944.833, 1513.802
946.087, 1379.438
947.340, 1751.663
948.592, 1834.004
949.845, 1970.880
951.097, 2217.299
952.349, 2214.121
953.601, 2492.979
954.853, 2673.245
956.104, 2724.663
957.355, 3063.177
958.606, 3078.969
959.857, 3384.226
961.108, 3776.019
962.358, 3960.712
963.608, 4657.857
964.858, 5211.583
966.108, 5868.142
967.357, 7128.342
968.607, 7595.569
969.856, 9232.501
971.105, 10358.692
972.353, 10806.702
973.602, 12525.169
974.850, 11978.359
976.098, 12307.513
977.346, 11856.682
978.594, 10475.871
979.841, 10395.071
981.088, 9374.291
982.335, 8763.532
983.582, 8942.786
984.828, 8082.063
986.075, 8631.356
987.321, 8810.659
988.567, 8319.989
989.812, 9009.331
991.058, 8158.690
992.303, 7968.065
993.548, 7697.455
994.793, 6772.860
996.038, 6878.284
997.282, 6302.723
998.526, 6113.183
999.770, 6588.252
1001.014, 6134.744
1002.258, 6812.258
1003.501, 7201.788
1004.744, 7496.352
1005.987, 8781.930
1007.230, 8941.534
1008.473, 10371.178
1009.715, 12080.833
1010.957, 13120.521
1012.199, 16530.227
1013.441, 18569.947
1014.682, 21809.682
1015.923, 26739.438
1017.164, 28329.207
1018.405, 33418.988
1019.646, 35338.789
1020.886, 35078.609
1022.127, 37768.301
1023.367, 34108.145
1024.606, 33548.012
1025.846, 32077.896
1027.085, 28087.787
1028.325, 27897.699
1029.564, 25037.631
1030.802, 23267.572
1032.041, 23017.531
1033.279, 20477.506
1034.517, 20617.496
1035.755, 19867.502
1036.993, 18207.521
1038.230, 19317.559
1039.468, 17437.613
1040.705, 17387.684
1041.942, 17227.766
1043.178, 15567.953
1044.415, 16248.074
1045.651, 14548.206
1046.887, 12768.453
1048.123, 12498.619
1049.358, 10638.904
1050.594, 10089.108
1051.829, 9259.333
1053.064, 7929.619
1054.299, 7919.878
1055.533, 6695.156
1056.768, 6204.839
1058.002, 6454.149
1059.236, 5321.998
1060.469, 5322.345
1061.703, 5094.707
1062.936, 4918.713
1064.169, 5229.114
1065.402, 5005.532
1066.635, 5159.050
1067.867, 5622.506
1069.100, 6071.189
1070.332, 5515.678
1071.564, 5120.186
1072.795, 4790.725
1074.027, 4673.276
1075.258, 3951.910
1076.489, 3707.517
1077.720, 3405.140
1078.950, 2867.784
1080.181, 2871.451
1081.411, 2494.136
1082.641, 2232.541
1083.871, 2262.286
1085.100, 1865.243
1086.330, 1912.466
1087.559, 1609.312
1088.788, 1474.359
1090.016, 1528.651
1091.245, 1279.628
1092.473, 1235.656
1093.701, 1151.714
1094.929, 992.444
1096.157, 1018.737
1097.384, 880.049
1098.612, 829.591
1099.839, 1022.497
1101.066, 814.786
1102.292, 913.617
1103.519, 922.994
1104.745, 786.273
1105.971, 1030.810
1107.197, 1026.982
1108.423, 1122.554
1109.648, 1403.570
1110.873, 1463.209
1112.098, 1818.942
1113.323, 2119.062
1114.548, 2380.077
1115.772, 2898.218
1116.996, 2817.067
1118.220, 2786.406
1119.444, 2680.744
1120.667, 2123.664
1121.891, 1979.070
1123.114, 1683.048
1124.337, 1393.826
1125.560, 1429.892
1126.782, 1096.910
1128.004, 948.900
1129.227, 898.637
1130.448, 659.692
1131.670, 669.980
1132.892, 553.062
1134.113, 428.155
1135.334, 472.920
1136.555, 331.092
1137.776, 354.635
1138.996, 347.763
1140.216, 281.960
1141.436, 296.277
1142.656, 294.642
1143.876, 290.999
1145.095, 354.121
1146.315, 274.324
1147.534, 365.736
1148.753, 355.962
1149.971, 239.198
1151.190, 383.500
1152.408, 331.765
1153.626, 252.029
1154.844, 360.238
1156.061, 229.520
1157.279, 294.811
1158.496, 335.742
1159.713, 281.623
1160.930, 280.426
1162.146, 270.447
1163.363, 249.777
1164.579, 274.714
1165.795, 171.132
1167.010, 241.506
1168.226, 243.656
1169.441, 187.024
1170.657, 219.451
1171.871, 177.140
1173.086, 142.527
1174.301, 210.963
1175.515, 118.363
1176.729, 179.768
1177.943, 140.322
1179.157, 70.739
1180.370, 136.160
1181.584, 99.708
1182.797, 57.140
1184.010, 132.577
1185.222, 48.142
1186.435, 58.589
1187.647, 83.040
1188.859, 7.378
1190.071, 74.087
1191.283, 6.742
1192.494, 7.791
1193.706, 37.679
1194.917, 7.987
1196.128, 51.488
1197.338, 45.761
1198.549, 3.358
1199.759, 67.125
1200.969, 10.682
1202.179, 20.597
1203.389, 106.890
1204.598, 24.354
1205.807, 6.164
1207.016, 55.713
1208.225, 50.015
1209.434, 12.461
1210.642, 30.195
1211.850, 5.244
1213.058, 75.239
1214.266, 11.090
1215.474, 53.418
1216.681, 67.994
1217.889, 1.436
1219.096, 2.919
1220.302, 3.256
1221.509, 8.337
1222.715, 57.824
1223.922, 6.512
1225.128, 3.009
1226.334, 26.584
1227.539, 40.632
1228.745, 13.979
1229.950, 5.978
1231.155, 12.433
1232.360, 47.022
1233.564, 4.549
1234.769, 10.062
1235.973, 24.378
1237.177, 1.915
1238.381, 25.390
1239.584, 14.178
1240.787, 55.018
1241.991, 1.637
1243.194, 40.272
1244.396, 44.751
1245.599, 47.562
1246.801, 56.476
1248.004, 4.965
1249.206, 28.801
1250.407, 47.486
1251.609, 24.271
1252.810, 61.112
1254.012, 34.922
1255.212, 36.181
1256.413, 43.666
1257.614, 0.529
1258.814, 45.488
1260.014, 62.127
1261.214, 55.844
1262.414, 15.197
1263.614, 1.768
1264.813, 52.719
1266.012, 29.369
1267.211, 35.792
1268.410, 17.321
1269.609, 21.098
1270.807, 43.752
1272.005, 2.410
1273.203, 29.479
1274.401, 39.318
1275.598, 36.764
1276.796, 43.338
1277.993, 46.088
1279.190, 42.171
1280.387, 23.551
1281.583, 12.256
1282.780, 1.948
1283.976, 29.631
1285.172, 0.298
1286.368, 0.226
1287.563, 22.859
1288.759, 10.524
1289.954, 51.107
1291.149, 24.685
1292.343, 65.248
1293.538, 80.929
1294.732, 39.466
1295.927, 51.985
1297.121, 63.490
1298.314, 9.981
1299.508, 60.454
1300.701, 72.906
1301.895, 18.343
1303.087, 54.761
1304.280, 54.164
1305.473, 18.550
1306.665, 117.904
1307.857, 22.236
1309.049, 49.550
1310.241, 62.848
1311.433, 19.123
1312.624, 83.380
1313.815, 58.620
1315.006, 35.837
1316.197, 121.038
1317.388, 64.223
1318.578, 97.394
1319.768, 88.549
1320.958, 49.686
1322.148, 108.809
1323.338, 135.917
1324.527, 55.009
1325.716, 121.082
1326.906, 89.173
1328.094, 57.216
1329.283, 133.239
1330.471, 89.246
1331.660, 59.237
1332.848, 85.160
1334.035, 54.116
1335.223, 99.056
1336.411, 126.888
1337.598, 27.794
1338.785, 132.584
1339.972, 30.454
1341.158, 45.303
1342.345, 133.125
1343.531, 76.942
1344.717, 56.742
1345.903, 115.137
1347.089, 54.906
1348.274, 88.139
1349.459, 81.877
1350.644, 33.600
1351.829, 119.680
1353.014, 56.443
1354.198, 78.118
1355.383, 112.373
1356.567, 64.019
1357.751, 93.440
1358.934, 78.057
1360.118, 29.661
1361.301, 117.242
1362.484, 55.912
1363.667, 78.408
1364.850, 112.956
1366.032, 67.575
1367.215, 103.097
1368.397, 84.606
1369.579, 61.069
1370.760, 74.838
1371.942, 45.198
1373.123, 28.359
1374.304, 119.240
1375.485, 31.488
1376.666, 97.539
1377.847, 152.348
1379.027, 83.654
1380.207, 97.603
1381.387, 116.664
1382.567, 37.987
1383.747, 118.486
1384.926, 121.424
1386.105, 65.991
1387.284, 120.469
1388.463, 27.034
1389.641, 54.085
1390.820, 95.419
1391.998, 57.901
1393.176, 74.952
1394.354, 81.314
1395.532, 66.366
1396.709, 115.043
1397.886, 59.832
1399.063, 53.015
1400.240, 108.851
1401.417, 22.286
1402.593, 76.358
1403.769, 93.612
1404.945, 63.608
1406.121, 60.856
1407.297, 78.175
1408.472, 25.634
1409.648, 84.123
1410.823, 19.399
1411.998, 68.013
1413.172, 124.325
1414.347, 42.767
1415.521, 72.194
1416.695, 38.383
1417.869, 19.555
1419.043, 85.344
1420.216, 87.465
1421.390, 67.411
1422.563, 91.528
1423.736, 93.440
1424.909, 68.313
1426.081, 144.333
1427.254, 24.124
1428.426, 75.786
1429.598, 124.380
1430.770, 58.012
1431.941, 90.207
1433.113, 115.507
1434.284, 36.823
1435.455, 130.389
1436.626, 129.777
1437.796, 88.858
1438.967, 136.135
1440.137, 80.489
1441.307, 89.314
1442.477, 164.962
1443.646, 64.986
1444.816, 185.143
1445.985, 157.623
1447.154, 77.725
1448.323, 124.022
1449.492, 84.073
1450.660, 122.877
1451.829, 158.402
1452.997, 87.483
1454.165, 135.220
1455.332, 151.571
1456.500, 51.580
1457.667, 132.780
1458.834, 108.941
1460.001, 60.942
1461.168, 151.480
1462.335, 146.886
1463.501, 83.170
1464.667, 116.900
1465.833, 72.330
1466.999, 39.625
1468.165, 131.614
1469.330, 46.573
1470.495, 115.769
1471.660, 129.896
1472.825, 38.983
1473.990, 132.196
1475.154, 92.201
1476.318, 72.086
1477.482, 115.644
1478.646, 75.606
1479.810, 65.563
1480.974, 116.516
1482.137, 35.490
1483.300, 83.461
1484.463, 92.561
1485.626, 55.694
1486.788, 98.886
1487.950, 57.125
1489.113, 46.404
1490.275, 135.687
1491.436, 76.996
1492.598, 25.307
1493.759, 120.487
1494.920, 5.127
1496.081, 51.303
1497.242, 132.603
1498.403, 55.136
1499.563, 74.748
1500.724, 50.427
1501.884, 10.059
1503.043, 95.759
1504.203, 106.651
1505.363, 27.622
1506.522, 107.930
1507.681, 36.353
1508.840, 60.778
1509.999, 152.146
1511.157, 47.925
1512.315, 41.267
1513.474, 95.483
1514.632, 45.814
1515.789, 48.161
1516.947, 37.500
1518.104, 0.225
1519.261, 0.000
##END=



