##NAMES=Brazilianite
##RRUFFID=R050126
##IDEAL CHEMISTRY=NaAl_3_(PO_4_)_2_(OH)_4_
##LOCALITY=Linopolis, Minas Gerais, Brazil
##OWNER=RRUFF
##SOURCE=Carlos and Paulo Vasconcelos
##DESCRIPTION=Pair of greenish yellow elongated crystals
##STATUS=The identification of this mineral has been confirmed by X-ray diffraction and chemical analysis
##URL=rruff.info/R050126
##MEASURED CHEMISTRY=Na_1.00_Al_3.00_(P_1.00_O_4_)_2_((OH)_3.80_F_0.20_)_Î£=4_
##PIN_ID=L00438
##ORIENTATION=Laser parallel to -a* (-1 0 0). Fiducial mark perpendicular to laser is parallel to b [0 1 0]
134.381, 0.000
135.776, 131.573
137.170, 21.022
138.564, 27.952
139.958, 227.647
141.351, 510.500
142.745, 1123.981
144.138, 1695.457
145.530, 2614.312
146.923, 3487.434
148.315, 4224.212
149.707, 4836.738
151.099, 4170.226
152.490, 3668.884
153.881, 2578.213
155.272, 2041.503
156.663, 1443.084
158.054, 1385.412
159.444, 1757.053
160.834, 2278.852
162.224, 3770.544
163.613, 5521.220
165.002, 8108.480
166.391, 10747.807
167.780, 12458.765
169.169, 12371.026
170.557, 10044.992
171.945, 7651.246
173.333, 5368.028
174.720, 3978.107
176.108, 3023.390
177.495, 2120.808
178.881, 1796.312
180.268, 1323.874
181.654, 1227.476
183.040, 992.104
184.426, 971.750
185.812, 1034.826
187.197, 951.734
188.582, 1243.228
189.967, 1156.787
191.351, 1479.424
192.736, 1533.458
194.120, 1785.839
195.504, 2046.021
196.887, 2229.091
198.271, 2569.131
199.654, 2468.215
201.036, 2441.407
202.419, 1885.771
203.801, 1389.362
205.184, 727.394
206.565, 203.176
207.947, 178.156
209.328, 67.100
210.710, 345.566
212.090, 693.522
213.471, 1224.990
214.851, 1689.996
216.232, 1913.565
217.611, 2599.728
218.991, 3188.521
220.370, 4134.020
221.750, 4467.294
223.129, 4407.385
224.507, 4213.324
225.886, 3261.136
227.264, 2986.837
228.642, 2426.445
230.019, 2525.970
231.397, 2595.423
232.774, 2816.812
234.151, 3128.140
235.528, 2972.415
236.904, 3293.491
238.281, 3205.796
239.656, 3712.320
241.032, 4027.617
242.408, 4599.875
243.783, 5269.796
245.158, 5275.483
246.533, 5563.509
247.907, 4644.823
249.282, 3739.723
250.656, 2863.448
252.029, 2011.804
253.403, 1800.348
254.776, 1615.986
256.149, 1692.715
257.522, 1446.532
258.895, 1103.434
260.267, 1006.421
261.639, 723.493
263.011, 933.648
264.382, 752.887
265.754, 860.206
267.125, 939.604
268.496, 944.079
269.866, 967.612
271.237, 755.180
272.607, 651.765
273.977, 343.359
275.346, 176.958
276.716, 52.559
278.085, 73.834
279.454, 70.779
280.823, 15.598
282.191, 76.037
283.559, 142.686
284.927, 239.351
286.295, 471.033
287.662, 482.735
289.030, 706.374
290.397, 719.930
291.763, 823.461
293.130, 899.021
294.496, 965.615
295.862, 1168.244
297.228, 1093.909
298.594, 1379.613
299.959, 1322.511
301.324, 1513.481
302.689, 1581.377
304.053, 1486.186
305.418, 1756.652
306.782, 1616.666
308.146, 1904.143
309.509, 1884.014
310.873, 1731.226
312.236, 1832.735
313.599, 1679.503
314.961, 1944.499
316.324, 1874.694
317.686, 2220.065
319.048, 2536.588
320.409, 2681.245
321.771, 2997.020
323.132, 3008.900
324.493, 3141.873
325.854, 2955.930
327.214, 2473.060
328.574, 2082.244
329.934, 1478.474
331.294, 1175.739
332.654, 660.032
334.013, 262.348
335.372, 166.676
336.731, 68.006
338.089, 183.673
339.448, 576.427
340.806, 641.357
342.164, 620.483
343.521, 662.799
344.879, 621.317
346.236, 725.027
347.593, 524.954
348.949, 543.047
350.306, 323.313
351.662, 324.720
353.018, 213.296
354.373, 124.026
355.729, 257.893
357.084, 114.932
358.439, 107.104
359.794, 62.402
361.148, 5.809
362.503, 190.306
363.857, 49.936
365.210, 140.657
366.564, 1.511
367.917, 227.606
369.270, 603.658
370.623, 1079.530
371.976, 1286.291
373.328, 1469.491
374.680, 1620.720
376.032, 1531.444
377.384, 1429.167
378.735, 1234.875
380.086, 1437.599
381.437, 1206.378
382.788, 1341.207
384.138, 1321.061
385.488, 1170.976
386.838, 1408.904
388.188, 1248.881
389.538, 1397.873
390.887, 1461.871
392.236, 1518.890
393.585, 1872.909
394.933, 1883.942
396.282, 2270.979
397.630, 2436.016
398.977, 2687.058
400.325, 3161.971
401.672, 3220.308
403.020, 3715.057
404.366, 3581.205
405.713, 3790.880
407.059, 3725.261
408.406, 3616.476
409.752, 3488.516
411.097, 3014.462
412.443, 2816.321
413.788, 2242.084
415.133, 1953.863
416.478, 1613.695
417.822, 1183.581
419.167, 1090.521
420.511, 660.516
421.854, 615.565
423.198, 467.668
424.541, 334.827
425.884, 403.041
427.227, 249.310
428.570, 429.634
429.912, 425.015
431.254, 582.451
432.596, 839.943
433.938, 963.492
435.280, 1389.097
436.621, 1540.760
437.962, 1973.407
439.303, 2376.361
440.643, 2641.453
441.983, 3148.399
443.323, 3095.252
444.663, 3294.681
446.003, 2943.577
447.342, 2502.713
448.681, 2392.908
450.020, 2034.165
451.359, 2188.483
452.697, 2436.863
454.035, 2634.307
455.373, 3250.812
456.711, 3478.382
458.048, 4200.015
459.386, 4288.712
460.723, 4665.472
462.059, 5029.293
463.396, 4903.175
464.732, 5177.120
466.068, 4981.118
467.404, 4845.166
468.740, 4579.263
470.075, 3902.405
471.410, 3860.592
472.745, 3181.821
474.080, 3602.093
475.414, 3796.407
476.748, 4264.760
478.082, 5089.153
479.416, 5653.587
480.749, 7018.059
482.083, 7762.568
483.416, 8887.116
484.749, 9771.701
486.081, 10666.324
487.413, 12030.987
488.745, 12405.683
490.077, 14100.421
491.409, 14865.195
492.740, 15830.008
494.072, 17914.857
495.402, 18549.748
496.733, 21024.670
498.064, 22728.297
499.394, 24527.896
500.724, 27482.842
502.054, 28313.691
503.383, 31155.840
504.712, 31395.332
506.041, 32547.430
507.370, 33273.035
508.699, 32851.227
510.027, 34398.301
511.355, 33649.211
512.683, 34590.082
514.011, 35187.980
515.338, 33491.270
516.666, 34006.492
517.993, 31780.424
519.319, 31324.887
520.646, 29182.037
521.972, 27062.574
523.298, 26462.387
524.624, 24690.504
525.950, 25103.389
527.275, 23924.699
528.600, 24070.963
529.925, 25657.299
531.250, 24696.643
532.574, 25883.182
533.898, 25577.633
535.222, 25609.035
536.546, 25059.006
537.869, 23225.947
539.193, 22758.859
540.516, 20500.535
541.839, 18980.623
543.161, 17864.434
544.484, 15606.734
545.806, 15517.670
547.128, 14086.395
548.449, 14147.579
549.771, 14226.451
551.092, 13858.750
552.413, 16096.396
553.734, 16767.027
555.054, 19575.166
556.374, 22193.113
557.694, 25331.594
559.014, 29789.818
560.334, 30878.201
561.653, 32816.730
562.972, 32035.389
564.291, 29824.191
565.610, 29483.137
566.928, 26912.234
568.247, 26981.498
569.565, 25130.900
570.882, 24312.375
572.200, 23092.090
573.517, 20721.945
574.834, 19231.979
576.151, 17232.145
577.468, 15652.483
578.784, 14612.966
580.100, 13293.584
581.416, 12984.352
582.732, 12075.236
584.047, 11966.264
585.362, 12117.410
586.677, 11718.680
587.992, 12520.081
589.307, 12361.590
590.621, 13413.208
591.935, 14314.937
593.249, 14946.762
594.563, 17518.697
595.876, 18960.725
597.189, 23042.852
598.502, 27715.092
599.815, 32767.457
601.127, 39239.918
602.440, 42612.500
603.752, 43689.062
605.064, 45997.926
606.375, 40950.770
607.686, 37303.684
608.998, 30986.682
610.308, 27539.762
611.619, 24062.920
612.930, 21966.152
614.240, 21609.471
615.550, 20052.861
616.860, 20896.334
618.169, 20139.887
619.478, 19323.514
620.787, 18407.223
622.096, 16051.003
623.405, 15394.859
624.713, 12948.797
626.021, 12022.811
627.329, 11236.897
628.637, 9821.061
629.945, 9975.300
631.252, 9409.615
632.559, 9524.002
633.866, 9928.467
635.172, 9653.003
636.479, 10177.614
637.785, 9602.299
639.091, 9537.060
640.396, 9021.889
641.702, 7726.794
643.007, 7401.771
644.312, 6256.823
645.617, 5471.945
646.921, 5307.140
648.226, 4492.404
649.530, 4617.742
650.834, 4273.150
652.137, 4358.631
653.441, 4504.181
654.744, 4189.800
656.047, 4815.501
657.350, 4621.343
658.652, 4947.431
659.954, 5253.779
661.256, 5000.384
662.558, 5317.255
663.860, 4884.384
665.161, 4561.795
666.462, 4359.438
667.763, 3661.313
669.064, 3431.367
670.365, 2772.598
671.665, 2428.976
672.965, 2186.478
674.265, 1540.137
675.564, 1611.918
676.864, 1146.817
678.163, 1089.824
679.462, 912.922
680.760, 578.159
682.059, 643.499
683.357, 249.962
684.655, 193.515
685.953, 117.129
687.250, 122.197
688.548, 9.505
689.845, 251.734
691.142, 171.991
692.438, 128.236
693.735, 2.458
695.031, 202.626
696.327, 392.797
697.623, 358.045
698.918, 215.358
700.214, 396.246
701.509, 135.650
702.804, 317.661
704.098, 136.566
705.393, 60.922
706.687, 158.242
707.981, 35.492
709.275, 103.151
710.568, 6.136
711.861, 44.948
713.155, 9.905
714.447, 193.058
715.740, 54.672
717.032, 98.577
718.325, 70.703
719.617, 39.914
720.908, 214.752
722.200, 112.610
723.491, 87.788
724.782, 156.590
726.073, 33.866
727.364, 227.389
728.654, 77.304
729.944, 95.214
731.234, 188.699
732.524, 118.640
733.814, 232.160
735.103, 185.678
736.392, 219.946
737.681, 418.380
738.969, 400.436
740.258, 630.788
741.546, 536.874
742.834, 602.611
744.122, 703.530
745.409, 579.721
746.697, 850.626
747.984, 828.690
749.270, 900.218
750.557, 1118.892
751.844, 1001.679
753.130, 1303.715
754.416, 1344.270
755.701, 1507.592
756.987, 1729.403
758.272, 1671.979
759.557, 2054.586
760.842, 2115.171
762.127, 2205.763
763.411, 2474.356
764.695, 2380.954
765.979, 2773.556
767.263, 2749.159
768.547, 2750.764
769.830, 2907.372
771.113, 2634.980
772.396, 2627.588
773.679, 2598.196
774.961, 2350.805
776.243, 2408.413
777.525, 2073.018
778.807, 1942.621
780.089, 1967.223
781.370, 1641.822
782.651, 1805.417
783.932, 1571.009
785.213, 1463.596
786.493, 1654.178
787.773, 1596.755
789.053, 1791.328
790.333, 1620.893
791.613, 2020.452
792.892, 2086.004
794.171, 2146.548
795.450, 2634.086
796.729, 2633.615
798.007, 2898.135
799.285, 3240.646
800.563, 3363.149
801.841, 3642.641
803.119, 3661.123
804.396, 3890.595
805.673, 3904.056
806.950, 3893.505
808.227, 3935.944
809.504, 3812.371
810.780, 3649.785
812.056, 3622.187
813.332, 3327.574
814.607, 3339.946
815.883, 3137.303
817.158, 2914.642
818.433, 2768.962
819.708, 2538.263
820.982, 2567.543
822.256, 2500.800
823.531, 2015.035
824.804, 2189.247
826.078, 1913.435
827.352, 1865.598
828.625, 1771.734
829.898, 1623.846
831.170, 1660.929
832.443, 1452.986
833.715, 1355.016
834.988, 1316.017
836.259, 1132.988
837.531, 1141.931
838.803, 986.844
840.074, 993.727
841.345, 976.648
842.616, 654.417
843.886, 784.312
845.157, 566.299
846.427, 550.760
847.697, 630.290
848.966, 331.896
850.236, 351.777
851.505, 276.294
852.774, 153.125
854.043, 219.507
855.312, 142.298
856.580, 81.337
857.849, 36.948
859.117, 30.100
860.384, 14.432
861.652, 89.363
862.919, 21.154
864.186, 50.565
865.453, 227.504
866.720, 80.144
867.986, 232.536
869.253, 172.132
870.519, 78.901
871.784, 158.795
873.050, 151.854
874.315, 145.077
875.581, 209.460
876.846, 85.037
878.110, 207.743
879.375, 124.551
880.639, 134.600
881.903, 213.803
883.167, 95.202
884.431, 229.735
885.694, 95.472
886.957, 111.343
888.220, 123.356
889.483, 30.517
890.746, 117.777
892.008, 32.182
893.270, 41.686
894.532, 84.295
895.794, 7.971
897.056, 3.159
898.317, 8.732
899.578, 77.292
900.839, 35.733
902.099, 92.144
903.360, 50.977
904.620, 42.755
905.880, 215.477
907.140, 107.168
908.399, 150.819
909.659, 217.438
910.918, 184.026
912.177, 344.584
913.435, 268.112
914.694, 346.612
915.952, 508.082
917.210, 433.522
918.468, 635.935
919.726, 479.317
920.983, 614.671
922.240, 781.996
923.497, 735.293
924.754, 882.561
926.011, 854.801
927.267, 1056.012
928.523, 1135.195
929.779, 1147.350
931.035, 1371.478
932.290, 1463.578
933.546, 1533.650
934.801, 1851.694
936.056, 1803.711
937.310, 2117.702
938.565, 2247.672
939.819, 2367.613
941.073, 2721.533
942.327, 2821.426
943.580, 3068.293
944.833, 3537.157
946.087, 3404.995
947.340, 3967.812
948.592, 3958.610
949.845, 4139.385
951.097, 4428.162
952.349, 4380.929
953.601, 4591.675
954.853, 4699.428
956.104, 4678.165
957.355, 5047.880
958.606, 4962.601
959.857, 5175.316
961.108, 5518.042
962.358, 5501.770
963.608, 6019.477
964.858, 6375.181
966.108, 6648.876
967.357, 7382.569
968.607, 7556.282
969.856, 8749.972
971.105, 9503.656
972.353, 10127.349
973.602, 11961.025
974.850, 12754.700
976.098, 14498.365
977.346, 16282.015
978.594, 17555.668
979.841, 20509.303
981.088, 22652.932
982.335, 25656.559
983.582, 30050.168
984.828, 33083.789
986.075, 38447.402
987.321, 43950.988
988.567, 45804.602
989.812, 47598.016
991.058, 47811.797
992.303, 45605.406
993.548, 42089.020
994.793, 36442.664
996.038, 33386.336
997.282, 29219.992
998.526, 26453.672
999.770, 25157.359
1001.014, 22761.104
1002.258, 22514.906
1003.501, 21808.285
1004.744, 21242.162
1005.987, 22135.672
1007.230, 21498.062
1008.473, 22528.941
1009.715, 24225.822
1010.957, 25365.662
1012.199, 28868.924
1013.441, 30996.555
1014.682, 34058.145
1015.923, 39082.719
1017.164, 40596.516
1018.405, 44310.699
1019.646, 44948.625
1020.886, 43252.375
1022.127, 43701.078
1023.367, 39320.195
1024.606, 37219.711
1025.846, 34835.172
1027.085, 30988.434
1028.325, 29593.982
1029.564, 26894.840
1030.802, 25125.070
1032.041, 24690.342
1033.279, 22953.070
1034.517, 22897.379
1035.755, 22470.139
1036.993, 21591.926
1038.230, 22682.994
1039.468, 21599.930
1040.705, 22151.439
1041.942, 22448.357
1043.178, 21644.734
1044.415, 22068.486
1045.651, 21158.078
1046.887, 20547.432
1048.123, 20546.102
1049.358, 19218.633
1050.594, 19345.732
1051.829, 18968.709
1053.064, 18070.602
1054.299, 18482.268
1055.533, 17606.443
1056.768, 17379.873
1058.002, 17753.836
1059.236, 16998.064
1060.469, 17012.279
1061.703, 16746.533
1062.936, 16040.808
1064.169, 16345.103
1065.402, 15399.410
1066.635, 15353.737
1067.867, 15238.083
1069.100, 14062.449
1070.332, 14406.828
1071.564, 13791.229
1072.795, 13315.646
1074.027, 13500.081
1075.258, 12424.537
1076.489, 12589.009
1077.720, 12373.502
1078.950, 11538.014
1080.181, 11692.541
1081.411, 10657.089
1082.641, 10071.656
1083.871, 9766.245
1085.100, 8540.874
1086.330, 8156.412
1087.559, 7261.056
1088.788, 6336.407
1090.016, 6101.092
1091.245, 5054.793
1092.473, 4672.523
1093.701, 4250.317
1094.929, 3725.801
1096.157, 3433.782
1097.384, 3117.875
1098.612, 2790.098
1099.839, 2813.216
1101.066, 2435.093
1102.292, 2354.945
1103.519, 2414.628
1104.745, 2149.861
1105.971, 2480.663
1107.197, 2302.945
1108.423, 2523.990
1109.648, 2888.707
1110.873, 2945.079
1112.098, 3526.654
1113.323, 4060.662
1114.548, 4546.866
1115.772, 5401.651
1116.996, 5661.888
1118.220, 6095.852
1119.444, 6371.892
1120.667, 5870.373
1121.891, 6120.815
1123.114, 5949.130
1124.337, 5757.335
1125.560, 6134.583
1126.782, 5610.002
1128.004, 5515.779
1129.227, 5809.336
1130.448, 5116.136
1131.670, 5342.207
1132.892, 4980.001
1134.113, 4773.229
1135.334, 5128.202
1136.555, 4733.860
1137.776, 4719.959
1138.996, 4969.790
1140.216, 4622.771
1141.436, 4965.435
1142.656, 5036.895
1143.876, 5076.674
1145.095, 5763.038
1146.315, 5651.963
1147.534, 6052.540
1148.753, 5940.782
1149.971, 5314.584
1151.190, 5100.677
1152.408, 4375.928
1153.626, 3787.512
1154.844, 3565.094
1156.061, 2925.333
1157.279, 2726.364
1158.496, 2492.265
1159.713, 2231.100
1160.930, 2206.575
1162.146, 1993.997
1163.363, 1786.764
1164.579, 1861.578
1165.795, 1552.535
1167.010, 1639.529
1168.226, 1546.154
1169.441, 1346.402
1170.657, 1390.743
1171.871, 1245.944
1173.086, 1122.303
1174.301, 1221.976
1175.515, 886.918
1176.729, 930.490
1177.943, 883.335
1179.157, 781.146
1180.370, 794.096
1181.584, 601.496
1182.797, 657.581
1184.010, 660.777
1185.222, 492.309
1186.435, 583.391
1187.647, 491.943
1188.859, 423.314
1190.071, 504.591
1191.283, 356.358
1192.494, 310.729
1193.706, 364.199
1194.917, 282.145
1196.128, 289.564
1197.338, 290.599
1198.549, 237.455
1199.759, 289.963
1200.969, 289.562
1202.179, 216.121
1203.389, 369.615
1204.598, 124.334
1205.807, 216.920
1207.016, 242.519
1208.225, 118.207
1209.434, 202.677
1210.642, 132.475
1211.850, 86.979
1213.058, 158.638
1214.266, 106.300
1215.474, 115.716
1216.681, 140.151
1217.889, 114.760
1219.096, 153.289
1220.302, 127.056
1221.509, 110.170
1222.715, 91.103
1223.922, 57.760
1225.128, 45.240
1226.334, 22.670
1227.539, 20.178
1228.745, 80.541
1229.950, 2.988
1231.155, 36.090
1232.360, 42.240
1233.564, 27.157
1234.769, 38.204
1235.973, 29.499
1237.177, 101.985
1238.381, 8.273
1239.584, 23.473
1240.787, 34.188
1241.991, 6.016
1243.194, 116.584
1244.396, 49.384
1245.599, 25.373
1246.801, 121.334
1248.004, 37.252
1249.206, 2.393
1250.407, 115.496
1251.609, 57.755
1252.810, 132.050
1254.012, 93.350
1255.212, 0.219
1256.413, 72.062
1257.614, 45.579
1258.814, 63.161
1260.014, 150.564
1261.214, 36.777
1262.414, 54.991
1263.614, 102.606
1264.813, 10.503
1266.012, 74.417
1267.211, 23.212
1268.410, 4.232
1269.609, 83.229
1270.807, 39.770
1272.005, 25.352
1273.203, 52.405
1274.401, 9.386
1275.598, 105.848
1276.796, 13.054
1277.993, 10.257
1279.190, 100.533
1280.387, 37.078
1281.583, 52.338
1282.780, 62.789
1283.976, 0.258
1285.172, 57.794
1286.368, 10.837
1287.563, 42.226
1288.759, 81.411
1289.954, 33.014
1291.149, 86.299
1292.343, 12.430
1293.538, 54.979
1294.732, 7.823
1295.927, 27.447
1297.121, 106.758
1298.314, 44.136
1299.508, 10.921
1300.701, 52.040
1301.895, 21.029
1303.087, 97.150
1304.280, 37.076
1305.473, 1.036
1306.665, 162.809
1307.857, 35.624
1309.049, 35.440
1310.241, 165.218
1311.433, 5.925
1312.624, 36.756
1313.815, 129.380
1315.006, 44.971
1316.197, 196.104
1317.388, 108.630
1318.578, 84.122
1319.768, 171.756
1320.958, 43.182
1322.148, 154.571
1323.338, 136.038
1324.527, 80.364
1325.716, 141.695
1326.906, 130.955
1328.094, 42.182
1329.283, 190.526
1330.471, 101.683
1331.660, 141.804
1332.848, 174.892
1334.035, 94.945
1335.223, 172.968
1336.411, 156.948
1337.598, 88.891
1338.785, 180.858
1339.972, 87.726
1341.158, 107.554
1342.345, 176.383
1343.531, 159.141
1344.717, 169.862
1345.903, 187.749
1347.089, 135.400
1348.274, 167.985
1349.459, 165.663
1350.644, 145.175
1351.829, 197.815
1353.014, 128.253
1354.198, 190.650
1355.383, 154.012
1356.567, 153.337
1357.751, 257.626
1358.934, 207.940
1360.118, 166.156
1361.301, 185.334
1362.484, 139.513
1363.667, 147.053
1364.850, 223.667
1366.032, 154.223
1367.215, 196.200
1368.397, 207.140
1369.579, 188.041
1370.760, 235.901
1371.942, 200.725
1373.123, 119.606
1374.304, 248.366
1375.485, 157.200
1376.666, 211.004
1377.847, 238.148
1379.027, 166.084
1380.207, 252.192
1381.387, 285.504
1382.567, 204.308
1383.747, 253.627
1384.926, 152.953
1386.105, 183.594
1387.284, 251.129
1388.463, 183.957
1389.641, 153.240
1390.820, 245.311
1391.998, 154.109
1393.176, 236.402
1394.354, 177.314
1395.532, 152.575
1396.709, 225.937
1397.886, 108.366
1399.063, 154.498
1400.240, 234.910
1401.417, 77.374
1402.593, 111.576
1403.769, 174.224
1404.945, 74.340
1406.121, 157.844
1407.297, 171.163
1408.472, 84.020
1409.648, 212.147
1410.823, 103.579
1411.998, 93.954
1413.172, 209.950
1414.347, 86.756
1415.521, 177.686
1416.695, 160.266
1417.869, 63.190
1419.043, 114.334
1420.216, 91.634
1421.390, 106.193
1422.563, 121.033
1423.736, 102.273
1424.909, 95.308
1426.081, 157.487
1427.254, 53.067
1428.426, 114.272
1429.598, 150.430
1430.770, 73.713
1431.941, 143.280
1433.113, 97.667
1434.284, 54.985
1435.455, 143.226
1436.626, 71.092
1437.796, 52.783
1438.967, 191.155
1440.137, 96.875
1441.307, 67.915
1442.477, 156.471
1443.646, 49.115
1444.816, 132.661
1445.985, 94.055
1447.154, 107.067
1448.323, 107.410
1449.492, 70.262
1450.660, 68.318
1451.829, 131.968
1452.997, 33.066
1454.165, 101.008
1455.332, 84.398
1456.500, 15.925
1457.667, 114.667
1458.834, 119.054
1460.001, 22.471
1461.168, 139.453
1462.335, 79.219
1463.501, 36.108
1464.667, 118.391
1465.833, 51.541
1466.999, 83.679
1468.165, 125.565
1469.330, 21.741
1470.495, 136.035
1471.660, 70.174
1472.825, 56.753
1473.990, 127.955
1475.154, 53.750
1476.318, 74.228
1477.482, 87.945
1478.646, 38.377
1479.810, 63.069
1480.974, 135.511
1482.137, 42.604
1483.300, 81.763
1484.463, 82.671
1485.626, 8.240
1486.788, 137.592
1487.950, 71.599
1489.113, 11.888
1490.275, 146.011
1491.436, 6.542
1492.598, 48.376
1493.759, 152.482
1494.920, 132.402
1496.081, 123.116
1497.242, 155.108
1498.403, 26.528
1499.563, 93.385
1500.724, 58.890
1501.884, 29.838
1503.043, 99.628
1504.203, 82.330
1505.363, 4.616
1506.522, 131.187
1507.681, 70.913
1508.840, 46.615
1509.999, 81.400
