##NAMES=Brazilianite
##RRUFFID=R050319
##IDEAL CHEMISTRY=NaAl_3_(PO_4_)_2_(OH)_4_
##LOCALITY=Minas Gerais, Brazil
##OWNER=RRUFF
##SOURCE=American Museum of Natural History
##DESCRIPTION=Pale green fragment
##STATUS=The identification of this mineral has been confirmed by X-ray diffraction and chemical analysis
##URL=rruff.info/R050319
##MEASURED CHEMISTRY=Na_1.00_Al_3.00_(PO_4_)_2_(OH)_4_
##PIN_ID=M00275
##ORIENTATION=Laser parallel to b* (0 1 0). Fiducial mark perpendicular to laser is parallel to c [0 0 1]
78.65900, 0.0000000E+00
79.89500, 446.6973
81.13100, 1267.808
82.36700, 2395.349
83.60200, 3812.247
84.83700, 4647.863
86.07200, 5396.725
87.30800, 5742.607
88.54200, 5699.785
89.77700, 5069.102
91.01200, 4486.257
92.24600, 3774.770
93.48000, 3475.652
94.71400, 3862.994
95.94800, 4475.938
97.18200, 4868.756
98.41600, 5226.119
99.64900, 6015.295
100.8830, 7878.063
102.1160, 10433.83
103.3490, 11914.52
104.5820, 11706.30
105.8150, 9603.445
107.0470, 6788.141
108.2800, 4838.184
109.5120, 3379.278
110.7440, 2323.257
111.9760, 1541.986
113.2080, 1527.349
114.4400, 1684.237
115.6710, 1510.556
116.9030, 1166.204
118.1340, 878.1592
119.3650, 696.4268
120.5960, 255.9971
121.8270, 156.8613
123.0580, 170.0537
124.2880, 220.8428
125.5190, 437.5195
126.7490, 345.2266
127.9790, 170.0557
129.2090, 368.1016
130.4390, 219.4346
131.6680, 192.0947
132.8980, 235.5059
134.1270, 126.2109
135.3560, 131.8135
136.5850, 66.82520
137.8140, 198.6943
139.0430, 146.7266
140.2710, 273.2529
141.5000, 501.2588
142.7280, 513.7295
143.9560, 806.6484
145.1840, 985.0049
146.4120, 1040.784
147.6390, 1086.977
148.8670, 833.5703
150.0940, 769.5557
151.3210, 632.9219
152.5490, 583.5693
153.7750, 492.3594
155.0020, 495.6631
156.2290, 571.9639
157.4550, 458.3623
158.6810, 777.7188
159.9080, 910.7441
161.1340, 1402.562
162.3590, 2298.430
163.5850, 3135.105
164.8110, 3975.113
166.0360, 4591.174
167.2610, 5503.270
168.4860, 7107.408
169.7110, 9166.598
170.9360, 11153.23
172.1610, 12084.54
173.3850, 10774.92
174.6100, 8403.307
175.8340, 5897.354
177.0580, 3916.010
178.2820, 2526.373
179.5050, 1495.565
180.7290, 907.6768
181.9520, 607.8408
183.1760, 342.1592
184.3990, 268.6348
185.6220, 199.2676
186.8450, 151.0566
188.0670, 96.28613
189.2900, 153.2764
190.5120, 182.7471
191.7340, 257.7363
192.9560, 371.2031
194.1780, 441.8281
195.4000, 591.6104
196.6220, 754.5469
197.8430, 836.6377
199.0640, 993.8809
200.2860, 1090.275
201.5070, 1164.278
202.7270, 1234.142
203.9480, 1278.355
205.1690, 1326.347
206.3890, 1343.484
207.6090, 1422.770
208.8290, 1560.200
210.0490, 1725.775
211.2690, 1620.495
212.4890, 1665.358
213.7080, 1554.365
214.9280, 1622.515
216.1470, 1535.806
217.3660, 1749.237
218.5850, 1870.811
219.8030, 1579.523
221.0220, 1614.376
222.2400, 1375.366
223.4590, 1254.496
224.6770, 1064.763
225.8950, 1125.848
227.1120, 1310.961
228.3300, 1648.259
229.5480, 1769.529
230.7650, 1847.515
231.9820, 1662.729
233.1990, 1435.293
234.4160, 1176.898
235.6330, 1025.850
236.8490, 934.1465
238.0660, 1207.059
239.2820, 1022.236
240.4980, 1518.140
241.7140, 1810.931
242.9300, 1936.102
244.1460, 2225.064
245.3610, 2141.576
246.5770, 2028.636
247.7920, 2040.212
249.0070, 2251.841
250.2220, 2869.957
251.4370, 3487.434
252.6510, 3542.558
253.8660, 3041.568
255.0800, 2236.721
256.2940, 1399.101
257.5080, 896.7012
258.7220, 465.5127
259.9360, 338.5303
261.1490, 303.7461
262.3630, 93.15430
263.5760, 198.7432
264.7890, 311.5117
266.0020, 440.4561
267.2150, 619.5713
268.4270, 746.7119
269.6400, 1069.021
270.8520, 1089.930
272.0640, 1269.530
273.2760, 1580.608
274.4880, 1676.615
275.7000, 1748.314
276.9120, 1769.515
278.1230, 1886.317
279.3340, 1972.636
280.5450, 2080.627
281.7560, 2214.658
282.9670, 2327.106
284.1780, 2334.221
285.3880, 2072.461
286.5980, 1870.825
287.8090, 1361.312
289.0190, 1003.920
290.2290, 648.6475
291.4380, 390.4941
292.6480, 234.4570
293.8570, 83.76562
295.0670, 678.7266
296.2760, 138.9697
297.4850, 1242.407
298.6930, 1062.896
299.9020, 56.49316
301.1110, 210.1982
302.3190, 380.0059
303.5270, 538.9150
304.7350, 1173.918
305.9430, 1406.015
307.1510, 1884.201
308.3580, 2299.471
309.5660, 2809.823
310.7730, 3446.255
311.9800, 3725.770
313.1870, 3976.362
314.3940, 4096.039
315.6010, 4167.795
316.8070, 4008.621
318.0130, 3986.529
319.2200, 3953.518
320.4260, 3931.589
321.6310, 3865.743
322.8370, 3563.984
324.0430, 3275.312
325.2480, 3136.729
326.4540, 2865.522
327.6590, 2665.829
328.8640, 2463.514
330.0680, 2127.286
331.2730, 1950.148
332.4780, 1632.098
333.6820, 1561.084
334.8860, 1535.159
336.0900, 1332.321
337.2940, 1307.569
338.4980, 1243.905
339.7010, 1272.326
340.9050, 1248.834
342.1080, 1497.428
343.3110, 1453.106
344.5140, 2024.869
345.7170, 2438.717
346.9200, 2901.648
348.1220, 3711.663
349.3240, 4432.764
350.5270, 5431.944
351.7290, 6632.209
352.9310, 7508.557
354.1320, 8920.986
355.3340, 9689.500
356.5350, 10544.09
357.7370, 10862.76
358.9380, 10396.51
360.1390, 8898.350
361.3400, 7804.263
362.5400, 6216.256
363.7410, 4940.328
364.9410, 3939.480
366.1410, 2963.710
367.3410, 2308.018
368.5410, 1608.404
369.7410, 1218.869
370.9400, 735.4570
372.1400, 244.1475
373.3390, 79.06934
374.5380, 291.2480
375.7370, 375.4873
376.9360, 447.8281
378.1350, 498.7344
379.3330, 335.9395
380.5310, 431.6602
381.7300, 333.5127
382.9280, 149.4492
384.1260, 302.3887
385.3230, 302.3955
386.5210, 439.4707
387.7180, 583.6748
388.9160, 484.0723
390.1130, 402.6172
391.3100, 308.2734
392.5060, 114.9922
393.7030, 43.31250
394.9000, 213.7041
396.0960, 524.1885
397.2920, 765.7676
398.4880, 1069.441
399.6840, 1449.212
400.8800, 1763.076
402.0750, 2090.035
403.2710, 2489.797
404.4660, 3230.232
405.6610, 3348.502
406.8560, 3797.005
408.0510, 4384.515
409.2450, 4661.133
410.4400, 4961.842
411.6340, 5115.703
412.8280, 4953.730
414.0220, 5066.994
415.2160, 4717.444
416.4100, 4404.143
417.6030, 4182.048
418.7970, 4089.194
419.9900, 3782.586
421.1830, 3643.212
422.3760, 3775.044
423.5690, 3654.084
424.7610, 3435.330
425.9540, 3306.736
427.1460, 3065.302
428.3380, 3042.041
429.5300, 2968.949
430.7220, 3163.977
431.9140, 3268.129
433.1050, 3403.395
434.2970, 3511.779
435.4880, 3646.254
436.6790, 3952.819
437.8700, 4323.466
439.0610, 4207.203
440.2510, 4268.332
441.4420, 3845.243
442.6320, 3317.236
443.8220, 2871.313
445.0120, 2524.473
446.2020, 2133.712
447.3910, 1943.028
448.5810, 1687.450
449.7700, 1715.954
450.9600, 1808.540
452.1490, 1724.212
453.3370, 1870.964
454.5260, 1803.797
455.7150, 2031.707
456.9030, 2030.694
458.0910, 2109.766
459.2800, 2336.913
460.4670, 2462.145
461.6550, 2704.457
462.8430, 2869.854
464.0300, 2969.332
465.2180, 3223.888
466.4050, 3111.521
467.5920, 3070.229
468.7790, 2747.014
469.9650, 2456.875
471.1520, 2137.809
472.3380, 1805.818
473.5250, 1502.490
474.7110, 994.0547
475.8970, 892.2852
477.0820, 610.5898
478.2680, 353.9707
479.4540, 259.4238
480.6390, 209.5078
481.8240, 225.3613
483.0090, 405.2070
484.1940, 459.9453
485.3780, 786.7520
486.5630, 995.6270
487.7470, 1165.572
488.9320, 1303.588
490.1160, 1641.668
491.3000, 2177.818
492.4830, 2543.037
493.6670, 2965.322
494.8500, 3393.674
496.0340, 4109.094
497.2170, 4599.576
498.4000, 5018.129
499.5820, 5564.748
500.7650, 5822.434
501.9480, 6217.186
503.1300, 6330.998
504.3120, 6485.875
505.4940, 6475.816
506.6760, 6731.820
507.8580, 6809.893
509.0390, 6918.025
510.2210, 6926.219
511.4020, 7224.479
512.5830, 7558.801
513.7640, 7645.184
514.9450, 7661.633
516.1250, 8061.547
517.3060, 8406.738
518.4860, 8473.406
519.6660, 8819.211
520.8460, 9312.330
522.0260, 9996.383
523.2060, 10516.32
524.3850, 11420.70
525.5650, 12128.74
526.7440, 12740.00
527.9230, 13403.37
529.1020, 13946.42
530.2810, 14581.76
531.4590, 14686.65
532.6380, 14709.12
533.8160, 14586.85
534.9940, 14184.62
536.1720, 13727.33
537.3500, 12911.12
538.5270, 12173.98
539.7050, 11532.93
540.8820, 10834.00
542.0590, 10216.12
543.2360, 9612.316
544.4130, 9383.574
545.5900, 9294.973
546.7660, 9492.863
547.9430, 9611.252
549.1190, 10442.96
550.2950, 10987.49
551.4710, 11773.14
552.6470, 13039.25
553.8220, 14453.52
554.9980, 15884.67
556.1730, 17382.81
557.3480, 18449.81
558.5230, 19103.91
559.6980, 19712.73
560.8730, 20179.99
562.0470, 20358.97
563.2220, 20220.98
564.3960, 19838.98
565.5700, 19122.37
566.7440, 18216.68
567.9170, 16832.35
569.0910, 15344.32
570.2640, 14039.15
571.4380, 12165.57
572.6110, 11037.16
573.7840, 9866.020
574.9570, 8844.605
576.1290, 8218.688
577.3020, 7692.533
578.4740, 7356.365
579.6460, 7296.617
580.8180, 7333.859
581.9900, 7608.719
583.1620, 8038.768
584.3330, 8449.994
585.5040, 9264.164
586.6760, 10377.35
587.8470, 11433.56
589.0180, 13124.75
590.1880, 14646.78
591.3590, 16476.98
592.5290, 18665.74
593.7000, 20780.41
594.8700, 22856.29
596.0400, 24001.68
597.2090, 25286.15
598.3790, 25787.70
599.5490, 24812.16
600.7180, 23122.05
601.8870, 20606.79
603.0560, 17660.70
604.2250, 15208.56
605.3940, 13006.64
606.5620, 11117.36
607.7300, 9784.941
608.8990, 8747.271
610.0670, 7757.873
611.2350, 6767.477
612.4020, 6296.355
613.5700, 5948.996
614.7370, 5703.639
615.9050, 5109.021
617.0720, 4822.977
618.2390, 4506.377
619.4060, 4247.055
620.5720, 4009.904
621.7390, 3784.566
622.9050, 3606.293
624.0710, 3509.018
625.2370, 3377.736
626.4030, 3629.449
627.5690, 3733.158
628.7340, 3766.859
629.9000, 3922.555
631.0650, 3922.246
632.2300, 3885.945
633.3950, 4090.635
634.5600, 3968.314
635.7240, 3915.984
636.8890, 3768.656
638.0530, 3629.109
639.2170, 3677.740
640.3810, 3375.859
641.5450, 3345.465
642.7080, 3096.055
643.8720, 3092.631
645.0350, 2946.189
646.1980, 3262.082
647.3610, 3162.918
648.5240, 3329.426
649.6870, 3626.912
650.8490, 3629.191
652.0120, 3886.641
653.1740, 4062.975
654.3360, 4182.154
655.4980, 4452.539
656.6600, 4693.826
657.8210, 4887.473
658.9830, 5030.447
660.1440, 4626.465
661.3050, 4709.668
662.4660, 4132.842
663.6270, 4036.457
664.7870, 3641.314
665.9480, 3212.215
667.1080, 2826.920
668.2680, 2365.738
669.4280, 2075.137
670.5880, 1669.721
671.7480, 1514.350
672.9070, 1372.461
674.0670, 960.2422
675.2260, 678.1309
676.3850, 623.4941
677.5440, 600.5898
678.7030, 465.1191
679.8610, 461.1211
681.0200, 369.4727
682.1780, 158.3730
683.3360, 177.0898
684.4940, 103.1230
685.6520, 73.58398
686.8090, 12.25586
687.9670, 111.2715
689.1240, 8.486328
690.2810, 146.1465
691.4380, 187.2676
692.5950, 218.3828
693.7520, 308.9375
694.9080, 66.62891
696.0650, 124.6914
697.2210, 42.80273
698.3770, 336.3242
699.5330, 181.4316
700.6880, 268.9258
701.8440, 189.0078
702.9990, 167.3730
704.1550, 251.9180
705.3100, 71.96289
706.4650, 123.4004
707.6190, 251.1621
708.7740, 231.2012
709.9290, 47.56445
711.0830, 63.16992
712.2370, 17.98438
713.3910, 39.70117
714.5450, 120.0000
715.6980, 88.86328
716.8520, 269.1328
718.0050, 107.9609
719.1580, 104.0645
720.3110, 214.6211
721.4640, 444.1133
722.6170, 161.5410
723.7700, 275.2871
724.9220, 467.1934
726.0740, 328.9355
727.2260, 47.09375
728.3780, 212.8496
729.5300, 204.8203
730.6810, 173.7148
731.8330, 255.1934
732.9840, 241.9336
734.1350, 313.6016
735.2860, 305.4277
736.4370, 218.4082
737.5880, 406.9902
738.7380, 210.5293
739.8880, 226.4707
741.0390, 220.0996
742.1890, 226.9551
743.3380, 285.0000
744.4880, 331.5039
745.6380, 373.4004
746.7870, 274.8320
747.9360, 415.5762
749.0850, 491.7344
750.2340, 321.4102
751.3830, 508.3066
752.5310, 405.7539
753.6800, 290.5488
754.8280, 331.5957
755.9760, 292.7598
757.1240, 384.1289
758.2720, 364.7324
759.4190, 497.6016
760.5670, 578.2070
761.7140, 593.1465
762.8610, 634.6211
764.0080, 640.6504
765.1550, 585.1836
766.3020, 636.7090
767.4480, 519.1602
768.5950, 528.5938
769.7410, 727.5508
770.8870, 503.8223
772.0330, 623.9766
773.1780, 579.0430
774.3240, 405.0352
775.4690, 319.9453
776.6140, 420.7734
777.7590, 348.5254
778.9040, 411.1953
780.0490, 481.7871
781.1940, 535.3008
782.3380, 487.7363
783.4820, 368.0957
784.6260, 280.3750
785.7700, 423.5664
786.9140, 462.6816
788.0580, 319.7207
789.2010, 514.6758
790.3450, 311.5508
791.4880, 250.3398
792.6310, 421.0410
793.7730, 310.6621
794.9160, 285.2012
796.0590, 351.6523
797.2010, 213.0215
798.3430, 344.2930
799.4850, 353.4785
800.6270, 313.5840
801.7690, 427.6035
802.9100, 407.5449
804.0520, 312.4082
805.1930, 125.1836
806.3340, 87.83594
807.4750, 204.3535
808.6160, 349.7695
809.7560, 303.1035
810.8970, 341.2383
812.0370, 245.5098
813.1770, 215.5742
814.3170, 295.5410
815.4570, 131.4199
816.5960, 15.18164
817.7360, 390.7754
818.8750, 407.2930
820.0140, 303.7285
821.1530, 271.0820
822.2920, 340.2754
823.4310, 314.9668
824.5690, 342.6094
825.7070, 340.3594
826.8460, 350.9902
827.9840, 348.8613
829.1220, 270.2598
830.2590, 282.4844
831.3970, 164.8066
832.5340, 124.1152
833.6710, 59.54492
834.8080, 22.83203
835.9450, 169.3574
837.0820, 48.41016
838.2190, 102.7207
839.3550, 279.8594
840.4910, 186.1914
841.6270, 11.94922
842.7630, 86.91406
843.8990, 31.60742
845.0350, 74.53711
846.1700, 66.78906
847.3060, 18.56641
848.4410, 158.8652
849.5760, 107.9922
850.7100, 120.6387
851.8450, 125.1641
852.9800, 23.82617
854.1140, 98.83984
855.2480, 185.8125
856.3820, 187.6719
857.5160, 134.9629
858.6500, 32.59180
859.7830, 47.97852
860.9170, 212.5352
862.0500, 1.193359
863.1830, 319.0996
864.3160, 44.61719
865.4480, 56.80078
866.5810, 23.01562
867.7130, 49.35938
868.8460, 104.3223
869.9780, 296.7754
871.1100, 47.31836
872.2410, 196.5234
873.3730, 48.88867
874.5050, 84.20117
875.6360, 77.98828
876.7670, 36.66211
877.8980, 45.03516
879.0290, 75.58398
880.1590, 42.53516
881.2900, 43.68555
882.4200, 17.99414
883.5500, 46.54883
884.6800, 15.19922
885.8100, 3.013672
886.9400, 126.0703
888.0690, 86.02734
889.1990, 46.89844
890.3280, 27.60352
891.4570, 71.08984
892.5860, 93.68945
893.7140, 79.78906
894.8430, 197.0391
895.9710, 60.28516
897.1000, 1.574219
898.2280, 56.11133
899.3560, 110.2344
900.4830, 162.4160
901.6110, 137.0352
902.7380, 11.63477
903.8660, 46.78516
904.9930, 94.23828
906.1200, 2.265625
907.2460, 9.107422
908.3730, 211.2148
909.5000, 163.6641
910.6260, 173.0801
911.7520, 272.6934
912.8780, 209.0957
914.0040, 209.9902
915.1290, 188.3691
916.2550, 167.7324
917.3800, 248.0879
918.5050, 358.4336
919.6300, 397.4199
920.7550, 491.4434
921.8800, 542.7695
923.0040, 630.3066
924.1290, 679.5859
925.2530, 694.8887
926.3770, 686.2793
927.5010, 762.9395
928.6250, 789.0996
929.7480, 893.5117
930.8720, 1102.607
931.9950, 1177.447
933.1180, 1475.324
934.2410, 1644.107
935.3640, 1963.975
936.4860, 1744.475
937.6090, 2417.797
938.7310, 2340.090
939.8530, 2728.623
940.9750, 3166.111
942.0970, 3299.096
943.2180, 3885.002
944.3400, 4183.949
945.4610, 4542.504
946.5820, 4841.432
947.7030, 5405.258
948.8240, 5545.582
949.9450, 5772.145
951.0650, 5989.246
952.1860, 5924.848
953.3060, 5865.254
954.4260, 6202.732
955.5460, 6181.543
956.6650, 6239.020
957.7850, 6295.213
958.9040, 6699.311
960.0230, 7086.738
961.1420, 7444.348
962.2610, 7907.064
963.3800, 8723.801
964.4990, 9996.164
965.6170, 10960.88
966.7350, 12163.62
967.8530, 13701.70
968.9710, 15123.77
970.0890, 16629.21
971.2070, 17846.14
972.3240, 18789.38
973.4410, 19119.09
974.5580, 19644.99
975.6750, 19367.99
976.7920, 19354.36
977.9090, 19332.12
979.0250, 19996.10
980.1410, 19982.26
981.2580, 20804.63
982.3740, 22191.18
983.4890, 23764.90
984.6050, 25074.47
985.7200, 26680.56
986.8360, 27372.45
987.9510, 27659.89
989.0660, 27347.79
990.1810, 25511.39
991.2950, 23562.51
992.4100, 21267.69
993.5240, 18861.91
994.6390, 16877.79
995.7530, 15198.47
996.8660, 13656.31
997.9800, 12491.72
999.0940, 11787.04
1000.207, 11614.99
1001.320, 11425.54
1002.433, 11481.48
1003.546, 11716.28
1004.659, 11984.84
1005.772, 12783.37
1006.884, 13493.74
1007.996, 14741.51
1009.108, 16298.32
1010.220, 18526.71
1011.332, 20473.38
1012.444, 23141.80
1013.555, 26078.99
1014.666, 28536.70
1015.777, 31248.00
1016.888, 33421.73
1017.999, 35105.14
1019.110, 35850.11
1020.220, 35619.55
1021.331, 34636.73
1022.441, 33104.36
1023.551, 31410.63
1024.661, 29252.64
1025.770, 26918.48
1026.880, 25434.20
1027.989, 23615.61
1029.098, 22166.74
1030.207, 20855.12
1031.316, 19631.96
1032.425, 18601.32
1033.533, 17795.56
1034.642, 17373.85
1035.750, 16951.20
1036.858, 15916.60
1037.966, 15529.01
1039.073, 14890.86
1040.181, 14410.38
1041.288, 13542.00
1042.396, 12896.69
1043.503, 12216.43
1044.610, 11296.23
1045.716, 10796.10
1046.823, 9907.021
1047.929, 9131.193
1049.036, 8332.234
1050.142, 7971.682
1051.248, 7483.842
1052.353, 7033.055
1053.459, 6708.277
1054.564, 6230.832
1055.670, 6094.232
1056.775, 5937.691
1057.880, 5766.217
1058.985, 6223.801
1060.089, 6185.922
1061.194, 6576.342
1062.298, 6675.238
1063.402, 7443.076
1064.506, 7866.939
1065.610, 8647.906
1066.713, 9005.941
1067.817, 9858.037
1068.920, 10390.20
1070.023, 10845.69
1071.126, 11577.98
1072.229, 11620.32
1073.332, 11732.52
1074.435, 11775.01
1075.537, 11553.59
1076.639, 11697.25
1077.741, 11513.97
1078.843, 11172.75
1079.945, 11175.58
1081.046, 11003.48
1082.148, 10647.45
1083.249, 10367.49
1084.350, 10157.60
1085.451, 9544.188
1086.551, 9356.918
1087.652, 8763.254
1088.752, 8447.008
1089.853, 8279.703
1090.953, 7607.229
1092.053, 7087.111
1093.152, 7166.656
1094.252, 6480.357
1095.351, 6213.115
1096.451, 6182.930
1097.550, 5659.121
1098.649, 5574.137
1099.748, 5525.561
1100.846, 5519.855
1101.945, 5284.457
1103.043, 5582.910
1104.141, 5798.578
1105.239, 5673.914
1106.337, 6111.457
1107.434, 6320.902
1108.532, 7294.395
1109.629, 8187.277
1110.726, 9216.898
1111.823, 10603.82
1112.920, 12009.56
1114.017, 13203.09
1115.113, 14073.45
1116.210, 14571.36
1117.306, 14445.37
1118.402, 13590.52
1119.498, 12186.63
1120.593, 10403.62
1121.689, 9295.539
1122.784, 8435.145
1123.879, 7354.715
1124.974, 6222.162
1126.069, 5464.650
1127.164, 4807.199
1128.259, 3905.326
1129.353, 3592.029
1130.447, 3169.775
1131.541, 2591.578
1132.635, 2402.420
1133.729, 2049.301
1134.822, 2025.238
1135.916, 1951.531
1137.009, 1524.043
1138.102, 1601.760
1139.195, 1355.879
1140.288, 1388.459
1141.380, 1422.891
1142.473, 1274.326
1143.565, 1342.703
1144.657, 1077.127
1145.749, 1233.594
1146.841, 1232.107
1147.932, 1013.518
1149.024, 1053.115
1150.115, 854.8848
1151.206, 774.7754
1152.297, 898.5469
1153.388, 744.1895
1154.479, 876.5703
1155.569, 539.4023
1156.659, 711.5762
1157.750, 680.4805
1158.839, 761.4277
1159.929, 794.1602
1161.019, 635.2207
1162.108, 552.3359
1163.198, 429.4863
1164.287, 500.6602
1165.376, 552.8730
1166.465, 319.1172
1167.553, 384.3867
1168.642, 270.7031
1169.730, 287.0508
1170.818, 249.4375
1171.906, 307.8535
1172.994, 389.2930
1174.082, 307.7578
1175.170, 297.2461
1176.257, 231.7559
1177.344, 209.2930
1178.431, 14.14453
1179.518, 69.43750
1180.605, 23.95898
1181.691, 126.6621
1182.778, 36.30469
1183.864, 85.03125
1184.950, 66.63086
1186.036, 16.31250
1187.122, 46.01367
1188.207, 216.7363
1189.292, 139.4766
1190.378, 26.76367
1191.463, 90.99414
1192.548, 99.29102
1193.632, 135.5176
1194.717, 69.71680
1195.801, 61.19531
1196.886, 63.97070
1197.970, 120.7637
1199.054, 114.5723
1200.137, 71.39258
1201.221, 91.41992
1202.305, 12.95703
1203.388, 119.9121
1204.471, 72.89453
1205.554, 6.714844
1206.637, 140.5469
1207.719, 98.61133
1208.802, 129.2070
1209.884, 119.0312
1210.966, 179.1387
1212.048, 18.41406
1213.130, 8.271484
1214.212, 38.13281
1215.293, 8.996094
1216.374, 10.89258
1217.456, 121.7520
1218.536, 30.36914
1219.617, 26.49609
1220.698, 14.36719
1221.778, 118.6445
1222.859, 208.8262
1223.939, 8.886719
1225.019, 59.60547
1226.099, 53.67383
1227.178, 57.97852
1228.258, 52.31250
1229.337, 109.1055
1230.417, 87.11328
1231.496, 89.55859
1232.574, 84.07031
1233.653, 68.16016
1234.732, 73.36914
1235.810, 43.84570
1236.888, 76.51953
1237.966, 95.88672
1239.044, 172.5078
1240.122, 127.7539
1241.199, 20.01562
1242.277, 142.2676
1243.354, 9.517578
1244.431, 87.70703
1245.508, 54.46680
1246.585, 38.63477
1247.661, 36.79688
1248.738, 56.96094
1249.814, 100.8984
1250.890, 15.50586
1251.966, 10.14258
1253.042, 85.76367
1254.117, 211.2266
1255.193, 87.59570
1256.268, 194.5664
1257.343, 36.77344
1258.418, 144.3672
1259.493, 214.2695
1260.567, 114.1641
1261.642, 163.0449
1262.716, 176.0215
