##NAMES=Brazilianite
##RRUFFID=R050319
##IDEAL CHEMISTRY=NaAl_3_(PO_4_)_2_(OH)_4_
##LOCALITY=Minas Gerais, Brazil
##OWNER=RRUFF
##SOURCE=American Museum of Natural History
##DESCRIPTION=Pale green fragment
##STATUS=The identification of this mineral has been confirmed by X-ray diffraction and chemical analysis
##URL=rruff.info/R050319
##MEASURED CHEMISTRY=Na_1.00_Al_3.00_(PO_4_)_2_(OH)_4_
##PIN_ID=M00183
##ORIENTATION=Laser parallel to a* (1 0 0). Fiducial mark perpendicular to laser is parallel to -b [0 -1 0]
81.13100, 0.0000000E+00
82.36700, 881.6914
83.60200, 1078.933
84.83700, 1595.825
86.07200, 2129.957
87.30800, 2156.247
88.54200, 1865.633
89.77700, 1636.103
91.01200, 1626.134
92.24600, 1516.104
93.48000, 2032.285
94.71400, 2824.447
95.94800, 3792.239
97.18200, 4315.819
98.41600, 4414.725
99.64900, 4938.105
100.8830, 5856.764
102.1160, 6368.344
103.3490, 6238.271
104.5820, 6091.750
105.8150, 5831.615
107.0470, 5575.311
108.2800, 4975.948
109.5120, 4172.355
110.7440, 3388.381
111.9760, 2869.889
113.2080, 2312.783
114.4400, 1976.169
115.6710, 1473.150
116.9030, 1123.215
118.1340, 746.4590
119.3650, 482.4766
120.5960, 144.5693
121.8270, 92.35742
123.0580, 164.3867
124.2880, 289.1455
125.5190, 324.0537
126.7490, 307.8242
127.9790, 288.5000
129.2090, 108.5205
130.4390, 107.5791
131.6680, 145.8281
132.8980, 317.6836
134.1270, 396.9619
135.3560, 934.6406
136.5850, 1249.696
137.8140, 1902.107
139.0430, 2355.855
140.2710, 2761.923
141.5000, 3029.295
142.7280, 3200.956
143.9560, 3383.902
145.1840, 3392.068
146.4120, 3074.559
147.6390, 2709.168
148.8670, 2635.234
150.0940, 2201.000
151.3210, 2244.750
152.5490, 2423.400
153.7750, 2890.916
155.0020, 3471.271
156.2290, 4381.464
157.4550, 4793.596
158.6810, 5332.709
159.9080, 5707.826
161.1340, 6134.953
162.3590, 6472.086
163.5850, 6307.229
164.8110, 5926.384
166.0360, 5475.535
167.2610, 4792.643
168.4860, 4419.711
169.7110, 3812.747
170.9360, 3088.762
172.1610, 2550.764
173.3850, 2377.759
174.6100, 1963.752
175.8340, 1766.616
177.0580, 1567.129
178.2820, 1361.271
179.5050, 1421.282
180.7290, 1292.454
181.9520, 1439.827
183.1760, 1458.284
184.3990, 1502.777
185.6220, 1592.311
186.8450, 1703.885
188.0670, 1965.501
189.2900, 1964.158
190.5120, 2074.854
191.7340, 1944.586
192.9560, 1994.358
194.1780, 1887.167
195.4000, 1895.012
196.6220, 1875.895
197.8430, 1624.813
199.0640, 1498.768
200.2860, 1333.755
201.5070, 1427.778
202.7270, 1340.835
203.9480, 1340.928
205.1690, 1096.053
206.3890, 1206.444
207.6090, 1456.745
208.8290, 1622.329
210.0490, 1915.470
211.2690, 2311.811
212.4890, 2472.663
213.7080, 2704.972
214.9280, 2948.465
216.1470, 2907.443
217.3660, 3045.945
218.5850, 2864.006
219.8030, 2818.123
221.0220, 2794.715
222.2400, 2534.879
223.4590, 2612.074
224.6770, 2558.302
225.8950, 2586.561
227.1120, 2441.850
228.3300, 2601.085
229.5480, 2565.904
230.7650, 2677.144
231.9820, 2832.289
233.1990, 2951.055
234.4160, 3080.804
235.6330, 3081.713
236.8490, 3069.864
238.0660, 3116.249
239.2820, 2884.157
240.4980, 2655.992
241.7140, 2468.783
242.9300, 2356.562
244.1460, 2220.354
245.3610, 1822.173
246.5770, 1640.032
247.7920, 1267.937
249.0070, 1193.473
250.2220, 1139.203
251.4370, 1039.266
252.6510, 997.2119
253.8660, 819.3164
255.0800, 832.5723
256.2940, 865.9688
257.5080, 772.5000
258.7220, 982.1582
259.9360, 1153.937
261.1490, 839.8301
262.3630, 729.8301
263.5760, 871.9297
264.7890, 958.1240
266.0020, 999.4062
267.2150, 798.7734
268.4270, 949.3457
269.6400, 899.6943
270.8520, 1023.889
272.0640, 947.4531
273.2760, 1103.156
274.4880, 1097.409
275.7000, 1112.508
276.9120, 1131.229
278.1230, 1007.899
279.3340, 1005.335
280.5450, 895.4336
281.7560, 735.1934
282.9670, 871.4561
284.1780, 851.6895
285.3880, 731.9707
286.5980, 925.2969
287.8090, 919.6680
289.0190, 1036.082
290.2290, 1102.539
291.4380, 1066.031
292.6480, 1101.551
293.8570, 1100.516
295.0670, 1093.014
296.2760, 1136.188
297.4850, 1111.748
298.6930, 1222.318
299.9020, 1291.896
301.1110, 1171.484
302.3190, 1148.086
303.5270, 1396.697
304.7350, 1519.320
305.9430, 1326.955
307.1510, 1893.604
308.3580, 1748.164
309.5660, 1914.936
310.7730, 1819.619
311.9800, 2102.316
313.1870, 2156.029
314.3940, 1976.750
315.6010, 2045.488
316.8070, 1998.238
318.0130, 1764.002
319.2200, 1843.783
320.4260, 1353.574
321.6310, 1217.383
322.8370, 1218.211
324.0430, 983.0547
325.2480, 564.9160
326.4540, 541.8008
327.6590, 280.6992
328.8640, 131.6152
330.0680, 108.5508
331.2730, 20.50000
332.4780, 211.5508
333.6820, 416.6562
334.8860, 145.8730
336.0900, 342.1270
337.2940, 463.4707
338.4980, 243.9336
339.7010, 301.4609
340.9050, 387.0664
342.1080, 406.7715
343.3110, 291.5801
344.5140, 310.4648
345.7170, 215.4277
346.9200, 216.4492
348.1220, 195.5254
349.3240, 255.6543
350.5270, 107.8477
351.7290, 61.07422
352.9310, 83.42578
354.1320, 261.9961
355.3340, 191.1621
356.5350, 139.1523
357.7370, 130.9062
358.9380, 0.4765630
360.1390, 392.8965
361.3400, 344.1836
362.5400, 531.4160
363.7410, 507.6387
364.9410, 611.8965
366.1410, 552.1699
367.3410, 794.4746
368.5410, 689.8164
369.7410, 636.1934
370.9400, 885.6055
372.1400, 548.0508
373.3390, 767.5508
374.5380, 818.0918
375.7370, 475.6680
376.9360, 520.2715
378.1350, 573.9043
379.3330, 565.5566
380.5310, 596.5488
381.7300, 497.9414
382.9280, 574.6660
384.1260, 603.4160
385.3230, 512.1855
386.5210, 699.9805
387.7180, 697.8008
388.9160, 989.6406
390.1130, 1071.508
391.3100, 1212.398
392.5060, 1284.312
393.7030, 1510.254
394.9000, 1618.227
396.0960, 1923.232
397.2920, 1876.270
398.4880, 2004.342
399.6840, 2102.449
400.8800, 1934.588
402.0750, 1904.762
403.2710, 1963.965
404.4660, 1766.199
405.6610, 1721.490
406.8560, 1406.852
408.0510, 1140.244
409.2450, 1149.672
410.4400, 991.2090
411.6340, 841.1953
412.8280, 728.7402
414.0220, 525.2734
415.2160, 405.1914
416.4100, 173.2520
417.6030, 4.566406
418.7970, 137.7188
419.9900, 50.94336
421.1830, 112.5723
422.3760, 108.2285
423.5690, 138.8340
424.7610, 40.74023
425.9540, 31.11719
427.1460, 269.3027
428.3380, 309.7539
429.5300, 612.2344
430.7220, 885.7812
431.9140, 928.3613
433.1050, 1196.969
434.2970, 1263.609
435.4880, 1431.338
436.6790, 1506.639
437.8700, 1604.896
439.0610, 1576.752
440.2510, 1501.646
441.4420, 1477.574
442.6320, 1379.807
443.8220, 1146.648
445.0120, 1231.779
446.2020, 1208.939
447.3910, 1241.133
448.5810, 1447.377
449.7700, 1414.660
450.9600, 1679.977
452.1490, 1792.336
453.3370, 1784.736
454.5260, 1970.168
455.7150, 2107.633
456.9030, 2153.133
458.0910, 1956.670
459.2800, 2130.240
460.4670, 1974.842
461.6550, 1985.479
462.8430, 1797.150
464.0300, 1824.855
465.2180, 1621.596
466.4050, 1750.373
467.5920, 1949.184
468.7790, 1738.031
469.9650, 2028.914
471.1520, 2456.832
472.3380, 2943.783
473.5250, 3106.578
474.7110, 3659.738
475.8970, 4221.520
477.0820, 4412.324
478.2680, 5362.035
479.4540, 5809.295
480.6390, 6104.402
481.8240, 6609.520
483.0090, 7256.328
484.1940, 7787.184
485.3780, 8271.953
486.5630, 8946.539
487.7470, 9401.098
488.9320, 10221.30
490.1160, 11018.53
491.3000, 12008.06
492.4830, 12824.16
493.6670, 13927.01
494.8500, 14945.69
496.0340, 15617.16
497.2170, 16441.07
498.4000, 17084.05
499.5820, 17651.07
500.7650, 18258.17
501.9480, 18295.02
503.1300, 18819.23
504.3120, 18830.50
505.4940, 19113.84
506.6760, 19093.23
507.8580, 19194.69
509.0390, 18818.21
510.2210, 18774.79
511.4020, 18306.43
512.5830, 17316.14
513.7640, 16906.91
514.9450, 15999.73
516.1250, 15632.63
517.3060, 15229.58
518.4860, 14541.59
519.6660, 14625.66
520.8460, 14482.80
522.0260, 14562.99
523.2060, 14643.25
524.3850, 14985.57
525.5650, 14980.43
526.7440, 15130.39
527.9230, 15025.89
529.1020, 15103.46
530.2810, 14876.08
531.4590, 14390.77
532.6380, 14037.51
533.8160, 13115.32
534.9940, 12074.18
536.1720, 11801.11
537.3500, 10763.10
538.5270, 10055.15
539.7050, 9324.256
540.8820, 8985.424
542.0590, 8781.652
543.2360, 8898.941
544.4130, 8972.289
545.5900, 9405.697
546.7660, 10182.87
547.9430, 11493.96
549.1190, 12642.55
550.2950, 13713.67
551.4710, 14836.96
552.6470, 16240.73
553.8220, 16925.12
554.9980, 17620.35
556.1730, 17948.78
557.3480, 17936.83
558.5230, 17470.18
559.6980, 17218.68
560.8730, 16546.81
562.0470, 15946.30
563.2220, 15078.95
564.3960, 14366.82
565.5700, 13774.14
566.7440, 12790.33
567.9170, 11913.64
569.0910, 11278.22
570.2640, 10213.76
571.4380, 9499.691
572.6110, 8768.336
573.7840, 8224.035
574.9570, 7567.781
576.1290, 7446.809
577.3020, 7043.006
578.4740, 6928.141
579.6460, 6944.672
580.8180, 7066.562
581.9900, 7190.613
583.1620, 7698.641
584.3330, 7913.346
585.5040, 8551.738
586.6760, 9441.004
587.8470, 10519.32
589.0180, 12046.69
590.1880, 13625.83
591.3590, 15812.29
592.5290, 18137.32
593.7000, 20346.44
594.8700, 22227.12
596.0400, 23473.83
597.2090, 24076.95
598.3790, 24097.91
599.5490, 23672.62
600.7180, 22363.56
601.8870, 20760.60
603.0560, 18593.72
604.2250, 17103.88
605.3940, 15294.13
606.5620, 13994.45
607.7300, 13082.81
608.8990, 12017.24
610.0670, 11687.73
611.2350, 11542.26
612.4020, 10992.84
613.5700, 10774.51
614.7370, 9913.305
615.9050, 9368.158
617.0720, 8721.137
618.2390, 8145.352
619.4060, 7566.693
620.5720, 7251.258
621.7390, 6681.057
622.9050, 6195.018
624.0710, 5992.137
625.2370, 5979.406
626.4030, 5806.883
627.5690, 5819.488
628.7340, 5861.227
629.9000, 5820.100
631.0650, 5717.100
632.2300, 5395.203
633.3950, 4903.424
634.5600, 4946.725
635.7240, 4243.092
636.8890, 4188.559
638.0530, 3954.059
639.2170, 3641.588
640.3810, 3201.148
641.5450, 2845.732
642.7080, 2865.369
643.8720, 2863.031
645.0350, 2551.719
646.1980, 2731.438
647.3610, 2580.178
648.5240, 2761.949
649.6870, 2832.742
650.8490, 2890.559
652.0120, 2929.400
653.1740, 3040.266
654.3360, 2906.156
655.4980, 3074.066
656.6600, 3215.000
657.8210, 2834.953
658.9830, 2978.928
660.1440, 2578.926
661.3050, 2420.941
662.4660, 2121.979
663.6270, 1829.424
664.7870, 1747.109
665.9480, 1359.203
667.1080, 1213.312
668.2680, 1186.441
669.4280, 984.5859
670.5880, 963.7461
671.7480, 615.9219
672.9070, 616.1133
674.0670, 461.3203
675.2260, 584.5391
676.3850, 74.77344
677.5440, 134.0215
678.7030, 95.27930
679.8610, 38.55273
681.0200, 114.8379
682.1780, 107.1309
683.3360, 45.43750
684.4940, 70.75195
685.6520, 113.9238
686.8090, 178.6348
687.9670, 65.58203
689.1240, 16.19141
690.2810, 326.9648
691.4380, 92.88672
692.5950, 220.8438
693.7520, 95.89648
694.9080, 164.9883
696.0650, 173.1543
697.2210, 90.33594
698.3770, 94.67773
699.5330, 27.00391
700.6880, 38.30859
701.8440, 4.375000
702.9990, 296.9121
704.1550, 28.67773
705.3100, 4.693359
706.4650, 174.0586
707.6190, 7.496094
708.7740, 28.04688
709.9290, 142.2012
711.0830, 110.2715
712.2370, 34.74609
713.3910, 28.21875
714.5450, 220.2969
715.6980, 4.056641
716.8520, 7.824219
718.0050, 85.72852
719.1580, 21.13477
720.3110, 60.31445
721.4640, 121.7207
722.6170, 198.4707
723.7700, 35.57617
724.9220, 129.4375
726.0740, 93.11328
727.2260, 46.20117
728.3780, 10.75195
729.5300, 55.99219
730.6810, 17.72852
731.8330, 27.61523
732.9840, 55.48633
734.1350, 71.09180
735.2860, 41.21289
736.4370, 82.08008
737.5880, 272.5840
738.7380, 232.5938
739.8880, 115.5273
741.0390, 407.3926
742.1890, 386.1621
743.3380, 428.7070
744.4880, 762.6836
745.6380, 438.4023
746.7870, 892.0664
747.9360, 765.6797
749.0850, 490.1738
750.2340, 806.8457
751.3830, 809.3984
752.5310, 1002.477
753.6800, 1288.066
754.8280, 1165.037
755.9760, 1231.422
757.1240, 1325.564
758.2720, 1374.273
759.4190, 1485.312
760.5670, 1579.594
761.7140, 1741.803
762.8610, 1798.180
764.0080, 1827.520
765.1550, 1585.793
766.3020, 1767.068
767.4480, 1663.145
768.5950, 1550.355
769.7410, 1580.094
770.8870, 1459.088
772.0330, 1347.629
773.1780, 1299.881
774.3240, 1311.576
775.4690, 1197.547
776.6140, 1365.480
777.7590, 1363.371
778.9040, 1468.221
780.0490, 1355.029
781.1940, 1073.797
782.3380, 1260.523
783.4820, 1220.207
784.6260, 1390.850
785.7700, 1482.449
786.9140, 1508.008
788.0580, 1475.521
789.2010, 1756.994
790.3450, 1637.422
791.4880, 2105.809
792.6310, 2033.150
793.7730, 2146.449
794.9160, 2440.703
796.0590, 2562.914
797.2010, 2617.082
798.3430, 2557.205
799.4850, 2780.285
800.6270, 2830.322
801.7690, 2640.312
802.9100, 2819.258
804.0520, 2378.160
805.1930, 2527.020
806.3340, 2309.832
807.4750, 2385.602
808.6160, 2342.324
809.7560, 2521.000
810.8970, 1961.633
812.0370, 2034.223
813.1770, 1787.766
814.3170, 1806.264
815.4570, 1794.715
816.5960, 1621.121
817.7360, 1507.484
818.8750, 1268.801
820.0140, 1299.074
821.1530, 1246.303
822.2920, 1300.482
823.4310, 1109.908
824.5690, 1191.432
825.7070, 1236.480
826.8460, 1114.004
827.9840, 778.3750
829.1220, 776.2695
830.2590, 770.5625
831.3970, 809.0332
832.5340, 760.3145
833.6710, 665.9805
834.8080, 526.3633
835.9450, 617.3594
837.0820, 634.9824
838.2190, 641.8730
839.3550, 428.2988
840.4910, 424.8242
841.6270, 384.2910
842.7630, 565.2930
843.8990, 357.7402
845.0350, 467.9961
846.1700, 124.3066
847.3060, 433.2363
848.4410, 384.4609
849.5760, 392.6465
850.7100, 225.7969
851.8450, 329.6758
852.9800, 92.39258
854.1140, 188.1816
855.2480, 55.58008
856.3820, 170.6191
857.5160, 123.5117
858.6500, 179.4316
859.7830, 56.31250
860.9170, 307.2305
862.0500, 103.9043
863.1830, 51.53906
864.3160, 287.1289
865.4480, 60.95703
866.5810, 122.4629
867.7130, 233.5898
868.8460, 175.1895
869.9780, 86.43164
871.1100, 41.36328
872.2410, 29.48047
873.3730, 88.54297
874.5050, 5.564453
875.6360, 153.4766
876.7670, 73.66406
877.8980, 282.0430
879.0290, 150.2793
880.1590, 30.74609
881.2900, 183.7051
882.4200, 75.87109
883.5500, 21.44922
884.6800, 22.71484
885.8100, 6.4452998E-02
886.9400, 94.90625
888.0690, 295.8594
889.1990, 153.9727
890.3280, 10.22461
891.4570, 225.4824
892.5860, 61.91797
893.7140, 262.4414
894.8430, 182.1582
895.9710, 119.0273
897.1000, 56.00977
898.2280, 195.9238
899.3560, 145.1699
900.4830, 41.61133
901.6110, 277.3594
902.7380, 63.92188
903.8660, 36.28125
904.9930, 44.29492
906.1200, 64.83984
907.2460, 125.3574
908.3730, 72.84766
909.5000, 86.68750
910.6260, 219.6934
911.7520, 332.0508
912.8780, 120.3828
914.0040, 225.6953
915.1290, 259.9824
916.2550, 206.2520
917.3800, 159.4980
918.5050, 302.7227
919.6300, 216.9570
920.7550, 342.1133
921.8800, 243.2793
923.0040, 251.4238
924.1290, 400.5527
925.2530, 416.5527
926.3770, 570.7500
927.5010, 590.8223
928.6250, 786.8750
929.7480, 805.9121
930.8720, 898.3242
931.9950, 990.6504
933.1180, 993.9609
934.2410, 1134.988
935.3640, 1083.000
936.4860, 1155.016
937.6090, 1239.014
938.7310, 1448.021
939.8530, 1615.016
940.9750, 1642.996
942.0970, 1898.965
943.2180, 1984.922
944.3400, 2017.887
945.4610, 2225.857
946.5820, 2126.816
947.7030, 2333.766
948.8240, 2298.705
949.9450, 2462.652
951.0650, 2356.602
952.1860, 2525.541
953.3060, 2588.471
954.4260, 2622.396
955.5460, 2681.316
956.6650, 2856.238
957.7850, 2792.176
958.9040, 3054.129
960.0230, 3165.123
961.1420, 3189.109
962.2610, 3475.092
963.3800, 3899.180
964.4990, 4364.291
965.6170, 4530.504
966.7350, 4761.742
967.8530, 5446.053
968.9710, 6133.418
970.0890, 6484.807
971.2070, 7363.250
972.3240, 8090.707
973.4410, 8834.178
974.5580, 9772.652
975.6750, 10858.20
976.7920, 12211.77
977.9090, 13577.34
979.0250, 15268.95
980.1410, 17712.57
981.2580, 20074.99
982.3740, 22384.68
983.4890, 24381.38
984.6050, 26540.09
985.7200, 27302.79
986.8360, 27593.56
987.9510, 26634.95
989.0660, 25146.64
990.1810, 23193.17
991.2950, 20901.84
992.4100, 19103.01
993.5240, 16514.85
994.6390, 15035.99
995.7530, 13692.99
996.8660, 12265.34
997.9800, 11806.66
999.0940, 11386.71
1000.207, 10834.48
1001.320, 10919.22
1002.433, 10887.88
1003.546, 11286.03
1004.659, 11331.43
1005.772, 12113.32
1006.884, 12954.46
1007.996, 14029.95
1009.108, 15309.95
1010.220, 16696.03
1011.332, 18723.17
1012.444, 20567.41
1013.555, 21964.88
1014.666, 23615.91
1015.777, 24252.19
1016.888, 24917.53
1017.999, 24498.91
1019.110, 23698.41
1020.220, 22863.74
1021.331, 21760.18
1022.441, 20292.09
1023.551, 18591.49
1024.661, 17427.52
1025.770, 16289.12
1026.880, 15105.09
1027.989, 14491.57
1029.098, 13727.20
1030.207, 13229.88
1031.316, 12837.65
1032.425, 12628.24
1033.533, 12565.64
1034.642, 12590.53
1035.750, 12368.20
1036.858, 12355.06
1037.966, 12452.78
1039.073, 12233.96
1040.181, 12221.42
1041.288, 12111.23
1042.396, 11465.86
1043.503, 11468.04
1044.610, 11206.94
1045.716, 10715.86
1046.823, 10614.82
1047.929, 10363.80
1049.036, 10015.82
1050.142, 10033.87
1051.248, 9860.945
1052.353, 9526.055
1053.459, 9691.195
1054.564, 9781.391
1055.670, 9602.594
1056.775, 9650.408
1057.880, 9542.984
1058.985, 9459.393
1060.089, 9252.723
1061.194, 9089.086
1062.298, 8763.480
1063.402, 8607.906
1064.506, 8455.371
1065.610, 8098.424
1066.713, 8024.977
1067.817, 7821.965
1068.920, 7721.953
1070.023, 7591.578
1071.126, 7412.615
1072.229, 7189.303
1073.332, 6774.504
1074.435, 6786.256
1075.537, 6209.041
1076.639, 6367.984
1077.741, 6046.664
1078.843, 5717.547
1079.945, 5328.459
1081.046, 5011.408
1082.148, 4676.074
1083.249, 4271.020
1084.350, 3984.062
1085.451, 3698.139
1086.551, 3264.963
1087.652, 3147.221
1088.752, 2583.312
1089.853, 2268.594
1090.953, 2155.832
1092.053, 1842.795
1093.152, 1735.234
1094.252, 1527.568
1095.351, 1133.406
1096.451, 970.5859
1097.550, 1157.734
1098.649, 1215.676
1099.748, 857.0117
1100.846, 1024.053
1101.945, 887.6016
1103.043, 1011.746
1104.141, 863.0781
1105.239, 1061.133
1106.337, 1406.793
1107.434, 1404.479
1108.532, 1488.025
1109.629, 1878.766
1110.726, 1930.537
1111.823, 2273.334
1112.920, 2497.156
1114.017, 2801.379
1115.113, 2955.115
1116.210, 3133.697
1117.306, 3189.979
1118.402, 3328.971
1119.498, 3381.166
1120.593, 3314.219
1121.689, 3530.303
1122.784, 3298.471
1123.879, 3488.619
1124.974, 3172.797
1126.069, 3090.996
1127.164, 3163.258
1128.259, 2809.543
1129.353, 2898.857
1130.447, 2825.199
1131.541, 2645.008
1132.635, 2719.406
1133.729, 2795.039
1134.822, 2581.654
1135.916, 2646.205
1137.009, 2661.783
1138.102, 2854.412
1139.195, 3072.074
1140.288, 2808.764
1141.380, 3426.982
1142.473, 3201.793
1143.565, 3631.658
1144.657, 3827.547
1145.749, 3738.516
1146.841, 3816.529
1147.932, 3519.564
1149.024, 3140.660
1150.115, 2918.795
1151.206, 2728.975
1152.297, 2359.191
1153.388, 2115.473
1154.479, 1931.865
1155.569, 1491.520
1156.659, 1414.971
1157.750, 1147.518
1158.839, 1287.115
1159.929, 1225.816
1161.019, 947.5957
1162.108, 933.4414
1163.198, 838.4414
1164.287, 974.3535
1165.376, 683.3379
1166.465, 761.3438
1167.553, 886.4258
1168.642, 832.5547
1169.730, 747.7188
1170.818, 582.9082
1171.906, 624.1152
1172.994, 811.3418
1174.082, 577.5938
1175.170, 443.9141
1176.257, 541.2500
1177.344, 383.6035
1178.431, 403.9727
1179.518, 313.3594
1180.605, 407.7637
1181.691, 190.1855
1182.778, 441.6230
1183.864, 251.0742
1184.950, 3.544922
1186.036, 196.0293
1187.122, 14.52930
1188.207, 333.0430
1189.292, 65.57227
1190.378, 231.1152
1191.463, 191.6738
1192.548, 94.24609
1193.632, 137.8340
1194.717, 35.43555
1195.801, 164.9512
1196.886, 110.3906
1197.970, 248.1387
1199.054, 88.31836
1200.137, 192.2051
1201.221, 104.2598
1202.305, 289.2480
1203.388, 18.23438
1204.471, 196.2871
1205.554, 124.8223
1206.637, 93.62891
1207.719, 87.11328
1208.802, 156.3809
1209.884, 63.88477
1210.966, 39.39844
1212.048, 85.07617
1213.130, 59.58008
1214.212, 93.90039
1215.293, 22.38867
1216.374, 16.10938
1217.456, 1.208984
1218.536, 40.10742
1219.617, 95.61328
1220.698, 79.84180
1221.778, 11.69336
1222.859, 3.087891
1223.939, 122.2344
1225.019, 112.2910
1226.099, 30.86914
1227.178, 209.4570
1228.258, 23.15039
1229.337, 129.5723
1230.417, 75.33789
1231.496, 65.85742
1232.574, 137.9375
1233.653, 41.80469
1234.732, 35.69336
1235.810, 54.40039
1236.888, 77.49805
1237.966, 73.39844
1239.044, 77.66602
1240.122, 70.73438
1241.199, 90.80859
1242.277, 229.9375
1243.354, 140.9785
1244.431, 21.02539
1245.508, 17.96289
1246.585, 17.96875
1247.661, 238.3047
1248.738, 50.64062
1249.814, 235.3027
1250.890, 102.7578
1251.966, 77.29688
1253.042, 206.6016
1254.117, 320.5000
1255.193, 269.3984
1256.268, 179.3008
1257.343, 321.1992
1258.418, 107.1055
1259.493, 281.0078
1260.567, 93.08203
1261.642, 271.7578
1262.716, 33.66016
1263.790, 21.50391
