##NAMES=Brazilianite
##RRUFFID=R050126
##IDEAL CHEMISTRY=NaAl_3_(PO_4_)_2_(OH)_4_
##LOCALITY=Linopolis, Minas Gerais, Brazil
##OWNER=RRUFF
##SOURCE=Carlos and Paulo Vasconcelos
##DESCRIPTION=Pair of greenish yellow elongated crystals
##STATUS=The identification of this mineral has been confirmed by X-ray diffraction and chemical analysis
##URL=rruff.info/R050126
##MEASURED CHEMISTRY=Na_1.00_Al_3.00_(P_1.00_O_4_)_2_((OH)_3.80_F_0.20_)_Î£=4_
##PIN_ID=L00537
##ORIENTATION=Laser parallel to b* (0 1 0). Fiducial mark perpendicular to laser is parallel to c [0 0 1]
134.381, 0.000
135.776, 3.878
137.170, 49.410
138.564, 4.676
139.958, 7.677
141.351, 55.593
142.745, 223.190
144.138, 235.198
145.530, 315.768
146.923, 390.635
148.315, 489.685
149.707, 570.120
151.099, 497.476
152.490, 370.243
153.881, 207.059
155.272, 161.107
156.663, 103.990
158.054, 66.773
159.444, 67.328
160.834, 135.601
162.224, 232.755
163.613, 352.916
165.002, 645.461
166.391, 997.505
167.780, 1641.729
169.169, 2806.578
170.557, 4583.214
171.945, 7452.265
173.333, 10589.112
174.720, 13116.242
176.108, 12185.494
177.495, 8207.221
178.881, 5074.464
180.268, 2804.975
181.654, 1710.804
183.040, 993.015
184.426, 660.662
185.812, 440.793
187.197, 266.440
188.582, 279.079
189.967, 113.860
191.351, 71.263
192.736, 15.689
194.120, 14.975
195.504, 18.518
196.887, 23.734
198.271, 45.059
199.654, 36.353
201.036, 101.813
202.419, 98.033
203.801, 108.641
205.184, 101.262
206.565, 153.626
207.947, 322.746
209.328, 355.635
210.710, 596.305
212.090, 628.051
213.471, 700.072
214.851, 768.193
216.232, 749.396
217.611, 918.266
218.991, 1042.100
220.370, 1332.861
221.750, 1390.968
223.129, 1286.422
224.507, 1064.852
225.886, 668.329
227.264, 686.848
228.642, 659.405
230.019, 789.994
231.397, 991.613
232.774, 1130.255
234.151, 1213.019
235.528, 916.689
236.904, 601.369
238.281, 385.059
239.656, 250.004
241.032, 288.706
242.408, 332.405
243.783, 592.105
245.158, 710.802
246.533, 1165.474
247.907, 1240.086
249.282, 1536.646
250.656, 1888.187
252.029, 2456.715
253.403, 3585.232
254.776, 4404.440
256.149, 4844.606
257.522, 3708.063
258.895, 2156.378
260.267, 1216.450
261.639, 527.114
263.011, 276.649
264.382, 156.849
265.754, 114.124
267.125, 113.879
268.496, 94.509
269.866, 155.130
271.237, 164.742
272.607, 328.350
273.977, 473.952
275.346, 694.550
276.716, 904.144
278.085, 1031.735
279.454, 1067.409
280.823, 1034.902
282.191, 966.470
283.559, 780.008
284.927, 586.513
286.295, 480.003
287.662, 356.488
289.030, 243.636
290.397, 160.865
291.763, 64.925
293.130, 21.399
294.496, 57.128
295.862, 85.666
297.228, 108.266
298.594, 141.274
299.959, 106.349
301.324, 160.173
302.689, 142.148
304.053, 145.740
305.418, 71.940
306.782, 67.085
308.146, 12.711
309.509, 115.462
310.873, 246.174
312.236, 477.848
313.599, 607.483
314.961, 974.069
316.324, 995.597
317.686, 1000.069
319.048, 930.491
320.409, 701.864
321.771, 707.190
323.132, 468.469
324.493, 475.703
325.854, 461.892
327.214, 427.032
328.574, 421.058
329.934, 321.962
331.294, 357.749
332.654, 214.482
334.013, 322.174
335.372, 322.829
336.731, 238.458
338.089, 361.061
339.448, 271.639
340.806, 283.181
342.164, 210.678
343.521, 190.125
344.879, 230.528
346.236, 214.889
347.593, 335.211
348.949, 301.497
350.306, 430.748
351.662, 499.964
353.018, 538.147
354.373, 846.098
355.729, 920.815
357.084, 1269.338
358.439, 1463.849
359.794, 1703.871
361.148, 1688.097
362.503, 1617.035
363.857, 1454.185
365.210, 1011.778
366.564, 684.292
367.917, 488.817
369.270, 290.288
370.623, 272.956
371.976, 105.755
373.328, 125.538
374.680, 63.306
376.032, 45.942
377.384, 14.236
378.735, 104.640
380.086, 79.252
381.437, 93.076
382.788, 1.869
384.138, 39.345
385.488, 28.633
386.838, 19.081
388.188, 26.187
389.538, 3.439
390.887, 102.673
392.236, 60.908
393.585, 44.147
394.933, 77.380
396.282, 11.386
397.630, 47.154
398.977, 141.925
400.325, 195.700
401.672, 243.480
403.020, 443.945
404.366, 466.587
405.713, 654.380
407.059, 801.178
408.406, 906.981
409.752, 1330.789
411.097, 1316.602
412.443, 1687.421
413.788, 1805.246
415.133, 2044.077
416.478, 2173.915
417.822, 2034.755
419.167, 2157.574
420.511, 1841.345
421.854, 1764.050
423.198, 1710.739
424.541, 1597.417
425.884, 1663.926
427.227, 1545.701
428.570, 1728.907
429.912, 1703.161
431.254, 1787.140
432.596, 1947.935
433.938, 1962.846
435.280, 2480.477
436.621, 2730.120
437.962, 3424.774
439.303, 4183.439
440.643, 4765.115
441.983, 5699.805
443.323, 5516.504
444.663, 5668.215
446.003, 4992.939
447.342, 4143.674
448.681, 3852.422
450.020, 3203.181
451.359, 3197.818
452.697, 2944.135
454.035, 3003.590
455.373, 3273.817
456.711, 3168.374
458.048, 3680.239
459.386, 3655.787
460.723, 4041.366
462.059, 4385.166
463.396, 4660.621
464.732, 5338.244
466.068, 5559.691
467.404, 6250.810
468.740, 6488.283
470.075, 6311.771
471.410, 6083.693
472.745, 5339.018
474.080, 4821.949
475.414, 3684.890
476.748, 2848.845
478.082, 2335.813
479.416, 1698.801
480.749, 1531.805
482.083, 1188.827
483.416, 1078.872
484.749, 1015.921
486.081, 852.985
487.413, 957.073
488.745, 838.167
490.077, 982.287
491.409, 1016.428
492.740, 1025.590
494.072, 1338.716
495.402, 1305.919
496.733, 1544.146
498.064, 1720.392
499.394, 1950.668
500.724, 2415.974
502.054, 2440.312
503.383, 2913.649
504.712, 2917.930
506.041, 3097.359
507.370, 3256.809
508.699, 2991.283
510.027, 3366.790
511.355, 3137.308
512.683, 3312.842
514.011, 3341.397
515.338, 3339.960
516.666, 3810.534
517.993, 3606.128
519.319, 3876.740
520.646, 3970.366
521.972, 3878.013
523.298, 4138.673
524.624, 3905.343
525.950, 4430.023
527.275, 4262.714
528.600, 4476.416
529.925, 5013.127
531.250, 4984.848
532.574, 5557.277
533.898, 5608.805
535.222, 6057.090
536.546, 6283.115
537.869, 5840.188
539.193, 6360.726
540.516, 5799.522
541.839, 5648.861
543.161, 5586.933
544.484, 5051.948
545.806, 5326.000
547.128, 4870.858
548.449, 5073.002
549.771, 5159.271
551.092, 4993.551
552.413, 5668.375
553.734, 5621.756
555.054, 6523.549
556.374, 7123.961
557.694, 7961.552
559.014, 9492.521
560.334, 9933.505
561.653, 11394.506
562.972, 11855.519
564.291, 12086.550
565.610, 12927.590
566.928, 12268.645
568.247, 12929.708
569.565, 12110.787
570.882, 11351.882
572.200, 10932.988
573.517, 9094.106
574.834, 8335.234
576.151, 6895.375
577.468, 5890.529
578.784, 5282.696
580.100, 4275.874
581.416, 4002.065
582.732, 3514.268
584.047, 3188.481
585.362, 3015.708
586.677, 2709.949
587.992, 2871.209
589.307, 2698.485
590.621, 2816.781
591.935, 2932.092
593.249, 2950.418
594.563, 3312.754
595.876, 3482.102
597.189, 4113.459
598.502, 4805.829
599.815, 5321.209
601.127, 6319.598
602.440, 6332.000
603.752, 6793.409
605.064, 6560.830
606.375, 5700.284
607.686, 5531.846
608.998, 4757.297
610.308, 4830.757
611.619, 4796.228
612.930, 4824.716
614.240, 5249.403
615.550, 5130.951
616.860, 5622.002
618.169, 5431.652
619.478, 5083.425
620.787, 4847.373
622.096, 3932.201
623.405, 3776.558
624.713, 3079.658
626.021, 2843.098
627.329, 2768.785
628.637, 2476.932
629.945, 2793.859
631.252, 2694.052
632.559, 2847.018
633.866, 3239.636
635.172, 3260.743
636.479, 3738.047
637.785, 3622.937
639.091, 3567.548
640.396, 3575.071
641.702, 2955.287
643.007, 2888.057
644.312, 2443.308
645.617, 2145.271
646.921, 1990.848
648.226, 1589.586
649.530, 1627.303
650.834, 1327.257
652.137, 1312.117
653.441, 1339.989
654.744, 1111.011
656.047, 1288.654
657.350, 1168.098
658.652, 1214.160
659.954, 1250.280
661.256, 1172.258
662.558, 1218.487
663.860, 1161.522
665.161, 1062.552
666.462, 1130.031
667.763, 993.316
669.064, 920.662
670.365, 805.767
671.665, 708.899
672.965, 749.156
674.265, 552.281
675.564, 625.403
676.864, 450.520
678.163, 461.634
679.462, 454.743
680.760, 285.848
682.059, 363.948
683.357, 234.044
684.655, 228.135
685.953, 255.221
687.250, 107.302
688.548, 120.371
689.845, 212.451
691.142, 28.519
692.438, 66.583
693.735, 12.660
695.031, 0.739
696.327, 43.154
697.623, 64.048
698.918, 48.947
700.214, 80.870
701.509, 52.823
702.804, 70.774
704.098, 79.785
705.393, 79.832
706.687, 90.920
707.981, 40.032
709.275, 62.151
710.568, 68.295
711.861, 55.541
713.155, 37.961
714.447, 177.786
715.740, 215.758
717.032, 280.101
718.325, 375.902
719.617, 442.662
720.908, 600.446
722.200, 564.221
723.491, 607.006
724.782, 780.764
726.073, 554.865
727.364, 668.604
728.654, 565.335
729.944, 504.055
731.234, 514.767
732.524, 361.313
733.814, 440.005
735.103, 363.687
736.392, 312.789
737.681, 388.451
738.969, 243.102
740.258, 271.743
741.546, 297.373
742.834, 233.028
744.122, 304.637
745.409, 175.246
746.697, 247.908
747.984, 209.932
749.270, 173.157
750.557, 192.602
751.844, 119.143
753.130, 148.673
754.416, 114.191
755.701, 100.698
756.987, 138.193
758.272, 65.675
759.557, 125.146
760.842, 54.605
762.127, 31.052
763.411, 104.484
764.695, 64.905
765.979, 90.313
767.263, 98.708
768.547, 21.091
769.830, 96.459
771.113, 11.814
772.396, 71.149
773.679, 51.471
774.961, 22.779
776.243, 84.070
777.525, 14.346
778.807, 32.602
780.089, 18.159
781.370, 52.958
782.651, 47.186
783.932, 39.687
785.213, 11.611
786.493, 7.571
787.773, 17.565
789.053, 9.013
790.333, 43.669
791.613, 20.792
792.892, 31.957
794.171, 46.170
795.450, 48.561
796.729, 17.725
798.007, 41.052
799.285, 12.569
800.563, 45.836
801.841, 32.297
803.119, 31.807
804.396, 51.366
805.673, 1.983
806.950, 33.945
808.227, 20.333
809.504, 62.076
810.780, 58.883
812.056, 68.752
813.332, 85.690
814.607, 35.705
815.883, 55.770
817.158, 36.895
818.433, 21.072
819.708, 60.291
820.982, 6.427
822.256, 5.118
823.531, 23.219
824.804, 77.401
826.078, 33.006
827.352, 68.594
828.625, 157.167
829.898, 127.726
831.170, 244.270
832.443, 166.800
833.715, 211.314
834.988, 218.814
836.259, 179.300
837.531, 268.771
838.803, 196.228
840.074, 130.671
841.345, 183.100
842.616, 61.515
843.886, 117.916
845.157, 94.303
846.427, 93.676
847.697, 84.036
848.966, 47.302
850.236, 79.957
851.505, 45.263
852.774, 58.458
854.043, 104.594
855.312, 25.434
856.580, 52.094
857.849, 51.135
859.117, 46.121
860.384, 109.362
861.652, 27.748
862.919, 57.697
864.186, 87.212
865.453, 31.602
866.720, 57.557
867.986, 5.294
869.253, 14.159
870.519, 76.959
871.784, 22.934
873.050, 89.153
874.315, 35.230
875.581, 1.297
876.846, 34.353
878.110, 31.601
879.375, 43.422
880.639, 15.435
881.903, 7.440
883.167, 64.434
884.431, 24.580
885.694, 13.387
886.957, 61.345
888.220, 16.705
889.483, 81.230
890.746, 31.156
892.008, 29.075
893.270, 84.984
894.532, 1.114
895.794, 109.779
897.056, 1.663
898.317, 4.460
899.578, 81.406
900.839, 6.266
902.099, 40.120
903.360, 68.967
904.620, 51.813
905.880, 131.652
907.140, 43.485
908.399, 147.311
909.659, 151.130
910.918, 83.943
912.177, 194.749
913.435, 144.527
914.694, 158.205
915.952, 265.999
917.210, 158.787
918.468, 274.571
919.726, 195.349
920.983, 269.944
922.240, 385.712
923.497, 250.020
924.754, 332.778
926.011, 351.470
927.267, 334.045
928.523, 459.800
929.779, 412.084
931.035, 514.683
932.290, 572.980
933.546, 505.067
934.801, 685.712
936.056, 655.583
937.310, 754.195
938.565, 888.043
939.819, 827.243
941.073, 1002.959
942.327, 1093.482
943.580, 1195.423
944.833, 1422.656
946.087, 1373.982
947.340, 1703.620
948.592, 1821.708
949.845, 1924.323
951.097, 2234.232
952.349, 2187.535
953.601, 2460.680
954.853, 2799.874
956.104, 2817.836
957.355, 2750.907
958.606, 2734.972
959.857, 2945.894
961.108, 3209.204
962.358, 3326.720
963.608, 3803.625
964.858, 4177.489
966.108, 4608.500
967.357, 5615.265
968.607, 5892.245
969.856, 7175.238
971.105, 8103.786
972.353, 8361.544
973.602, 9729.247
974.850, 9345.205
976.098, 9554.149
977.346, 9442.975
978.594, 8401.941
979.841, 8470.917
981.088, 7779.902
982.335, 7395.905
983.582, 7707.915
984.828, 7254.941
986.075, 7755.982
987.321, 8145.031
988.567, 7914.106
989.812, 8583.189
991.058, 7822.289
992.303, 7591.404
993.548, 7283.529
994.793, 6326.667
996.038, 6411.821
997.282, 5750.990
998.526, 5582.186
999.770, 5742.393
1001.014, 5331.625
1002.258, 5764.891
1003.501, 5901.179
1004.744, 6106.509
1005.987, 6954.844
1007.230, 7004.229
1008.473, 7961.656
1009.715, 9261.112
1010.957, 10020.607
1012.199, 12450.132
1013.441, 13839.684
1014.682, 16079.271
1015.923, 19747.281
1017.164, 20966.895
1018.405, 24666.359
1019.646, 25955.473
1020.886, 25795.117
1022.127, 27713.818
1023.367, 24953.496
1024.606, 24493.191
1025.846, 23582.881
1027.085, 20672.596
1028.325, 20240.984
1029.564, 18130.736
1030.802, 16900.506
1032.041, 16760.285
1033.279, 14920.082
1034.517, 15059.048
1035.755, 14288.871
1036.993, 13258.709
1038.230, 13898.131
1039.468, 12707.999
1040.705, 12557.879
1041.942, 12507.778
1043.178, 11217.690
1044.415, 11327.579
1045.651, 10207.521
1046.887, 9357.471
1048.123, 9047.368
1049.358, 7817.354
1050.594, 7527.692
1051.829, 6748.732
1053.064, 5813.239
1054.299, 5783.287
1055.533, 5043.357
1056.768, 4634.491
1058.002, 4625.590
1059.236, 4105.706
1060.469, 4221.838
1061.703, 4020.987
1062.936, 3918.409
1064.169, 4259.592
1065.402, 4015.790
1066.635, 4410.255
1067.867, 4642.483
1069.100, 4423.775
1070.332, 4888.037
1071.564, 4586.314
1072.795, 4371.612
1074.027, 4510.927
1075.258, 3830.663
1076.489, 3759.010
1077.720, 3491.372
1078.950, 3039.875
1080.181, 3081.273
1081.411, 2721.698
1082.641, 2549.689
1083.871, 2614.169
1085.100, 2213.008
1086.330, 2229.492
1087.559, 2115.061
1088.788, 1844.656
1090.016, 1945.275
1091.245, 1606.930
1092.473, 1601.289
1093.701, 1564.002
1094.929, 1357.751
1096.157, 1438.799
1097.384, 1252.590
1098.612, 1202.041
1099.839, 1315.287
1101.066, 1108.165
1102.292, 1199.006
1103.519, 1276.947
1104.745, 1143.206
1105.971, 1392.484
1107.197, 1367.514
1108.423, 1526.642
1109.648, 1864.280
1110.873, 1944.416
1112.098, 2391.433
1113.323, 2830.654
1114.548, 3210.905
1115.772, 3808.648
1116.996, 3828.238
1118.220, 3767.609
1119.444, 3694.257
1120.667, 2910.656
1121.891, 2765.599
1123.114, 2293.442
1124.337, 1867.899
1125.560, 1920.529
1126.782, 1515.010
1128.004, 1367.548
1129.227, 1197.726
1130.448, 943.291
1131.670, 926.009
1132.892, 748.430
1134.113, 580.028
1135.334, 690.816
1136.555, 518.389
1137.776, 484.277
1138.996, 517.062
1140.216, 399.666
1141.436, 451.655
1142.656, 433.383
1143.876, 329.828
1145.095, 488.747
1146.315, 403.401
1147.534, 418.761
1148.753, 492.246
1149.971, 342.936
1151.190, 430.105
1152.408, 354.807
1153.626, 325.515
1154.844, 394.216
1156.061, 286.940
1157.279, 334.042
1158.496, 306.782
1159.713, 289.527
1160.930, 318.524
1162.146, 284.388
1163.363, 259.162
1164.579, 358.385
1165.795, 225.172
1167.010, 255.969
1168.226, 210.362
1169.441, 99.176
1170.657, 248.074
1171.871, 184.572
1173.086, 113.401
1174.301, 231.507
1175.515, 116.565
1176.729, 147.569
1177.943, 177.431
1179.157, 53.292
1180.370, 139.157
1181.584, 79.083
1182.797, 102.961
1184.010, 162.917
1185.222, 31.281
1186.435, 100.173
1187.647, 88.206
1188.859, 29.124
1190.071, 107.027
1191.283, 13.583
1192.494, 9.583
1193.706, 24.688
1194.917, 9.823
1196.128, 19.259
1197.338, 1.250
1198.549, 50.056
1199.759, 34.851
1200.969, 5.364
1202.179, 3.726
1203.389, 81.219
1204.598, 26.660
1205.807, 55.574
1207.016, 43.237
1208.225, 41.386
1209.434, 47.519
1210.642, 5.742
1211.850, 13.256
1213.058, 48.651
1214.266, 2.811
1215.474, 12.095
1216.681, 69.102
1217.889, 33.744
1219.096, 2.649
1220.302, 57.021
1221.509, 13.927
1222.715, 17.808
1223.922, 6.002
1225.128, 69.876
1226.334, 26.752
1227.539, 17.760
1228.745, 65.107
1229.950, 11.726
1231.155, 25.473
1232.360, 40.376
1233.564, 13.303
1234.769, 26.205
1235.973, 42.046
1237.177, 35.067
1238.381, 51.763
1239.584, 12.214
1240.787, 7.538
1241.991, 6.267
1243.194, 13.938
1244.396, 9.090
1245.599, 26.692
1246.801, 81.423
1248.004, 20.354
1249.206, 37.917
1250.407, 4.061
1251.609, 26.629
1252.810, 16.688
1254.012, 7.260
1255.212, 13.395
1256.413, 42.958
1257.614, 10.753
1258.814, 21.360
1260.014, 50.956
1261.214, 0.612
1262.414, 8.163
1263.614, 30.274
1264.813, 40.221
1266.012, 33.268
1267.211, 14.777
1268.410, 27.653
1269.609, 9.938
1270.807, 29.510
1272.005, 14.893
1273.203, 16.550
1274.401, 16.804
1275.598, 7.850
1276.796, 2.431
1277.993, 20.882
1279.190, 38.821
1280.387, 61.494
1281.583, 7.240
1282.780, 4.938
1283.976, 41.333
1285.172, 10.557
1286.368, 2.146
1287.563, 3.062
1288.759, 51.763
1289.954, 50.547
1291.149, 6.670
1292.343, 11.224
1293.538, 45.909
1294.732, 21.024
1295.927, 3.017
1297.121, 74.039
1298.314, 11.953
1299.508, 70.030
1300.701, 18.997
1301.895, 11.053
1303.087, 57.876
1304.280, 1.787
1305.473, 34.666
1306.665, 58.530
1307.857, 20.380
1309.049, 61.214
1310.241, 89.033
1311.433, 17.839
1312.624, 107.626
1313.815, 45.399
1315.006, 17.155
1316.197, 84.893
1317.388, 31.610
1318.578, 35.310
1319.768, 39.993
1320.958, 11.660
1322.148, 79.309
1323.338, 72.942
1324.527, 59.562
1325.716, 97.166
1326.906, 55.755
1328.094, 28.327
1329.283, 110.883
1330.471, 47.424
1331.660, 71.948
1332.848, 78.456
1334.035, 24.948
1335.223, 56.420
1336.411, 45.876
1337.598, 44.316
1338.785, 102.740
1339.972, 58.815
1341.158, 42.185
1342.345, 111.122
1343.531, 4.485
1344.717, 103.826
1345.903, 74.104
1347.089, 31.416
1348.274, 86.711
1349.459, 24.992
1350.644, 35.256
1351.829, 95.248
1353.014, 41.539
1354.198, 61.758
1355.383, 88.142
1356.567, 29.334
1357.751, 126.465
1358.934, 62.629
1360.118, 26.779
1361.301, 115.913
1362.484, 39.042
1363.667, 70.745
1364.850, 105.842
1366.032, 43.925
1367.215, 108.852
1368.397, 102.887
1369.579, 30.908
1370.760, 96.382
1371.942, 45.480
1373.123, 10.128
1374.304, 114.143
1375.485, 69.226
1376.666, 75.126
1377.847, 100.844
1379.027, 76.362
1380.207, 129.539
1381.387, 114.405
1382.567, 81.479
1383.747, 129.443
1384.926, 116.086
1386.105, 73.797
1387.284, 135.054
1388.463, 57.925
1389.641, 78.821
1390.820, 132.591
1391.998, 50.860
1393.176, 124.802
1394.354, 140.947
1395.532, 15.314
1396.709, 169.990
1397.886, 88.166
1399.063, 57.656
1400.240, 104.371
1401.417, 50.865
1402.593, 78.850
1403.769, 140.916
1404.945, 58.988
1406.121, 89.137
1407.297, 55.221
1408.472, 54.112
1409.648, 112.680
1410.823, 64.661
1411.998, 44.039
1413.172, 124.872
1414.347, 24.222
1415.521, 134.329
1416.695, 98.099
1417.869, 36.009
1419.043, 160.141
1420.216, 62.260
1421.390, 46.990
1422.563, 100.617
1423.736, 43.475
1424.909, 46.901
1426.081, 103.475
1427.254, 33.903
1428.426, 50.786
1429.598, 88.132
1430.770, 23.162
1431.941, 83.001
1433.113, 68.457
1434.284, 38.543
1435.455, 92.059
1436.626, 69.608
1437.796, 64.719
1438.967, 161.705
1440.137, 54.505
1441.307, 121.697
1442.477, 129.180
1443.646, 102.191
1444.816, 165.998
1445.985, 110.636
1447.154, 128.330
1448.323, 133.022
1449.492, 76.675
1450.660, 87.273
1451.829, 186.987
1452.997, 101.538
1454.165, 114.870
1455.332, 127.199
1456.500, 83.867
1457.667, 163.755
1458.834, 111.144
1460.001, 66.541
1461.168, 166.150
1462.335, 57.758
1463.501, 85.320
1464.667, 138.110
1465.833, 75.758
1466.999, 64.019
1468.165, 104.486
1469.330, 53.195
1470.495, 112.749
1471.660, 89.108
1472.825, 85.421
1473.990, 107.927
1475.154, 51.944
1476.318, 91.345
1477.482, 114.920
1478.646, 70.499
1479.810, 89.097
1480.974, 117.693
1482.137, 14.355
1483.300, 73.062
1484.463, 69.768
1485.626, 32.472
1486.788, 84.196
1487.950, 81.961
1489.113, 28.782
1490.275, 91.619
1491.436, 45.466
1492.598, 6.330
1493.759, 147.223
1494.920, 6.857
1496.081, 58.113
1497.242, 85.157
1498.403, 36.252
1499.563, 36.401
1500.724, 38.335
1501.884, 18.577
1503.043, 80.884
1504.203, 46.258
1505.363, 49.067
1506.522, 93.130
1507.681, 44.054
1508.840, 29.894
1509.999, 52.498
1511.157, 0.078
1512.315, 59.576
1513.474, 80.696
1514.632, 0.197
1515.789, 69.145
1516.947, 0.000
##END=



