##NAMES=Brazilianite
##RRUFFID=R050319
##IDEAL CHEMISTRY=NaAl_3_(PO_4_)_2_(OH)_4_
##LOCALITY=Minas Gerais, Brazil
##OWNER=RRUFF
##SOURCE=American Museum of Natural History
##DESCRIPTION=Pale green fragment
##STATUS=The identification of this mineral has been confirmed by X-ray diffraction and chemical analysis
##URL=rruff.info/R050319
##MEASURED CHEMISTRY=Na_1.00_Al_3.00_(PO_4_)_2_(OH)_4_
##PIN_ID=M00275
##ORIENTATION=Laser parallel to b* (0 1 0). Fiducial mark perpendicular to laser is parallel to c [0 0 1]
78.65900, 0.0000000E+00
79.89500, 5.003418
81.13100, 3.406006
82.36700, 157.6948
83.60200, 339.6328
84.83700, 471.0894
86.07200, 702.1953
87.30800, 821.4619
88.54200, 943.1509
89.77700, 968.9883
91.01200, 794.0239
92.24600, 590.5239
93.48000, 385.9082
94.71400, 270.7046
95.94800, 195.5181
97.18200, 48.01416
98.41600, 30.90771
99.64900, 116.9658
100.8830, 86.00781
102.1160, 99.87939
103.3490, 142.4365
104.5820, 211.5444
105.8150, 307.0815
107.0470, 423.9473
108.2800, 611.0508
109.5120, 736.2954
110.7440, 673.5938
111.9760, 627.8667
113.2080, 663.0449
114.4400, 871.0645
115.6710, 1088.867
116.9030, 1114.392
118.1340, 1173.617
119.3650, 1090.555
120.5960, 923.2148
121.8270, 709.5947
123.0580, 282.6729
124.2880, 349.4023
125.5190, 255.7295
126.7490, 244.6094
127.9790, 266.0010
129.2090, 399.8682
130.4390, 372.1787
131.6680, 411.9043
132.8980, 373.0225
134.1270, 268.5820
135.3560, 280.5688
136.5850, 329.9004
137.8140, 396.5278
139.0430, 383.4346
140.2710, 731.6064
141.5000, 605.0312
142.7280, 876.6958
143.9560, 1033.591
145.1840, 1119.703
146.4120, 1303.023
147.6390, 1267.543
148.8670, 1131.256
150.0940, 1061.150
151.3210, 989.2212
152.5490, 925.4009
153.7750, 749.6265
155.0020, 816.0054
156.2290, 729.9092
157.4550, 830.4253
158.6810, 1242.499
159.9080, 1718.197
161.1340, 2164.392
162.3590, 3339.188
163.5850, 4482.444
164.8110, 5800.042
166.0360, 6972.922
167.2610, 8220.889
168.4860, 10932.84
169.7110, 14632.77
170.9360, 18070.69
172.1610, 20183.61
173.3850, 19092.52
174.6100, 15952.43
175.8340, 12482.35
177.0580, 9188.281
178.2820, 6493.219
179.5050, 4566.171
180.7290, 3076.138
181.9520, 2259.123
183.1760, 1959.125
184.3990, 1526.150
185.6220, 1381.196
186.8450, 1213.265
188.0670, 1009.265
189.2900, 1007.626
190.5120, 856.0874
191.7340, 913.1953
192.9560, 897.3315
194.1780, 756.4946
195.4000, 826.6851
196.6220, 801.9023
197.8430, 838.1489
199.0640, 765.4209
200.2860, 786.7197
201.5070, 753.0459
202.7270, 817.3994
203.9480, 800.7803
205.1690, 752.1875
206.3890, 821.6211
207.6090, 949.0811
208.8290, 982.5679
210.0490, 1102.080
211.2690, 1298.618
212.4890, 1370.182
213.7080, 1578.771
214.9280, 1831.387
216.1470, 1967.029
217.3660, 2321.697
218.5850, 2307.392
219.8030, 2269.114
221.0220, 2123.861
222.2400, 1841.636
223.4590, 1642.438
224.6770, 1405.705
225.8950, 1267.077
227.1120, 1385.739
228.3300, 1313.776
229.5480, 1421.616
230.7650, 1334.592
231.9820, 1276.073
233.1990, 1169.145
234.4160, 1055.436
235.6330, 1001.799
236.8490, 1019.470
238.0660, 974.8853
239.2820, 1228.262
240.4980, 1463.042
241.7140, 2315.452
242.9300, 3465.905
244.1460, 4337.579
245.3610, 5870.206
246.5770, 4301.913
247.7920, 4851.980
249.0070, 5517.470
250.2220, 6885.416
251.4370, 7765.038
252.6510, 7993.196
253.8660, 7454.027
255.0800, 6198.665
256.2940, 4474.422
257.5080, 3147.280
258.7220, 2305.232
259.9360, 1560.276
261.1490, 1115.408
262.3630, 743.6235
263.5760, 634.9214
264.7890, 505.2964
266.0020, 564.7471
267.2150, 568.2700
268.4270, 598.8613
269.6400, 788.5190
270.8520, 1001.240
272.0640, 1102.022
273.2760, 1293.865
274.4880, 1479.764
275.7000, 1632.718
276.9120, 1650.727
278.1230, 1557.786
279.3340, 1309.896
280.5450, 1199.055
281.7560, 816.2603
282.9670, 725.5107
284.1780, 536.8052
285.3880, 327.1431
286.5980, 302.5225
287.8090, 285.9434
289.0190, 86.40430
290.2290, 29.90430
291.4380, 42.44385
292.6480, 22.02051
293.8570, 22.63330
295.0670, 146.2822
296.2760, 25.03271
297.4850, 7.677734
298.6930, 115.4199
299.9020, 49.19678
301.1110, 11.99219
302.3190, 23.15674
303.5270, 57.69922
304.7350, 256.5815
305.9430, 352.4883
307.1510, 540.4175
308.3580, 681.3662
309.5660, 827.3330
310.7730, 1118.316
311.9800, 1413.314
313.1870, 1568.328
314.3940, 1519.356
315.6010, 1377.400
316.8070, 1209.461
318.0130, 995.5356
319.2200, 759.6279
320.4260, 684.7354
321.6310, 472.8604
322.8370, 491.0010
324.0430, 359.1592
325.2480, 336.3330
326.4540, 359.5244
327.6590, 428.7324
328.8640, 485.9590
330.0680, 568.2012
331.2730, 572.4609
332.4780, 654.7373
333.6820, 568.0186
334.8860, 573.3135
336.0900, 634.6172
337.2940, 625.9268
338.4980, 681.2549
339.7010, 695.6006
340.9050, 728.9639
342.1080, 714.3477
343.3110, 706.7480
344.5140, 757.1670
345.7170, 818.6055
346.9200, 951.0625
348.1220, 1045.537
349.3240, 1092.030
350.5270, 1408.543
351.7290, 1445.075
352.9310, 1729.626
354.1320, 1971.195
355.3340, 2104.784
356.5350, 2255.392
357.7370, 2222.020
358.9380, 2241.666
360.1390, 1904.332
361.3400, 1454.019
362.5400, 1177.725
363.7410, 751.4502
364.9410, 516.1953
366.1410, 341.9609
367.3410, 284.7461
368.5410, 52.55273
369.7410, 138.3701
370.9400, 54.75293
372.1400, 43.87500
373.3390, 27.99512
374.5380, 112.1084
375.7370, 239.2559
376.9360, 395.5000
378.1350, 238.9189
379.3330, 302.4375
380.5310, 251.0889
381.7300, 258.8477
382.9280, 253.7207
384.1260, 307.7061
385.3230, 331.8291
386.5210, 312.1064
387.7180, 244.5234
388.9160, 275.0518
390.1130, 222.7061
391.3100, 209.4609
392.5060, 160.3076
393.7030, 148.2266
394.9000, 177.2090
396.0960, 38.26953
397.2920, 12.34668
398.4880, 36.57520
399.6840, 260.5156
400.8800, 232.4893
402.0750, 608.4961
403.2710, 703.5361
404.4660, 984.6094
405.6610, 1362.717
406.8560, 1625.857
408.0510, 2004.032
409.2450, 2282.246
410.4400, 2637.500
411.6340, 2910.816
412.8280, 3038.209
414.0220, 3179.683
415.2160, 3109.249
416.4100, 2969.925
417.6030, 2963.669
418.7970, 2697.507
419.9900, 2537.420
421.1830, 2440.366
422.3760, 2401.100
423.5690, 2427.392
424.7610, 2581.495
425.9540, 2774.646
427.1460, 3115.852
428.3380, 3243.090
429.5300, 3544.361
430.7220, 4191.666
431.9140, 4997.005
433.1050, 5616.375
434.2970, 6351.779
435.4880, 7157.217
436.6790, 8253.688
437.8700, 9010.194
439.0610, 9278.728
440.2510, 9219.870
441.4420, 8822.274
442.6320, 8213.911
443.8220, 7185.582
445.0120, 6311.259
446.2020, 5617.466
447.3910, 5220.238
448.5810, 4911.044
449.7700, 4703.885
450.9600, 4847.760
452.1490, 4936.670
453.3370, 5298.612
454.5260, 5775.590
455.7150, 6414.605
456.9030, 6959.652
458.0910, 7422.734
459.2800, 8248.852
460.4670, 8632.006
461.6550, 9428.191
462.8430, 10037.42
464.0300, 10358.67
465.2180, 10517.97
466.4050, 10524.30
467.5920, 9946.669
468.7790, 9064.070
469.9650, 7898.507
471.1520, 6779.980
472.3380, 5650.492
473.5250, 4555.039
474.7110, 3624.621
475.8970, 2970.240
477.0820, 2460.900
478.2680, 2182.596
479.4540, 1878.330
480.6390, 1766.100
481.8240, 1662.906
483.0090, 1750.751
484.1940, 1601.633
485.3780, 1762.553
486.5630, 1907.510
487.7470, 2097.505
488.9320, 2215.535
490.1160, 2323.605
491.3000, 2644.713
492.4830, 2994.860
493.6670, 3501.045
494.8500, 3673.281
496.0340, 3861.559
497.2170, 4435.874
498.4000, 4879.234
499.5820, 5096.641
500.7650, 5340.088
501.9480, 5635.580
503.1300, 5669.110
504.3120, 5715.682
505.4940, 5753.289
506.6760, 5926.936
507.8580, 6052.621
509.0390, 5948.347
510.2210, 6306.125
511.4020, 6408.504
512.5830, 6660.408
513.7640, 6929.866
514.9450, 6836.945
516.1250, 7019.928
517.3060, 7202.367
518.4860, 7084.830
519.6660, 7077.177
520.8460, 7529.721
522.0260, 7539.573
523.2060, 7607.463
524.3850, 7954.941
525.5650, 8291.768
526.7440, 8675.472
527.9230, 9131.807
529.1020, 9487.353
530.2810, 9922.941
531.4590, 10282.83
532.6380, 10325.89
533.8160, 10659.82
534.9940, 10439.55
536.1720, 10395.03
537.3500, 10219.02
538.5270, 9917.659
539.7050, 9796.809
540.8820, 9626.336
542.0590, 9317.914
543.2360, 9235.542
544.4130, 9096.228
545.5900, 9310.988
546.7660, 9765.954
547.9430, 10260.82
549.1190, 10854.85
550.2950, 11743.92
551.4710, 12800.62
552.6470, 14235.98
553.8220, 15544.04
554.9980, 17258.16
556.1730, 19134.70
557.3480, 20863.42
558.5230, 22248.87
559.6980, 23010.91
560.8730, 23862.74
562.0470, 24368.32
563.2220, 24115.13
564.3960, 24072.22
565.5700, 23332.55
566.7440, 22126.92
567.9170, 20702.37
569.0910, 19012.31
570.2640, 16951.32
571.4380, 14808.37
572.6110, 13101.46
573.7840, 11158.60
574.9570, 9752.772
576.1290, 8393.994
577.3020, 7159.252
578.4740, 6490.555
579.6460, 5687.900
580.8180, 5197.285
581.9900, 4812.719
583.1620, 4376.197
584.3330, 4214.715
585.5040, 4055.279
586.6760, 3974.891
587.8470, 3948.749
589.0180, 4029.250
590.1880, 4104.990
591.3590, 4369.770
592.5290, 4714.586
593.7000, 5185.440
594.8700, 5742.332
596.0400, 6555.271
597.2090, 7255.246
598.3790, 7976.266
599.5490, 8281.339
600.7180, 8748.456
601.8870, 8837.605
603.0560, 8688.794
604.2250, 8380.016
605.3940, 8235.272
606.5620, 8304.564
607.7300, 8374.899
608.8990, 8732.267
610.0670, 8965.669
611.2350, 9532.104
612.4020, 9814.570
613.5700, 9910.074
614.7370, 9743.616
615.9050, 9359.191
617.0720, 8648.377
618.2390, 8047.014
619.4060, 6987.732
620.5720, 6336.432
621.7390, 5653.162
622.9050, 5317.924
624.0710, 5021.714
625.2370, 4815.802
626.4030, 4920.650
627.5690, 5008.529
628.7340, 5383.438
629.9000, 5757.372
631.0650, 5946.407
632.2300, 6244.703
633.3950, 6424.725
634.5600, 6391.984
635.7240, 6280.491
636.8890, 6135.610
638.0530, 5651.123
639.2170, 5122.087
640.3810, 4581.677
641.5450, 3883.236
642.7080, 3446.665
643.8720, 2887.168
645.0350, 2484.441
646.1980, 2262.034
647.3610, 1826.447
648.5240, 1723.229
649.6870, 1480.585
650.8490, 1315.383
652.0120, 1171.934
653.1740, 1025.124
654.3360, 899.2520
655.4980, 917.2021
656.6600, 901.7607
657.8210, 846.0410
658.9830, 723.9463
660.1440, 596.1357
661.3050, 654.8701
662.4660, 524.6230
663.6270, 654.4453
664.7870, 529.4707
665.9480, 546.8936
667.1080, 463.2363
668.2680, 351.8770
669.4280, 442.5166
670.5880, 558.6377
671.7480, 344.5332
672.9070, 350.0459
674.0670, 217.3223
675.2260, 339.9150
676.3850, 216.9717
677.5440, 318.7021
678.7030, 109.2236
679.8610, 251.9971
681.0200, 10.23730
682.1780, 118.7109
683.3360, 52.76074
684.4940, 70.16309
685.6520, 6.633789
686.8090, 29.17383
687.9670, 0.8671880
689.1240, 42.55957
690.2810, 35.56348
691.4380, 119.5889
692.5950, 186.5381
693.7520, 202.4131
694.9080, 241.5576
696.0650, 307.2129
697.2210, 150.6377
698.3770, 243.6914
699.5330, 170.0371
700.6880, 75.44824
701.8440, 63.22754
702.9990, 12.00684
704.1550, 150.9727
705.3100, 43.79004
706.4650, 74.55762
707.6190, 88.89160
708.7740, 245.9072
709.9290, 170.2617
711.0830, 406.2666
712.2370, 272.3145
713.3910, 569.2949
714.5450, 671.2646
715.6980, 833.2314
716.8520, 1004.726
718.0050, 1085.457
719.1580, 1294.373
720.3110, 1189.277
721.4640, 1345.165
722.6170, 1267.038
723.7700, 1193.365
724.9220, 1293.209
726.0740, 1071.036
727.2260, 918.5410
728.3780, 992.3350
729.5300, 910.1113
730.6810, 943.8711
731.8330, 798.6133
732.9840, 739.3379
734.1350, 712.0371
735.2860, 651.7256
736.4370, 624.7041
737.5880, 520.2744
738.7380, 494.1162
739.8880, 613.4053
741.0390, 393.0029
742.1890, 505.5703
743.3380, 448.1299
744.4880, 467.6543
745.6380, 531.6221
746.7870, 452.1035
747.9360, 316.5791
749.0850, 242.0596
750.2340, 275.4727
751.3830, 323.8623
752.5310, 425.7676
753.6800, 320.1094
754.8280, 52.42871
755.9760, 283.7148
757.1240, 103.9775
758.2720, 285.2139
759.4190, 138.4248
760.5670, 184.6113
761.7140, 125.7715
762.8610, 82.90625
764.0080, 154.0107
765.1550, 188.0898
766.3020, 175.1426
767.4480, 179.1670
768.5950, 116.4502
769.7410, 87.41992
770.8870, 180.3975
772.0330, 2.308594
773.1780, 89.16113
774.3240, 113.2773
775.4690, 40.06836
776.6140, 30.81543
777.7590, 86.51465
778.9040, 43.17969
780.0490, 109.8008
781.1940, 104.8320
782.3380, 178.9492
783.4820, 101.4785
784.6260, 129.9746
785.7700, 90.43945
786.9140, 13.86914
788.0580, 94.24023
789.2010, 115.4238
790.3450, 45.21680
791.4880, 43.10059
792.6310, 71.07715
793.7730, 47.96875
794.9160, 42.33496
796.0590, 66.60254
797.2010, 11.02539
798.3430, 3.585938
799.4850, 44.08008
800.6270, 5.522461
801.7690, 12.10449
802.9100, 129.1895
804.0520, 68.44629
805.1930, 61.65820
806.3340, 47.17676
807.4750, 37.59082
808.6160, 64.43945
809.7560, 41.27734
810.8970, 20.51270
812.0370, 7.166992
813.1770, 154.7725
814.3170, 24.34082
815.4570, 28.84570
816.5960, 9.710938
817.7360, 138.6504
818.8750, 53.95996
820.0140, 68.23145
821.1530, 4.544922
822.2920, 146.6006
823.4310, 77.55469
824.5690, 18.61719
825.7070, 11.52832
826.8460, 112.6152
827.9840, 34.24121
829.1220, 190.1416
830.2590, 98.00391
831.3970, 181.8223
832.5340, 37.23926
833.6710, 151.4756
834.8080, 7.8130001E-03
835.9450, 21.95508
837.0820, 8.875977
838.2190, 6.555664
839.3550, 54.23730
840.4910, 35.31641
841.6270, 110.6367
842.7630, 98.00000
843.8990, 57.45703
845.0350, 51.42285
846.1700, 4.445313
847.3060, 51.49902
848.4410, 17.41406
849.5760, 40.30273
850.7100, 37.16211
851.8450, 22.99609
852.9800, 0.8017580
854.1140, 3.421875
855.2480, 101.3242
856.3820, 35.04297
857.5160, 53.73535
858.6500, 63.40332
859.7830, 36.95605
860.9170, 113.6436
862.0500, 98.21582
863.1830, 23.23633
864.3160, 7.277344
865.4480, 207.7656
866.5810, 36.22852
867.7130, 37.66699
868.8460, 63.08105
869.9780, 53.52832
871.1100, 60.81641
872.2410, 42.86133
873.3730, 87.57812
874.5050, 34.35449
875.6360, 67.83594
876.7670, 4.003906
877.8980, 42.14844
879.0290, 3.271484
880.1590, 119.3730
881.2900, 52.54883
882.4200, 73.49316
883.5500, 2.514648
884.6800, 1.486328
885.8100, 7.492188
886.9400, 28.44922
888.0690, 58.61328
889.1990, 68.28906
890.3280, 125.1709
891.4570, 21.45508
892.5860, 39.30078
893.7140, 43.07812
894.8430, 37.88770
895.9710, 146.6777
897.1000, 24.45215
898.2280, 27.20801
899.3560, 111.6797
900.4830, 7.401367
901.6110, 33.10645
902.7380, 29.79590
903.8660, 21.53027
904.9930, 211.0557
906.1200, 1.609375
907.2460, 40.01367
908.3730, 123.4102
909.5000, 23.32031
910.6260, 125.1318
911.7520, 196.3105
912.8780, 158.0518
914.0040, 245.1768
915.1290, 262.3447
916.2550, 291.6562
917.3800, 275.9062
918.5050, 249.3975
919.6300, 318.5801
920.7550, 301.5049
921.8800, 318.9854
923.0040, 343.4521
924.1290, 412.4902
925.2530, 456.7920
926.3770, 447.0059
927.5010, 527.2402
928.6250, 425.2402
929.7480, 398.6660
930.8720, 387.4502
931.9950, 403.4297
933.1180, 669.7871
934.2410, 557.4111
935.3640, 846.1211
936.4860, 1030.846
937.6090, 806.4629
938.7310, 1025.768
939.8530, 1072.254
940.9750, 1339.548
942.0970, 1599.944
943.2180, 1500.943
944.3400, 1628.264
945.4610, 1816.044
946.5820, 2136.138
947.7030, 2219.977
948.8240, 2380.414
949.9450, 2561.245
951.0650, 2771.324
952.1860, 2887.671
953.3060, 3120.596
954.4260, 3199.786
955.5460, 3490.436
956.6650, 3764.750
957.7850, 4072.292
958.9040, 4466.263
960.0230, 4992.002
961.1420, 5462.664
962.2610, 6255.508
963.3800, 7041.376
964.4990, 7869.164
965.6170, 9061.872
966.7350, 10383.81
967.8530, 11732.21
968.9710, 13182.32
970.0890, 14457.02
971.2070, 15278.97
972.3240, 16002.06
973.4410, 16325.04
974.5580, 15921.52
975.6750, 15656.30
976.7920, 14839.71
977.9090, 13665.07
979.0250, 12858.20
980.1410, 11924.78
981.2580, 11643.02
982.3740, 11192.62
983.4890, 11161.19
984.6050, 11295.83
985.7200, 11252.50
986.8360, 11324.18
987.9510, 11232.75
989.0660, 11080.27
990.1810, 10619.02
991.2950, 10138.80
992.4100, 9304.601
993.5240, 8736.426
994.6390, 8426.806
995.7530, 8070.679
996.8660, 7880.574
997.9800, 7860.800
999.0940, 7816.742
1000.207, 8054.714
1001.320, 8618.718
1002.433, 8872.758
1003.546, 9767.824
1004.659, 10681.94
1005.772, 11658.08
1006.884, 13217.94
1007.996, 14881.21
1009.108, 17059.55
1010.220, 20111.86
1011.332, 23204.17
1012.444, 26560.53
1013.555, 30481.90
1014.666, 34930.31
1015.777, 38988.28
1016.888, 42146.74
1017.999, 45084.23
1019.110, 46818.72
1020.220, 47075.30
1021.331, 46526.92
1022.441, 44958.04
1023.551, 42772.71
1024.661, 40265.41
1025.770, 37871.18
1026.880, 35364.96
1027.989, 32993.80
1029.098, 31087.65
1030.207, 29326.55
1031.316, 28045.47
1032.425, 26982.42
1033.533, 26003.40
1034.642, 25047.42
1035.750, 24338.46
1036.858, 23488.54
1037.966, 23067.37
1039.073, 22525.51
1040.181, 21593.65
1041.288, 20908.87
1042.396, 19975.13
1043.503, 19019.13
1044.610, 17755.46
1045.716, 16693.83
1046.823, 14971.24
1047.929, 14080.69
1049.036, 12630.18
1050.142, 11730.71
1051.248, 10749.27
1052.353, 9873.862
1053.459, 9089.490
1054.564, 8277.671
1055.670, 7671.374
1056.775, 7170.837
1057.880, 6695.135
1058.985, 6527.785
1060.089, 6168.722
1061.194, 6161.883
1062.298, 6301.957
1063.402, 6036.432
1064.506, 6322.014
1065.610, 6256.345
1066.713, 6341.670
1067.817, 6699.695
1068.920, 6333.129
1070.023, 6302.590
1071.126, 5916.125
1072.229, 5669.693
1073.332, 5369.302
1074.435, 4636.951
1075.537, 4215.668
1076.639, 3933.037
1077.741, 3546.889
1078.843, 3309.805
1079.945, 2941.795
1081.046, 2645.824
1082.148, 2372.887
1083.249, 2144.159
1084.350, 2040.317
1085.451, 1822.640
1086.551, 1785.888
1087.652, 1636.215
1088.752, 1516.458
1089.853, 1391.660
1090.953, 1201.307
1092.053, 1129.379
1093.152, 1013.209
1094.252, 939.7578
1095.351, 825.3877
1096.451, 778.3750
1097.550, 743.4453
1098.649, 838.1865
1099.748, 781.9590
1100.846, 862.7754
1101.945, 820.6211
1103.043, 767.5059
1104.141, 843.6094
1105.239, 745.1426
1106.337, 1036.127
1107.434, 1033.670
1108.532, 1380.874
1109.629, 1617.013
1110.726, 2012.212
1111.823, 2291.455
1112.920, 2835.740
1114.017, 3167.109
1115.113, 3326.454
1116.210, 3466.187
1117.306, 3489.621
1118.402, 3508.049
1119.498, 3140.504
1120.593, 2663.988
1121.689, 2320.694
1122.784, 1910.824
1123.879, 1752.389
1124.974, 1400.109
1126.069, 1206.231
1127.164, 1107.890
1128.259, 934.5742
1129.353, 848.2842
1130.447, 739.0234
1131.541, 512.5273
1132.635, 584.1045
1133.729, 527.6201
1134.822, 348.5420
1135.916, 357.6631
1137.009, 362.5645
1138.102, 435.4902
1139.195, 202.8223
1140.288, 382.0479
1141.380, 271.4863
1142.473, 389.5361
1143.565, 359.6094
1144.657, 567.7070
1145.749, 426.8281
1146.841, 473.9697
1147.932, 498.1416
1149.024, 481.1699
1150.115, 338.3896
1151.206, 525.0215
1152.297, 259.5127
1153.388, 431.8008
1154.479, 484.1162
1155.569, 358.4512
1156.659, 310.7012
1157.750, 276.0752
1158.839, 319.4697
1159.929, 206.8896
1161.019, 304.3271
1162.108, 282.7842
1163.198, 300.2588
1164.287, 315.7520
1165.376, 402.3086
1166.465, 322.8828
1167.553, 334.7539
1168.642, 244.3779
1169.730, 226.0205
1170.818, 175.6797
1171.906, 168.3555
1172.994, 172.0459
1174.082, 180.7539
1175.170, 135.4805
1176.257, 194.2227
1177.344, 145.4502
1178.431, 159.7529
1179.518, 104.5391
1180.605, 51.34082
1181.691, 64.15527
1182.778, 144.9844
1183.864, 22.82715
1184.950, 80.31836
1186.036, 111.5273
1187.122, 86.38379
1188.207, 50.25488
1189.292, 232.1367
1190.378, 65.03027
1191.463, 67.06348
1192.548, 91.83203
1193.632, 144.2627
1194.717, 46.40332
1195.801, 1.547852
1196.886, 6.315430
1197.970, 24.81152
1199.054, 3.062500
1200.137, 33.05566
1201.221, 6.824219
1202.305, 25.71191
1203.388, 95.65723
1204.471, 8.559570
1205.554, 94.46875
1206.637, 18.61621
1207.719, 41.29980
1208.802, 123.2207
1209.884, 3.146484
1210.966, 8.078125
1212.048, 21.01367
1213.130, 28.04590
1214.212, 103.8857
1215.293, 25.17871
1216.374, 26.75000
1217.456, 112.3184
1218.536, 18.43848
1219.617, 83.55957
1220.698, 100.7197
1221.778, 148.9277
1222.859, 2.208984
1223.939, 68.50684
1225.019, 49.22363
1226.099, 57.05859
1227.178, 122.9873
1228.258, 55.40137
1229.337, 60.02539
1230.417, 42.51270
1231.496, 55.13574
1232.574, 26.75781
1233.653, 64.58301
1234.732, 9.7699999E-04
1235.810, 25.65625
1236.888, 130.7705
1237.966, 13.39160
1239.044, 37.88379
1240.122, 46.37402
1241.199, 34.86133
1242.277, 49.03418
1243.354, 21.67773
1244.431, 49.53906
1245.508, 13.02734
1246.585, 0.5048830
1247.661, 92.03320
1248.738, 123.4893
1249.814, 50.94141
1250.890, 23.38770
1251.966, 13.82520
1253.042, 85.25195
1254.117, 30.12988
1255.193, 19.54004
1256.268, 156.9385
1257.343, 110.3613
1258.418, 96.66699
1259.493, 51.12500
1260.567, 19.49902
1261.642, 16.14355
