##NAMES=Brookite
##RRUFFID=R050591
##IDEAL CHEMISTRY=Ti^4+^O_2_
##LOCALITY=Taftan, near Dalbandi, Baluchistan, Pakistan
##OWNER=RRUFF
##SOURCE=Wayne Thompson
##DESCRIPTION=Yellowish-brown to reddish-brown thin tabular crystal
##STATUS=The identification of this mineral has been confirmed by X-ray diffraction and chemical analysis
##URL=rruff.info/R050591
##MEASURED CHEMISTRY=Ti_1.00_O_2_
##PIN_ID=M00065
##ORIENTATION=Laser parallel to c* (0 0 1). Fiducial mark perpendicular to laser is parallel to a [1 0 0]
51.43100, 0.0000000E+00
52.67100, 21.78738
53.91000, 29.98453
55.14900, 57.05746
56.38700, 78.90994
57.62600, 100.0766
58.86400, 101.5159
60.10300, 100.1303
61.34100, 61.02771
62.57900, 36.74350
63.81700, 2.179108
65.05400, 7.802673
66.29200, 8.340332
67.52900, 45.55811
68.76700, 1.558899
70.00400, 49.70782
71.24100, 90.27002
72.47700, 99.97955
73.71400, 170.7007
74.95100, 196.3245
76.18700, 214.7625
77.42300, 328.9432
78.65900, 389.8077
79.89500, 449.3071
81.13100, 547.4016
82.36700, 610.4039
83.60200, 703.2717
84.83700, 765.0094
86.07200, 838.2969
87.30800, 916.5822
88.54200, 996.9941
89.77700, 1104.665
91.01200, 1237.567
92.24600, 1345.694
93.48000, 1414.931
94.71400, 1456.580
95.94800, 1544.333
97.18200, 1629.289
98.41600, 1714.449
99.64900, 1810.812
100.8830, 1830.378
102.1160, 2032.148
103.3490, 1997.121
104.5820, 2186.298
105.8150, 2340.680
107.0470, 2494.264
108.2800, 2622.054
109.5120, 2847.049
110.7440, 2965.271
111.9760, 3049.754
113.2080, 3388.510
114.4400, 3758.537
115.6710, 4252.823
116.9030, 4832.366
118.1340, 5539.158
119.3650, 6365.195
120.5960, 6681.794
121.8270, 7461.142
123.0580, 8550.396
124.2880, 9912.638
125.5190, 11387.64
126.7490, 13184.67
127.9790, 15188.02
129.2090, 16570.45
130.4390, 16586.04
131.6680, 15374.67
132.8980, 13479.37
134.1270, 11978.11
135.3560, 11673.96
136.5850, 11952.93
137.8140, 13036.02
139.0430, 14653.22
140.2710, 16782.56
141.5000, 19148.02
142.7280, 22017.61
143.9560, 25289.34
145.1840, 28642.21
146.4120, 32544.21
147.6390, 36919.34
148.8670, 41600.61
150.0940, 46153.02
151.3210, 50987.57
152.5490, 55026.25
153.7750, 57320.09
155.0020, 57070.05
156.2290, 54301.16
157.4550, 48337.41
158.6810, 41207.80
159.9080, 33296.32
161.1340, 26281.99
162.3590, 20535.79
163.5850, 16223.73
164.8110, 12650.79
166.0360, 10140.00
167.2610, 8153.501
168.4860, 6791.495
169.7110, 5876.041
170.9360, 5294.169
172.1610, 5064.806
173.3850, 4874.633
174.6100, 4484.557
175.8340, 3784.581
177.0580, 2906.703
178.2820, 1960.927
179.5050, 1232.251
180.7290, 712.6777
181.9520, 442.2070
183.1760, 274.8398
184.3990, 109.5767
185.6220, 52.41724
186.8450, 32.36230
188.0670, 14.58789
189.2900, 26.43335
190.5120, 90.17383
191.7340, 175.8093
192.9560, 137.3398
194.1780, 171.7710
195.4000, 90.14624
196.6220, 60.50122
197.8430, 96.80054
199.0640, 111.8821
200.2860, 103.0837
201.5070, 44.41748
202.7270, 49.83276
203.9480, 146.6616
205.1690, 353.0566
206.3890, 550.3054
207.6090, 797.1401
208.8290, 1103.281
210.0490, 1332.565
211.2690, 1844.317
212.4890, 2426.228
213.7080, 3047.767
214.9280, 3477.718
216.1470, 3823.423
217.3660, 3612.325
218.5850, 3334.389
219.8030, 2649.610
221.0220, 1995.982
222.2400, 1512.504
223.4590, 1176.170
224.6770, 1035.977
225.8950, 1023.924
227.1120, 1032.548
228.3300, 1319.224
229.5480, 1452.573
230.7650, 1828.051
231.9820, 2356.656
233.1990, 2966.387
234.4160, 3814.236
235.6330, 4863.199
236.8490, 6114.272
238.0660, 7443.455
239.2820, 8874.746
240.4980, 10199.14
241.7140, 12088.65
242.9300, 14579.27
244.1460, 17293.99
245.3610, 20072.82
246.5770, 22237.75
247.7920, 22921.79
249.0070, 21671.93
250.2220, 18353.18
251.4370, 13763.53
252.6510, 9480.984
253.8660, 6037.541
255.0800, 3810.199
256.2940, 2546.959
257.5080, 1804.819
258.7220, 1202.779
259.9360, 933.8379
261.1490, 778.9956
262.3630, 690.2510
263.5760, 661.6021
264.7890, 688.9463
266.0020, 872.5923
267.2150, 962.2197
268.4270, 1221.868
269.6400, 1588.524
270.8520, 1873.241
272.0640, 2174.002
273.2760, 2624.825
274.4880, 3226.746
275.7000, 3652.763
276.9120, 4540.876
278.1230, 5251.086
279.3340, 6258.690
280.5450, 7064.415
281.7560, 8190.888
282.9670, 9109.625
284.1780, 10030.09
285.3880, 10761.34
286.5980, 11302.50
287.8090, 11436.74
289.0190, 11354.28
290.2290, 10380.68
291.4380, 9430.709
292.6480, 8537.430
293.8570, 7187.851
295.0670, 6115.361
296.2760, 5142.960
297.4850, 4431.646
298.6930, 3722.421
299.9020, 3361.283
301.1110, 2885.232
302.3190, 2511.270
303.5270, 2386.394
304.7350, 2102.604
305.9430, 1888.900
307.1510, 1729.283
308.3580, 1636.752
309.5660, 1630.306
310.7730, 1440.946
311.9800, 1541.671
313.1870, 1479.480
314.3940, 1513.373
315.6010, 1655.345
316.8070, 1728.395
318.0130, 1817.522
319.2200, 2135.725
320.4260, 2313.002
321.6310, 2851.356
322.8370, 3154.785
324.0430, 3621.291
325.2480, 4218.870
326.4540, 4707.526
327.6590, 5392.256
328.8640, 5747.062
330.0680, 6025.941
331.2730, 5980.898
332.4780, 5399.927
333.6820, 4586.821
334.8860, 3720.586
336.0900, 3046.685
337.2940, 2392.539
338.4980, 1774.058
339.7010, 1240.213
340.9050, 950.5923
342.1080, 722.9702
343.3110, 521.2729
344.5140, 408.1299
345.7170, 213.4160
346.9200, 203.5811
348.1220, 56.66309
349.3240, 62.84229
350.5270, 2.880371
351.7290, 65.51855
352.9310, 50.90625
354.1320, 136.4307
355.3340, 323.0547
356.5350, 386.7812
357.7370, 589.6099
358.9380, 736.5386
360.1390, 994.5742
361.3400, 1229.705
362.5400, 1478.930
363.7410, 1621.249
364.9410, 2006.662
366.1410, 2281.168
367.3410, 2443.768
368.5410, 2507.460
369.7410, 2385.245
370.9400, 2191.121
372.1400, 1891.090
373.3390, 1484.150
374.5380, 1395.304
375.7370, 1033.549
376.9360, 822.8857
378.1350, 695.3125
379.3330, 459.8301
380.5310, 304.4385
381.7300, 264.1367
382.9280, 138.9248
384.1260, 127.9233
385.3230, 156.7769
386.5210, 135.8369
387.7180, 180.9868
388.9160, 207.2261
390.1130, 211.5547
391.3100, 269.1655
392.5060, 335.4790
393.7030, 353.0742
394.9000, 437.7588
396.0960, 460.5312
397.2920, 479.3926
398.4880, 582.3418
399.6840, 583.3799
400.8800, 734.5054
402.0750, 805.7188
403.2710, 831.0205
404.4660, 1103.409
405.6610, 1143.886
406.8560, 1256.450
408.0510, 1362.103
409.2450, 1465.841
410.4400, 1571.667
411.6340, 1648.581
412.8280, 1562.582
414.0220, 1480.558
415.2160, 1223.849
416.4100, 1080.115
417.6030, 828.4702
418.7970, 638.4102
419.9900, 413.4448
421.1830, 259.0801
422.3760, 36.81201
423.5690, 118.3672
424.7610, 230.5083
425.9540, 310.6719
427.1460, 321.8916
428.3380, 371.1699
429.5300, 367.5166
430.7220, 403.9336
431.9140, 407.4434
433.1050, 385.0537
434.2970, 185.7593
435.4880, 14.45703
436.6790, 151.9209
437.8700, 266.3955
439.0610, 480.9790
440.2510, 621.6694
441.4420, 862.4468
442.6320, 1201.310
443.8220, 1470.267
445.0120, 1819.310
446.2020, 2125.439
447.3910, 2460.663
448.5810, 2623.974
449.7700, 2925.371
450.9600, 3061.853
452.1490, 3106.419
453.3370, 3204.073
454.5260, 2998.811
455.7150, 2848.636
456.9030, 2759.545
458.0910, 2532.540
459.2800, 2410.620
460.4670, 2189.786
461.6550, 2202.036
462.8430, 1975.374
464.0300, 1949.795
465.2180, 1821.303
466.4050, 1599.896
467.5920, 1524.575
468.7790, 1349.339
469.9650, 1174.188
471.1520, 1100.124
472.3380, 1036.914
473.5250, 997.1323
474.7110, 1060.445
475.8970, 1066.724
477.0820, 1180.090
478.2680, 1363.544
479.4540, 1527.096
480.6390, 1851.757
481.8240, 2139.523
483.0090, 2472.400
484.1940, 2776.372
485.3780, 3351.438
486.5630, 3693.600
487.7470, 4004.862
488.9320, 4179.223
490.1160, 4274.674
491.3000, 4235.210
492.4830, 4045.832
493.6670, 3777.572
494.8500, 3349.651
496.0340, 2993.527
497.2170, 2558.489
498.4000, 2347.536
499.5820, 2068.667
500.7650, 1932.883
501.9480, 1817.183
503.1300, 1914.566
504.3120, 1881.034
505.4940, 1979.585
506.6760, 1997.220
507.8580, 2210.937
509.0390, 2129.738
510.2210, 2457.622
511.4020, 2503.588
512.5830, 2623.636
513.7640, 3014.767
514.9450, 3184.979
516.1250, 3710.550
517.3060, 3983.927
518.4860, 4240.384
519.6660, 4785.922
520.8460, 5265.541
522.0260, 5830.242
523.2060, 6371.022
524.3850, 7089.884
525.5650, 7764.182
526.7440, 8846.202
527.9230, 9883.305
529.1020, 10796.48
530.2810, 12044.75
531.4590, 13326.08
532.6380, 14754.50
533.8160, 16144.99
534.9940, 17604.40
536.1720, 19086.22
537.3500, 20598.95
538.5270, 22027.75
539.7050, 23514.63
540.8820, 25015.59
542.0590, 26071.64
543.2360, 27089.75
544.4130, 27815.95
545.5900, 28081.21
546.7660, 28423.55
547.9430, 28320.97
549.1190, 27471.47
550.2950, 26932.05
551.4710, 25708.70
552.6470, 24347.42
553.8220, 23025.21
554.9980, 21800.09
556.1730, 20466.27
557.3480, 18815.29
558.5230, 17628.44
559.6980, 16448.61
560.8730, 15364.87
562.0470, 14369.69
563.2220, 13403.26
564.3960, 12529.53
565.5700, 11721.95
566.7440, 10888.73
567.9170, 10255.83
569.0910, 9818.282
570.2640, 9143.854
571.4380, 8803.352
572.6110, 8296.064
573.7840, 7754.371
574.9570, 7580.161
576.1290, 7188.548
577.3020, 7105.888
578.4740, 6819.486
579.6460, 6514.798
580.8180, 6358.040
581.9900, 6230.658
583.1620, 6122.354
584.3330, 5775.777
585.5040, 5723.630
586.6760, 5417.562
587.8470, 5175.607
589.0180, 4962.695
590.1880, 4673.858
591.3590, 4483.102
592.5290, 4210.422
593.7000, 4036.559
594.8700, 3935.302
596.0400, 3702.855
597.2090, 3662.492
598.3790, 3517.203
599.5490, 3347.993
600.7180, 3347.869
601.8870, 3197.825
603.0560, 3227.883
604.2250, 3136.019
605.3940, 3097.244
606.5620, 3086.550
607.7300, 2935.943
608.8990, 2984.428
610.0670, 2969.990
611.2350, 2896.636
612.4020, 2964.372
613.5700, 2757.203
614.7370, 2643.124
615.9050, 2548.141
617.0720, 2464.014
618.2390, 2513.423
619.4060, 2374.693
620.5720, 2314.037
621.7390, 2257.460
622.9050, 2152.956
624.0710, 2065.746
625.2370, 1919.188
626.4030, 1843.912
627.5690, 1731.709
628.7340, 1605.577
629.9000, 1553.523
631.0650, 1507.537
632.2300, 1410.624
633.3950, 1293.786
634.5600, 1224.054
635.7240, 1008.333
636.8890, 1036.714
638.0530, 901.1592
639.2170, 790.6665
640.3810, 802.2378
641.5450, 684.8687
642.7080, 512.5576
643.8720, 512.3037
645.0350, 493.1084
646.1980, 371.9688
647.3610, 321.8843
648.5240, 265.8545
649.6870, 201.0776
650.8490, 143.9570
652.0120, 120.0879
653.1740, 84.27100
654.3360, 64.50537
655.4980, 11.20996
656.6600, 74.12061
657.8210, 151.5000
658.9830, 11.92920
660.1440, 13.40625
661.3050, 111.9316
662.4660, 39.50439
663.6270, 39.12451
664.7870, 13.20850
665.9480, 144.4980
667.1080, 121.2510
668.2680, 25.04883
669.4280, 151.8916
670.5880, 59.77832
671.7480, 54.70996
672.9070, 66.68457
674.0670, 157.7026
675.2260, 59.76270
676.3850, 168.8652
677.5440, 166.0107
678.7030, 187.1973
679.8610, 218.4253
681.0200, 168.6948
682.1780, 102.0044
683.3360, 77.35449
684.4940, 92.74512
685.6520, 136.6450
686.8090, 159.1577
687.9670, 31.66504
689.1240, 111.2100
690.2810, 65.79395
691.4380, 33.41406
692.5950, 35.07129
693.7520, 18.96973
694.9080, 6.442383
696.0650, 34.31982
697.2210, 0.5356450
698.3770, 25.36475
699.5330, 3.466309
700.6880, 74.63965
701.8440, 42.52490
702.9990, 31.31348
704.1550, 87.93555
705.3100, 25.66040
706.4650, 34.31738
707.6190, 52.44360
708.7740, 106.6194
709.9290, 99.61279
711.0830, 61.96387
712.2370, 35.80762
713.3910, 18.18604
714.5450, 79.52466
715.6980, 68.56519
716.8520, 43.98828
718.0050, 95.84570
719.1580, 92.49756
720.3110, 30.63818
721.4640, 20.06641
722.6170, 30.59497
723.7700, 63.54468
724.9220, 61.08887
726.0740, 37.04541
727.2260, 85.18921
728.3780, 103.5933
729.5300, 35.02417
730.6810, 117.0701
731.8330, 70.11694
732.9840, 72.02563
734.1350, 139.9507
735.2860, 59.22827
736.4370, 34.41357
737.5880, 132.2959
738.7380, 67.67896
739.8880, 157.1912
741.0390, 171.8096
742.1890, 98.87964
743.3380, 146.8450
744.4880, 221.4312
745.6380, 169.1941
746.7870, 238.8103
747.9360, 222.1426
749.0850, 175.0142
750.2340, 173.9441
751.3830, 191.4888
752.5310, 177.3962
753.6800, 190.7822
754.8280, 166.8196
755.9760, 225.2812
757.1240, 202.6824
758.2720, 270.2471
759.4190, 180.9700
760.5670, 208.1929
761.7140, 333.2729
762.8610, 267.6494
764.0080, 296.9053
765.1550, 328.9644
766.3020, 287.2344
767.4480, 253.5029
768.5950, 281.8374
769.7410, 249.9155
770.8870, 298.8860
772.0330, 249.4189
773.1780, 277.0889
774.3240, 304.9453
775.4690, 298.7549
776.6140, 345.3579
777.7590, 303.0884
778.9040, 297.1963
780.0490, 330.9075
781.1940, 309.5220
782.3380, 301.5300
783.4820, 240.9370
784.6260, 269.4995
785.7700, 278.8110
786.9140, 250.2004
788.0580, 261.3748
789.2010, 203.6765
790.3450, 295.8545
791.4880, 287.8416
792.6310, 239.8462
793.7730, 237.5669
794.9160, 246.4302
796.0590, 248.3494
797.2010, 231.2544
798.3430, 308.0344
799.4850, 197.9478
800.6270, 261.6682
801.7690, 282.4707
802.9100, 206.7954
804.0520, 203.5188
805.1930, 240.2986
806.3340, 262.9241
807.4750, 243.6074
808.6160, 253.4058
809.7560, 227.9675
810.8970, 218.5762
812.0370, 228.1462
813.1770, 169.7732
814.3170, 244.5137
815.4570, 237.1658
816.5960, 198.8728
817.7360, 183.4502
818.8750, 278.1567
820.0140, 192.8164
821.1530, 247.5540
822.2920, 95.23608
823.4310, 137.9253
824.5690, 183.3738
825.7070, 205.8499
826.8460, 214.0491
827.9840, 193.9343
829.1220, 192.5415
830.2590, 187.1765
831.3970, 148.5625
832.5340, 180.0547
833.6710, 116.3159
834.8080, 199.6147
835.9450, 135.9409
837.0820, 180.1372
838.2190, 139.1069
839.3550, 129.3640
840.4910, 117.2791
841.6270, 126.0886
842.7630, 127.9573
843.8990, 91.49072
845.0350, 100.9016
846.1700, 88.57471
847.3060, 123.6135
848.4410, 85.73242
849.5760, 62.58911
850.7100, 67.08228
851.8450, 126.9900
852.9800, 70.21924
854.1140, 104.4624
855.2480, 82.13013
856.3820, 94.89941
857.5160, 74.38232
858.6500, 84.66089
859.7830, 34.17456
860.9170, 71.49219
862.0500, 52.60913
863.1830, 32.75708
864.3160, 87.83594
865.4480, 29.96631
866.5810, 47.90503
867.7130, 14.95190
868.8460, 59.75647
869.9780, 61.48315
871.1100, 13.41589
872.2410, 54.02551
873.3730, 27.55383
874.5050, 3.832397
875.6360, 12.70337
876.7670, 69.74341
877.8980, 27.66943
879.0290, 26.03479
880.1590, 15.26245
881.2900, 21.47388
882.4200, 34.44592
883.5500, 25.64111
884.6800, 5.487305
885.8100, 37.74255
886.9400, 47.03369
888.0690, 36.41565
889.1990, 55.81995
890.3280, 9.503296
891.4570, 12.18469
892.5860, 26.81360
893.7140, 26.31616
894.8430, 0.5134280
895.9710, 40.43945
897.1000, 20.61047
898.2280, 7.352417
899.3560, 41.04810
900.4830, 14.83997
901.6110, 41.51111
902.7380, 6.815186
903.8660, 39.81116
904.9930, 13.19690
906.1200, 0.4805910
907.2460, 82.86865
908.3730, 75.10889
909.5000, 64.35205
910.6260, 67.50085
911.7520, 80.09949
912.8780, 72.70557
914.0040, 114.6904
915.1290, 146.5023
916.2550, 154.3447
917.3800, 123.1177
918.5050, 176.9064
919.6300, 158.6361
920.7550, 188.3596
921.8800, 178.8397
923.0040, 204.2646
924.1290, 188.7821
925.2530, 203.1189
926.3770, 225.4894
927.5010, 222.8024
928.6250, 223.0535
929.7480, 238.3376
930.8720, 230.8773
931.9950, 231.6974
933.1180, 245.7225
934.2410, 228.7460
935.3640, 274.7748
936.4860, 239.7561
937.6090, 290.6765
938.7310, 246.6692
939.8530, 238.5598
940.9750, 289.4020
942.0970, 247.1213
943.2180, 231.6759
944.3400, 316.3533
945.4610, 251.9834
946.5820, 257.5829
947.7030, 244.9802
948.8240, 229.4719
949.9450, 237.8942
951.0650, 229.2180
952.1860, 242.4899
953.3060, 224.7262
954.4260, 228.0460
955.5460, 216.3795
956.6650, 220.5580
957.7850, 216.1765
958.9040, 242.1853
960.0230, 236.3229
961.1420, 204.1716
962.2610, 244.1136
963.3800, 212.0854
964.4990, 205.6979
965.6170, 232.3329
966.7350, 188.1117
967.8530, 240.7948
968.9710, 225.1655
970.0890, 225.9818
971.2070, 235.3578
972.3240, 202.2830
973.4410, 235.6538
974.5580, 213.9767
975.6750, 244.8936
976.7920, 239.7592
977.9090, 226.8746
979.0250, 252.4923
980.1410, 248.4578
981.2580, 231.0372
982.3740, 203.8203
983.4890, 291.0869
984.6050, 260.8489
985.7200, 259.5980
986.8360, 238.0568
987.9510, 273.8718
989.0660, 249.0868
990.1810, 250.0500
991.2950, 237.1794
992.4100, 274.9922
993.5240, 291.8693
994.6390, 241.9120
995.7530, 278.5574
996.8660, 249.9139
997.9800, 261.9052
999.0940, 238.7307
1000.207, 270.5869
1001.320, 231.8145
1002.433, 274.2120
1003.546, 280.8337
1004.659, 219.3693
1005.772, 280.5996
1006.884, 296.5571
1007.996, 250.7472
1009.108, 249.5718
1010.220, 228.1079
1011.332, 229.9617
1012.444, 241.8229
1013.555, 216.8669
1014.666, 207.1733
1015.777, 239.2178
1016.888, 198.5459
1017.999, 233.0262
1019.110, 242.2372
1020.220, 222.9569
1021.331, 215.0508
1022.441, 193.0397
1023.551, 235.6827
1024.661, 169.8615
1025.770, 203.8989
1026.880, 200.0016
1027.989, 165.8690
1029.098, 210.1254
1030.207, 187.3206
1031.316, 158.5115
1032.425, 212.3335
1033.533, 161.2623
1034.642, 170.4899
1035.750, 152.3501
1036.858, 140.2512
1037.966, 180.0813
1039.073, 175.0339
1040.181, 146.1274
1041.288, 156.5342
1042.396, 139.8291
1043.503, 146.0325
1044.610, 141.1586
1045.716, 124.3486
1046.823, 136.3727
1047.929, 163.0190
1049.036, 141.9225
1050.142, 144.8413
1051.248, 126.3694
1052.353, 127.7179
1053.459, 115.6121
1054.564, 160.7554
1055.670, 160.9260
1056.775, 126.1454
1057.880, 156.1481
1058.985, 135.2169
1060.089, 136.2935
1061.194, 138.4284
1062.298, 118.4668
1063.402, 137.6809
1064.506, 111.8281
1065.610, 142.8371
1066.713, 131.0178
1067.817, 116.8928
1068.920, 115.9260
1070.023, 117.8896
1071.126, 88.86243
1072.229, 100.8190
1073.332, 99.58813
1074.435, 116.3896
1075.537, 143.1477
1076.639, 100.8056
1077.741, 99.64392
1078.843, 94.42560
1079.945, 130.1007
1081.046, 94.62866
1082.148, 98.09930
1083.249, 110.4492
1084.350, 105.8512
1085.451, 103.2291
1086.551, 71.41168
1087.652, 62.55005
1088.752, 76.58142
1089.853, 84.61896
1090.953, 79.60944
1092.053, 56.74689
1093.152, 101.8041
1094.252, 65.68738
1095.351, 54.75189
1096.451, 117.5433
1097.550, 98.26068
1098.649, 48.14349
1099.748, 59.65173
1100.846, 39.63922
1101.945, 29.38318
1103.043, 46.15906
1104.141, 1.935181
1105.239, 36.40430
1106.337, 26.12805
1107.434, 50.68109
1108.532, 84.51062
1109.629, 32.29547
1110.726, 32.85907
1111.823, 1.572876
1112.920, 30.24597
1114.017, 60.78943
1115.113, 76.08545
1116.210, 100.5638
1117.306, 119.7280
1118.402, 137.1622
1119.498, 153.6859
1120.593, 170.3453
1121.689, 183.8833
1122.784, 191.4099
1123.879, 188.9832
1124.974, 147.6132
1126.069, 122.2701
1127.164, 90.77289
1128.259, 75.49390
1129.353, 64.83710
1130.447, 56.33319
1131.541, 34.71271
1132.635, 30.21820
1133.729, 3.562683
1134.822, 4.852539
1135.916, 3.332581
1137.009, 7.042908
1138.102, 21.72485
1139.195, 30.24304
1140.288, 4.608276
1141.380, 19.03381
1142.473, 12.67419
1143.565, 29.72723
1144.657, 9.114563
1145.749, 21.41125
1146.841, 32.66699
1147.932, 2.079407
1149.024, 13.34894
1150.115, 9.235779
1151.206, 34.22955
1152.297, 27.64600
1153.388, 6.908081
1154.479, 4.550110
1155.569, 45.01355
1156.659, 23.33362
1157.750, 12.82562
1158.839, 20.40491
1159.929, 18.23706
1161.019, 4.314514
1162.108, 29.85870
1163.198, 37.22388
1164.287, 31.02222
1165.376, 0.5358280
1166.465, 23.90900
1167.553, 4.282776
1168.642, 1.373413
1169.730, 0.8576050
1170.818, 18.64844
1171.906, 18.05170
1172.994, 1.577759
1174.082, 6.960632
1175.170, 3.556702
1176.257, 10.88068
1177.344, 9.203308
1178.431, 0.4237060
1179.518, 21.08289
1180.605, 29.49878
1181.691, 17.94696
1182.778, 9.690430
1183.864, 14.63538
1184.950, 3.906311
1186.036, 7.639832
1187.122, 1.192078
1188.207, 6.103027
1189.292, 8.535156
1190.378, 40.87823
1191.463, 11.20312
1192.548, 24.53229
1193.632, 2.773193
1194.717, 1.912476
1195.801, 18.28900
1196.886, 1.382751
1197.970, 24.89447
1199.054, 21.11163
1200.137, 6.321655
1201.221, 20.53461
1202.305, 2.620911
1203.388, 21.75330
1204.471, 38.87640
1205.554, 23.06555
1206.637, 7.362549
1207.719, 8.478394
1208.802, 0.4139400
1209.884, 20.66974
1210.966, 29.89929
1212.048, 4.013123
1213.130, 58.10339
1214.212, 3.310181
1215.293, 27.42963
1216.374, 30.53601
1217.456, 47.50391
1218.536, 33.40460
1219.617, 32.40009
1220.698, 28.42908
1221.778, 38.43744
1222.859, 50.32373
1223.939, 7.464783
1225.019, 40.44360
1226.099, 30.35858
1227.178, 28.52856
1228.258, 35.63318
1229.337, 29.47278
1230.417, 13.40393
1231.496, 44.22021
1232.574, 20.91589
1233.653, 33.75018
1234.732, 38.23401
1235.810, 40.99957
1236.888, 23.68896
1237.966, 12.60028
1239.044, 9.644165
