##NAMES=Brookite
##RRUFFID=R050591
##IDEAL CHEMISTRY=Ti^4+^O_2_
##LOCALITY=Taftan, near Dalbandi, Baluchistan, Pakistan
##OWNER=RRUFF
##SOURCE=Wayne Thompson
##DESCRIPTION=Yellowish-brown to reddish-brown thin tabular crystal
##STATUS=The identification of this mineral has been confirmed by X-ray diffraction and chemical analysis
##URL=rruff.info/R050591
##MEASURED CHEMISTRY=Ti_1.00_O_2_
##PIN_ID=M00065
##ORIENTATION=Laser parallel to c* (0 0 1). Fiducial mark perpendicular to laser is parallel to a [1 0 0]
51.43100, 0.0000000E+00
52.67100, 10.11307
53.91000, 18.59592
55.14900, 30.05087
56.38700, 44.54669
57.62600, 51.74054
58.86400, 88.27011
60.10300, 97.18814
61.34100, 68.96683
62.57900, 40.47614
63.81700, 19.07071
65.05400, 0.7866210
66.29200, 15.46576
67.52900, 10.81247
68.76700, 15.37793
70.00400, 5.727356
71.24100, 2.426819
72.47700, 16.71039
73.71400, 25.60901
74.95100, 47.77582
76.18700, 47.81372
77.42300, 47.57257
78.65900, 64.88635
79.89500, 105.6298
81.13100, 112.7075
82.36700, 151.0477
83.60200, 217.5973
84.83700, 195.3157
86.07200, 206.1714
87.30800, 228.1408
88.54200, 281.2056
89.77700, 351.3530
91.01200, 368.0396
92.24600, 377.0287
93.48000, 469.0075
94.71400, 501.7550
95.94800, 542.7203
97.18200, 594.1359
98.41600, 643.1382
99.64900, 687.6003
100.8830, 721.5735
102.1160, 722.1041
103.3490, 853.2341
104.5820, 937.0005
105.8150, 1085.437
107.0470, 1099.576
108.2800, 1306.444
109.5120, 1421.067
110.7440, 1525.469
111.9760, 1542.675
113.2080, 1696.714
114.4400, 1965.606
115.6710, 2244.364
116.9030, 2649.002
118.1340, 3065.304
119.3650, 3701.963
120.5960, 4123.308
121.8270, 4722.577
123.0580, 5455.782
124.2880, 6684.928
125.5190, 8035.035
126.7490, 10085.12
127.9790, 12974.18
129.2090, 15590.65
130.4390, 16595.05
131.6680, 15185.49
132.8980, 12387.10
134.1270, 9576.675
135.3560, 8251.241
136.5850, 7900.257
137.8140, 8175.826
139.0430, 8727.699
140.2710, 9579.109
141.5000, 10767.75
142.7280, 12190.90
143.9560, 14206.87
145.1840, 16651.94
146.4120, 19386.12
147.6390, 22681.41
148.8670, 26850.80
150.0940, 31505.30
151.3210, 36957.89
152.5490, 42813.58
153.7750, 48230.38
155.0020, 52137.26
156.2290, 53580.25
157.4550, 52166.31
158.6810, 48210.49
159.9080, 43369.74
161.1340, 38298.09
162.3590, 33677.54
163.5850, 29342.07
164.8110, 25162.50
166.0360, 21577.41
167.2610, 17787.21
168.4860, 14354.09
169.7110, 11475.06
170.9360, 9223.202
172.1610, 7497.584
173.3850, 6324.163
174.6100, 5413.854
175.8340, 4545.611
177.0580, 3638.425
178.2820, 2991.301
179.5050, 2475.241
180.7290, 2044.244
181.9520, 1610.314
183.1760, 1464.449
184.3990, 1326.653
185.6220, 1151.927
186.8450, 1060.271
188.0670, 952.6865
189.2900, 996.1746
190.5120, 956.7366
191.7340, 1087.374
192.9560, 1359.087
194.1780, 1721.876
195.4000, 2257.744
196.6220, 2660.690
197.8430, 2573.716
199.0640, 2110.820
200.2860, 1324.815
201.5070, 807.7024
202.7270, 457.4983
203.9480, 228.2258
205.1690, 97.88696
206.3890, 36.43384
207.6090, 11.12061
208.8290, 14.33252
210.0490, 101.7212
211.2690, 168.0283
212.4890, 295.0854
213.7080, 554.4841
214.9280, 710.5103
216.1470, 879.5645
217.3660, 924.7312
218.5850, 720.9863
219.8030, 389.3210
221.0220, 106.7292
222.2400, 139.7961
223.4590, 280.3071
224.6770, 389.8369
225.8950, 407.4080
227.1120, 389.0293
228.3300, 368.6995
229.5480, 284.4092
230.7650, 233.1448
231.9820, 76.89404
233.1990, 157.3757
234.4160, 485.6997
235.6330, 864.0776
236.8490, 1268.510
238.0660, 2004.993
239.2820, 2658.527
240.4980, 3597.112
241.7140, 4688.745
242.9300, 6129.408
244.1460, 8217.089
245.3610, 10727.79
246.5770, 14072.52
247.7920, 17228.27
249.0070, 18748.06
250.2220, 17992.88
251.4370, 15403.72
252.6510, 11983.61
253.8660, 8990.527
255.0800, 6648.487
256.2940, 5105.488
257.5080, 4085.527
258.7220, 3325.610
259.9360, 2561.737
261.1490, 2012.909
262.3630, 1526.126
263.5760, 1193.390
264.7890, 924.7012
266.0020, 803.0605
267.2150, 700.4690
268.4270, 623.9275
269.6400, 512.4360
270.8520, 576.9961
272.0640, 481.6074
273.2760, 528.2710
274.4880, 513.9873
275.7000, 619.7285
276.9120, 669.4539
278.1230, 805.2297
279.3340, 1002.062
280.5450, 1159.952
281.7560, 1381.900
282.9670, 1543.902
284.1780, 1787.739
285.3880, 2022.266
286.5980, 2226.776
287.8090, 2289.526
289.0190, 2344.535
290.2290, 2278.974
291.4380, 2127.496
292.6480, 1911.532
293.8570, 1607.086
295.0670, 1459.270
296.2760, 1187.675
297.4850, 1110.290
298.6930, 1036.979
299.9020, 1030.743
301.1110, 945.5825
302.3190, 1060.497
303.5270, 1125.487
304.7350, 1162.552
305.9430, 1425.693
307.1510, 1666.910
308.3580, 1804.202
309.5660, 2042.570
310.7730, 2263.013
311.9800, 2616.479
313.1870, 3131.130
314.3940, 3512.802
315.6010, 3995.550
316.8070, 4678.375
318.0130, 5158.275
319.2200, 5846.250
320.4260, 6383.301
321.6310, 6948.428
322.8370, 7443.629
324.0430, 7882.906
325.2480, 8243.259
326.4540, 8411.692
327.6590, 8637.201
328.8640, 8755.779
330.0680, 8893.443
331.2730, 8657.178
332.4780, 7981.994
333.6820, 7334.886
334.8860, 6229.855
336.0900, 5359.902
337.2940, 4424.026
338.4980, 3556.230
339.7010, 2853.511
340.9050, 2163.869
342.1080, 1616.307
343.3110, 1233.822
344.5140, 838.4124
345.7170, 731.0789
346.9200, 568.8218
348.1220, 539.6431
349.3240, 478.5422
350.5270, 669.9880
351.7290, 799.6880
352.9310, 984.2622
354.1320, 1422.229
355.3340, 1996.104
356.5350, 2638.490
357.7370, 3476.963
358.9380, 4523.523
360.1390, 5791.168
361.3400, 7180.901
362.5400, 8864.715
363.7410, 10794.61
364.9410, 13061.59
366.1410, 14887.39
367.3410, 16733.31
368.5410, 17459.02
369.7410, 16934.71
370.9400, 15397.85
372.1400, 13145.72
373.3390, 10698.07
374.5380, 8273.099
375.7370, 6385.952
376.9360, 5038.211
378.1350, 3982.125
379.3330, 3042.129
380.5310, 2626.224
381.7300, 2205.407
382.9280, 1983.680
384.1260, 1882.044
385.3230, 1787.499
386.5210, 1854.043
387.7180, 2075.680
388.9160, 2323.407
390.1130, 2607.226
391.3100, 2829.136
392.5060, 3107.139
393.7030, 3328.233
394.9000, 3531.421
396.0960, 3400.701
397.2920, 3299.075
398.4880, 3124.542
399.6840, 2874.103
400.8800, 2560.757
402.0750, 2369.505
403.2710, 2380.348
404.4660, 2327.285
405.6610, 2315.316
406.8560, 2333.443
408.0510, 2562.665
409.2450, 2740.981
410.4400, 2847.392
411.6340, 3172.900
412.8280, 3132.502
414.0220, 3271.202
415.2160, 2997.996
416.4100, 2974.887
417.6030, 2531.873
418.7970, 2232.956
419.9900, 1901.136
421.1830, 1505.412
422.3760, 1167.789
423.5690, 866.2632
424.7610, 624.8350
425.9540, 376.5044
427.1460, 207.0322
428.3380, 57.34619
429.5300, 56.88477
430.7220, 159.8149
431.9140, 241.6719
433.1050, 250.5776
434.2970, 251.2866
435.4880, 189.0278
436.6790, 174.7192
437.8700, 74.35059
439.0610, 42.88330
440.2510, 94.68799
441.4420, 123.3809
442.6320, 302.1929
443.8220, 517.1255
445.0120, 836.1782
446.2020, 1028.353
447.3910, 1482.645
448.5810, 1835.055
449.7700, 2173.578
450.9600, 2706.222
452.1490, 3202.971
453.3370, 3787.825
454.5260, 4345.792
455.7150, 4948.878
456.9030, 5755.092
458.0910, 6370.431
459.2800, 7213.900
460.4670, 7868.497
461.6550, 8307.218
462.8430, 8586.053
464.0300, 8913.999
465.2180, 8857.062
466.4050, 8499.229
467.5920, 7981.521
468.7790, 7152.919
469.9650, 6366.438
471.1520, 5828.067
472.3380, 4905.815
473.5250, 4227.678
474.7110, 3585.644
475.8970, 3221.717
477.0820, 2650.896
478.2680, 2273.185
479.4540, 1901.578
480.6390, 1579.072
481.8240, 1161.669
483.0090, 978.3682
484.1940, 742.1709
485.3780, 661.0762
486.5630, 552.0889
487.7470, 469.2065
488.9320, 464.4248
490.1160, 442.7451
491.3000, 393.1655
492.4830, 364.6855
493.6670, 326.3110
494.8500, 294.0547
496.0340, 174.9043
497.2170, 242.8765
498.4000, 221.9502
499.5820, 213.1226
500.7650, 310.3931
501.9480, 277.7617
503.1300, 302.2285
504.3120, 227.7949
505.4940, 214.4575
506.6760, 159.2168
507.8580, 111.0728
509.0390, 32.02783
510.2210, 23.86572
511.4020, 82.58057
512.5830, 56.10596
513.7640, 32.42432
514.9450, 83.54248
516.1250, 21.47363
517.3060, 15.22998
518.4860, 59.18164
519.6660, 234.7280
520.8460, 312.3745
522.0260, 407.1162
523.2060, 579.9551
524.3850, 813.8955
525.5650, 946.9326
526.7440, 1340.069
527.9230, 1450.302
529.1020, 1806.630
530.2810, 2177.059
531.4590, 2446.579
532.6380, 2888.189
533.8160, 3340.892
534.9940, 3813.688
536.1720, 4240.577
537.3500, 4725.565
538.5270, 5178.646
539.7050, 5631.818
540.8820, 6108.084
542.0590, 6443.443
543.2360, 6881.892
544.4130, 7054.432
545.5900, 7213.064
546.7660, 7387.787
547.9430, 7353.600
549.1190, 7290.800
550.2950, 7171.489
551.4710, 6879.572
552.6470, 6461.746
553.8220, 6060.010
554.9980, 5662.360
556.1730, 5286.799
557.3480, 4832.324
558.5230, 4536.935
559.6980, 4305.629
560.8730, 3839.407
562.0470, 3732.271
563.2220, 3542.718
564.3960, 3306.745
565.5700, 3238.855
566.7440, 3127.044
567.9170, 3111.318
569.0910, 3131.974
570.2640, 3100.409
571.4380, 3182.786
572.6110, 3288.675
573.7840, 3507.427
574.9570, 3782.591
576.1290, 4013.346
577.3020, 4398.532
578.4740, 4839.198
579.6460, 5210.320
580.8180, 5497.025
581.9900, 5790.279
583.1620, 6051.111
584.3330, 6349.352
585.5040, 6330.511
586.6760, 6203.093
587.8470, 5970.911
589.0180, 5592.942
590.1880, 5085.831
591.3590, 4630.191
592.5290, 4139.673
593.7000, 3666.145
594.8700, 3260.771
596.0400, 2761.264
597.2090, 2333.324
598.3790, 2216.012
599.5490, 1835.216
600.7180, 1809.242
601.8870, 1572.754
603.0560, 1436.150
604.2250, 1356.073
605.3940, 1351.911
606.5620, 1206.302
607.7300, 1206.435
608.8990, 1276.416
610.0670, 1221.148
611.2350, 1286.893
612.4020, 1340.551
613.5700, 1358.470
614.7370, 1462.608
615.9050, 1551.322
617.0720, 1674.363
618.2390, 1789.184
619.4060, 1947.279
620.5720, 2069.765
621.7390, 2165.606
622.9050, 2354.166
624.0710, 2573.414
625.2370, 2841.340
626.4030, 3054.444
627.5690, 3266.194
628.7340, 3518.036
629.9000, 3800.149
631.0650, 4053.061
632.2300, 4394.888
633.3950, 4438.396
634.5600, 4918.312
635.7240, 4902.393
636.8890, 5121.392
638.0530, 5447.432
639.2170, 5269.758
640.3810, 5481.876
641.5450, 5291.031
642.7080, 5304.575
643.8720, 5167.034
645.0350, 5116.300
646.1980, 4924.126
647.3610, 4677.953
648.5240, 4477.530
649.6870, 4197.004
650.8490, 3942.419
652.0120, 3705.404
653.1740, 3495.043
654.3360, 3266.737
655.4980, 3000.872
656.6600, 2753.611
657.8210, 2569.455
658.9830, 2343.591
660.1440, 2146.686
661.3050, 1916.891
662.4660, 1794.498
663.6270, 1632.321
664.7870, 1515.020
665.9480, 1417.198
667.1080, 1298.502
668.2680, 1150.990
669.4280, 1088.130
670.5880, 1036.962
671.7480, 876.1582
672.9070, 868.2148
674.0670, 856.4060
675.2260, 637.0061
676.3850, 693.3721
677.5440, 586.9028
678.7030, 478.1150
679.8610, 502.4207
681.0200, 416.2524
682.1780, 425.1272
683.3360, 427.2759
684.4940, 359.8293
685.6520, 294.8525
686.8090, 275.9961
687.9670, 228.7607
689.1240, 221.5662
690.2810, 195.7004
691.4380, 202.3711
692.5950, 230.4832
693.7520, 146.1631
694.9080, 109.9453
696.0650, 169.6555
697.2210, 62.68994
698.3770, 64.54517
699.5330, 103.4553
700.6880, 89.48779
701.8440, 6.641602
702.9990, 18.02490
704.1550, 14.71216
705.3100, 18.44458
706.4650, 23.77100
707.6190, 21.10718
708.7740, 44.68896
709.9290, 35.94775
711.0830, 52.03662
712.2370, 16.48145
713.3910, 24.77100
714.5450, 72.28540
715.6980, 20.45703
716.8520, 5.512695
718.0050, 42.71997
719.1580, 35.24097
720.3110, 63.76245
721.4640, 53.46704
722.6170, 58.55322
723.7700, 54.74536
724.9220, 60.17163
726.0740, 43.81885
727.2260, 45.51660
728.3780, 22.31665
729.5300, 47.14722
730.6810, 9.194580
731.8330, 12.44263
732.9840, 8.699951
734.1350, 59.31885
735.2860, 67.45898
736.4370, 75.89233
737.5880, 82.46680
738.7380, 77.30640
739.8880, 66.39990
741.0390, 8.864990
742.1890, 16.68799
743.3380, 31.64282
744.4880, 18.46143
745.6380, 49.80566
746.7870, 8.233154
747.9360, 39.14551
749.0850, 2.853271
750.2340, 34.08240
751.3830, 19.68213
752.5310, 38.44006
753.6800, 6.435425
754.8280, 31.44922
755.9760, 6.314819
757.1240, 26.93689
758.2720, 59.62427
759.4190, 43.65564
760.5670, 64.94458
761.7140, 33.17993
762.8610, 50.46948
764.0080, 14.47729
765.1550, 26.00110
766.3020, 69.55359
767.4480, 55.79565
768.5950, 74.39587
769.7410, 121.3774
770.8870, 48.93848
772.0330, 121.0227
773.1780, 80.50598
774.3240, 105.0853
775.4690, 121.4858
776.6140, 76.94177
777.7590, 121.9731
778.9040, 147.1014
780.0490, 76.12524
781.1940, 85.27563
782.3380, 116.3107
783.4820, 162.1990
784.6260, 113.0159
785.7700, 94.85291
786.9140, 50.48718
788.0580, 42.17529
789.2010, 105.7772
790.3450, 20.33264
791.4880, 74.86597
792.6310, 50.11975
793.7730, 89.37451
794.9160, 43.73035
796.0590, 42.93164
797.2010, 46.13904
798.3430, 91.22327
799.4850, 71.31323
800.6270, 28.39697
801.7690, 71.30518
802.9100, 52.24414
804.0520, 49.24304
805.1930, 89.97034
806.3340, 28.63367
807.4750, 180.1820
808.6160, 118.8466
809.7560, 136.3104
810.8970, 65.88452
812.0370, 96.37219
813.1770, 31.83252
814.3170, 105.1384
815.4570, 73.41357
816.5960, 71.64380
817.7360, 94.75745
818.8750, 94.87512
820.0140, 83.91724
821.1530, 69.11169
822.2920, 94.02026
823.4310, 103.0527
824.5690, 104.8923
825.7070, 102.6562
826.8460, 55.26990
827.9840, 73.83533
829.1220, 58.43079
830.2590, 126.9285
831.3970, 73.37268
832.5340, 128.7593
833.6710, 111.1047
834.8080, 123.4694
835.9450, 121.7919
837.0820, 115.9961
838.2190, 127.1023
839.3550, 140.7117
840.4910, 140.6843
841.6270, 138.7035
842.7630, 104.6519
843.8990, 117.4373
845.0350, 135.8140
846.1700, 103.4348
847.3060, 127.8940
848.4410, 154.4203
849.5760, 139.9514
850.7100, 161.6993
851.8450, 137.8242
852.9800, 120.1398
854.1140, 137.6279
855.2480, 91.09424
856.3820, 155.7625
857.5160, 92.76611
858.6500, 98.21069
859.7830, 127.2617
860.9170, 123.4088
862.0500, 134.1565
863.1830, 132.6746
864.3160, 135.0000
865.4480, 133.4830
866.5810, 113.5161
867.7130, 55.43689
868.8460, 75.37720
869.9780, 104.2148
871.1100, 142.1550
872.2410, 67.54187
873.3730, 84.31177
874.5050, 84.57739
875.6360, 71.03687
876.7670, 60.01453
877.8980, 60.14709
879.0290, 64.75598
880.1590, 54.52063
881.2900, 80.65027
882.4200, 49.04370
883.5500, 77.59595
884.6800, 24.40747
885.8100, 53.28125
886.9400, 75.17908
888.0690, 18.80859
889.1990, 29.88684
890.3280, 30.82507
891.4570, 81.56641
892.5860, 37.30017
893.7140, 30.75854
894.8430, 80.82593
895.9710, 55.56604
897.1000, 57.57751
898.2280, 49.87958
899.3560, 69.50220
900.4830, 59.94513
901.6110, 60.78723
902.7380, 39.48700
903.8660, 96.91046
904.9930, 54.53406
906.1200, 94.24036
907.2460, 40.25989
908.3730, 94.86609
909.5000, 79.30066
910.6260, 96.81274
911.7520, 86.27899
912.8780, 132.4716
914.0040, 116.8466
915.1290, 125.2106
916.2550, 105.1843
917.3800, 114.2200
918.5050, 127.4304
919.6300, 131.5833
920.7550, 124.6776
921.8800, 154.5376
923.0040, 122.4895
924.1290, 154.1923
925.2530, 140.9868
926.3770, 131.8177
927.5010, 188.1206
928.6250, 176.7939
929.7480, 142.1035
930.8720, 165.3765
931.9950, 149.6053
933.1180, 164.8124
934.2410, 151.9279
935.3640, 140.5869
936.4860, 166.0919
937.6090, 145.6910
938.7310, 116.7242
939.8530, 166.6442
940.9750, 169.3743
942.0970, 179.3822
943.2180, 138.6780
944.3400, 201.6017
945.4610, 139.6812
946.5820, 145.5839
947.7030, 139.0306
948.8240, 157.7354
949.9450, 152.2742
951.0650, 148.0251
952.1860, 160.7253
953.3060, 145.8928
954.4260, 149.9046
955.5460, 98.61621
956.6650, 150.9126
957.7850, 106.6947
958.9040, 138.6429
960.0230, 142.5937
961.1420, 164.3949
962.2610, 157.8335
963.3800, 134.2314
964.4990, 139.9067
965.6170, 138.9631
966.7350, 135.8306
967.8530, 131.7579
968.9710, 112.2482
970.0890, 108.0638
971.2070, 121.6902
972.3240, 130.1136
973.4410, 114.7479
974.5580, 133.4940
975.6750, 108.1712
976.7920, 110.7927
977.9090, 133.8215
979.0250, 144.0143
980.1410, 143.4598
981.2580, 135.2258
982.3740, 172.4871
983.4890, 119.0295
984.6050, 127.3413
985.7200, 145.9073
986.8360, 127.1976
987.9510, 107.1884
989.0660, 114.3978
990.1810, 151.8784
991.2950, 137.3145
992.4100, 159.8766
993.5240, 158.1685
994.6390, 130.7020
995.7530, 157.8167
996.8660, 138.0934
997.9800, 149.3655
999.0940, 158.6998
1000.207, 122.0532
1001.320, 128.2803
1002.433, 129.4829
1003.546, 109.1010
1004.659, 150.0850
1005.772, 119.4513
1006.884, 141.5577
1007.996, 124.5878
1009.108, 113.3533
1010.220, 160.2224
1011.332, 105.2987
1012.444, 105.0695
1013.555, 89.34680
1014.666, 125.0637
1015.777, 112.1018
1016.888, 125.0872
1017.999, 105.4750
1019.110, 86.73169
1020.220, 101.4660
1021.331, 111.5447
1022.441, 117.1042
1023.551, 122.9693
1024.661, 121.9800
1025.770, 128.5748
1026.880, 110.1435
1027.989, 110.6960
1029.098, 89.73120
1030.207, 90.51416
1031.316, 101.1847
1032.425, 107.8018
1033.533, 93.74768
1034.642, 79.52185
1035.750, 102.8164
1036.858, 114.2139
1037.966, 89.38654
1039.073, 89.97955
1040.181, 124.9690
1041.288, 88.38068
1042.396, 92.34186
1043.503, 126.5623
1044.610, 110.8422
1045.716, 79.72546
1046.823, 95.08600
1047.929, 75.39960
1049.036, 73.53424
1050.142, 76.45856
1051.248, 77.45648
1052.353, 84.15906
1053.459, 108.2828
1054.564, 97.65002
1055.670, 104.9025
1056.775, 67.79956
1057.880, 97.18585
1058.985, 67.28308
1060.089, 52.33612
1061.194, 54.70886
1062.298, 78.94800
1063.402, 82.96869
1064.506, 63.49268
1065.610, 100.6853
1066.713, 65.07672
1067.817, 81.13379
1068.920, 53.17578
1070.023, 55.59320
1071.126, 87.89514
1072.229, 62.82483
1073.332, 58.99048
1074.435, 70.08112
1075.537, 78.24658
1076.639, 65.22235
1077.741, 55.34515
1078.843, 59.26111
1079.945, 64.21600
1081.046, 52.12531
1082.148, 46.22076
1083.249, 65.22192
1084.350, 48.21082
1085.451, 43.29248
1086.551, 64.26434
1087.652, 78.24377
1088.752, 58.02252
1089.853, 62.99963
1090.953, 49.82166
1092.053, 41.68536
1093.152, 49.71478
1094.252, 28.81836
1095.351, 20.85083
1096.451, 21.31836
1097.550, 25.78473
1098.649, 38.77734
1099.748, 33.70984
1100.846, 52.64575
1101.945, 9.472961
1103.043, 33.35449
1104.141, 44.25269
1105.239, 24.15588
1106.337, 37.01691
1107.434, 40.10486
1108.532, 33.91565
1109.629, 24.73755
1110.726, 25.66028
1111.823, 32.62860
1112.920, 50.59442
1114.017, 30.53381
1115.113, 62.49707
1116.210, 69.37286
1117.306, 113.2855
1118.402, 142.2408
1119.498, 159.1550
1120.593, 183.9896
1121.689, 220.8766
1122.784, 195.8275
1123.879, 219.7886
1124.974, 184.7374
1126.069, 123.7183
1127.164, 87.66565
1128.259, 87.61157
1129.353, 54.55536
1130.447, 40.52838
1131.541, 30.48730
1132.635, 5.419312
1133.729, 22.36731
1134.822, 5.322815
1135.916, 19.21637
1137.009, 37.16083
1138.102, 17.90955
1139.195, 4.927246
1140.288, 23.99994
1141.380, 7.929077
1142.473, 12.15771
1143.565, 7.722778
1144.657, 15.39380
1145.749, 9.421753
1146.841, 9.324768
1147.932, 11.76807
1149.024, 12.81604
1150.115, 18.09448
1151.206, 14.91486
1152.297, 6.040771
1153.388, 10.06854
1154.479, 6.822205
1155.569, 16.71301
1156.659, 15.39532
1157.750, 8.496094
1158.839, 3.612793
1159.929, 13.28040
1161.019, 0.1423340
1162.108, 27.01031
1163.198, 13.89716
1164.287, 2.216248
1165.376, 2.668152
1166.465, 16.48334
1167.553, 25.39886
1168.642, 3.716431
1169.730, 25.84119
1170.818, 9.024902
1171.906, 8.889160
1172.994, 8.753906
1174.082, 12.38336
1175.170, 10.52539
1176.257, 0.6725460
1177.344, 4.841064
1178.431, 7.994568
1179.518, 0.8137210
1180.605, 7.616028
1181.691, 4.431946
1182.778, 17.74188
1183.864, 4.092285
1184.950, 10.07617
1186.036, 3.750183
1187.122, 12.57416
1188.207, 6.649658
1189.292, 4.167175
1190.378, 5.942810
1191.463, 2.343994
1192.548, 2.380249
1193.632, 17.19183
1194.717, 9.998779
1195.801, 2.242737
1196.886, 6.443237
1197.970, 14.31519
1199.054, 5.107361
1200.137, 7.183411
1201.221, 6.467712
1202.305, 7.312988
1203.388, 1.057495
1204.471, 19.78546
1205.554, 13.55933
1206.637, 15.33044
1207.719, 19.11261
1208.802, 30.82660
1209.884, 22.55823
1210.966, 25.71710
1212.048, 2.027954
1213.130, 17.71271
1214.212, 16.47638
1215.293, 7.169861
1216.374, 17.90796
1217.456, 19.66467
1218.536, 16.44348
1219.617, 22.18030
1220.698, 14.93219
1221.778, 12.63654
1222.859, 46.30688
1223.939, 4.011230
1225.019, 16.62756
1226.099, 51.21063
1227.178, 2.797119
1228.258, 9.401794
1229.337, 22.06036
1230.417, 16.75757
1231.496, 31.47461
1232.574, 6.013733
1233.653, 15.65186
1234.732, 53.33569
1235.810, 17.93542
1236.888, 0.4107670
1237.966, 36.25415
1239.044, 38.91101
