##NAMES=Brookite
##RRUFFID=R050363
##IDEAL CHEMISTRY=Ti^4+^O_2_
##LOCALITY=Magnet Cove, Arkansas, USA
##OWNER=RRUFF
##SOURCE=University of Arizona Mineral Museum
##DESCRIPTION=Black fragment of a prismatic crystal associated with quartz
##STATUS=The identification of this mineral has been confirmed by X-ray diffraction and chemical analysis
##URL=rruff.info/R050363
##MEASURED CHEMISTRY=(Ti_0.94_Nb^5+^_0.03_Fe^3+^_0.03_)_Î£=1_O_2_
##PIN_ID=L00226
##ORIENTATION=Laser parallel to -a* (-1 0 0). Fiducial mark perpendicular to laser is parallel to b [0 1 0]
51.43100, 0.0000000E+00
52.67100, 37.23431
53.91000, 96.48572
55.14900, 135.1887
56.38700, 131.5055
57.62600, 221.8165
58.86400, 216.3177
60.10300, 147.7064
61.34100, 45.91962
62.57900, 10.29694
63.81700, 29.25696
65.05400, 65.28247
66.29200, 37.68018
67.52900, 14.27136
68.76700, 63.32410
70.00400, 375.2617
71.24100, 612.8889
72.47700, 531.0134
73.71400, 531.4525
74.95100, 746.0530
76.18700, 981.6674
77.42300, 1000.163
78.65900, 1081.424
79.89500, 1159.350
81.13100, 1324.851
82.36700, 1717.847
83.60200, 2034.269
84.83700, 1904.051
86.07200, 1896.142
87.30800, 1870.495
88.54200, 2041.069
89.77700, 2221.792
91.01200, 2636.572
92.24600, 2869.327
93.48000, 2940.993
94.71400, 3113.518
95.94800, 3192.906
97.18200, 3327.146
98.41600, 3383.145
99.64900, 3767.868
100.8830, 3874.299
102.1160, 3901.417
103.3490, 4208.207
104.5820, 4618.653
105.8150, 5118.742
107.0470, 5757.463
108.2800, 6544.800
109.5120, 7367.745
110.7440, 7019.283
111.9760, 6715.409
113.2080, 6930.108
114.4400, 7614.374
115.6710, 8479.197
116.9030, 8951.572
118.1340, 9457.502
119.3650, 10186.98
120.5960, 10939.03
121.8270, 11950.65
123.0580, 12638.85
124.2880, 13083.61
125.5190, 13150.83
126.7490, 13466.18
127.9790, 14082.65
129.2090, 15107.23
130.4390, 16132.90
131.6680, 16788.65
132.8980, 17958.49
134.1270, 19049.53
135.3560, 20431.77
136.5850, 22250.26
137.8140, 24408.98
139.0430, 26981.77
140.2710, 30093.57
141.5000, 33455.27
142.7280, 37292.40
143.9560, 41211.42
145.1840, 45579.71
146.4120, 50330.31
147.6390, 54688.21
148.8670, 58079.39
150.0940, 60345.88
151.3210, 60976.69
152.5490, 59764.79
153.7750, 56330.19
155.0020, 51624.90
156.2290, 45808.90
157.4550, 39414.21
158.6810, 33832.82
159.9080, 28942.71
161.1340, 24574.91
162.3590, 21272.40
163.5850, 18368.18
164.8110, 15879.25
166.0360, 14082.60
167.2610, 12523.24
168.4860, 11303.17
169.7110, 9869.368
170.9360, 8770.851
172.1610, 7754.611
173.3850, 6909.643
174.6100, 6232.951
175.8340, 5715.529
177.0580, 5297.380
178.2820, 4933.509
179.5050, 4419.936
180.7290, 4123.667
181.9520, 3892.740
183.1760, 3502.187
184.3990, 3312.031
185.6220, 3134.271
186.8450, 2994.475
188.0670, 3096.242
189.2900, 2885.033
190.5120, 2938.324
191.7340, 2924.043
192.9560, 2810.145
194.1780, 2691.583
195.4000, 2565.284
196.6220, 2383.178
197.8430, 2338.662
199.0640, 2134.992
200.2860, 2198.464
201.5070, 2204.762
202.7270, 2131.899
203.9480, 2292.706
205.1690, 1999.550
206.3890, 1943.328
207.6090, 1920.612
208.8290, 2075.990
210.0490, 1810.689
211.2690, 1708.271
212.4890, 1638.526
213.7080, 1284.295
214.9280, 1019.480
216.1470, 822.0444
217.3660, 601.9756
218.5850, 469.2612
219.8030, 302.8892
221.0220, 203.8496
222.2400, 107.1309
223.4590, 80.72510
224.6770, 37.62305
225.8950, 72.18359
227.1120, 32.70068
228.3300, 18.92334
229.5480, 72.85840
230.7650, 43.49658
231.9820, 2.159668
233.1990, 27.88086
234.4160, 141.3853
235.6330, 156.9302
236.8490, 485.7656
238.0660, 651.8896
239.2820, 958.2764
240.4980, 1338.920
241.7140, 1868.839
242.9300, 2429.026
244.1460, 2964.473
245.3610, 3299.175
246.5770, 3275.102
247.7920, 3095.246
249.0070, 2745.592
250.2220, 2338.141
251.4370, 2154.886
252.6510, 1853.825
253.8660, 1704.955
255.0800, 1556.273
256.2940, 1485.777
257.5080, 1368.464
258.7220, 1554.333
259.9360, 1699.379
261.1490, 1515.601
262.3630, 1332.996
263.5760, 1192.562
264.7890, 1293.296
266.0020, 1341.198
267.2150, 1458.263
268.4270, 1547.488
269.6400, 1657.872
270.8520, 1709.413
272.0640, 1874.108
273.2760, 2051.957
274.4880, 2058.960
275.7000, 2053.116
276.9120, 2207.425
278.1230, 2319.888
279.3340, 2304.503
280.5450, 2170.271
281.7560, 2053.189
282.9670, 1882.259
284.1780, 1856.478
285.3880, 1763.842
286.5980, 1591.348
287.8090, 1491.994
289.0190, 1500.783
290.2290, 1428.716
291.4380, 1419.792
292.6480, 1552.011
293.8570, 1515.370
295.0670, 1547.868
296.2760, 1728.505
297.4850, 1909.280
298.6930, 2044.189
299.9020, 2409.234
301.1110, 2576.627
302.3190, 2778.086
303.5270, 3029.721
304.7350, 3471.341
305.9430, 3850.038
307.1510, 4106.687
308.3580, 4423.758
309.5660, 4792.401
310.7730, 5123.043
311.9800, 5456.554
313.1870, 5603.233
314.3940, 5800.185
315.6010, 5932.151
316.8070, 5771.422
318.0130, 5783.044
319.2200, 5554.903
320.4260, 5418.729
321.6310, 5239.440
322.8370, 4800.399
324.0430, 4583.574
325.2480, 4278.974
326.4540, 3869.731
327.6590, 3384.268
328.8640, 3036.196
330.0680, 2704.468
331.2730, 2394.593
332.4780, 2142.113
333.6820, 2022.646
334.8860, 1749.884
336.0900, 1615.180
337.2940, 1384.632
338.4980, 1246.162
339.7010, 1022.769
340.9050, 899.4517
342.1080, 879.2090
343.3110, 785.0396
344.5140, 697.9951
345.7170, 687.0757
346.9200, 608.5068
348.1220, 467.6162
349.3240, 522.0781
350.5270, 462.6680
351.7290, 434.3867
352.9310, 457.2319
354.1320, 405.2070
355.3340, 258.3149
356.5350, 335.5532
357.7370, 343.9219
358.9380, 457.4106
360.1390, 420.0122
361.3400, 394.7251
362.5400, 472.5469
363.7410, 464.4761
364.9410, 491.5122
366.1410, 592.6523
367.3410, 637.8960
368.5410, 566.2412
369.7410, 563.6870
370.9400, 622.2622
372.1400, 767.5562
373.3390, 838.0176
374.5380, 858.2993
375.7370, 897.5752
376.9360, 1004.913
378.1350, 1091.154
379.3330, 1322.631
380.5310, 1386.281
381.7300, 1493.622
382.9280, 1764.281
384.1260, 1901.326
385.3230, 2041.334
386.5210, 2110.619
387.7180, 2354.607
388.9160, 2456.750
390.1130, 2823.461
391.3100, 2963.813
392.5060, 3163.187
393.7030, 3281.484
394.9000, 3616.677
396.0960, 3815.938
397.2920, 4057.267
398.4880, 4308.662
399.6840, 4676.121
400.8800, 4756.690
402.0750, 5085.278
403.2710, 5101.929
404.4660, 5355.644
405.6610, 5308.419
406.8560, 5356.255
408.0510, 5068.150
409.2450, 5081.106
410.4400, 4705.119
411.6340, 4516.190
412.8280, 4125.319
414.0220, 3757.502
415.2160, 3581.741
416.4100, 3048.036
417.6030, 2660.385
418.7970, 2324.786
419.9900, 2077.242
421.1830, 1750.749
422.3760, 1422.307
423.5690, 1121.917
424.7610, 1112.576
425.9540, 899.2842
427.1460, 672.0420
428.3380, 580.8472
429.5300, 437.7002
430.7220, 352.6001
431.9140, 308.5459
433.1050, 210.8989
434.2970, 98.57373
435.4880, 109.6538
436.6790, 59.77832
437.8700, 70.67285
439.0610, 57.74512
440.2510, 73.40723
441.4420, 34.69971
442.6320, 43.03320
443.8220, 9.406738
445.0120, 12.81299
446.2020, 12.25293
447.3910, 33.27441
448.5810, 34.21191
449.7700, 24.26465
450.9600, 49.72705
452.1490, 76.18701
453.3370, 31.65576
454.5260, 84.11719
455.7150, 157.5952
456.9030, 121.1245
458.0910, 59.68945
459.2800, 136.2646
460.4670, 119.8857
461.6550, 248.5474
462.8430, 225.3096
464.0300, 274.1626
465.2180, 201.1313
466.4050, 311.1826
467.5920, 293.3696
468.7790, 222.6855
469.9650, 215.0977
471.1520, 163.6040
472.3380, 148.1826
473.5250, 123.8257
474.7110, 109.5249
475.8970, 88.27441
477.0820, 43.06494
478.2680, 22.87646
479.4540, 123.2983
480.6390, 166.5005
481.8240, 255.7295
483.0090, 287.9844
484.1940, 424.2666
485.3780, 496.5742
486.5630, 562.9082
487.7470, 713.2681
488.9320, 706.6533
490.1160, 815.4419
491.3000, 974.4990
492.4830, 963.9585
493.6670, 1070.442
494.8500, 1150.949
496.0340, 1136.479
497.2170, 1173.032
498.4000, 1007.607
499.5820, 986.2056
500.7650, 859.8252
501.9480, 811.4653
503.1300, 659.1265
504.3120, 569.5396
505.4940, 477.7427
506.6760, 378.2324
507.8580, 337.9736
509.0390, 297.7334
510.2210, 215.1880
511.4020, 170.3101
512.5830, 105.1255
513.7640, 33.95410
514.9450, 34.77197
516.1250, 42.42090
517.3060, 53.65869
518.4860, 103.9482
519.6660, 150.3154
520.8460, 48.78271
522.0260, 118.3022
523.2060, 127.9082
524.3850, 42.60742
525.5650, 29.35693
526.7440, 116.1523
527.9230, 119.0361
529.1020, 78.00879
530.2810, 96.05273
531.4590, 46.82568
532.6380, 58.68945
533.8160, 140.5425
534.9940, 152.4058
536.1720, 180.2793
537.3500, 202.1655
538.5270, 222.0654
539.7050, 230.9785
540.8820, 195.9058
542.0590, 171.8467
543.2360, 188.7979
544.4130, 205.2339
545.5900, 280.7407
546.7660, 300.7314
547.9430, 386.7354
549.1190, 394.7515
550.2950, 415.7808
551.4710, 405.8223
552.6470, 418.8765
553.8220, 394.9434
554.9980, 374.0225
556.1730, 453.1128
557.3480, 501.7524
558.5230, 693.3320
559.6980, 695.4590
560.8730, 735.5981
562.0470, 833.7495
563.2220, 859.9126
564.3960, 919.2900
565.5700, 971.6274
566.7440, 1025.471
567.9170, 1093.681
569.0910, 1173.902
570.2640, 1311.135
571.4380, 1233.379
572.6110, 1421.635
573.7840, 1539.901
574.9570, 1804.179
576.1290, 1807.844
577.3020, 2203.770
578.4740, 1882.081
579.6460, 2012.404
580.8180, 2132.737
581.9900, 2365.083
583.1620, 2274.438
584.3330, 2450.807
585.5040, 2571.969
586.6760, 2768.208
587.8470, 2918.414
589.0180, 3122.776
590.1880, 3159.199
591.3590, 3418.809
592.5290, 3494.132
593.7000, 3762.022
594.8700, 3833.046
596.0400, 3956.335
597.2090, 4203.587
598.3790, 4439.700
599.5490, 4806.926
600.7180, 4907.980
601.8870, 5244.808
603.0560, 5442.528
604.2250, 5719.406
605.3940, 5935.527
606.5620, 6351.523
607.7300, 6671.430
608.8990, 6917.234
610.0670, 7359.816
611.2350, 7539.748
612.4020, 8023.418
613.5700, 8448.869
614.7370, 8927.597
615.9050, 9224.053
617.0720, 9537.609
618.2390, 10025.61
619.4060, 10377.68
620.5720, 10911.71
621.7390, 11418.80
622.9050, 11826.94
624.0710, 12228.13
625.2370, 12641.50
626.4030, 12841.62
627.5690, 13401.95
628.7340, 13742.31
629.9000, 14126.73
631.0650, 14289.20
632.2300, 14680.73
633.3950, 14591.33
634.5600, 14934.99
635.7240, 14795.70
636.8890, 14804.44
638.0530, 14765.23
639.2170, 14819.06
640.3810, 14563.94
641.5450, 14191.86
642.7080, 13805.80
643.8720, 13664.78
645.0350, 13214.81
646.1980, 12885.86
647.3610, 12531.95
648.5240, 12212.09
649.6870, 11518.26
650.8490, 11236.46
652.0120, 10657.71
653.1740, 10235.45
654.3360, 9700.900
655.4980, 9185.363
656.6600, 8765.795
657.8210, 8300.999
658.9830, 7857.677
660.1440, 7516.027
661.3050, 7073.101
662.4660, 6790.296
663.6270, 6284.922
664.7870, 6136.352
665.9480, 5702.521
667.1080, 5418.838
668.2680, 5137.004
669.4280, 5013.581
670.5880, 4585.113
671.7480, 4542.189
672.9070, 4214.737
674.0670, 3999.378
675.2260, 3805.210
676.3850, 3557.257
677.5440, 3411.354
678.7030, 3301.490
679.8610, 3162.666
681.0200, 2955.878
682.1780, 2849.088
683.3360, 2830.391
684.4940, 2646.747
685.6520, 2563.149
686.8090, 2399.591
687.9670, 2339.074
689.1240, 2297.594
690.2810, 2139.151
691.4380, 2055.749
692.5950, 2066.384
693.7520, 1957.059
694.9080, 1794.771
696.0650, 1839.522
697.2210, 1738.312
698.3770, 1706.142
699.5330, 1689.008
700.6880, 1633.909
701.8440, 1539.848
702.9990, 1494.822
704.1550, 1459.835
705.3100, 1421.820
706.4650, 1425.058
707.6190, 1407.098
708.7740, 1449.259
709.9290, 1488.455
711.0830, 1510.685
712.2370, 1440.949
713.3910, 1372.247
714.5450, 1270.579
715.6980, 1252.945
716.8520, 1135.345
718.0050, 1185.779
719.1580, 1114.246
720.3110, 1129.747
721.4640, 1126.282
722.6170, 1035.850
723.7700, 1170.452
724.9220, 986.0898
726.0740, 1014.766
727.2260, 933.4780
728.3780, 858.2354
729.5300, 958.0264
730.6810, 926.8618
731.8330, 963.7485
732.9840, 912.6899
734.1350, 911.6797
735.2860, 850.7266
736.4370, 794.8496
737.5880, 721.0400
738.7380, 797.2837
739.8880, 793.5996
741.0390, 734.9834
742.1890, 757.4668
743.3380, 690.0425
744.4880, 677.7236
745.6380, 712.5225
746.7870, 680.5620
747.9360, 720.0947
749.0850, 725.8242
750.2340, 703.4131
751.3830, 740.6743
752.5310, 683.1958
753.6800, 660.5635
754.8280, 624.2056
755.9760, 665.4351
757.1240, 642.3882
758.2720, 621.8628
759.4190, 606.9590
760.5670, 575.3027
761.7140, 556.6245
762.8610, 541.1353
764.0080, 664.0767
765.1550, 587.6450
766.3020, 608.4883
767.4480, 460.2603
768.5950, 513.8350
769.7410, 552.7759
770.8870, 583.5244
772.0330, 556.2598
773.1780, 581.6284
774.3240, 602.6152
775.4690, 643.6851
776.6140, 547.0117
777.7590, 624.7451
778.9040, 524.1704
780.0490, 593.6504
781.1940, 608.8545
782.3380, 478.6328
783.4820, 523.6182
784.6260, 534.5269
785.7700, 587.6455
786.9140, 591.0532
788.0580, 534.0903
789.2010, 591.6064
790.3450, 518.6982
791.4880, 489.3384
792.6310, 397.8643
793.7730, 414.7764
794.9160, 514.0776
796.0590, 453.6367
797.2010, 505.4404
798.3430, 464.5825
799.4850, 627.4087
800.6270, 522.5659
801.7690, 596.7969
802.9100, 579.0015
804.0520, 476.1157
805.1930, 571.9570
806.3340, 544.5747
807.4750, 542.1445
808.6160, 498.0728
809.7560, 499.3643
810.8970, 518.4424
812.0370, 468.5957
813.1770, 621.5430
814.3170, 565.4917
815.4570, 432.3208
816.5960, 567.0771
817.7360, 564.9751
818.8750, 540.1836
820.0140, 549.6582
821.1530, 557.4849
822.2920, 513.3662
823.4310, 491.5244
824.5690, 543.7168
825.7070, 526.5220
826.8460, 539.1943
827.9840, 504.3135
829.1220, 515.1821
830.2590, 494.1401
831.3970, 469.2446
832.5340, 560.1001
833.6710, 504.2085
834.8080, 542.3750
835.9450, 390.8687
837.0820, 466.2944
838.2190, 479.8027
839.3550, 471.4604
840.4910, 510.3516
841.6270, 384.0996
842.7630, 424.9131
843.8990, 472.5601
845.0350, 523.1333
846.1700, 415.3506
847.3060, 507.4194
848.4410, 470.4819
849.5760, 513.5391
850.7100, 404.5894
851.8450, 500.6323
852.9800, 372.6685
854.1140, 377.6968
855.2480, 397.7168
856.3820, 387.7285
857.5160, 259.7314
858.6500, 307.7261
859.7830, 283.7104
860.9170, 237.7412
862.0500, 264.0342
863.1830, 291.1333
864.3160, 271.2793
865.4480, 268.9756
866.5810, 240.2261
867.7130, 241.3618
868.8460, 164.4189
869.9780, 184.4600
871.1100, 119.4424
872.2410, 67.30249
873.3730, 89.17676
874.5050, 94.00830
875.6360, 129.8826
876.7670, 85.87158
877.8980, 70.82495
879.0290, 70.93921
880.1590, 64.54590
881.2900, 33.27710
882.4200, 5.989746
883.5500, 51.31860
884.6800, 42.58032
885.8100, 38.88379
886.9400, 21.31812
888.0690, 55.67700
889.1990, 18.19849
890.3280, 20.59790
891.4570, 107.1895
892.5860, 84.58179
893.7140, 58.05444
894.8430, 99.62158
895.9710, 53.16309
897.1000, 98.85327
898.2280, 3.636230
899.3560, 57.50171
900.4830, 113.6240
901.6110, 20.77808
902.7380, 49.90015
903.8660, 124.7983
904.9930, 113.1733
906.1200, 124.5400
907.2460, 75.07251
908.3730, 83.78223
909.5000, 12.57642
910.6260, 44.41748
911.7520, 15.32495
912.8780, 68.28296
914.0040, 14.30493
915.1290, 52.60474
916.2550, 8.781006
917.3800, 32.06494
918.5050, 2.255615
919.6300, 33.50806
920.7550, 49.74414
921.8800, 1.080566
923.0040, 13.68799
924.1290, 4.747559
925.2530, 36.76270
926.3770, 78.23340
927.5010, 19.66797
928.6250, 21.94141
929.7480, 5.383301
930.8720, 28.65625
931.9950, 31.11499
933.1180, 71.04053
934.2410, 29.17725
935.3640, 20.44482
936.4860, 21.46411
937.6090, 3.132324
938.7310, 113.3435
939.8530, 3.786865
940.9750, 77.08325
942.0970, 86.84399
943.2180, 64.56128
944.3400, 43.23267
945.4610, 17.85645
946.5820, 17.42554
947.7030, 74.93579
948.8240, 11.60059
949.9450, 88.78882
951.0650, 97.13306
952.1860, 87.43066
953.3060, 64.68091
954.4260, 0.1184080
955.5460, 4.987305
956.6650, 11.53564
957.7850, 76.06104
958.9040, 75.00366
960.0230, 109.8950
961.1420, 127.7390
962.2610, 85.53711
963.3800, 108.0366
964.4990, 101.3232
965.6170, 90.97339
966.7350, 114.7183
967.8530, 93.33960
968.9710, 89.89209
970.0890, 162.3521
971.2070, 171.7583
972.3240, 163.1189
973.4410, 146.4353
974.5580, 119.7043
975.6750, 137.7869
976.7920, 131.0232
977.9090, 151.7002
979.0250, 161.4868
980.1410, 214.5139
981.2580, 260.4958
982.3740, 313.4351
983.4890, 469.3496
984.6050, 593.2449
985.7200, 531.0542
986.8360, 511.8191
987.9510, 419.5403
989.0660, 373.2178
990.1810, 265.8508
991.2950, 313.4399
992.4100, 275.9846
993.5240, 289.4849
994.6390, 257.9414
995.7530, 199.3535
996.8660, 239.7188
997.9800, 282.0378
999.0940, 268.3789
1000.207, 216.8801
1001.320, 226.3274
1002.433, 243.4673
1003.546, 245.9148
1004.659, 257.9961
1005.772, 293.3003
1006.884, 280.0745
1007.996, 294.3677
1009.108, 275.2346
1010.220, 245.0559
1011.332, 250.8303
1012.444, 280.5835
1013.555, 256.3831
1014.666, 299.1504
1015.777, 344.8984
1016.888, 315.5303
1017.999, 333.0293
1019.110, 250.3962
1020.220, 325.1116
1021.331, 266.4763
1022.441, 291.6135
1023.551, 253.3281
1024.661, 314.3953
1025.770, 217.1169
1026.880, 215.6790
1027.989, 220.9939
1029.098, 189.8228
1030.207, 209.0220
1031.316, 206.9824
1032.425, 218.4446
1033.533, 261.4121
1034.642, 239.7808
1035.750, 219.8340
1036.858, 155.0994
1037.966, 230.4517
1039.073, 198.5588
1040.181, 205.6570
1041.288, 244.6196
1042.396, 456.0823
1043.503, 362.5186
1044.610, 372.4172
1045.716, 321.1792
1046.823, 204.0674
1047.929, 254.2722
1049.036, 134.3054
1050.142, 140.8706
1051.248, 233.6025
1052.353, 244.9622
1053.459, 204.7390
1054.564, 166.3167
1055.670, 241.9001
1056.775, 223.9771
1057.880, 246.8933
1058.985, 252.2996
1060.089, 283.0837
1061.194, 227.9543
1062.298, 308.4980
1063.402, 201.6152
1064.506, 206.3826
1065.610, 202.0291
1066.713, 187.1216
1067.817, 144.0276
1068.920, 235.3372
1070.023, 218.6619
1071.126, 271.9470
1072.229, 211.2161
1073.332, 168.9780
1074.435, 199.7637
1075.537, 219.8596
1076.639, 257.0942
1077.741, 262.3765
1078.843, 389.4954
1079.945, 473.7410
1081.046, 580.3960
1082.148, 823.9028
1083.249, 1289.680
1084.350, 1861.222
1085.451, 2236.699
1086.551, 1621.911
1087.652, 992.9778
1088.752, 602.3469
1089.853, 363.8245
1090.953, 223.0818
1092.053, 283.0049
1093.152, 206.3186
1094.252, 208.8933
1095.351, 111.8113
1096.451, 124.9956
1097.550, 178.0674
1098.649, 121.9395
1099.748, 139.0061
1100.846, 143.6055
1101.945, 152.4949
1103.043, 157.9443
1104.141, 164.0149
1105.239, 160.9568
1106.337, 162.1533
1107.434, 155.1047
1108.532, 123.2161
1109.629, 161.0605
1110.726, 128.2637
1111.823, 196.3406
1112.920, 159.6895
1114.017, 167.3989
1115.113, 140.9590
1116.210, 134.3748
1117.306, 257.9795
1118.402, 220.3455
1119.498, 286.6875
1120.593, 390.0928
1121.689, 345.4087
1122.784, 368.7271
1123.879, 389.9768
1124.974, 384.1995
1126.069, 354.6187
1127.164, 292.8059
1128.259, 240.8167
1129.353, 172.8018
1130.447, 119.5439
1131.541, 69.83667
1132.635, 70.63770
1133.729, 161.4988
1134.822, 47.49365
1135.916, 122.3308
1137.009, 57.19116
1138.102, 81.28271
1139.195, 137.1907
1140.288, 141.1218
1141.380, 128.0640
1142.473, 132.2603
1143.565, 118.1477
1144.657, 95.34106
1145.749, 90.99731
1146.841, 76.85571
1147.932, 62.64062
1149.024, 58.40381
1150.115, 49.15308
1151.206, 55.76367
1152.297, 123.6860
1153.388, 138.3657
1154.479, 26.20923
1155.569, 118.7720
1156.659, 59.47217
1157.750, 4.104736
1158.839, 113.3247
1159.929, 74.87012
1161.019, 11.27515
1162.108, 11.27588
1163.198, 35.18799
1164.287, 45.68506
1165.376, 34.06372
1166.465, 38.84766
1167.553, 11.60059
1168.642, 21.86938
1169.730, 4.531738
1170.818, 30.10498
1171.906, 60.76025
1172.994, 23.52148
1174.082, 4.293701
1175.170, 52.05664
1176.257, 10.82153
1177.344, 53.57910
1178.431, 46.33032
1179.518, 69.09204
1180.605, 101.6260
1181.691, 50.17627
1182.778, 13.04736
1183.864, 10.31128
1184.950, 21.27539
1186.036, 17.89331
1187.122, 28.80518
1188.207, 43.64697
1189.292, 22.31274
1190.378, 34.91431
1191.463, 39.63574
1192.548, 23.21582
1193.632, 33.79761
1194.717, 58.37476
1195.801, 34.09424
1196.886, 22.66870
1197.970, 48.20996
1199.054, 46.63110
1200.137, 32.18066
1201.221, 49.72388
1202.305, 76.26587
1203.388, 29.80371
1204.471, 86.27148
1205.554, 24.79639
1206.637, 28.31104
1207.719, 7.182373
1208.802, 10.68652
1209.884, 95.80151
1210.966, 26.28857
1212.048, 54.81152
1213.130, 12.29688
1214.212, 118.7734
1215.293, 54.25098
1216.374, 36.72119
1217.456, 1.185547
1218.536, 89.65332
1219.617, 31.12817
1220.698, 10.60498
1221.778, 85.22217
1222.859, 67.68799
1223.939, 30.14746
1225.019, 123.4631
1226.099, 63.71509
1227.178, 62.01978
1228.258, 67.45923
1229.337, 82.74927
1230.417, 12.89062
1231.496, 26.47974
1232.574, 78.88672
1233.653, 116.3220
1234.732, 5.276123
1235.810, 45.32104
