##NAMES=Brookite
##RRUFFID=R050591
##IDEAL CHEMISTRY=Ti^4+^O_2_
##LOCALITY=Taftan, near Dalbandi, Baluchistan, Pakistan
##OWNER=RRUFF
##SOURCE=Wayne Thompson
##DESCRIPTION=Yellowish-brown to reddish-brown thin tabular crystal
##STATUS=The identification of this mineral has been confirmed by X-ray diffraction and chemical analysis
##URL=rruff.info/R050591
##MEASURED CHEMISTRY=Ti_1.00_O_2_
##PIN_ID=M00274
##ORIENTATION=Laser parallel to b* (0 1 0). Fiducial mark perpendicular to laser is parallel to c [0 0 1]
51.43100, 0.0000000E+00
52.67100, 32.08731
53.91000, 28.62601
55.14900, 71.03345
56.38700, 88.03033
57.62600, 103.5337
58.86400, 116.4857
60.10300, 106.7693
61.34100, 63.06314
62.57900, 16.41306
63.81700, 5.720764
65.05400, 20.13556
66.29200, 31.28278
67.52900, 24.83850
68.76700, 6.906250
70.00400, 26.42554
71.24100, 74.07489
72.47700, 89.95538
73.71400, 177.9894
74.95100, 242.1055
76.18700, 313.2275
77.42300, 361.2887
78.65900, 462.2307
79.89500, 527.0020
81.13100, 619.5613
82.36700, 686.8792
83.60200, 754.3591
84.83700, 877.6851
86.07200, 892.1223
87.30800, 965.2330
88.54200, 1055.003
89.77700, 1180.371
91.01200, 1233.299
92.24600, 1294.743
93.48000, 1368.663
94.71400, 1370.082
95.94800, 1489.011
97.18200, 1611.338
98.41600, 1590.045
99.64900, 1774.120
100.8830, 1842.552
102.1160, 1900.330
103.3490, 2092.446
104.5820, 2190.890
105.8150, 2444.656
107.0470, 2641.738
108.2800, 2792.131
109.5120, 3172.863
110.7440, 3473.959
111.9760, 3725.426
113.2080, 4364.254
114.4400, 5601.431
115.6710, 6888.945
116.9030, 8516.788
118.1340, 9286.335
119.3650, 10677.42
120.5960, 10879.19
121.8270, 11278.25
123.0580, 11822.34
124.2880, 11631.14
125.5190, 11094.98
126.7490, 10733.98
127.9790, 10516.18
129.2090, 10711.45
130.4390, 11298.76
131.6680, 11910.11
132.8980, 12797.48
134.1270, 14071.92
135.3560, 16117.45
136.5850, 19096.22
137.8140, 22561.18
139.0430, 27388.45
140.2710, 33183.39
141.5000, 40021.46
142.7280, 46940.66
143.9560, 52962.00
145.1840, 57116.48
146.4120, 58991.10
147.6390, 58868.85
148.8670, 56576.75
150.0940, 52518.79
151.3210, 46730.99
152.5490, 40554.32
153.7750, 34331.80
155.0020, 28912.43
156.2290, 24188.21
157.4550, 20464.14
158.6810, 16923.21
159.9080, 14220.43
161.1340, 12569.79
162.3590, 11157.31
163.5850, 10233.99
164.8110, 8961.074
166.0360, 8049.787
167.2610, 7292.121
168.4860, 6415.991
169.7110, 5028.283
170.9360, 3769.794
172.1610, 2864.408
173.3850, 2115.124
174.6100, 1738.944
175.8340, 1261.868
177.0580, 901.8965
178.2820, 692.0300
179.5050, 537.2688
180.7290, 430.6133
181.9520, 318.0640
183.1760, 291.6206
184.3990, 328.2827
185.6220, 347.0513
186.8450, 262.9253
188.0670, 223.9050
189.2900, 238.9900
190.5120, 150.1814
191.7340, 148.4832
192.9560, 38.89404
194.1780, 41.59058
195.4000, 10.97119
196.6220, 139.7498
197.8430, 282.5708
199.0640, 427.2168
200.2860, 821.7649
201.5070, 1304.219
202.7270, 2098.960
203.9480, 3214.817
205.1690, 3976.073
206.3890, 4633.054
207.6090, 4936.289
208.8290, 5004.562
210.0490, 4637.314
211.2690, 4275.562
212.4890, 3382.184
213.7080, 2429.983
214.9280, 1689.818
216.1470, 1166.631
217.3660, 744.7410
218.5850, 469.0381
219.8030, 195.5173
221.0220, 7.826416
222.2400, 88.55908
223.4590, 26.00952
224.6770, 72.85815
225.8950, 4.448730
227.1120, 181.9109
228.3300, 330.5264
229.5480, 631.2905
230.7650, 1102.202
231.9820, 1673.256
233.1990, 2700.449
234.4160, 4006.782
235.6330, 5799.249
236.8490, 7519.848
238.0660, 8927.577
239.2820, 9519.434
240.4980, 9295.417
241.7140, 8785.525
242.9300, 7801.752
244.1460, 6515.101
245.3610, 5099.569
246.5770, 3807.155
247.7920, 2989.856
249.0070, 2261.672
250.2220, 1840.602
251.4370, 1465.644
252.6510, 1111.798
253.8660, 905.0610
255.0800, 797.4336
256.2940, 828.9136
257.5080, 830.5005
258.7220, 871.1919
259.9360, 1016.987
261.1490, 1101.884
262.3630, 1350.882
263.5760, 1549.981
264.7890, 1944.177
266.0020, 2231.472
267.2150, 2813.863
268.4270, 3399.349
269.6400, 4144.926
270.8520, 5129.595
272.0640, 6045.357
273.2760, 7364.210
274.4880, 8642.918
275.7000, 10022.06
276.9120, 11297.05
278.1230, 12201.22
279.3340, 12943.02
280.5450, 12995.81
281.7560, 12756.30
282.9670, 11888.51
284.1780, 10984.37
285.3880, 9742.302
286.5980, 8619.659
287.8090, 7362.922
289.0190, 6467.900
290.2290, 5493.960
291.4380, 4782.105
292.6480, 4158.333
293.8570, 3712.643
295.0670, 3333.035
296.2760, 3115.509
297.4850, 2929.066
298.6930, 2859.704
299.9020, 2779.422
301.1110, 2855.222
302.3190, 2916.102
303.5270, 3285.063
304.7350, 3515.103
305.9430, 4018.223
307.1510, 4423.421
308.3580, 4863.701
309.5660, 5401.055
310.7730, 6013.489
311.9800, 6468.995
313.1870, 6896.575
314.3940, 7157.223
315.6010, 7599.941
316.8070, 8062.724
318.0130, 8495.578
319.2200, 9202.496
320.4260, 9463.484
321.6310, 9527.538
322.8370, 9518.655
324.0430, 9026.843
325.2480, 8253.095
326.4540, 7195.414
327.6590, 6260.865
328.8640, 5123.315
330.0680, 4115.069
331.2730, 3376.708
332.4780, 2685.354
333.6820, 2096.065
334.8860, 1569.840
336.0900, 1183.680
337.2940, 830.9600
338.4980, 653.5508
339.7010, 389.2197
340.9050, 255.2280
342.1080, 204.3862
343.3110, 52.60693
344.5140, 22.08350
345.7170, 139.6992
346.9200, 101.2822
348.1220, 32.81836
349.3240, 29.71826
350.5270, 127.3457
351.7290, 373.0659
352.9310, 581.8779
354.1320, 999.7808
355.3340, 1287.778
356.5350, 1889.868
357.7370, 2274.054
358.9380, 2458.334
360.1390, 2678.705
361.3400, 2655.163
362.5400, 2587.704
363.7410, 2582.331
364.9410, 2039.041
366.1410, 1947.758
367.3410, 1599.547
368.5410, 1260.286
369.7410, 1084.500
370.9400, 912.5957
372.1400, 688.7993
373.3390, 491.0830
374.5380, 317.4468
375.7370, 221.8906
376.9360, 211.4136
378.1350, 103.0156
379.3330, 106.6958
380.5310, 170.4541
381.7300, 97.29053
382.9280, 290.2046
384.1260, 214.1958
385.3230, 321.2637
386.5210, 341.4077
387.7180, 378.6284
388.9160, 325.9248
390.1130, 383.2969
391.3100, 270.7441
392.5060, 532.2666
393.7030, 446.8638
394.9000, 506.5352
396.0960, 626.2812
397.2920, 712.1011
398.4880, 842.9946
399.6840, 1036.961
400.8800, 1050.002
402.0750, 1242.115
403.2710, 1402.301
404.4660, 1405.559
405.6610, 1463.889
406.8560, 1379.292
408.0510, 1225.766
409.2450, 1312.312
410.4400, 996.9292
411.6340, 845.6172
412.8280, 720.3770
414.0220, 396.2070
415.2160, 274.1079
416.4100, 112.0791
417.6030, 21.87939
418.7970, 209.7969
419.9900, 315.7529
421.1830, 426.7964
422.3760, 380.9785
423.5690, 415.2788
424.7610, 370.7104
425.9540, 345.2559
427.1460, 281.8872
428.3380, 244.5815
429.5300, 194.3257
430.7220, 51.09229
431.9140, 153.1763
433.1050, 411.5225
434.2970, 556.9438
435.4880, 933.4453
436.6790, 1088.030
437.8700, 1453.696
439.0610, 1888.451
440.2510, 2258.281
441.4420, 2606.199
442.6320, 2820.196
443.8220, 3152.285
445.0120, 3228.454
446.2020, 3248.690
447.3910, 3276.011
448.5810, 3041.411
449.7700, 2926.878
450.9600, 2692.413
452.1490, 2493.023
453.3370, 2296.703
454.5260, 2096.248
455.7150, 1990.271
456.9030, 1779.155
458.0910, 1549.118
459.2800, 1512.151
460.4670, 1231.251
461.6550, 1087.425
462.8430, 839.6758
464.0300, 759.9927
465.2180, 572.3750
466.4050, 421.8232
467.5920, 256.3379
468.7790, 167.9204
469.9650, 64.57324
471.1520, 75.28809
472.3380, 54.06787
473.5250, 65.90820
474.7110, 136.5835
475.8970, 162.7798
477.0820, 340.8154
478.2680, 448.9170
479.4540, 631.0830
480.6390, 959.3149
481.8240, 1033.611
483.0090, 1129.976
484.1940, 1216.405
485.3780, 1290.900
486.5630, 1348.461
487.7470, 1360.028
488.9320, 1298.590
490.1160, 1488.950
491.3000, 1474.244
492.4830, 1531.129
493.6670, 1727.079
494.8500, 1757.095
496.0340, 1701.174
497.2170, 1706.318
498.4000, 1592.525
499.5820, 1484.797
500.7650, 1342.133
501.9480, 1208.532
503.1300, 1036.994
504.3120, 945.5186
505.4940, 829.5122
506.6760, 756.5776
507.8580, 665.4688
509.0390, 658.2437
510.2210, 626.0864
511.4020, 594.9922
512.5830, 698.9639
513.7640, 842.9971
514.9450, 879.0913
516.1250, 1010.246
517.3060, 1167.462
518.4860, 1310.738
519.6660, 1569.074
520.8460, 1728.470
522.0260, 2094.927
523.2060, 2396.441
524.3850, 2743.017
525.5650, 3201.651
526.7440, 3622.344
527.9230, 4045.095
529.1020, 4551.906
530.2810, 5057.775
531.4590, 5571.701
532.6380, 6083.685
533.8160, 6432.728
534.9940, 7011.828
536.1720, 7390.985
537.3500, 7744.198
538.5270, 7994.469
539.7050, 8166.786
540.8820, 8306.181
542.0590, 8307.618
543.2360, 8177.115
544.4130, 8089.668
545.5900, 7614.273
546.7660, 7413.937
547.9430, 6840.654
549.1190, 6623.426
550.2950, 6120.253
551.4710, 5651.133
552.6470, 5330.068
553.8220, 4992.058
554.9980, 4644.100
556.1730, 4327.196
557.3480, 4031.347
558.5230, 3862.549
559.6980, 3479.042
560.8730, 3226.243
562.0470, 3251.747
563.2220, 3036.217
564.3960, 2818.194
565.5700, 2824.655
566.7440, 2688.271
567.9170, 2661.817
569.0910, 2482.856
570.2640, 2423.863
571.4380, 2496.954
572.6110, 2571.418
573.7840, 2550.166
574.9570, 2574.501
576.1290, 2614.126
577.3020, 2701.677
578.4740, 2734.657
579.6460, 2691.617
580.8180, 2544.354
581.9900, 2667.163
583.1620, 2534.368
584.3330, 2401.938
585.5040, 2537.619
586.6760, 2395.216
587.8470, 2422.463
589.0180, 2399.090
590.1880, 2411.941
591.3590, 2374.828
592.5290, 2513.468
593.7000, 2519.934
594.8700, 2556.828
596.0400, 2725.896
597.2090, 2824.096
598.3790, 2978.912
599.5490, 3079.193
600.7180, 3263.496
601.8870, 3402.479
603.0560, 3550.313
604.2250, 3763.815
605.3940, 4088.375
606.5620, 4257.989
607.7300, 4465.708
608.8990, 4584.899
610.0670, 4819.397
611.2350, 5019.179
612.4020, 5214.082
613.5700, 5408.811
614.7370, 5754.792
615.9050, 5971.890
617.0720, 6248.434
618.2390, 6509.648
619.4060, 6785.915
620.5720, 7072.248
621.7390, 7396.644
622.9050, 7588.099
624.0710, 7997.615
625.2370, 8298.265
626.4030, 8648.890
627.5690, 8855.571
628.7340, 8881.312
629.9000, 9065.147
631.0650, 9133.808
632.2300, 9232.023
633.3950, 9181.041
634.5600, 9074.111
635.7240, 8874.230
636.8890, 8713.396
638.0530, 8499.615
639.2170, 8311.881
640.3810, 7832.194
641.5450, 7415.552
642.7080, 7104.955
643.8720, 6695.400
645.0350, 6291.890
646.1980, 5859.420
647.3610, 5498.640
648.5240, 5020.603
649.6870, 4770.251
650.8490, 4375.943
652.0120, 4008.673
653.1740, 3860.443
654.3360, 3516.254
655.4980, 3216.102
656.6600, 2917.986
657.8210, 2685.907
658.9830, 2518.866
660.1440, 2338.861
661.3050, 2152.891
662.4660, 1964.957
663.6270, 1788.056
664.7870, 1773.189
665.9480, 1535.357
667.1080, 1507.558
668.2680, 1294.792
669.4280, 1300.061
670.5880, 1048.362
671.7480, 1097.694
672.9070, 955.0588
674.0670, 880.4534
675.2260, 843.8792
676.3850, 817.3350
677.5440, 805.8213
678.7030, 717.3374
679.8610, 713.8833
681.0200, 631.4583
682.1780, 607.0615
683.3360, 450.6931
684.4940, 467.3518
685.6520, 404.0369
686.8090, 289.7478
687.9670, 375.4844
689.1240, 412.2463
690.2810, 299.0342
691.4380, 285.8467
692.5950, 268.6831
693.7520, 219.5432
694.9080, 125.4272
696.0650, 101.3354
697.2210, 86.26685
698.3770, 150.2205
699.5330, 71.21094
700.6880, 87.27734
701.8440, 46.44312
702.9990, 40.73438
704.1550, 7.860352
705.3100, 1.661865
706.4650, 69.63623
707.6190, 50.78857
708.7740, 28.64990
709.9290, 54.47876
711.0830, 37.56372
712.2370, 34.20483
713.3910, 24.30688
714.5450, 47.23022
715.6980, 62.51514
716.8520, 50.29224
718.0050, 85.03491
719.1580, 24.02393
720.3110, 79.05322
721.4640, 47.97339
722.6170, 89.87012
723.7700, 53.58594
724.9220, 25.84717
726.0740, 60.92700
727.2260, 47.91455
728.3780, 8.350342
729.5300, 10.88647
730.6810, 24.92847
731.8330, 1.508301
732.9840, 8.060547
734.1350, 22.94580
735.2860, 13.86694
736.4370, 38.93018
737.5880, 9.033203
738.7380, 44.47607
739.8880, 18.80835
741.0390, 31.84912
742.1890, 38.32690
743.3380, 36.94189
744.4880, 59.76733
745.6380, 23.66675
746.7870, 11.26733
747.9360, 3.835693
749.0850, 69.88232
750.2340, 68.34009
751.3830, 102.9453
752.5310, 111.2429
753.6800, 75.52832
754.8280, 19.99438
755.9760, 117.3657
757.1240, 110.8496
758.2720, 163.9280
759.4190, 94.95337
760.5670, 112.1116
761.7140, 121.3481
762.8610, 57.47632
764.0080, 134.5649
765.1550, 140.9336
766.3020, 188.1448
767.4480, 224.8992
768.5950, 168.5239
769.7410, 168.0369
770.8870, 151.4724
772.0330, 244.4375
773.1780, 208.9187
774.3240, 219.3909
775.4690, 149.7297
776.6140, 186.3364
777.7590, 166.8367
778.9040, 196.5859
780.0490, 196.8396
781.1940, 190.1033
782.3380, 159.9021
783.4820, 134.9524
784.6260, 149.9150
785.7700, 193.1750
786.9140, 204.2451
788.0580, 260.6338
789.2010, 240.2312
790.3450, 165.9771
791.4880, 199.7927
792.6310, 201.5510
793.7730, 172.1951
794.9160, 201.3191
796.0590, 215.2109
797.2010, 250.1636
798.3430, 210.9092
799.4850, 206.7905
800.6270, 265.2126
801.7690, 232.9626
802.9100, 257.6306
804.0520, 224.2830
805.1930, 253.0557
806.3340, 244.7266
807.4750, 274.5989
808.6160, 280.0117
809.7560, 265.5005
810.8970, 230.8394
812.0370, 278.3455
813.1770, 200.7515
814.3170, 228.1788
815.4570, 221.7185
816.5960, 274.1240
817.7360, 201.5125
818.8750, 240.7999
820.0140, 231.0953
821.1530, 219.2139
822.2920, 189.1323
823.4310, 275.0988
824.5690, 159.0646
825.7070, 228.9961
826.8460, 226.0856
827.9840, 171.0149
829.1220, 218.8218
830.2590, 177.5568
831.3970, 244.4810
832.5340, 173.4199
833.6710, 220.3070
834.8080, 189.9995
835.9450, 194.7404
837.0820, 184.4287
838.2190, 183.8774
839.3550, 213.7358
840.4910, 221.2118
841.6270, 191.5248
842.7630, 159.9486
843.8990, 145.9860
845.0350, 117.8616
846.1700, 121.7971
847.3060, 165.2523
848.4410, 104.5984
849.5760, 200.9268
850.7100, 137.6830
851.8450, 72.27283
852.9800, 86.73743
854.1140, 138.9818
855.2480, 129.3060
856.3820, 134.6665
857.5160, 114.2125
858.6500, 108.2261
859.7830, 78.83997
860.9170, 63.47778
862.0500, 84.03027
863.1830, 31.17310
864.3160, 70.87134
865.4480, 55.30042
866.5810, 0.2816160
867.7130, 15.39026
868.8460, 27.32812
869.9780, 69.70227
871.1100, 37.99548
872.2410, 26.25659
873.3730, 3.680786
874.5050, 12.82031
875.6360, 7.865479
876.7670, 29.62695
877.8980, 34.21667
879.0290, 8.595093
880.1590, 43.40601
881.2900, 28.74463
882.4200, 10.77551
883.5500, 12.03564
884.6800, 33.89990
885.8100, 16.44666
886.9400, 23.16565
888.0690, 49.87097
889.1990, 1.661865
890.3280, 18.52759
891.4570, 18.77686
892.5860, 18.27820
893.7140, 29.79248
894.8430, 28.85400
895.9710, 14.95789
897.1000, 16.16382
898.2280, 14.40149
899.3560, 39.08521
900.4830, 2.339355
901.6110, 0.1359860
902.7380, 40.43298
903.8660, 14.01233
904.9930, 18.35999
906.1200, 21.56897
907.2460, 3.840576
908.3730, 19.07825
909.5000, 19.22314
910.6260, 2.791382
911.7520, 70.13196
912.8780, 17.08630
914.0040, 57.95190
915.1290, 27.78479
916.2550, 95.56201
917.3800, 53.27026
918.5050, 112.9072
919.6300, 122.5330
920.7550, 93.07678
921.8800, 107.6830
923.0040, 81.21472
924.1290, 107.5735
925.2530, 87.05481
926.3770, 46.42224
927.5010, 138.7559
928.6250, 150.9121
929.7480, 96.05591
930.8720, 118.0742
931.9950, 109.1371
933.1180, 132.1299
934.2410, 114.0920
935.3640, 167.1184
936.4860, 126.0531
937.6090, 133.8479
938.7310, 133.6329
939.8530, 117.1281
940.9750, 127.1302
942.0970, 100.8883
943.2180, 153.3926
944.3400, 141.9426
945.4610, 157.4045
946.5820, 134.9381
947.7030, 144.3202
948.8240, 139.1764
949.9450, 123.0797
951.0650, 136.3809
952.1860, 135.6190
953.3060, 144.8359
954.4260, 140.9193
955.5460, 159.1467
956.6650, 184.1338
957.7850, 171.2028
958.9040, 168.0691
960.0230, 168.9541
961.1420, 146.7662
962.2610, 162.6006
963.3800, 174.4916
964.4990, 185.2598
965.6170, 153.0648
966.7350, 147.7130
967.8530, 150.3883
968.9710, 170.0115
970.0890, 160.5752
971.2070, 163.1338
972.3240, 206.5742
973.4410, 135.0485
974.5580, 185.3700
975.6750, 152.7587
976.7920, 175.0155
977.9090, 151.2116
979.0250, 165.2499
980.1410, 165.9031
981.2580, 182.8572
982.3740, 169.9390
983.4890, 198.5317
984.6050, 200.4481
985.7200, 176.3474
986.8360, 227.5385
987.9510, 181.7536
989.0660, 172.4222
990.1810, 185.0511
991.2950, 200.7208
992.4100, 201.1735
993.5240, 213.5623
994.6390, 184.7365
995.7530, 227.8171
996.8660, 174.0198
997.9800, 191.4974
999.0940, 204.6710
1000.207, 201.4366
1001.320, 198.6463
1002.433, 177.4105
1003.546, 210.6028
1004.659, 190.4894
1005.772, 167.7170
1006.884, 223.7423
1007.996, 176.9907
1009.108, 193.5924
1010.220, 158.9584
1011.332, 227.0303
1012.444, 189.8994
1013.555, 175.2540
1014.666, 153.2885
1015.777, 184.3523
1016.888, 165.6414
1017.999, 168.9127
1019.110, 160.7366
1020.220, 184.0154
1021.331, 185.1743
1022.441, 179.7043
1023.551, 166.9639
1024.661, 176.0504
1025.770, 163.5953
1026.880, 179.3720
1027.989, 153.8151
1029.098, 141.1815
1030.207, 145.4912
1031.316, 132.6886
1032.425, 160.9150
1033.533, 143.1716
1034.642, 149.0900
1035.750, 142.1116
1036.858, 113.5556
1037.966, 121.0735
1039.073, 138.6705
1040.181, 108.3073
1041.288, 99.42053
1042.396, 105.9655
1043.503, 128.4878
1044.610, 125.1349
1045.716, 104.3878
1046.823, 109.7649
1047.929, 103.8104
1049.036, 101.7830
1050.142, 105.6753
1051.248, 108.5818
1052.353, 99.11951
1053.459, 106.7080
1054.564, 78.98621
1055.670, 84.38763
1056.775, 112.4522
1057.880, 70.81293
1058.985, 84.90784
1060.089, 78.44141
1061.194, 108.9893
1062.298, 101.2340
1063.402, 122.0967
1064.506, 95.29828
1065.610, 99.36676
1066.713, 94.68268
1067.817, 66.72375
1068.920, 77.22150
1070.023, 98.30554
1071.126, 88.52893
1072.229, 80.64026
1073.332, 78.48730
1074.435, 59.56714
1075.537, 107.3848
1076.639, 84.64587
1077.741, 93.80554
1078.843, 64.98944
1079.945, 89.00726
1081.046, 71.00922
1082.148, 71.98267
1083.249, 71.81580
1084.350, 74.66260
1085.451, 67.55237
1086.551, 87.43921
1087.652, 41.73358
1088.752, 88.04547
1089.853, 57.21918
1090.953, 94.22809
1092.053, 78.20844
1093.152, 84.15613
1094.252, 66.92926
1095.351, 41.78558
1096.451, 59.71680
1097.550, 39.67664
1098.649, 65.48627
1099.748, 47.14282
1100.846, 47.85333
1101.945, 50.70343
1103.043, 40.41504
1104.141, 57.13104
1105.239, 38.03815
1106.337, 62.48651
1107.434, 35.26843
1108.532, 55.90137
1109.629, 42.60461
1110.726, 55.12842
1111.823, 33.91260
1112.920, 63.53186
1114.017, 45.20898
1115.113, 51.84924
1116.210, 80.59436
1117.306, 28.31305
1118.402, 34.95563
1119.498, 73.75403
1120.593, 78.35181
1121.689, 64.90869
1122.784, 55.49634
1123.879, 95.47095
1124.974, 82.12805
1126.069, 63.79938
1127.164, 39.40344
1128.259, 52.13879
1129.353, 25.61707
1130.447, 27.67456
1131.541, 52.26965
1132.635, 21.84271
1133.729, 78.40991
1134.822, 23.88940
1135.916, 33.50513
1137.009, 44.23700
1138.102, 16.74567
1139.195, 25.39343
1140.288, 24.03082
1141.380, 22.57001
1142.473, 23.96771
1143.565, 9.771301
1144.657, 19.58716
1145.749, 37.11548
1146.841, 3.536194
1147.932, 12.10858
1149.024, 14.60590
1150.115, 0.8796390
1151.206, 20.62402
1152.297, 5.204041
1153.388, 5.182922
1154.479, 40.43304
1155.569, 8.007690
1156.659, 32.62372
1157.750, 2.208252
1158.839, 8.859741
1159.929, 30.44000
1161.019, 3.003784
1162.108, 1.586548
1163.198, 11.13507
1164.287, 3.820374
1165.376, 9.304504
1166.465, 12.67920
1167.553, 11.31329
1168.642, 14.86072
1169.730, 12.91211
1170.818, 12.11359
1171.906, 0.6598510
1172.994, 3.179626
1174.082, 0.7345580
1175.170, 2.238647
1176.257, 13.05017
1177.344, 0.3754880
1178.431, 8.229248
1179.518, 17.81323
1180.605, 11.39764
1181.691, 4.998352
1182.778, 16.61499
1183.864, 15.19232
1184.950, 7.800415
1186.036, 13.29425
1187.122, 7.136169
1188.207, 6.453796
1189.292, 1.918152
1190.378, 0.4438480
1191.463, 0.2523800
1192.548, 17.42017
1193.632, 11.17261
1194.717, 18.83911
1195.801, 25.41077
1196.886, 5.001160
1197.970, 48.57306
1199.054, 17.03571
1200.137, 29.54150
1201.221, 2.137207
1202.305, 21.69257
1203.388, 26.78094
1204.471, 2.736755
1205.554, 6.171265
1206.637, 0.1892700
1207.719, 1.643799
1208.802, 12.94427
1209.884, 1.453308
1210.966, 18.02356
1212.048, 8.520081
1213.130, 4.161926
1214.212, 21.66644
1215.293, 4.190369
1216.374, 17.68707
1217.456, 14.73016
1218.536, 11.34094
1219.617, 3.239868
1220.698, 19.76520
1221.778, 15.37378
1222.859, 31.91718
1223.939, 12.48737
1225.019, 29.01892
1226.099, 23.42108
1227.178, 17.89990
1228.258, 0.7031250
1229.337, 26.84558
1230.417, 6.318787
1231.496, 7.759033
1232.574, 22.21686
1233.653, 24.64569
1234.732, 32.13330
1235.810, 41.54321
1236.888, 26.05994
1237.966, 0.4819340
