##NAMES=Brookite
##RRUFFID=R050363
##IDEAL CHEMISTRY=Ti^4+^O_2_
##LOCALITY=Magnet Cove, Arkansas, USA
##OWNER=RRUFF
##SOURCE=University of Arizona Mineral Museum
##DESCRIPTION=Black fragment of a prismatic crystal associated with quartz
##STATUS=The identification of this mineral has been confirmed by X-ray diffraction and chemical analysis
##URL=rruff.info/R050363
##MEASURED CHEMISTRY=(Ti_0.94_Nb^5+^_0.03_Fe^3+^_0.03_)_Î£=1_O_2_
##PIN_ID=L01274
##ORIENTATION=Laser parallel to c* (0 0 1). Fiducial mark perpendicular to laser is parallel to a [1 0 0]
51.43100, 0.0000000E+00
52.67100, 60.47168
53.91000, 102.2591
55.14900, 147.1691
56.38700, 180.6454
57.62600, 235.5480
58.86400, 253.0244
60.10300, 157.9898
61.34100, 73.65320
62.57900, 9.635132
63.81700, 45.25085
65.05400, 93.27393
66.29200, 18.85046
67.52900, 8.589844
68.76700, 199.6559
70.00400, 298.1328
71.24100, 385.4039
72.47700, 664.3789
73.71400, 693.4269
74.95100, 1001.813
76.18700, 1432.071
77.42300, 1285.792
78.65900, 1368.658
79.89500, 1463.416
81.13100, 1894.866
82.36700, 2423.858
83.60200, 2454.524
84.83700, 3051.987
86.07200, 2737.934
87.30800, 2760.032
88.54200, 2951.220
89.77700, 3276.416
91.01200, 4057.534
92.24600, 4502.489
93.48000, 4283.378
94.71400, 4537.132
95.94800, 4655.300
97.18200, 4662.969
98.41600, 4775.426
99.64900, 4898.927
100.8830, 5332.926
102.1160, 5317.069
103.3490, 5570.197
104.5820, 6086.350
105.8150, 7139.560
107.0470, 8174.858
108.2800, 9649.275
109.5120, 10969.86
110.7440, 9631.661
111.9760, 8715.722
113.2080, 8994.047
114.4400, 9753.647
115.6710, 11074.53
116.9030, 11608.70
118.1340, 12549.18
119.3650, 14121.96
120.5960, 15853.05
121.8270, 18345.46
123.0580, 20754.21
124.2880, 21322.28
125.5190, 20203.61
126.7490, 18805.02
127.9790, 18080.44
129.2090, 17922.89
130.4390, 18207.36
131.6680, 18664.80
132.8980, 18996.24
134.1270, 19384.82
135.3560, 20278.12
136.5850, 21530.37
137.8140, 23221.13
139.0430, 25680.64
140.2710, 28041.69
141.5000, 30628.53
142.7280, 33889.14
143.9560, 37978.09
145.1840, 42352.42
146.4120, 47760.11
147.6390, 52505.14
148.8670, 57922.57
150.0940, 59875.34
151.3210, 60526.46
152.5490, 60476.96
153.7750, 59446.81
155.0020, 56153.02
156.2290, 52240.57
157.4550, 48712.48
158.6810, 44646.74
159.9080, 40767.36
161.1340, 37183.31
162.3590, 33777.63
163.5850, 30384.29
164.8110, 27010.42
166.0360, 23784.23
167.2610, 20766.83
168.4860, 18128.17
169.7110, 15729.11
170.9360, 13285.46
172.1610, 10945.09
173.3850, 9123.990
174.6100, 7649.166
175.8340, 6500.619
177.0580, 5664.353
178.2820, 4933.368
179.5050, 4150.668
180.7290, 3757.254
181.9520, 3349.126
183.1760, 3103.287
184.3990, 2941.736
185.6220, 2845.476
186.8450, 2829.507
188.0670, 3001.829
189.2900, 3387.445
190.5120, 3720.353
191.7340, 3901.556
192.9560, 3761.052
194.1780, 3213.843
195.4000, 2839.931
196.6220, 2314.312
197.8430, 2198.990
199.0640, 2040.174
200.2860, 2196.095
201.5070, 2991.719
202.7270, 2621.948
203.9480, 2292.020
205.1690, 1593.617
206.3890, 1352.998
207.6090, 1780.639
208.8290, 2112.273
210.0490, 2586.571
211.2690, 2393.634
212.4890, 2295.635
213.7080, 1808.188
214.9280, 1312.607
216.1470, 540.4497
217.3660, 113.7002
218.5850, 106.6553
219.8030, 432.6538
221.0220, 583.3691
222.2400, 677.8457
223.4590, 785.1143
224.6770, 788.2100
225.8950, 720.1421
227.1120, 630.8994
228.3300, 460.2661
229.5480, 206.8433
230.7650, 21.04053
231.9820, 340.2065
233.1990, 698.6582
234.4160, 1203.388
235.6330, 2165.395
236.8490, 3211.673
238.0660, 4573.220
239.2820, 6368.030
240.4980, 8846.104
241.7140, 11621.42
242.9300, 14068.94
244.1460, 15601.68
245.3610, 15937.62
246.5770, 14511.77
247.7920, 12408.13
249.0070, 10068.71
250.2220, 8121.498
251.4370, 6945.504
252.6510, 6123.719
253.8660, 5405.152
255.0800, 4444.801
256.2940, 3513.665
257.5080, 2856.745
258.7220, 2842.040
259.9360, 2145.490
261.1490, 2174.273
262.3630, 1566.213
263.5760, 1349.365
264.7890, 1427.732
266.0020, 1334.842
267.2150, 1530.105
268.4270, 1652.111
269.6400, 1911.329
270.8520, 2061.760
272.0640, 2524.401
273.2760, 2787.257
274.4880, 3150.046
275.7000, 3614.521
276.9120, 3920.930
278.1230, 4246.119
279.3340, 4356.096
280.5450, 4346.089
281.7560, 4379.197
282.9670, 4115.421
284.1780, 3972.662
285.3880, 3650.857
286.5980, 3378.574
287.8090, 3021.697
289.0190, 2751.616
290.2290, 2618.773
291.4380, 2480.270
292.6480, 2493.803
293.8570, 2477.674
295.0670, 2525.781
296.2760, 2696.125
297.4850, 3005.705
298.6930, 3435.521
299.9020, 3719.572
301.1110, 4213.857
302.3190, 4577.376
303.5270, 5318.397
304.7350, 5961.313
305.9430, 6890.330
307.1510, 7647.778
308.3580, 8396.458
309.5660, 9532.368
310.7730, 10598.51
311.9800, 11471.87
313.1870, 12579.46
314.3940, 13455.27
315.6010, 14434.31
316.8070, 15043.56
318.0130, 15479.03
319.2200, 15871.73
320.4260, 15822.63
321.6310, 15809.76
322.8370, 15299.10
324.0430, 14487.67
325.2480, 13610.45
326.4540, 12260.45
327.6590, 10959.66
328.8640, 9634.085
330.0680, 8236.731
331.2730, 7051.590
332.4780, 5906.662
333.6820, 4925.789
334.8860, 4019.451
336.0900, 3299.164
337.2940, 2800.091
338.4980, 2258.230
339.7010, 1919.582
340.9050, 1548.145
342.1080, 1407.916
343.3110, 1414.900
344.5140, 1503.127
345.7170, 1527.600
346.9200, 1864.320
348.1220, 2332.292
349.3240, 2978.517
350.5270, 3864.995
351.7290, 5001.730
352.9310, 6303.723
354.1320, 8259.972
355.3340, 11071.48
356.5350, 14468.25
357.7370, 16667.30
358.9380, 19550.59
360.1390, 22517.13
361.3400, 24111.90
362.5400, 25788.93
363.7410, 24383.27
364.9410, 21423.71
366.1410, 18721.46
367.3410, 15880.94
368.5410, 13100.18
369.7410, 10875.52
370.9400, 8861.183
372.1400, 7387.956
373.3390, 6187.865
374.5380, 5362.265
375.7370, 4532.494
376.9360, 4235.396
378.1350, 3735.542
379.3330, 3548.927
380.5310, 3628.549
381.7300, 3439.412
382.9280, 3569.512
384.1260, 3508.850
385.3230, 3581.426
386.5210, 3449.237
387.7180, 3385.283
388.9160, 3217.568
390.1130, 3280.089
391.3100, 3153.844
392.5060, 2871.834
393.7030, 2603.060
394.9000, 2438.829
396.0960, 2263.214
397.2920, 2052.141
398.4880, 1831.303
399.6840, 1648.697
400.8800, 1598.326
402.0750, 1521.188
403.2710, 1525.292
404.4660, 1413.800
405.6610, 1371.257
406.8560, 1221.102
408.0510, 1136.225
409.2450, 1033.608
410.4400, 909.4482
411.6340, 891.1855
412.8280, 650.4004
414.0220, 478.9121
415.2160, 277.6953
416.4100, 131.2793
417.6030, 17.20410
418.7970, 133.2715
419.9900, 262.4111
421.1830, 399.4922
422.3760, 484.8838
423.5690, 550.8037
424.7610, 571.3467
425.9540, 484.8105
427.1460, 468.1670
428.3380, 378.3838
429.5300, 271.4326
430.7220, 225.2676
431.9140, 33.09863
433.1050, 43.74609
434.2970, 436.6338
435.4880, 685.7793
436.6790, 930.1680
437.8700, 1265.831
439.0610, 1626.377
440.2510, 2111.011
441.4420, 2481.511
442.6320, 3011.262
443.8220, 3535.261
445.0120, 4069.510
446.2020, 4731.002
447.3910, 5444.734
448.5810, 6000.709
449.7700, 6828.922
450.9600, 7551.369
452.1490, 8152.064
453.3370, 8756.997
454.5260, 9379.165
455.7150, 10048.58
456.9030, 10268.22
458.0910, 10641.10
459.2800, 10661.20
460.4670, 10492.52
461.6550, 10079.06
462.8430, 9573.826
464.0300, 9220.461
465.2180, 8813.998
466.4050, 8271.406
467.5920, 7751.026
468.7790, 7214.859
469.9650, 6562.904
471.1520, 5971.155
472.3380, 5478.617
473.5250, 4760.281
474.7110, 4265.151
475.8970, 3934.226
477.0820, 3518.501
478.2680, 3219.979
479.4540, 2867.759
480.6390, 2498.540
481.8240, 2234.621
483.0090, 2041.901
484.1940, 1790.381
485.3780, 1531.058
486.5630, 1691.933
487.7470, 1313.002
488.9320, 1351.268
490.1160, 1295.729
491.3000, 1213.382
492.4830, 1177.229
493.6670, 1161.268
494.8500, 1182.496
496.0340, 1068.915
497.2170, 985.5215
498.4000, 935.0762
499.5820, 801.5986
500.7650, 777.4648
501.9480, 623.8164
503.1300, 527.3516
504.3120, 563.0693
505.4940, 426.9688
506.6760, 366.0742
507.8580, 229.4463
509.0390, 5.112305
510.2210, 94.08789
511.4020, 119.3975
512.5830, 26.95898
513.7640, 52.99414
514.9450, 42.24609
516.1250, 257.7607
517.3060, 346.4922
518.4860, 458.3994
519.6660, 471.4766
520.8460, 811.7217
522.0260, 1041.134
523.2060, 1129.712
524.3850, 1479.455
525.5650, 1759.363
526.7440, 2125.434
527.9230, 2246.666
529.1020, 2683.061
530.2810, 3035.613
531.4590, 3518.326
532.6380, 3880.285
533.8160, 4166.224
534.9940, 4635.404
536.1720, 4892.289
537.3500, 5234.288
538.5270, 5493.871
539.7050, 5757.662
540.8820, 5921.604
542.0590, 6276.838
543.2360, 6237.191
544.4130, 6527.206
545.5900, 6482.159
546.7660, 6279.590
547.9430, 6391.552
549.1190, 6390.939
550.2950, 6425.633
551.4710, 6158.382
552.6470, 6097.646
553.8220, 5876.141
554.9980, 5847.100
556.1730, 5600.620
557.3480, 5629.263
558.5230, 5468.385
559.6980, 5382.033
560.8730, 5389.473
562.0470, 5476.037
563.2220, 5427.834
564.3960, 5492.955
565.5700, 5542.711
566.7440, 5566.002
567.9170, 5912.506
569.0910, 6054.318
570.2640, 6473.713
571.4380, 6785.035
572.6110, 7086.070
573.7840, 7322.772
574.9570, 7787.287
576.1290, 8096.510
577.3020, 8445.817
578.4740, 8590.717
579.6460, 8833.254
580.8180, 8993.006
581.9900, 9010.122
583.1620, 8949.276
584.3330, 8945.111
585.5040, 8546.332
586.6760, 8268.418
587.8470, 7883.231
589.0180, 7296.041
590.1880, 6943.164
591.3590, 6362.089
592.5290, 6134.288
593.7000, 5531.693
594.8700, 5150.977
596.0400, 5005.596
597.2090, 4528.332
598.3790, 4393.197
599.5490, 3947.442
600.7180, 3903.996
601.8870, 3623.018
603.0560, 3338.577
604.2250, 3243.368
605.3940, 3038.689
606.5620, 2973.974
607.7300, 2856.680
608.8990, 2865.372
610.0670, 2941.750
611.2350, 2754.113
612.4020, 2886.763
613.5700, 2899.131
614.7370, 2802.562
615.9050, 2960.091
617.0720, 3151.621
618.2390, 3158.248
619.4060, 3144.938
620.5720, 3249.686
621.7390, 3195.498
622.9050, 3422.374
624.0710, 3492.308
625.2370, 3679.299
626.4030, 3757.345
627.5690, 3969.451
628.7340, 3921.617
629.9000, 4229.836
631.0650, 4338.110
632.2300, 4282.434
633.3950, 4356.811
634.5600, 4554.237
635.7240, 4685.709
636.8890, 4794.230
638.0530, 4807.793
639.2170, 4623.402
640.3810, 4685.056
641.5450, 4577.747
642.7080, 4646.478
643.8720, 4478.240
645.0350, 4477.041
646.1980, 4256.875
647.3610, 3997.740
648.5240, 3944.638
649.6870, 3783.449
650.8490, 3570.404
652.0120, 3245.385
653.1740, 2984.751
654.3360, 3031.776
655.4980, 2667.818
656.6600, 2513.877
657.8210, 2312.953
658.9830, 2015.042
660.1440, 1860.144
661.3050, 1645.059
662.4660, 1534.384
663.6270, 1335.525
664.7870, 1266.674
665.9480, 1246.832
667.1080, 1115.999
668.2680, 948.1675
669.4280, 922.3389
670.5880, 757.5107
671.7480, 711.6841
672.9070, 606.8564
674.0670, 484.0254
675.2260, 411.1890
676.3850, 379.3462
677.5440, 336.4971
678.7030, 275.0649
679.8610, 244.8115
681.0200, 148.9048
682.1780, 156.0132
683.3360, 66.10693
684.4940, 4.830566
685.6520, 9.172852
686.8090, 102.1211
687.9670, 101.9600
689.1240, 34.15332
690.2810, 47.43164
691.4380, 102.7998
692.5950, 136.2900
693.7520, 173.9199
694.9080, 76.70898
696.0650, 108.6113
697.2210, 112.6445
698.3770, 146.8125
699.5330, 113.1294
700.6880, 123.5640
701.8440, 116.1035
702.9990, 161.7236
704.1550, 216.4331
705.3100, 84.24658
706.4650, 54.09766
707.6190, 162.9907
708.7740, 138.9829
709.9290, 162.0815
711.0830, 55.31738
712.2370, 89.64795
713.3910, 111.8735
714.5450, 11.00098
715.6980, 95.67529
716.8520, 62.05273
718.0050, 137.9238
719.1580, 35.97656
720.3110, 73.16260
721.4640, 36.50000
722.6170, 49.34668
723.7700, 20.52246
724.9220, 82.87256
726.0740, 98.13086
727.2260, 69.29980
728.3780, 98.37061
729.5300, 112.3501
730.6810, 43.23975
731.8330, 105.0195
732.9840, 78.81885
734.1350, 72.39551
735.2860, 108.7710
736.4370, 109.1543
737.5880, 188.4395
738.7380, 309.6416
739.8880, 281.7759
741.0390, 251.9097
742.1890, 319.0820
743.3380, 231.6060
744.4880, 367.9458
745.6380, 353.2393
746.7870, 365.8022
747.9360, 317.6040
749.0850, 429.6816
750.2340, 407.7456
751.3830, 516.5298
752.5310, 565.4844
753.6800, 570.0513
754.8280, 558.7446
755.9760, 591.9272
757.1240, 596.3545
758.2720, 581.2505
759.4190, 630.0566
760.5670, 677.4277
761.7140, 607.6953
762.8610, 577.1138
764.0080, 769.7930
765.1550, 766.0229
766.3020, 724.3667
767.4480, 729.8735
768.5950, 739.1455
769.7410, 699.2173
770.8870, 808.9292
772.0330, 859.7251
773.1780, 851.5732
774.3240, 890.8296
775.4690, 926.0771
776.6140, 962.4033
777.7590, 969.5615
778.9040, 965.4424
780.0490, 906.3345
781.1940, 876.9678
782.3380, 922.3047
783.4820, 1009.942
784.6260, 1040.415
785.7700, 998.7637
786.9140, 1012.156
788.0580, 1080.403
789.2010, 1009.554
790.3450, 1073.530
791.4880, 1053.162
792.6310, 1185.380
793.7730, 1066.494
794.9160, 1048.006
796.0590, 1206.816
797.2010, 1241.057
798.3430, 1148.050
799.4850, 1238.033
800.6270, 1299.292
801.7690, 1232.438
802.9100, 1264.698
804.0520, 1254.655
805.1930, 1268.439
806.3340, 1342.433
807.4750, 1365.108
808.6160, 1444.303
809.7560, 1359.019
810.8970, 1440.191
812.0370, 1323.406
813.1770, 1454.228
814.3170, 1435.275
815.4570, 1457.775
816.5960, 1449.757
817.7360, 1419.146
818.8750, 1406.976
820.0140, 1496.744
821.1530, 1463.146
822.2920, 1395.082
823.4310, 1486.115
824.5690, 1529.054
825.7070, 1449.940
826.8460, 1519.562
827.9840, 1341.936
829.1220, 1369.142
830.2590, 1396.373
831.3970, 1343.554
832.5340, 1327.269
833.6710, 1381.691
834.8080, 1301.774
835.9450, 1272.348
837.0820, 1313.509
838.2190, 1310.127
839.3550, 1280.394
840.4910, 1276.879
841.6270, 1181.447
842.7630, 1157.282
843.8990, 1058.557
845.0350, 1092.380
846.1700, 1080.192
847.3060, 1040.631
848.4410, 1002.014
849.5760, 991.3152
850.7100, 917.5828
851.8450, 923.2080
852.9800, 846.7290
854.1140, 829.3198
855.2480, 869.7112
856.3820, 797.9414
857.5160, 742.9229
858.6500, 770.5635
859.7830, 706.5815
860.9170, 628.1016
862.0500, 609.7700
863.1830, 585.8855
864.3160, 583.7974
865.4480, 546.5466
866.5810, 540.8560
867.7130, 488.3413
868.8460, 503.9910
869.9780, 496.7305
871.1100, 456.8052
872.2410, 433.1194
873.3730, 391.8513
874.5050, 346.7385
875.6360, 326.2197
876.7670, 291.0745
877.8980, 273.0437
879.0290, 222.2249
880.1590, 232.8367
881.2900, 230.0161
882.4200, 189.0830
883.5500, 155.1042
884.6800, 228.5767
885.8100, 120.8396
886.9400, 136.7478
888.0690, 117.1748
889.1990, 62.37891
890.3280, 125.7292
891.4570, 14.62695
892.5860, 54.43237
893.7140, 90.29614
894.8430, 21.03613
895.9710, 10.44043
897.1000, 42.10669
898.2280, 27.43628
899.3560, 73.66895
900.4830, 18.18945
901.6110, 24.03760
902.7380, 0.1059570
903.8660, 6.865234
904.9930, 12.79883
906.1200, 18.58716
907.2460, 16.90015
908.3730, 7.499268
909.5000, 14.14746
910.6260, 58.10669
911.7520, 31.72803
912.8780, 24.45508
914.0040, 38.45557
915.1290, 29.33643
916.2550, 41.76221
917.3800, 57.05566
918.5050, 24.68164
919.6300, 29.22314
920.7550, 30.67676
921.8800, 18.55249
923.0040, 21.66870
924.1290, 20.51172
925.2530, 25.61523
926.3770, 44.63184
927.5010, 68.56543
928.6250, 67.89380
929.7480, 27.21997
930.8720, 78.92358
931.9950, 30.54834
933.1180, 41.10815
934.2410, 32.57056
935.3640, 36.04517
936.4860, 95.36597
937.6090, 10.41650
938.7310, 1.284668
939.8530, 99.76465
940.9750, 61.73999
942.0970, 86.63989
943.2180, 19.46582
944.3400, 55.21313
945.4610, 106.8914
946.5820, 88.49927
947.7030, 122.0400
948.8240, 81.51196
949.9450, 15.91895
951.0650, 62.25122
952.1860, 119.5125
953.3060, 155.7075
954.4260, 32.84033
955.5460, 121.2585
956.6650, 68.26392
957.7850, 122.3342
958.9040, 73.24829
960.0230, 32.10181
961.1420, 160.9392
962.2610, 55.74683
963.3800, 140.5251
964.4990, 108.2935
965.6170, 61.06226
966.7350, 51.84741
967.8530, 74.74609
968.9710, 59.61597
970.0890, 93.38965
971.2070, 113.2222
972.3240, 79.00977
973.4410, 179.8164
974.5580, 169.5491
975.6750, 75.34692
976.7920, 112.1155
977.9090, 141.8787
979.0250, 111.6299
980.1410, 163.4983
981.2580, 121.3730
982.3740, 149.1663
983.4890, 119.9539
984.6050, 177.8003
985.7200, 165.5466
986.8360, 174.4734
987.9510, 234.1636
989.0660, 182.8555
990.1810, 147.6472
991.2950, 123.3494
992.4100, 197.0525
993.5240, 186.7341
994.6390, 214.5146
995.7530, 214.1550
996.8660, 172.9409
997.9800, 223.6226
999.0940, 181.1831
1000.207, 149.7290
1001.320, 195.5972
1002.433, 146.0808
1003.546, 153.7627
1004.659, 296.2515
1005.772, 192.4966
1006.884, 207.4526
1007.996, 124.2815
1009.108, 146.6931
1010.220, 182.1030
1011.332, 232.4663
1012.444, 189.7239
1013.555, 203.5762
1014.666, 244.3350
1015.777, 191.1995
1016.888, 200.5688
1017.999, 162.4099
1019.110, 210.8862
1020.220, 283.5625
1021.331, 157.2017
1022.441, 114.7900
1023.551, 201.3208
1024.661, 214.9194
1025.770, 209.7258
1026.880, 173.6565
1027.989, 179.8379
1029.098, 211.3130
1030.207, 173.6807
1031.316, 200.9802
1032.425, 236.9116
1033.533, 223.4622
1034.642, 168.7747
1035.750, 198.4719
1036.858, 156.9644
1037.966, 159.4805
1039.073, 172.2905
1040.181, 158.4404
1041.288, 179.5107
1042.396, 177.0479
1043.503, 179.1187
1044.610, 174.2764
1045.716, 141.6143
1046.823, 161.2244
1047.929, 202.5996
1049.036, 113.4133
1050.142, 229.4905
1051.248, 216.6968
1052.353, 211.5767
1053.459, 180.4062
1054.564, 219.0828
1055.670, 215.9641
1056.775, 198.7188
1057.880, 193.2852
1058.985, 222.9277
1060.089, 253.9810
1061.194, 234.1001
1062.298, 145.8999
1063.402, 174.6953
1064.506, 162.9629
1065.610, 141.0737
1066.713, 202.9185
1067.817, 242.4375
1068.920, 110.7246
1070.023, 183.6108
1071.126, 150.7781
1072.229, 205.1824
1073.332, 183.5847
1074.435, 142.6370
1075.537, 142.7830
1076.639, 138.5332
1077.741, 133.6277
1078.843, 157.2278
1079.945, 142.4575
1081.046, 143.9734
1082.148, 141.4407
1083.249, 279.2705
1084.350, 158.3621
1085.451, 131.9565
1086.551, 214.7571
1087.652, 36.43677
1088.752, 137.8423
1089.853, 92.92603
1090.953, 157.4121
1092.053, 129.5554
1093.152, 134.5872
1094.252, 156.1741
1095.351, 147.5125
1096.451, 136.4641
1097.550, 113.9114
1098.649, 109.6565
1099.748, 76.73364
1100.846, 97.72705
1101.945, 82.62695
1103.043, 85.96362
1104.141, 97.68311
1105.239, 91.91455
1106.337, 155.5532
1107.434, 96.21753
1108.532, 164.1670
1109.629, 131.7744
1110.726, 140.2573
1111.823, 81.65137
1112.920, 82.19141
1114.017, 124.3865
1115.113, 103.5591
1116.210, 88.74170
1117.306, 143.5815
1118.402, 54.04419
1119.498, 101.4968
1120.593, 150.7454
1121.689, 81.27881
1122.784, 146.7014
1123.879, 146.0010
1124.974, 156.5750
1126.069, 68.99634
1127.164, 101.5247
1128.259, 56.00537
1129.353, 73.47388
1130.447, 140.0171
1131.541, 92.40894
1132.635, 7.579834
1133.729, 102.0042
1134.822, 40.70020
1135.916, 81.40723
1137.009, 18.81543
1138.102, 17.15991
1139.195, 37.37744
1140.288, 72.21069
1141.380, 62.23682
1142.473, 46.32739
1143.565, 34.55029
1144.657, 20.59546
1145.749, 58.68579
1146.841, 17.94678
1147.932, 44.96118
1149.024, 98.00513
1150.115, 80.96216
1151.206, 10.03296
1152.297, 59.15381
1153.388, 4.038086
1154.479, 83.72485
1155.569, 10.77881
1156.659, 57.06201
1157.750, 38.88208
1158.839, 50.00830
1159.929, 23.07544
1161.019, 10.08008
1162.108, 23.98071
1163.198, 26.00220
1164.287, 51.09399
1165.376, 7.903809
1166.465, 41.99951
1167.553, 24.99976
1168.642, 8.859131
1169.730, 37.73560
1170.818, 3.327148
1171.906, 7.438477
1172.994, 36.08081
1174.082, 26.94385
1175.170, 51.07910
1176.257, 52.04712
1177.344, 73.98730
1178.431, 9.073975
1179.518, 33.88818
1180.605, 51.32642
1181.691, 17.67554
1182.778, 28.39258
1183.864, 19.58398
1184.950, 58.49634
1186.036, 2.592285
1187.122, 9.312500
1188.207, 49.22241
1189.292, 45.37573
1190.378, 3.285156
1191.463, 58.30176
1192.548, 77.66504
1193.632, 10.16699
1194.717, 37.00903
1195.801, 5.146729
1196.886, 38.67310
1197.970, 15.49536
1199.054, 52.41821
1200.137, 8.878906
1201.221, 24.93335
1202.305, 12.74805
1203.388, 26.55713
1204.471, 32.36475
1205.554, 58.19702
1206.637, 30.98560
1207.719, 28.23096
1208.802, 8.903320
1209.884, 19.33960
1210.966, 36.35571
1212.048, 25.90991
1213.130, 1.808594
1214.212, 15.62793
1215.293, 9.359131
1216.374, 31.91284
1217.456, 53.94946
1218.536, 56.27637
1219.617, 26.98462
1220.698, 38.54175
1221.778, 22.21460
1222.859, 24.13354
1223.939, 71.50146
1225.019, 1.872070
1226.099, 0.1379390
1227.178, 19.13770
1228.258, 104.0571
1229.337, 18.81177
1230.417, 59.24561
1231.496, 50.76465
1232.574, 13.39380
1233.653, 23.14502
1234.732, 10.65991
1235.810, 43.24341
1236.888, 23.88281
