##NAMES=Brookite
##RRUFFID=R050591
##IDEAL CHEMISTRY=Ti^4+^O_2_
##LOCALITY=Taftan, near Dalbandi, Baluchistan, Pakistan
##OWNER=RRUFF
##SOURCE=Wayne Thompson
##DESCRIPTION=Yellowish-brown to reddish-brown thin tabular crystal
##STATUS=The identification of this mineral has been confirmed by X-ray diffraction and chemical analysis
##URL=rruff.info/R050591
##MEASURED CHEMISTRY=Ti_1.00_O_2_
##PIN_ID=M00274
##ORIENTATION=Laser parallel to b* (0 1 0). Fiducial mark perpendicular to laser is parallel to c [0 0 1]
51.43100, 0.0000000E+00
52.67100, 32.65451
53.91000, 36.16992
55.14900, 69.36414
56.38700, 59.44818
57.62600, 81.67474
58.86400, 65.61331
60.10300, 32.38440
61.34100, 1.538239
62.57900, 20.31683
63.81700, 18.12750
65.05400, 6.141113
66.29200, 4.514404
67.52900, 19.61346
68.76700, 51.12225
70.00400, 99.77295
71.24100, 189.8787
72.47700, 225.9459
73.71400, 318.0231
74.95100, 389.0334
76.18700, 518.9099
77.42300, 627.5923
78.65900, 728.0279
79.89500, 843.1688
81.13100, 969.9731
82.36700, 1079.408
83.60200, 1182.335
84.83700, 1257.062
86.07200, 1373.229
87.30800, 1479.923
88.54200, 1568.134
89.77700, 1679.831
91.01200, 1794.972
92.24600, 1878.520
93.48000, 1903.443
94.71400, 1996.719
95.94800, 2104.328
97.18200, 2223.259
98.41600, 2305.500
99.64900, 2445.296
100.8830, 2465.872
102.1160, 2695.978
103.3490, 2893.350
104.5820, 2992.980
105.8150, 3312.859
107.0470, 3431.980
108.2800, 3691.335
109.5120, 3978.927
110.7440, 4379.765
111.9760, 4858.860
113.2080, 5690.214
114.4400, 6715.823
115.6710, 8587.677
116.9030, 10792.76
118.1340, 12881.08
119.3650, 13755.61
120.5960, 14693.17
121.8270, 14118.31
123.0580, 14590.45
124.2880, 13791.87
125.5190, 12126.63
126.7490, 10976.32
127.9790, 10753.09
129.2090, 11096.88
130.4390, 11885.68
131.6680, 12720.48
132.8980, 14393.31
134.1270, 16277.19
135.3560, 18504.15
136.5850, 21992.17
137.8140, 25500.26
139.0430, 30963.44
140.2710, 36943.71
141.5000, 43434.09
142.7280, 50046.65
143.9560, 55684.32
145.1840, 59176.10
146.4120, 60166.96
147.6390, 59224.91
148.8670, 56133.95
150.0940, 51093.09
151.3210, 43832.30
152.5490, 36602.61
153.7750, 29749.01
155.0020, 23830.49
156.2290, 19187.07
157.4550, 15172.73
158.6810, 12069.49
159.9080, 9685.331
161.1340, 7676.257
162.3590, 6017.272
163.5850, 5022.374
164.8110, 4031.616
166.0360, 3345.059
167.2610, 2808.791
168.4860, 2360.833
169.7110, 1916.166
170.9360, 1566.791
172.1610, 1237.637
173.3850, 998.7146
174.6100, 863.8981
175.8340, 686.1589
177.0580, 645.4720
178.2820, 627.8376
179.5050, 469.2556
180.7290, 420.7256
181.9520, 393.2478
183.1760, 352.8218
184.3990, 350.4473
185.6220, 360.1245
186.8450, 296.8521
188.0670, 259.6304
189.2900, 336.4585
190.5120, 232.3362
191.7340, 224.2632
192.9560, 105.2388
194.1780, 72.26294
195.4000, 27.51001
196.6220, 2.964600
197.8430, 13.89062
199.0640, 26.88770
200.2860, 18.62939
201.5070, 111.9651
202.7270, 183.5017
203.9480, 283.0085
205.1690, 320.7463
206.3890, 335.8174
207.6090, 383.9243
208.8290, 421.9980
210.0490, 443.8794
211.2690, 501.7468
212.4890, 499.6748
213.7080, 511.8230
214.9280, 541.1731
216.1470, 586.6670
217.3660, 678.2988
218.5850, 750.0623
219.8030, 926.9526
221.0220, 1039.965
222.2400, 1150.094
223.4590, 1402.338
224.6770, 1610.690
225.8950, 1900.149
227.1120, 2317.478
228.3300, 2841.139
229.5480, 3520.649
230.7650, 4358.998
231.9820, 5745.390
233.1990, 7739.156
234.4160, 10152.27
235.6330, 13287.57
236.8490, 16367.86
238.0660, 18869.22
239.2820, 19627.86
240.4980, 19329.36
241.7140, 18402.98
242.9300, 16391.64
244.1460, 13228.37
245.3610, 9933.169
246.5770, 7304.033
247.7920, 5242.967
249.0070, 3920.966
250.2220, 2952.030
251.4370, 2211.158
252.6510, 1585.347
253.8660, 1079.598
255.0800, 814.9089
256.2940, 611.2791
257.5080, 514.7075
258.7220, 391.1929
259.9360, 429.7344
261.1490, 362.3308
262.3630, 349.9810
263.5760, 405.6838
264.7890, 296.4387
266.0020, 381.2446
267.2150, 416.1003
268.4270, 458.0054
269.6400, 510.9590
270.8520, 643.9595
272.0640, 697.0054
273.2760, 806.0972
274.4880, 949.2349
275.7000, 1041.942
276.9120, 1120.874
278.1230, 1223.919
279.3340, 1306.166
280.5450, 1332.028
281.7560, 1437.883
282.9670, 1360.266
284.1780, 1292.337
285.3880, 1213.142
286.5980, 1249.409
287.8090, 1097.281
289.0190, 1093.958
290.2290, 955.3159
291.4380, 935.3198
292.6480, 944.0906
293.8570, 947.5906
295.0670, 908.6812
296.2760, 896.1023
297.4850, 761.0295
298.6930, 808.9924
299.9020, 842.9907
301.1110, 722.0244
302.3190, 763.0925
303.5270, 715.1953
304.7350, 675.3320
305.9430, 631.5032
307.1510, 657.7075
308.3580, 607.9453
309.5660, 591.2161
310.7730, 541.5193
311.9800, 550.8545
313.1870, 561.2195
314.3940, 553.6143
315.6010, 612.0371
316.8070, 622.4863
318.0130, 626.9619
319.2200, 692.4626
320.4260, 699.9878
321.6310, 761.5374
322.8370, 724.1113
324.0430, 700.7095
325.2480, 656.3315
326.4540, 563.9775
327.6590, 500.6472
328.8640, 326.3408
330.0680, 344.0579
331.2730, 353.7983
332.4780, 122.5623
333.6820, 137.3491
334.8860, 76.15918
336.0900, 25.00781
337.2940, 34.84155
338.4980, 8.713867
339.7010, 26.39111
340.9050, 17.51196
342.1080, 22.41382
343.3110, 86.73706
344.5140, 28.79688
345.7170, 41.83154
346.9200, 25.84619
348.1220, 7.834229
349.3240, 44.21265
350.5270, 19.30371
351.7290, 74.43799
352.9310, 145.6152
354.1320, 162.8381
355.3340, 231.1082
356.5350, 188.4216
357.7370, 251.7749
358.9380, 284.1670
360.1390, 337.5967
361.3400, 333.0640
362.5400, 203.5676
363.7410, 246.1079
364.9410, 190.6836
366.1410, 193.2949
367.3410, 113.9412
368.5410, 80.62183
369.7410, 32.33667
370.9400, 2.084961
372.1400, 32.85669
373.3390, 3.661133
374.5380, 10.51123
375.7370, 47.66748
376.9360, 33.82397
378.1350, 38.02466
379.3330, 9.5702998E-02
380.5310, 35.80298
381.7300, 37.73169
382.9280, 25.69043
384.1260, 40.67651
385.3230, 37.69238
386.5210, 178.7371
387.7180, 178.8120
388.9160, 222.9172
390.1130, 228.0522
391.3100, 189.2168
392.5060, 241.4109
393.7030, 307.6345
394.9000, 392.8875
396.0960, 393.1694
397.2920, 472.4805
398.4880, 475.8198
399.6840, 582.1882
400.8800, 772.5852
402.0750, 703.0110
403.2710, 826.4646
404.4660, 792.9468
405.6610, 808.4570
406.8560, 740.9954
408.0510, 716.5618
409.2450, 646.1562
410.4400, 527.7781
411.6340, 410.4277
412.8280, 342.1074
414.0220, 283.8188
415.2160, 159.5579
416.4100, 166.3242
417.6030, 73.12158
418.7970, 10.05371
419.9900, 31.22119
421.1830, 50.39209
422.3760, 89.57983
423.5690, 154.7996
424.7610, 135.0803
425.9540, 180.4150
427.1460, 136.8201
428.3380, 149.2808
429.5300, 156.8037
430.7220, 185.3931
431.9140, 89.05933
433.1050, 100.7607
434.2970, 93.50220
435.4880, 125.2803
436.6790, 46.10889
437.8700, 37.95239
439.0610, 12.82129
440.2510, 81.34863
441.4420, 128.5327
442.6320, 158.7437
443.8220, 213.9819
445.0120, 274.2476
446.2020, 300.5403
447.3910, 311.8604
448.5810, 274.2083
449.7700, 414.5835
450.9600, 313.9863
452.1490, 387.4167
453.3370, 466.8748
454.5260, 444.3604
455.7150, 451.8735
456.9030, 539.4150
458.0910, 536.9841
459.2800, 528.5811
460.4670, 559.2063
461.6550, 625.8596
462.8430, 594.5410
464.0300, 579.2510
465.2180, 657.9893
466.4050, 790.7563
467.5920, 810.5518
468.7790, 936.7441
469.9650, 1068.230
471.1520, 1167.113
472.3380, 1345.024
473.5250, 1524.966
474.7110, 1990.938
475.8970, 2231.938
477.0820, 2557.969
478.2680, 2994.031
479.4540, 3322.967
480.6390, 3772.089
481.8240, 4045.243
483.0090, 4253.092
484.1940, 4335.307
485.3780, 4282.555
486.5630, 4133.296
487.7470, 3924.018
488.9320, 3476.083
490.1160, 3240.950
491.3000, 2931.716
492.4830, 2722.158
493.6670, 2524.632
494.8500, 2426.140
496.0340, 2185.681
497.2170, 2252.256
498.4000, 2304.863
499.5820, 2209.503
500.7650, 2351.177
501.9480, 2342.884
503.1300, 2378.625
504.3120, 2568.398
505.4940, 2727.205
506.6760, 2819.045
507.8580, 2972.920
509.0390, 3298.827
510.2210, 3418.769
511.4020, 3537.742
512.5830, 3831.750
513.7640, 4221.024
514.9450, 4544.101
516.1250, 4939.457
517.3060, 5400.105
518.4860, 5824.831
519.6660, 6496.309
520.8460, 6953.556
522.0260, 7665.742
523.2060, 8407.044
524.3850, 9256.388
525.5650, 10277.58
526.7440, 11078.01
527.9230, 11994.43
529.1020, 13291.92
530.2810, 14388.45
531.4590, 15483.01
532.6380, 16790.61
533.8160, 17940.24
534.9940, 19008.91
536.1720, 19895.61
537.3500, 20706.35
538.5270, 21273.02
539.7050, 22063.93
540.8820, 21892.78
542.0590, 22095.66
543.2360, 21839.58
544.4130, 21025.53
545.5900, 20215.52
546.7660, 19404.55
547.9430, 18648.61
549.1190, 17413.71
550.2950, 16535.84
551.4710, 15498.01
552.6470, 14631.21
553.8220, 13590.84
554.9980, 12700.95
556.1730, 12040.27
557.3480, 11288.62
558.5230, 10472.67
559.6980, 9854.101
560.8730, 9156.125
562.0470, 8603.699
563.2220, 8256.463
564.3960, 7726.455
565.5700, 7233.302
566.7440, 6850.815
567.9170, 6461.966
569.0910, 6141.472
570.2640, 5878.831
571.4380, 5618.952
572.6110, 5425.103
573.7840, 5249.977
574.9570, 4837.366
576.1290, 4713.201
577.3020, 4511.451
578.4740, 4374.997
579.6460, 4161.907
580.8180, 3905.581
581.9900, 3763.774
583.1620, 3612.014
584.3330, 3463.485
585.5040, 3351.721
586.6760, 3225.999
587.8470, 3153.417
589.0180, 3023.879
590.1880, 2964.387
591.3590, 2864.939
592.5290, 2789.121
593.7000, 2716.107
594.8700, 2656.866
596.0400, 2578.600
597.2090, 2525.378
598.3790, 2481.905
599.5490, 2455.274
600.7180, 2454.987
601.8870, 2426.948
603.0560, 2420.959
604.2250, 2395.017
605.3940, 2315.130
606.5620, 2182.295
607.7300, 2190.519
608.8990, 2154.796
610.0670, 2211.129
611.2350, 2171.521
612.4020, 2079.974
613.5700, 2114.485
614.7370, 2019.064
615.9050, 2080.700
617.0720, 2033.388
618.2390, 2013.130
619.4060, 1990.940
620.5720, 1986.830
621.7390, 2022.789
622.9050, 1944.821
624.0710, 1905.919
625.2370, 1987.075
626.4030, 1866.304
627.5690, 1858.605
628.7340, 1845.974
629.9000, 1766.420
631.0650, 1772.940
632.2300, 1680.521
633.3950, 1566.166
634.5600, 1494.869
635.7240, 1376.633
636.8890, 1315.453
638.0530, 1158.322
639.2170, 1130.242
640.3810, 997.2109
641.5450, 885.2275
642.7080, 770.2917
643.8720, 698.4004
645.0350, 620.5549
646.1980, 574.7546
647.3610, 512.9983
648.5240, 425.2847
649.6870, 450.6152
650.8490, 403.9885
652.0120, 231.4065
653.1740, 248.8667
654.3360, 262.3762
655.4980, 208.9299
656.6600, 256.5303
657.8210, 180.1812
658.9830, 189.8901
660.1440, 166.6545
661.3050, 201.4602
662.4660, 137.3140
663.6270, 183.2095
664.7870, 133.1475
665.9480, 100.1284
667.1080, 118.1523
668.2680, 100.2173
669.4280, 176.3230
670.5880, 155.4690
671.7480, 165.6555
672.9070, 198.8831
674.0670, 106.1504
675.2260, 129.4580
676.3850, 112.8064
677.5440, 81.19702
678.7030, 120.6313
679.8610, 102.1079
681.0200, 89.62598
682.1780, 89.18408
683.3360, 40.78223
684.4940, 127.4194
685.6520, 80.09619
686.8090, 109.8123
687.9670, 67.56787
689.1240, 70.36304
690.2810, 46.19775
691.4380, 34.07202
692.5950, 24.01538
693.7520, 43.06763
694.9080, 11.91040
696.0650, 53.92651
697.2210, 36.02051
698.3770, 3.064697
699.5330, 51.81226
700.6880, 40.65015
701.8440, 4.558105
702.9990, 22.17603
704.1550, 38.84766
705.3100, 20.44482
706.4650, 61.96948
707.6190, 14.41968
708.7740, 2.205811
709.9290, 35.91309
711.0830, 31.29639
712.2370, 26.57788
713.3910, 8.480713
714.5450, 9.472412
715.6980, 15.39917
716.8520, 12.25464
718.0050, 2.465088
719.1580, 3.805664
720.3110, 22.48486
721.4640, 73.80811
722.6170, 85.16455
723.7700, 34.55396
724.9220, 123.9756
726.0740, 72.42944
727.2260, 100.9150
728.3780, 71.43164
729.5300, 124.9795
730.6810, 74.55737
731.8330, 30.29956
732.9840, 88.99170
734.1350, 150.6765
735.2860, 122.3721
736.4370, 44.27734
737.5880, 185.2708
738.7380, 109.1421
739.8880, 114.0217
741.0390, 151.9304
742.1890, 121.4124
743.3380, 146.2874
744.4880, 152.7219
745.6380, 176.6147
746.7870, 162.8931
747.9360, 104.5981
749.0850, 180.2849
750.2340, 177.7397
751.3830, 128.9890
752.5310, 168.2964
753.6800, 244.0486
754.8280, 257.7324
755.9760, 235.8569
757.1240, 267.6926
758.2720, 230.3135
759.4190, 292.1553
760.5670, 248.9683
761.7140, 276.5562
762.8610, 346.6851
764.0080, 246.7988
765.1550, 322.5095
766.3020, 325.2017
767.4480, 365.5686
768.5950, 308.9199
769.7410, 299.0640
770.8870, 302.0190
772.0330, 275.8970
773.1780, 318.8989
774.3240, 341.3032
775.4690, 373.0474
776.6140, 404.0928
777.7590, 399.6497
778.9040, 395.3535
780.0490, 358.5645
781.1940, 350.3772
782.3380, 325.5027
783.4820, 302.5264
784.6260, 356.2307
785.7700, 342.8525
786.9140, 397.6729
788.0580, 356.3738
789.2010, 384.3123
790.3450, 365.9028
791.4880, 382.0166
792.6310, 365.9294
793.7730, 350.5710
794.9160, 355.2856
796.0590, 366.9253
797.2010, 339.5942
798.3430, 362.2593
799.4850, 331.8596
800.6270, 309.5674
801.7690, 309.4209
802.9100, 369.1699
804.0520, 406.1228
805.1930, 388.7705
806.3340, 434.4827
807.4750, 387.1062
808.6160, 376.8824
809.7560, 412.7610
810.8970, 378.4100
812.0370, 405.1039
813.1770, 423.1089
814.3170, 345.4207
815.4570, 359.0701
816.5960, 360.5493
817.7360, 367.7081
818.8750, 355.7324
820.0140, 390.6624
821.1530, 409.5206
822.2920, 369.4321
823.4310, 381.3634
824.5690, 366.2225
825.7070, 341.5350
826.8460, 355.6428
827.9840, 306.7281
829.1220, 328.7156
830.2590, 334.3845
831.3970, 312.6650
832.5340, 316.5770
833.6710, 312.2986
834.8080, 311.4526
835.9450, 310.7434
837.0820, 314.7458
838.2190, 306.7363
839.3550, 298.4395
840.4910, 299.6996
841.6270, 218.6952
842.7630, 268.9540
843.8990, 282.2908
845.0350, 244.0347
846.1700, 288.2975
847.3060, 272.5510
848.4410, 267.9165
849.5760, 221.9724
850.7100, 183.7566
851.8450, 152.3079
852.9800, 213.9916
854.1140, 127.8108
855.2480, 174.3668
856.3820, 172.9238
857.5160, 126.6555
858.6500, 183.4340
859.7830, 171.1862
860.9170, 152.9401
862.0500, 145.5881
863.1830, 98.25720
864.3160, 77.81226
865.4480, 97.37903
866.5810, 125.8154
867.7130, 40.28809
868.8460, 49.65100
869.9780, 56.01978
871.1100, 99.22510
872.2410, 43.54749
873.3730, 41.04468
874.5050, 55.31592
875.6360, 59.69629
876.7670, 14.92615
877.8980, 29.12170
879.0290, 1.776001
880.1590, 7.345947
881.2900, 16.48645
882.4200, 5.484009
883.5500, 5.555908
884.6800, 25.55847
885.8100, 20.71375
886.9400, 16.29761
888.0690, 47.98853
889.1990, 6.193970
890.3280, 13.63452
891.4570, 6.279907
892.5860, 52.19861
893.7140, 63.72681
894.8430, 50.36499
895.9710, 64.92273
897.1000, 12.65088
898.2280, 4.494629
899.3560, 67.13550
900.4830, 24.96436
901.6110, 11.04321
902.7380, 36.96533
903.8660, 35.98706
904.9930, 0.1290280
906.1200, 28.30664
907.2460, 10.49255
908.3730, 11.84521
909.5000, 1.723389
910.6260, 34.50317
911.7520, 27.10974
912.8780, 42.64844
914.0040, 44.34167
915.1290, 51.93542
916.2550, 82.43896
917.3800, 65.85999
918.5050, 73.19141
919.6300, 98.42993
920.7550, 111.6653
921.8800, 91.84216
923.0040, 104.0562
924.1290, 86.17322
925.2530, 130.2589
926.3770, 78.38049
927.5010, 93.50073
928.6250, 125.5205
929.7480, 112.6260
930.8720, 130.6993
931.9950, 125.7413
933.1180, 128.7225
934.2410, 152.7305
935.3640, 123.7620
936.4860, 110.5771
937.6090, 122.4636
938.7310, 105.3346
939.8530, 143.1172
940.9750, 131.9739
942.0970, 151.7678
943.2180, 127.4634
944.3400, 117.1345
945.4610, 148.8558
946.5820, 141.5820
947.7030, 110.1136
948.8240, 87.85400
949.9450, 69.34387
951.0650, 79.21948
952.1860, 101.3467
953.3060, 112.8391
954.4260, 121.3301
955.5460, 130.8115
956.6650, 125.2655
957.7850, 123.6827
958.9040, 111.6812
960.0230, 110.9915
961.1420, 110.3506
962.2610, 112.5745
963.3800, 120.7410
964.4990, 115.9045
965.6170, 110.9991
966.7350, 130.3091
967.8530, 153.2795
968.9710, 101.2043
970.0890, 116.6226
971.2070, 133.5906
972.3240, 148.5557
973.4410, 156.3620
974.5580, 169.0602
975.6750, 152.8659
976.7920, 176.7421
977.9090, 152.6293
979.0250, 126.5182
980.1410, 99.35474
981.2580, 100.4479
982.3740, 128.7435
983.4890, 115.3910
984.6050, 129.9549
985.7200, 155.4623
986.8360, 127.2273
987.9510, 118.6506
989.0660, 161.9977
990.1810, 159.3629
991.2950, 143.5237
992.4100, 136.6268
993.5240, 138.4696
994.6390, 136.9066
995.7530, 148.1265
996.8660, 144.1471
997.9800, 156.3279
999.0940, 153.3656
1000.207, 167.3036
1001.320, 161.2970
1002.433, 175.2294
1003.546, 170.1359
1004.659, 209.0823
1005.772, 173.9752
1006.884, 148.6156
1007.996, 177.2755
1009.108, 158.0056
1010.220, 178.6608
1011.332, 179.2455
1012.444, 195.2609
1013.555, 179.8814
1014.666, 162.0056
1015.777, 185.6274
1016.888, 164.8776
1017.999, 191.6533
1019.110, 185.4166
1020.220, 156.4189
1021.331, 160.6216
1022.441, 146.7520
1023.551, 133.4694
1024.661, 159.2140
1025.770, 177.4906
1026.880, 167.0660
1027.989, 168.7989
1029.098, 127.3539
1030.207, 142.7618
1031.316, 172.5306
1032.425, 101.6620
1033.533, 127.8506
1034.642, 143.4594
1035.750, 106.9983
1036.858, 109.8871
1037.966, 117.7113
1039.073, 111.7958
1040.181, 94.04730
1041.288, 117.3535
1042.396, 84.44238
1043.503, 88.24768
1044.610, 84.67383
1045.716, 89.71674
1046.823, 58.33344
1047.929, 64.82849
1049.036, 70.67212
1050.142, 82.03186
1051.248, 94.90881
1052.353, 108.9008
1053.459, 102.3477
1054.564, 114.4234
1055.670, 92.77875
1056.775, 110.0547
1057.880, 121.0701
1058.985, 92.37006
1060.089, 84.21747
1061.194, 100.1477
1062.298, 72.38171
1063.402, 72.56665
1064.506, 72.80865
1065.610, 80.03601
1066.713, 66.21527
1067.817, 57.37775
1068.920, 97.41370
1070.023, 72.29303
1071.126, 68.23230
1072.229, 80.97351
1073.332, 57.01257
1074.435, 62.92102
1075.537, 78.91077
1076.639, 76.71411
1077.741, 56.42902
1078.843, 51.33612
1079.945, 86.14343
1081.046, 40.64441
1082.148, 77.80463
1083.249, 49.59198
1084.350, 71.52722
1085.451, 48.76086
1086.551, 44.14331
1087.652, 40.61914
1088.752, 50.10663
1089.853, 56.70612
1090.953, 76.05280
1092.053, 42.23615
1093.152, 31.38159
1094.252, 42.48505
1095.351, 44.58246
1096.451, 39.75598
1097.550, 43.83759
1098.649, 12.84235
1099.748, 56.06195
1100.846, 58.39960
1101.945, 3.815002
1103.043, 34.16162
1104.141, 30.26056
1105.239, 52.46808
1106.337, 69.82935
1107.434, 36.12830
1108.532, 23.30872
1109.629, 17.59180
1110.726, 13.37500
1111.823, 14.68591
1112.920, 22.05273
1114.017, 24.54865
1115.113, 21.34473
1116.210, 25.97131
1117.306, 27.69189
1118.402, 3.319031
1119.498, 28.36945
1120.593, 36.94458
1121.689, 24.92212
1122.784, 63.87042
1123.879, 68.65918
1124.974, 30.33026
1126.069, 47.25818
1127.164, 27.81812
1128.259, 52.55194
1129.353, 13.20343
1130.447, 29.98859
1131.541, 44.70270
1132.635, 22.49481
1133.729, 7.218750
1134.822, 15.01929
1135.916, 9.805054
1137.009, 13.69946
1138.102, 19.44403
1139.195, 3.025879
1140.288, 7.754028
1141.380, 15.36884
1142.473, 23.07294
1143.565, 19.78802
1144.657, 18.02869
1145.749, 5.370178
1146.841, 9.038208
1147.932, 5.831787
1149.024, 13.18268
1150.115, 17.95520
1151.206, 13.73285
1152.297, 12.40588
1153.388, 12.90942
1154.479, 3.749207
1155.569, 9.314880
1156.659, 13.02240
1157.750, 7.811584
1158.839, 18.59241
1159.929, 5.422058
1161.019, 46.11340
1162.108, 8.912537
1163.198, 28.77960
1164.287, 15.39661
1165.376, 8.208374
1166.465, 26.08588
1167.553, 16.82855
1168.642, 32.64026
1169.730, 16.48914
1170.818, 18.32574
1171.906, 20.11560
1172.994, 44.02148
1174.082, 6.809998
1175.170, 12.65503
1176.257, 28.46112
1177.344, 4.296509
1178.431, 32.94299
1179.518, 4.320313
1180.605, 2.523010
1181.691, 29.27533
1182.778, 22.11633
1183.864, 21.01202
1184.950, 3.874146
1186.036, 22.75800
1187.122, 15.04913
1188.207, 16.43744
1189.292, 27.30072
1190.378, 6.091919
1191.463, 29.85223
1192.548, 17.67084
1193.632, 7.381470
1194.717, 7.075989
1195.801, 0.2349850
1196.886, 6.479736
1197.970, 21.13116
1199.054, 20.72467
1200.137, 18.49817
1201.221, 24.16473
1202.305, 17.81299
1203.388, 14.51196
1204.471, 25.10065
1205.554, 21.71533
1206.637, 24.60986
1207.719, 16.06250
1208.802, 19.66608
1209.884, 38.20178
1210.966, 20.93073
1212.048, 23.37805
1213.130, 49.03729
1214.212, 29.57227
1215.293, 45.21155
1216.374, 16.74915
1217.456, 11.25153
1218.536, 19.75909
1219.617, 6.693542
1220.698, 38.89160
1221.778, 22.54395
1222.859, 22.03815
1223.939, 22.44513
1225.019, 30.94922
1226.099, 22.47266
1227.178, 32.96417
1228.258, 19.50354
1229.337, 10.79987
1230.417, 24.37500
1231.496, 38.96631
1232.574, 14.02130
1233.653, 18.49042
1234.732, 15.93042
1235.810, 3.503784
1236.888, 26.16516
1237.966, 12.69482
1239.044, 27.13794
