##NAMES=Brookite
##RRUFFID=R050591
##IDEAL CHEMISTRY=Ti^4+^O_2_
##LOCALITY=Taftan, near Dalbandi, Baluchistan, Pakistan
##OWNER=RRUFF
##SOURCE=Wayne Thompson
##DESCRIPTION=Yellowish-brown to reddish-brown thin tabular crystal
##STATUS=The identification of this mineral has been confirmed by X-ray diffraction and chemical analysis
##URL=rruff.info/R050591
##MEASURED CHEMISTRY=Ti_1.00_O_2_
##PIN_ID=L01445
##ORIENTATION=Laser parallel to a* (1 0 0). Fiducial mark perpendicular to laser is parallel to b [0 1 0]
51.43100, 0.0000000E+00
52.67100, 12.83771
53.91000, 51.24084
55.14900, 50.51160
56.38700, 66.81708
57.62600, 82.10635
58.86400, 76.91858
60.10300, 52.27271
61.34100, 15.41797
62.57900, 0.7468870
63.81700, 14.32275
65.05400, 11.41571
66.29200, 28.14417
67.52900, 22.37695
68.76700, 22.04352
70.00400, 107.7651
71.24100, 159.4620
72.47700, 166.0583
73.71400, 211.5085
74.95100, 267.8243
76.18700, 346.9355
77.42300, 358.7679
78.65900, 439.2593
79.89500, 451.3577
81.13100, 457.0192
82.36700, 550.2056
83.60200, 531.8848
84.83700, 638.0298
86.07200, 613.6189
87.30800, 673.6355
88.54200, 701.0659
89.77700, 757.8850
91.01200, 801.3671
92.24600, 818.5682
93.48000, 886.3811
94.71400, 891.6055
95.94800, 918.5369
97.18200, 952.1635
98.41600, 1093.998
99.64900, 1056.006
100.8830, 1042.184
102.1160, 1205.531
103.3490, 1205.046
104.5820, 1235.728
105.8150, 1381.574
107.0470, 1499.583
108.2800, 1709.755
109.5120, 1760.085
110.7440, 1787.575
111.9760, 2018.220
113.2080, 2265.019
114.4400, 2481.973
115.6710, 2981.084
116.9030, 3326.357
118.1340, 3885.799
119.3650, 4110.414
120.5960, 4240.209
121.8270, 4440.192
123.0580, 4904.370
124.2880, 5487.742
125.5190, 6067.267
126.7490, 6580.835
127.9790, 7216.440
129.2090, 7581.081
130.4390, 7771.750
131.6680, 7816.440
132.8980, 7982.162
134.1270, 8412.941
135.3560, 9196.789
136.5850, 10666.49
137.8140, 12602.03
139.0430, 14986.00
140.2710, 18229.87
141.5000, 21922.36
142.7280, 26643.19
143.9560, 30785.17
145.1840, 34448.25
146.4120, 37861.42
147.6390, 41198.69
148.8670, 44484.06
150.0940, 48263.53
151.3210, 51942.10
152.5490, 54978.76
153.7750, 56952.52
155.0020, 56761.38
156.2290, 53812.32
157.4550, 48559.38
158.6810, 41421.51
159.9080, 33922.75
161.1340, 26892.06
162.3590, 21018.48
163.5850, 16889.98
164.8110, 13385.58
166.0360, 10876.26
167.2610, 8935.034
168.4860, 7272.891
169.7110, 6317.831
170.9360, 5392.854
172.1610, 4609.956
173.3850, 4115.138
174.6100, 3514.402
175.8340, 3149.765
177.0580, 2695.261
178.2820, 2435.908
179.5050, 2184.715
180.7290, 2082.688
181.9520, 1824.835
183.1760, 1709.132
184.3990, 1585.619
185.6220, 1524.299
186.8450, 1380.179
188.0670, 1252.280
189.2900, 1248.619
190.5120, 1210.189
191.7340, 1116.969
192.9560, 1136.953
194.1780, 1057.079
195.4000, 1098.312
196.6220, 1063.589
197.8430, 989.8967
199.0640, 878.6449
200.2860, 727.3379
201.5070, 740.9832
202.7270, 669.5625
203.9480, 684.0999
205.1690, 581.5420
206.3890, 555.9150
207.6090, 513.4512
208.8290, 568.6521
210.0490, 543.8193
211.2690, 501.8867
212.4890, 516.6932
213.7080, 476.1013
214.9280, 427.5017
216.1470, 436.3248
217.3660, 295.1191
218.5850, 226.0288
219.8030, 125.0493
221.0220, 34.82324
222.2400, 90.59570
223.4590, 84.27759
224.6770, 103.8717
225.8950, 80.38367
227.1120, 135.8132
228.3300, 145.1707
229.5480, 148.4596
230.7650, 109.6833
231.9820, 67.83813
233.1990, 0.9211430
234.4160, 82.07080
235.6330, 253.1367
236.8490, 519.2744
238.0660, 647.4829
239.2820, 826.7598
240.4980, 1001.104
241.7140, 1207.908
242.9300, 1343.985
244.1460, 1648.516
245.3610, 1892.104
246.5770, 2091.749
247.7920, 2462.451
249.0070, 2588.208
250.2220, 2383.020
251.4370, 2155.885
252.6510, 1709.804
253.8660, 1410.776
255.0800, 1162.799
256.2940, 1024.874
257.5080, 872.9980
258.7220, 814.1726
259.9360, 745.3958
261.1490, 638.6675
262.3630, 611.9866
263.5760, 563.2888
264.7890, 578.7649
266.0020, 545.2222
267.2150, 542.7241
268.4270, 601.2695
269.6400, 519.8579
270.8520, 440.4878
272.0640, 534.1589
273.2760, 509.8711
274.4880, 559.6240
275.7000, 457.4182
276.9120, 469.2524
278.1230, 514.1277
279.3340, 597.0432
280.5450, 522.9993
281.7560, 545.9949
282.9670, 582.0259
284.1780, 600.0688
285.3880, 558.1223
286.5980, 584.1648
287.8090, 568.2021
289.0190, 577.2695
290.2290, 645.3760
291.4380, 633.1277
292.6480, 635.7063
293.8570, 672.9292
295.0670, 741.1897
296.2760, 785.6697
297.4850, 837.4343
298.6930, 926.5400
299.9020, 995.6445
301.1110, 1127.794
302.3190, 1277.541
303.5270, 1378.265
304.7350, 1505.913
305.9430, 1724.890
307.1510, 2065.928
308.3580, 2161.497
309.5660, 2397.049
310.7730, 2691.402
311.9800, 2870.427
313.1870, 3155.667
314.3940, 3382.182
315.6010, 3580.845
316.8070, 3724.137
318.0130, 3921.700
319.2200, 4000.887
320.4260, 4037.659
321.6310, 4046.266
322.8370, 3842.391
324.0430, 3694.786
325.2480, 3349.639
326.4540, 3248.946
327.6590, 2868.776
328.8640, 2555.002
330.0680, 2249.456
331.2730, 1985.127
332.4780, 1759.725
333.6820, 1548.891
334.8860, 1395.962
336.0900, 1271.025
337.2940, 1172.969
338.4980, 1100.149
339.7010, 941.3379
340.9050, 781.5342
342.1080, 852.7378
343.3110, 695.9490
344.5140, 659.1846
345.7170, 655.4448
346.9200, 558.7302
348.1220, 545.0410
349.3240, 532.3772
350.5270, 528.7395
351.7290, 514.1279
352.9310, 516.5422
354.1320, 488.9832
355.3340, 511.4519
356.5350, 497.9480
357.7370, 449.4688
358.9380, 481.0159
360.1390, 460.5837
361.3400, 459.0901
362.5400, 457.7803
363.7410, 459.4077
364.9410, 513.0540
366.1410, 510.2639
367.3410, 491.2280
368.5410, 521.3767
369.7410, 503.9788
370.9400, 537.2532
372.1400, 550.8657
373.3390, 546.1760
374.5380, 610.3870
375.7370, 618.8796
376.9360, 634.5344
378.1350, 691.3237
379.3330, 669.1694
380.5310, 675.0298
381.7300, 840.9045
382.9280, 821.7939
384.1260, 943.6970
385.3230, 899.6138
386.5210, 993.5439
387.7180, 1060.487
388.9160, 1204.444
390.1130, 1283.413
391.3100, 1445.395
392.5060, 1556.389
393.7030, 1770.395
394.9000, 1950.413
396.0960, 2210.442
397.2920, 2467.483
398.4880, 2812.535
399.6840, 3025.598
400.8800, 3541.672
402.0750, 3882.757
403.2710, 4322.853
404.4660, 4660.958
405.6610, 4973.074
406.8560, 5302.199
408.0510, 5522.335
409.2450, 5609.480
410.4400, 5894.634
411.6340, 5874.799
412.8280, 5649.971
414.0220, 5455.153
415.2160, 5008.344
416.4100, 4555.544
417.6030, 3948.753
418.7970, 3375.969
419.9900, 2914.194
421.1830, 2443.659
422.3760, 2052.669
423.5690, 1715.918
424.7610, 1420.175
425.9540, 1157.629
427.1460, 970.7129
428.3380, 750.9927
429.5300, 621.2805
430.7220, 496.5762
431.9140, 420.8796
433.1050, 298.1909
434.2970, 222.5098
435.4880, 162.8362
436.6790, 99.94995
437.8700, 69.51123
439.0610, 40.85962
440.2510, 31.21143
441.4420, 1.940186
442.6320, 2.903076
443.8220, 33.76929
445.0120, 25.47095
446.2020, 24.19800
447.3910, 39.94995
448.5810, 44.73486
449.7700, 27.55542
450.9600, 70.40308
452.1490, 52.29907
453.3370, 48.23486
454.5260, 6.208252
455.7150, 79.19897
456.9030, 66.24292
458.0910, 85.33301
459.2800, 78.47925
460.4670, 82.67822
461.6550, 92.93213
462.8430, 102.5247
464.0300, 116.5195
465.2180, 125.0728
466.4050, 146.5969
467.5920, 137.2068
468.7790, 144.8977
469.9650, 119.6729
471.1520, 126.5203
472.3380, 113.4421
473.5250, 134.4324
474.7110, 107.7349
475.8970, 49.63428
477.0820, 56.80347
478.2680, 40.01196
479.4540, 2.158447
480.6390, 109.4988
481.8240, 120.2556
483.0090, 183.0205
484.1940, 295.7935
485.3780, 349.5747
486.5630, 407.3640
487.7470, 531.1619
488.9320, 641.9678
490.1160, 729.7827
491.3000, 871.6060
492.4830, 1002.438
493.6670, 1062.279
494.8500, 1111.129
496.0340, 1171.987
497.2170, 1206.854
498.4000, 1292.731
499.5820, 1329.616
500.7650, 1419.509
501.9480, 1398.412
503.1300, 1382.324
504.3120, 1243.245
505.4940, 1225.176
506.6760, 1028.115
507.8580, 940.0642
509.0390, 847.0251
510.2210, 709.0039
511.4020, 596.9998
512.5830, 528.0156
513.7640, 431.3748
514.9450, 337.1045
516.1250, 297.1870
517.3060, 243.2959
518.4860, 190.4258
519.6660, 216.5713
520.8460, 187.7275
522.0260, 163.8938
523.2060, 173.0706
524.3850, 143.2573
525.5650, 138.4546
526.7440, 152.5420
527.9230, 140.8801
529.1020, 180.1089
530.2810, 214.3484
531.4590, 220.5984
532.6380, 192.8596
533.8160, 175.1316
534.9940, 243.4146
536.1720, 275.7087
537.3500, 344.0139
538.5270, 282.3306
539.7050, 404.6584
540.8820, 379.9978
542.0590, 377.3486
543.2360, 438.7112
544.4130, 342.0857
545.5900, 406.4717
546.7660, 420.8699
547.9430, 477.2803
549.1190, 377.7024
550.2950, 418.1370
551.4710, 391.5837
552.6470, 403.0430
553.8220, 456.5156
554.9980, 436.0010
556.1730, 422.4988
557.3480, 391.0103
558.5230, 443.5347
559.6980, 421.0723
560.8730, 431.6230
562.0470, 445.1870
563.2220, 507.7646
564.3960, 512.3555
565.5700, 568.9602
566.7440, 552.5808
567.9170, 575.2156
569.0910, 642.8643
570.2640, 724.5298
571.4380, 729.2097
572.6110, 758.9041
573.7840, 852.6123
574.9570, 892.3354
576.1290, 938.0732
577.3020, 1034.828
578.4740, 1108.598
579.6460, 1159.756
580.8180, 1242.013
581.9900, 1279.406
583.1620, 1343.520
584.3330, 1429.694
585.5040, 1491.653
586.6760, 1603.517
587.8470, 1656.229
589.0180, 1768.066
590.1880, 1862.244
591.3590, 1991.190
592.5290, 2086.270
593.7000, 2212.432
594.8700, 2295.855
596.0400, 2457.668
597.2090, 2693.331
598.3790, 2697.774
599.5490, 2966.121
600.7180, 3117.887
601.8870, 3238.437
603.0560, 3580.418
604.2250, 3752.875
605.3940, 3943.551
606.5620, 4367.766
607.7300, 4575.754
608.8990, 4895.344
610.0670, 5049.531
611.2350, 5374.254
612.4020, 5801.640
613.5700, 6117.850
614.7370, 6691.884
615.9050, 6940.558
617.0720, 7569.702
618.2390, 8164.490
619.4060, 8583.339
620.5720, 9291.354
621.7390, 9869.185
622.9050, 10601.06
624.0710, 11220.98
625.2370, 12059.95
626.4030, 12865.95
627.5690, 13504.00
628.7340, 14179.09
629.9000, 14869.21
631.0650, 15528.38
632.2300, 16170.60
633.3950, 16499.85
634.5600, 16976.15
635.7240, 17434.48
636.8890, 17648.83
638.0530, 17478.23
639.2170, 17328.66
640.3810, 17223.12
641.5450, 16898.62
642.7080, 16600.16
643.8720, 16050.74
645.0350, 15450.35
646.1980, 14616.99
647.3610, 13901.66
648.5240, 13119.37
649.6870, 12437.11
650.8490, 11842.88
652.0120, 11099.69
653.1740, 10284.53
654.3360, 9585.398
655.4980, 9024.299
656.6600, 8508.236
657.8210, 8013.202
658.9830, 7352.197
660.1440, 6951.228
661.3050, 6456.288
662.4660, 5995.381
663.6270, 5587.506
664.7870, 5284.662
665.9480, 4948.851
667.1080, 4666.070
668.2680, 4305.320
669.4280, 4152.602
670.5880, 4020.916
671.7480, 3687.264
672.9070, 3567.642
674.0670, 3343.052
675.2260, 3123.494
676.3850, 3005.967
677.5440, 2865.472
678.7030, 2695.008
679.8610, 2523.576
681.0200, 2394.175
682.1780, 2274.099
683.3360, 2247.469
684.4940, 2077.164
685.6520, 2058.891
686.8090, 1966.649
687.9670, 2003.439
689.1240, 1761.261
690.2810, 1757.114
691.4380, 1702.997
692.5950, 1521.033
693.7520, 1543.980
694.9080, 1536.958
696.0650, 1406.076
697.2210, 1393.118
698.3770, 1337.190
699.5330, 1299.292
700.6880, 1237.442
701.8440, 1205.607
702.9990, 1230.800
704.1550, 1187.052
705.3100, 1157.606
706.4650, 1119.068
707.6190, 1063.393
708.7740, 1017.201
709.9290, 953.6873
711.0830, 964.1021
712.2370, 843.5396
713.3910, 885.0066
714.5450, 896.5608
715.6980, 925.5615
716.8520, 868.1165
718.0050, 736.4307
719.1580, 763.0735
720.3110, 709.7175
721.4640, 713.3098
722.6170, 742.8193
723.7700, 698.1858
724.9220, 655.9958
726.0740, 685.9277
727.2260, 658.8184
728.3780, 671.4756
729.5300, 651.4631
730.6810, 691.6665
731.8330, 607.6816
732.9840, 535.8638
734.1350, 573.1011
735.2860, 618.8433
736.4370, 528.1809
737.5880, 520.3364
738.7380, 570.7261
739.8880, 530.2302
741.0390, 425.6711
742.1890, 538.4099
743.3380, 440.9824
744.4880, 440.0967
745.6380, 410.8442
746.7870, 434.9287
747.9360, 399.9192
749.0850, 442.8723
750.2340, 423.2239
751.3830, 472.0916
752.5310, 404.4807
753.6800, 349.2043
754.8280, 421.1296
755.9760, 384.8708
757.1240, 344.5652
758.2720, 358.5107
759.4190, 362.6443
760.5670, 297.5566
761.7140, 307.8379
762.8610, 404.8650
764.0080, 281.6934
765.1550, 345.4951
766.3020, 343.9890
767.4480, 314.1616
768.5950, 379.0266
769.7410, 279.0212
770.8870, 296.1736
772.0330, 276.2847
773.1780, 269.0610
774.3240, 329.8484
775.4690, 243.9495
776.6140, 317.1702
777.7590, 247.0159
778.9040, 223.3752
780.0490, 317.0398
781.1940, 206.9548
782.3380, 247.7214
783.4820, 210.0071
784.6260, 185.9951
785.7700, 244.9739
786.9140, 205.0269
788.0580, 227.4326
789.2010, 162.2786
790.3450, 148.1702
791.4880, 148.0413
792.6310, 127.2708
793.7730, 156.1655
794.9160, 188.1318
796.0590, 120.0708
797.2010, 192.5120
798.3430, 96.45117
799.4850, 119.6733
800.6270, 194.7407
801.7690, 103.0417
802.9100, 128.0208
804.0520, 161.0535
805.1930, 110.1655
806.3340, 174.1726
807.4750, 140.3240
808.6160, 154.1172
809.7560, 102.1499
810.8970, 112.4790
812.0370, 87.58521
813.1770, 122.7727
814.3170, 113.0010
815.4570, 131.2720
816.5960, 114.4822
817.7360, 76.56763
818.8750, 84.11621
820.0140, 80.42236
821.1530, 92.66846
822.2920, 61.30103
823.4310, 52.41553
824.5690, 101.8792
825.7070, 40.29736
826.8460, 33.42639
827.9840, 68.69238
829.1220, 11.01111
830.2590, 42.68896
831.3970, 29.96033
832.5340, 9.586426
833.6710, 32.96143
834.8080, 6.112793
835.9450, 32.41760
837.0820, 0.2572020
838.2190, 32.97070
839.3550, 33.13074
840.4910, 1.460327
841.6270, 23.11450
842.7630, 3.939575
843.8990, 1.259155
845.0350, 23.04065
846.1700, 7.700684
847.3060, 1.732422
848.4410, 21.03247
849.5760, 9.192505
850.7100, 3.648560
851.8450, 20.49146
852.9800, 6.859497
854.1140, 25.97754
855.2480, 31.67383
856.3820, 21.45325
857.5160, 45.19348
858.6500, 42.08923
859.7830, 19.76147
860.9170, 1.408813
862.0500, 3.262817
863.1830, 11.06897
864.3160, 35.60608
865.4480, 6.585327
866.5810, 24.20837
867.7130, 53.18872
868.8460, 54.18945
869.9780, 53.31421
871.1100, 60.31238
872.2410, 17.35522
873.3730, 12.39563
874.5050, 14.60413
875.6360, 14.55127
876.7670, 28.65857
877.8980, 31.82996
879.0290, 27.05493
880.1590, 17.25110
881.2900, 19.55359
882.4200, 29.71143
883.5500, 9.024902
884.6800, 39.35901
885.8100, 43.73083
886.9400, 1.038086
888.0690, 10.53015
889.1990, 43.73633
890.3280, 13.22607
891.4570, 9.256836
892.5860, 22.22278
893.7140, 8.741821
894.8430, 26.28589
895.9710, 37.45984
897.1000, 26.21741
898.2280, 36.93518
899.3560, 16.69824
900.4830, 15.14392
901.6110, 9.140015
902.7380, 2.933350
903.8660, 28.83032
904.9930, 29.85449
906.1200, 20.24377
907.2460, 13.74219
908.3730, 9.233765
909.5000, 41.17163
910.6260, 28.09253
911.7520, 26.12598
912.8780, 44.02185
914.0040, 11.87939
915.1290, 0.1300050
916.2550, 45.97546
917.3800, 101.7889
918.5050, 33.54077
919.6300, 48.27283
920.7550, 50.98572
921.8800, 48.67932
923.0040, 11.35303
924.1290, 81.99536
925.2530, 72.71863
926.3770, 88.40808
927.5010, 49.04114
928.6250, 135.6102
929.7480, 71.16187
930.8720, 81.69458
931.9950, 46.23584
933.1180, 99.74670
934.2410, 60.22034
935.3640, 73.67236
936.4860, 59.10437
937.6090, 108.5144
938.7310, 84.90552
939.8530, 78.27710
940.9750, 119.7029
942.0970, 79.05847
943.2180, 46.44739
944.3400, 145.7307
945.4610, 117.0276
946.5820, 68.27087
947.7030, 85.49109
948.8240, 83.83765
949.9450, 82.17053
951.0650, 89.32654
952.1860, 107.5317
953.3060, 67.67041
954.4260, 85.79761
955.5460, 93.03638
956.6650, 67.08130
957.7850, 121.1228
958.9040, 79.15100
960.0230, 84.12537
961.1420, 131.1122
962.2610, 101.1281
963.3800, 99.05493
964.4990, 70.82202
965.6170, 104.7612
966.7350, 88.59790
967.8530, 82.30237
968.9710, 140.1844
970.0890, 105.9500
971.2070, 104.7638
972.3240, 117.5470
973.4410, 138.2996
974.5580, 99.06006
975.6750, 106.7952
976.7920, 130.1375
977.9090, 128.2144
979.0250, 81.86731
980.1410, 110.9626
981.2580, 101.3864
982.3740, 117.0854
983.4890, 160.5698
984.6050, 143.0316
985.7200, 156.4133
986.8360, 112.3550
987.9510, 140.7473
989.0660, 117.3871
990.1810, 167.7040
991.2950, 110.0275
992.4100, 145.4115
993.5240, 105.8934
994.6390, 123.5325
995.7530, 104.7518
996.8660, 96.88245
997.9800, 115.0619
999.0940, 117.4989
1000.207, 115.7150
1001.320, 145.7800
1002.433, 139.9871
1003.546, 176.0852
1004.659, 150.0759
1005.772, 117.7013
1006.884, 113.6447
1007.996, 106.7461
1009.108, 144.9614
1010.220, 119.1306
1011.332, 126.8158
1012.444, 142.3048
1013.555, 117.3722
1014.666, 110.8104
1015.777, 125.7357
1016.888, 133.5018
1017.999, 130.3187
1019.110, 147.1204
1020.220, 98.67993
1021.331, 130.6587
1022.441, 89.32043
1023.551, 133.4846
1024.661, 124.7739
1025.770, 105.0728
1026.880, 104.4404
1027.989, 102.6284
1029.098, 69.60388
1030.207, 83.81567
1031.316, 133.6146
1032.425, 110.6659
1033.533, 67.84387
1034.642, 151.0580
1035.750, 81.59021
1036.858, 98.42346
1037.966, 118.7965
1039.073, 100.8076
1040.181, 90.75439
1041.288, 88.71045
1042.396, 115.9601
1043.503, 118.2833
1044.610, 62.23462
1045.716, 86.07544
1046.823, 49.22742
1047.929, 52.86292
1049.036, 72.41272
1050.142, 75.50049
1051.248, 93.72156
1052.353, 99.89331
1053.459, 110.8901
1054.564, 112.0004
1055.670, 117.9244
1056.775, 90.61829
1057.880, 60.79932
1058.985, 65.45862
1060.089, 74.55066
1061.194, 95.31470
1062.298, 120.5637
1063.402, 109.6498
1064.506, 77.65820
1065.610, 79.62549
1066.713, 95.62476
1067.817, 117.3373
1068.920, 109.2607
1070.023, 132.9690
1071.126, 111.0170
1072.229, 117.9872
1073.332, 64.78357
1074.435, 76.68567
1075.537, 63.43115
1076.639, 142.5283
1077.741, 73.37976
1078.843, 94.21692
1079.945, 80.75916
1081.046, 48.62390
1082.148, 47.38635
1083.249, 106.0262
1084.350, 62.76843
1085.451, 73.55957
1086.551, 69.83875
1087.652, 43.37000
1088.752, 85.03540
1089.853, 72.23413
1090.953, 70.25903
1092.053, 80.36108
1093.152, 67.72205
1094.252, 55.39319
1095.351, 70.88892
1096.451, 74.34534
1097.550, 55.85107
1098.649, 105.3134
1099.748, 101.5845
1100.846, 50.83521
1101.945, 108.3883
1103.043, 56.06348
1104.141, 53.58020
1105.239, 59.02673
1106.337, 51.53088
1107.434, 44.77515
1108.532, 39.17310
1109.629, 9.297363
1110.726, 51.11548
1111.823, 85.02673
1112.920, 113.2738
1114.017, 29.41577
1115.113, 90.67834
1116.210, 79.08508
1117.306, 85.46582
1118.402, 116.8365
1119.498, 113.9988
1120.593, 124.3372
1121.689, 114.5867
1122.784, 113.9274
1123.879, 131.0302
1124.974, 107.3604
1126.069, 98.45422
1127.164, 101.3246
1128.259, 58.83911
1129.353, 90.84167
1130.447, 60.98584
1131.541, 40.14917
1132.635, 29.26428
1133.729, 47.54529
1134.822, 39.81909
1135.916, 72.15784
1137.009, 28.45166
1138.102, 65.36511
1139.195, 17.56934
1140.288, 65.71277
1141.380, 6.996216
1142.473, 49.20911
1143.565, 0.4604490
1144.657, 21.73889
1145.749, 49.96191
1146.841, 31.16016
1147.932, 11.40991
1149.024, 21.67932
1150.115, 44.94519
1151.206, 19.21680
1152.297, 42.38940
1153.388, 11.66357
1154.479, 63.75024
1155.569, 2.025269
1156.659, 29.29846
1157.750, 29.51123
1158.839, 17.73230
1159.929, 24.95007
1161.019, 20.96265
1162.108, 31.12659
1163.198, 31.53394
1164.287, 48.71411
1165.376, 45.82642
1166.465, 43.13342
1167.553, 70.36975
1168.642, 3.680664
1169.730, 48.99841
1170.818, 29.67505
1171.906, 31.61877
1172.994, 40.91748
1174.082, 20.22705
1175.170, 33.53064
1176.257, 30.69775
1177.344, 46.97803
1178.431, 69.03259
1179.518, 2.142700
1180.605, 41.41125
1181.691, 54.66357
1182.778, 5.044800
1183.864, 33.23987
1184.950, 27.52014
1186.036, 47.79565
1187.122, 13.06738
1188.207, 29.34265
1189.292, 7.486084
1190.378, 47.69568
1191.463, 33.91553
1192.548, 3.195435
1193.632, 17.45239
1194.717, 60.70459
1195.801, 6.074829
1196.886, 56.14856
1197.970, 40.38647
1199.054, 25.62134
1200.137, 19.85217
1201.221, 14.08008
1202.305, 18.40405
1203.388, 39.71960
1204.471, 37.86084
1205.554, 45.06360
1206.637, 59.19458
1207.719, 42.71118
1208.802, 51.57690
1209.884, 22.77930
1210.966, 2.0873999E-02
1212.048, 6.027588
1213.130, 23.06494
1214.212, 11.25391
1215.293, 27.37036
1216.374, 47.52991
1217.456, 32.67517
1218.536, 12.68359
1219.617, 29.86121
1220.698, 7.016113
1221.778, 46.15991
1222.859, 50.33252
1223.939, 28.46729
1225.019, 39.54883
1226.099, 41.69531
1227.178, 8.144165
1228.258, 49.93652
1229.337, 54.09521
1230.417, 14.25330
1231.496, 50.31506
1232.574, 4.530273
1233.653, 0.3945310
1234.732, 97.67432
1235.810, 49.76587
1236.888, 58.83569
1237.966, 8.869263
