##NAMES=Brookite
##RRUFFID=R050591
##IDEAL CHEMISTRY=Ti^4+^O_2_
##LOCALITY=Taftan, near Dalbandi, Baluchistan, Pakistan
##OWNER=RRUFF
##SOURCE=Wayne Thompson
##DESCRIPTION=Yellowish-brown to reddish-brown thin tabular crystal
##STATUS=The identification of this mineral has been confirmed by X-ray diffraction and chemical analysis
##URL=rruff.info/R050591
##MEASURED CHEMISTRY=Ti_1.00_O_2_
##PIN_ID=M00274
##ORIENTATION=Laser parallel to b* (0 1 0). Fiducial mark perpendicular to laser is parallel to c [0 0 1]
51.43100, 0.0000000E+00
52.67100, 13.99850
53.91000, 30.77277
55.14900, 29.05453
56.38700, 58.79391
57.62600, 61.42743
58.86400, 72.20529
60.10300, 48.88434
61.34100, 30.33853
62.57900, 10.52466
63.81700, 6.630829
65.05400, 11.22281
66.29200, 19.37335
67.52900, 31.20483
68.76700, 7.172058
70.00400, 41.66089
71.24100, 34.17560
72.47700, 66.63367
73.71400, 128.0221
74.95100, 179.3869
76.18700, 182.6236
77.42300, 217.6389
78.65900, 296.3560
79.89500, 378.7123
81.13100, 384.6553
82.36700, 491.1422
83.60200, 520.1414
84.83700, 591.6270
86.07200, 627.5756
87.30800, 754.9672
88.54200, 774.7831
89.77700, 829.9951
91.01200, 874.5694
92.24600, 922.8566
93.48000, 1002.691
94.71400, 1052.500
95.94800, 1143.762
97.18200, 1253.501
98.41600, 1340.358
99.64900, 1416.336
100.8830, 1546.437
102.1160, 1588.663
103.3490, 1678.017
104.5820, 1833.500
105.8150, 2010.113
107.0470, 2189.856
108.2800, 2448.731
109.5120, 2707.738
110.7440, 3071.878
111.9760, 3515.164
113.2080, 4110.617
114.4400, 4825.252
115.6710, 6119.070
116.9030, 7526.062
118.1340, 8939.224
119.3650, 9962.557
120.5960, 10749.06
121.8270, 11937.74
123.0580, 12356.91
124.2880, 12787.91
125.5190, 13132.74
126.7490, 13154.91
127.9790, 13273.10
129.2090, 13447.31
130.4390, 13525.55
131.6680, 13294.80
132.8980, 13625.07
134.1270, 14497.37
135.3560, 15977.73
136.5850, 18423.91
137.8140, 21666.87
139.0430, 26142.25
140.2710, 32270.62
141.5000, 39438.07
142.7280, 46660.05
143.9560, 53359.16
145.1840, 58797.34
146.4120, 61477.64
147.6390, 62055.04
148.8670, 60883.53
150.0940, 57910.12
151.3210, 52361.81
152.5490, 46203.61
153.7750, 39516.50
155.0020, 33281.50
156.2290, 28108.57
157.4550, 23531.75
158.6810, 19387.03
159.9080, 15931.39
161.1340, 13274.85
162.3590, 10820.40
163.5850, 9226.045
164.8110, 7734.779
166.0360, 6554.602
167.2610, 5640.514
168.4860, 4931.514
169.7110, 4307.655
170.9360, 3640.100
172.1610, 3162.943
173.3850, 2732.160
174.6100, 2429.719
175.8340, 2166.510
177.0580, 1899.432
178.2820, 1749.406
179.5050, 1590.430
180.7290, 1457.504
181.9520, 1428.628
183.1760, 1378.816
184.3990, 1427.079
185.6220, 1426.466
186.8450, 1568.953
188.0670, 1456.583
189.2900, 1516.344
190.5120, 1448.233
191.7340, 1274.237
192.9560, 1119.298
194.1780, 997.3975
195.4000, 828.5339
196.6220, 866.7076
197.8430, 755.9177
199.0640, 792.9448
200.2860, 929.9059
201.5070, 1141.803
202.7270, 1416.560
203.9480, 1758.386
205.1690, 2137.118
206.3890, 2193.917
207.6090, 2353.507
208.8290, 2286.287
210.0490, 2126.065
211.2690, 1883.603
212.4890, 1379.493
213.7080, 866.4495
214.9280, 637.2441
216.1470, 432.2032
217.3660, 308.2861
218.5850, 141.4877
219.8030, 15.80359
221.0220, 29.77051
222.2400, 139.2426
223.4590, 200.6316
224.6770, 194.9528
225.8950, 222.2084
227.1120, 224.4073
228.3300, 112.5529
229.5480, 73.62646
230.7650, 109.3751
231.9820, 318.4578
233.1990, 754.4532
234.4160, 1140.857
235.6330, 1945.170
236.8490, 2811.555
238.0660, 3734.013
239.2820, 4426.539
240.4980, 4791.133
241.7140, 5181.794
242.9300, 5115.514
244.1460, 4762.290
245.3610, 4206.121
246.5770, 3596.008
247.7920, 2984.950
249.0070, 2715.948
250.2220, 2328.998
251.4370, 2058.102
252.6510, 1815.259
253.8660, 1636.468
255.0800, 1465.729
256.2940, 1331.041
257.5080, 1209.404
258.7220, 1195.816
259.9360, 1121.278
261.1490, 1073.788
262.3630, 1058.345
263.5760, 992.9497
264.7890, 996.6003
266.0020, 1018.296
267.2150, 987.0369
268.4270, 1044.821
269.6400, 1127.648
270.8520, 1189.519
272.0640, 1231.431
273.2760, 1312.384
274.4880, 1454.379
275.7000, 1502.417
276.9120, 1603.496
278.1230, 1640.616
279.3340, 1768.779
280.5450, 1725.983
281.7560, 1804.229
282.9670, 1724.511
284.1780, 1683.753
285.3880, 1700.427
286.5980, 1724.971
287.8090, 1774.541
289.0190, 1839.588
290.2290, 1946.223
291.4380, 2026.331
292.6480, 2155.032
293.8570, 2309.188
295.0670, 2557.539
296.2760, 2891.958
297.4850, 3298.079
298.6930, 3766.987
299.9020, 4188.932
301.1110, 4711.598
302.3190, 5378.223
303.5270, 6218.882
304.7350, 7042.576
305.9430, 8179.301
307.1510, 9234.057
308.3580, 10552.84
309.5660, 11732.67
310.7730, 12653.52
311.9800, 13580.40
313.1870, 14209.72
314.3940, 14190.04
315.6010, 13833.68
316.8070, 13237.74
318.0130, 12365.57
319.2200, 11612.56
320.4260, 10203.65
321.6310, 9161.325
322.8370, 7989.673
324.0430, 6980.570
325.2480, 6156.410
326.4540, 5233.676
327.6590, 4482.426
328.8640, 3753.445
330.0680, 3258.243
331.2730, 2787.710
332.4780, 2429.978
333.6820, 2051.262
334.8860, 1796.562
336.0900, 1560.878
337.2940, 1385.209
338.4980, 1193.569
339.7010, 1021.916
340.9050, 904.2913
342.1080, 804.6812
343.3110, 720.0862
344.5140, 641.8516
345.7170, 576.1152
346.9200, 520.4844
348.1220, 483.0132
349.3240, 438.5735
350.5270, 433.3950
351.7290, 314.7903
352.9310, 400.4473
354.1320, 367.1365
355.3340, 339.8582
356.5350, 425.6128
357.7370, 382.3994
358.9380, 397.2175
360.1390, 398.0681
361.3400, 376.9456
362.5400, 405.8496
363.7410, 420.7795
364.9410, 339.7351
366.1410, 284.2761
367.3410, 295.4766
368.5410, 240.0022
369.7410, 255.8032
370.9400, 241.3325
372.1400, 203.7639
373.3390, 240.0652
374.5380, 237.6768
375.7370, 175.8516
376.9360, 215.0498
378.1350, 239.2712
379.3330, 241.5156
380.5310, 310.7830
381.7300, 312.0728
382.9280, 372.3848
384.1260, 361.7188
385.3230, 429.0745
386.5210, 501.4517
387.7180, 572.8506
388.9160, 677.2705
390.1130, 756.7114
391.3100, 842.1733
392.5060, 980.6560
393.7030, 1134.159
394.9000, 1324.683
396.0960, 1443.226
397.2920, 1714.790
398.4880, 1812.375
399.6840, 2041.978
400.8800, 2245.601
402.0750, 2463.244
403.2710, 2728.907
404.4660, 2753.588
405.6610, 2943.290
406.8560, 2965.009
408.0510, 2910.748
409.2450, 2807.507
410.4400, 2703.282
411.6340, 2459.077
412.8280, 2313.890
414.0220, 2008.723
415.2160, 1727.573
416.4100, 1496.441
417.6030, 1270.328
418.7970, 1080.232
419.9900, 917.1548
421.1830, 708.0957
422.3760, 514.0537
423.5690, 442.0300
424.7610, 234.0237
425.9540, 111.0349
427.1460, 61.06396
428.3380, 11.88965
429.5300, 46.85107
430.7220, 184.8354
431.9140, 194.9094
433.1050, 260.0779
434.2970, 229.3726
435.4880, 204.7788
436.6790, 263.2842
437.8700, 197.9175
439.0610, 164.6467
440.2510, 107.4551
441.4420, 103.3149
442.6320, 30.22363
443.8220, 45.85254
445.0120, 96.94434
446.2020, 56.05444
447.3910, 104.1819
448.5810, 101.3276
449.7700, 167.4915
450.9600, 104.6738
452.1490, 146.8740
453.3370, 99.09253
454.5260, 53.32959
455.7150, 17.41528
456.9030, 24.83325
458.0910, 15.09399
459.2800, 67.63647
460.4670, 8.395264
461.6550, 48.15552
462.8430, 31.93481
464.0300, 42.72510
465.2180, 110.5312
466.4050, 47.38379
467.5920, 28.25342
468.7790, 73.13110
469.9650, 64.03662
471.1520, 50.96533
472.3380, 28.95215
473.5250, 18.12964
474.7110, 75.19971
475.8970, 150.2827
477.0820, 243.3860
478.2680, 355.5098
479.4540, 504.6543
480.6390, 682.8198
481.8240, 761.0066
483.0090, 1017.214
484.1940, 1228.444
485.3780, 1500.694
486.5630, 1835.967
487.7470, 2198.262
488.9320, 2577.578
490.1160, 2899.917
491.3000, 3418.276
492.4830, 3765.660
493.6670, 4268.062
494.8500, 4573.491
496.0340, 4717.939
497.2170, 4740.412
498.4000, 4634.905
499.5820, 4413.421
500.7650, 4161.960
501.9480, 3604.521
503.1300, 3281.105
504.3120, 2919.711
505.4940, 2422.339
506.6760, 2075.991
507.8580, 1678.665
509.0390, 1463.365
510.2210, 1179.106
511.4020, 937.8992
512.5830, 797.7439
513.7640, 638.6460
514.9450, 529.6060
516.1250, 430.8557
517.3060, 353.0068
518.4860, 291.6821
519.6660, 244.7566
520.8460, 217.8547
522.0260, 162.9763
523.2060, 178.1216
524.3850, 229.2903
525.5650, 225.4829
526.7440, 217.6990
527.9230, 300.9390
529.1020, 288.2029
530.2810, 318.4907
531.4590, 354.8025
532.6380, 384.1384
533.8160, 468.4985
534.9940, 408.8828
536.1720, 448.2915
537.3500, 471.7244
538.5270, 547.1816
539.7050, 561.6638
540.8820, 506.1702
542.0590, 505.7017
543.2360, 547.2573
544.4130, 470.8379
545.5900, 448.4434
546.7660, 385.0737
547.9430, 417.7295
549.1190, 370.4102
550.2950, 259.1157
551.4710, 291.8467
552.6470, 177.6030
553.8220, 232.3845
554.9980, 158.1914
556.1730, 153.0239
557.3480, 167.8821
558.5230, 192.7664
559.6980, 181.6763
560.8730, 158.6118
562.0470, 148.5757
563.2220, 205.5703
564.3960, 206.5942
565.5700, 318.6440
566.7440, 297.7256
567.9170, 286.8335
569.0910, 391.9675
570.2640, 412.6340
571.4380, 472.4224
572.6110, 558.4399
573.7840, 519.8906
574.9570, 582.5518
576.1290, 652.0454
577.3020, 677.0178
578.4740, 765.6050
579.6460, 825.0698
580.8180, 894.9497
581.9900, 972.3687
583.1620, 1071.484
584.3330, 1126.634
585.5040, 1253.632
586.6760, 1223.756
587.8470, 1388.415
589.0180, 1500.111
590.1880, 1485.849
591.3590, 1688.625
592.5290, 1818.442
593.7000, 1971.299
594.8700, 2162.207
596.0400, 2234.159
597.2090, 2532.746
598.3790, 2643.419
599.5490, 2803.832
600.7180, 3087.907
601.8870, 3284.279
603.0560, 3561.565
604.2250, 3793.809
605.3940, 4189.546
606.5620, 4324.679
607.7300, 4680.333
608.8990, 5007.113
610.0670, 5501.537
611.2350, 5798.542
612.4020, 6249.347
613.5700, 6731.446
614.7370, 7189.951
615.9050, 7765.721
617.0720, 8243.552
618.2390, 9040.434
619.4060, 9444.381
620.5720, 10307.38
621.7390, 10678.42
622.9050, 11438.52
624.0710, 12207.69
625.2370, 12810.90
626.4030, 13441.17
627.5690, 14084.49
628.7340, 14477.86
629.9000, 15060.28
631.0650, 15420.75
632.2300, 15672.27
633.3950, 15789.84
634.5600, 15792.68
635.7240, 15513.10
636.8890, 15394.80
638.0530, 15082.54
639.2170, 14505.31
640.3810, 14041.14
641.5450, 13574.00
642.7080, 12967.92
643.8720, 12332.88
645.0350, 11652.88
646.1980, 11032.92
647.3610, 10404.70
648.5240, 9769.128
649.6870, 9194.291
650.8490, 8603.496
652.0120, 8039.737
653.1740, 7518.018
654.3360, 6998.341
655.4980, 6540.139
656.6600, 6113.530
657.8210, 5700.547
658.9830, 5378.025
660.1440, 5034.542
661.3050, 4772.097
662.4660, 4400.690
663.6270, 4290.322
664.7870, 3882.991
665.9480, 3696.698
667.1080, 3429.442
668.2680, 3241.226
669.4280, 3090.046
670.5880, 2813.905
671.7480, 2673.801
672.9070, 2625.733
674.0670, 2425.702
675.2260, 2313.710
676.3850, 2304.754
677.5440, 2035.836
678.7030, 2010.956
679.8610, 1906.110
681.0200, 1848.300
682.1780, 1795.527
683.3360, 1622.791
684.4940, 1590.091
685.6520, 1495.426
686.8090, 1438.797
687.9670, 1323.205
689.1240, 1331.647
690.2810, 1290.127
691.4380, 1212.641
692.5950, 1126.192
693.7520, 1112.778
694.9080, 1002.398
696.0650, 1019.053
697.2210, 944.7996
698.3770, 968.5239
699.5330, 881.2827
700.6880, 856.4539
701.8440, 764.3455
702.9990, 817.8252
704.1550, 784.7190
705.3100, 762.6934
706.4650, 717.6748
707.6190, 684.6675
708.7740, 698.6929
709.9290, 662.3735
711.0830, 608.4966
712.2370, 616.7292
713.3910, 616.0264
714.5450, 596.5222
715.6980, 545.1492
716.8520, 545.7371
718.0050, 494.5205
719.1580, 462.3000
720.3110, 459.1582
721.4640, 417.1033
722.6170, 415.0901
723.7700, 406.4229
724.9220, 435.7988
726.0740, 405.6680
727.2260, 420.1021
728.3780, 432.6108
729.5300, 367.1516
730.6810, 408.3684
731.8330, 362.7534
732.9840, 334.1243
734.1350, 313.3694
735.2860, 329.2366
736.4370, 302.3706
737.5880, 344.7622
738.7380, 306.3354
739.8880, 333.7656
741.0390, 263.2610
742.1890, 291.3916
743.3380, 246.1118
744.4880, 278.1331
745.6380, 263.9220
746.7870, 216.4796
747.9360, 232.2355
749.0850, 229.3221
750.2340, 262.6133
751.3830, 187.8708
752.5310, 281.4502
753.6800, 242.0823
754.8280, 301.7974
755.9760, 242.2579
757.1240, 233.2308
758.2720, 229.3820
759.4190, 196.9865
760.5670, 206.9462
761.7140, 223.9332
762.8610, 202.0167
764.0080, 183.1863
765.1550, 156.4795
766.3020, 184.1466
767.4480, 211.7531
768.5950, 240.3240
769.7410, 181.6854
770.8870, 192.0654
772.0330, 166.3870
773.1780, 126.0695
774.3240, 193.5590
775.4690, 162.2507
776.6140, 134.4989
777.7590, 165.1837
778.9040, 96.93469
780.0490, 105.7007
781.1940, 119.5852
782.3380, 109.1833
783.4820, 134.7838
784.6260, 113.3870
785.7700, 135.1067
786.9140, 106.0913
788.0580, 115.7006
789.2010, 122.1208
790.3450, 82.72046
791.4880, 122.1656
792.6310, 102.0698
793.7730, 100.7860
794.9160, 56.28943
796.0590, 136.7633
797.2010, 114.5452
798.3430, 58.25256
799.4850, 118.0238
800.6270, 78.79382
801.7690, 118.5017
802.9100, 146.9160
804.0520, 119.4891
805.1930, 94.59229
806.3340, 133.4010
807.4750, 103.9724
808.6160, 147.7162
809.7560, 115.1825
810.8970, 108.9991
812.0370, 76.86511
813.1770, 93.49402
814.3170, 77.34436
815.4570, 69.29370
816.5960, 80.74023
817.7360, 64.23706
818.8750, 73.84265
820.0140, 67.29419
821.1530, 71.50488
822.2920, 52.05005
823.4310, 68.77856
824.5690, 54.52271
825.7070, 27.31299
826.8460, 50.18506
827.9840, 56.77319
829.1220, 25.55298
830.2590, 41.34192
831.3970, 33.90674
832.5340, 17.56934
833.6710, 5.640259
834.8080, 17.94824
835.9450, 39.41650
837.0820, 23.06042
838.2190, 43.34424
839.3550, 30.49158
840.4910, 10.93176
841.6270, 40.66992
842.7630, 1.023193
843.8990, 41.35461
845.0350, 19.74817
846.1700, 26.87622
847.3060, 36.47485
848.4410, 1.068237
849.5760, 17.37415
850.7100, 6.198608
851.8450, 7.795776
852.9800, 3.568848
854.1140, 5.443970
855.2480, 8.189209
856.3820, 4.459717
857.5160, 0.2882080
858.6500, 16.02087
859.7830, 26.84961
860.9170, 27.56335
862.0500, 16.48889
863.1830, 7.356445
864.3160, 24.20691
865.4480, 6.095337
866.5810, 16.08032
867.7130, 17.38684
868.8460, 48.96960
869.9780, 29.01709
871.1100, 21.05432
872.2410, 40.02148
873.3730, 26.51648
874.5050, 11.28528
875.6360, 23.50171
876.7670, 22.82898
877.8980, 15.17407
879.0290, 22.79041
880.1590, 41.73938
881.2900, 20.09375
882.4200, 30.59180
883.5500, 16.16455
884.6800, 19.63367
885.8100, 5.215088
886.9400, 50.80188
888.0690, 38.42615
889.1990, 6.025513
890.3280, 53.83600
891.4570, 32.55713
892.5860, 55.40204
893.7140, 9.208984
894.8430, 15.23456
895.9710, 38.29218
897.1000, 32.27783
898.2280, 19.39996
899.3560, 35.60406
900.4830, 20.56458
901.6110, 6.827087
902.7380, 7.536804
903.8660, 5.953613
904.9930, 1.625000
906.1200, 0.9475710
907.2460, 20.48938
908.3730, 43.93866
909.5000, 58.29266
910.6260, 47.64502
911.7520, 28.03168
912.8780, 18.39795
914.0040, 50.67725
915.1290, 18.94031
916.2550, 0.8422850
917.3800, 67.29517
918.5050, 69.42169
919.6300, 71.45361
920.7550, 64.49963
921.8800, 51.52124
923.0040, 77.49536
924.1290, 99.46680
925.2530, 82.43280
926.3770, 39.33325
927.5010, 64.14496
928.6250, 79.01025
929.7480, 101.7509
930.8720, 107.5896
931.9950, 79.28400
933.1180, 86.93787
934.2410, 83.56067
935.3640, 85.38519
936.4860, 91.94458
937.6090, 127.5507
938.7310, 110.0502
939.8530, 68.51947
940.9750, 89.95392
942.0970, 115.5778
943.2180, 97.94904
944.3400, 131.4028
945.4610, 94.79980
946.5820, 92.08759
947.7030, 116.4374
948.8240, 95.70001
949.9450, 88.93683
951.0650, 145.1093
952.1860, 137.3380
953.3060, 125.4678
954.4260, 83.66095
955.5460, 130.6885
956.6650, 135.7920
957.7850, 114.7879
958.9040, 113.7794
960.0230, 109.7874
961.1420, 103.9766
962.2610, 134.7377
963.3800, 112.6104
964.4990, 112.4698
965.6170, 139.2781
966.7350, 128.0412
967.8530, 113.8000
968.9710, 137.4974
970.0890, 152.2264
971.2070, 145.9366
972.3240, 122.2292
973.4410, 107.7899
974.5580, 154.7501
975.6750, 160.2795
976.7920, 124.7234
977.9090, 160.1233
979.0250, 155.5236
980.1410, 158.8250
981.2580, 161.5505
982.3740, 144.8757
983.4890, 146.1277
984.6050, 147.4650
985.7200, 149.5649
986.8360, 153.0307
987.9510, 158.8452
989.0660, 160.5524
990.1810, 165.5577
991.2950, 167.5312
992.4100, 154.4573
993.5240, 196.4316
994.6390, 152.0580
995.7530, 191.6050
996.8660, 170.7628
997.9800, 162.2911
999.0940, 163.8002
1000.207, 182.2791
1001.320, 162.0240
1002.433, 162.7256
1003.546, 170.4297
1004.659, 158.1323
1005.772, 140.2307
1006.884, 142.9850
1007.996, 168.5411
1009.108, 161.9454
1010.220, 184.4660
1011.332, 172.0260
1012.444, 132.8405
1013.555, 157.1591
1014.666, 139.1804
1015.777, 162.4827
1016.888, 173.9093
1017.999, 131.1648
1019.110, 146.0868
1020.220, 137.9406
1021.331, 128.8763
1022.441, 112.4274
1023.551, 147.0525
1024.661, 109.4611
1025.770, 120.0712
1026.880, 98.14062
1027.989, 131.0412
1029.098, 125.5225
1030.207, 94.86462
1031.316, 107.0191
1032.425, 112.0310
1033.533, 112.8647
1034.642, 98.57904
1035.750, 107.3356
1036.858, 106.7399
1037.966, 101.2001
1039.073, 111.8519
1040.181, 103.4507
1041.288, 91.14001
1042.396, 106.4420
1043.503, 99.92688
1044.610, 84.20770
1045.716, 79.90509
1046.823, 90.14398
1047.929, 86.30469
1049.036, 86.40588
1050.142, 91.38586
1051.248, 86.63690
1052.353, 101.9077
1053.459, 91.09717
1054.564, 89.24615
1055.670, 92.05969
1056.775, 85.27838
1057.880, 79.71082
1058.985, 87.91449
1060.089, 99.27838
1061.194, 78.04761
1062.298, 100.9727
1063.402, 69.20435
1064.506, 96.38110
1065.610, 109.8981
1066.713, 99.84344
1067.817, 52.67371
1068.920, 102.5411
1070.023, 78.44824
1071.126, 99.63477
1072.229, 96.65210
1073.332, 108.1207
1074.435, 50.81891
1075.537, 99.69983
1076.639, 66.39197
1077.741, 72.39136
1078.843, 90.00427
1079.945, 66.63916
1081.046, 79.40857
1082.148, 76.94482
1083.249, 83.36200
1084.350, 62.27838
1085.451, 78.12823
1086.551, 54.83606
1087.652, 85.00989
1088.752, 58.71460
1089.853, 76.38794
1090.953, 68.93909
1092.053, 56.41980
1093.152, 50.79004
1094.252, 51.09753
1095.351, 62.59058
1096.451, 56.91107
1097.550, 60.25458
1098.649, 62.76459
1099.748, 55.14105
1100.846, 47.42023
1101.945, 44.82831
1103.043, 42.61951
1104.141, 42.66382
1105.239, 44.02429
1106.337, 46.11462
1107.434, 49.57837
1108.532, 51.67847
1109.629, 59.59491
1110.726, 56.32959
1111.823, 71.74390
1112.920, 55.13959
1114.017, 49.52631
1115.113, 52.78418
1116.210, 33.03326
1117.306, 55.27332
1118.402, 73.51343
1119.498, 71.76648
1120.593, 76.05334
1121.689, 79.31946
1122.784, 76.59094
1123.879, 63.85516
1124.974, 49.03607
1126.069, 70.37000
1127.164, 48.51428
1128.259, 33.83740
1129.353, 48.09515
1130.447, 33.28229
1131.541, 31.54779
1132.635, 43.80536
1133.729, 18.97382
1134.822, 19.14557
1135.916, 42.35706
1137.009, 36.52100
1138.102, 57.57947
1139.195, 40.68231
1140.288, 32.90717
1141.380, 43.10266
1142.473, 19.37128
1143.565, 47.61896
1144.657, 26.68262
1145.749, 27.87738
1146.841, 22.01404
1147.932, 50.28540
1149.024, 44.55902
1150.115, 54.69000
1151.206, 18.89288
1152.297, 12.06354
1153.388, 25.22144
1154.479, 3.307312
1155.569, 22.56482
1156.659, 32.68103
1157.750, 36.87476
1158.839, 31.98358
1159.929, 21.26459
1161.019, 6.465088
1162.108, 63.70551
1163.198, 10.94189
1164.287, 30.21521
1165.376, 26.51764
1166.465, 7.221497
1167.553, 20.07611
1168.642, 12.38385
1169.730, 13.68048
1170.818, 19.03229
1171.906, 8.359863
1172.994, 11.63806
1174.082, 10.97699
1175.170, 8.283875
1176.257, 11.51825
1177.344, 13.38599
1178.431, 13.01331
1179.518, 20.26587
1180.605, 17.52515
1181.691, 17.82190
1182.778, 9.095947
1183.864, 24.43433
1184.950, 2.724976
1186.036, 16.00537
1187.122, 5.297607
1188.207, 0.4413450
1189.292, 3.793091
1190.378, 5.8899000E-02
1191.463, 27.37616
1192.548, 38.60736
1193.632, 4.929138
1194.717, 21.12433
1195.801, 14.57324
1196.886, 12.73242
1197.970, 21.03479
1199.054, 8.101135
1200.137, 9.398010
1201.221, 8.613953
1202.305, 6.905396
1203.388, 7.195679
1204.471, 18.48462
1205.554, 32.54956
1206.637, 29.83368
1207.719, 15.00128
1208.802, 19.19269
1209.884, 0.5401000
1210.966, 17.63000
1212.048, 15.85333
1213.130, 16.06787
1214.212, 12.31152
1215.293, 11.46588
1216.374, 14.68591
1217.456, 26.80890
1218.536, 12.06226
1219.617, 24.20599
1220.698, 3.424194
1221.778, 11.61249
1222.859, 27.76538
1223.939, 28.88196
1225.019, 32.00305
1226.099, 44.18616
1227.178, 21.33661
1228.258, 4.504028
1229.337, 35.68298
1230.417, 7.832581
1231.496, 21.95306
1232.574, 17.06500
1233.653, 33.17719
1234.732, 11.28021
1235.810, 9.395325
1236.888, 16.52313
1237.966, 16.32959
