##NAMES=Brookite
##RRUFFID=R050363
##IDEAL CHEMISTRY=Ti^4+^O_2_
##LOCALITY=Magnet Cove, Arkansas, USA
##OWNER=RRUFF
##SOURCE=University of Arizona Mineral Museum
##DESCRIPTION=Black fragment of a prismatic crystal associated with quartz
##STATUS=The identification of this mineral has been confirmed by X-ray diffraction and chemical analysis
##URL=rruff.info/R050363
##MEASURED CHEMISTRY=(Ti_0.94_Nb^5+^_0.03_Fe^3+^_0.03_)_Î£=1_O_2_
##PIN_ID=L01899
##ORIENTATION=Laser parallel to b* (0 1 0). Fiducial mark perpendicular to laser is parallel to c [0 0 1]
51.43100, 0.0000000E+00
52.67100, 81.42566
53.91000, 75.25446
55.14900, 145.1989
56.38700, 175.1958
57.62600, 221.1089
58.86400, 218.0853
60.10300, 144.2838
61.34100, 46.53741
62.57900, 10.45654
63.81700, 26.95142
65.05400, 48.21863
66.29200, 50.59595
67.52900, 28.58240
68.76700, 114.0115
70.00400, 310.4224
71.24100, 488.5759
72.47700, 511.2456
73.71400, 679.1145
74.95100, 725.1006
76.18700, 889.2217
77.42300, 968.4629
78.65900, 1079.615
79.89500, 1290.509
81.13100, 1530.006
82.36700, 1881.990
83.60200, 2066.365
84.83700, 2014.047
86.07200, 2111.968
87.30800, 2158.067
88.54200, 2414.290
89.77700, 2673.563
91.01200, 3142.799
92.24600, 3333.919
93.48000, 3302.858
94.71400, 3532.189
95.94800, 3638.973
97.18200, 3746.263
98.41600, 4082.929
99.64900, 4231.895
100.8830, 4479.176
102.1160, 4540.791
103.3490, 4870.750
104.5820, 5337.066
105.8150, 5893.750
107.0470, 6407.812
108.2800, 7012.259
109.5120, 7707.101
110.7440, 7479.344
111.9760, 7443.989
113.2080, 7951.043
114.4400, 8884.509
115.6710, 9662.385
116.9030, 10460.68
118.1340, 11304.40
119.3650, 12244.53
120.5960, 13593.09
121.8270, 14833.07
123.0580, 15464.48
124.2880, 16021.32
125.5190, 16011.51
126.7490, 16722.79
127.9790, 17401.14
129.2090, 18168.54
130.4390, 18752.02
131.6680, 19121.51
132.8980, 20038.07
134.1270, 21078.79
135.3560, 22420.70
136.5850, 24603.10
137.8140, 27346.25
139.0430, 30502.61
140.2710, 34380.81
141.5000, 38464.27
142.7280, 42742.91
143.9560, 47075.11
145.1840, 51308.66
146.4120, 54913.55
147.6390, 56718.80
148.8670, 57222.41
150.0940, 55791.36
151.3210, 52419.68
152.5490, 47886.34
153.7750, 42701.34
155.0020, 37618.70
156.2290, 32909.39
157.4550, 28851.45
158.6810, 24896.84
159.9080, 22044.57
161.1340, 19442.66
162.3590, 17618.08
163.5850, 15871.83
164.8110, 14489.92
166.0360, 13730.35
167.2610, 12454.11
168.4860, 11075.21
169.7110, 9416.624
170.9360, 7453.356
172.1610, 6068.396
173.3850, 4908.749
174.6100, 4200.412
175.8340, 3558.385
177.0580, 3118.668
178.2820, 2593.260
179.5050, 2316.160
180.7290, 2159.367
181.9520, 1952.881
183.1760, 1789.701
184.3990, 1748.827
185.6220, 1666.257
186.8450, 1579.989
188.0670, 1710.024
189.2900, 1710.360
190.5120, 1688.996
191.7340, 1542.935
192.9560, 1547.229
194.1780, 1590.893
195.4000, 1524.866
196.6220, 1616.132
197.8430, 1860.688
199.0640, 2141.828
200.2860, 2537.740
201.5070, 3219.403
202.7270, 3789.958
203.9480, 4381.392
205.1690, 4745.495
206.3890, 5292.525
207.6090, 5844.001
208.8290, 6236.800
210.0490, 6080.877
211.2690, 5455.854
212.4890, 4437.254
213.7080, 3253.837
214.9280, 2440.605
216.1470, 1661.781
217.3660, 1053.347
218.5850, 497.2935
219.8030, 113.8066
221.0220, 91.71924
222.2400, 341.6836
223.4590, 447.2979
224.6770, 441.5698
225.8950, 588.4932
227.1120, 646.0752
228.3300, 538.3350
229.5480, 538.2100
230.7650, 385.7500
231.9820, 189.9189
233.1990, 175.2949
234.4160, 428.8721
235.6330, 951.7905
236.8490, 1401.038
238.0660, 2253.579
239.2820, 3040.389
240.4980, 3653.460
241.7140, 4287.781
242.9300, 4673.335
244.1460, 4560.113
245.3610, 4300.113
246.5770, 3658.337
247.7920, 3115.779
249.0070, 2630.440
250.2220, 2329.680
251.4370, 2192.420
252.6510, 1976.735
253.8660, 2037.267
255.0800, 2053.012
256.2940, 2071.969
257.5080, 2191.140
258.7220, 2381.520
259.9360, 2624.086
261.1490, 3085.906
262.3630, 3388.909
263.5760, 3670.120
264.7890, 4325.533
266.0020, 4752.149
267.2150, 5524.966
268.4270, 6186.983
269.6400, 7078.199
270.8520, 7911.611
272.0640, 8960.223
273.2760, 9685.028
274.4880, 10553.03
275.7000, 11204.23
276.9120, 11406.63
278.1230, 11762.22
279.3340, 11745.02
280.5450, 11337.01
281.7560, 10642.20
282.9670, 10127.57
284.1780, 9076.988
285.3880, 8320.385
286.5980, 7547.728
287.8090, 6631.089
289.0190, 5889.629
290.2290, 5553.373
291.4380, 4903.323
292.6480, 4672.476
293.8570, 4423.830
295.0670, 4488.388
296.2760, 4529.144
297.4850, 4589.099
298.6930, 4978.253
299.9020, 5112.605
301.1110, 5603.154
302.3190, 6201.897
303.5270, 6830.835
304.7350, 7513.678
305.9430, 8303.291
307.1510, 9034.805
308.3580, 9815.514
309.5660, 10664.41
310.7730, 11487.50
311.9800, 12322.77
313.1870, 12907.23
314.3940, 13478.87
315.6010, 13838.70
316.8070, 13933.71
318.0130, 14128.91
319.2200, 14053.29
320.4260, 13672.85
321.6310, 13434.60
322.8370, 12655.52
324.0430, 11728.62
325.2480, 10833.90
326.4540, 9364.351
327.6590, 8130.986
328.8640, 6983.792
330.0680, 5925.704
331.2730, 4954.659
332.4780, 4148.584
333.6820, 3456.026
334.8860, 2726.424
336.0900, 2287.685
337.2940, 1813.693
338.4980, 1414.869
339.7010, 1109.212
340.9050, 844.7930
342.1080, 596.3916
343.3110, 490.2275
344.5140, 398.2686
345.7170, 274.5146
346.9200, 278.9697
348.1220, 413.6338
349.3240, 467.5068
350.5270, 780.5918
351.7290, 1017.763
352.9310, 1334.347
354.1320, 1788.121
355.3340, 2093.062
356.5350, 2715.217
357.7370, 3132.584
358.9380, 3617.160
360.1390, 3822.934
361.3400, 3837.904
362.5400, 3821.070
363.7410, 3488.430
364.9410, 3034.162
366.1410, 2551.431
367.3410, 2267.743
368.5410, 1674.931
369.7410, 1357.558
370.9400, 1074.771
372.1400, 839.1084
373.3390, 647.9307
374.5380, 870.5977
375.7370, 759.2148
376.9360, 703.8311
378.1350, 631.2881
379.3330, 661.9385
380.5310, 794.8145
381.7300, 792.4512
382.9280, 902.3125
384.1260, 905.7285
385.3230, 961.2842
386.5210, 1051.646
387.7180, 1169.884
388.9160, 1202.926
390.1130, 1320.127
391.3100, 1354.489
392.5060, 1539.010
393.7030, 1551.689
394.9000, 1651.526
396.0960, 1805.521
397.2920, 1982.671
398.4880, 2095.979
399.6840, 2357.439
400.8800, 2421.975
402.0750, 2619.824
403.2710, 2677.747
404.4660, 2511.822
405.6610, 2772.049
406.8560, 2520.426
408.0510, 2355.954
409.2450, 2405.632
410.4400, 2042.460
411.6340, 1830.435
412.8280, 1745.559
414.0220, 1557.829
415.2160, 1246.246
416.4100, 1091.810
417.6030, 856.5176
418.7970, 634.3711
419.9900, 491.3682
421.1830, 375.5088
422.3760, 250.9062
423.5690, 240.2188
424.7610, 146.7861
425.9540, 146.4951
427.1460, 246.3457
428.3380, 300.3379
429.5300, 448.4697
430.7220, 706.7441
431.9140, 738.1611
433.1050, 852.7207
434.2970, 1020.422
435.4880, 1344.263
436.6790, 1533.246
437.8700, 1741.367
439.0610, 2117.630
440.2510, 2256.032
441.4420, 2627.579
442.6320, 2698.277
443.8220, 2826.135
445.0120, 3001.148
446.2020, 2995.299
447.3910, 3090.591
448.5810, 3081.025
449.7700, 2845.625
450.9600, 2850.357
452.1490, 2692.238
453.3370, 2661.251
454.5260, 2504.232
455.7150, 2345.666
456.9030, 2148.068
458.0910, 1951.763
459.2800, 1650.269
460.4670, 1521.087
461.6550, 1263.035
462.8430, 1047.118
464.0300, 945.3418
465.2180, 715.6938
466.4050, 462.1738
467.5920, 371.2715
468.7790, 344.5283
469.9650, 148.3965
471.1520, 87.39014
472.3380, 38.51660
473.5250, 26.24463
474.7110, 68.91748
475.8970, 53.04346
477.0820, 23.01123
478.2680, 34.62354
479.4540, 78.34082
480.6390, 187.1787
481.8240, 240.1318
483.0090, 425.1987
484.1940, 511.3789
485.3780, 581.6777
486.5630, 827.0918
487.7470, 1049.620
488.9320, 1053.260
490.1160, 1382.011
491.3000, 1461.872
492.4830, 1460.842
493.6670, 1649.918
494.8500, 1734.101
496.0340, 1617.389
497.2170, 1526.785
498.4000, 1427.285
499.5820, 1168.889
500.7650, 1081.595
501.9480, 728.4023
503.1300, 602.3105
504.3120, 367.3193
505.4940, 191.4292
506.6760, 105.6392
507.8580, 28.05664
509.0390, 158.6963
510.2210, 244.3086
511.4020, 299.9136
512.5830, 409.5410
513.7640, 395.2173
514.9450, 610.9287
516.1250, 418.7925
517.3060, 492.7227
518.4860, 450.7808
519.6660, 303.9736
520.8460, 229.2549
522.0260, 190.5913
523.2060, 41.96631
524.3850, 70.68164
525.5650, 96.39600
526.7440, 260.1826
527.9230, 466.0537
529.1020, 639.0083
530.2810, 715.0459
531.4590, 874.1660
532.6380, 1104.366
533.8160, 1164.649
534.9940, 1402.012
536.1720, 1446.453
537.3500, 1603.974
538.5270, 1623.572
539.7050, 1692.139
540.8820, 1706.001
542.0590, 1745.831
543.2360, 1748.060
544.4130, 1787.716
545.5900, 1718.770
546.7660, 1719.897
547.9430, 1676.989
549.1190, 1611.371
550.2950, 1594.716
551.4710, 1551.131
552.6470, 1427.617
553.8220, 1347.172
554.9980, 1229.795
556.1730, 1113.488
557.3480, 1166.248
558.5230, 1139.075
559.6980, 1241.969
560.8730, 1120.928
562.0470, 1194.952
563.2220, 1204.040
564.3960, 1209.193
565.5700, 1327.408
566.7440, 1441.991
567.9170, 1555.370
569.0910, 1565.992
570.2640, 1613.453
571.4380, 1830.079
572.6110, 2038.811
573.7840, 2039.778
574.9570, 2201.055
576.1290, 2449.807
577.3020, 2527.162
578.4740, 2552.195
579.6460, 2787.953
580.8180, 2678.762
581.9900, 2745.403
583.1620, 2752.229
584.3330, 2854.550
585.5040, 2873.669
586.6760, 2852.859
587.8470, 2973.018
589.0180, 2849.419
590.1880, 3114.630
591.3590, 3193.847
592.5290, 3223.197
593.7000, 3181.296
594.8700, 3393.106
596.0400, 3517.428
597.2090, 3675.975
598.3790, 3840.777
599.5490, 4020.732
600.7180, 4194.825
601.8870, 4463.666
603.0560, 4673.154
604.2250, 4993.126
605.3940, 5084.165
606.5620, 5204.615
607.7300, 5597.427
608.8990, 5737.909
610.0670, 6182.913
611.2350, 6457.327
612.4020, 6662.672
613.5700, 6893.086
614.7370, 7373.003
615.9050, 7525.319
617.0720, 7929.042
618.2390, 8300.621
619.4060, 8556.894
620.5720, 8987.970
621.7390, 9125.834
622.9050, 9561.846
624.0710, 9874.652
625.2370, 10079.02
626.4030, 10257.44
627.5690, 10463.35
628.7340, 10706.59
629.9000, 10818.08
631.0650, 11102.22
632.2300, 11011.71
633.3950, 10994.87
634.5600, 11116.06
635.7240, 11004.31
636.8890, 10953.38
638.0530, 10917.71
639.2170, 10596.44
640.3810, 10267.85
641.5450, 10042.21
642.7080, 9684.920
643.8720, 9237.564
645.0350, 8979.642
646.1980, 8764.705
647.3610, 8146.223
648.5240, 7600.274
649.6870, 7237.285
650.8490, 7064.920
652.0120, 6559.551
653.1740, 6098.121
654.3360, 5596.373
655.4980, 5251.800
656.6600, 5017.614
657.8210, 4580.302
658.9830, 4183.199
660.1440, 3989.014
661.3050, 3595.832
662.4660, 3258.618
663.6270, 3286.833
664.7870, 2929.015
665.9480, 2694.829
667.1080, 2527.693
668.2680, 2305.581
669.4280, 2211.491
670.5880, 2046.419
671.7480, 1939.369
672.9070, 1827.340
674.0670, 1566.331
675.2260, 1440.342
676.3850, 1299.732
677.5440, 1289.414
678.7030, 1112.475
679.8610, 1059.553
681.0200, 1106.645
682.1780, 948.7529
683.3360, 974.8735
684.4940, 858.0063
685.6520, 838.1523
686.8090, 767.3086
687.9670, 653.4766
689.1240, 609.6567
690.2810, 491.8472
691.4380, 385.0479
692.5950, 360.2568
693.7520, 348.4736
694.9080, 358.6968
696.0650, 277.9268
697.2210, 355.1621
698.3770, 285.4033
699.5330, 357.6484
700.6880, 205.8999
701.8440, 248.1558
702.9990, 205.4150
704.1550, 173.6772
705.3100, 90.94092
706.4650, 120.2031
707.6190, 98.46484
708.7740, 158.7241
709.9290, 109.9824
711.0830, 105.2388
712.2370, 91.49121
713.3910, 72.73633
714.5450, 135.9727
715.6980, 75.20508
716.8520, 106.5732
718.0050, 57.79004
719.1580, 58.13574
720.3110, 21.37988
721.4640, 24.25781
722.6170, 48.82471
723.7700, 44.40576
724.9220, 51.01514
726.0740, 11.35352
727.2260, 5.709961
728.3780, 93.55859
729.5300, 60.83447
730.6810, 26.02783
731.8330, 75.22217
732.9840, 105.3384
734.1350, 64.96338
735.2860, 54.05811
736.4370, 41.34668
737.5880, 39.66943
738.7380, 68.79395
739.8880, 48.41016
741.0390, 3.490723
742.1890, 27.92432
743.3380, 44.28809
744.4880, 28.53662
745.6380, 16.62793
746.7870, 16.23389
747.9360, 61.02637
749.0850, 43.39014
750.2340, 9.766113
751.3830, 120.9351
752.5310, 133.9058
753.6800, 49.86035
754.8280, 0.8237300
755.9760, 97.49463
757.1240, 139.4917
758.2720, 39.96924
759.4190, 127.4355
760.5670, 116.1807
761.7140, 193.9204
762.8610, 37.29346
764.0080, 99.91064
765.1550, 70.30420
766.3020, 126.8706
767.4480, 111.6909
768.5950, 159.8540
769.7410, 121.6777
770.8870, 228.6479
772.0330, 201.7515
773.1780, 170.1626
774.3240, 89.43311
775.4690, 164.9106
776.6140, 122.0820
777.7590, 160.3374
778.9040, 188.2979
780.0490, 134.5586
781.1940, 145.8096
782.3380, 107.5688
783.4820, 110.6079
784.6260, 149.6675
785.7700, 127.3901
786.9140, 178.5303
788.0580, 206.7769
789.2010, 232.1006
790.3450, 280.1133
791.4880, 261.8770
792.6310, 277.6440
793.7730, 182.6460
794.9160, 273.6646
796.0590, 358.0859
797.2010, 336.6982
798.3430, 251.3687
799.4850, 267.8164
800.6270, 358.9758
801.7690, 264.3459
802.9100, 301.5950
804.0520, 384.0603
805.1930, 354.5720
806.3340, 346.4692
807.4750, 367.9521
808.6160, 348.7307
809.7560, 371.9790
810.8970, 380.7637
812.0370, 384.6685
813.1770, 450.9746
814.3170, 364.4675
815.4570, 354.6372
816.5960, 408.3623
817.7360, 396.5220
818.8750, 397.9189
820.0140, 363.5571
821.1530, 412.4919
822.2920, 433.6550
823.4310, 395.1602
824.5690, 420.9446
825.7070, 403.1338
826.8460, 403.9412
827.9840, 429.6011
829.1220, 448.0881
830.2590, 443.5615
831.3970, 439.5713
832.5340, 420.8503
833.6710, 414.8262
834.8080, 398.9282
835.9450, 407.0212
837.0820, 368.4902
838.2190, 367.4021
839.3550, 355.3330
840.4910, 454.3596
841.6270, 414.9006
842.7630, 339.3735
843.8990, 453.7139
845.0350, 473.0630
846.1700, 356.5569
847.3060, 300.7100
848.4410, 362.7229
849.5760, 321.2935
850.7100, 335.8733
851.8450, 305.8274
852.9800, 250.0149
854.1140, 285.8081
855.2480, 252.0391
856.3820, 273.3196
857.5160, 239.3174
858.6500, 210.1934
859.7830, 196.3958
860.9170, 179.3486
862.0500, 195.1130
863.1830, 183.7188
864.3160, 143.8088
865.4480, 159.0867
866.5810, 198.3369
867.7130, 166.4414
868.8460, 95.78491
869.9780, 135.4009
871.1100, 97.63135
872.2410, 81.51172
873.3730, 101.1389
874.5050, 115.7683
875.6360, 25.07422
876.7670, 83.54907
877.8980, 0.3708500
879.0290, 9.670654
880.1590, 6.842529
881.2900, 70.61670
882.4200, 12.99780
883.5500, 64.36206
884.6800, 2.205078
885.8100, 16.40820
886.9400, 41.80029
888.0690, 14.39697
889.1990, 2.005859
890.3280, 28.35425
891.4570, 13.03979
892.5860, 1.203125
893.7140, 74.13599
894.8430, 20.53857
895.9710, 31.64795
897.1000, 31.95239
898.2280, 22.84595
899.3560, 78.95410
900.4830, 17.07471
901.6110, 79.36621
902.7380, 20.18018
903.8660, 26.22632
904.9930, 21.30811
906.1200, 24.23389
907.2460, 23.81885
908.3730, 4.730469
909.5000, 10.52856
910.6260, 59.46436
911.7520, 12.09546
912.8780, 72.28442
914.0040, 28.24561
915.1290, 67.20312
916.2550, 65.26294
917.3800, 26.33838
918.5050, 51.96167
919.6300, 95.55762
920.7550, 95.53442
921.8800, 61.14624
923.0040, 146.1055
924.1290, 50.99219
925.2530, 79.80591
926.3770, 105.5481
927.5010, 113.2268
928.6250, 101.8369
929.7480, 107.3911
930.8720, 81.86230
931.9950, 73.28149
933.1180, 72.60596
934.2410, 92.85474
935.3640, 126.0305
936.4860, 100.1350
937.6090, 111.1687
938.7310, 87.12891
939.8530, 80.01514
940.9750, 139.8301
942.0970, 184.5808
943.2180, 144.2646
944.3400, 86.87964
945.4610, 133.6326
946.5820, 114.1038
947.7030, 180.5032
948.8240, 152.9216
949.9450, 186.1863
951.0650, 114.4785
952.1860, 176.6294
953.3060, 142.6914
954.4260, 231.7832
955.5460, 186.7136
956.6650, 153.7859
957.7850, 231.6514
958.9040, 187.4937
960.0230, 133.2612
961.1420, 172.9465
962.2610, 184.5027
963.3800, 199.1313
964.4990, 211.6528
965.6170, 238.2151
966.7350, 205.5339
967.8530, 256.8394
968.9710, 196.0403
970.0890, 241.2568
971.2070, 157.2881
972.3240, 224.5273
973.4410, 208.6504
974.5580, 190.6694
975.6750, 276.4878
976.7920, 207.3499
977.9090, 290.1855
979.0250, 231.8782
980.1410, 237.5405
981.2580, 281.0928
982.3740, 290.5186
983.4890, 340.8875
984.6050, 265.2019
985.7200, 301.4607
986.8360, 362.6624
987.9510, 272.6650
989.0660, 355.7559
990.1810, 372.6526
991.2950, 315.5857
992.4100, 299.3301
993.5240, 391.9246
994.6390, 388.4473
995.7530, 344.8818
996.8660, 275.3320
997.9800, 372.6907
999.0940, 334.6013
1000.207, 346.7517
1001.320, 368.1328
1002.433, 370.4270
1003.546, 354.9851
1004.659, 299.6223
1005.772, 323.8320
1006.884, 316.7874
1007.996, 293.1367
1009.108, 346.7097
1010.220, 284.3965
1011.332, 314.1724
1012.444, 313.4983
1013.555, 327.5190
1014.666, 306.1943
1015.777, 304.9392
1016.888, 314.5178
1017.999, 283.6162
1019.110, 327.7332
1020.220, 268.1216
1021.331, 298.9609
1022.441, 310.1880
1023.551, 241.2332
1024.661, 301.8176
1025.770, 291.2229
1026.880, 279.2712
1027.989, 259.7800
1029.098, 267.3086
1030.207, 243.2805
1031.316, 252.3303
1032.425, 249.3030
1033.533, 268.7224
1034.642, 239.8267
1035.750, 227.6934
1036.858, 207.6174
1037.966, 248.7231
1039.073, 191.6228
1040.181, 219.2847
1041.288, 233.3374
1042.396, 306.1941
1043.503, 236.9741
1044.610, 265.0889
1045.716, 252.5771
1046.823, 227.3506
1047.929, 250.9448
1049.036, 266.1816
1050.142, 221.3271
1051.248, 207.9355
1052.353, 203.8340
1053.459, 186.4321
1054.564, 217.9111
1055.670, 205.8667
1056.775, 271.2327
1057.880, 255.1406
1058.985, 238.1453
1060.089, 222.6846
1061.194, 296.9766
1062.298, 192.6128
1063.402, 241.8313
1064.506, 192.7988
1065.610, 198.7603
1066.713, 234.3384
1067.817, 255.3770
1068.920, 265.4578
1070.023, 189.4893
1071.126, 217.5427
1072.229, 201.3066
1073.332, 205.8218
1074.435, 248.1953
1075.537, 226.7542
1076.639, 227.9290
1077.741, 130.5168
1078.843, 223.5056
1079.945, 267.2480
1081.046, 156.5981
1082.148, 231.6228
1083.249, 151.9368
1084.350, 167.9155
1085.451, 173.0095
1086.551, 146.8442
1087.652, 180.3123
1088.752, 118.3701
1089.853, 150.2158
1090.953, 139.5476
1092.053, 140.6963
1093.152, 142.4285
1094.252, 156.0544
1095.351, 121.9280
1096.451, 130.8625
1097.550, 105.0559
1098.649, 147.2944
1099.748, 134.3262
1100.846, 143.4695
1101.945, 123.4600
1103.043, 152.4868
1104.141, 85.10547
1105.239, 97.01123
1106.337, 106.0779
1107.434, 137.7952
1108.532, 112.0107
1109.629, 102.8757
1110.726, 121.9348
1111.823, 113.8945
1112.920, 124.7424
1114.017, 190.6997
1115.113, 212.6753
1116.210, 244.8799
1117.306, 266.7156
1118.402, 303.4600
1119.498, 370.8132
1120.593, 384.6262
1121.689, 468.7065
1122.784, 528.7686
1123.879, 531.7080
1124.974, 434.6699
1126.069, 385.7163
1127.164, 315.7339
1128.259, 258.7190
1129.353, 213.8621
1130.447, 217.4465
1131.541, 132.3691
1132.635, 109.3716
1133.729, 82.45117
1134.822, 34.33887
1135.916, 133.3523
1137.009, 88.15820
1138.102, 84.97534
1139.195, 34.84277
1140.288, 10.64722
1141.380, 109.5579
1142.473, 95.20874
1143.565, 70.98145
1144.657, 6.240723
1145.749, 23.56213
1146.841, 25.97107
1147.932, 35.45850
1149.024, 99.84326
1150.115, 52.55005
1151.206, 93.49207
1152.297, 0.2695310
1153.388, 64.07275
1154.479, 30.87756
1155.569, 15.46924
1156.659, 46.39465
1157.750, 37.20190
1158.839, 34.99365
1159.929, 13.87805
1161.019, 62.66895
1162.108, 27.49658
1163.198, 2.316040
1164.287, 45.08606
1165.376, 41.93542
1166.465, 38.71997
1167.553, 12.50232
1168.642, 4.781250
1169.730, 38.84741
1170.818, 13.17114
1171.906, 14.63696
1172.994, 5.492920
1174.082, 4.373657
1175.170, 20.76038
1176.257, 61.09460
1177.344, 35.05066
1178.431, 49.78857
1179.518, 45.63599
1180.605, 51.54321
1181.691, 40.38428
1182.778, 43.99097
1183.864, 13.99402
1184.950, 24.72046
1186.036, 37.56213
1187.122, 13.62354
1188.207, 0.1914060
1189.292, 52.00342
1190.378, 31.13721
1191.463, 57.66162
1192.548, 9.543457
1193.632, 43.23840
1194.717, 20.02429
1195.801, 2.193237
1196.886, 74.58594
1197.970, 9.364502
1199.054, 65.14941
1200.137, 15.94324
1201.221, 23.74158
1202.305, 24.54553
1203.388, 23.65857
1204.471, 31.87158
1205.554, 14.90149
1206.637, 17.66931
1207.719, 27.43323
1208.802, 23.98425
1209.884, 35.74414
1210.966, 15.50244
1212.048, 30.17126
1213.130, 19.92212
1214.212, 7.347656
1215.293, 38.37268
1216.374, 25.11182
1217.456, 36.74988
1218.536, 45.48145
1219.617, 23.00269
1220.698, 45.66040
1221.778, 4.401123
1222.859, 27.02100
1223.939, 48.65295
1225.019, 46.35071
1226.099, 85.91052
1227.178, 11.54016
1228.258, 25.03320
1229.337, 25.71545
1230.417, 73.33301
1231.496, 5.034668
1232.574, 62.74622
1233.653, 5.442505
1234.732, 51.86328
1235.810, 0.6635740
