##NAMES=Brookite
##RRUFFID=R050363
##IDEAL CHEMISTRY=Ti^4+^O_2_
##LOCALITY=Magnet Cove, Arkansas, USA
##OWNER=RRUFF
##SOURCE=University of Arizona Mineral Museum
##DESCRIPTION=Black fragment of a prismatic crystal associated with quartz
##STATUS=The identification of this mineral has been confirmed by X-ray diffraction and chemical analysis
##URL=rruff.info/R050363
##MEASURED CHEMISTRY=(Ti_0.94_Nb^5+^_0.03_Fe^3+^_0.03_)_Î£=1_O_2_
##PIN_ID=L01899
##ORIENTATION=Laser parallel to b* (0 1 0). Fiducial mark perpendicular to laser is parallel to c [0 0 1]
51.43100, 0.0000000E+00
52.67100, 32.67737
53.91000, 79.28375
55.14900, 67.24347
56.38700, 94.36310
57.62600, 129.2338
58.86400, 169.3025
60.10300, 88.23401
61.34100, 50.70557
62.57900, 7.388794
63.81700, 10.25366
65.05400, 39.11365
66.29200, 32.20764
67.52900, 12.76080
68.76700, 40.02393
70.00400, 121.2324
71.24100, 192.2345
72.47700, 337.7061
73.71400, 409.2708
74.95100, 527.5736
76.18700, 697.4614
77.42300, 659.7986
78.65900, 767.4729
79.89500, 945.3884
81.13100, 1184.465
82.36700, 1417.634
83.60200, 1644.833
84.83700, 1695.011
86.07200, 1686.121
87.30800, 1777.126
88.54200, 1939.995
89.77700, 2168.672
91.01200, 2503.093
92.24600, 2674.197
93.48000, 2717.943
94.71400, 3071.708
95.94800, 3037.987
97.18200, 3150.984
98.41600, 3309.392
99.64900, 3560.207
100.8830, 3693.421
102.1160, 3981.035
103.3490, 4230.042
104.5820, 4729.440
105.8150, 5082.226
107.0470, 5650.396
108.2800, 6235.946
109.5120, 6997.874
110.7440, 7005.176
111.9760, 7203.847
113.2080, 7826.884
114.4400, 8543.283
115.6710, 9775.042
116.9030, 10492.16
118.1340, 11121.62
119.3650, 11889.45
120.5960, 12553.64
121.8270, 13197.21
123.0580, 13867.17
124.2880, 14162.51
125.5190, 14514.14
126.7490, 15178.85
127.9790, 16025.63
129.2090, 17025.47
130.4390, 18248.38
131.6680, 19438.34
132.8980, 21077.35
134.1270, 23091.49
135.3560, 25759.84
136.5850, 29360.12
137.8140, 33720.37
139.0430, 38650.23
140.2710, 43807.74
141.5000, 49272.32
142.7280, 54702.96
143.9560, 59381.81
145.1840, 61649.89
146.4120, 62595.18
147.6390, 62574.71
148.8670, 60896.47
150.0940, 58215.46
151.3210, 52773.68
152.5490, 46578.14
153.7750, 40571.82
155.0020, 34636.72
156.2290, 29554.86
157.4550, 24983.21
158.6810, 21271.81
159.9080, 18162.61
161.1340, 15608.64
162.3590, 13718.89
163.5850, 11969.36
164.8110, 10296.04
166.0360, 9307.940
167.2610, 8207.055
168.4860, 7315.379
169.7110, 6498.911
170.9360, 5631.647
172.1610, 5081.584
173.3850, 4494.723
174.6100, 4028.063
175.8340, 3740.601
177.0580, 3366.821
178.2820, 3286.269
179.5050, 2863.395
180.7290, 2742.715
181.9520, 2519.229
183.1760, 2405.973
184.3990, 2334.972
185.6220, 2256.345
186.8450, 2115.055
188.0670, 2141.169
189.2900, 1988.669
190.5120, 1809.559
191.7340, 1818.783
192.9560, 1749.263
194.1780, 1538.928
195.4000, 1548.754
196.6220, 1542.731
197.8430, 1584.856
199.0640, 1639.781
200.2860, 1841.595
201.5070, 2128.285
202.7270, 2345.738
203.9480, 2324.271
205.1690, 2180.620
206.3890, 2102.242
207.6090, 2040.677
208.8290, 1806.437
210.0490, 1707.014
211.2690, 1254.749
212.4890, 1022.016
213.7080, 788.5166
214.9280, 465.2114
216.1470, 298.4082
217.3660, 155.8738
218.5850, 5.598633
219.8030, 94.27637
221.0220, 123.2126
222.2400, 244.7742
223.4590, 250.1292
224.6770, 258.2854
225.8950, 275.2427
227.1120, 272.9885
228.3300, 190.5203
229.5480, 103.8257
230.7650, 32.09326
231.9820, 195.2478
233.1990, 526.6497
234.4160, 778.2827
235.6330, 1316.160
236.8490, 1970.273
238.0660, 2485.605
239.2820, 2901.147
240.4980, 3306.888
241.7140, 3613.828
242.9300, 3688.939
244.1460, 3483.230
245.3610, 3080.676
246.5770, 2722.274
247.7920, 2571.037
249.0070, 2112.941
250.2220, 1847.992
251.4370, 1707.184
252.6510, 1392.513
253.8660, 1345.979
255.0800, 1264.580
256.2940, 1141.315
257.5080, 1106.181
258.7220, 1303.178
259.9360, 1468.304
261.1490, 1398.557
262.3630, 1203.936
263.5760, 1291.439
264.7890, 1340.065
266.0020, 1560.813
267.2150, 1613.008
268.4270, 1681.667
269.6400, 1857.770
270.8520, 1967.986
272.0640, 2172.318
273.2760, 2302.764
274.4880, 2429.322
275.7000, 2558.994
276.9120, 2616.780
278.1230, 2653.679
279.3340, 2579.692
280.5450, 2507.455
281.7560, 2203.055
282.9670, 2274.378
284.1780, 2010.740
285.3880, 1958.135
286.5980, 1833.575
287.8090, 1795.117
289.0190, 1796.771
290.2290, 1818.535
291.4380, 1842.411
292.6480, 1926.086
293.8570, 2085.487
295.0670, 2188.688
296.2760, 2367.994
297.4850, 2644.406
298.6930, 2968.923
299.9020, 3324.544
301.1110, 3595.267
302.3190, 4083.091
303.5270, 4536.019
304.7350, 5180.045
305.9430, 5455.169
307.1510, 5971.393
308.3580, 6349.715
309.5660, 6703.131
310.7730, 7045.652
311.9800, 7335.237
313.1870, 7486.914
314.3940, 7482.942
315.6010, 7198.369
316.8070, 6948.077
318.0130, 6653.031
319.2200, 6261.518
320.4260, 5908.832
321.6310, 5441.121
322.8370, 4932.310
324.0430, 4494.968
325.2480, 3942.914
326.4540, 3599.832
327.6590, 3047.808
328.8640, 2691.315
330.0680, 2358.979
331.2730, 1906.921
332.4780, 1702.511
333.6820, 1471.373
334.8860, 1253.155
336.0900, 1039.404
337.2940, 947.7192
338.4980, 857.0991
339.7010, 612.5439
340.9050, 580.0518
342.1080, 483.6230
343.3110, 425.2568
344.5140, 288.9878
345.7170, 362.8174
346.9200, 266.7456
348.1220, 384.7729
349.3240, 276.9004
350.5270, 315.1279
351.7290, 296.4551
352.9310, 293.8818
354.1320, 354.4082
355.3340, 442.0381
356.5350, 460.7671
357.7370, 440.5967
358.9380, 406.5225
360.1390, 498.5386
361.3400, 402.6421
362.5400, 461.8320
363.7410, 427.0708
364.9410, 509.2822
366.1410, 498.0615
367.3410, 429.0337
368.5410, 423.9312
369.7410, 438.0098
370.9400, 383.1694
372.1400, 509.3833
373.3390, 545.5869
374.5380, 578.4668
375.7370, 658.6938
376.9360, 773.8208
378.1350, 775.1108
379.3330, 876.7114
380.5310, 1065.647
381.7300, 1131.334
382.9280, 1278.771
384.1260, 1461.143
385.3230, 1473.979
386.5210, 1701.275
387.7180, 1766.538
388.9160, 1976.629
390.1130, 2095.675
391.3100, 2420.080
392.5060, 2640.062
393.7030, 2974.062
394.9000, 3072.159
396.0960, 3401.311
397.2920, 3564.518
398.4880, 3888.780
399.6840, 4083.097
400.8800, 4287.468
402.0750, 4388.891
403.2710, 4568.369
404.4660, 4442.897
405.6610, 4456.476
406.8560, 4311.108
408.0510, 3976.790
409.2450, 3935.522
410.4400, 3526.305
411.6340, 3145.136
412.8280, 2788.015
414.0220, 2439.943
415.2160, 2143.180
416.4100, 1861.942
417.6030, 1607.011
418.7970, 1409.127
419.9900, 1189.205
421.1830, 850.4956
422.3760, 765.7471
423.5690, 591.0435
424.7610, 379.3843
425.9540, 348.7676
427.1460, 254.1948
428.3380, 176.6646
429.5300, 184.1777
430.7220, 109.7339
431.9140, 131.3325
433.1050, 99.97266
434.2970, 117.6548
435.4880, 155.3779
436.6790, 162.1416
437.8700, 175.6348
439.0610, 173.7896
440.2510, 183.6719
441.4420, 188.5942
442.6320, 185.5542
443.8220, 220.5527
445.0120, 210.5884
446.2020, 239.6621
447.3910, 223.7720
448.5810, 229.9185
449.7700, 129.1011
450.9600, 109.3188
452.1490, 61.57227
453.3370, 41.85986
454.5260, 9.819824
455.7150, 8.488770
456.9030, 33.85303
458.0910, 148.7773
459.2800, 132.4619
460.4670, 170.7617
461.6550, 40.99170
462.8430, 197.7969
464.0300, 186.6816
465.2180, 163.6426
466.4050, 169.6689
467.5920, 190.7651
468.7790, 150.9409
469.9650, 223.1787
471.1520, 83.51318
472.3380, 120.8804
473.5250, 50.29785
474.7110, 15.26562
475.8970, 36.84033
477.0820, 15.43311
478.2680, 189.0361
479.4540, 358.6685
480.6390, 430.3296
481.8240, 452.0195
483.0090, 687.7383
484.1940, 818.4863
485.3780, 931.2632
486.5630, 1111.068
487.7470, 1222.901
488.9320, 1422.763
490.1160, 1364.651
491.3000, 1426.567
492.4830, 1551.511
493.6670, 1602.480
494.8500, 1608.478
496.0340, 1573.281
497.2170, 1417.549
498.4000, 1356.623
499.5820, 1234.722
500.7650, 1033.847
501.9480, 931.9961
503.1300, 808.1694
504.3120, 613.3672
505.4940, 489.5894
506.6760, 375.6445
507.8580, 252.1113
509.0390, 181.4185
510.2210, 121.7700
511.4020, 45.16602
512.5830, 45.40820
513.7640, 79.98975
514.9450, 110.5952
516.1250, 87.25000
517.3060, 121.9507
518.4860, 186.7222
519.6660, 136.5967
520.8460, 208.5498
522.0260, 178.6177
523.2060, 138.7847
524.3850, 99.03320
525.5650, 78.34277
526.7440, 85.70410
527.9230, 1.121094
529.1020, 54.55371
530.2810, 54.97266
531.4590, 58.50488
532.6380, 1.042969
533.8160, 168.5654
534.9940, 67.10742
536.1720, 152.6572
537.3500, 281.2266
538.5270, 239.8145
539.7050, 260.4219
540.8820, 205.0474
542.0590, 314.6919
543.2360, 320.3550
544.4130, 305.0369
545.5900, 245.7368
546.7660, 296.4551
547.9430, 436.1919
549.1190, 388.9468
550.2950, 384.7200
551.4710, 299.5103
552.6470, 421.3193
553.8220, 468.1458
554.9980, 511.9897
556.1730, 567.8518
557.3480, 607.7314
558.5230, 732.6284
559.6980, 667.5430
560.8730, 721.4749
562.0470, 724.4243
563.2220, 837.3911
564.3960, 918.3748
565.5700, 960.3755
566.7440, 1057.394
567.9170, 1072.428
569.0910, 1255.481
570.2640, 1403.550
571.4380, 1536.635
572.6110, 1488.738
573.7840, 1593.857
574.9570, 1636.993
576.1290, 1815.145
577.3020, 1946.314
578.4740, 2031.500
579.6460, 2143.701
580.8180, 2316.919
581.9900, 2402.154
583.1620, 2558.405
584.3330, 2686.913
585.5040, 2769.955
586.6760, 2948.255
587.8470, 3029.570
589.0180, 3154.902
590.1880, 3339.250
591.3590, 3518.613
592.5290, 3642.992
593.7000, 3932.388
594.8700, 4222.793
596.0400, 4406.242
597.2090, 4651.711
598.3790, 4927.937
599.5490, 5287.874
600.7180, 5361.640
601.8870, 5769.273
603.0560, 6021.916
604.2250, 6453.979
605.3940, 6722.604
606.5620, 6911.439
607.7300, 7410.918
608.8990, 7929.215
610.0670, 8064.664
611.2350, 8621.179
612.4020, 9159.281
613.5700, 9434.331
614.7370, 10017.22
615.9050, 10319.59
617.0720, 10804.79
618.2390, 11517.20
619.4060, 11840.25
620.5720, 12567.35
621.7390, 13046.50
622.9050, 13592.71
624.0710, 13924.96
625.2370, 14417.24
626.4030, 14953.55
627.5690, 15205.90
628.7340, 15616.28
629.9000, 15731.71
631.0650, 15961.18
632.2300, 16179.69
633.3950, 16309.24
634.5600, 16266.83
635.7240, 16194.55
636.8890, 15970.12
638.0530, 15748.81
639.2170, 15435.56
640.3810, 15066.35
641.5450, 14655.72
642.7080, 14010.03
643.8720, 13653.93
645.0350, 13081.87
646.1980, 12458.84
647.3610, 11933.84
648.5240, 11294.88
649.6870, 10758.15
650.8490, 10219.74
652.0120, 9663.827
653.1740, 9163.146
654.3360, 8618.580
655.4980, 8088.366
656.6600, 7764.420
657.8210, 7350.545
658.9830, 6845.882
660.1440, 6407.159
661.3050, 6033.228
662.4660, 5778.058
663.6270, 5381.237
664.7870, 4983.762
665.9480, 4857.456
667.1080, 4509.781
668.2680, 4319.743
669.4280, 4119.835
670.5880, 3791.193
671.7480, 3574.696
672.9070, 3495.934
674.0670, 3284.688
675.2260, 3097.517
676.3850, 2976.341
677.5440, 2888.198
678.7030, 2715.087
679.8610, 2573.008
681.0200, 2563.965
682.1780, 2332.956
683.3360, 2212.980
684.4940, 2181.039
685.6520, 2103.129
686.8090, 1990.251
687.9670, 1825.406
689.1240, 1775.235
690.2810, 1845.809
691.4380, 1655.058
692.5950, 1636.339
693.7520, 1636.653
694.9080, 1557.006
696.0650, 1526.392
697.2210, 1433.809
698.3770, 1380.259
699.5330, 1365.741
700.6880, 1298.253
701.8440, 1324.796
702.9990, 1234.369
704.1550, 1119.971
705.3100, 1241.603
706.4650, 1186.265
707.6190, 1100.956
708.7740, 1007.676
709.9290, 1001.425
711.0830, 908.2029
712.2370, 1050.010
713.3910, 905.8450
714.5450, 1034.708
715.6980, 833.5981
716.8520, 872.5171
718.0050, 870.4639
719.1580, 843.4382
720.3110, 829.4402
721.4640, 851.4697
722.6170, 864.5264
723.7700, 783.6106
724.9220, 714.7224
726.0740, 816.8611
727.2260, 733.0271
728.3780, 705.2195
729.5300, 648.4390
730.6810, 617.6855
731.8330, 656.9587
732.9840, 602.2583
734.1350, 684.6633
735.2860, 636.0273
736.4370, 609.5381
737.5880, 647.1509
738.7380, 661.6494
739.8880, 504.3008
741.0390, 558.8792
742.1890, 517.5942
743.3380, 522.1636
744.4880, 522.1780
745.6380, 501.2058
746.7870, 492.4685
747.9360, 521.5527
749.0850, 496.4189
750.2340, 512.0068
751.3830, 491.4824
752.5310, 420.1672
753.6800, 444.4980
754.8280, 422.1738
755.9760, 469.6426
757.1240, 428.6482
758.2720, 467.6499
759.4190, 477.8413
760.5670, 425.7202
761.7140, 465.9595
762.8610, 398.1997
764.0080, 471.3262
765.1550, 462.7334
766.3020, 439.4526
767.4480, 398.1719
768.5950, 361.1577
769.7410, 399.4121
770.8870, 359.5530
772.0330, 492.4185
773.1780, 370.7976
774.3240, 373.4443
775.4690, 474.6794
776.6140, 387.8359
777.7590, 380.3894
778.9040, 347.5996
780.0490, 364.9111
781.1940, 421.8225
782.3380, 329.7212
783.4820, 358.3445
784.6260, 311.3242
785.7700, 401.4155
786.9140, 278.8818
788.0580, 387.3049
789.2010, 374.6001
790.3450, 371.3635
791.4880, 370.2048
792.6310, 377.0085
793.7730, 374.5034
794.9160, 348.2913
796.0590, 367.3494
797.2010, 380.2412
798.3430, 372.2253
799.4850, 321.2312
800.6270, 361.4395
801.7690, 301.4016
802.9100, 271.8464
804.0520, 295.0063
805.1930, 286.8000
806.3340, 315.3047
807.4750, 310.4307
808.6160, 336.8101
809.7560, 330.0798
810.8970, 382.6875
812.0370, 406.1814
813.1770, 420.7607
814.3170, 417.1509
815.4570, 401.9163
816.5960, 391.9216
817.7360, 348.5972
818.8750, 367.0942
820.0140, 324.5693
821.1530, 336.9724
822.2920, 384.1248
823.4310, 352.1543
824.5690, 355.1650
825.7070, 377.1077
826.8460, 347.2073
827.9840, 319.1841
829.1220, 290.4570
830.2590, 290.1157
831.3970, 312.5383
832.5340, 303.8850
833.6710, 331.0005
834.8080, 351.5410
835.9450, 317.6514
837.0820, 214.6538
838.2190, 271.3296
839.3550, 226.2083
840.4910, 299.1458
841.6270, 280.8193
842.7630, 289.5625
843.8990, 274.5205
845.0350, 238.0723
846.1700, 265.7593
847.3060, 239.4446
848.4410, 224.7778
849.5760, 231.6799
850.7100, 189.1729
851.8450, 196.6501
852.9800, 186.1016
854.1140, 220.8069
855.2480, 205.7549
856.3820, 157.7776
857.5160, 197.2344
858.6500, 201.7915
859.7830, 201.4158
860.9170, 144.9023
862.0500, 161.2712
863.1830, 141.7524
864.3160, 62.16089
865.4480, 118.6384
866.5810, 47.13843
867.7130, 61.69482
868.8460, 47.03125
869.9780, 9.347412
871.1100, 35.65967
872.2410, 6.901611
873.3730, 1.209473
874.5050, 44.42310
875.6360, 40.38623
876.7670, 20.21460
877.8980, 37.92847
879.0290, 15.73438
880.1590, 13.43701
881.2900, 50.43359
882.4200, 5.656250
883.5500, 62.35400
884.6800, 88.42017
885.8100, 49.55786
886.9400, 19.74341
888.0690, 56.96851
889.1990, 71.25122
890.3280, 54.54932
891.4570, 74.95581
892.5860, 77.29077
893.7140, 75.83911
894.8430, 93.45972
895.9710, 87.16235
897.1000, 27.89551
898.2280, 10.72681
899.3560, 23.59863
900.4830, 6.480957
901.6110, 62.47241
902.7380, 29.42261
903.8660, 32.49951
904.9930, 35.63013
906.1200, 16.76758
907.2460, 74.99707
908.3730, 26.78101
909.5000, 21.56165
910.6260, 13.95703
911.7520, 75.40247
912.8780, 32.92712
914.0040, 5.489746
915.1290, 27.12842
916.2550, 19.80872
917.3800, 50.54529
918.5050, 33.64502
919.6300, 17.80005
920.7550, 19.07898
921.8800, 51.98438
923.0040, 10.01294
924.1290, 13.99805
925.2530, 37.94019
926.3770, 36.84497
927.5010, 24.28796
928.6250, 72.51489
929.7480, 54.28333
930.8720, 23.98560
931.9950, 58.67932
933.1180, 57.30676
934.2410, 62.89587
935.3640, 53.44629
936.4860, 78.95654
937.6090, 12.42847
938.7310, 72.87561
939.8530, 35.25623
940.9750, 53.59180
942.0970, 88.88464
943.2180, 10.13831
944.3400, 45.33667
945.4610, 56.49011
946.5820, 66.59985
947.7030, 61.66711
948.8240, 94.69116
949.9450, 126.6750
951.0650, 121.7478
952.1860, 59.65601
953.3060, 74.52148
954.4260, 77.34338
955.5460, 84.21716
956.6650, 110.9535
957.7850, 126.7909
958.9040, 130.1620
960.0230, 139.3839
961.1420, 121.5734
962.2610, 137.2478
963.3800, 102.8120
964.4990, 93.32275
965.6170, 27.82483
966.7350, 97.22937
967.8530, 124.6500
968.9710, 82.96729
970.0890, 126.3878
971.2070, 139.8204
972.3240, 191.2333
973.4410, 155.5944
974.5580, 148.8872
975.6750, 191.9775
976.7920, 174.9622
977.9090, 146.9072
979.0250, 219.8187
980.1410, 186.8434
981.2580, 186.5535
982.3740, 172.3402
983.4890, 261.0867
984.6050, 229.7953
985.7200, 232.4666
986.8360, 184.0999
987.9510, 228.6932
989.0660, 213.2478
990.1810, 240.7632
991.2950, 230.2402
992.4100, 204.6799
993.5240, 207.0800
994.6390, 197.4402
995.7530, 261.7601
996.8660, 215.0416
997.9800, 230.2837
999.0940, 211.4869
1000.207, 203.6503
1001.320, 187.8282
1002.433, 237.9890
1003.546, 240.1609
1004.659, 238.2833
1005.772, 254.5948
1006.884, 233.3091
1007.996, 252.0850
1009.108, 259.0190
1010.220, 248.9502
1011.332, 248.8740
1012.444, 198.7532
1013.555, 231.6627
1014.666, 237.3569
1015.777, 233.0071
1016.888, 282.5774
1017.999, 251.3312
1019.110, 260.2532
1020.220, 240.7103
1021.331, 251.0222
1022.441, 237.7188
1023.551, 221.2379
1024.661, 232.8813
1025.770, 192.2616
1026.880, 234.2767
1027.989, 239.0668
1029.098, 218.7363
1030.207, 193.7219
1031.316, 223.4359
1032.425, 230.1208
1033.533, 223.7585
1034.642, 206.1968
1035.750, 178.2872
1036.858, 202.3635
1037.966, 194.6190
1039.073, 176.4237
1040.181, 229.4167
1041.288, 161.2083
1042.396, 188.5081
1043.503, 212.5547
1044.610, 200.0056
1045.716, 177.2261
1046.823, 186.8521
1047.929, 167.3529
1049.036, 205.2037
1050.142, 169.7739
1051.248, 172.3196
1052.353, 198.2081
1053.459, 200.8505
1054.564, 210.1835
1055.670, 200.0576
1056.775, 197.0043
1057.880, 180.0121
1058.985, 167.6050
1060.089, 194.0927
1061.194, 188.6133
1062.298, 175.5624
1063.402, 166.1045
1064.506, 193.4634
1065.610, 193.0745
1066.713, 207.6340
1067.817, 145.0710
1068.920, 171.4060
1070.023, 144.9489
1071.126, 133.0090
1072.229, 157.4734
1073.332, 181.2860
1074.435, 206.3699
1075.537, 189.8605
1076.639, 143.5508
1077.741, 162.3550
1078.843, 185.3345
1079.945, 139.3909
1081.046, 173.3944
1082.148, 160.7610
1083.249, 99.35779
1084.350, 167.0316
1085.451, 127.9064
1086.551, 140.0922
1087.652, 104.0251
1088.752, 129.0227
1089.853, 146.1290
1090.953, 114.7078
1092.053, 142.8684
1093.152, 116.1222
1094.252, 90.68188
1095.351, 106.8544
1096.451, 108.6487
1097.550, 99.32629
1098.649, 107.4836
1099.748, 92.39160
1100.846, 106.3558
1101.945, 69.79285
1103.043, 56.07861
1104.141, 50.25012
1105.239, 52.69775
1106.337, 58.63953
1107.434, 96.56763
1108.532, 125.7540
1109.629, 141.7891
1110.726, 108.6493
1111.823, 147.7775
1112.920, 98.84973
1114.017, 110.7876
1115.113, 146.6392
1116.210, 172.8191
1117.306, 255.1461
1118.402, 304.2312
1119.498, 325.0908
1120.593, 350.0588
1121.689, 380.9952
1122.784, 354.9604
1123.879, 397.2520
1124.974, 362.6820
1126.069, 335.8956
1127.164, 276.5220
1128.259, 259.3949
1129.353, 159.1735
1130.447, 128.0795
1131.541, 96.75732
1132.635, 82.64502
1133.729, 76.18042
1134.822, 63.35156
1135.916, 58.23596
1137.009, 67.67786
1138.102, 47.40076
1139.195, 74.03259
1140.288, 69.73145
1141.380, 39.40698
1142.473, 63.06799
1143.565, 47.70923
1144.657, 81.12183
1145.749, 34.66248
1146.841, 49.20959
1147.932, 19.74707
1149.024, 27.47998
1150.115, 46.10071
1151.206, 5.713867
1152.297, 0.6774900
1153.388, 12.92480
1154.479, 51.52905
1155.569, 2.910034
1156.659, 27.70227
1157.750, 7.182007
1158.839, 52.81226
1159.929, 31.45349
1161.019, 26.11035
1162.108, 4.878418
1163.198, 5.553589
1164.287, 36.21680
1165.376, 11.87903
1166.465, 15.74475
1167.553, 14.12024
1168.642, 9.217163
1169.730, 5.549316
1170.818, 27.93848
1171.906, 27.70825
1172.994, 17.28186
1174.082, 8.936523
1175.170, 5.591919
1176.257, 15.75378
1177.344, 12.08398
1178.431, 1.416870
1179.518, 12.76013
1180.605, 28.93433
1181.691, 32.59912
1182.778, 11.29321
1183.864, 24.03784
1184.950, 21.61523
1186.036, 36.27209
1187.122, 23.92139
1188.207, 34.56775
1189.292, 18.21069
1190.378, 25.84717
1191.463, 29.85608
1192.548, 6.118408
1193.632, 36.75220
1194.717, 21.38403
1195.801, 10.03027
1196.886, 6.669556
1197.970, 41.30823
1199.054, 25.94153
1200.137, 41.56946
1201.221, 45.59668
1202.305, 19.78784
1203.388, 27.40503
1204.471, 30.01929
1205.554, 24.71448
1206.637, 28.10046
1207.719, 29.85693
1208.802, 21.46045
1209.884, 24.06018
1210.966, 11.65588
1212.048, 8.226685
1213.130, 7.833862
1214.212, 3.961792
1215.293, 0.5594480
1216.374, 5.576416
1217.456, 15.98499
1218.536, 11.44775
1219.617, 39.00171
1220.698, 6.448486
1221.778, 69.05115
1222.859, 34.58960
1223.939, 9.904175
1225.019, 32.48901
1226.099, 45.95288
1227.178, 41.42517
1228.258, 16.86023
1229.337, 35.34082
1230.417, 25.75977
1231.496, 33.25208
1232.574, 28.61108
1233.653, 60.88281
1234.732, 50.13049
1235.810, 45.99609
1236.888, 24.66833
