##NAMES=Brucite
##RRUFFID=R050455
##IDEAL CHEMISTRY=Mg(OH)_2_
##LOCALITY=Texas, Lancaster County, Pennsylvania, USA
##OWNER=RRUFF
##SOURCE=University of Arizona Mineral Museum
##DESCRIPTION=Group of green tabular crystals
##STATUS=The identification of this mineral has been confirmed by X-ray diffraction and chemical analysis
##URL=rruff.info/R050455
##MEASURED CHEMISTRY=(Mg_0.99_Mn_0.01_)(OH)_2_
##PIN_ID=M00121
##ORIENTATION=Laser parallel to a* (1 0 0). Fiducial mark perpendicular to laser is parallel to c [0 0 1]
107.0470, 0.0000000E+00
108.2800, 240.5654
109.5120, 406.8252
110.7440, 323.8330
111.9760, 212.3604
113.2080, 11.72754
114.4400, 10.45312
115.6710, 355.4160
116.9030, 132.3076
118.1340, 216.7803
119.3650, 91.48242
120.5960, 138.1279
121.8270, 117.4844
123.0580, 240.3623
124.2880, 194.4766
125.5190, 165.0889
126.7490, 202.7002
127.9790, 243.3379
129.2090, 349.9102
130.4390, 425.3369
131.6680, 503.5518
132.8980, 355.4902
134.1270, 401.1006
135.3560, 407.3398
136.5850, 447.1670
137.8140, 501.5439
139.0430, 503.9844
140.2710, 479.8516
141.5000, 484.7412
142.7280, 519.0967
143.9560, 408.8965
145.1840, 491.1035
146.4120, 768.6826
147.6390, 573.6045
148.8670, 646.8457
150.0940, 557.3857
151.3210, 607.2129
152.5490, 487.3105
153.7750, 551.6680
155.0020, 669.2793
156.2290, 594.1309
157.4550, 625.2168
158.6810, 549.5293
159.9080, 689.0625
161.1340, 568.8105
162.3590, 615.7715
163.5850, 481.9336
164.8110, 611.2988
166.0360, 571.8574
167.2610, 684.6094
168.4860, 649.5586
169.7110, 785.7031
170.9360, 677.1270
172.1610, 753.7520
173.3850, 664.5918
174.6100, 680.6250
175.8340, 768.8984
177.0580, 618.3770
178.2820, 469.0254
179.5050, 768.8320
180.7290, 713.7422
181.9520, 602.6465
183.1760, 547.5508
184.3990, 755.4531
185.6220, 744.3867
186.8450, 506.3633
188.0670, 721.3867
189.2900, 670.4707
190.5120, 587.6172
191.7340, 602.8320
192.9560, 752.1230
194.1780, 728.4922
195.4000, 630.9414
196.6220, 608.4746
197.8430, 570.0938
199.0640, 633.8008
200.2860, 728.5957
201.5070, 1003.479
202.7270, 826.4570
203.9480, 843.5195
205.1690, 666.6797
206.3890, 478.9297
207.6090, 494.2734
208.8290, 425.7090
210.0490, 444.2402
211.2690, 474.8613
212.4890, 419.5781
213.7080, 389.3848
214.9280, 535.2852
216.1470, 380.2754
217.3660, 341.3613
218.5850, 635.5352
219.8030, 389.8027
221.0220, 602.1562
222.2400, 594.6035
223.4590, 629.1387
224.6770, 444.7676
225.8950, 512.4844
227.1120, 422.2871
228.3300, 622.5801
229.5480, 652.5566
230.7650, 536.6191
231.9820, 446.6992
233.1990, 597.0898
234.4160, 557.5449
235.6330, 751.9082
236.8490, 505.2227
238.0660, 760.7363
239.2820, 669.0332
240.4980, 623.7461
241.7140, 712.6816
242.9300, 753.0703
244.1460, 698.0195
245.3610, 822.8926
246.5770, 836.9961
247.7920, 1075.572
249.0070, 1011.691
250.2220, 1110.031
251.4370, 992.4648
252.6510, 1184.977
253.8660, 1413.139
255.0800, 1326.521
256.2940, 1501.049
257.5080, 1723.611
258.7220, 1842.443
259.9360, 2372.691
261.1490, 2397.586
262.3630, 2882.080
263.5760, 3214.760
264.7890, 3586.613
266.0020, 4241.633
267.2150, 4826.801
268.4270, 5317.115
269.6400, 6069.568
270.8520, 6655.152
272.0640, 6945.859
273.2760, 7292.688
274.4880, 7342.633
275.7000, 7196.688
276.9120, 6735.922
278.1230, 6153.256
279.3340, 5346.695
280.5450, 4868.246
281.7560, 4081.896
282.9670, 3345.652
284.1780, 2795.496
285.3880, 2278.787
286.5980, 1910.504
287.8090, 1538.633
289.0190, 1417.855
290.2290, 1214.156
291.4380, 1068.535
292.6480, 852.9902
293.8570, 986.5215
295.0670, 721.1230
296.2760, 776.8008
297.4850, 470.5469
298.6930, 677.3652
299.9020, 672.2695
301.1110, 505.2754
302.3190, 503.3516
303.5270, 286.4961
304.7350, 380.7070
305.9430, 453.9824
307.1510, 383.3203
308.3580, 170.7188
309.5660, 314.2070
310.7730, 298.7578
311.9800, 251.3672
313.1870, 282.0371
314.3940, 264.0391
315.6010, 254.2266
316.8070, 241.4199
318.0130, 254.3398
319.2200, 178.3164
320.4260, 202.3594
321.6310, 100.4531
322.8370, 236.6074
324.0430, 157.8105
325.2480, 257.0664
326.4540, 186.3711
327.6590, 96.73438
328.8640, 184.1465
330.0680, 148.6113
331.2730, 328.1777
332.4780, 115.8047
333.6820, 206.4805
334.8860, 197.2109
336.0900, 122.9902
337.2940, 140.8223
338.4980, 99.71094
339.7010, 63.65039
340.9050, 79.64258
342.1080, 82.67969
343.3110, 92.76953
344.5140, 242.9082
345.7170, 286.0957
346.9200, 115.3340
348.1220, 26.38086
349.3240, 71.94922
350.5270, 47.33203
351.7290, 205.7578
352.9310, 121.2324
354.1320, 43.24609
355.3340, 10.66406
356.5350, 44.46484
357.7370, 117.3652
358.9380, 58.33789
360.1390, 13.91406
361.3400, 124.8789
362.5400, 30.22266
363.7410, 104.8945
364.9410, 111.0195
366.1410, 11.98047
367.3410, 70.98438
368.5410, 126.0312
369.7410, 71.88086
370.9400, 121.0020
372.1400, 0.1679690
373.3390, 92.37695
374.5380, 53.47852
375.7370, 120.1934
376.9360, 221.1133
378.1350, 70.53711
379.3330, 76.90234
380.5310, 146.3125
381.7300, 101.2520
382.9280, 317.2109
384.1260, 153.1855
385.3230, 21.27930
386.5210, 238.2832
387.7180, 40.12695
388.9160, 273.4941
390.1130, 166.1406
391.3100, 18.82617
392.5060, 244.2949
393.7030, 233.7812
394.9000, 171.5742
396.0960, 422.4023
397.2920, 476.9941
398.4880, 489.9121
399.6840, 578.8906
400.8800, 327.6328
402.0750, 531.9375
403.2710, 580.5352
404.4660, 866.7324
405.6610, 536.1758
406.8560, 691.4785
408.0510, 737.0527
409.2450, 1075.453
410.4400, 850.9004
411.6340, 1101.398
412.8280, 1231.941
414.0220, 1326.529
415.2160, 1610.166
416.4100, 1690.867
417.6030, 1971.256
418.7970, 2223.369
419.9900, 2527.396
421.1830, 2938.258
422.3760, 3229.164
423.5690, 3720.396
424.7610, 4632.387
425.9540, 5480.119
427.1460, 6515.461
428.3380, 7856.527
429.5300, 9727.678
430.7220, 12123.87
431.9140, 14864.39
433.1050, 17869.66
434.2970, 21042.97
435.4880, 24223.31
436.6790, 27074.70
437.8700, 28924.12
439.0610, 30788.59
440.2510, 30464.09
441.4420, 28777.63
442.6320, 26386.62
443.8220, 22650.66
445.0120, 19256.72
446.2020, 15781.09
447.3910, 12338.81
448.5810, 9788.564
449.7700, 7750.355
450.9600, 6403.184
452.1490, 5345.193
453.3370, 4376.088
454.5260, 3752.020
455.7150, 3243.984
456.9030, 2745.316
458.0910, 2473.348
459.2800, 2100.443
460.4670, 1970.543
461.6550, 1476.674
462.8430, 1289.764
464.0300, 1536.959
465.2180, 1182.668
466.4050, 1218.930
467.5920, 1204.225
468.7790, 927.5488
469.9650, 912.6875
471.1520, 903.0762
472.3380, 869.4980
473.5250, 799.4746
474.7110, 742.8008
475.8970, 635.3125
477.0820, 529.8555
478.2680, 508.4297
479.4540, 752.0684
480.6390, 552.0664
481.8240, 482.7305
483.0090, 616.4238
484.1940, 431.1426
485.3780, 404.8945
486.5630, 427.6738
487.7470, 153.4805
488.9320, 414.3184
490.1160, 488.1855
491.3000, 214.7461
492.4830, 242.6680
493.6670, 368.6211
494.8500, 403.5996
496.0340, 255.6074
497.2170, 286.6875
498.4000, 223.6367
499.5820, 266.0117
500.7650, 135.3594
501.9480, 226.5078
503.1300, 192.2148
504.3120, 4.273438
505.4940, 221.9434
506.6760, 95.64062
507.8580, 155.9102
509.0390, 90.20898
510.2210, 239.5352
511.4020, 64.88867
512.5830, 29.27539
513.7640, 77.10547
514.9450, 57.49609
516.1250, 11.06641
517.3060, 49.31055
518.4860, 131.4922
519.6660, 56.00781
520.8460, 178.4805
522.0260, 114.9980
523.2060, 59.54102
524.3850, 53.41016
525.5650, 62.99219
526.7440, 181.5938
527.9230, 371.8398
529.1020, 154.4785
530.2810, 149.3203
531.4590, 192.0117
532.6380, 83.73242
533.8160, 11.48047
534.9940, 8.755859
536.1720, 177.0234
537.3500, 402.8262
538.5270, 46.34375
539.7050, 181.4824
540.8820, 135.3340
542.0590, 26.78711
543.2360, 16.90820
544.4130, 40.02344
545.5900, 91.85547
546.7660, 32.19336
547.9430, 128.6934
549.1190, 3.650391
550.2950, 136.6191
551.4710, 150.6152
552.6470, 100.6367
553.8220, 460.6855
554.9980, 254.2793
556.1730, 394.8574
557.3480, 46.98242
558.5230, 206.1309
559.6980, 90.30664
560.8730, 267.4922
562.0470, 290.5938
563.2220, 96.70703
564.3960, 52.15625
565.5700, 174.9688
566.7440, 22.88281
567.9170, 33.26758
569.0910, 82.56250
570.2640, 166.5820
571.4380, 122.7500
572.6110, 15.05469
573.7840, 118.1426
574.9570, 71.36328
576.1290, 77.61133
577.3020, 253.8809
578.4740, 197.1758
579.6460, 201.9043
580.8180, 213.8398
581.9900, 109.2090
583.1620, 54.39453
584.3330, 110.0156
585.5040, 27.32031
586.6760, 17.68164
587.8470, 138.0586
589.0180, 101.4570
590.1880, 187.8809
591.3590, 70.33008
592.5290, 87.19531
593.7000, 71.25000
594.8700, 246.7168
596.0400, 131.2109
597.2090, 28.72852
598.3790, 101.2676
599.5490, 49.16992
600.7180, 98.38281
601.8870, 56.95898
603.0560, 29.43945
604.2250, 51.15820
605.3940, 20.77930
606.5620, 203.4199
607.7300, 74.08789
608.8990, 171.7793
610.0670, 9.492188
611.2350, 144.2246
612.4020, 112.9805
613.5700, 189.2402
614.7370, 11.53516
615.9050, 184.1777
617.0720, 51.91406
618.2390, 167.6738
619.4060, 41.45898
620.5720, 4.732422
621.7390, 122.0879
622.9050, 103.9316
624.0710, 270.8008
625.2370, 190.6953
626.4030, 93.61328
627.5690, 316.5586
628.7340, 148.5254
629.9000, 113.5156
631.0650, 433.5352
632.2300, 115.5762
633.3950, 110.6445
634.5600, 375.7383
635.7240, 229.8555
636.8890, 52.96680
638.0530, 130.2051
639.2170, 121.4004
640.3810, 25.62695
641.5450, 172.8867
642.7080, 48.17383
643.8720, 133.4863
645.0350, 152.3164
646.1980, 257.6797
647.3610, 188.0781
648.5240, 322.5020
649.6870, 269.9648
650.8490, 109.4648
652.0120, 377.9883
653.1740, 393.7871
654.3360, 239.3691
655.4980, 218.9766
656.6600, 561.7129
657.8210, 298.3730
658.9830, 312.0762
660.1440, 102.7109
661.3050, 254.4688
662.4660, 601.2539
663.6270, 412.0664
664.7870, 260.9238
665.9480, 542.3262
667.1080, 404.2754
668.2680, 309.2539
669.4280, 424.2598
670.5880, 448.3105
671.7480, 433.3926
672.9070, 541.4980
674.0670, 620.9043
675.2260, 547.3496
676.3850, 430.5566
677.5440, 626.7891
678.7030, 725.3203
679.8610, 575.6055
681.0200, 664.9199
682.1780, 614.5723
683.3360, 712.7461
684.4940, 858.7070
685.6520, 809.1523
686.8090, 694.4336
687.9670, 813.9434
689.1240, 550.2793
690.2810, 1009.873
691.4380, 901.4980
692.5950, 864.1504
693.7520, 820.8281
694.9080, 894.5371
696.0650, 1089.273
697.2210, 1275.018
698.3770, 1098.809
699.5330, 1119.625
700.6880, 1068.264
701.8440, 1359.139
702.9990, 1087.043
704.1550, 1571.688
705.3100, 1505.650
706.4650, 1318.941
707.6190, 1230.689
708.7740, 1582.785
709.9290, 1616.863
711.0830, 1570.975
712.2370, 1457.842
713.3910, 1897.031
714.5450, 1797.250
715.6980, 1831.498
716.8520, 1734.777
718.0050, 1809.086
719.1580, 1692.424
720.3110, 1824.789
721.4640, 2007.188
722.6170, 1940.205
723.7700, 1934.227
724.9220, 1961.305
726.0740, 2123.145
727.2260, 1993.721
728.3780, 1947.326
729.5300, 1795.961
730.6810, 1825.627
731.8330, 2055.205
732.9840, 2012.965
734.1350, 1875.758
735.2860, 1825.584
736.4370, 1793.105
737.5880, 1865.992
738.7380, 1742.877
739.8880, 1779.826
741.0390, 1844.805
742.1890, 1682.889
743.3380, 1703.932
744.4880, 1811.525
745.6380, 1539.631
746.7870, 1643.766
747.9360, 1429.027
749.0850, 1817.443
750.2340, 1417.672
751.3830, 1506.934
752.5310, 1407.680
753.6800, 1383.182
754.8280, 1320.537
755.9760, 1155.928
757.1240, 1582.348
758.2720, 1483.766
759.4190, 1355.883
760.5670, 1517.402
761.7140, 1394.998
762.8610, 1087.580
764.0080, 1186.191
765.1550, 1265.857
766.3020, 1210.553
767.4480, 1232.283
768.5950, 1117.045
769.7410, 1162.842
770.8870, 1291.666
772.0330, 1221.521
773.1780, 1346.410
774.3240, 1262.059
775.4690, 1309.285
776.6140, 1159.268
777.7590, 1277.283
778.9040, 1006.209
780.0490, 1055.285
781.1940, 1009.393
782.3380, 946.1914
783.4820, 1129.707
784.6260, 961.9160
785.7700, 1153.156
786.9140, 1239.771
788.0580, 1216.938
789.2010, 988.2715
790.3450, 1161.637
791.4880, 1012.043
792.6310, 1049.480
793.7730, 872.9473
794.9160, 914.8574
796.0590, 996.0039
797.2010, 1028.592
798.3430, 749.0215
799.4850, 913.6953
800.6270, 1008.398
801.7690, 1228.641
802.9100, 1317.402
804.0520, 1331.859
805.1930, 1178.504
806.3340, 1262.371
807.4750, 1252.543
808.6160, 1193.465
809.7560, 1311.418
810.8970, 1150.770
812.0370, 1050.898
813.1770, 1135.961
814.3170, 1094.047
815.4570, 1071.164
816.5960, 1176.320
817.7360, 972.5078
818.8750, 960.1562
820.0140, 1048.406
821.1530, 900.8203
822.2920, 948.1875
823.4310, 1019.578
824.5690, 852.9570
825.7070, 1150.199
826.8460, 996.3945
827.9840, 935.9258
829.1220, 1152.480
830.2590, 710.0625
831.3970, 901.6719
832.5340, 1047.305
833.6710, 858.9648
834.8080, 1061.645
835.9450, 830.3555
837.0820, 750.0977
838.2190, 943.9375
839.3550, 721.8047
840.4910, 720.6914
841.6270, 815.6211
842.7630, 855.5820
843.8990, 907.5742
845.0350, 844.5938
846.1700, 846.4688
847.3060, 652.7656
848.4410, 793.8672
849.5760, 774.4688
850.7100, 813.6758
851.8450, 967.9023
852.9800, 920.1523
854.1140, 446.4219
855.2480, 679.7188
856.3820, 718.0391
857.5160, 367.3789
858.6500, 566.7422
859.7830, 513.1445
860.9170, 686.6602
862.0500, 444.1445
863.1830, 550.2656
864.3160, 459.7969
865.4480, 511.3555
866.5810, 485.9258
867.7130, 452.0586
868.8460, 522.7031
869.9780, 326.8984
871.1100, 510.5781
872.2410, 471.2852
873.3730, 419.0078
874.5050, 206.7578
875.6360, 256.5430
876.7670, 119.3438
877.8980, 370.1641
879.0290, 413.2539
880.1590, 194.1289
881.2900, 600.0234
882.4200, 191.9414
883.5500, 8.128906
884.6800, 273.8203
885.8100, 152.7930
886.9400, 201.7852
888.0690, 20.79688
889.1990, 82.70312
890.3280, 172.0273
891.4570, 133.5703
892.5860, 373.7383
893.7140, 373.9219
894.8430, 88.12500
895.9710, 356.3516
897.1000, 3.410156
898.2280, 333.8516
899.3560, 181.1250
900.4830, 192.0898
901.6110, 236.3945
902.7380, 157.0039
903.8660, 195.6719
904.9930, 231.6992
906.1200, 181.0664
907.2460, 107.4570
908.3730, 41.85547
909.5000, 148.7266
910.6260, 105.7773
911.7520, 196.1758
912.8780, 40.58203
914.0040, 34.01172
915.1290, 222.4453
916.2550, 164.9023
917.3800, 85.37109
918.5050, 220.8828
919.6300, 163.3789
920.7550, 15.30859
921.8800, 68.16797
923.0040, 42.37500
924.1290, 222.1758
925.2530, 44.68750
926.3770, 74.21484
927.5010, 126.7539
928.6250, 62.30469
929.7480, 255.4414
930.8720, 313.5859
931.9950, 281.1133
933.1180, 18.51953
934.2410, 203.8320
935.3640, 68.44531
936.4860, 28.92969
937.6090, 148.9648
938.7310, 163.4062
939.8530, 40.16797
940.9750, 215.7344
942.0970, 73.68750
943.2180, 73.85938
944.3400, 190.4180
945.4610, 74.01562
946.5820, 3.523438
947.7030, 94.83203
948.8240, 156.3828
949.9450, 299.9492
951.0650, 247.5234
952.1860, 313.1055
953.3060, 88.30859
954.4260, 167.2422
955.5460, 11.80078
956.6650, 156.0000
957.7850, 271.5703
958.9040, 23.85156
960.0230, 71.12891
961.1420, 16.05859
962.2610, 130.4609
963.3800, 217.9844
964.4990, 294.5117
965.6170, 132.0508
966.7350, 97.60156
967.8530, 77.15234
968.9710, 110.7031
970.0890, 99.28516
971.2070, 113.2422
972.3240, 140.4297
973.4410, 139.7812
974.5580, 204.3828
975.6750, 236.5938
976.7920, 296.5898
977.9090, 285.2734
979.0250, 334.8906
980.1410, 255.3984
981.2580, 134.0625
982.3740, 30.31250
983.4890, 1.003906
984.6050, 85.58594
985.7200, 280.1953
986.8360, 266.8086
987.9510, 350.4219
989.0660, 277.0430
990.1810, 160.6602
991.2950, 178.1133
992.4100, 131.7188
993.5240, 119.5430
994.6390, 70.17578
995.7530, 82.80859
996.8660, 68.56250
997.9800, 177.0234
999.0940, 323.6094
1000.207, 306.1953
1001.320, 100.2227
1002.433, 210.5703
1003.546, 32.08984
1004.659, 332.6055
1005.772, 382.1211
1006.884, 272.6367
1007.996, 458.1016
1009.108, 198.6602
1010.220, 527.1719
1011.332, 170.6875
1012.444, 60.19531
1013.555, 380.7227
1014.666, 224.2461
1015.777, 200.7656
1016.888, 315.2852
1017.999, 230.7188
1019.110, 209.2344
1020.220, 336.7500
1021.331, 241.2617
1022.441, 393.8633
1023.551, 193.3711
1024.661, 55.88281
1025.770, 215.3828
1026.880, 143.8828
1027.989, 258.3789
1029.098, 172.8750
1030.207, 448.3633
1031.316, 346.8008
1032.425, 634.4648
1033.533, 42.05469
1034.642, 174.3828
1035.750, 70.81641
1036.858, 168.2422
1037.966, 282.7148
1039.073, 299.2695
1040.181, 209.6875
1041.288, 405.1367
1042.396, 138.5938
1043.503, 84.31250
1044.610, 191.7578
1045.716, 279.1992
1046.823, 143.6328
1047.929, 284.0625
1049.036, 136.4883
1050.142, 177.9141
1051.248, 109.3320
1052.353, 234.7422
1053.459, 57.15234
1054.564, 286.6992
1055.670, 61.74609
1056.775, 217.2734
1057.880, 430.6562
1058.985, 172.0586
1060.089, 226.4531
1061.194, 151.8477
1062.298, 9.234375
1063.402, 43.59766
1064.506, 10.43750
1065.610, 291.3203
1066.713, 5.867188
1067.817, 126.1836
1068.920, 181.4961
1070.023, 69.28906
1071.126, 141.7734
1072.229, 106.4570
1073.332, 129.7344
1074.435, 145.0312
1075.537, 172.0430
1076.639, 288.3281
1077.741, 122.6055
1078.843, 225.5078
1079.945, 19.33594
1081.046, 465.9102
1082.148, 123.1523
1083.249, 240.3828
1084.350, 170.6172
1085.451, 344.8438
1086.551, 131.6289
1087.652, 250.8516
1088.752, 103.0664
1089.853, 247.0781
1090.953, 207.2188
1092.053, 11.60547
1093.152, 54.28516
1094.252, 130.0938
1095.351, 182.1602
1096.451, 259.2148
1097.550, 172.2695
1098.649, 93.32031
1099.748, 166.3633
1100.846, 253.4062
1101.945, 226.5352
1103.043, 20.43359
1104.141, 146.5703
1105.239, 78.56641
1106.337, 172.5664
1107.434, 264.6758
1108.532, 234.6641
1109.629, 82.64453
1110.726, 444.6211
1111.823, 10.58984
1112.920, 88.55078
1114.017, 141.5117
1115.113, 73.51562
1116.210, 132.9648
1117.306, 408.3320
1118.402, 206.2266
1119.498, 281.1133
1120.593, 274.0000
1121.689, 128.8789
1122.784, 297.0312
1123.879, 221.8984
1124.974, 143.7656
1126.069, 270.6250
1127.164, 488.4297
1128.259, 342.2773
1129.353, 285.5117
1130.447, 466.3555
1131.541, 261.1914
1132.635, 428.0234
1133.729, 34.31250
1134.822, 310.1367
1135.916, 90.42578
1137.009, 99.24219
1138.102, 162.0508
1139.195, 369.8555
1140.288, 354.6758
1141.380, 205.4922
1142.473, 145.3086
1143.565, 121.1289
1144.657, 95.71484
1145.749, 120.3984
1146.841, 174.2070
1147.932, 229.0117
1149.024, 362.8125
1150.115, 158.6133
1151.206, 102.4062
1152.297, 430.1992
1153.388, 83.01562
1154.479, 257.7148
1155.569, 269.4414
1156.659, 579.7695
1157.750, 206.4844
1158.839, 221.2031
1159.929, 303.9805
1161.019, 96.68750
1162.108, 259.3906
1163.198, 39.09375
1164.287, 78.78516
1165.376, 303.8047
1166.465, 421.4922
1167.553, 241.9258
1168.642, 60.64062
1169.730, 41.35156
1170.818, 233.0547
1171.906, 328.1055
1172.994, 284.8086
1174.082, 311.5117
1175.170, 291.5977
1176.257, 255.8281
1177.344, 249.5508
1178.431, 217.2734
1179.518, 249.9844
1180.605, 164.6992
1181.691, 259.4062
1182.778, 92.08203
1183.864, 277.7852
1184.950, 41.07031
1186.036, 200.7656
1187.122, 296.1328
1188.207, 91.84766
1189.292, 214.7891
1190.378, 313.4922
1191.463, 407.1992
1192.548, 349.8984
1193.632, 164.0156
1194.717, 281.1484
1195.801, 267.1367
1196.886, 117.8281
1197.970, 179.7617
1199.054, 145.4492
1200.137, 77.13281
1201.221, 261.5430
1202.305, 366.2266
1203.388, 252.9414
1204.471, 313.5352
1205.554, 199.2578
1206.637, 260.9922
1207.719, 220.7266
1208.802, 156.4609
1209.884, 197.2109
1210.966, 275.7305
1212.048, 189.4766
1213.130, 462.2227
1214.212, 360.9609
1215.293, 395.7070
1216.374, 275.4453
1217.456, 269.2148
1218.536, 297.9609
1219.617, 238.0742
1220.698, 184.8320
1221.778, 220.5859
1222.859, 270.1914
1223.939, 198.4297
1225.019, 372.2188
1226.099, 167.0078
1227.178, 136.7969
1228.258, 472.5859
1229.337, 87.36719
1230.417, 276.1523
1231.496, 76.06641
1232.574, 166.6758
1233.653, 180.7695
1234.732, 127.5117
1235.810, 430.1602
1236.888, 13.89844
1237.966, 258.6367
1239.044, 125.3711
1240.122, 122.0391
1241.199, 234.7734
1242.277, 258.6172
1243.354, 138.1211
1244.431, 158.8516
1245.508, 397.8945
1246.585, 70.34766
1247.661, 247.3711
1248.738, 207.0859
1249.814, 689.8008
1250.890, 539.5156
1251.966, 19.76953
1253.042, 191.9336
1254.117, 220.6367
1255.193, 302.3477
1256.268, 319.0508
1257.343, 458.7578
1258.418, 412.4883
1259.493, 474.5078
1260.567, 420.9297
1261.642, 348.6680
1262.716, 497.3984
1263.790, 70.89844
1264.864, 349.6641
1265.938, 286.4375
1267.011, 76.21094
1268.085, 54.98438
1269.158, 115.9766
1270.231, 241.7539
1271.304, 79.53516
1272.377, 359.9688
1273.450, 60.24609
1274.522, 280.5039
1275.594, 87.25781
1276.666, 230.0039
1277.738, 242.7617
1278.810, 254.5156
1279.882, 237.2773
1280.953, 243.0352
1282.025, 224.8945
1283.096, 271.5508
1284.167, 292.3516
1285.238, 172.1562
1286.308, 440.9648
