##NAMES=Brucite
##RRUFFID=R050455
##IDEAL CHEMISTRY=Mg(OH)_2_
##LOCALITY=Texas, Lancaster County, Pennsylvania, USA
##OWNER=RRUFF
##SOURCE=University of Arizona Mineral Museum
##DESCRIPTION=Group of green tabular crystals
##STATUS=The identification of this mineral has been confirmed by X-ray diffraction and chemical analysis
##URL=rruff.info/R050455
##MEASURED CHEMISTRY=(Mg_0.99_Mn_0.01_)(OH)_2_
##PIN_ID=M00147
##ORIENTATION=Laser parallel to c* (0 0 1). Fiducial mark perpendicular to laser is parallel to a [1 0 0]
158.6810, 0.0000000E+00
159.9080, 0.1640630
161.1340, 82.73047
162.3590, 118.1699
163.5850, 117.0742
164.8110, 151.9863
166.0360, 1.656250
167.2610, 239.7207
168.4860, 50.49023
169.7110, 125.0020
170.9360, 113.2090
172.1610, 210.7578
173.3850, 243.6211
174.6100, 5.226563
175.8340, 297.1855
177.0580, 196.8418
178.2820, 82.72070
179.5050, 180.8027
180.7290, 23.92578
181.9520, 88.52930
183.1760, 11.15625
184.3990, 112.9375
185.6220, 171.8672
186.8450, 35.93359
188.0670, 180.1289
189.2900, 60.44727
190.5120, 165.8848
191.7340, 246.4297
192.9560, 79.08008
194.1780, 117.8262
195.4000, 216.6680
196.6220, 342.5938
197.8430, 147.5996
199.0640, 291.6777
200.2860, 103.8457
201.5070, 109.0898
202.7270, 354.4180
203.9480, 322.8223
205.1690, 176.2715
206.3890, 163.8711
207.6090, 158.5098
208.8290, 272.1875
210.0490, 145.9082
211.2690, 209.6680
212.4890, 113.4688
213.7080, 167.3164
214.9280, 174.2090
216.1470, 213.1504
217.3660, 328.1914
218.5850, 322.2676
219.8030, 257.3809
221.0220, 202.5293
222.2400, 126.7148
223.4590, 261.9336
224.6770, 95.18555
225.8950, 197.4746
227.1120, 142.7930
228.3300, 205.1465
229.5480, 184.5312
230.7650, 301.9473
231.9820, 388.3926
233.1990, 278.8398
234.4160, 166.2988
235.6330, 324.7637
236.8490, 243.2344
238.0660, 232.7148
239.2820, 220.2031
240.4980, 342.6992
241.7140, 250.3555
242.9300, 222.8516
244.1460, 324.3496
245.3610, 283.7363
246.5770, 224.0508
247.7920, 320.5840
249.0070, 399.1328
250.2220, 378.7051
251.4370, 414.2969
252.6510, 422.7051
253.8660, 438.2871
255.0800, 404.8926
256.2940, 454.1758
257.5080, 610.2383
258.7220, 539.9727
259.9360, 518.7227
261.1490, 572.4980
262.3630, 875.2930
263.5760, 682.1113
264.7890, 1141.953
266.0020, 956.9316
267.2150, 1478.023
268.4270, 1828.924
269.6400, 1846.846
270.8520, 2254.391
272.0640, 2300.400
273.2760, 2775.428
274.4880, 2871.422
275.7000, 3004.479
276.9120, 3091.576
278.1230, 3081.715
279.3340, 2730.879
280.5450, 2429.061
281.7560, 1884.258
282.9670, 1647.475
284.1780, 1339.707
285.3880, 1099.869
286.5980, 952.2246
287.8090, 800.5098
289.0190, 713.8105
290.2290, 631.1328
291.4380, 449.4727
292.6480, 458.8301
293.8570, 426.2031
295.0670, 254.5918
296.2760, 493.9980
297.4850, 477.4199
298.6930, 501.8535
299.9020, 349.3086
301.1110, 408.7734
302.3190, 292.2598
303.5270, 44.75781
304.7350, 65.76953
305.9430, 210.6016
307.1510, 141.5293
308.3580, 354.4395
309.5660, 351.7871
310.7730, 282.2832
311.9800, 380.0566
313.1870, 382.9746
314.3940, 288.9512
315.6010, 188.8906
316.8070, 122.8672
318.0130, 164.8750
319.2200, 166.9141
320.4260, 98.38672
321.6310, 288.4883
322.8370, 93.61328
324.0430, 28.23047
325.2480, 169.9492
326.4540, 191.8926
327.6590, 171.1211
328.8640, 212.3711
330.0680, 144.6445
331.2730, 194.9395
332.4780, 37.74023
333.6820, 37.60156
334.8860, 212.9648
336.0900, 11.34766
337.2940, 119.7480
338.4980, 86.16992
339.7010, 134.6094
340.9050, 135.0645
342.1080, 217.5410
343.3110, 12.03320
344.5140, 98.54688
345.7170, 69.92578
346.9200, 69.60742
348.1220, 24.56641
349.3240, 192.7227
350.5270, 34.30469
351.7290, 94.31250
352.9310, 126.9336
354.1320, 148.1504
355.3340, 134.8027
356.5350, 121.3262
357.7370, 116.3672
358.9380, 126.9121
360.1390, 106.5645
361.3400, 164.2949
362.5400, 204.0391
363.7410, 233.2773
364.9410, 154.5664
366.1410, 247.3887
367.3410, 127.4766
368.5410, 16.32812
369.7410, 110.1875
370.9400, 5.935547
372.1400, 210.9492
373.3390, 60.84766
374.5380, 9.242188
375.7370, 128.6797
376.9360, 72.61133
378.1350, 164.5566
379.3330, 90.96875
380.5310, 229.9395
381.7300, 17.80469
382.9280, 191.1855
384.1260, 169.1855
385.3230, 194.1973
386.5210, 22.21875
387.7180, 59.85547
388.9160, 64.17969
390.1130, 29.22266
391.3100, 103.2715
392.5060, 274.3320
393.7030, 318.6250
394.9000, 179.7090
396.0960, 254.8027
397.2920, 343.4316
398.4880, 30.53125
399.6840, 326.6445
400.8800, 242.7656
402.0750, 202.8984
403.2710, 142.0410
404.4660, 101.1953
405.6610, 300.3594
406.8560, 219.5352
408.0510, 176.7207
409.2450, 330.9219
410.4400, 212.1270
411.6340, 153.3398
412.8280, 394.5645
414.0220, 165.7988
415.2160, 359.0449
416.4100, 293.2949
417.6030, 407.5566
418.7970, 543.4277
419.9900, 297.6953
421.1830, 424.9727
422.3760, 853.2598
423.5690, 796.5566
424.7610, 748.8613
425.9540, 819.1777
427.1460, 1127.500
428.3380, 1322.834
429.5300, 1738.176
430.7220, 2163.527
431.9140, 2687.887
433.1050, 3281.254
434.2970, 4256.631
435.4880, 4942.018
436.6790, 6177.414
437.8700, 7132.818
439.0610, 8215.229
440.2510, 8823.650
441.4420, 9118.080
442.6320, 8328.520
443.8220, 7840.963
445.0120, 6431.418
446.2020, 5342.883
447.3910, 4305.354
448.5810, 3557.836
449.7700, 2660.447
450.9600, 2124.951
452.1490, 1792.467
453.3370, 1438.994
454.5260, 1295.533
455.7150, 1116.084
456.9030, 906.8711
458.0910, 792.5371
459.2800, 682.1230
460.4670, 607.7168
461.6550, 517.3223
462.8430, 507.9375
464.0300, 487.5664
465.2180, 314.2051
466.4050, 465.8574
467.5920, 127.8555
468.7790, 331.5273
469.9650, 471.2129
471.1520, 263.9062
472.3380, 311.6113
473.5250, 463.3281
474.7110, 166.0527
475.8970, 261.2988
477.0820, 151.0430
478.2680, 254.7949
479.4540, 95.55859
480.6390, 74.33203
481.8240, 298.1152
483.0090, 234.9082
484.1940, 169.7109
485.3780, 398.5215
486.5630, 324.3418
487.7470, 48.17188
488.9320, 194.5488
490.1160, 332.3965
491.3000, 37.25391
492.4830, 124.1211
493.6670, 6.810547
494.8500, 152.0703
496.0340, 88.03906
497.2170, 179.8184
498.4000, 54.75781
499.5820, 158.6758
500.7650, 78.27148
501.9480, 255.1699
503.1300, 249.2656
504.3120, 248.1797
505.4940, 24.10156
506.6760, 158.0352
507.8580, 132.4141
509.0390, 1.361328
510.2210, 328.3164
511.4020, 324.2773
512.5830, 177.4277
513.7640, 36.32031
514.9450, 203.3066
516.1250, 438.3027
517.3060, 170.1484
518.4860, 44.16211
519.6660, 203.1816
520.8460, 2.789063
522.0260, 16.24219
523.2060, 75.71875
524.3850, 186.8496
525.5650, 274.8691
526.7440, 229.8984
527.9230, 82.27344
529.1020, 31.68359
530.2810, 52.01172
531.4590, 194.0566
532.6380, 320.1074
533.8160, 235.1660
534.9940, 75.76758
536.1720, 203.2715
537.3500, 246.3184
538.5270, 5.628906
539.7050, 178.4277
540.8820, 269.4941
542.0590, 131.5664
543.2360, 276.6504
544.4130, 84.73828
545.5900, 19.83594
546.7660, 243.9434
547.9430, 65.05664
549.1190, 87.17969
550.2950, 8.308594
551.4710, 13.44727
552.6470, 54.70117
553.8220, 111.7441
554.9980, 136.9043
556.1730, 94.07422
557.3480, 72.25391
558.5230, 92.52734
559.6980, 7.371094
560.8730, 131.8242
562.0470, 225.0254
563.2220, 278.2324
564.3960, 59.45117
565.5700, 389.6797
566.7440, 156.9102
567.9170, 275.1504
569.0910, 225.4004
570.2640, 90.65625
571.4380, 162.9199
572.6110, 202.1934
573.7840, 199.4688
574.9570, 41.75586
576.1290, 16.04883
577.3020, 103.3496
578.4740, 202.6582
579.6460, 117.9746
580.8180, 75.29688
581.9900, 37.62891
583.1620, 87.96875
584.3330, 105.9141
585.5040, 23.66602
586.6760, 208.0273
587.8470, 81.39453
589.0180, 81.76953
590.1880, 17.84766
591.3590, 7.531250
592.5290, 243.9160
593.7000, 59.31055
594.8700, 75.71094
596.0400, 20.11719
597.2090, 127.4590
598.3790, 17.65430
599.5490, 78.26758
600.7180, 136.6367
601.8870, 129.0137
603.0560, 218.3965
604.2250, 49.78516
605.3940, 43.18359
606.5620, 37.58594
607.7300, 212.9980
608.8990, 48.41992
610.0670, 132.8457
611.2350, 241.2832
612.4020, 177.7285
613.5700, 116.1855
614.7370, 236.6465
615.9050, 26.87891
617.0720, 157.5898
618.2390, 225.1016
619.4060, 39.62305
620.5720, 137.1934
621.7390, 5.771484
622.9050, 49.35547
624.0710, 122.9609
625.2370, 128.5703
626.4030, 116.1875
627.5690, 118.8086
628.7340, 256.4375
629.9000, 80.08398
631.0650, 171.7344
632.2300, 79.39648
633.3950, 39.93555
634.5600, 148.3184
635.7240, 101.9824
636.8890, 293.0703
638.0530, 0.2519530
639.2170, 0.4667970
640.3810, 33.79102
641.5450, 80.94922
642.7080, 3.291016
643.8720, 227.4727
645.0350, 255.2441
646.1980, 74.02148
647.3610, 165.1953
648.5240, 353.5137
649.6870, 206.9785
650.8490, 191.6992
652.0120, 3.576172
653.1740, 165.1543
654.3360, 9.916016
655.4980, 121.6836
656.6600, 112.4609
657.8210, 104.2441
658.9830, 152.6035
660.1440, 156.3887
661.3050, 205.2012
662.4660, 221.0352
663.6270, 289.6016
664.7870, 351.4492
665.9480, 222.3047
667.1080, 9.833984
668.2680, 84.02539
669.4280, 113.9980
670.5880, 217.8828
671.7480, 164.7695
672.9070, 114.6660
674.0670, 175.5879
675.2260, 122.4629
676.3850, 108.5723
677.5440, 112.1855
678.7030, 112.6094
679.8610, 114.5781
681.0200, 244.5566
682.1780, 100.5391
683.3360, 317.5273
684.4940, 396.5176
685.6520, 362.5156
686.8090, 124.5176
687.9670, 43.52148
689.1240, 313.5352
690.2810, 79.55078
691.4380, 194.5742
692.5950, 266.6035
693.7520, 353.6367
694.9080, 17.67578
696.0650, 279.7188
697.2210, 175.7656
698.3770, 288.8145
699.5330, 538.2559
700.6880, 377.3164
701.8440, 453.3789
702.9990, 472.9570
704.1550, 338.5195
705.3100, 463.5898
706.4650, 331.6719
707.6190, 325.7539
708.7740, 298.8398
709.9290, 326.9336
711.0830, 233.0273
712.2370, 428.1250
713.3910, 400.2305
714.5450, 373.3398
715.6980, 704.4492
716.8520, 508.5625
718.0050, 641.6836
719.1580, 581.8047
720.3110, 578.9258
721.4640, 925.0586
722.6170, 678.1875
723.7700, 692.3203
724.9220, 637.4648
726.0740, 471.6094
727.2260, 557.7617
728.3780, 773.9102
729.5300, 586.9531
730.6810, 686.1914
731.8330, 632.3516
732.9840, 586.5156
734.1350, 486.6797
735.2860, 643.1406
736.4370, 588.0859
737.5880, 617.1680
738.7380, 630.4805
739.8880, 517.6367
741.0390, 605.8242
742.1890, 562.0039
743.3380, 571.1914
744.4880, 481.5859
745.6380, 391.7773
746.7870, 246.0508
747.9360, 395.2500
749.0850, 495.9414
750.2340, 353.1406
751.3830, 332.1562
752.5310, 112.3594
753.6800, 470.5625
754.8280, 369.9727
755.9760, 329.5000
757.1240, 428.7109
758.2720, 311.5625
759.4190, 417.0234
760.5670, 332.5312
761.7140, 206.6445
762.8610, 247.8555
764.0080, 376.0664
765.1550, 210.2734
766.3020, 275.4844
767.4480, 462.6914
768.5950, 342.8984
769.7410, 205.3555
770.8870, 372.5820
772.0330, 431.7383
773.1780, 318.4805
774.3240, 716.6875
775.4690, 365.3164
776.6140, 446.8750
777.7590, 522.4883
778.9040, 246.2031
780.0490, 305.0000
781.1940, 344.7812
782.3380, 378.0039
783.4820, 443.5859
784.6260, 305.7969
785.7700, 109.9844
786.9140, 231.1953
788.0580, 123.6719
789.2010, 289.8789
790.3450, 387.4336
791.4880, 279.4688
792.6310, 210.6758
793.7730, 305.2461
794.9160, 158.1719
796.0590, 240.3672
797.2010, 282.7109
798.3430, 462.7656
799.4850, 536.2539
800.6270, 349.6914
801.7690, 290.9062
802.9100, 430.2656
804.0520, 199.4727
805.1930, 320.3359
806.3340, 580.5312
807.4750, 325.3555
808.6160, 406.5547
809.7560, 509.9180
810.8970, 277.1172
812.0370, 481.3047
813.1770, 516.5078
814.3170, 206.3281
815.4570, 380.5195
816.5960, 306.7109
817.7360, 217.2773
818.8750, 469.5820
820.0140, 305.7539
821.1530, 386.9180
822.2920, 284.0742
823.4310, 335.3008
824.5690, 348.8047
825.7070, 163.2656
826.8460, 298.8398
827.9840, 343.0391
829.1220, 282.4883
830.2590, 181.6094
831.3970, 359.7578
832.5340, 310.8984
833.6710, 470.0352
834.8080, 347.1758
835.9450, 393.3086
837.0820, 470.4648
838.2190, 187.6328
839.3550, 310.7969
840.4910, 379.9492
841.6270, 334.0938
842.7630, 280.2344
843.8990, 216.3633
845.0350, 253.4922
846.1700, 285.6055
847.3060, 291.9609
848.4410, 296.0625
849.5760, 432.5195
850.7100, 503.6094
851.8450, 262.6836
852.9800, 426.7539
854.1140, 359.0078
855.2480, 126.1328
856.3820, 324.1758
857.5160, 295.2148
858.6500, 342.2422
859.7830, 390.2578
860.9170, 232.2773
862.0500, 275.9648
863.1830, 161.9609
864.3160, 224.9453
865.4480, 424.9219
866.5810, 75.91016
867.7130, 256.8906
868.8460, 97.85938
869.9780, 183.8203
871.1100, 6.156250
872.2410, 268.7734
873.3730, 389.7227
874.5050, 74.66797
875.6360, 147.6016
876.7670, 251.9453
877.8980, 210.8633
879.0290, 218.7656
880.1590, 60.66016
881.2900, 253.5391
882.4200, 92.42188
883.5500, 302.3242
884.6800, 21.21875
885.8100, 297.0938
886.9400, 11.03906
888.0690, 218.8125
889.1990, 129.6484
890.3280, 12.47266
891.4570, 113.7148
892.5860, 304.0195
893.7140, 150.2617
894.8430, 65.35156
895.9710, 54.95703
897.1000, 26.45312
898.2280, 254.0977
899.3560, 250.6406
900.4830, 220.1680
901.6110, 176.6875
902.7380, 225.1914
903.8660, 223.6836
904.9930, 1.164063
906.1200, 129.6211
907.2460, 103.0664
908.3730, 30.51172
909.5000, 270.9336
910.6260, 45.34375
911.7520, 127.6484
912.8780, 32.35156
914.0040, 12.68359
915.1290, 18.44922
916.2550, 19.76172
917.3800, 243.9531
918.5050, 56.12891
919.6300, 331.2930
920.7550, 49.44141
921.8800, 159.6133
923.0040, 82.77344
924.1290, 557.0664
925.2530, 38.23047
926.3770, 68.89062
927.5010, 256.1953
928.6250, 65.26172
929.7480, 26.31250
930.8720, 206.3477
931.9950, 119.3672
933.1180, 84.62891
934.2410, 85.30078
935.3640, 97.21484
936.4860, 207.0078
937.6090, 124.9531
938.7310, 159.8164
939.8530, 244.6797
940.9750, 245.5195
942.0970, 39.07812
943.2180, 243.8906
944.3400, 124.6836
945.4610, 53.10547
946.5820, 369.6484
947.7030, 213.5195
948.8240, 62.75781
949.9450, 479.1680
951.0650, 392.8359
952.1860, 78.49219
953.3060, 139.1289
954.4260, 190.7500
955.5460, 257.3516
956.6650, 205.3320
957.7850, 156.3086
958.9040, 88.86719
960.0230, 99.26172
961.1420, 70.39062
962.2610, 157.7773
963.3800, 98.26562
964.4990, 195.7383
965.6170, 290.9219
966.7350, 311.4258
967.8530, 182.9180
968.9710, 255.8047
970.0890, 194.9102
971.2070, 249.5742
972.3240, 199.7891
973.4410, 372.1953
974.5580, 497.5781
975.6750, 330.9492
976.7920, 390.3203
977.9090, 385.7539
979.0250, 199.0703
980.1410, 436.3672
981.2580, 142.6484
982.3740, 622.9102
983.4890, 115.1523
984.6050, 268.3789
985.7200, 269.5820
986.8360, 278.8477
987.9510, 158.0195
989.0660, 187.3828
990.1810, 467.3086
991.2950, 220.4336
992.4100, 431.5391
993.5240, 595.6250
994.6390, 37.69141
995.7530, 63.00781
996.8660, 254.3438
997.9800, 273.3828
999.0940, 520.3672
1000.207, 310.4922
1001.320, 425.3594
1002.433, 475.2891
1003.546, 323.1992
1004.659, 197.0938
1005.772, 453.6797
1006.884, 245.5391
1007.996, 399.3828
1009.108, 506.0938
1010.220, 114.9023
1011.332, 434.6914
1012.444, 583.4609
1013.555, 373.2109
1014.666, 368.7422
1015.777, 311.2227
1016.888, 304.2109
1017.999, 462.8867
1019.110, 618.0469
1020.220, 574.7969
1021.331, 581.2578
1022.441, 491.8555
1023.551, 438.4375
1024.661, 449.4102
1025.770, 532.5078
1026.880, 470.0352
1027.989, 489.8984
1029.098, 543.1367
1030.207, 487.0234
1031.316, 480.7344
1032.425, 425.7109
1033.533, 394.1289
1034.642, 357.5234
1035.750, 315.9062
1036.858, 336.2266
1037.966, 517.6133
1039.073, 340.6836
1040.181, 447.9727
1041.288, 367.1289
1042.396, 215.8633
1043.503, 285.1172
1044.610, 68.94922
1045.716, 359.8594
1046.823, 103.3281
1047.929, 455.3008
1049.036, 202.4766
1050.142, 239.2539
1051.248, 535.3789
1052.353, 404.1172
1053.459, 304.2031
1054.564, 407.0977
1055.670, 295.1562
1056.775, 176.0898
1057.880, 308.5312
1058.985, 2.175781
1060.089, 258.3359
1061.194, 497.7031
1062.298, 386.3008
1063.402, 264.5195
1064.506, 263.4492
1065.610, 449.2070
1066.713, 210.2344
1067.817, 233.8125
1068.920, 21.57812
1070.023, 179.2422
1071.126, 271.8906
1072.229, 441.4766
1073.332, 470.4609
1074.435, 37.39062
1075.537, 418.5195
1076.639, 301.2461
1077.741, 104.8867
1078.843, 374.5742
1079.945, 164.2539
1081.046, 421.9141
1082.148, 140.0508
1083.249, 243.6797
1084.350, 360.9961
1085.451, 336.2109
1086.551, 303.6680
1087.652, 198.2344
1088.752, 103.7969
1089.853, 103.2578
1090.953, 364.2266
1092.053, 117.4648
1093.152, 224.6406
1094.252, 306.6797
1095.351, 220.2070
1096.451, 317.2344
1097.550, 98.25000
1098.649, 299.2773
1099.748, 211.6016
1100.846, 7.097656
1101.945, 138.2266
1103.043, 73.51953
1104.141, 29.34766
1105.239, 409.7734
1106.337, 433.8828
1107.434, 229.9727
1108.532, 204.0469
1109.629, 185.1055
1110.726, 216.9961
1111.823, 473.1641
1112.920, 393.1719
1114.017, 419.9180
1115.113, 445.8945
1116.210, 303.5117
1117.306, 284.4805
1118.402, 188.9258
1119.498, 414.8945
1120.593, 248.6562
1121.689, 450.9219
1122.784, 527.4531
1123.879, 305.3633
1124.974, 587.2500
1126.069, 645.1250
1127.164, 138.9766
1128.259, 128.1367
1129.353, 195.9609
1130.447, 357.7773
1131.541, 38.42578
1132.635, 260.5273
1133.729, 229.4258
1134.822, 361.1328
1135.916, 439.8750
1137.009, 443.4844
1138.102, 474.7617
1139.195, 286.5234
1140.288, 427.1641
1141.380, 342.7891
1142.473, 292.9844
1143.565, 299.5820
1144.657, 213.1602
1145.749, 318.7305
1146.841, 1.714844
1147.932, 107.1953
1149.024, 627.2422
1150.115, 383.6602
1151.206, 253.0703
1152.297, 2.535156
1153.388, 393.1055
1154.479, 308.4648
1155.569, 344.8086
1156.659, 266.1641
1157.750, 365.5195
1158.839, 464.8555
1159.929, 320.2383
1161.019, 116.5938
1162.108, 173.9375
1163.198, 279.2773
1164.287, 393.6055
1165.376, 401.0898
1166.465, 413.3203
1167.553, 430.5000
1168.642, 307.7734
1169.730, 312.0352
1170.818, 196.2891
1171.906, 303.5312
1172.994, 285.3984
1174.082, 317.9766
1175.170, 298.1797
1176.257, 166.7578
1177.344, 28.98047
1178.431, 397.7930
1179.518, 3.992188
1180.605, 95.20703
1181.691, 377.3945
1182.778, 247.5703
1183.864, 324.7266
1184.950, 130.8828
1186.036, 537.0195
1187.122, 93.85547
1188.207, 84.08203
1189.292, 156.3594
1190.378, 496.6523
1191.463, 96.75000
1192.548, 256.8164
1193.632, 319.8281
1194.717, 241.8359
1195.801, 284.8281
1196.886, 235.8125
1197.970, 568.8125
1199.054, 281.8047
1200.137, 208.8906
1201.221, 273.7969
1202.305, 9.753906
1203.388, 252.5977
1204.471, 102.5234
1205.554, 286.7148
1206.637, 304.6211
1207.719, 91.48047
1208.802, 524.9414
1209.884, 325.7773
1210.966, 427.4648
1212.048, 76.72266
1213.130, 341.9375
1214.212, 22.69922
1215.293, 354.4453
1216.374, 384.2266
1217.456, 496.9531
1218.536, 443.6406
1219.617, 79.95703
1220.698, 356.2539
1221.778, 162.9336
1222.859, 293.2773
1223.939, 365.9414
1225.019, 146.5977
1226.099, 459.2422
1227.178, 304.8750
1228.258, 225.2227
1229.337, 202.2656
1230.417, 238.7617
1231.496, 155.8164
1232.574, 288.9688
1233.653, 190.8438
1234.732, 208.2070
1235.810, 292.1211
1236.888, 215.5469
1237.966, 248.9648
1239.044, 292.3516
1240.122, 462.6523
1241.199, 375.1836
1242.277, 294.5742
1243.354, 298.9492
1244.431, 162.3203
1245.508, 223.0938
1246.585, 244.4492
1247.661, 38.79688
1248.738, 353.1602
1249.814, 472.4922
1250.890, 68.84375
1251.966, 20.18750
1253.042, 517.5195
1254.117, 216.8398
1255.193, 318.1523
1256.268, 383.8008
1257.343, 244.8320
1258.418, 173.8125
1259.493, 157.8633
1260.567, 175.3672
1261.642, 105.4883
1262.716, 115.8906
1263.790, 334.0312
1264.864, 143.2969
1265.938, 173.5547
1267.011, 292.8086
1268.085, 16.94141
1269.158, 219.2812
1270.231, 346.4961
1271.304, 469.7109
1272.377, 281.9180
1273.450, 462.1250
1274.522, 398.3281
1275.594, 264.5234
1276.666, 249.9492
1277.738, 324.7578
1278.810, 308.9375
1279.882, 633.1172
1280.953, 335.2930
1282.025, 73.70312
1283.096, 261.8672
1284.167, 459.0312
1285.238, 130.1875
1286.308, 422.3398
1287.379, 601.4922
1288.449, 133.6406
1289.519, 280.7891
1290.589, 251.6250
1291.659, 208.7031
1292.729, 191.8594
1293.798, 177.0156
1294.868, 388.1680
1295.937, 320.3164
1297.006, 665.4688
1298.075, 212.6172
1299.143, 501.7773
1300.212, 255.9336
1301.280, 546.0859
1302.348, 264.3008
1303.416, 293.4453
1304.484, 137.5938
1305.552, 410.6445
1306.620, 231.0938
1307.687, 254.2383
1308.754, 617.7969
1309.821, 350.5469
1310.888, 369.6836
1311.955, 321.8164
1313.021, 340.9453
1314.088, 527.8398
1315.154, 391.9648
1316.220, 328.9180
1317.286, 105.3828
1318.352, 364.5352
1319.417, 106.6133
1320.483, 109.3047
1321.548, 209.3594
1322.613, 458.4180
1323.678, 439.4766
1324.743, 647.5312
1325.807, 339.5859
1326.872, 309.6172
1327.936, 395.6445
1329.000, 565.6875
1330.064, 140.7773
1331.128, 85.99219
