##NAMES=Brucite
##RRUFFID=R050455
##IDEAL CHEMISTRY=Mg(OH)_2_
##LOCALITY=Texas, Lancaster County, Pennsylvania, USA
##OWNER=RRUFF
##SOURCE=University of Arizona Mineral Museum
##DESCRIPTION=Group of green tabular crystals
##STATUS=The identification of this mineral has been confirmed by X-ray diffraction and chemical analysis
##URL=rruff.info/R050455
##MEASURED CHEMISTRY=(Mg_0.99_Mn_0.01_)(OH)_2_
##PIN_ID=M00121
##ORIENTATION=Laser parallel to a* (1 0 0). Fiducial mark perpendicular to laser is parallel to c [0 0 1]
107.0470, 0.0000000E+00
108.2800, 243.0625
109.5120, 522.5879
110.7440, 271.0869
111.9760, 4.111328
113.2080, 7.478516
114.4400, 117.5215
115.6710, 292.5137
116.9030, 256.1963
118.1340, 192.3252
119.3650, 221.7002
120.5960, 158.1572
121.8270, 120.5703
123.0580, 249.8398
124.2880, 296.8818
125.5190, 280.0469
126.7490, 275.5332
127.9790, 281.8887
129.2090, 178.3047
130.4390, 219.1729
131.6680, 237.4492
132.8980, 219.1035
134.1270, 275.1357
135.3560, 312.5244
136.5850, 278.2559
137.8140, 320.3076
139.0430, 448.6582
140.2710, 199.2861
141.5000, 317.1660
142.7280, 393.2715
143.9560, 307.5869
145.1840, 378.0889
146.4120, 421.7588
147.6390, 427.5771
148.8670, 469.4453
150.0940, 465.4814
151.3210, 454.8271
152.5490, 474.1445
153.7750, 355.5684
155.0020, 388.0938
156.2290, 216.7148
157.4550, 148.4277
158.6810, 340.5205
159.9080, 359.8311
161.1340, 283.3096
162.3590, 321.8350
163.5850, 302.5273
164.8110, 345.4648
166.0360, 522.4619
167.2610, 706.5010
168.4860, 558.7490
169.7110, 652.0098
170.9360, 681.3838
172.1610, 574.7842
173.3850, 567.1943
174.6100, 494.6172
175.8340, 442.0566
177.0580, 472.5127
178.2820, 562.9873
179.5050, 490.4834
180.7290, 599.9873
181.9520, 507.4648
183.1760, 502.9131
184.3990, 264.3340
185.6220, 414.7471
186.8450, 462.1582
188.0670, 586.5742
189.2900, 585.9971
190.5120, 607.4277
191.7340, 745.8721
192.9560, 562.3330
194.1780, 684.8105
195.4000, 637.3047
196.6220, 557.8174
197.8430, 638.3506
199.0640, 571.9043
200.2860, 625.4805
201.5070, 853.0781
202.7270, 783.6992
203.9480, 680.3457
205.1690, 478.0156
206.3890, 523.7109
207.6090, 305.4297
208.8290, 294.2852
210.0490, 323.9102
211.2690, 189.2012
212.4890, 351.0781
213.7080, 471.6133
214.9280, 369.2949
216.1470, 298.9316
217.3660, 376.5957
218.5850, 445.7949
219.8030, 422.8750
221.0220, 416.3926
222.2400, 438.5254
223.4590, 403.3281
224.6770, 431.6152
225.8950, 358.2988
227.1120, 339.7148
228.3300, 322.4473
229.5480, 370.1094
230.7650, 472.7949
231.9820, 382.5020
233.1990, 598.3301
234.4160, 581.8184
235.6330, 522.5430
236.8490, 419.2891
238.0660, 623.0684
239.2820, 425.8730
240.4980, 590.7363
241.7140, 537.7012
242.9300, 708.7461
244.1460, 641.8145
245.3610, 818.8945
246.5770, 791.9922
247.7920, 652.0957
249.0070, 859.2402
250.2220, 908.4551
251.4370, 891.6895
252.6510, 904.9297
253.8660, 1009.658
255.0800, 1097.578
256.2940, 1301.885
257.5080, 1527.850
258.7220, 1841.359
259.9360, 2385.318
261.1490, 2503.646
262.3630, 2966.064
263.5760, 3113.574
264.7890, 3767.158
266.0020, 4006.811
267.2150, 4604.531
268.4270, 5120.311
269.6400, 5619.146
270.8520, 5894.035
272.0640, 6103.969
273.2760, 6124.949
274.4880, 6059.939
275.7000, 6159.051
276.9120, 5574.158
278.1230, 5225.301
279.3340, 4748.482
280.5450, 3937.693
281.7560, 3515.938
282.9670, 2742.207
284.1780, 2549.506
285.3880, 2052.828
286.5980, 1746.178
287.8090, 1340.580
289.0190, 1119.568
290.2290, 1033.455
291.4380, 796.9258
292.6480, 815.4141
293.8570, 765.9414
295.0670, 732.5039
296.2760, 576.1133
297.4850, 335.7383
298.6930, 391.3887
299.9020, 209.0723
301.1110, 366.7754
302.3190, 228.4961
303.5270, 219.2324
304.7350, 384.9902
305.9430, 189.7812
307.1510, 244.5820
308.3580, 162.3652
309.5660, 15.30078
310.7730, 119.9863
311.9800, 155.5996
313.1870, 84.68945
314.3940, 31.30273
315.6010, 4.509766
316.8070, 28.11328
318.0130, 138.0547
319.2200, 62.02344
320.4260, 45.87305
321.6310, 1.224609
322.8370, 140.6816
324.0430, 89.26367
325.2480, 113.5137
326.4540, 75.43555
327.6590, 29.36523
328.8640, 54.69922
330.0680, 37.77344
331.2730, 22.81836
332.4780, 83.13867
333.6820, 84.89844
334.8860, 50.95117
336.0900, 201.9863
337.2940, 66.93359
338.4980, 62.88672
339.7010, 160.8438
340.9050, 137.3477
342.1080, 118.5625
343.3110, 12.32031
344.5140, 15.31445
345.7170, 25.68945
346.9200, 106.6934
348.1220, 8.722656
349.3240, 50.25195
350.5270, 118.2305
351.7290, 13.21094
352.9310, 228.1973
354.1320, 209.1348
355.3340, 51.07422
356.5350, 58.00781
357.7370, 165.9102
358.9380, 23.20117
360.1390, 176.6816
361.3400, 208.9043
362.5400, 198.7969
363.7410, 60.08203
364.9410, 221.9473
366.1410, 142.1875
367.3410, 59.01758
368.5410, 197.9434
369.7410, 172.6504
370.9400, 194.5781
372.1400, 310.9512
373.3390, 221.7539
374.5380, 128.3066
375.7370, 93.11523
376.9360, 211.7207
378.1350, 392.5176
379.3330, 96.56641
380.5310, 375.3594
381.7300, 255.1562
382.9280, 99.22852
384.1260, 146.0273
385.3230, 197.8281
386.5210, 110.6289
387.7180, 206.1641
388.9160, 193.2695
390.1130, 281.7168
391.3100, 219.6074
392.5060, 189.7891
393.7030, 234.3320
394.9000, 191.1387
396.0960, 263.5527
397.2920, 349.7461
398.4880, 389.5586
399.6840, 405.3711
400.8800, 441.3672
402.0750, 339.2539
403.2710, 444.0859
404.4660, 368.9238
405.6610, 438.7695
406.8560, 405.1113
408.0510, 483.9648
409.2450, 588.8867
410.4400, 855.7402
411.6340, 846.5957
412.8280, 840.5117
414.0220, 848.3711
415.2160, 1177.230
416.4100, 1044.092
417.6030, 1331.357
418.7970, 1409.219
419.9900, 1457.078
421.1830, 1748.938
422.3760, 1994.799
423.5690, 2326.070
424.7610, 2922.520
425.9540, 3252.379
427.1460, 3827.238
428.3380, 4573.096
429.5300, 5709.951
430.7220, 6821.148
431.9140, 8417.000
433.1050, 9970.941
434.2970, 11520.79
435.4880, 13004.64
436.6790, 14030.54
437.8700, 14845.34
439.0610, 15148.89
440.2510, 14801.83
441.4420, 14218.25
442.6320, 12845.61
443.8220, 11271.64
445.0120, 9523.098
446.2020, 7629.922
447.3910, 6088.684
448.5810, 4854.561
449.7700, 3888.367
450.9600, 3177.172
452.1490, 2658.566
453.3370, 2229.008
454.5260, 1786.797
455.7150, 1626.584
456.9030, 1412.330
458.0910, 1180.109
459.2800, 1069.852
460.4670, 900.0605
461.6550, 713.8262
462.8430, 907.7188
464.0300, 878.4746
465.2180, 626.1738
466.4050, 404.9180
467.5920, 518.6582
468.7790, 532.3965
469.9650, 431.1250
471.1520, 357.8535
472.3380, 409.3789
473.5250, 135.5449
474.7110, 445.3477
475.8970, 456.0547
477.0820, 336.1816
478.2680, 486.2617
479.4540, 448.1328
480.6390, 314.8223
481.8240, 304.5078
483.0090, 64.58203
484.1940, 286.2539
485.3780, 236.9199
486.5630, 114.5840
487.7470, 198.2422
488.9320, 198.4902
490.1160, 300.9609
491.3000, 255.3926
492.4830, 243.0156
493.6670, 205.3945
494.8500, 153.0293
496.0340, 185.6602
497.2170, 164.2891
498.4000, 187.9180
499.5820, 91.99219
500.7650, 182.6113
501.9480, 139.6738
503.1300, 60.28906
504.3120, 183.8965
505.4940, 55.50195
506.6760, 187.1016
507.8580, 20.69922
509.0390, 217.2793
510.2210, 76.85938
511.4020, 34.43750
512.5830, 32.00586
513.7640, 56.43945
514.9450, 134.0684
516.1250, 177.4277
517.3060, 138.9668
518.4860, 9.363281
519.6660, 125.7383
520.8460, 58.11328
522.0260, 177.4844
523.2060, 274.8555
524.3850, 55.22266
525.5650, 226.5898
526.7440, 163.9570
527.9230, 206.3223
529.1020, 15.31445
530.2810, 258.0254
531.4590, 60.63672
532.6380, 0.3476560
533.8160, 60.91992
534.9940, 116.1875
536.1720, 179.4551
537.3500, 274.7266
538.5270, 234.5566
539.7050, 103.2676
540.8820, 133.5391
542.0590, 49.81250
543.2360, 54.91406
544.4130, 126.3145
545.5900, 102.5430
546.7660, 258.7773
547.9430, 4.011719
549.1190, 108.2324
550.2950, 51.45508
551.4710, 166.6797
552.6470, 193.9062
553.8220, 50.13477
554.9980, 100.3652
556.1730, 121.5996
557.3480, 125.8359
558.5230, 1.076172
559.6980, 269.3047
560.8730, 69.53516
562.0470, 249.7695
563.2220, 115.0098
564.3960, 255.2520
565.5700, 292.4980
566.7440, 155.7480
567.9170, 63.00586
569.0910, 73.26172
570.2640, 141.5273
571.4380, 106.2070
572.6110, 161.0020
573.7840, 29.21484
574.9570, 51.43359
576.1290, 375.6562
577.3020, 70.11719
578.4740, 34.92773
579.6460, 99.75977
580.8180, 22.35547
581.9900, 13.52734
583.1620, 64.41797
584.3330, 11.65625
585.5040, 0.7343750
586.6760, 141.8125
587.8470, 23.10352
589.0180, 77.02930
590.1880, 60.00195
591.3590, 39.04297
592.5290, 13.09180
593.7000, 72.81641
594.8700, 149.2402
596.0400, 99.30664
597.2090, 31.38281
598.3790, 300.4824
599.5490, 167.4082
600.7180, 72.37695
601.8870, 34.62891
603.0560, 264.6445
604.2250, 16.68359
605.3940, 123.7305
606.5620, 178.7852
607.7300, 57.85352
608.8990, 201.9336
610.0670, 109.0215
611.2350, 143.1191
612.4020, 48.22852
613.5700, 120.6387
614.7370, 441.4531
615.9050, 58.56250
617.0720, 143.6855
618.2390, 281.8359
619.4060, 7.988281
620.5720, 279.1973
621.7390, 50.39453
622.9050, 71.39453
624.0710, 228.3047
625.2370, 164.5410
626.4030, 328.7891
627.5690, 215.0508
628.7340, 126.3516
629.9000, 241.6719
631.0650, 322.0352
632.2300, 320.4141
633.3950, 34.80469
634.5600, 196.2129
635.7240, 194.6348
636.8890, 173.0703
638.0530, 235.5234
639.2170, 169.9922
640.3810, 228.4727
641.5450, 81.98633
642.7080, 457.5254
643.8720, 208.7422
645.0350, 115.3105
646.1980, 353.4922
647.3610, 186.0938
648.5240, 219.3184
649.6870, 214.9551
650.8490, 563.5176
652.0120, 317.3203
653.1740, 513.1074
654.3360, 300.1602
655.4980, 226.9160
656.6600, 169.9473
657.8210, 156.7441
658.9830, 144.9883
660.1440, 171.3340
661.3050, 195.1992
662.4660, 319.0781
663.6270, 394.9746
664.7870, 604.6172
665.9480, 371.5586
667.1080, 544.5195
668.2680, 383.5020
669.4280, 373.4746
670.5880, 509.5039
671.7480, 428.9121
672.9070, 530.9004
674.0670, 679.8867
675.2260, 654.0117
676.3850, 678.1582
677.5440, 720.3281
678.7030, 768.5723
679.8610, 609.8418
681.0200, 716.1348
682.1780, 509.3047
683.3360, 735.6152
684.4940, 851.0117
685.6520, 824.4336
686.8090, 865.8828
687.9670, 799.8770
689.1240, 989.4023
690.2810, 1097.879
691.4380, 1075.471
692.5950, 888.0879
693.7520, 1237.672
694.9080, 933.3438
696.0650, 1152.062
697.2210, 1344.809
698.3770, 1327.199
699.5330, 1510.023
700.6880, 1493.875
701.8440, 1367.756
702.9990, 1542.666
704.1550, 1702.611
705.3100, 1522.586
706.4650, 1369.586
707.6190, 1735.617
708.7740, 1973.674
709.9290, 1947.766
711.0830, 1815.543
712.2370, 1985.689
713.3910, 2022.775
714.5450, 1913.992
715.6980, 1898.238
716.8520, 1916.457
718.0050, 1942.805
719.1580, 2109.426
720.3110, 2121.707
721.4640, 2171.520
722.6170, 2310.424
723.7700, 2007.688
724.9220, 2053.555
726.0740, 2393.088
727.2260, 2041.709
728.3780, 2216.246
729.5300, 2284.883
730.6810, 2300.555
731.8330, 2333.199
732.9840, 2270.295
734.1350, 2091.066
735.2860, 2349.875
736.4370, 2227.719
737.5880, 2311.594
738.7380, 2077.543
739.8880, 1983.139
741.0390, 2277.125
742.1890, 2170.146
743.3380, 2202.205
744.4880, 1948.299
745.6380, 2016.430
746.7870, 1802.598
747.9360, 1973.805
749.0850, 1932.047
750.2340, 1894.326
751.3830, 2064.643
752.5310, 1775.336
753.6800, 1969.730
754.8280, 1723.156
755.9760, 1823.629
757.1240, 1802.133
758.2720, 1773.504
759.4190, 1606.086
760.5670, 1724.707
761.7140, 1502.305
762.8610, 1778.004
764.0080, 1606.742
765.1550, 1471.523
766.3020, 1432.809
767.4480, 1448.668
768.5950, 1244.562
769.7410, 1467.496
770.8870, 1339.469
772.0330, 1524.477
773.1780, 1351.527
774.3240, 1583.617
775.4690, 1702.746
776.6140, 1509.926
777.7590, 1376.141
778.9040, 1444.402
780.0490, 1519.699
781.1940, 1471.035
782.3380, 1533.336
783.4820, 1526.832
784.6260, 1561.289
785.7700, 1366.797
786.9140, 1349.355
788.0580, 1545.953
789.2010, 1577.586
790.3450, 1709.270
791.4880, 1642.000
792.6310, 1346.785
793.7730, 1501.617
794.9160, 1361.539
796.0590, 1363.500
797.2010, 1409.516
798.3430, 1238.590
799.4850, 1471.688
800.6270, 1343.824
801.7690, 1544.016
802.9100, 1516.250
804.0520, 1488.531
805.1930, 1421.848
806.3340, 1271.203
807.4750, 1341.137
808.6160, 1562.594
809.7560, 1614.121
810.8970, 1528.957
812.0370, 1293.566
813.1770, 1471.223
814.3170, 1532.914
815.4570, 1433.027
816.5960, 1632.805
817.7360, 1601.621
818.8750, 1409.996
820.0140, 1101.895
821.1530, 1483.859
822.2920, 1321.027
823.4310, 1420.070
824.5690, 1501.750
825.7070, 1689.453
826.8460, 1424.621
827.9840, 1363.090
829.1220, 1473.379
830.2590, 1218.703
831.3970, 1231.066
832.5340, 1199.824
833.6710, 1210.270
834.8080, 1177.125
835.9450, 1155.656
837.0820, 1238.223
838.2190, 1500.836
839.3550, 1058.484
840.4910, 716.5703
841.6270, 1136.297
842.7630, 1038.062
843.8990, 1002.871
845.0350, 1022.715
846.1700, 1047.598
847.3060, 967.5156
848.4410, 1053.512
849.5760, 904.5430
850.7100, 876.6094
851.8450, 1064.719
852.9800, 653.8711
854.1140, 742.0820
855.2480, 839.3477
856.3820, 863.6797
857.5160, 964.0508
858.6500, 781.4648
859.7830, 720.9414
860.9170, 745.4570
862.0500, 935.0156
863.1830, 645.6133
864.3160, 541.2578
865.4480, 856.0742
866.5810, 449.8125
867.7130, 701.5977
868.8460, 657.4180
869.9780, 514.2969
871.1100, 747.2188
872.2410, 935.1719
873.3730, 488.1680
874.5050, 1379.199
875.6360, 497.3125
876.7670, 448.4883
877.8980, 626.6992
879.0290, 461.9492
880.1590, 387.2344
881.2900, 510.5586
882.4200, 556.9180
883.5500, 463.3203
884.6800, 379.7539
885.8100, 447.2266
886.9400, 340.7422
888.0690, 480.2891
889.1990, 524.9141
890.3280, 450.5742
891.4570, 314.2734
892.5860, 332.0039
893.7140, 504.7773
894.8430, 259.5859
895.9710, 265.4297
897.1000, 183.6875
898.2280, 464.1797
899.3560, 359.0859
900.4830, 257.0273
901.6110, 145.9688
902.7380, 324.0195
903.8660, 57.04297
904.9930, 140.1016
906.1200, 92.19531
907.2460, 296.3281
908.3730, 136.4961
909.5000, 153.6953
910.6260, 60.93359
911.7520, 259.8086
912.8780, 194.1172
914.0040, 296.4570
915.1290, 173.8281
916.2550, 47.24219
917.3800, 205.6836
918.5050, 43.16406
919.6300, 66.67578
920.7550, 213.1133
921.8800, 407.6953
923.0040, 231.3086
924.1290, 154.9688
925.2530, 161.3438
926.3770, 4.316406
927.5010, 46.07031
928.6250, 328.8516
929.7480, 196.6719
930.8720, 114.5195
931.9950, 191.4023
933.1180, 1.316406
934.2410, 128.2852
935.3640, 26.28516
936.4860, 174.5195
937.6090, 88.58594
938.7310, 87.68750
939.8530, 79.81250
940.9750, 238.9727
942.0970, 17.83594
943.2180, 256.5625
944.3400, 3.875000
945.4610, 8.851563
946.5820, 150.4531
947.7030, 191.7852
948.8240, 95.15234
949.9450, 226.4531
951.0650, 264.8750
952.1860, 71.22656
953.3060, 135.3828
954.4260, 278.9727
955.5460, 327.3594
956.6650, 3.222656
957.7850, 134.2188
958.9040, 78.30469
960.0230, 36.83594
961.1420, 194.6445
962.2610, 66.01172
963.3800, 68.50000
964.4990, 38.03906
965.6170, 214.6016
966.7350, 85.46484
967.8530, 30.12109
968.9710, 103.2695
970.0890, 22.32031
971.2070, 64.96875
972.3240, 254.6133
973.4410, 21.29297
974.5580, 25.00391
975.6750, 252.7148
976.7920, 420.6680
977.9090, 104.4375
979.0250, 56.23828
980.1410, 326.0625
981.2580, 153.9102
982.3740, 225.7891
983.4890, 70.68750
984.6050, 13.38281
985.7200, 67.56250
986.8360, 267.0352
987.9510, 103.0586
989.0660, 253.1133
990.1810, 270.1953
991.2950, 54.29297
992.4100, 270.4336
993.5240, 293.6016
994.6390, 448.7891
995.7530, 187.0039
996.8660, 19.24219
997.9800, 125.5039
999.0940, 11.78516
1000.207, 203.0977
1001.320, 124.4219
1002.433, 232.7773
1003.546, 119.1562
1004.659, 40.55469
1005.772, 185.9766
1006.884, 133.4219
1007.996, 303.8906
1009.108, 258.3789
1010.220, 196.7656
1011.332, 182.3008
1012.444, 68.85547
1013.555, 167.4297
1014.666, 130.8711
1015.777, 284.6523
1016.888, 164.2930
1017.999, 126.9570
1019.110, 130.6367
1020.220, 141.8555
1021.331, 175.3203
1022.441, 253.1016
1023.551, 276.8711
1024.661, 303.6562
1025.770, 333.4648
1026.880, 103.2969
1027.989, 255.1445
1029.098, 322.0117
1030.207, 176.9023
1031.316, 391.4805
1032.425, 305.7031
1033.533, 70.65625
1034.642, 50.98828
1035.750, 270.5039
1036.858, 67.51172
1037.966, 275.5391
1039.073, 90.57812
1040.181, 224.6484
1041.288, 337.7344
1042.396, 199.8359
1043.503, 314.9570
1044.610, 28.89844
1045.716, 49.23438
1046.823, 147.3906
1047.929, 509.5625
1049.036, 91.75000
1050.142, 287.9570
1051.248, 195.1875
1052.353, 223.4336
1053.459, 13.29688
1054.564, 113.9648
1055.670, 50.64062
1056.775, 174.6719
1057.880, 104.9883
1058.985, 125.3164
1060.089, 256.4922
1061.194, 329.8594
1062.298, 186.2461
1063.402, 195.6484
1064.506, 133.0664
1065.610, 374.7617
1066.713, 240.4258
1067.817, 175.1367
1068.920, 47.38281
1070.023, 229.0781
1071.126, 360.5586
1072.229, 353.0547
1073.332, 333.5625
1074.435, 235.0859
1075.537, 40.10547
1076.639, 48.66406
1077.741, 248.2227
1078.843, 206.5430
1079.945, 400.1367
1081.046, 543.7461
1082.148, 273.6445
1083.249, 234.9141
1084.350, 105.5664
1085.451, 111.2773
1086.551, 176.4883
1087.652, 357.2266
1088.752, 259.9805
1089.853, 255.5781
1090.953, 81.35938
1092.053, 100.5625
1093.152, 100.3672
1094.252, 136.3711
1095.351, 100.2109
1096.451, 299.0273
1097.550, 149.8594
1098.649, 18.71094
1099.748, 41.22266
1100.846, 253.0938
1101.945, 92.61719
1103.043, 28.79688
1104.141, 434.7188
1105.239, 204.5234
1106.337, 148.4727
1107.434, 131.0391
1108.532, 18.02734
1109.629, 121.0195
1110.726, 75.11719
1111.823, 345.0547
1112.920, 168.0938
1114.017, 51.14453
1115.113, 242.2109
1116.210, 165.2930
1117.306, 108.3906
1118.402, 14.38672
1119.498, 197.5078
1120.593, 56.64453
1121.689, 224.7891
1122.784, 401.9531
1123.879, 165.0586
1124.974, 453.2461
1126.069, 222.4531
1127.164, 606.6680
1128.259, 585.8984
1129.353, 158.1367
1130.447, 394.3945
1131.541, 236.5547
1132.635, 338.8359
1133.729, 354.0742
1134.822, 76.43750
1135.916, 331.7617
1137.009, 381.0938
1138.102, 317.4375
1139.195, 74.80078
1140.288, 341.1719
1141.380, 7.558594
1142.473, 562.9453
1143.565, 142.3477
1144.657, 158.7617
1145.749, 277.1875
1146.841, 484.6250
1147.932, 221.0781
1149.024, 293.5430
1150.115, 138.0156
1151.206, 65.76172
1152.297, 142.0000
1153.388, 18.48438
1154.479, 187.0156
1155.569, 256.5469
1156.659, 278.0898
1157.750, 480.6406
1158.839, 412.5430
1159.929, 256.2461
1161.019, 287.8438
1162.108, 234.4492
1163.198, 27.09766
1164.287, 305.7578
1165.376, 72.57422
1166.465, 286.0625
1167.553, 83.73047
1168.642, 120.4141
1169.730, 96.15625
1170.818, 162.9062
1171.906, 158.6680
1172.994, 152.4492
1174.082, 155.3086
1175.170, 144.3828
1176.257, 99.22656
1177.344, 147.0508
1178.431, 99.88281
1179.518, 148.2969
1180.605, 238.5742
1181.691, 234.4414
1182.778, 198.3203
1183.864, 95.20703
1184.950, 401.2148
1186.036, 477.1211
1187.122, 16.95703
1188.207, 214.9570
1189.292, 404.8789
1190.378, 201.1523
1191.463, 234.7148
1192.548, 103.5898
1193.632, 491.4844
1194.717, 320.3828
1195.801, 25.29688
1196.886, 71.77734
1197.970, 26.10547
1199.054, 158.0039
1200.137, 216.7109
1201.221, 230.6289
1202.305, 211.5547
1203.388, 215.4922
1204.471, 202.8125
1205.554, 182.3320
1206.637, 167.1914
1207.719, 167.1172
1208.802, 136.1172
1209.884, 190.1328
1210.966, 178.1562
1212.048, 19.18750
1213.130, 216.2344
1214.212, 425.3281
1215.293, 258.0391
1216.374, 169.1562
1217.456, 324.3164
1218.536, 129.4883
1219.617, 106.6680
1220.698, 501.8672
1221.778, 328.0742
1222.859, 118.3125
1223.939, 51.56250
1225.019, 349.0859
1226.099, 77.37109
1227.178, 560.6680
1228.258, 272.9727
1229.337, 92.95312
1230.417, 53.30469
1231.496, 144.6641
1232.574, 22.36328
1233.653, 138.4219
1234.732, 4.832031
1235.810, 141.2461
1236.888, 270.6680
1237.966, 495.1094
1239.044, 170.3477
1240.122, 276.8086
1241.199, 218.2812
1242.277, 362.7617
1243.354, 410.2500
1244.431, 299.7500
1245.508, 391.2656
1246.585, 187.7812
1247.661, 117.6836
1248.738, 276.3242
1249.814, 102.8125
1250.890, 315.3164
1251.966, 322.8242
1253.042, 33.65625
1254.117, 496.8477
1255.193, 74.36328
1256.268, 490.8867
1257.343, 343.4180
1258.418, 226.9570
1259.493, 218.5117
1260.567, 199.0742
1261.642, 266.6445
1262.716, 482.2266
1263.790, 83.82031
1264.864, 132.4180
1265.938, 390.0273
1267.011, 181.6523
1268.085, 239.2773
1269.158, 146.9180
1270.231, 349.5625
1271.304, 244.3516
1272.377, 199.0156
1273.450, 444.6992
1274.522, 452.3828
1275.594, 133.0859
1276.666, 298.7891
1277.738, 388.5078
1278.810, 161.2344
1279.882, 202.9727
1280.953, 498.7188
1282.025, 246.4766
1283.096, 319.9609
1284.167, 299.0977
1285.238, 154.6875
1286.308, 230.6797
