##NAMES=Brucite
##RRUFFID=R050455
##IDEAL CHEMISTRY=Mg(OH)_2_
##LOCALITY=Texas, Lancaster County, Pennsylvania, USA
##OWNER=RRUFF
##SOURCE=University of Arizona Mineral Museum
##DESCRIPTION=Group of green tabular crystals
##STATUS=The identification of this mineral has been confirmed by X-ray diffraction and chemical analysis
##URL=rruff.info/R050455
##MEASURED CHEMISTRY=(Mg_0.99_Mn_0.01_)(OH)_2_
##PIN_ID=M00121
##ORIENTATION=Laser parallel to a* (1 0 0). Fiducial mark perpendicular to laser is parallel to c [0 0 1]
107.0470, 0.0000000E+00
108.2800, 308.4648
109.5120, 428.2148
110.7440, 382.0137
111.9760, 102.4004
113.2080, 27.80859
114.4400, 25.96680
115.6710, 287.7402
116.9030, 354.8066
118.1340, 365.6328
119.3650, 170.8086
120.5960, 113.0059
121.8270, 196.9668
123.0580, 282.4805
124.2880, 109.3770
125.5190, 259.5195
126.7490, 213.7832
127.9790, 353.0566
129.2090, 218.2500
130.4390, 215.2695
131.6680, 279.0469
132.8980, 440.5234
134.1270, 528.6348
135.3560, 582.9141
136.5850, 654.6152
137.8140, 650.4277
139.0430, 575.7402
140.2710, 546.5312
141.5000, 784.7695
142.7280, 471.4414
143.9560, 685.5117
145.1840, 474.9512
146.4120, 492.7246
147.6390, 477.7988
148.8670, 588.1602
150.0940, 682.7910
151.3210, 523.6680
152.5490, 568.7852
153.7750, 541.1328
155.0020, 521.6953
156.2290, 588.4688
157.4550, 503.4434
158.6810, 496.6113
159.9080, 561.9707
161.1340, 584.5078
162.3590, 586.2246
163.5850, 449.2402
164.8110, 809.4512
166.0360, 624.8652
167.2610, 654.5605
168.4860, 763.3906
169.7110, 667.3594
170.9360, 860.4648
172.1610, 707.8145
173.3850, 751.2871
174.6100, 593.9629
175.8340, 591.7949
177.0580, 785.7402
178.2820, 627.8047
179.5050, 702.9785
180.7290, 572.2305
181.9520, 733.4609
183.1760, 678.6836
184.3990, 508.8887
185.6220, 701.1113
186.8450, 708.3652
188.0670, 651.6582
189.2900, 711.9961
190.5120, 725.3809
191.7340, 671.8223
192.9560, 739.3184
194.1780, 928.8750
195.4000, 801.4941
196.6220, 899.9863
197.8430, 845.9258
199.0640, 926.7383
200.2860, 898.6172
201.5070, 921.5664
202.7270, 1120.582
203.9480, 629.6641
205.1690, 545.8164
206.3890, 594.0371
207.6090, 649.3242
208.8290, 439.6855
210.0490, 502.1172
211.2690, 459.6211
212.4890, 584.1934
213.7080, 643.8379
214.9280, 439.5469
216.1470, 351.3262
217.3660, 530.1719
218.5850, 632.7324
219.8030, 360.6719
221.0220, 581.6523
222.2400, 788.5430
223.4590, 737.6191
224.6770, 354.4766
225.8950, 546.8145
227.1120, 392.0488
228.3300, 500.3848
229.5480, 684.7871
230.7650, 581.2461
231.9820, 662.7793
233.1990, 585.3574
234.4160, 699.4648
235.6330, 615.7266
236.8490, 774.4375
238.0660, 644.2070
239.2820, 753.1074
240.4980, 668.3730
241.7140, 945.3379
242.9300, 773.3359
244.1460, 835.3945
245.3610, 796.5410
246.5770, 1150.744
247.7920, 907.3418
249.0070, 1239.703
250.2220, 1542.176
251.4370, 1541.701
252.6510, 1458.293
253.8660, 1804.164
255.0800, 1777.307
256.2940, 1895.607
257.5080, 2186.910
258.7220, 2638.465
259.9360, 3118.904
261.1490, 3349.879
262.3630, 3706.041
263.5760, 4306.367
264.7890, 4887.865
266.0020, 5722.502
267.2150, 6526.270
268.4270, 7080.184
269.6400, 7884.215
270.8520, 8294.359
272.0640, 8748.602
273.2760, 9092.945
274.4880, 9232.385
275.7000, 8837.906
276.9120, 8094.525
278.1230, 7649.227
279.3340, 6560.004
280.5450, 5919.854
281.7560, 5821.775
282.9670, 4924.766
284.1780, 3115.820
285.3880, 2814.939
286.5980, 2295.119
287.8090, 1889.357
289.0190, 1433.666
290.2290, 1388.045
291.4380, 1199.494
292.6480, 1127.996
293.8570, 971.5488
295.0670, 743.1797
296.2760, 682.8574
297.4850, 543.5840
298.6930, 416.3535
299.9020, 361.6309
301.1110, 406.0625
302.3190, 227.9883
303.5270, 338.9590
304.7350, 282.9805
305.9430, 367.0703
307.1510, 182.2324
308.3580, 134.4668
309.5660, 351.7754
310.7730, 132.1543
311.9800, 329.5664
313.1870, 307.0117
314.3940, 197.4902
315.6010, 259.0020
316.8070, 229.5645
318.0130, 208.1582
319.2200, 196.2324
320.4260, 77.43750
321.6310, 138.1211
322.8370, 48.83203
324.0430, 49.57031
325.2480, 191.3340
326.4540, 76.12891
327.6590, 82.94531
328.8640, 145.2070
330.0680, 0.3457030
331.2730, 189.5410
332.4780, 8.457031
333.6820, 43.41211
334.8860, 138.3965
336.0900, 89.59570
337.2940, 124.4316
338.4980, 57.48242
339.7010, 55.44141
340.9050, 15.34766
342.1080, 66.22852
343.3110, 98.00781
344.5140, 72.14062
345.7170, 120.8086
346.9200, 154.0059
348.1220, 204.2227
349.3240, 108.0391
350.5270, 73.30078
351.7290, 187.5840
352.9310, 88.89062
354.1320, 93.21875
355.3340, 1.568359
356.5350, 93.93555
357.7370, 41.84375
358.9380, 21.59570
360.1390, 125.8301
361.3400, 208.5820
362.5400, 139.9551
363.7410, 168.4785
364.9410, 45.34375
366.1410, 59.81445
367.3410, 129.2891
368.5410, 4.445313
369.7410, 150.9316
370.9400, 112.5742
372.1400, 117.9199
373.3390, 129.4297
374.5380, 265.9512
375.7370, 54.50781
376.9360, 9.974609
378.1350, 103.5859
379.3330, 36.16016
380.5310, 163.1797
381.7300, 227.6270
382.9280, 14.21680
384.1260, 212.2656
385.3230, 11.14062
386.5210, 226.0312
387.7180, 230.0215
388.9160, 251.6426
390.1130, 208.1992
391.3100, 142.8418
392.5060, 221.4961
393.7030, 288.9355
394.9000, 285.6074
396.0960, 165.6094
397.2920, 99.00586
398.4880, 350.7207
399.6840, 228.4629
400.8800, 423.2246
402.0750, 270.0137
403.2710, 352.8242
404.4660, 378.8223
405.6610, 530.5781
406.8560, 612.4570
408.0510, 533.2480
409.2450, 554.1641
410.4400, 538.1621
411.6340, 513.7812
412.8280, 717.3809
414.0220, 871.3613
415.2160, 833.3574
416.4100, 926.2578
417.6030, 910.2832
418.7970, 1252.318
419.9900, 1296.205
421.1830, 1672.266
422.3760, 1896.338
423.5690, 2053.422
424.7610, 2354.518
425.9540, 3052.625
427.1460, 3406.742
428.3380, 4222.867
429.5300, 5311.004
430.7220, 6460.148
431.9140, 7872.711
433.1050, 9437.457
434.2970, 11142.39
435.4880, 12793.57
436.6790, 14183.76
437.8700, 15561.24
439.0610, 16022.45
440.2510, 16008.66
441.4420, 15298.87
442.6320, 14003.47
443.8220, 12183.90
445.0120, 10358.14
446.2020, 8662.766
447.3910, 6663.633
448.5810, 5308.262
449.7700, 4354.523
450.9600, 3657.807
452.1490, 2840.984
453.3370, 2071.822
454.5260, 2150.086
455.7150, 1742.355
456.9030, 1663.621
458.0910, 1370.893
459.2800, 1185.043
460.4670, 1067.314
461.6550, 814.5879
462.8430, 733.8633
464.0300, 743.1348
465.2180, 656.4121
466.4050, 642.7070
467.5920, 605.9629
468.7790, 549.2383
469.9650, 507.1738
471.1520, 482.7910
472.3380, 407.0059
473.5250, 435.2598
474.7110, 433.5352
475.8970, 401.6328
477.0820, 351.4688
478.2680, 355.7441
479.4540, 351.7676
480.6390, 321.0410
481.8240, 183.3125
483.0090, 418.4102
484.1940, 235.4688
485.3780, 58.20508
486.5630, 404.8027
487.7470, 88.93164
488.9320, 220.2676
490.1160, 181.4668
491.3000, 38.66406
492.4830, 167.8555
493.6670, 98.04492
494.8500, 175.2344
496.0340, 133.4199
497.2170, 103.6055
498.4000, 115.9570
499.5820, 42.95898
500.7650, 59.13477
501.9480, 98.89648
503.1300, 22.06445
504.3120, 163.2207
505.4940, 211.4648
506.6760, 16.61914
507.8580, 216.7559
509.0390, 164.8926
510.2210, 90.97461
511.4020, 27.09375
512.5830, 78.14648
513.7640, 137.2559
514.9450, 187.3105
516.1250, 103.3613
517.3060, 146.4121
518.4860, 2.855469
519.6660, 72.65430
520.8460, 130.6816
522.0260, 5.287109
523.2060, 12.28125
524.3850, 94.69531
525.5650, 39.67188
526.7440, 173.6445
527.9230, 92.68750
529.1020, 42.21680
530.2810, 180.1172
531.4590, 98.98047
532.6380, 237.8496
533.8160, 91.68164
534.9940, 28.48633
536.1720, 165.3086
537.3500, 3.894531
538.5270, 130.1211
539.7050, 122.5742
540.8820, 137.2656
542.0590, 156.9570
543.2360, 170.6484
544.4130, 151.8594
545.5900, 53.03516
546.7660, 1.722656
547.9430, 222.3945
549.1190, 49.92969
550.2950, 215.6992
551.4710, 60.32812
552.6470, 64.03906
553.8220, 4.542969
554.9980, 100.1055
556.1730, 216.6719
557.3480, 19.23828
558.5230, 87.79688
559.6980, 182.3555
560.8730, 18.08203
562.0470, 123.4531
563.2220, 119.9883
564.3960, 95.52734
565.5700, 136.0664
566.7440, 194.6055
567.9170, 144.1523
569.0910, 217.6953
570.2640, 213.2422
571.4380, 82.79297
572.6110, 14.66016
573.7840, 35.12891
574.9570, 38.62891
576.1290, 212.8359
577.3020, 233.3047
578.4740, 83.21875
579.6460, 350.2031
580.8180, 94.62500
581.9900, 154.0508
583.1620, 18.52344
584.3330, 16.11328
585.5040, 82.27734
586.6760, 19.67188
587.8470, 24.92969
589.0180, 72.55859
590.1880, 118.0430
591.3590, 118.9727
592.5290, 117.7734
593.7000, 112.6445
594.8700, 66.42188
596.0400, 77.49609
597.2090, 69.57422
598.3790, 215.6562
599.5490, 53.25000
600.7180, 78.80469
601.8870, 79.86328
603.0560, 100.9336
604.2250, 115.0078
605.3940, 73.08984
606.5620, 92.41406
607.7300, 121.2695
608.8990, 101.3633
610.0670, 44.46875
611.2350, 76.58203
612.4020, 17.30078
613.5700, 125.8320
614.7370, 146.9727
615.9050, 55.88281
617.0720, 241.2383
618.2390, 41.36328
619.4060, 162.5039
620.5720, 179.6602
621.7390, 105.8242
622.9050, 119.9961
624.0710, 257.1836
625.2370, 373.3789
626.4030, 122.5078
627.5690, 287.7422
628.7340, 86.48828
629.9000, 193.7422
631.0650, 173.0039
632.2300, 351.7070
633.3950, 309.9922
634.5600, 369.2852
635.7240, 202.5938
636.8890, 350.9141
638.0530, 367.2383
639.2170, 471.5781
640.3810, 319.4023
641.5450, 123.6094
642.7080, 534.9922
643.8720, 139.0781
645.0350, 154.4844
646.1980, 191.9258
647.3610, 364.9688
648.5240, 411.4336
649.6870, 429.9258
650.8490, 333.7734
652.0120, 441.3125
653.1740, 404.8477
654.3360, 389.4180
655.4980, 411.0195
656.6600, 455.6367
657.8210, 401.2695
658.9830, 685.9336
660.1440, 481.6094
661.3050, 546.2930
662.4660, 323.5430
663.6270, 453.3945
664.7870, 496.1484
665.9480, 516.4727
667.1080, 418.2617
668.2680, 762.5117
669.4280, 789.9688
670.5880, 730.8281
671.7480, 645.7812
672.9070, 794.6758
674.0670, 651.5977
675.2260, 728.7578
676.3850, 888.7305
677.5440, 849.3906
678.7030, 824.6953
679.8610, 828.7227
681.0200, 811.7734
682.1780, 1011.840
683.3360, 962.9297
684.4940, 919.0898
685.6520, 1137.133
686.8090, 1200.461
687.9670, 1252.109
689.1240, 1219.098
690.2810, 1305.395
691.4380, 1321.652
692.5950, 1350.785
693.7520, 1508.078
694.9080, 1456.492
696.0650, 1600.938
697.2210, 1718.547
698.3770, 1658.070
699.5330, 1784.617
700.6880, 1688.352
701.8440, 1762.969
702.9990, 1846.609
704.1550, 1945.312
705.3100, 2294.039
706.4650, 2072.789
707.6190, 2371.566
708.7740, 2295.371
709.9290, 2328.199
711.0830, 2369.055
712.2370, 2455.855
713.3910, 2533.379
714.5450, 2590.992
715.6980, 2652.410
716.8520, 2718.066
718.0050, 2732.820
719.1580, 2760.199
720.3110, 2777.777
721.4640, 2822.121
722.6170, 2865.906
723.7700, 2924.887
724.9220, 3059.117
726.0740, 2679.984
727.2260, 2950.652
728.3780, 2607.613
729.5300, 2672.977
730.6810, 2858.348
731.8330, 2960.867
732.9840, 2743.758
734.1350, 2877.254
735.2860, 2826.781
736.4370, 2829.348
737.5880, 2589.945
738.7380, 2510.695
739.8880, 2326.355
741.0390, 2600.059
742.1890, 2674.793
743.3380, 2553.562
744.4880, 2516.379
745.6380, 2538.230
746.7870, 2340.117
747.9360, 2491.035
749.0850, 2345.988
750.2340, 2514.977
751.3830, 2539.738
752.5310, 2359.793
753.6800, 2009.891
754.8280, 2190.641
755.9760, 2139.805
757.1240, 2459.008
758.2720, 1990.246
759.4190, 2494.523
760.5670, 1908.832
761.7140, 1909.180
762.8610, 1923.559
764.0080, 1852.977
765.1550, 2202.430
766.3020, 1921.922
767.4480, 2292.484
768.5950, 1935.082
769.7410, 1548.855
770.8870, 1963.531
772.0330, 1820.242
773.1780, 1920.992
774.3240, 1919.781
775.4690, 1686.605
776.6140, 1745.465
777.7590, 1842.363
778.9040, 1862.305
780.0490, 1787.508
781.1940, 1945.531
782.3380, 1751.598
783.4820, 1649.703
784.6260, 1845.848
785.7700, 1664.031
786.9140, 1564.629
788.0580, 1901.910
789.2010, 1532.242
790.3450, 1979.617
791.4880, 1615.023
792.6310, 1799.105
793.7730, 1922.594
794.9160, 2037.129
796.0590, 2004.715
797.2010, 1767.449
798.3430, 1703.098
799.4850, 2031.789
800.6270, 1587.523
801.7690, 2083.805
802.9100, 1762.625
804.0520, 1775.129
805.1930, 1553.031
806.3340, 1654.008
807.4750, 1747.023
808.6160, 1770.074
809.7560, 1597.207
810.8970, 2065.547
812.0370, 1934.758
813.1770, 1701.777
814.3170, 1808.082
815.4570, 1613.426
816.5960, 1668.852
817.7360, 1876.320
818.8750, 1822.816
820.0140, 1786.355
821.1530, 1565.379
822.2920, 1683.230
823.4310, 1636.062
824.5690, 1771.758
825.7070, 1528.492
826.8460, 1600.281
827.9840, 1528.105
829.1220, 1632.973
830.2590, 1512.570
831.3970, 1402.539
832.5340, 1392.605
833.6710, 1295.605
834.8080, 1163.684
835.9450, 1566.797
837.0820, 1477.941
838.2190, 1425.207
839.3550, 1173.438
840.4910, 1279.609
841.6270, 1346.926
842.7630, 1145.277
843.8990, 1069.660
845.0350, 1221.082
846.1700, 1170.539
847.3060, 947.0273
848.4410, 1458.551
849.5760, 1328.895
850.7100, 941.5117
851.8450, 1078.195
852.9800, 1217.500
854.1140, 1148.246
855.2480, 1183.059
856.3820, 1237.602
857.5160, 759.4727
858.6500, 1184.387
859.7830, 1053.340
860.9170, 728.3750
862.0500, 795.4062
863.1830, 860.4766
864.3160, 935.9727
865.4480, 871.1445
866.5810, 979.3828
867.7130, 923.6289
868.8460, 941.0586
869.9780, 909.4961
871.1100, 774.1250
872.2410, 881.9141
873.3730, 720.6328
874.5050, 953.7344
875.6360, 445.3672
876.7670, 697.0352
877.8980, 467.7383
879.0290, 483.4766
880.1590, 325.3398
881.2900, 416.1328
882.4200, 229.9609
883.5500, 339.8125
884.6800, 584.6953
885.8100, 481.6094
886.9400, 431.5508
888.0690, 187.5312
889.1990, 259.5391
890.3280, 395.5820
891.4570, 536.6602
892.5860, 337.7734
893.7140, 293.9180
894.8430, 385.0938
895.9710, 315.2930
897.1000, 347.5352
898.2280, 383.8242
899.3560, 111.1445
900.4830, 101.4961
901.6110, 423.8750
902.7380, 487.2773
903.8660, 158.7109
904.9930, 10.83203
906.1200, 312.6562
907.2460, 295.1680
908.3730, 200.7109
909.5000, 510.9570
910.6260, 466.5547
911.7520, 258.1719
912.8780, 389.8242
914.0040, 179.4922
915.1290, 48.48828
916.2550, 209.2227
917.3800, 275.9609
918.5050, 36.72266
919.6300, 319.5156
920.7550, 61.33203
921.8800, 70.82422
923.0040, 39.96484
924.1290, 247.9102
925.2530, 440.8125
926.3770, 143.7383
927.5010, 91.31250
928.6250, 366.6719
929.7480, 40.64062
930.8720, 75.62500
931.9950, 7.363281
933.1180, 71.67188
934.2410, 108.7305
935.3640, 104.8086
936.4860, 64.08594
937.6090, 24.01562
938.7310, 22.85938
939.8530, 52.29297
940.9750, 27.42188
942.0970, 30.40625
943.2180, 63.76562
944.3400, 168.6719
945.4610, 32.10938
946.5820, 277.4883
947.7030, 42.26172
948.8240, 120.0156
949.9450, 169.3125
951.0650, 449.6328
952.1860, 56.97266
953.3060, 255.3320
954.4260, 282.7070
955.5460, 190.8906
956.6650, 82.54297
957.7850, 25.21094
958.9040, 20.86719
960.0230, 315.4805
961.1420, 211.8477
962.2610, 286.2305
963.3800, 70.74609
964.4990, 67.82812
965.6170, 46.58984
966.7350, 36.95703
967.8530, 123.5234
968.9710, 23.85938
970.0890, 176.2617
971.2070, 391.6875
972.3240, 70.86719
973.4410, 12.54688
974.5580, 133.7695
975.6750, 68.62109
976.7920, 114.0195
977.9090, 144.4375
979.0250, 344.9414
980.1410, 481.3945
981.2580, 620.8594
982.3740, 310.3438
983.4890, 40.16016
984.6050, 273.3242
985.7200, 241.7695
986.8360, 15.71875
987.9510, 276.7969
989.0660, 312.3320
990.1810, 152.8867
991.2950, 2.460938
992.4100, 317.0430
993.5240, 365.6367
994.6390, 20.75391
995.7530, 181.8438
996.8660, 128.6641
997.9800, 60.70703
999.0940, 307.8945
1000.207, 112.5117
1001.320, 168.1367
1002.433, 88.77344
1003.546, 88.42188
1004.659, 23.08594
1005.772, 131.7539
1006.884, 322.8867
1007.996, 136.0977
1009.108, 391.2891
1010.220, 263.3633
1011.332, 81.48828
1012.444, 177.2227
1013.555, 30.03125
1014.666, 63.69922
1015.777, 142.4375
1016.888, 314.1875
1017.999, 309.9453
1019.110, 265.7109
1020.220, 150.4883
1021.331, 110.2773
1022.441, 109.0742
1023.551, 368.8789
1024.661, 99.69141
1025.770, 325.5195
1026.880, 386.3516
1027.989, 266.1953
1029.098, 386.0547
1030.207, 171.0625
1031.316, 112.8672
1032.425, 423.7500
1033.533, 111.2344
1034.642, 362.1328
1035.750, 204.0430
1036.858, 281.9570
1037.966, 216.8789
1039.073, 169.6719
1040.181, 504.6055
1041.288, 364.5508
1042.396, 31.50781
1043.503, 335.4531
1044.610, 236.4141
1045.716, 100.3789
1046.823, 209.3477
1047.929, 16.32812
1049.036, 103.0859
1050.142, 212.0664
1051.248, 160.0508
1052.353, 95.03906
1053.459, 237.0430
1054.564, 267.0469
1055.670, 105.1250
1056.775, 120.1133
1057.880, 255.1367
1058.985, 212.1641
1060.089, 307.2188
1061.194, 22.65625
1062.298, 574.7109
1063.402, 108.7773
1064.506, 313.8477
1065.610, 312.7852
1066.713, 177.8633
1067.817, 381.9492
1068.920, 237.0430
1070.023, 368.6484
1071.126, 558.7500
1072.229, 346.2227
1073.332, 135.3359
1074.435, 218.4570
1075.537, 326.5781
1076.639, 6.707031
1077.741, 239.8281
1078.843, 12.77734
1079.945, 205.8945
1081.046, 337.2305
1082.148, 128.3633
1083.249, 324.4961
1084.350, 175.6328
1085.451, 414.7773
1086.551, 282.9258
1087.652, 210.0820
1088.752, 136.6406
1089.853, 143.5703
1090.953, 140.5547
1092.053, 244.7305
1093.152, 275.9102
1094.252, 325.6680
1095.351, 52.29297
1096.451, 296.0938
1097.550, 357.6172
1098.649, 57.82422
1099.748, 287.9727
1100.846, 227.2578
1101.945, 429.5117
1103.043, 133.5078
1104.141, 299.7695
1105.239, 284.9688
1106.337, 46.75391
1107.434, 544.6055
1108.532, 222.8594
1109.629, 96.11719
1110.726, 37.38672
1111.823, 226.6523
1112.920, 82.92969
1114.017, 322.2109
1115.113, 421.5039
1116.210, 461.0273
1117.306, 29.67188
1118.402, 327.6094
1119.498, 252.3164
1120.593, 255.6133
1121.689, 552.1914
1122.784, 363.4961
1123.879, 572.1094
1124.974, 491.4258
1126.069, 348.7461
1127.164, 282.0391
1128.259, 0.6250000
1129.353, 529.7070
1130.447, 596.6641
1131.541, 214.0117
1132.635, 93.35938
1133.729, 113.7188
1134.822, 97.07812
1135.916, 47.70312
1137.009, 57.82812
1138.102, 7.949219
1139.195, 10.57031
1140.288, 25.80859
1141.380, 14.96875
1142.473, 7.398438
1143.565, 107.9844
1144.657, 180.3711
1145.749, 204.6680
1146.841, 415.0703
1147.932, 416.4805
1149.024, 384.8555
1150.115, 196.3164
1151.206, 189.7500
1152.297, 233.1875
1153.388, 64.62891
1154.479, 222.0820
1155.569, 36.54297
1156.659, 297.0078
1157.750, 45.48047
1158.839, 205.9609
1159.929, 249.4180
1161.019, 40.08203
1162.108, 53.60938
1163.198, 263.8359
1164.287, 4.292969
1165.376, 85.74219
1166.465, 547.2031
1167.553, 336.6719
1168.642, 96.14844
1169.730, 163.6328
1170.818, 38.15625
1171.906, 174.6211
1172.994, 96.12891
1174.082, 144.9648
1175.170, 332.4844
1176.257, 343.0156
1177.344, 198.5586
1178.431, 184.1055
1179.518, 61.33984
1180.605, 121.1797
1181.691, 471.4844
1182.778, 207.0742
1183.864, 237.6641
1184.950, 148.2656
1186.036, 68.12500
1187.122, 112.5273
1188.207, 105.1367
1189.292, 140.7500
1190.378, 122.3438
1191.463, 125.9727
1192.548, 99.58594
1193.632, 166.2461
1194.717, 123.8164
1195.801, 247.5977
1196.886, 70.28516
1197.970, 69.98438
1199.054, 16.68750
1200.137, 98.40234
1201.221, 127.2969
1202.305, 272.8789
1203.388, 226.6367
1204.471, 157.4102
1205.554, 101.1953
1206.637, 216.9922
1207.719, 472.0898
1208.802, 17.90625
1209.884, 367.3672
1210.966, 98.79297
1212.048, 151.0156
1213.130, 369.8281
1214.212, 173.6523
1215.293, 223.5117
1216.374, 92.37891
1217.456, 86.25391
1218.536, 98.85938
1219.617, 254.0273
1220.698, 355.9453
1221.778, 440.8789
1222.859, 188.8281
1223.939, 314.7852
1225.019, 142.7539
1226.099, 27.37500
1227.178, 564.5977
1228.258, 208.5977
1229.337, 315.2852
1230.417, 164.5625
1231.496, 51.63281
1232.574, 9.289063
1233.653, 194.7930
1234.732, 266.8867
1235.810, 215.0039
1236.888, 276.9492
1237.966, 280.6719
1239.044, 228.2500
1240.122, 315.4453
1241.199, 300.5820
1242.277, 333.7930
1243.354, 270.0195
1244.431, 514.2578
1245.508, 241.5000
1246.585, 494.7734
1247.661, 123.1172
1248.738, 189.4102
1249.814, 254.7188
1250.890, 61.96094
1251.966, 90.34375
1253.042, 195.6602
1254.117, 468.9883
1255.193, 182.3281
1256.268, 109.6797
1257.343, 228.0547
1258.418, 770.2383
1259.493, 428.6289
1260.567, 299.0547
1261.642, 438.4922
1262.716, 147.9453
1263.790, 287.4062
1264.864, 234.8828
1265.938, 122.3672
1267.011, 252.8711
1268.085, 325.9336
1269.158, 228.5664
1270.231, 214.6172
1271.304, 276.8086
1272.377, 230.9688
1273.450, 279.5430
1274.522, 565.1484
1275.594, 105.7812
1276.666, 547.4219
1277.738, 175.0781
1278.810, 310.7461
1279.882, 17.42969
1280.953, 138.1289
1282.025, 111.0547
1283.096, 254.5586
1284.167, 195.2891
1285.238, 265.0391
1286.308, 419.8008
