##NAMES=Bustamite
##RRUFFID=R040014
##IDEAL CHEMISTRY=CaMn^2+^Si_2_O_6_
##LOCALITY=Broken Hill, New South Wales, Australia
##OWNER=RRUFF
##SOURCE=University of Arizona Mineral Museum
##DESCRIPTION=Orange fragment
##STATUS=The identification of this mineral has been confirmed by X-ray diffraction and chemical analysis
##URL=rruff.info/R040014
##MEASURED CHEMISTRY=(Ca_0.90_Mn_0.10_)_Σ=1_(Mn^2+^_0.78_Fe^2+^_0.19_Fe^3+^_0.02_Mg_0.01_)_Σ=1_(Si_1.98_Fe^3+^_0.02_)_Σ=2_O_6_
##PIN_ID=L00268
##ORIENTATION=Laser parallel to -a* (-1 0 0). Fiducial mark perpendicular to laser is parallel to b [0 1 0]
99.453, 0.000
100.848, 94.672
102.242, 227.151
103.636, 298.715
105.030, 384.617
106.423, 529.518
107.817, 477.260
109.210, 320.274
110.603, 253.354
111.996, 228.751
113.388, 225.428
114.780, 113.393
116.172, 139.862
117.564, 20.247
118.956, 80.177
120.347, 138.415
121.738, 338.435
123.129, 476.525
124.519, 752.874
125.910, 975.103
127.300, 1268.161
128.690, 1470.093
130.080, 1730.137
131.469, 2069.168
132.858, 2396.325
134.248, 2765.719
135.636, 2909.448
137.025, 3092.589
138.413, 2994.209
139.801, 2882.367
141.189, 2583.112
142.577, 2376.320
143.964, 2240.457
145.352, 2160.921
146.739, 2102.152
148.125, 2243.166
149.512, 2476.144
150.898, 2807.895
152.284, 3033.807
153.670, 3129.018
155.056, 3109.317
156.441, 3075.251
157.827, 2708.006
159.212, 2347.165
160.596, 1888.406
161.981, 1494.726
163.365, 1104.118
164.749, 802.576
166.133, 576.097
167.517, 417.679
168.900, 337.337
170.283, 308.029
171.666, 328.750
173.049, 284.502
174.431, 288.288
175.813, 254.106
177.195, 239.957
178.577, 192.750
179.959, 173.750
181.340, 89.691
182.721, 41.657
184.102, 1.665
185.483, 4.738
186.863, 25.877
188.244, 2.086
189.624, 33.360
191.003, 33.697
192.383, 22.094
193.762, 29.549
195.141, 27.057
196.520, 41.614
197.899, 10.784
199.277, 20.141
200.656, 59.461
202.034, 75.228
203.411, 86.003
204.789, 85.231
206.166, 96.432
207.543, 65.608
208.920, 74.762
210.297, 54.889
211.673, 41.997
213.049, 41.097
214.425, 3.193
215.801, 31.272
217.176, 61.683
218.552, 315.670
219.927, 222.192
221.302, 676.650
222.676, 285.639
224.051, 290.627
225.425, 533.597
226.799, 474.363
228.173, 632.065
229.546, 758.460
230.919, 858.414
232.292, 950.338
233.665, 1056.321
235.038, 1176.479
236.410, 1218.031
237.782, 1342.803
239.154, 1429.220
240.526, 1577.639
241.898, 1581.077
243.269, 1665.566
244.640, 1846.146
246.011, 1820.749
247.381, 1866.377
248.752, 1722.046
250.122, 1616.738
251.492, 1566.439
252.861, 1357.154
254.231, 1252.873
255.600, 1071.594
256.969, 959.319
258.338, 792.047
259.707, 703.778
261.075, 648.511
262.443, 531.246
263.811, 456.984
265.179, 427.794
266.546, 498.249
267.914, 407.882
269.281, 454.034
270.647, 435.063
272.014, 445.241
273.380, 441.490
274.747, 562.742
276.113, 589.024
277.478, 611.338
278.844, 677.605
280.209, 727.875
281.574, 773.140
282.939, 748.396
284.304, 741.642
285.668, 725.895
287.032, 710.110
288.396, 787.331
289.760, 737.509
291.123, 789.655
292.487, 848.757
293.850, 843.811
295.212, 953.819
296.575, 1062.788
297.937, 1147.721
299.300, 1349.620
300.662, 1477.490
302.023, 1787.331
303.385, 2011.148
304.746, 2485.940
306.107, 2928.712
307.468, 3505.428
308.829, 4243.109
310.189, 5002.774
311.549, 5900.515
312.909, 6529.178
314.269, 7192.992
315.629, 7520.644
316.988, 7428.089
318.347, 7124.693
319.706, 6386.953
321.065, 5551.310
322.423, 4673.436
323.781, 3849.559
325.139, 3283.634
326.497, 2859.714
327.855, 2415.696
329.212, 2225.703
330.569, 2083.824
331.926, 2001.958
333.283, 1981.472
334.639, 1894.583
335.995, 1879.691
337.351, 1689.724
338.707, 1516.671
340.063, 1424.571
341.418, 1251.474
342.773, 1097.380
344.128, 916.289
345.483, 847.200
346.837, 704.114
348.192, 626.024
349.546, 500.147
350.899, 441.068
352.253, 388.092
353.606, 298.015
354.960, 227.938
356.313, 228.861
357.665, 167.784
359.018, 135.708
360.370, 120.631
361.722, 114.984
363.074, 103.764
364.426, 45.087
365.777, 79.431
367.128, 9.108
368.479, 59.840
369.830, 27.901
371.181, 6.096
372.531, 0.533
373.881, 36.270
375.231, 42.113
376.581, 93.538
377.930, 92.962
379.280, 169.811
380.629, 223.489
381.977, 304.381
383.326, 373.100
384.674, 430.570
386.023, 595.464
387.370, 706.579
388.718, 857.752
390.066, 1095.097
391.413, 1236.935
392.760, 1456.892
394.107, 1485.222
395.454, 1609.307
396.800, 1644.329
398.146, 1747.252
399.492, 1914.127
400.838, 2105.072
402.184, 2309.146
403.529, 2498.240
404.874, 2752.078
406.219, 2639.914
407.564, 2574.746
408.908, 2237.577
410.252, 1982.405
411.596, 1611.229
412.940, 1373.051
414.284, 1012.868
415.627, 911.682
416.970, 673.493
418.313, 549.300
419.656, 438.104
420.999, 364.905
422.341, 301.702
423.683, 190.496
425.025, 202.287
426.367, 149.075
427.708, 38.860
429.049, 102.640
430.390, 3.417
431.731, 55.184
433.072, 43.951
434.412, 44.711
435.752, 56.462
437.092, 58.215
438.432, 56.962
439.772, 77.655
441.111, 95.453
442.450, 96.187
443.789, 109.917
445.127, 78.644
446.466, 69.361
447.804, 75.082
449.142, 69.792
450.480, 150.493
451.817, 158.184
453.155, 247.865
454.492, 278.541
455.829, 388.207
457.166, 482.878
458.502, 553.540
459.838, 628.193
461.175, 639.846
462.510, 658.489
463.846, 557.136
465.181, 425.787
466.517, 367.438
467.852, 257.091
469.186, 231.733
470.521, 165.368
471.855, 61.012
473.190, 76.646
474.523, 24.287
475.857, 26.921
477.191, 35.565
478.524, 1.199
479.857, 11.177
481.190, 2.428
482.523, 17.022
483.855, 19.519
485.187, 33.183
486.519, 33.751
487.851, 59.320
489.183, 54.882
490.514, 25.548
491.845, 27.998
493.176, 31.465
494.507, 8.958
495.837, 38.538
497.168, 58.027
498.498, 79.507
499.828, 126.979
501.157, 155.444
502.487, 134.900
503.816, 270.348
505.145, 235.789
506.474, 391.222
507.802, 494.647
509.131, 641.069
510.459, 700.485
511.787, 907.893
513.115, 1078.296
514.442, 1141.690
515.770, 1107.074
517.097, 1071.456
518.424, 948.830
519.750, 725.194
521.077, 585.547
522.403, 442.899
523.729, 329.250
525.055, 215.489
526.381, 139.864
527.706, 107.316
529.031, 96.291
530.356, 96.612
531.681, 65.343
533.006, 68.560
534.330, 19.996
535.654, 0.549
536.978, 26.100
538.302, 3.321
539.625, 14.264
540.949, 113.124
542.272, 46.501
543.595, 7.831
544.917, 96.854
546.240, 20.610
547.562, 38.601
548.884, 14.798
550.206, 0.022
551.527, 1.863
552.849, 7.727
554.170, 35.616
555.491, 72.453
556.812, 95.510
558.132, 105.552
559.453, 1.418
560.773, 57.589
562.093, 52.582
563.412, 151.559
564.732, 247.524
566.051, 227.475
567.370, 274.414
568.689, 429.339
570.008, 485.251
571.326, 713.151
572.644, 728.037
573.963, 973.909
575.280, 984.768
576.598, 1107.614
577.915, 1067.446
579.233, 995.556
580.550, 884.361
581.866, 800.346
583.183, 668.443
584.499, 538.229
585.815, 472.394
587.131, 354.467
588.447, 383.084
589.763, 271.069
591.078, 232.750
592.393, 193.446
593.708, 147.478
595.022, 177.920
596.337, 206.867
597.651, 250.886
598.965, 232.013
600.279, 226.367
601.593, 287.909
602.906, 273.213
604.219, 319.096
605.532, 311.354
606.845, 267.203
608.158, 297.144
609.470, 277.009
610.782, 285.976
612.094, 308.655
613.406, 353.496
614.718, 383.481
616.029, 431.404
617.340, 493.279
618.651, 553.965
619.962, 598.647
621.272, 710.586
622.582, 791.117
623.892, 967.992
625.202, 1084.777
626.512, 1119.425
627.821, 1359.156
629.131, 1631.814
630.440, 1806.394
631.749, 2235.669
633.057, 2606.693
634.366, 3241.536
635.674, 3917.806
636.982, 4899.261
638.290, 6206.352
639.597, 7673.362
640.905, 9628.399
642.212, 11773.457
643.519, 13548.651
644.825, 15155.963
646.132, 15081.173
647.438, 13970.123
648.744, 12233.822
650.050, 10008.825
651.356, 8111.498
652.662, 6487.150
653.967, 5384.530
655.272, 4279.572
656.577, 3586.741
657.882, 2917.783
659.186, 2403.835
660.490, 1987.971
661.794, 1772.140
663.098, 1399.120
664.402, 1282.431
665.705, 1066.221
667.009, 957.966
668.312, 874.871
669.614, 678.718
670.917, 705.458
672.219, 552.350
673.522, 551.304
674.824, 454.467
676.125, 435.183
677.427, 424.742
678.728, 398.448
680.030, 397.123
681.331, 349.681
682.631, 321.145
683.932, 398.594
685.232, 340.020
686.532, 359.402
687.832, 456.964
689.132, 504.179
690.432, 539.401
691.731, 489.364
693.030, 491.786
694.329, 474.573
695.628, 428.160
696.926, 411.626
698.224, 267.857
699.522, 282.598
700.820, 260.206
702.118, 272.367
703.415, 258.286
704.713, 238.125
706.010, 231.770
707.307, 257.900
708.603, 314.625
709.900, 367.483
711.196, 472.301
712.492, 608.159
713.788, 687.092
715.083, 735.049
716.379, 857.914
717.674, 854.630
718.969, 801.306
720.264, 791.220
721.558, 589.115
722.853, 556.992
724.147, 347.853
725.441, 342.694
726.735, 334.519
728.028, 268.325
729.322, 233.115
730.615, 246.886
731.908, 155.641
733.201, 216.377
734.493, 68.097
735.785, 225.797
737.078, 90.480
738.370, 60.144
739.661, 130.788
740.953, 36.415
742.244, 28.022
743.535, 8.608
744.826, 17.170
746.117, 11.289
747.407, 3.217
748.698, 23.696
749.988, 24.844
751.278, 1.426
752.567, 35.037
753.857, 17.306
755.146, 8.628
756.435, 12.074
757.724, 8.809
759.013, 47.424
760.301, 41.362
761.590, 46.803
762.878, 17.950
764.165, 34.077
765.453, 13.186
766.741, 2.726
768.028, 26.336
769.315, 40.621
770.602, 5.375
771.888, 44.349
773.175, 21.695
774.461, 41.226
775.747, 42.871
777.033, 37.015
778.319, 27.201
779.604, 26.426
780.889, 25.313
782.174, 6.034
783.459, 58.265
784.744, 6.384
786.028, 53.985
787.312, 6.405
788.596, 67.848
789.880, 30.653
791.164, 3.861
792.447, 39.605
793.730, 11.061
795.013, 44.502
796.296, 35.929
797.579, 11.342
798.861, 33.262
800.143, 22.101
801.425, 59.553
802.707, 10.256
803.989, 22.029
805.270, 6.300
806.551, 27.433
807.832, 7.191
809.113, 19.031
810.394, 4.239
811.674, 41.432
812.954, 33.611
814.234, 7.775
815.514, 0.075
816.794, 34.059
818.073, 6.821
819.352, 68.282
820.631, 73.372
821.910, 29.450
823.189, 37.516
824.467, 57.567
825.745, 15.608
827.023, 25.366
828.301, 9.364
829.578, 40.623
830.856, 72.596
832.133, 31.561
833.410, 33.513
834.687, 55.454
835.963, 146.384
837.240, 70.305
838.516, 80.216
839.792, 117.117
841.068, 21.009
842.343, 181.890
843.618, 62.761
844.894, 72.625
846.169, 141.481
847.443, 144.332
848.718, 97.195
849.992, 101.054
851.266, 60.911
852.540, 6.221
853.814, 131.651
855.088, 109.519
856.361, 136.409
857.634, 118.301
858.907, 159.203
860.180, 169.100
861.453, 170.993
862.725, 191.885
863.997, 171.713
865.269, 164.367
866.541, 161.570
867.812, 131.456
869.084, 183.353
870.355, 187.248
871.626, 198.137
872.897, 250.028
874.167, 115.911
875.438, 222.790
876.708, 203.680
877.978, 209.564
879.248, 291.443
880.517, 184.322
881.787, 365.196
883.056, 283.068
884.325, 400.937
885.594, 439.804
886.862, 469.673
888.130, 522.247
889.399, 539.121
890.667, 602.795
891.934, 648.343
893.202, 619.205
894.469, 672.668
895.737, 547.082
897.004, 570.078
898.270, 502.368
899.537, 528.203
900.803, 522.956
902.070, 473.358
903.336, 436.380
904.601, 394.885
905.867, 456.292
907.132, 347.641
908.398, 405.744
909.663, 342.649
910.928, 305.775
912.192, 387.304
913.457, 372.436
914.721, 427.981
915.985, 401.404
917.249, 438.909
918.512, 364.292
919.776, 320.949
921.039, 478.428
922.302, 413.746
923.565, 458.942
924.827, 378.505
926.090, 428.075
927.352, 480.630
928.614, 562.913
929.876, 508.584
931.138, 571.895
932.399, 542.278
933.660, 628.783
934.922, 662.186
936.182, 698.646
937.443, 652.077
938.704, 666.862
939.964, 669.435
941.224, 604.632
942.484, 662.196
943.744, 650.245
945.003, 621.857
946.262, 709.357
947.521, 720.004
948.780, 790.621
950.039, 878.143
951.298, 1021.533
952.556, 1086.113
953.814, 1231.919
955.072, 1373.852
956.330, 1595.453
957.587, 1716.998
958.845, 2216.952
960.102, 2633.171
961.359, 3331.791
962.615, 4066.355
963.872, 4963.084
965.128, 5984.787
966.384, 7906.392
967.640, 10087.948
968.896, 13399.677
970.152, 17481.057
971.407, 21192.945
972.662, 25484.865
973.917, 26986.605
975.172, 25618.389
976.427, 22810.262
977.681, 18841.969
978.935, 15342.601
980.189, 12294.006
981.443, 9745.841
982.697, 8138.055
983.950, 6899.865
985.203, 6001.946
986.456, 5463.950
987.709, 4795.963
988.962, 4608.229
990.214, 4380.248
991.467, 4182.274
992.719, 4130.270
993.971, 4064.338
995.222, 4113.397
996.474, 4057.636
997.725, 4103.681
998.976, 4247.129
1000.227, 4117.180
1001.478, 4076.234
1002.728, 4227.697
1003.978, 3998.399
1005.229, 3918.748
1006.479, 3508.196
1007.728, 3445.267
1008.978, 3286.198
1010.227, 3021.643
1011.476, 2831.722
1012.725, 2710.116
1013.974, 2432.610
1015.223, 2437.734
1016.471, 2240.125
1017.719, 2394.277
1018.967, 2283.464
1020.215, 2313.698
1021.462, 2463.023
1022.710, 2449.620
1023.957, 2569.785
1025.204, 2726.333
1026.451, 2748.845
1027.697, 2952.010
1028.944, 2937.594
1030.190, 2986.979
1031.436, 3189.392
1032.682, 3547.743
1033.928, 4220.271
1035.173, 5003.670
1036.418, 5487.495
1037.663, 6409.862
1038.908, 6615.675
1040.153, 6637.925
1041.398, 6040.942
1042.642, 5218.035
1043.886, 4530.233
1045.130, 3649.805
1046.374, 3067.316
1047.617, 2465.652
1048.860, 2099.810
1050.104, 1855.380
1051.347, 1569.083
1052.589, 1389.917
1053.832, 1241.146
1055.074, 1036.726
1056.316, 886.413
1057.558, 778.261
1058.800, 788.762
1060.042, 619.297
1061.283, 676.747
1062.524, 675.195
1063.765, 649.892
1065.006, 500.689
1066.247, 525.252
1067.487, 601.623
1068.728, 472.366
1069.968, 508.333
1071.208, 497.091
1072.447, 492.805
1073.687, 520.638
1074.926, 511.469
1076.165, 614.023
1077.404, 603.561
1078.643, 642.065
1079.881, 810.434
1081.120, 768.271
1082.358, 957.649
1083.596, 1266.024
1084.834, 1610.891
1086.071, 1534.449
1087.309, 1434.482
1088.546, 1332.229
1089.783, 916.004
1091.020, 661.770
1092.256, 582.574
1093.493, 528.067
1094.729, 407.885
1095.965, 386.786
1097.201, 417.270
1098.436, 326.297
1099.672, 319.080
1100.907, 257.850
1102.142, 262.811
1103.377, 275.489
1104.612, 201.023
1105.846, 302.036
1107.081, 222.531
1108.315, 233.318
1109.549, 275.987
1110.782, 206.494
1112.016, 286.454
1113.249, 170.955
1114.483, 158.718
1115.716, 215.554
1116.948, 165.040
1118.181, 156.519
1119.413, 244.534
1120.646, 400.000
1121.878, 385.242
1123.110, 398.546
1124.341, 356.724
1125.573, 332.243
1126.804, 127.673
1128.035, 132.246
1129.266, 215.668
1130.497, 11.081
1131.727, 153.788
1132.957, 10.181
1134.188, 53.842
1135.418, 250.894
1136.647, 13.257
1137.877, 113.738
1139.106, 198.616
1140.335, 38.991
1141.564, 71.750
1142.793, 72.056
1144.022, 35.349
1145.250, 164.022
1146.479, 46.711
1147.707, 146.574
1148.934, 113.792
1150.162, 77.003
1151.390, 127.385
1152.617, 24.573
1153.844, 2.776
1155.071, 145.340
1156.298, 65.517
1157.524, 9.780
1158.751, 101.125
1159.977, 26.258
1161.203, 4.269
1162.428, 94.243
1163.654, 32.522
1164.879, 91.664
1166.105, 64.931
1167.330, 75.938
1168.555, 56.342
1169.779, 21.722
1171.004, 98.300
1172.228, 8.348
1173.452, 66.756
1174.676, 103.324
1175.900, 5.291
1177.123, 15.049
1178.346, 48.849
1179.570, 13.500
1180.793, 24.250
1182.015, 13.305
1183.238, 19.753
1184.460, 68.340
1185.683, 50.354
1186.905, 100.581
1188.126, 3.982
1189.348, 69.188
1190.569, 118.650
1191.791, 36.005
1193.012, 73.590
1194.233, 96.274
1195.453, 232.270
1196.674, 45.549
1197.894, 22.396
1199.114, 6.115
1200.334, 141.618
1201.554, 68.356
1202.774, 5.421
1203.993, 148.572
1205.212, 10.515
1206.431, 91.816
1207.650, 115.199
1208.869, 46.756
1210.087, 61.017
1211.305, 19.439
1212.524, 95.534
1213.741, 143.228
1214.959, 55.708
1216.177, 17.419
1217.394, 54.301
1218.611, 69.708
1219.828, 42.313
1221.045, 43.706
1222.261, 112.465
1223.478, 117.224
1224.694, 128.997
1225.910, 165.035
1227.126, 57.813
1228.342, 191.098
1229.557, 236.748
1230.772, 78.444
1231.987, 120.548
1233.202, 73.042
1234.417, 154.261
1235.631, 129.594
1236.846, 138.257
1238.060, 136.783
1239.274, 294.831
1240.488, 135.139
1241.701, 115.508
1242.915, 268.583
1244.128, 84.682
1245.341, 143.129
1246.554, 148.035
1247.767, 110.844
1248.979, 182.042
1250.191, 217.149
1251.403, 102.730
1252.615, 237.511
1253.827, 157.483
1255.039, 189.492
1256.250, 227.200
1257.461, 126.571
1258.672, 254.445
1259.883, 172.073
1261.094, 156.542
1262.304, 310.113
1263.514, 254.658
1264.724, 111.523
1265.934, 343.397
1267.144, 165.632
1268.354, 301.517
1269.563, 233.926
1270.772, 226.125
1271.981, 385.765
1273.190, 212.091
1274.398, 279.250
1275.607, 359.517
1276.815, 177.002
1278.023, 350.640
1279.231, 184.570
1280.439, 97.532
1281.646, 353.788
1282.853, 222.636
1284.060, 125.983
1285.267, 243.997
1286.474, 149.795
1287.681, 372.453
1288.887, 302.329
1290.093, 164.192
1291.299, 281.000
1292.505, 245.349
1293.711, 277.059
1294.916, 272.882
1296.121, 200.116
1297.327, 245.719
1298.531, 239.004
1299.736, 149.156
1300.941, 246.654
1302.145, 196.263
1303.349, 180.766
1304.553, 228.371
1305.757, 253.927
1306.961, 258.818
1308.164, 182.066
1309.367, 210.742
1310.570, 144.035
1311.773, 298.874
1312.976, 124.630
1314.178, 232.217
1315.381, 203.495
1316.583, 193.164
1317.785, 224.392
1318.987, 163.573
1320.188, 186.063
1321.390, 361.078
1322.591, 189.251
1323.792, 243.344
1324.993, 211.456
1326.193, 74.336
1327.394, 245.295
1328.594, 106.781
1329.794, 78.676
1330.994, 123.069
1332.194, 57.977
1333.394, 144.072
1334.593, 114.033
1335.792, 3.159
1336.991, 206.275
1338.190, 86.675
1339.389, 68.204
1340.587, 203.863
1341.786, 15.934
1342.984, 92.093
1344.182, 130.011
1345.379, 31.571
1346.577, 184.455
1347.774, 229.341
1348.972, 13.603
1350.169, 131.006
1351.365, 111.918
1352.562, 185.879
1353.759, 255.796
1354.955, 67.437
1356.151, 163.931
1357.347, 44.833
1358.543, 60.669
1359.738, 205.093
1360.934, 156.257
1362.129, 57.587
1363.324, 207.195
1364.519, 53.636
1365.713, 154.797
1366.908, 147.208
1368.102, 136.694
1369.296, 79.092
1370.490, 22.735
1371.684, 104.255
1372.877, 136.170
1374.071, 32.146
1375.264, 23.303
1376.457, 150.653
1377.650, 73.915
1378.843, 172.082
1380.035, 18.414
1381.227, 32.053
1382.419, 243.981
1383.611, 30.152
1384.803, 138.217
1385.995, 203.139
1387.186, 192.102
1388.377, 103.278
1389.568, 259.502
1390.759, 38.664
1391.950, 145.930
1393.140, 162.137
1394.331, 70.685
1395.521, 253.410
1396.711, 177.302
1397.900, 4.112
1399.090, 364.032
1400.279, 34.459
1401.469, 176.214
1402.658, 322.803
1403.847, 12.783
1405.035, 232.871
1406.224, 228.956
1407.412, 146.423
1408.600, 137.920
1409.788, 73.055
1410.976, 121.814
1412.164, 308.837
1413.351, 67.649
1414.538, 160.975
1415.725, 264.576
1416.912, 63.203
1418.099, 334.562
1419.285, 114.117
1420.472, 126.617
1421.658, 304.427
1422.844, 62.175
1424.030, 195.796
1425.215, 225.017
1426.401, 158.124
1427.586, 238.010
1428.771, 324.583
1429.956, 73.378
1431.141, 341.928
1432.325, 164.986
1433.510, 208.570
1434.694, 518.018
1435.878, 212.858
1437.062, 178.460
1438.245, 468.963
1439.429, 296.580
1440.612, 408.776
1441.795, 499.533
1442.978, 397.543
1444.161, 531.168
1445.343, 494.992
1446.526, 470.843
1447.708, 586.934
1448.890, 483.952
1450.072, 574.499
1451.253, 547.068
1452.435, 448.979
1453.616, 452.431
1454.797, 695.323
1455.978, 388.704
1457.159, 651.204
1458.340, 593.185
1459.520, 430.986
1460.700, 643.227
1461.880, 495.688
1463.060, 413.928
1464.240, 535.658
1465.420, 345.115
1466.599, 446.129
1467.778, 445.154
1468.957, 314.526
1470.136, 494.676
1471.315, 484.708
1472.493, 232.712
1473.671, 532.510
1474.849, 293.106
1476.027, 301.106
1477.205, 500.609
1478.383, 90.816
1479.560, 360.305
1480.737, 260.052
1481.914, 279.533
1483.091, 338.700
1484.268, 288.281
1485.444, 68.166
1486.621, 258.443
1487.797, 108.519
1488.973, 88.744
1490.149, 288.898
1491.324, 89.379
1492.500, 129.884
1493.675, 320.385
1494.850, 70.960
1496.025, 71.586
1497.200, 342.372
1498.374, 13.259
1499.548, 103.995
1500.723, 175.176
1501.897, 106.560
1503.071, 187.616
1504.244, 0.609
1505.418, 1.393
1506.591, 303.639
1507.764, 116.168
1508.937, 39.040
1510.110, 239.322
1511.282, 32.705
1512.455, 151.871
1513.627, 200.151
1514.799, 10.380
1515.971, 178.119
1517.143, 179.627
1518.314, 0.677
1519.486, 0.000
##END=



