##NAMES=Bustamite
##RRUFFID=R040014
##IDEAL CHEMISTRY=CaMn^2+^Si_2_O_6_
##LOCALITY=Broken Hill, New South Wales, Australia
##OWNER=RRUFF
##SOURCE=University of Arizona Mineral Museum
##DESCRIPTION=Orange fragment
##STATUS=The identification of this mineral has been confirmed by X-ray diffraction and chemical analysis
##URL=rruff.info/R040014
##MEASURED CHEMISTRY=(Ca_0.90_Mn_0.10_)_Σ=1_(Mn^2+^_0.78_Fe^2+^_0.19_Fe^3+^_0.02_Mg_0.01_)_Σ=1_(Si_1.98_Fe^3+^_0.02_)_Σ=2_O_6_
##PIN_ID=M00115
##ORIENTATION=Laser parallel to (-1 -1 0). Fiducial mark perpendicular to laser is parallel to c [0 0 1]
116.339, 0.000
117.729, 89.795
119.119, 392.187
120.508, 1125.928
121.897, 2087.825
123.286, 3361.223
124.675, 4166.417
126.063, 4476.012
127.452, 3737.480
128.840, 2935.789
130.228, 2077.355
131.615, 1368.893
133.003, 1017.071
134.390, 645.064
135.777, 470.467
137.164, 344.831
138.550, 263.634
139.937, 165.073
141.323, 21.216
142.709, 26.114
144.094, 21.893
145.480, 8.060
146.865, 60.818
148.250, 127.412
149.635, 271.945
151.019, 364.428
152.403, 402.723
153.788, 424.813
155.171, 392.695
156.555, 321.297
157.939, 296.241
159.322, 238.332
160.705, 211.755
162.088, 153.821
163.470, 177.482
164.853, 224.098
166.235, 216.343
167.617, 263.512
168.998, 322.909
170.380, 375.547
171.761, 422.908
173.142, 393.768
174.523, 360.452
175.904, 272.743
177.284, 184.312
178.664, 146.051
180.044, 62.828
181.424, 56.631
182.803, 49.443
184.183, 13.930
185.562, 11.042
186.940, 45.412
188.319, 83.388
189.698, 121.734
191.076, 115.254
192.454, 152.221
193.831, 157.702
195.209, 126.138
196.586, 106.575
197.963, 78.015
199.340, 22.514
200.717, 9.267
202.093, 57.714
203.470, 33.443
204.846, 54.938
206.221, 42.219
207.597, 79.310
208.972, 98.231
210.347, 87.005
211.722, 71.651
213.097, 70.198
214.472, 58.660
215.846, 55.052
217.220, 47.395
218.594, 37.701
219.967, 26.980
221.341, 27.248
222.714, 13.533
224.087, 10.143
225.460, 15.767
226.832, 46.342
228.204, 77.871
229.577, 131.344
230.948, 139.739
232.320, 199.029
233.692, 234.185
235.063, 266.233
236.434, 287.211
237.805, 351.132
239.175, 422.998
240.545, 485.795
241.916, 503.499
243.286, 496.058
244.655, 464.481
246.025, 484.717
247.394, 446.784
248.763, 425.719
250.132, 351.518
251.501, 348.213
252.869, 278.835
254.237, 244.403
255.605, 240.946
256.973, 236.483
258.340, 202.013
259.708, 191.542
261.075, 206.076
262.442, 232.614
263.808, 204.155
265.175, 195.699
266.541, 242.244
267.907, 198.785
269.273, 281.318
270.639, 309.842
272.004, 357.358
273.369, 357.865
274.734, 442.365
276.099, 464.862
277.463, 550.362
278.828, 554.865
280.192, 559.371
281.556, 594.113
282.919, 539.642
284.283, 497.491
285.646, 554.458
287.009, 498.435
288.372, 478.349
289.734, 475.154
291.097, 536.816
292.459, 484.318
293.821, 525.636
295.183, 528.724
296.544, 511.601
297.905, 632.261
299.266, 660.691
300.627, 742.896
301.988, 825.886
303.348, 958.648
304.709, 1084.137
306.069, 1329.341
307.428, 1448.003
308.788, 1739.465
310.147, 2076.851
311.507, 2388.065
312.865, 2666.003
314.224, 3031.650
315.583, 3217.962
316.941, 3251.045
318.299, 3196.954
319.657, 2901.714
321.015, 2660.323
322.372, 2339.753
323.729, 2140.901
325.086, 2016.596
326.443, 1970.535
327.800, 2040.981
329.156, 2096.142
330.512, 2208.868
331.868, 2308.460
333.224, 2346.035
334.579, 2395.661
335.935, 2352.398
337.290, 2243.000
338.645, 2144.639
339.999, 1920.926
341.354, 1815.742
342.708, 1560.095
344.062, 1435.416
345.416, 1226.479
346.769, 1149.374
348.123, 985.759
349.476, 872.942
350.829, 869.695
352.182, 734.422
353.534, 737.530
354.887, 655.609
356.239, 599.122
357.591, 609.781
358.942, 523.204
360.294, 501.604
361.645, 456.572
362.996, 496.117
364.347, 446.516
365.698, 485.691
367.048, 480.978
368.398, 477.289
369.748, 469.256
371.098, 445.749
372.448, 489.281
373.797, 476.182
375.146, 493.563
376.495, 529.759
377.844, 584.332
379.192, 610.000
380.540, 655.907
381.889, 718.866
383.236, 853.035
384.584, 932.920
385.932, 1058.912
387.279, 1147.692
388.626, 1457.340
389.973, 2001.132
391.319, 1895.346
392.666, 2310.096
394.012, 2850.483
395.358, 3629.531
396.704, 4701.832
398.049, 5759.886
399.394, 7395.211
400.740, 9068.783
402.084, 10778.604
403.429, 12418.309
404.774, 13557.950
406.118, 13977.589
407.462, 13417.222
408.806, 12586.852
410.150, 10976.477
411.493, 9206.098
412.836, 7706.579
414.179, 6285.056
415.522, 5086.248
416.865, 4157.304
418.207, 3344.118
419.549, 2825.392
420.891, 2260.295
422.233, 1908.161
423.575, 1593.095
424.916, 1341.148
426.257, 1089.089
427.598, 968.001
428.939, 872.117
430.279, 749.059
431.619, 645.354
432.959, 569.776
434.299, 497.375
435.639, 453.973
436.978, 398.242
438.318, 404.168
439.657, 320.765
440.996, 324.360
442.334, 302.955
443.673, 258.521
445.011, 273.052
446.349, 227.555
447.687, 263.023
449.024, 233.463
450.361, 235.869
451.699, 224.249
453.036, 214.593
454.372, 227.907
455.709, 262.189
457.045, 304.443
458.381, 301.674
459.717, 360.876
461.053, 375.052
462.388, 346.202
463.724, 292.329
465.059, 299.428
466.394, 257.507
467.728, 236.560
469.063, 236.604
470.397, 225.635
471.731, 243.652
473.065, 297.651
474.398, 340.628
475.732, 431.591
477.065, 561.535
478.398, 730.478
479.731, 912.408
481.063, 1162.325
482.396, 1343.233
483.728, 1355.126
485.060, 1174.014
486.391, 1047.891
487.723, 788.758
489.054, 567.627
490.385, 457.494
491.716, 335.360
493.047, 269.228
494.377, 189.097
495.708, 126.971
497.038, 117.844
498.368, 71.714
499.697, 66.579
501.027, 38.441
502.356, 77.305
503.685, 14.171
505.014, 47.041
506.342, 47.917
507.671, 48.800
508.999, 74.697
510.327, 86.609
511.655, 70.530
512.982, 106.454
514.310, 97.381
515.637, 78.311
516.964, 57.241
518.291, 55.170
519.617, 16.099
520.944, 39.028
522.270, 32.958
523.596, 45.103
524.921, 27.176
526.247, 18.234
527.572, 41.278
528.897, 38.317
530.222, 35.350
531.547, 38.368
532.871, 13.367
534.196, 23.338
535.520, 35.290
536.844, 45.229
538.167, 5.164
539.491, 9.923
540.814, 28.967
542.137, 24.150
543.460, 32.715
544.783, 18.578
546.105, 3.437
547.427, 64.710
548.749, 15.865
550.071, 21.021
551.393, 8.177
552.714, 11.669
554.035, 34.475
555.356, 57.616
556.677, 48.754
557.998, 53.887
559.318, 58.016
560.638, 46.139
561.958, 71.255
563.278, 99.366
564.597, 154.471
565.917, 182.571
567.236, 194.665
568.555, 227.754
569.874, 192.838
571.192, 246.915
572.511, 229.988
573.829, 266.056
575.147, 245.121
576.464, 279.182
577.782, 308.240
579.099, 253.294
580.416, 245.346
581.733, 235.396
583.050, 185.442
584.366, 211.486
585.683, 159.526
586.999, 217.956
588.315, 205.054
589.630, 200.246
590.946, 210.312
592.261, 201.333
593.576, 217.475
594.891, 264.555
596.206, 256.108
597.520, 320.168
598.834, 270.159
600.148, 332.431
601.462, 408.810
602.776, 409.861
604.089, 455.619
605.402, 479.318
606.715, 550.142
608.028, 574.140
609.341, 644.346
610.653, 668.707
611.965, 734.863
613.277, 797.409
614.589, 900.635
615.901, 969.214
617.212, 1072.692
618.523, 1180.909
619.834, 1353.806
621.145, 1484.350
622.456, 1696.342
623.766, 1921.968
625.076, 2115.931
626.386, 2559.211
627.696, 2966.782
629.006, 3564.393
630.315, 4249.090
631.624, 5059.103
632.933, 6279.003
634.242, 7621.860
635.551, 9642.583
636.859, 11952.323
638.167, 14871.875
639.475, 18832.178
640.783, 23300.986
642.090, 27221.881
643.398, 31340.680
644.705, 32949.480
646.012, 32930.148
647.318, 30059.613
648.625, 25919.016
649.931, 21728.756
651.237, 17508.365
652.543, 14638.910
653.849, 11448.391
655.155, 9597.121
656.460, 7846.656
657.765, 6440.169
659.070, 5608.276
660.375, 4579.831
661.679, 3945.119
662.984, 3527.543
664.288, 2929.969
665.592, 2621.397
666.895, 2301.932
668.199, 2110.521
669.502, 1919.033
670.805, 1673.774
672.108, 1522.394
673.411, 1364.931
674.713, 1361.378
676.016, 1249.813
677.318, 1200.083
678.620, 1225.446
679.921, 1171.781
681.223, 1266.636
682.524, 1287.589
683.825, 1346.001
685.126, 1432.082
686.427, 1512.344
687.727, 1595.787
689.028, 1529.034
690.328, 1388.646
691.628, 1292.767
692.927, 1097.188
694.227, 943.977
695.526, 748.917
696.825, 610.116
698.124, 508.889
699.423, 414.139
700.721, 332.670
702.020, 285.970
703.318, 253.940
704.616, 233.345
705.913, 233.541
707.211, 217.754
708.508, 195.909
709.805, 191.495
711.102, 174.752
712.399, 152.101
713.695, 168.410
714.992, 135.736
716.288, 191.075
717.584, 145.361
718.879, 158.748
720.175, 202.185
721.470, 138.615
722.765, 149.039
724.060, 145.458
725.355, 130.870
726.649, 131.277
727.944, 133.677
729.238, 112.072
730.532, 98.461
731.825, 83.845
733.119, 84.486
734.412, 119.594
735.705, 93.961
736.998, 82.322
738.291, 85.677
739.584, 41.027
740.876, 79.372
742.168, 4.711
743.460, 24.041
744.752, 11.365
746.043, 28.681
747.334, 49.993
748.626, 12.299
749.916, 19.599
751.207, 0.893
752.498, 20.177
753.788, 37.455
755.078, 5.729
756.368, 2.994
757.658, 14.251
758.947, 20.498
760.237, 3.267
761.526, 22.048
762.815, 8.851
764.104, 28.668
765.392, 1.491
766.680, 12.359
767.969, 2.225
769.257, 14.102
770.544, 35.994
771.832, 1.914
773.119, 14.844
774.406, 9.657
775.693, 20.750
776.980, 7.272
778.267, 22.712
779.553, 7.286
780.839, 49.722
782.125, 38.763
783.411, 23.831
784.697, 8.918
785.982, 2.983
787.267, 13.122
788.552, 11.761
789.837, 59.360
791.122, 11.518
792.406, 8.687
793.690, 21.866
794.974, 11.938
796.258, 32.260
797.542, 8.520
798.825, 30.297
800.108, 29.927
801.391, 10.171
802.674, 9.425
803.957, 15.687
805.239, 13.960
806.522, 30.244
807.804, 12.546
809.085, 15.144
810.367, 14.831
811.649, 5.517
812.930, 13.797
814.211, 11.882
815.492, 36.560
816.772, 31.238
818.053, 52.917
819.333, 24.595
820.613, 73.273
821.893, 0.951
823.173, 22.629
824.452, 3.694
825.732, 15.982
827.011, 63.656
828.290, 56.331
829.568, 15.006
830.847, 72.681
832.125, 72.358
833.403, 23.036
834.681, 48.714
835.959, 26.405
837.236, 120.104
838.514, 48.809
839.791, 75.524
841.068, 91.251
842.345, 51.988
843.621, 62.736
844.898, 98.490
846.174, 78.250
847.450, 123.021
848.726, 114.804
850.001, 121.592
851.277, 115.382
852.552, 136.181
853.827, 129.982
855.102, 139.794
856.376, 160.612
857.651, 168.434
858.925, 180.258
860.199, 235.085
861.473, 219.914
862.746, 262.746
864.020, 271.584
865.293, 311.424
866.566, 355.267
867.839, 395.118
869.112, 507.972
870.384, 600.835
871.656, 669.708
872.928, 828.582
874.200, 983.458
875.472, 1131.337
876.744, 1256.218
878.015, 1427.102
879.286, 1641.988
880.557, 1951.877
881.828, 2121.769
883.098, 2381.664
884.369, 2600.563
885.639, 2909.466
886.909, 3079.375
888.178, 3247.295
889.448, 3359.219
890.717, 3359.153
891.987, 3253.101
893.256, 3042.054
894.524, 2778.020
895.793, 2412.596
897.061, 2180.505
898.330, 1936.325
899.598, 1764.270
900.865, 1499.269
902.133, 1416.158
903.401, 1219.108
904.668, 1212.583
905.935, 1068.547
907.202, 964.589
908.468, 954.356
909.735, 982.015
911.001, 879.999
912.267, 881.276
913.533, 896.614
914.799, 923.827
916.064, 884.865
917.330, 866.694
918.595, 887.367
919.860, 913.245
921.124, 911.738
922.389, 975.552
923.653, 968.488
924.918, 1028.578
926.182, 990.402
927.445, 1025.558
928.709, 1045.067
929.972, 1064.359
931.236, 1120.561
932.499, 1148.660
933.761, 1159.443
935.024, 1227.938
936.286, 1245.395
937.549, 1293.766
938.811, 1330.904
940.073, 1366.025
941.334, 1396.261
942.596, 1445.636
943.857, 1478.994
945.118, 1576.544
946.379, 1667.352
947.640, 1720.650
948.900, 1891.874
950.161, 2004.187
951.421, 2269.511
952.681, 2560.980
953.940, 2868.646
955.200, 3299.383
956.459, 3743.783
957.719, 4376.314
958.978, 5130.921
960.236, 6098.599
961.495, 7467.011
962.753, 9145.431
964.012, 11193.863
965.270, 14381.594
966.527, 18060.049
967.785, 23738.518
969.043, 30656.996
970.300, 37765.488
971.557, 47153.969
972.814, 52372.484
974.071, 54440.988
975.327, 51099.508
976.583, 44417.969
977.840, 37206.504
979.095, 29545.057
980.351, 23293.617
981.607, 18492.191
982.862, 14820.771
984.117, 11869.358
985.372, 10027.956
986.627, 8236.562
987.882, 7233.177
989.136, 6223.802
990.390, 5498.438
991.644, 4998.080
992.898, 4444.731
994.152, 4075.392
995.405, 3715.062
996.659, 3614.741
997.912, 3419.429
999.165, 3214.126
1000.417, 3232.831
1001.670, 3196.545
1002.922, 3069.268
1004.174, 3134.999
1005.426, 2887.739
1006.678, 2857.487
1007.930, 2596.244
1009.181, 2330.010
1010.432, 2154.784
1011.683, 1923.567
1012.934, 1705.358
1014.185, 1553.158
1015.435, 1431.965
1016.685, 1349.782
1017.935, 1235.998
1019.185, 1160.831
1020.435, 1130.361
1021.684, 1051.391
1022.934, 1026.249
1024.183, 982.115
1025.432, 1022.989
1026.680, 971.872
1027.929, 949.893
1029.177, 916.790
1030.425, 899.696
1031.673, 851.657
1032.921, 950.708
1034.169, 907.698
1035.416, 976.074
1036.663, 1049.570
1037.911, 1031.989
1039.157, 1101.415
1040.404, 1068.949
1041.650, 998.491
1042.897, 890.729
1044.143, 815.762
1045.389, 690.768
1046.634, 633.011
1047.880, 536.931
1049.125, 477.956
1050.371, 427.522
1051.615, 398.599
1052.860, 418.684
1054.105, 347.835
1055.349, 355.941
1056.593, 306.906
1057.837, 290.190
1059.081, 292.318
1060.325, 241.410
1061.568, 253.587
1062.812, 228.739
1064.055, 229.930
1065.298, 241.122
1066.540, 255.314
1067.783, 208.546
1069.025, 254.787
1070.267, 200.415
1071.509, 279.669
1072.751, 239.882
1073.993, 230.561
1075.234, 231.812
1076.475, 267.094
1077.716, 240.431
1078.957, 304.782
1080.198, 260.780
1081.438, 282.613
1082.679, 291.938
1083.919, 270.338
1085.159, 304.890
1086.398, 286.660
1087.638, 265.689
1088.877, 259.337
1090.116, 262.150
1091.355, 214.218
1092.594, 201.608
1093.833, 161.247
1095.071, 187.464
1096.309, 104.880
1097.547, 147.652
1098.785, 166.085
1100.023, 107.520
1101.260, 76.237
1102.498, 107.723
1103.735, 95.181
1104.972, 148.771
1106.208, 114.342
1107.445, 134.265
1108.681, 150.686
1109.918, 108.312
1111.154, 104.059
1112.389, 147.265
1113.625, 123.445
1114.860, 135.782
1116.096, 104.412
1117.331, 122.343
1118.566, 134.944
1119.800, 97.476
1121.035, 141.062
1122.269, 84.652
1123.503, 97.341
1124.737, 112.899
1125.971, 113.440
1127.205, 89.028
1128.438, 93.571
1129.671, 100.115
1130.904, 115.662
1132.137, 57.208
1133.370, 137.756
1134.602, 67.305
1135.834, 82.854
1137.066, 64.404
1138.298, 106.954
1139.530, 57.505
1140.762, 80.133
1141.993, 81.684
1143.224, 33.235
1144.455, 79.786
1145.686, 34.338
1146.917, 95.889
1148.147, 49.441
1149.377, 63.992
1150.607, 64.543
1151.837, 60.093
1153.067, 66.642
1154.296, 49.191
1155.526, 26.740
1156.755, 26.287
1157.984, 8.834
1159.213, 12.855
1160.441, 44.924
1161.670, 25.468
1162.898, 35.010
1164.126, 44.551
1165.354, 30.910
1166.581, 4.615
1167.809, 34.861
1169.036, 26.354
1170.263, 22.139
1171.490, 24.631
1172.717, 27.121
1173.943, 1.609
1175.170, 4.905
1176.396, 5.576
1177.622, 9.153
1178.848, 1.371
1180.073, 3.897
1181.299, 1.428
1182.524, 9.917
1183.749, 11.450
1184.974, 25.846
1186.199, 9.292
1187.423, 26.671
1188.648, 42.241
1189.872, 4.606
1191.096, 33.166
1192.320, 9.190
1193.543, 3.382
1194.767, 14.035
1195.990, 15.298
1197.213, 39.373
1198.436, 47.069
1199.659, 6.204
1200.881, 0.819
1202.104, 7.128
1203.326, 27.612
1204.548, 32.264
1205.770, 8.950
1206.991, 29.251
1208.213, 4.586
1209.434, 12.075
1210.655, 8.112
1211.876, 12.297
1213.096, 15.474
1214.317, 10.779
1215.537, 10.971
1216.757, 16.867
1217.977, 14.324
1219.197, 27.462
1220.417, 0.328
1221.636, 25.795
1222.855, 25.012
1224.074, 12.300
1225.293, 12.388
1226.512, 3.284
1227.731, 0.209
1228.949, 26.854
1230.167, 14.007
1231.385, 7.059
1232.603, 36.136
1233.820, 39.732
1235.038, 6.280
1236.255, 3.274
1237.472, 0.681
1238.689, 50.289
1239.906, 9.254
1241.122, 1.792
1242.338, 67.153
1243.555, 7.082
1244.771, 68.003
1245.986, 44.919
1247.202, 24.051
1248.417, 35.835
1249.633, 44.713
1250.848, 22.227
1252.063, 27.080
1253.277, 8.968
1254.492, 0.124
1255.706, 23.702
1256.920, 16.520
1258.134, 4.330
1259.348, 5.129
1260.562, 2.968
1261.775, 28.746
1262.988, 12.686
1264.201, 37.447
1265.414, 68.201
1266.627, 42.948
1267.839, 42.687
1269.052, 26.417
1270.264, 52.140
1271.476, 91.854
1272.688, 46.561
1273.899, 92.260
1275.111, 85.950
1276.322, 58.807
1277.533, 97.495
1278.744, 67.171
1279.955, 89.828
1281.165, 118.477
1282.376, 74.118
1283.586, 84.750
1284.796, 84.372
1286.006, 43.984
1287.215, 96.596
1288.425, 92.188
1289.634, 81.773
1290.843, 96.403
1292.052, 69.971
1293.261, 80.529
1294.469, 82.077
1295.678, 99.617
1296.886, 90.140
1298.094, 110.655
1299.302, 161.161
1300.509, 100.659
1301.717, 91.148
1302.924, 115.629
1304.131, 154.099
1305.338, 127.559
1306.545, 137.011
1307.752, 80.455
1308.958, 105.889
1310.164, 85.315
1311.370, 78.277
1312.576, 86.752
1313.782, 79.465
1314.987, 77.679
1316.193, 82.065
1317.398, 115.419
1318.603, 78.764
1319.807, 107.100
1321.012, 118.298
1322.216, 44.609
1323.421, 91.909
1324.625, 78.154
1325.829, 90.309
1327.032, 57.525
1328.236, 66.353
1329.439, 36.062
1330.642, 38.844
1331.845, 30.639
1333.048, 60.285
1334.251, 22.943
1335.453, 47.903
1336.656, 62.067
1337.858, 43.258
1339.060, 61.212
1340.261, 88.489
1341.463, 63.661
1342.664, 79.290
1343.866, 56.409
1345.067, 11.520
1346.267, 45.563
1347.468, 57.654
1348.669, 28.885
1349.869, 120.797
1351.069, 31.865
1352.269, 7.029
1353.469, 23.994
1354.668, 54.051
1355.868, 52.071
1357.067, 61.912
1358.266, 24.136
1359.465, 47.143
1360.664, 58.199
1361.862, 40.821
1363.061, 59.876
1364.259, 33.927
1365.457, 60.525
1366.655, 34.558
1367.852, 13.570
1369.050, 80.537
1370.247, 12.448
1371.444, 75.772
1372.641, 89.271
1373.838, 28.284
1375.035, 77.244
1376.231, 43.109
1377.427, 29.058
1378.623, 46.878
1379.819, 71.460
1381.015, 34.042
1382.211, 57.962
1383.406, 71.049
1384.601, 49.538
1385.796, 60.471
1386.991, 99.392
1388.185, 47.597
1389.380, 60.588
1390.574, 17.338
1391.768, 86.116
1392.962, 42.787
1394.156, 36.108
1395.350, 72.450
1396.543, 33.452
1397.736, 26.263
1398.929, 69.267
1400.122, 54.224
1401.315, 66.216
1402.507, 88.192
1403.700, 10.848
1404.892, 55.095
1406.084, 10.930
1407.276, 54.841
1408.467, 131.734
1409.659, 46.610
1410.850, 50.470
1412.041, 85.313
1413.232, 63.140
1414.423, 42.950
1415.614, 82.743
1416.804, 57.518
1417.994, 90.277
1419.184, 9.035
1420.374, 38.805
1421.564, 39.566
1422.753, 80.311
1423.943, 74.906
1425.132, 58.620
1426.321, 70.256
1427.510, 42.715
1428.698, 93.951
1429.887, 38.265
1431.075, 68.909
1432.263, 91.531
1433.451, 27.273
1434.639, 81.059
1435.827, 85.228
1437.014, 60.841
1438.201, 93.518
1439.388, 50.213
1440.575, 64.998
1441.762, 131.549
1442.949, 97.273
1444.135, 77.968
1445.321, 135.601
1446.507, 47.849
1447.693, 147.174
1448.879, 59.939
1450.064, 101.516
1451.250, 88.019
1452.435, 90.797
1453.620, 66.482
1454.805, 86.290
1455.989, 110.115
1457.174, 97.474
1458.358, 139.523
1459.542, 78.572
1460.726, 92.256
1461.910, 61.861
1463.093, 84.616
1464.277, 162.879
1465.460, 69.157
1466.643, 140.822
1467.826, 105.475
1469.009, 152.119
1470.191, 141.753
1471.373, 99.379
1472.556, 84.477
1473.738, 106.046
1474.919, 150.637
1476.101, 84.225
1477.283, 146.797
1478.464, 57.398
1479.645, 166.817
1480.826, 101.411
1482.007, 65.027
1483.187, 122.666
1484.368, 111.300
1485.548, 61.936
1486.728, 63.584
1487.908, 103.231
1489.088, 45.873
1490.268, 95.501
1491.447, 99.115
1492.626, 89.938
1493.805, 124.770
1494.984, 44.718
1496.163, 39.695
1497.341, 74.696
1498.520, 34.739
1499.698, 52.834
1500.876, 83.974
1502.054, 21.171
1503.232, 92.433
1504.409, 22.762
1505.586, 62.170
1506.763, 100.670
1507.940, 56.286
1509.117, 46.020
1510.294, 88.874
1511.470, 8.134
1512.647, 79.016
1513.823, 124.579
1514.999, 62.167
1516.174, 100.716
1517.350, 43.474
1518.526, 50.316
1519.701, 68.632
1520.876, 38.017
1522.051, 0.054
1523.226, 0.000
##END=



