##NAMES=Bustamite
##RRUFFID=R040014
##IDEAL CHEMISTRY=CaMn^2+^Si_2_O_6_
##LOCALITY=Broken Hill, New South Wales, Australia
##OWNER=RRUFF
##SOURCE=University of Arizona Mineral Museum
##DESCRIPTION=Orange fragment
##STATUS=The identification of this mineral has been confirmed by X-ray diffraction and chemical analysis
##URL=rruff.info/R040014
##MEASURED CHEMISTRY=(Ca_0.90_Mn_0.10_)_Σ=1_(Mn^2+^_0.78_Fe^2+^_0.19_Fe^3+^_0.02_Mg_0.01_)_Σ=1_(Si_1.98_Fe^3+^_0.02_)_Σ=2_O_6_
##PIN_ID=L00281
##ORIENTATION=Laser parallel to (0 1 1). Fiducial mark perpendicular to laser is parallel to a [1 0 0]
49.365, 0.000
50.765, 7.674
52.166, 81.359
53.566, 86.888
54.966, 148.104
56.365, 174.514
57.765, 220.568
59.164, 279.789
60.563, 299.237
61.962, 353.602
63.360, 373.767
64.758, 384.915
66.157, 362.582
67.554, 348.956
68.952, 318.151
70.349, 303.212
71.747, 246.926
73.144, 241.478
74.540, 216.441
75.937, 157.524
77.333, 99.698
78.729, 88.944
80.125, 27.245
81.521, 28.592
82.916, 5.975
84.311, 5.396
85.706, 3.093
87.101, 47.407
88.496, 21.534
89.890, 13.261
91.284, 2.347
92.678, 48.065
94.071, 65.725
95.465, 147.314
96.858, 209.842
98.251, 301.314
99.644, 391.465
101.036, 495.106
102.428, 590.422
103.820, 681.689
105.212, 786.912
106.604, 806.095
107.995, 967.243
109.387, 1173.361
110.777, 1273.406
112.168, 1197.568
113.559, 1513.563
114.949, 1017.589
116.339, 927.597
117.729, 1037.591
119.119, 1142.959
120.508, 1436.729
121.897, 2030.171
123.286, 2780.983
124.675, 3611.108
126.063, 4195.701
127.452, 4448.099
128.840, 4181.128
130.228, 3772.591
131.615, 3494.256
133.003, 3345.249
134.390, 3249.162
135.777, 3211.782
137.164, 3269.612
138.550, 3099.345
139.937, 3002.033
141.323, 2782.761
142.709, 2670.512
144.094, 2623.277
145.480, 2563.050
146.865, 2737.823
148.250, 2902.582
149.635, 3050.310
151.019, 3289.996
152.403, 3453.590
153.788, 3427.128
155.171, 3266.656
156.555, 2995.194
157.939, 2654.749
159.322, 2256.321
160.705, 1895.909
162.088, 1486.513
163.470, 1241.132
164.853, 939.767
166.235, 811.417
167.617, 600.081
168.998, 514.759
170.380, 474.450
171.761, 471.155
173.142, 453.871
174.523, 436.597
175.904, 423.333
177.284, 387.078
178.664, 367.832
180.044, 288.595
181.424, 280.367
182.803, 208.148
184.183, 152.939
185.562, 140.739
186.940, 108.547
188.319, 94.365
189.698, 86.192
191.076, 67.756
192.454, 30.905
193.831, 43.813
195.209, 24.759
196.586, 6.727
197.963, 16.709
199.340, 16.302
200.717, 19.694
202.093, 6.696
203.470, 3.297
204.846, 18.288
206.221, 25.280
207.597, 26.274
208.972, 24.272
210.347, 33.274
211.722, 43.294
213.097, 2.321
214.472, 18.342
215.846, 10.683
217.220, 14.924
218.594, 25.568
219.967, 34.807
221.341, 29.040
222.714, 75.126
224.087, 94.056
225.460, 87.814
226.832, 124.399
228.204, 179.839
229.577, 211.124
230.948, 277.233
232.320, 320.151
233.692, 335.872
235.063, 409.281
236.434, 465.539
237.805, 488.754
239.175, 522.963
240.545, 533.088
241.916, 626.988
243.286, 650.593
244.655, 685.137
246.025, 681.986
247.394, 705.904
248.763, 708.297
250.132, 702.732
251.501, 669.755
252.869, 635.062
254.237, 560.053
255.605, 564.611
256.973, 532.177
258.340, 448.611
259.708, 422.207
261.075, 399.261
262.442, 344.556
263.808, 356.853
265.175, 343.151
266.541, 318.451
267.907, 341.754
269.273, 319.058
270.639, 315.366
272.004, 288.676
273.369, 318.989
274.734, 346.305
276.099, 349.624
277.463, 348.946
278.828, 363.272
280.192, 390.601
281.556, 398.933
282.919, 446.269
284.283, 474.607
285.646, 460.945
287.009, 536.281
288.372, 558.612
289.734, 619.933
291.097, 673.250
292.459, 747.555
293.821, 824.837
295.183, 897.093
296.544, 1043.326
297.905, 1131.550
299.266, 1339.764
300.627, 1432.979
301.988, 1681.198
303.348, 1953.423
304.709, 2305.652
306.069, 2771.886
307.428, 3305.125
308.788, 3916.369
310.147, 4542.618
311.507, 5238.871
312.865, 5890.129
314.224, 6435.393
315.583, 6691.661
316.941, 6764.935
318.299, 6262.213
319.657, 5574.500
321.015, 4862.791
322.372, 4091.088
323.729, 3426.391
325.086, 2999.699
326.443, 2712.013
327.800, 2617.337
329.156, 2567.662
330.512, 2601.339
331.868, 2707.469
333.224, 2876.886
334.579, 2920.594
335.935, 2861.967
337.290, 2767.631
338.645, 2619.775
339.999, 2415.231
341.354, 2155.706
342.708, 1961.131
344.062, 1718.510
345.416, 1601.894
346.769, 1366.282
348.123, 1254.674
349.476, 1038.071
350.829, 984.417
352.182, 865.714
353.534, 754.984
354.887, 716.187
356.239, 604.245
357.591, 561.364
358.942, 480.412
360.294, 430.363
361.645, 409.393
362.996, 370.743
364.347, 357.801
365.698, 329.045
367.048, 320.658
368.398, 292.976
369.748, 283.997
371.098, 293.991
372.448, 243.588
373.797, 289.870
375.146, 289.397
376.495, 317.483
377.844, 307.474
379.192, 357.281
380.540, 374.590
381.889, 391.135
383.236, 487.217
384.584, 545.747
385.932, 585.941
387.279, 687.691
388.626, 775.765
389.973, 971.376
391.319, 1088.196
392.666, 1312.002
394.012, 1597.852
395.358, 1904.932
396.704, 2459.931
398.049, 3137.445
399.394, 3942.925
400.740, 4918.401
402.084, 5985.848
403.429, 6909.261
404.774, 7557.676
406.118, 7797.095
407.462, 7427.519
408.806, 6841.949
410.150, 5917.387
411.493, 5004.834
412.836, 4019.290
414.179, 3239.756
415.522, 2538.245
416.865, 2050.749
418.207, 1656.266
419.549, 1325.790
420.891, 1145.319
422.233, 879.853
423.575, 760.387
424.916, 615.923
426.257, 502.460
427.598, 418.997
428.939, 377.535
430.279, 310.074
431.619, 268.614
432.959, 226.155
434.299, 176.698
435.639, 160.684
436.978, 162.790
438.318, 137.337
439.657, 138.885
440.996, 145.433
442.334, 123.985
443.673, 110.537
445.011, 122.090
446.349, 77.645
447.687, 92.201
449.024, 100.756
450.361, 85.313
451.699, 128.874
453.036, 121.435
454.372, 104.004
455.709, 155.573
457.045, 237.144
458.381, 321.715
459.717, 346.292
461.053, 376.874
462.388, 425.465
463.724, 436.060
465.059, 373.659
466.394, 299.258
467.728, 257.863
469.063, 203.468
470.397, 159.477
471.731, 118.701
473.065, 87.321
474.398, 67.151
475.732, 59.570
477.065, 52.212
478.398, 43.854
479.731, 60.501
481.063, 37.151
482.396, 32.809
483.728, 52.479
485.060, 51.153
486.391, 50.827
487.723, 30.503
489.054, 39.183
490.385, 5.132
491.716, 30.451
493.047, 18.787
494.377, 23.134
495.708, 17.492
497.038, 21.861
498.368, 29.243
499.697, 11.358
501.027, 18.043
502.356, 21.544
503.685, 52.129
505.014, 68.713
506.342, 104.295
507.671, 114.883
508.999, 172.470
510.327, 222.054
511.655, 280.638
512.982, 369.222
514.310, 372.808
515.637, 417.394
516.964, 388.979
518.291, 355.564
519.617, 265.148
520.944, 235.732
522.270, 174.316
523.596, 135.902
524.921, 100.488
526.247, 64.074
527.572, 50.660
528.897, 21.248
530.222, 17.841
531.547, 4.562
532.871, 23.966
534.196, 37.379
535.520, 8.194
536.844, 36.235
538.167, 17.319
539.491, 30.127
540.814, 18.592
542.137, 25.068
543.460, 16.561
544.783, 8.069
546.105, 15.588
547.427, 5.122
548.749, 4.335
550.071, 0.006
551.393, 0.313
552.714, 0.332
554.035, 3.902
555.356, 2.482
556.677, 13.929
557.998, 22.337
559.318, 23.740
560.638, 31.140
561.958, 42.932
563.278, 52.931
564.597, 75.321
565.917, 105.709
567.236, 137.093
568.555, 195.474
569.874, 223.852
571.192, 279.226
572.511, 371.597
573.829, 428.964
575.147, 523.327
576.464, 555.687
577.782, 541.043
579.099, 501.395
580.416, 502.743
581.733, 453.087
583.050, 365.427
584.366, 344.763
585.683, 286.095
586.999, 257.423
588.315, 240.803
589.630, 231.292
590.946, 224.868
592.261, 206.000
593.576, 220.987
594.891, 196.289
596.206, 175.588
597.520, 212.020
598.834, 224.350
600.148, 210.203
601.462, 242.506
602.776, 266.781
604.089, 303.544
605.402, 288.876
606.715, 340.138
608.028, 367.433
609.341, 360.684
610.653, 444.958
611.965, 444.737
613.277, 498.190
614.589, 532.423
615.901, 549.656
617.212, 690.302
618.523, 716.209
619.834, 762.638
621.145, 926.513
622.456, 949.341
623.766, 1123.538
625.076, 1293.026
626.386, 1452.211
627.696, 1758.235
629.006, 2065.836
630.315, 2449.005
631.624, 2921.637
632.933, 3592.729
634.242, 4457.348
635.551, 5467.625
636.859, 6816.023
638.167, 8639.508
639.475, 10792.700
640.783, 13364.728
642.090, 16264.707
643.398, 19384.037
644.705, 21093.389
646.012, 22003.805
647.318, 21013.877
648.625, 18432.711
649.931, 15529.989
651.237, 12888.088
652.543, 10266.032
653.849, 8364.175
655.155, 6844.908
656.460, 5626.161
657.765, 4602.101
659.070, 3832.020
660.375, 3265.988
661.679, 2823.999
662.984, 2400.003
664.288, 2081.553
665.592, 1747.544
666.895, 1562.528
668.199, 1422.506
669.502, 1242.865
670.805, 1095.597
672.108, 961.555
673.411, 920.507
674.713, 817.452
676.016, 735.390
677.318, 697.322
678.620, 631.247
679.921, 630.166
681.223, 602.078
682.524, 547.983
683.825, 554.881
685.126, 563.773
686.427, 522.593
687.727, 482.536
689.028, 494.864
690.328, 455.183
691.628, 392.421
692.927, 386.149
694.227, 353.889
695.526, 270.786
696.825, 292.667
698.124, 227.993
699.423, 220.895
700.721, 160.314
702.020, 180.250
703.318, 161.699
704.616, 165.790
705.913, 119.385
707.211, 149.762
708.508, 159.144
709.805, 144.475
711.102, 197.568
712.399, 135.737
713.695, 198.387
714.992, 220.067
716.288, 228.746
717.584, 215.451
718.879, 224.188
720.175, 224.918
721.470, 197.644
722.765, 158.365
724.060, 147.080
725.355, 120.790
726.649, 118.495
727.944, 116.195
729.238, 98.890
730.532, 107.579
731.825, 83.264
733.119, 114.944
734.412, 106.619
735.705, 83.289
736.998, 69.955
738.291, 46.615
739.584, 51.271
740.876, 36.922
742.168, 53.569
743.460, 16.211
744.752, 10.847
746.043, 26.477
747.334, 14.103
748.626, 0.277
749.916, 39.332
751.207, 39.937
752.498, 10.538
753.788, 15.133
755.078, 0.723
756.368, 18.303
757.658, 39.880
758.947, 1.452
760.237, 12.015
761.526, 60.573
762.815, 13.127
764.104, 7.323
765.392, 14.214
766.680, 16.253
767.969, 5.262
769.257, 35.771
770.544, 17.277
771.832, 15.221
773.119, 3.736
774.406, 28.261
775.693, 3.808
776.980, 3.365
778.267, 19.068
779.553, 14.502
780.839, 23.914
782.125, 23.674
783.411, 17.281
784.697, 14.097
785.982, 2.529
787.267, 10.162
788.552, 50.806
789.837, 2.517
791.122, 16.165
792.406, 1.860
793.690, 29.562
794.974, 43.285
796.258, 11.035
797.542, 0.795
798.825, 1.560
800.108, 19.331
801.391, 14.115
802.674, 0.089
803.957, 16.291
805.239, 0.500
806.522, 3.289
807.804, 1.077
809.085, 10.137
810.367, 4.355
811.649, 2.580
812.930, 36.805
814.211, 18.033
815.492, 7.260
816.772, 36.486
818.053, 27.289
819.333, 2.922
820.613, 25.131
821.893, 5.339
823.173, 9.453
824.452, 16.250
825.732, 20.944
827.011, 40.139
828.290, 21.332
829.568, 18.526
830.847, 13.719
832.125, 18.912
833.403, 6.104
834.681, 23.297
835.959, 3.490
837.236, 27.682
838.514, 26.875
839.791, 28.068
841.068, 6.739
842.345, 7.454
843.621, 9.351
844.898, 3.851
846.174, 18.064
847.450, 15.721
848.726, 7.499
850.001, 11.278
851.277, 20.951
852.552, 18.776
853.827, 14.433
855.102, 24.687
856.376, 33.945
857.651, 18.212
858.925, 50.482
860.199, 23.756
861.473, 32.032
862.746, 37.313
864.020, 49.597
865.293, 49.886
866.566, 70.179
867.839, 95.475
869.112, 66.773
870.384, 138.073
871.656, 107.377
872.928, 141.683
874.200, 199.991
875.472, 215.301
876.744, 256.612
878.015, 316.927
879.286, 373.243
880.557, 410.561
881.828, 513.889
883.098, 579.220
884.369, 646.559
885.639, 707.902
886.909, 793.248
888.178, 906.597
889.448, 970.949
890.717, 1007.303
891.987, 1003.660
893.256, 941.021
894.524, 921.387
895.793, 835.760
897.061, 762.081
898.330, 686.300
899.598, 673.690
900.865, 573.010
902.133, 512.739
903.401, 511.153
904.668, 425.571
905.935, 458.854
907.202, 402.239
908.468, 406.104
909.735, 398.520
911.001, 412.962
912.267, 426.917
913.533, 407.305
914.799, 419.763
916.064, 428.387
917.330, 423.655
918.595, 457.099
919.860, 498.042
921.124, 524.309
922.389, 508.796
923.653, 569.287
924.918, 497.370
926.182, 546.192
927.445, 550.500
928.709, 603.361
929.972, 635.282
931.236, 665.836
932.499, 649.101
933.761, 680.672
935.024, 703.407
936.286, 745.571
937.549, 738.175
938.811, 787.314
940.073, 818.995
941.334, 806.147
942.596, 831.642
943.857, 824.015
945.118, 869.303
946.379, 934.882
947.640, 975.624
948.900, 1051.417
950.161, 1131.867
951.421, 1305.297
952.681, 1439.661
953.940, 1682.379
955.200, 1867.981
956.459, 2248.696
957.719, 2470.312
958.978, 2980.796
960.236, 3520.432
961.495, 4318.187
962.753, 5227.951
964.012, 6520.725
965.270, 8145.505
966.527, 10522.294
967.785, 13711.087
969.043, 17639.887
970.300, 22997.146
971.557, 28395.959
972.814, 33744.785
974.071, 35653.617
975.327, 36012.066
976.583, 32810.148
977.840, 27139.016
979.095, 22347.879
980.351, 17356.754
981.607, 13865.637
982.862, 10804.526
984.117, 8873.425
985.372, 7188.329
986.627, 5933.241
987.882, 5160.162
989.136, 4436.090
990.390, 3864.027
991.644, 3452.971
992.898, 3043.779
994.152, 2763.739
995.405, 2550.484
996.659, 2352.459
997.912, 2273.441
999.165, 2189.963
1000.417, 2214.816
1001.670, 2251.559
1002.922, 2268.571
1004.174, 2226.592
1005.426, 2221.619
1006.678, 2126.654
1007.930, 2023.696
1009.181, 1859.746
1010.432, 1722.802
1011.683, 1646.867
1012.934, 1554.939
1014.185, 1449.018
1015.435, 1475.104
1016.685, 1330.198
1017.935, 1346.299
1019.185, 1354.407
1020.435, 1327.524
1021.684, 1424.029
1022.934, 1459.159
1024.183, 1538.295
1025.432, 1635.440
1026.680, 1722.591
1027.929, 1748.750
1029.177, 1777.916
1030.425, 1912.089
1031.673, 2053.689
1032.921, 2165.175
1034.169, 2502.545
1035.416, 2924.906
1036.663, 3382.252
1037.911, 3966.468
1039.157, 4247.710
1040.404, 4388.939
1041.650, 4160.175
1042.897, 3706.437
1044.143, 3259.275
1045.389, 2673.346
1046.634, 2227.634
1047.880, 1895.102
1049.125, 1532.383
1050.371, 1284.412
1051.615, 1120.051
1052.860, 961.798
1054.105, 827.106
1055.349, 726.444
1056.593, 703.073
1057.837, 581.871
1059.081, 567.525
1060.325, 551.877
1061.568, 505.226
1062.812, 441.524
1064.055, 457.910
1065.298, 434.296
1066.540, 421.690
1067.783, 420.077
1069.025, 419.293
1070.267, 414.698
1071.509, 429.111
1072.751, 446.416
1073.993, 464.084
1075.234, 526.681
1076.475, 556.888
1077.716, 601.348
1078.957, 615.167
1080.198, 672.709
1081.438, 699.745
1082.679, 785.212
1083.919, 800.292
1085.159, 781.374
1086.398, 772.323
1087.638, 731.008
1088.877, 682.539
1090.116, 635.094
1091.355, 566.655
1092.594, 551.219
1093.833, 437.794
1095.071, 434.388
1096.309, 397.016
1097.547, 351.790
1098.785, 329.320
1100.023, 308.971
1101.260, 282.799
1102.498, 244.516
1103.735, 244.317
1104.972, 225.976
1106.208, 229.810
1107.445, 199.097
1108.681, 181.066
1109.918, 166.734
1111.154, 135.317
1112.389, 149.141
1113.625, 178.817
1114.860, 134.496
1116.096, 171.182
1117.331, 166.867
1118.566, 134.554
1119.800, 139.250
1121.035, 171.950
1122.269, 212.436
1123.503, 220.140
1124.737, 169.849
1125.971, 129.151
1127.205, 164.868
1128.438, 108.587
1129.671, 129.629
1130.904, 94.352
1132.137, 128.077
1133.370, 111.806
1134.602, 70.537
1135.834, 79.321
1137.066, 63.057
1138.298, 127.045
1139.530, 86.784
1140.762, 89.524
1141.993, 84.267
1143.224, 79.010
1144.455, 76.790
1145.686, 71.000
1146.917, 52.286
1148.147, 61.037
1149.377, 88.791
1150.607, 85.547
1151.837, 67.303
1153.067, 86.060
1154.296, 80.818
1155.526, 97.577
1156.755, 51.335
1157.984, 60.095
1159.213, 74.854
1160.441, 55.614
1161.670, 63.374
1162.898, 51.135
1164.126, 19.925
1165.354, 53.685
1166.581, 19.446
1167.809, 1.206
1169.036, 13.034
1170.263, 1.722
1171.490, 24.477
1172.717, 9.232
1173.943, 28.987
1175.170, 3.800
1176.396, 6.588
1177.622, 29.341
1178.848, 27.906
1180.073, 9.168
1181.299, 23.381
1182.524, 5.659
1183.749, 4.909
1184.974, 7.779
1186.199, 0.505
1187.423, 15.247
1188.648, 12.960
1189.872, 0.318
1191.096, 11.581
1192.320, 14.878
1193.543, 0.185
1194.767, 36.291
1195.990, 1.380
1197.213, 12.471
1198.436, 21.793
1199.659, 7.147
1200.881, 10.492
1202.104, 1.130
1203.326, 4.126
1204.548, 6.428
1205.770, 3.726
1206.991, 6.923
1208.213, 11.541
1209.434, 12.844
1210.655, 5.760
1211.876, 7.417
1213.096, 8.016
1214.317, 19.758
1215.537, 9.643
1216.757, 22.940
1217.977, 19.521
1219.197, 9.892
1220.417, 15.324
1221.636, 2.305
1222.855, 23.088
1224.074, 32.487
1225.293, 47.900
1226.512, 6.606
1227.731, 2.882
1228.949, 9.376
1230.167, 2.907
1231.385, 18.447
1232.603, 15.958
1233.820, 5.469
1235.038, 34.906
1236.255, 19.329
1237.472, 43.009
1238.689, 42.421
1239.906, 29.829
1241.122, 22.226
1242.338, 17.614
1243.555, 7.997
1244.771, 21.625
1245.986, 20.744
1247.202, 9.907
1248.417, 13.610
1249.633, 9.946
1250.848, 27.277
1252.063, 9.604
1253.277, 0.109
1254.492, 10.516
1255.706, 44.782
1256.920, 3.925
1258.134, 12.359
1259.348, 57.638
1260.562, 45.911
1261.775, 32.193
1262.988, 35.457
1264.201, 34.728
1265.414, 47.982
1266.627, 58.231
1267.839, 0.475
1269.052, 38.803
1270.264, 72.033
1271.476, 3.350
1272.688, 46.568
1273.899, 49.780
1275.111, 10.006
1276.322, 123.206
1277.533, 41.431
1278.744, 75.129
1279.955, 72.311
1281.165, 27.929
1282.376, 70.151
1283.586, 14.315
1284.796, 44.472
1286.006, 86.624
1287.215, 68.769
1288.425, 87.907
1289.634, 34.035
1290.843, 62.158
1292.052, 70.274
1293.261, 69.383
1294.469, 98.486
1295.678, 115.582
1296.886, 99.672
1298.094, 105.755
1299.302, 81.834
1300.509, 69.904
1301.717, 68.935
1302.924, 123.024
1304.131, 67.074
1305.338, 80.117
1306.545, 92.155
1307.752, 64.187
1308.958, 39.212
1310.164, 105.229
1311.370, 85.241
1312.576, 92.247
1313.782, 75.246
1314.987, 85.857
1316.193, 91.845
1317.398, 65.825
1318.603, 78.799
1319.807, 33.767
1321.012, 39.730
1322.216, 95.686
1323.421, 62.637
1324.625, 72.163
1325.829, 34.802
1327.032, 74.559
1328.236, 53.325
1329.439, 47.107
1330.642, 47.015
1331.845, 37.572
1333.048, 61.780
1334.251, 44.664
1335.453, 40.522
1336.656, 69.805
1337.858, 59.855
1339.060, 19.690
1340.261, 54.347
1341.463, 8.191
1342.664, 39.290
1343.866, 59.779
1345.067, 77.165
1346.267, 44.990
1347.468, 22.786
1348.669, 27.293
1349.869, 25.633
1351.069, 34.120
1352.269, 55.628
1353.469, 76.421
1354.668, 71.269
1355.868, 29.031
1357.067, 68.793
1358.266, 19.550
1359.465, 41.320
1360.664, 62.288
1361.862, 60.050
1363.061, 39.808
1364.259, 48.675
1365.457, 24.182
1366.655, 26.178
1367.852, 27.725
1369.050, 21.411
1370.247, 32.757
1371.444, 30.445
1372.641, 29.571
1373.838, 43.267
1375.035, 36.346
1376.231, 21.455
1377.427, 63.661
1378.623, 27.172
1379.819, 29.709
1381.015, 4.670
1382.211, 51.635
1383.406, 54.542
1384.601, 43.340
1385.796, 34.976
1386.991, 82.625
1388.185, 60.307
1389.380, 25.103
1390.574, 38.955
1391.768, 4.610
1392.962, 32.412
1394.156, 61.208
1395.350, 29.993
1396.543, 3.877
1397.736, 11.958
1398.929, 43.692
1400.122, 75.040
1401.315, 37.744
1402.507, 42.372
1403.700, 48.743
1404.892, 22.399
1406.084, 26.043
1407.276, 22.633
1408.467, 35.252
1409.659, 64.858
1410.850, 13.451
1412.041, 15.031
1413.232, 42.598
1414.423, 8.152
1415.614, 28.693
1416.804, 67.180
1417.994, 19.694
1419.184, 44.197
1420.374, 16.688
1421.564, 3.917
1422.753, 41.496
1423.943, 3.046
1425.132, 11.344
1426.321, 53.807
1427.510, 38.201
1428.698, 22.624
1429.887, 42.010
1431.075, 37.699
1432.263, 70.811
1433.451, 58.223
1434.639, 66.670
1435.827, 77.815
1437.014, 55.062
1438.201, 29.474
1439.388, 81.794
1440.575, 30.940
1441.762, 19.321
1442.949, 66.688
1444.135, 25.943
1445.321, 76.157
1446.507, 100.405
1447.693, 33.771
1448.879, 115.240
1450.064, 69.655
1451.250, 45.122
1452.435, 91.076
1453.620, 70.566
1454.805, 69.085
1455.989, 118.591
1457.174, 36.759
1458.358, 100.297
1459.542, 51.409
1460.726, 65.794
1461.910, 83.328
1463.093, 73.857
1464.277, 84.350
1465.460, 98.838
1466.643, 44.223
1467.826, 77.615
1469.009, 60.865
1470.191, 65.297
1471.373, 60.692
1472.556, 72.706
1473.738, 23.696
1474.919, 65.103
1476.101, 69.505
1477.283, 29.926
1478.464, 86.354
1479.645, 19.791
1480.826, 43.230
1482.007, 71.669
1483.187, 60.120
1484.368, 55.582
1485.548, 38.047
1486.728, 27.510
1487.908, 61.988
1489.088, 54.460
1490.268, 37.937
1491.447, 94.426
1492.626, 28.910
1493.805, 9.613
1494.984, 72.865
1496.163, 30.352
1497.341, 20.877
1498.520, 57.522
1499.698, 56.188
1500.876, 40.873
1502.054, 9.581
1503.232, 56.314
1504.409, 85.076
1505.586, 29.871
1506.763, 24.705
1507.940, 42.124
1509.117, 25.360
1510.294, 5.514
1511.470, 37.527
