##NAMES=Bustamite
##RRUFFID=R040014
##IDEAL CHEMISTRY=CaMn^2+^Si_2_O_6_
##LOCALITY=Broken Hill, New South Wales, Australia
##OWNER=RRUFF
##SOURCE=University of Arizona Mineral Museum
##DESCRIPTION=Orange fragment
##STATUS=The identification of this mineral has been confirmed by X-ray diffraction and chemical analysis
##URL=rruff.info/R040014
##MEASURED CHEMISTRY=(Ca_0.90_Mn_0.10_)_Σ=1_(Mn^2+^_0.78_Fe^2+^_0.19_Fe^3+^_0.02_Mg_0.01_)_Σ=1_(Si_1.98_Fe^3+^_0.02_)_Σ=2_O_6_
##PIN_ID=M00370
##ORIENTATION=Laser parallel to b* (0 1 0). Fiducial mark perpendicular to laser is parallel to c [0 0 1]
92.678, 0.000
94.071, 8.580
95.465, 143.966
96.858, 415.605
98.251, 753.084
99.644, 1235.021
101.036, 1598.980
102.428, 1861.787
103.820, 2205.930
105.212, 2507.310
106.604, 2528.382
107.995, 2396.696
109.387, 2567.177
110.777, 2417.902
112.168, 2658.311
113.559, 2106.712
114.949, 1634.680
116.339, 1179.854
117.729, 1051.546
119.119, 726.721
120.508, 678.213
121.897, 631.061
123.286, 711.862
124.675, 762.912
126.063, 824.296
127.452, 792.227
128.840, 750.889
130.228, 787.428
131.615, 838.968
133.003, 891.614
134.390, 959.458
135.777, 997.581
137.164, 1043.996
138.550, 1145.482
139.937, 1211.747
141.323, 946.360
142.709, 939.422
144.094, 893.371
145.480, 837.980
146.865, 825.255
148.250, 904.792
149.635, 961.669
151.019, 1044.353
152.403, 1203.435
153.788, 1234.198
155.171, 1385.328
156.555, 1297.008
157.939, 1218.795
159.322, 1243.674
160.705, 1058.648
162.088, 922.735
163.470, 733.938
164.853, 572.199
166.235, 489.879
167.617, 328.792
168.998, 339.125
170.380, 273.481
171.761, 203.861
173.142, 277.262
174.523, 200.683
175.904, 232.125
177.284, 169.134
178.664, 126.108
180.044, 37.925
181.424, 19.835
182.803, 17.117
184.183, 76.932
185.562, 9.625
186.940, 59.217
188.319, 52.718
189.698, 4.128
191.076, 37.433
192.454, 44.614
193.831, 15.697
195.209, 39.709
196.586, 25.667
197.963, 6.423
199.340, 128.433
200.717, 25.220
202.093, 59.947
203.470, 116.611
204.846, 44.276
206.221, 89.962
207.597, 129.671
208.972, 91.402
210.347, 108.154
211.722, 28.927
213.097, 19.281
214.472, 17.470
215.846, 44.640
217.220, 78.793
218.594, 115.928
219.967, 230.035
221.341, 273.047
222.714, 288.948
224.087, 486.736
225.460, 582.596
226.832, 763.586
228.204, 801.849
229.577, 935.662
230.948, 1106.033
232.320, 1286.795
233.692, 1397.871
235.063, 1548.993
236.434, 1633.741
237.805, 1708.521
239.175, 1949.310
240.545, 1978.123
241.916, 2035.951
243.286, 2117.792
244.655, 1979.647
246.025, 1937.507
247.394, 1792.372
248.763, 1606.234
250.132, 1441.096
251.501, 1246.956
252.869, 1094.814
254.237, 941.670
255.605, 790.523
256.973, 656.375
258.340, 519.944
259.708, 542.999
261.075, 447.908
262.442, 375.228
263.808, 427.101
265.175, 380.534
266.541, 367.617
267.907, 398.813
269.273, 518.158
270.639, 513.671
272.004, 582.234
273.369, 609.165
274.734, 846.271
276.099, 887.748
277.463, 1025.234
278.828, 1113.664
280.192, 1170.828
281.556, 1196.067
282.919, 1180.123
284.283, 1051.415
285.646, 1128.940
287.009, 1062.418
288.372, 1014.315
289.734, 1035.997
291.097, 996.284
292.459, 1022.437
293.821, 1076.457
295.183, 1079.669
296.544, 1110.500
297.905, 1118.152
299.266, 1291.778
300.627, 1425.213
301.988, 1637.664
303.348, 1872.012
304.709, 2206.097
306.069, 2597.307
307.428, 3104.500
308.788, 3644.148
310.147, 4277.109
311.507, 4889.463
312.865, 5444.454
314.224, 6130.723
315.583, 6486.212
316.941, 6681.412
318.299, 6426.590
319.657, 5891.766
321.015, 5346.941
322.372, 4741.115
323.729, 4050.289
325.086, 3390.461
326.443, 3007.632
327.800, 2619.798
329.156, 2233.963
330.512, 2077.124
331.868, 1845.282
333.224, 1708.437
334.579, 1624.588
335.935, 1469.744
337.290, 1363.898
338.645, 1135.105
339.999, 1039.239
341.354, 996.369
342.708, 770.494
344.062, 761.347
345.416, 571.657
346.769, 491.907
348.123, 466.420
349.476, 356.170
350.829, 340.817
352.182, 258.880
353.534, 224.997
354.887, 173.025
356.239, 146.601
357.591, 147.986
358.942, 117.224
360.294, 103.157
361.645, 84.336
362.996, 73.605
364.347, 34.336
365.698, 43.869
367.048, 59.824
368.398, 18.300
369.748, 31.938
371.098, 110.996
372.448, 12.544
373.797, 104.130
375.146, 35.488
376.495, 166.197
377.844, 185.866
379.192, 293.382
380.540, 312.384
381.889, 363.525
383.236, 483.570
384.584, 650.207
385.932, 786.294
387.279, 907.810
388.626, 1229.051
389.973, 1454.006
391.319, 1589.072
392.666, 1665.218
394.012, 1842.408
395.358, 1935.235
396.704, 1972.125
398.049, 1943.161
399.394, 2069.791
400.740, 2011.409
402.084, 2055.020
403.429, 2110.624
404.774, 2196.220
406.118, 2116.808
407.462, 2000.389
408.806, 1781.962
410.150, 1493.527
411.493, 1246.084
412.836, 1070.633
414.179, 835.174
415.522, 675.707
416.865, 558.031
418.207, 386.747
419.549, 364.255
420.891, 292.753
422.233, 188.238
423.575, 146.707
424.916, 59.157
426.257, 9.584
427.598, 94.985
428.939, 67.632
430.279, 75.684
431.619, 7.024
432.959, 41.233
434.299, 4.467
435.639, 16.329
436.978, 55.833
438.318, 46.977
439.657, 53.106
440.996, 108.209
442.334, 78.308
443.673, 107.382
445.011, 34.432
446.349, 4.457
447.687, 2.453
449.024, 22.562
450.361, 20.620
451.699, 15.708
453.036, 14.834
454.372, 4.001
455.709, 2.183
457.045, 7.603
458.381, 18.600
459.717, 15.099
461.053, 32.810
462.388, 21.500
463.724, 11.166
465.059, 27.193
466.394, 15.622
467.728, 17.974
469.063, 11.408
470.397, 33.865
471.731, 43.362
473.065, 58.104
474.398, 0.552
475.732, 86.988
477.065, 154.410
478.398, 201.841
479.731, 401.272
481.063, 477.691
482.396, 640.119
483.728, 595.543
485.060, 511.962
486.391, 512.369
487.723, 340.764
489.054, 264.161
490.385, 272.549
491.716, 200.931
493.047, 173.299
494.377, 130.654
495.708, 115.011
497.038, 114.366
498.368, 100.708
499.697, 168.045
501.027, 145.380
502.356, 258.702
503.685, 308.009
505.014, 402.319
506.342, 548.621
507.671, 705.922
508.999, 839.238
510.327, 1055.567
511.655, 1182.908
512.982, 1310.256
514.310, 1372.612
515.637, 1495.957
516.964, 1383.216
518.291, 1229.488
519.617, 1081.650
520.944, 778.765
522.270, 685.790
523.596, 555.822
524.921, 412.396
526.247, 309.216
527.572, 218.294
528.897, 155.852
530.222, 106.792
531.547, 158.236
532.871, 43.942
534.196, 109.454
535.520, 18.309
536.844, 34.797
538.167, 22.318
539.491, 59.129
540.814, 29.562
542.137, 49.976
543.460, 21.626
544.783, 34.741
546.105, 3.909
547.427, 6.417
548.749, 58.725
550.071, 12.983
551.393, 13.280
552.714, 6.525
554.035, 75.751
555.356, 56.961
556.677, 20.155
557.998, 115.330
559.318, 179.491
560.638, 125.636
561.958, 118.767
563.278, 264.883
564.597, 244.985
565.917, 302.071
567.236, 427.143
568.555, 458.200
569.874, 626.241
571.192, 673.267
572.511, 914.279
573.829, 935.275
575.147, 1072.256
576.464, 1102.222
577.782, 1083.173
579.099, 969.108
580.416, 845.029
581.733, 784.934
583.050, 678.824
584.366, 620.491
585.683, 447.062
586.999, 479.767
588.315, 385.629
589.630, 326.633
590.946, 328.465
592.261, 285.629
593.576, 223.009
594.891, 234.899
596.206, 226.324
597.520, 325.260
598.834, 292.840
600.148, 313.060
601.462, 402.803
602.776, 337.530
604.089, 362.047
605.402, 411.312
606.715, 554.597
608.028, 487.206
609.341, 530.944
610.653, 559.847
611.965, 503.825
613.277, 524.278
614.589, 720.085
615.901, 754.047
617.212, 805.384
618.523, 785.693
619.834, 1040.139
621.145, 1079.144
622.456, 1284.203
623.766, 1377.975
625.076, 1505.096
626.386, 1872.878
627.696, 2107.833
629.006, 2465.558
630.315, 3092.653
631.624, 3640.747
632.933, 4494.319
634.242, 5296.662
635.551, 6763.957
636.859, 8369.312
638.167, 10371.854
639.475, 12948.857
640.783, 16173.484
642.090, 18687.371
643.398, 21849.797
644.705, 22972.209
646.012, 23167.951
647.318, 21881.016
648.625, 19264.537
649.931, 16266.933
651.237, 13279.077
652.543, 11014.595
653.849, 8679.500
655.155, 7301.694
656.460, 5855.703
657.765, 4790.368
659.070, 4002.565
660.375, 3284.604
661.679, 2822.909
662.984, 2435.093
664.288, 1970.084
665.592, 1805.061
666.895, 1566.667
668.199, 1306.612
669.502, 1220.783
670.805, 1000.037
672.108, 921.572
673.411, 789.465
674.713, 837.329
676.016, 723.178
677.318, 639.032
678.620, 623.849
679.921, 576.651
681.223, 608.623
682.524, 608.520
683.825, 645.591
685.126, 662.336
686.427, 730.834
687.727, 847.520
689.028, 912.219
690.328, 934.618
691.628, 955.327
692.927, 898.354
694.227, 747.323
695.526, 736.050
696.825, 694.549
698.124, 578.779
699.423, 541.114
700.721, 473.791
702.020, 484.989
703.318, 477.731
704.616, 479.720
705.913, 409.967
707.211, 392.074
708.508, 433.067
709.805, 526.987
711.102, 573.236
712.399, 739.390
713.695, 761.373
714.992, 924.738
716.288, 999.093
717.584, 1035.431
718.879, 1075.753
720.175, 973.060
721.470, 853.351
722.765, 691.625
724.060, 688.884
725.355, 620.127
726.649, 440.355
727.944, 412.567
729.238, 329.765
730.532, 291.946
731.825, 277.112
733.119, 243.263
734.412, 262.399
735.705, 186.519
736.998, 238.625
738.291, 149.715
739.584, 107.791
740.876, 42.853
742.168, 8.900
743.460, 81.923
744.752, 28.953
746.043, 34.965
747.334, 13.967
748.626, 41.949
749.916, 109.917
751.207, 3.121
752.498, 24.186
753.788, 75.711
755.078, 51.407
756.368, 53.422
757.658, 82.236
758.947, 55.036
760.237, 35.821
761.526, 49.406
762.815, 51.318
764.104, 15.962
765.392, 77.733
766.680, 70.423
767.969, 5.894
769.257, 56.765
770.544, 92.413
771.832, 28.051
773.119, 23.676
774.406, 21.287
775.693, 112.885
776.980, 62.472
778.267, 74.952
779.553, 13.572
780.839, 2.912
782.125, 15.412
783.411, 54.065
784.697, 18.459
785.982, 111.000
787.267, 15.551
788.552, 56.871
789.837, 64.719
791.122, 34.364
792.406, 29.953
793.690, 61.744
794.974, 24.493
796.258, 13.275
797.542, 39.916
798.825, 40.095
800.108, 44.739
801.391, 2.615
802.674, 10.512
803.957, 24.569
805.239, 111.637
806.522, 44.306
807.804, 35.289
809.085, 51.693
810.367, 23.337
811.649, 33.395
812.930, 39.515
814.211, 105.413
815.492, 45.699
816.772, 28.151
818.053, 121.989
819.333, 93.818
820.613, 53.362
821.893, 69.417
823.173, 6.186
824.452, 34.056
825.732, 6.328
827.011, 13.615
828.290, 75.079
829.568, 105.765
830.847, 51.441
832.125, 63.110
833.403, 66.771
834.681, 8.424
835.959, 22.068
837.236, 2.298
838.514, 82.325
839.791, 31.058
841.068, 70.534
842.345, 47.119
843.621, 84.698
844.898, 29.274
846.174, 63.843
847.450, 74.414
848.726, 68.990
850.001, 6.567
851.277, 90.140
852.552, 25.708
853.827, 52.271
855.102, 104.835
856.376, 87.396
857.651, 29.956
858.925, 93.513
860.199, 112.064
861.473, 127.618
862.746, 40.170
864.020, 92.719
865.293, 181.263
866.566, 60.805
867.839, 152.343
869.112, 280.878
870.384, 223.407
871.656, 192.941
872.928, 289.472
874.200, 398.997
875.472, 279.521
876.744, 549.040
878.015, 387.563
879.286, 506.083
880.557, 593.600
881.828, 572.128
883.098, 550.654
884.369, 797.177
885.639, 792.697
886.909, 889.215
888.178, 904.730
889.448, 974.244
890.717, 1088.755
891.987, 1013.266
893.256, 1092.717
894.524, 902.913
895.793, 915.463
897.061, 880.830
898.330, 887.975
899.598, 800.157
900.865, 721.966
902.133, 679.186
903.401, 620.693
904.668, 592.796
905.935, 615.276
907.202, 565.657
908.468, 495.616
909.735, 507.096
911.001, 554.332
912.267, 554.648
913.533, 627.888
914.799, 665.053
916.064, 664.368
917.330, 607.666
918.595, 573.100
919.860, 746.514
921.124, 664.502
922.389, 755.877
923.653, 732.406
924.918, 882.671
926.182, 828.925
927.445, 985.173
928.709, 859.766
929.972, 1068.197
931.236, 1047.010
932.499, 1079.194
933.761, 1103.569
935.024, 1114.184
936.286, 1161.405
937.549, 1214.080
938.811, 1233.698
940.073, 1241.395
941.334, 1250.870
942.596, 1165.526
943.857, 1132.112
945.118, 1201.502
946.379, 1186.423
947.640, 1273.710
948.900, 1401.729
950.161, 1461.197
951.421, 1530.678
952.681, 1696.811
953.940, 1895.617
955.200, 2173.962
956.459, 2493.418
957.719, 2883.117
958.978, 3349.434
960.236, 3876.348
961.495, 4845.963
962.753, 5933.697
964.012, 7110.834
965.270, 9250.432
966.527, 11810.185
967.785, 15766.664
969.043, 19966.254
970.300, 24836.041
971.557, 31025.830
972.814, 35311.980
974.071, 37101.797
975.327, 36101.379
976.583, 31798.855
977.840, 27388.047
979.095, 22596.883
980.351, 18176.729
981.607, 15066.592
982.862, 12436.446
984.117, 10326.331
985.372, 9326.226
986.627, 8075.957
987.882, 7765.760
989.136, 7265.380
990.390, 6975.341
991.644, 7043.546
992.898, 6843.545
994.152, 6923.565
995.405, 6804.355
996.659, 6974.342
997.912, 7104.393
999.165, 6864.449
1000.417, 6794.516
1001.670, 6534.561
1002.922, 6184.646
1004.174, 5864.717
1005.426, 5154.832
1006.678, 4704.960
1007.930, 4215.094
1009.181, 3905.237
1010.432, 3485.396
1011.683, 3275.562
1012.934, 2855.915
1014.185, 2846.107
1015.435, 2636.309
1016.685, 2496.521
1017.935, 2346.780
1019.185, 2237.023
1020.435, 2387.278
1021.684, 2249.223
1022.934, 2339.493
1024.183, 2439.785
1025.432, 2320.361
1026.680, 2590.671
1027.929, 2582.302
1029.177, 2622.636
1030.425, 2712.981
1031.673, 2976.696
1032.921, 3587.060
1034.169, 4147.490
1035.416, 4497.889
1036.663, 5448.301
1037.911, 5858.741
1039.157, 6149.273
1040.404, 5989.771
1041.650, 5510.282
1042.897, 4810.762
1044.143, 4044.904
1045.389, 3416.163
1046.634, 2886.682
1047.880, 2359.482
1049.125, 2060.020
1050.371, 1730.755
1051.615, 1472.197
1052.860, 1283.199
1054.105, 1054.083
1055.349, 1016.416
1056.593, 827.067
1057.837, 698.285
1059.081, 698.973
1060.325, 619.846
1061.568, 582.098
1062.812, 572.808
1064.055, 543.592
1065.298, 524.720
1066.540, 535.540
1067.783, 470.954
1069.025, 468.474
1070.267, 379.260
1071.509, 412.024
1072.751, 412.832
1073.993, 323.766
1075.234, 514.876
1076.475, 355.703
1077.716, 306.542
1078.957, 497.596
1080.198, 318.795
1081.438, 359.817
1082.679, 320.924
1083.919, 292.181
1085.159, 313.162
1086.398, 234.090
1087.638, 315.034
1088.877, 377.085
1090.116, 228.045
1091.355, 289.255
1092.594, 260.248
1093.833, 261.803
1095.071, 162.945
1096.309, 53.984
1097.547, 155.385
1098.785, 226.759
1100.023, 127.828
1101.260, 69.178
1102.498, 190.341
1103.735, 51.768
1104.972, 232.956
1106.208, 134.069
1107.445, 145.186
1108.681, 126.321
1109.918, 67.942
1111.154, 199.365
1112.389, 130.530
1113.625, 111.709
1114.860, 194.252
1116.096, 205.440
1117.331, 57.021
1118.566, 219.664
1119.800, 91.007
1121.035, 142.683
1122.269, 154.264
1123.503, 145.809
1124.737, 237.152
1125.971, 98.395
1127.205, 39.932
1128.438, 141.573
1129.671, 102.836
1130.904, 105.804
1132.137, 147.067
1133.370, 38.733
1134.602, 223.098
1135.834, 64.359
1137.066, 55.665
1138.298, 72.067
1139.530, 13.343
1140.762, 148.605
1141.993, 53.294
1143.224, 35.116
1144.455, 206.470
1145.686, 17.721
1146.917, 179.022
1148.147, 100.327
1149.377, 8.071
1150.607, 113.365
1151.837, 87.376
1153.067, 108.604
1154.296, 110.366
1155.526, 123.564
1156.755, 52.951
1157.984, 145.601
1159.213, 36.808
1160.441, 11.348
1161.670, 11.063
1162.898, 32.730
1164.126, 124.278
1165.354, 1.395
1166.581, 19.863
1167.809, 41.688
1169.036, 47.008
1170.263, 14.241
1171.490, 107.827
1172.717, 11.059
1173.943, 100.599
1175.170, 36.680
1176.396, 84.729
1177.622, 66.577
1178.848, 72.221
1180.073, 109.204
1181.299, 14.993
1182.524, 36.084
1183.749, 67.720
1184.974, 34.486
1186.199, 15.619
1187.423, 27.541
1188.648, 28.672
1189.872, 139.844
1191.096, 67.154
1192.320, 16.224
1193.543, 65.101
1194.767, 43.725
1195.990, 87.346
1197.213, 13.666
1198.436, 15.266
1199.659, 4.484
1200.881, 1.664
1202.104, 27.586
1203.326, 83.281
1204.548, 5.433
1205.770, 115.257
1206.991, 25.987
1208.213, 22.674
1209.434, 107.959
1210.655, 60.370
1211.876, 0.977
1213.096, 61.564
1214.317, 92.573
1215.537, 16.772
1216.757, 133.758
1217.977, 25.132
1219.197, 85.354
1220.417, 56.181
1221.636, 16.710
1222.855, 87.362
1224.074, 88.053
1225.293, 38.572
1226.512, 11.866
1227.731, 62.703
1228.949, 45.814
1230.167, 13.525
1231.385, 84.491
1232.603, 104.799
1233.820, 115.457
1235.038, 4.183
1236.255, 176.064
1237.472, 46.890
1238.689, 227.107
1239.906, 7.303
1241.122, 77.481
1242.338, 127.649
1243.555, 27.806
1244.771, 38.626
1245.986, 118.756
1247.202, 49.079
1248.417, 99.185
1249.633, 39.277
1250.848, 99.350
1252.063, 189.409
1253.277, 149.449
1254.492, 139.833
1255.706, 19.842
1256.920, 60.008
1258.134, 129.986
1259.348, 139.942
1260.562, 1.068
1261.775, 140.973
1262.988, 40.838
1264.201, 1.035
1265.414, 100.821
1266.627, 30.593
1267.839, 50.596
1269.052, 60.314
1270.264, 110.212
1271.476, 149.895
1272.688, 69.552
1273.899, 52.291
1275.111, 211.898
1276.322, 1.470
1277.533, 161.261
1278.744, 50.771
1279.955, 19.743
1281.165, 169.706
1282.376, 139.127
1283.586, 51.209
1284.796, 148.385
1286.006, 32.345
1287.215, 22.939
1288.425, 76.237
1289.634, 74.631
1290.843, 233.760
1292.052, 142.830
1293.261, 141.846
1294.469, 70.838
1295.678, 109.709
1296.886, 11.352
1298.094, 327.543
1299.302, 46.415
1300.509, 165.261
1301.717, 124.081
1302.924, 12.877
1304.131, 161.642
1305.338, 40.381
1306.545, 18.896
1307.752, 57.556
1308.958, 76.186
1310.164, 15.212
1311.370, 143.323
1312.576, 41.860
1313.782, 130.371
1314.987, 137.171
1316.193, 4.376
1317.398, 174.042
1318.603, 52.157
1319.807, 10.521
1321.012, 87.541
1322.216, 35.841
1323.421, 134.100
1324.625, 68.967
1325.829, 42.833
1327.032, 145.281
1328.236, 43.403
1329.439, 58.537
1330.642, 129.469
1331.845, 27.365
1333.048, 125.271
1334.251, 113.144
1335.453, 1.025
1336.656, 155.223
1337.858, 62.284
1339.060, 90.074
1340.261, 105.563
1341.463, 56.699
1342.664, 100.823
1343.866, 227.624
1345.067, 55.151
1346.267, 202.174
1347.468, 128.039
1348.669, 45.582
1349.869, 172.539
1351.069, 150.031
1352.269, 37.318
1353.469, 183.212
1354.668, 0.631
1355.868, 217.960
1357.067, 174.947
1358.266, 62.229
1359.465, 139.553
1360.664, 245.479
1361.862, 42.766
1363.061, 218.071
1364.259, 76.463
1365.457, 143.578
1366.655, 110.507
1367.852, 97.767
1369.050, 134.955
1370.247, 17.784
1371.444, 59.033
1372.641, 196.050
1373.838, 132.985
1375.035, 39.699
1376.231, 216.684
1377.427, 73.687
1378.623, 140.664
1379.819, 206.516
1381.015, 44.273
1382.211, 160.965
1383.406, 227.073
1384.601, 195.099
1385.796, 223.415
1386.991, 201.731
1388.185, 39.976
1389.380, 228.119
1390.574, 116.653
1391.768, 174.653
1392.962, 232.828
1394.156, 179.786
1395.350, 257.752
1396.543, 184.361
1397.736, 81.741
1398.929, 309.511
1400.122, 127.395
1401.315, 215.113
1402.507, 391.260
1403.700, 15.238
1404.892, 213.180
1406.084, 235.009
1407.276, 63.967
1408.467, 280.915
1409.659, 278.562
1410.850, 95.719
1412.041, 229.635
1413.232, 106.529
1414.423, 153.871
1415.614, 289.513
1416.804, 25.471
1417.994, 300.807
1419.184, 263.828
1420.374, 90.005
1421.564, 203.737
1422.753, 210.165
1423.943, 144.590
1425.132, 290.396
1426.321, 70.089
1427.510, 76.021
1428.698, 224.256
1429.887, 89.381
1431.075, 162.686
1432.263, 238.669
1433.451, 204.530
1434.639, 232.218
1435.827, 250.266
1437.014, 206.479
1438.201, 281.965
1439.388, 177.146
1440.575, 150.517
1441.762, 446.810
1442.949, 292.160
1444.135, 147.361
1445.321, 352.948
1446.507, 198.604
1447.693, 344.045
1448.879, 283.898
1450.064, 339.621
1451.250, 354.306
1452.435, 269.271
1453.620, 203.911
1454.805, 419.655
1455.989, 315.337
1457.174, 319.515
1458.358, 334.541
1459.542, 189.891
1460.726, 405.160
1461.910, 359.555
1463.093, 244.244
1464.277, 479.225
1465.460, 281.348
1466.643, 315.415
1467.826, 510.388
1469.009, 144.659
1470.191, 348.977
1471.373, 495.583
1472.556, 260.155
1473.738, 444.032
1474.919, 338.529
1476.101, 302.225
1477.283, 356.056
1478.464, 160.203
1479.645, 254.844
1480.826, 339.746
1482.007, 324.694
1483.187, 169.649
1484.368, 354.579
1485.548, 149.480
1486.728, 174.333
1487.908, 359.322
1489.088, 124.303
1490.268, 349.280
1491.447, 194.226
1492.626, 179.168
1493.805, 424.097
1494.984, 189.037
1496.163, 114.107
1497.341, 409.211
1498.520, 124.558
1499.698, 160.172
1500.876, 275.921
1502.054, 251.851
1503.232, 277.910
1504.409, 214.081
1505.586, 19.615
1506.763, 356.847
1507.940, 213.486
1509.117, 60.348
1510.294, 267.481
1511.470, 14.935
1512.647, 142.734
1513.823, 380.895
1514.999, 89.463
1516.174, 260.326
1517.350, 306.146
1518.526, 96.082
1519.701, 200.051
1520.876, 253.646
1522.051, 0.878
1523.226, 256.716
1524.400, 0.000
##END=



