##NAMES=Bustamite
##RRUFFID=R040014
##IDEAL CHEMISTRY=CaMn^2+^Si_2_O_6_
##LOCALITY=Broken Hill, New South Wales, Australia
##OWNER=RRUFF
##SOURCE=University of Arizona Mineral Museum
##DESCRIPTION=Orange fragment
##STATUS=The identification of this mineral has been confirmed by X-ray diffraction and chemical analysis
##URL=rruff.info/R040014
##MEASURED CHEMISTRY=(Ca_0.90_Mn_0.10_)_Σ=1_(Mn^2+^_0.78_Fe^2+^_0.19_Fe^3+^_0.02_Mg_0.01_)_Σ=1_(Si_1.98_Fe^3+^_0.02_)_Σ=2_O_6_
##PIN_ID=L00268
##ORIENTATION=Laser parallel to -a* (-1 0 0). Fiducial mark perpendicular to laser is parallel to b [0 1 0]
93.873, 0.000
95.268, 24.835
96.663, 123.378
98.058, 305.900
99.453, 500.268
100.848, 684.586
102.242, 816.537
103.636, 854.949
105.030, 861.328
106.423, 919.866
107.817, 760.835
109.210, 621.653
110.603, 556.780
111.996, 533.792
113.388, 455.383
114.780, 350.316
116.172, 342.472
117.564, 270.891
118.956, 257.502
120.347, 165.705
121.738, 176.912
123.129, 198.908
124.519, 264.298
125.910, 279.971
127.300, 377.810
128.690, 462.138
130.080, 586.630
131.469, 704.382
132.858, 838.032
134.248, 958.612
135.636, 1038.062
137.025, 1137.710
138.413, 1156.558
139.801, 1099.694
141.189, 996.347
142.577, 902.999
143.964, 824.670
145.352, 747.535
146.739, 700.763
148.125, 679.331
149.512, 674.193
150.898, 720.020
152.284, 780.812
153.670, 858.658
155.056, 848.259
156.441, 854.024
157.827, 758.947
159.212, 667.016
160.596, 569.221
161.981, 452.578
163.365, 251.145
164.749, 167.956
166.133, 133.867
167.517, 12.867
168.900, 14.950
170.283, 15.114
171.666, 42.354
173.049, 55.207
174.431, 108.051
175.813, 89.500
177.195, 113.977
178.577, 102.414
179.959, 47.856
181.340, 17.348
182.721, 25.086
184.102, 62.418
185.483, 82.687
186.863, 34.915
188.244, 91.106
189.624, 33.258
191.003, 7.367
192.383, 17.581
193.762, 6.612
195.141, 39.708
196.520, 42.846
197.899, 12.974
199.277, 19.752
200.656, 27.481
202.034, 45.104
203.411, 50.646
204.789, 37.133
206.166, 30.533
207.543, 22.260
208.920, 34.054
210.297, 0.235
211.673, 6.333
213.049, 1.616
214.425, 37.617
215.801, 65.669
217.176, 119.755
218.552, 176.871
219.927, 241.580
221.302, 292.136
222.676, 393.248
224.051, 507.335
225.425, 586.410
226.799, 802.496
228.173, 889.156
229.546, 1054.077
230.919, 1262.370
232.292, 1341.480
233.665, 1461.156
235.038, 1562.820
236.410, 1648.789
237.782, 1732.770
239.154, 1837.766
240.526, 1980.775
241.898, 2001.793
243.269, 2024.821
244.640, 1967.857
246.011, 1791.900
247.381, 1662.950
248.752, 1516.005
250.122, 1353.065
251.492, 1135.130
252.861, 1048.198
254.231, 887.271
255.600, 766.347
256.969, 712.426
258.338, 622.507
259.707, 582.840
261.075, 517.009
262.443, 505.483
263.811, 486.597
265.179, 453.410
266.546, 501.323
267.914, 541.112
269.281, 591.921
270.647, 643.454
272.014, 736.471
273.380, 825.302
274.747, 942.760
276.113, 1107.758
277.478, 1146.479
278.844, 1225.207
280.209, 1242.999
281.574, 1213.851
282.939, 1106.750
284.304, 1059.693
285.668, 944.676
287.032, 848.964
288.396, 805.282
289.760, 742.564
291.123, 692.927
292.487, 700.965
293.850, 662.744
295.212, 692.175
296.575, 709.495
297.937, 693.721
299.300, 738.969
300.662, 846.797
302.023, 877.082
303.385, 1006.375
304.746, 1179.595
306.107, 1431.936
307.468, 1576.423
308.829, 1973.973
310.189, 2288.784
311.549, 2838.446
312.909, 3339.717
314.269, 3888.427
315.629, 4349.250
316.988, 4546.572
318.347, 4332.036
319.706, 4001.850
321.065, 3451.389
322.423, 2786.688
323.781, 2409.481
325.139, 1904.870
326.497, 1545.276
327.855, 1370.846
329.212, 1178.162
330.569, 1010.105
331.926, 991.823
333.283, 876.473
334.639, 876.210
335.995, 783.703
337.351, 686.521
338.707, 636.152
340.063, 556.265
341.418, 441.616
342.773, 474.981
344.128, 371.336
345.483, 303.694
346.837, 217.505
348.192, 237.218
349.546, 183.249
350.899, 183.794
352.253, 143.525
353.606, 103.114
354.960, 88.332
356.313, 67.694
357.665, 50.055
359.018, 1.415
360.370, 43.770
361.722, 9.857
363.074, 0.773
364.426, 21.487
365.777, 11.322
367.128, 12.315
368.479, 55.916
369.830, 22.345
371.181, 25.561
372.531, 3.951
373.881, 86.210
375.231, 54.339
376.581, 121.597
377.930, 137.856
379.280, 100.120
380.629, 223.888
381.977, 221.127
383.326, 296.592
384.674, 343.817
386.023, 444.034
387.370, 575.309
388.718, 676.512
390.066, 817.763
391.413, 968.948
392.760, 1040.122
394.107, 1078.282
395.454, 1121.413
396.800, 998.519
398.146, 1030.614
399.492, 951.702
400.838, 898.782
402.184, 810.855
403.529, 784.920
404.874, 742.977
406.219, 717.026
407.564, 658.067
408.908, 567.100
410.252, 549.125
411.596, 395.141
412.940, 318.148
414.284, 261.147
415.627, 241.137
416.970, 187.118
418.313, 153.630
419.656, 95.054
420.999, 67.008
422.341, 77.970
423.683, 4.937
425.025, 15.898
426.367, 28.855
427.708, 3.190
429.049, 14.250
430.390, 0.670
431.731, 15.424
433.072, 25.542
434.412, 3.689
435.752, 5.144
437.092, 19.961
438.432, 35.245
439.772, 61.567
441.111, 73.360
442.450, 87.146
443.789, 80.285
445.127, 101.699
446.466, 59.464
447.804, 30.220
449.142, 30.965
450.480, 5.888
451.817, 5.417
453.155, 4.882
454.492, 21.800
455.829, 35.474
457.166, 43.144
458.502, 59.802
459.838, 97.452
461.175, 27.092
462.510, 121.716
463.846, 110.330
465.181, 17.933
466.517, 47.517
467.852, 37.902
469.186, 6.366
470.521, 9.850
471.855, 38.642
473.190, 60.128
474.523, 23.385
475.857, 8.067
477.191, 16.506
478.524, 34.117
479.857, 10.229
481.190, 2.448
482.523, 24.845
483.855, 42.116
485.187, 1.374
486.519, 14.400
487.851, 0.683
489.183, 77.961
490.514, 5.874
491.845, 51.260
493.176, 3.603
494.507, 24.499
495.837, 26.575
497.168, 50.628
498.498, 23.674
499.828, 40.694
501.157, 103.702
502.487, 79.696
503.816, 160.674
505.145, 206.638
506.474, 217.593
507.802, 268.535
509.131, 332.470
510.459, 352.400
511.787, 462.319
513.115, 563.233
514.442, 530.136
515.770, 621.024
517.097, 508.897
518.424, 450.754
519.750, 387.136
521.077, 294.962
522.403, 260.587
523.729, 222.890
525.055, 188.675
526.381, 145.444
527.706, 172.182
529.031, 119.716
530.356, 126.982
531.681, 93.072
533.006, 86.193
534.330, 104.893
535.654, 102.578
536.978, 128.247
538.302, 101.899
539.625, 58.533
540.949, 128.146
542.272, 76.743
543.595, 142.320
544.917, 149.880
546.240, 95.423
547.562, 113.948
548.884, 99.456
550.206, 186.946
551.527, 139.419
552.849, 178.875
554.170, 159.313
555.491, 167.734
556.812, 201.138
558.132, 242.525
559.453, 257.859
560.773, 260.248
562.093, 312.583
563.412, 359.901
564.732, 402.202
566.051, 457.485
567.370, 619.751
568.689, 710.999
570.008, 948.230
571.326, 1055.444
572.644, 1184.640
573.963, 1439.818
575.280, 1477.979
576.598, 1641.123
577.915, 1598.248
579.233, 1402.356
580.550, 1362.447
581.866, 1170.519
583.183, 989.797
584.499, 855.450
585.815, 724.542
587.131, 621.370
588.447, 573.625
589.763, 461.779
591.078, 481.919
592.393, 439.303
593.708, 402.966
595.022, 381.122
596.337, 403.857
597.651, 424.085
598.965, 356.576
600.279, 428.696
601.593, 393.680
602.906, 494.680
604.219, 444.900
605.532, 500.233
606.845, 538.890
608.158, 517.328
609.470, 601.929
610.782, 559.576
612.094, 575.741
613.406, 656.915
614.718, 682.437
616.029, 747.502
617.340, 854.888
618.651, 920.883
619.962, 983.418
621.272, 1116.414
622.582, 1227.404
623.892, 1464.547
625.202, 1611.414
626.512, 1742.490
627.821, 2036.641
629.131, 2381.536
630.440, 2696.818
631.749, 3214.538
633.057, 3850.455
634.366, 4645.753
635.674, 5693.401
636.982, 7112.761
638.290, 8737.771
639.597, 10891.562
640.905, 13756.031
642.212, 16812.139
643.519, 19195.547
644.825, 21407.803
646.132, 21336.234
647.438, 19692.521
648.744, 17276.383
650.050, 14056.052
651.356, 11568.981
652.662, 9083.141
653.967, 7607.273
655.272, 5999.983
656.577, 5080.929
657.882, 4118.416
659.186, 3480.566
660.490, 2926.666
661.794, 3477.930
663.098, 3678.189
664.402, 3603.387
665.705, 3269.594
667.009, 1898.762
668.312, 2801.405
669.614, 1127.635
670.917, 904.647
672.219, 858.651
673.522, 803.629
674.824, 685.615
676.125, 673.509
677.427, 610.531
678.728, 541.291
680.030, 579.124
681.331, 573.439
682.631, 604.266
683.932, 755.965
685.232, 746.978
686.532, 913.662
687.832, 1104.448
689.132, 1199.085
690.432, 1338.673
691.731, 1400.375
693.030, 1298.990
694.329, 1106.588
695.628, 998.167
696.926, 934.209
698.224, 738.758
699.522, 766.056
700.820, 593.570
702.118, 506.068
703.415, 426.485
704.713, 441.950
706.010, 439.343
707.307, 416.775
708.603, 448.192
709.900, 500.591
711.196, 590.975
712.492, 653.343
713.788, 781.694
715.083, 836.030
716.379, 1040.350
717.674, 1042.654
718.969, 936.943
720.264, 980.215
721.558, 728.473
722.853, 744.715
724.147, 586.941
725.441, 600.152
726.735, 483.348
728.028, 364.528
729.322, 382.694
730.615, 315.845
731.908, 309.981
733.201, 316.103
734.493, 246.209
735.785, 259.302
737.078, 189.380
738.370, 127.443
739.661, 109.497
740.953, 73.597
742.244, 81.565
743.535, 52.583
744.826, 38.594
746.117, 41.594
747.407, 59.588
748.698, 59.579
749.988, 49.562
751.278, 37.535
752.567, 21.494
753.857, 10.438
755.146, 33.362
756.435, 1.729
757.724, 50.157
759.013, 17.029
760.301, 9.884
761.590, 52.721
762.878, 0.454
764.165, 2.649
765.453, 4.861
766.741, 24.090
768.028, 20.343
769.315, 20.625
770.602, 5.065
771.888, 0.110
773.175, 10.392
774.461, 4.031
775.747, 6.655
777.033, 5.319
778.319, 1.051
779.604, 29.560
780.889, 4.011
782.174, 38.463
783.459, 38.942
784.744, 27.446
786.028, 44.979
787.312, 24.202
788.596, 0.967
789.880, 1.186
791.164, 13.328
792.447, 13.927
793.730, 6.540
795.013, 24.838
796.296, 16.790
797.579, 13.563
798.861, 39.913
800.143, 83.734
801.425, 14.428
802.707, 18.141
803.989, 75.864
805.270, 0.364
806.551, 9.591
807.832, 22.812
809.113, 48.972
810.394, 26.210
811.674, 35.611
812.954, 35.543
814.234, 39.687
815.514, 9.177
816.794, 18.055
818.073, 31.049
819.352, 2.855
820.631, 12.230
821.910, 18.655
823.189, 44.372
824.467, 22.430
825.745, 19.480
827.023, 20.522
828.301, 13.555
829.578, 30.580
830.856, 0.403
832.133, 59.605
833.410, 30.607
834.687, 14.399
835.963, 22.583
837.240, 61.557
838.516, 31.475
839.792, 87.475
841.068, 19.418
842.343, 106.355
843.618, 68.285
844.894, 27.210
846.169, 83.129
847.443, 118.042
848.718, 38.950
849.992, 94.852
851.266, 74.751
852.540, 68.646
853.814, 131.537
855.088, 63.422
856.361, 180.302
857.634, 124.179
858.907, 168.051
860.180, 108.918
861.453, 175.782
862.725, 164.641
863.997, 101.496
865.269, 122.348
866.541, 138.197
867.812, 57.042
869.084, 102.883
870.355, 97.963
871.626, 156.563
872.897, 175.402
874.167, 92.238
875.438, 205.070
876.708, 161.908
877.978, 189.742
879.248, 205.362
880.517, 145.436
881.787, 210.283
883.056, 165.129
884.325, 185.974
885.594, 254.842
886.862, 294.725
888.130, 352.605
889.399, 359.494
890.667, 352.381
891.934, 398.268
893.202, 411.162
894.469, 439.909
895.737, 402.694
897.004, 429.371
898.270, 399.978
899.537, 397.645
900.803, 450.394
902.070, 479.171
903.336, 427.913
904.601, 382.606
905.867, 386.146
907.132, 396.473
908.398, 352.151
909.663, 388.949
910.928, 394.714
912.192, 420.241
913.457, 349.640
914.721, 402.425
915.985, 344.427
917.249, 382.323
918.512, 401.101
919.776, 301.696
921.039, 441.550
922.302, 369.410
923.565, 439.844
924.827, 418.056
926.090, 389.643
927.352, 450.008
928.614, 479.456
929.876, 493.214
931.138, 533.955
932.399, 562.125
933.660, 595.266
934.922, 611.270
936.182, 664.271
937.443, 637.022
938.704, 663.700
939.964, 644.712
941.224, 659.212
942.484, 714.848
943.744, 697.632
945.003, 692.408
946.262, 779.685
947.521, 809.521
948.780, 863.214
950.039, 959.018
951.298, 991.939
952.556, 1234.522
953.814, 1368.486
955.072, 1487.248
956.330, 1747.420
957.587, 2049.196
958.845, 2409.034
960.102, 2934.937
961.359, 3607.929
962.615, 4412.860
963.872, 5542.758
965.128, 6895.745
966.384, 9098.757
967.640, 11751.341
968.896, 15273.477
970.152, 20066.479
971.407, 24209.285
972.662, 29142.225
973.917, 30585.201
975.172, 29248.291
976.427, 25861.295
977.681, 21434.301
978.935, 17327.314
980.189, 13880.306
981.443, 11113.379
982.697, 9176.311
983.950, 7879.494
985.203, 6582.589
986.456, 6205.196
987.709, 5418.277
988.962, 5211.478
990.214, 4891.355
991.467, 4708.565
992.719, 4701.664
993.971, 4585.884
995.222, 4576.106
996.474, 4536.331
997.725, 4505.077
998.976, 4865.803
1000.227, 4434.036
1001.478, 4331.282
1002.728, 4177.719
1003.978, 3650.975
1005.229, 3432.234
1006.479, 2999.498
1007.728, 2725.766
1008.978, 2525.265
1010.227, 2324.541
1011.476, 2153.820
1012.725, 2105.304
1013.974, 1790.613
1015.223, 1850.108
1016.471, 1706.682
1017.719, 1740.981
1018.967, 1731.517
1020.215, 1764.089
1021.462, 1824.754
1022.710, 1827.371
1023.957, 1924.688
1025.204, 2089.245
1026.451, 2187.254
1027.697, 2367.692
1028.944, 2614.932
1030.190, 2852.428
1031.436, 3412.714
1032.682, 3969.480
1033.928, 4939.138
1035.173, 6148.601
1036.418, 7085.720
1037.663, 8099.341
1038.908, 8365.016
1040.153, 8168.715
1041.398, 7502.397
1042.642, 6468.032
1043.886, 5471.701
1045.130, 4395.966
1046.374, 3583.294
1047.617, 2965.000
1048.860, 2411.217
1050.104, 2085.758
1051.347, 1716.638
1052.589, 1440.271
1053.832, 1383.289
1055.074, 1123.185
1056.316, 1014.417
1057.558, 966.960
1058.800, 800.963
1060.042, 733.771
1061.283, 707.578
1062.524, 625.646
1063.765, 560.415
1065.006, 521.763
1066.247, 483.815
1067.487, 484.024
1068.728, 444.865
1069.968, 466.806
1071.208, 463.519
1072.447, 427.876
1073.687, 462.194
1074.926, 389.259
1076.165, 457.422
1077.404, 499.392
1078.643, 407.320
1079.881, 493.932
1081.120, 580.657
1082.358, 676.581
1083.596, 811.109
1084.834, 1019.064
1086.071, 955.081
1087.309, 1243.637
1088.546, 797.416
1089.783, 554.384
1091.020, 333.339
1092.256, 320.471
1093.493, 254.181
1094.729, 291.712
1095.965, 194.692
1097.201, 189.359
1098.436, 138.518
1099.672, 244.649
1100.907, 146.483
1102.142, 184.443
1103.377, 235.271
1104.612, 125.216
1105.846, 214.239
1107.081, 169.903
1108.315, 208.048
1109.549, 149.969
1110.782, 165.802
1112.016, 193.827
1113.249, 167.487
1114.483, 152.530
1115.716, 153.628
1116.948, 195.298
1118.181, 161.135
1119.413, 236.265
1120.646, 436.906
1121.878, 373.287
1123.110, 398.689
1124.341, 326.071
1125.573, 293.017
1126.804, 158.627
1128.035, 97.228
1129.266, 221.989
1130.497, 107.573
1131.727, 127.668
1132.957, 95.235
1134.188, 64.028
1135.418, 205.977
1136.647, 115.520
1137.877, 140.174
1139.106, 237.778
1140.335, 67.457
1141.564, 126.285
1142.793, 149.040
1144.022, 51.672
1145.250, 127.658
1146.479, 77.240
1147.707, 119.820
1148.934, 170.700
1150.162, 30.217
1151.390, 124.964
1152.617, 99.355
1153.844, 89.732
1155.071, 135.485
1156.298, 26.835
1157.524, 103.436
1158.751, 91.904
1159.977, 37.208
1161.203, 81.871
1162.428, 39.234
1163.654, 22.489
1164.879, 124.232
1166.105, 36.658
1167.330, 29.860
1168.555, 23.527
1169.779, 23.689
1171.004, 98.934
1172.228, 42.543
1173.452, 27.359
1174.676, 74.784
1175.900, 59.170
1177.123, 25.826
1178.346, 12.127
1179.570, 3.818
1180.793, 31.826
1182.015, 94.340
1183.238, 56.486
1184.460, 46.463
1185.683, 32.422
1186.905, 31.292
1188.126, 36.789
1189.348, 30.248
1190.569, 43.898
1191.791, 6.061
1193.012, 39.244
1194.233, 45.894
1195.453, 115.930
1196.674, 9.034
1197.894, 89.581
1199.114, 5.007
1200.334, 7.545
1201.554, 29.285
1202.774, 2.747
1203.993, 116.594
1205.212, 14.083
1206.431, 56.482
1207.650, 58.109
1208.869, 9.957
1210.087, 70.066
1211.305, 28.249
1212.524, 19.266
1213.741, 161.208
1214.959, 60.275
1216.177, 39.376
1217.394, 96.732
1218.611, 80.500
1219.828, 63.530
1221.045, 23.881
1222.261, 13.975
1223.478, 43.508
1224.694, 54.852
1225.910, 131.082
1227.126, 4.503
1228.342, 74.504
1229.557, 228.443
1230.772, 82.144
1231.987, 91.942
1233.202, 168.620
1234.417, 148.950
1235.631, 105.860
1236.846, 109.646
1238.060, 73.198
1239.274, 174.842
1240.488, 5.370
1241.701, 111.942
1242.915, 186.162
1244.128, 69.680
1245.341, 76.340
1246.554, 146.612
1247.767, 126.822
1248.979, 158.924
1250.191, 131.409
1251.403, 118.193
1252.615, 204.227
1253.827, 87.582
1255.039, 141.260
1256.250, 164.215
1257.461, 119.385
1258.672, 260.394
1259.883, 115.273
1261.094, 108.290
1262.304, 210.349
1263.514, 170.417
1264.724, 99.353
1265.934, 312.425
1267.144, 156.561
1268.354, 242.845
1269.563, 212.510
1270.772, 140.985
1271.981, 271.843
1273.190, 259.424
1274.398, 181.446
1275.607, 303.075
1276.815, 98.604
1278.023, 344.774
1279.231, 168.214
1280.439, 129.963
1281.646, 322.961
1282.853, 197.435
1284.060, 208.879
1285.267, 189.175
1286.474, 151.438
1287.681, 166.758
1288.887, 193.945
1290.093, 107.022
1291.299, 201.373
1292.505, 199.382
1293.711, 125.360
1294.916, 209.304
1296.121, 151.029
1297.327, 237.907
1298.531, 249.753
1299.736, 141.561
1300.941, 243.335
1302.145, 171.846
1303.349, 200.550
1304.553, 377.216
1305.757, 147.618
1306.961, 216.134
1308.164, 291.369
1309.367, 117.439
1310.570, 189.752
1311.773, 296.771
1312.976, 136.719
1314.178, 223.546
1315.381, 212.386
1316.583, 121.470
1317.785, 263.272
1318.987, 219.590
1320.188, 242.440
1321.390, 240.609
1322.591, 218.121
1323.792, 298.966
1324.993, 215.292
1326.193, 61.671
1327.394, 224.199
1328.594, 186.032
1329.794, 141.319
1330.994, 289.506
1332.194, 63.627
1333.394, 154.713
1334.593, 99.806
1335.792, 4.823
1336.991, 165.201
1338.190, 20.472
1339.389, 75.325
1340.587, 98.624
1341.786, 106.441
1342.984, 0.890
1344.182, 138.865
1345.379, 87.190
1346.577, 146.599
1347.774, 62.632
1348.972, 126.315
1350.169, 140.500
1351.365, 79.842
1352.562, 49.147
1353.759, 189.432
1354.955, 61.700
1356.151, 198.350
1357.347, 71.505
1358.543, 18.985
1359.738, 144.044
1360.934, 76.081
1362.129, 29.215
1363.324, 140.243
1364.519, 65.164
1365.713, 109.853
1366.908, 37.444
1368.102, 54.346
1369.296, 64.085
1370.490, 29.782
1371.684, 39.890
1372.877, 99.786
1374.071, 68.058
1375.264, 6.441
1376.457, 140.172
1377.650, 79.711
1378.843, 72.038
1380.035, 92.595
1381.227, 20.888
1382.419, 111.396
1383.611, 131.526
1384.803, 114.192
1385.995, 216.142
1387.186, 116.543
1388.377, 76.929
1389.568, 164.378
1390.759, 18.652
1391.950, 205.480
1393.140, 96.715
1394.331, 47.796
1395.521, 192.581
1396.711, 110.764
1397.900, 52.132
1399.090, 278.101
1400.279, 15.197
1401.469, 169.833
1402.658, 195.736
1403.847, 35.611
1405.035, 139.217
1406.224, 130.649
1407.412, 156.110
1408.600, 116.231
1409.788, 94.362
1410.976, 5.606
1412.164, 212.353
1413.351, 38.554
1414.538, 134.665
1415.725, 302.773
1416.912, 82.205
1418.099, 168.766
1419.285, 185.648
1420.472, 51.845
1421.658, 289.559
1422.844, 111.818
1424.030, 62.092
1425.215, 164.329
1426.401, 163.309
1427.586, 251.935
1428.771, 207.139
1429.956, 170.293
1431.141, 314.575
1432.325, 285.385
1433.510, 104.838
1434.694, 338.062
1435.878, 257.077
1437.062, 252.653
1438.245, 496.510
1439.429, 230.255
1440.612, 348.240
1441.795, 486.450
1442.978, 326.270
1444.161, 452.248
1445.343, 493.591
1446.526, 376.875
1447.708, 538.719
1448.890, 446.529
1450.072, 490.024
1451.253, 499.652
1452.435, 444.045
1453.616, 445.094
1454.797, 603.939
1455.978, 397.204
1457.159, 574.745
1458.340, 537.820
1459.520, 636.824
1460.700, 547.385
1461.880, 477.023
1463.060, 358.996
1464.240, 488.062
1465.420, 466.457
1466.599, 466.710
1467.778, 456.959
1468.957, 239.870
1470.136, 380.096
1471.315, 355.279
1472.493, 298.790
1473.671, 433.153
1474.849, 280.145
1476.027, 246.666
1477.205, 428.085
1478.383, 110.687
1479.560, 320.598
1480.737, 346.291
1481.914, 242.805
1483.091, 379.141
1484.268, 265.301
1485.444, 82.277
1486.621, 269.388
1487.797, 154.117
1488.973, 232.023
1490.149, 304.884
1491.324, 79.704
1492.500, 76.553
1493.675, 321.348
1494.850, 3.533
1496.025, 148.651
1497.200, 221.977
1498.374, 137.050
1499.548, 183.854
1500.723, 257.656
1501.897, 28.490
1503.071, 262.469
1504.244, 52.634
1505.418, 107.057
1506.591, 324.710
1507.764, 48.604
1508.937, 14.802
1510.110, 220.420
1511.282, 32.058
1512.455, 133.077
1513.627, 274.082
1514.799, 39.858
1515.971, 198.774
1517.143, 110.257
1518.314, 29.910
1519.486, 221.152
1520.657, 191.869
1521.828, 1.018
1522.999, 0.000
##END=



