##NAMES=Bustamite
##RRUFFID=R040014
##IDEAL CHEMISTRY=CaMn^2+^Si_2_O_6_
##LOCALITY=Broken Hill, New South Wales, Australia
##OWNER=RRUFF
##SOURCE=University of Arizona Mineral Museum
##DESCRIPTION=Orange fragment
##STATUS=The identification of this mineral has been confirmed by X-ray diffraction and chemical analysis
##URL=rruff.info/R040014
##MEASURED CHEMISTRY=(Ca_0.90_Mn_0.10_)_Σ=1_(Mn^2+^_0.78_Fe^2+^_0.19_Fe^3+^_0.02_Mg_0.01_)_Σ=1_(Si_1.98_Fe^3+^_0.02_)_Σ=2_O_6_
##PIN_ID=L00174
##ORIENTATION=Laser parallel to (-1 0 -1). Fiducial mark perpendicular to laser is parallel to -b [0 -1 0]
107.817, 0.000
109.210, 6.349
110.603, 16.113
111.996, 8.098
113.388, 9.388
114.780, 55.627
116.172, 85.495
117.564, 278.241
118.956, 662.459
120.347, 1295.264
121.738, 2332.897
123.129, 3406.599
124.519, 4279.472
125.910, 4650.148
127.300, 4734.158
128.690, 4423.839
130.080, 4158.213
131.469, 4128.137
132.858, 4220.521
134.248, 4330.482
135.636, 4168.312
137.025, 4054.205
138.413, 3643.003
139.801, 3326.869
141.189, 2918.067
142.577, 2550.003
143.964, 2276.996
145.352, 2091.241
146.739, 1935.796
148.125, 1966.086
149.512, 1968.114
150.898, 1985.916
152.284, 2059.209
153.670, 2134.041
155.056, 2078.878
156.441, 1981.754
157.827, 1739.260
159.212, 1625.873
160.596, 1349.923
161.981, 1157.460
163.365, 847.961
164.749, 679.658
166.133, 508.541
167.517, 409.004
168.900, 368.567
170.283, 356.191
171.666, 434.868
173.049, 361.589
174.431, 341.343
175.813, 370.119
177.195, 324.916
178.577, 293.736
179.959, 181.582
181.340, 155.455
182.721, 140.357
184.102, 95.288
185.483, 86.771
186.863, 68.030
188.244, 59.239
189.624, 45.272
191.003, 37.354
192.383, 28.564
193.762, 28.890
195.141, 18.929
196.520, 5.874
197.899, 21.479
199.277, 12.262
200.656, 60.912
202.034, 27.009
203.411, 22.037
204.789, 67.006
206.166, 58.922
207.543, 66.791
208.920, 47.611
210.297, 43.843
211.673, 74.128
213.049, 26.833
214.425, 29.518
215.801, 28.198
217.176, 16.115
218.552, 31.424
219.927, 70.729
221.302, 112.375
222.676, 91.338
224.051, 202.642
225.425, 212.945
226.799, 259.236
228.173, 388.500
229.546, 405.726
230.919, 487.907
232.292, 567.040
233.665, 637.120
235.038, 711.142
236.410, 776.085
237.782, 898.922
239.154, 972.663
240.526, 1099.285
241.898, 1192.815
243.269, 1228.294
244.640, 1387.778
246.011, 1455.316
247.381, 1529.910
248.752, 1449.564
250.122, 1474.244
251.492, 1374.950
252.861, 1276.679
254.231, 1133.486
255.600, 1065.317
256.969, 980.158
258.338, 785.004
259.707, 725.848
261.075, 701.689
262.443, 562.528
263.811, 593.364
265.179, 503.197
266.546, 521.028
267.914, 493.855
269.281, 534.680
270.647, 539.501
272.014, 549.319
273.380, 536.718
274.747, 527.948
276.113, 604.093
277.478, 602.282
278.844, 657.083
280.209, 627.260
281.574, 684.406
282.939, 707.511
284.304, 679.567
285.668, 657.566
287.032, 719.499
288.396, 752.361
289.760, 775.150
291.123, 790.866
292.487, 872.508
293.850, 945.072
295.212, 989.554
296.575, 1087.948
297.937, 1207.243
299.300, 1364.431
300.662, 1560.512
302.023, 1767.496
303.385, 2050.390
304.746, 2359.275
306.107, 2794.106
307.468, 3330.152
308.829, 4036.185
310.189, 4643.007
311.549, 5525.789
312.909, 6057.583
314.269, 6635.313
315.629, 6799.927
316.988, 6514.368
318.347, 6103.633
319.706, 5340.493
321.065, 4553.047
322.423, 3768.337
323.781, 3215.552
325.139, 2774.609
326.497, 2406.996
327.855, 2372.966
329.212, 2242.371
330.569, 2246.724
331.926, 2281.110
333.283, 2302.475
334.639, 2318.885
335.995, 2284.267
337.351, 2126.648
338.707, 1954.028
340.063, 1816.309
341.418, 1641.676
342.773, 1476.717
344.128, 1367.921
345.483, 1186.104
346.837, 1089.067
348.192, 998.666
349.546, 854.187
350.899, 781.503
352.253, 711.731
353.606, 570.761
354.960, 530.679
356.313, 496.449
357.665, 502.266
359.018, 413.870
360.370, 405.031
361.722, 379.554
363.074, 382.351
364.426, 354.818
365.777, 340.804
367.128, 313.006
368.479, 367.506
369.830, 299.604
371.181, 251.555
372.531, 289.500
373.881, 345.594
375.231, 329.560
376.581, 326.000
377.930, 393.161
379.280, 420.144
380.629, 506.055
381.977, 590.952
383.326, 685.155
384.674, 708.517
386.023, 917.834
387.370, 1016.158
388.718, 1136.346
390.066, 1402.014
391.413, 1676.496
392.760, 1978.841
394.107, 2361.230
395.454, 3028.424
396.800, 3880.805
398.146, 4862.468
399.492, 6258.118
400.838, 7961.761
402.184, 9244.805
403.529, 10488.157
404.874, 11521.281
406.219, 11704.050
407.564, 11256.736
408.908, 10179.416
410.252, 8832.089
411.596, 7334.759
412.940, 5873.422
414.284, 4793.081
415.627, 3735.733
416.970, 3081.383
418.313, 2504.027
419.656, 2077.665
420.999, 1644.296
422.341, 1479.921
423.683, 1280.538
425.025, 1043.147
426.367, 861.751
427.708, 742.348
429.049, 699.941
430.390, 602.532
431.731, 550.116
433.072, 427.700
434.412, 432.275
435.752, 372.106
437.092, 350.641
438.432, 377.155
439.772, 313.656
441.111, 283.140
442.450, 311.603
443.789, 264.044
445.127, 268.466
446.466, 306.887
447.804, 241.275
449.142, 225.648
450.480, 244.007
451.817, 215.351
453.155, 221.680
454.492, 244.014
455.829, 292.329
457.166, 259.636
458.502, 309.925
459.838, 342.196
461.175, 249.450
462.510, 245.700
463.846, 231.934
465.181, 158.155
466.517, 153.358
467.852, 85.549
469.186, 69.722
470.521, 98.874
471.855, 86.008
473.190, 58.123
474.523, 48.219
475.857, 51.672
477.191, 65.353
478.524, 76.391
479.857, 127.412
481.190, 157.419
482.523, 173.414
483.855, 153.402
485.187, 154.379
486.519, 49.346
487.851, 139.297
489.183, 31.241
490.514, 41.175
491.845, 33.104
493.176, 39.018
494.507, 28.937
495.837, 36.853
497.168, 37.376
498.498, 37.651
499.828, 62.531
501.157, 30.395
502.487, 80.247
503.816, 196.088
505.145, 142.921
506.474, 187.744
507.802, 179.559
509.131, 226.366
510.459, 342.167
511.787, 350.969
513.115, 393.768
514.442, 392.562
515.770, 382.351
517.097, 363.136
518.424, 296.925
519.750, 225.719
521.077, 176.512
522.403, 106.312
523.729, 96.108
525.055, 14.917
526.381, 49.727
527.706, 32.536
529.031, 22.361
530.356, 21.803
531.681, 11.030
533.006, 15.132
534.330, 74.301
535.654, 3.501
536.978, 94.701
538.302, 25.956
539.625, 115.222
540.949, 22.438
542.272, 64.914
543.595, 52.316
544.917, 58.768
546.240, 1.269
547.562, 9.207
548.884, 35.333
550.206, 5.085
551.527, 27.856
552.849, 16.310
554.170, 26.236
555.491, 76.921
556.812, 17.600
558.132, 1.384
559.453, 1.195
560.773, 89.969
562.093, 15.113
563.412, 68.281
564.732, 152.382
566.051, 199.467
567.370, 235.535
568.689, 290.585
570.008, 339.471
571.326, 428.635
572.644, 455.844
573.963, 542.939
575.280, 622.562
576.598, 625.923
577.915, 619.970
579.233, 592.998
580.550, 557.894
581.866, 415.772
583.183, 418.633
584.499, 356.993
585.815, 289.639
587.131, 286.304
588.447, 243.125
589.763, 197.103
591.078, 185.385
592.393, 176.270
593.708, 105.220
595.022, 193.281
596.337, 226.141
597.651, 211.651
598.965, 212.810
600.279, 233.733
601.593, 282.769
602.906, 264.523
604.219, 166.373
605.532, 324.155
606.845, 292.024
608.158, 414.986
609.470, 444.791
610.782, 371.817
612.094, 462.019
613.406, 471.843
614.718, 525.231
616.029, 639.144
617.340, 690.735
618.651, 703.663
619.962, 833.278
621.272, 974.276
622.582, 994.804
623.892, 1182.105
625.202, 1376.930
626.512, 1536.027
627.821, 1801.224
629.131, 2140.457
630.440, 2642.606
631.749, 3224.586
633.057, 3925.411
634.366, 4784.292
635.674, 5914.043
636.982, 7523.995
638.290, 9314.443
639.597, 11694.689
640.905, 14586.157
642.212, 17396.482
643.519, 19446.625
644.825, 20976.426
646.132, 20187.021
647.438, 18167.779
648.744, 15609.732
650.050, 12759.380
651.356, 10223.658
652.662, 8185.701
653.967, 6876.978
655.272, 5356.334
656.577, 4596.495
657.882, 3779.911
659.186, 3200.278
660.490, 2789.325
661.794, 2301.354
663.098, 2086.224
664.402, 1874.980
665.705, 1558.767
667.009, 1411.536
668.312, 1283.585
669.614, 1172.800
670.917, 1053.605
672.219, 903.411
673.522, 846.911
674.824, 755.223
676.125, 780.909
677.427, 730.479
678.728, 725.300
680.030, 692.827
681.331, 675.980
682.631, 679.898
683.932, 782.890
685.232, 706.760
686.532, 738.851
687.832, 805.364
689.132, 726.206
690.432, 714.930
691.731, 582.106
693.030, 578.537
694.329, 466.096
695.628, 411.569
696.926, 365.978
698.224, 320.097
699.522, 246.564
700.820, 206.597
702.118, 238.269
703.415, 168.474
704.713, 251.824
706.010, 237.789
707.307, 65.985
708.603, 136.292
709.900, 130.527
711.196, 185.086
712.492, 130.276
713.788, 161.159
715.083, 147.029
716.379, 192.884
717.674, 168.310
718.969, 132.405
720.264, 250.703
721.558, 142.334
722.853, 165.026
724.147, 185.699
725.441, 179.354
726.735, 159.094
728.028, 89.606
729.322, 112.203
730.615, 13.781
731.908, 39.333
733.201, 109.864
734.493, 109.376
735.785, 164.868
737.078, 153.897
738.370, 138.834
739.661, 97.234
740.953, 90.653
742.244, 7.052
743.535, 3.424
744.826, 82.769
746.117, 4.905
747.407, 95.389
748.698, 74.663
749.988, 42.643
751.278, 85.878
752.567, 10.906
753.857, 15.276
755.146, 55.436
756.435, 23.577
757.724, 85.697
759.013, 57.799
760.301, 18.139
761.590, 4.093
762.878, 6.076
764.165, 4.089
765.453, 8.131
766.741, 75.204
768.028, 27.658
769.315, 31.500
770.602, 11.300
771.888, 67.078
773.175, 8.839
774.461, 37.421
775.747, 5.273
777.033, 5.054
778.319, 91.591
779.604, 12.780
780.889, 56.819
782.174, 12.401
783.459, 26.967
784.744, 28.516
786.028, 36.048
787.312, 57.512
788.596, 42.393
789.880, 81.554
791.164, 39.027
792.447, 3.485
793.730, 38.923
795.013, 12.655
796.296, 7.739
797.579, 44.116
798.861, 15.476
800.143, 2.179
801.425, 13.855
802.707, 33.555
803.989, 13.708
805.270, 72.041
806.551, 37.845
807.832, 25.685
809.113, 64.446
810.394, 7.435
811.674, 63.664
812.954, 13.250
814.234, 4.186
815.514, 7.860
816.794, 11.891
818.073, 60.906
819.352, 47.908
820.631, 45.897
821.910, 20.128
823.189, 5.179
824.467, 18.751
825.745, 12.667
827.023, 127.569
828.301, 28.541
829.578, 35.680
830.856, 44.149
832.133, 2.032
833.410, 2.230
834.687, 50.558
835.963, 19.341
837.240, 30.115
838.516, 19.119
839.792, 4.372
841.068, 25.362
842.343, 1.810
843.618, 53.821
844.894, 3.542
846.169, 80.275
847.443, 98.002
848.718, 31.251
849.992, 9.482
851.266, 12.763
852.540, 14.003
853.814, 92.778
855.088, 38.564
856.361, 35.361
857.634, 22.848
858.907, 57.936
860.180, 137.724
861.453, 98.132
862.725, 112.831
863.997, 14.504
865.269, 117.281
866.541, 160.008
867.812, 231.810
869.084, 269.817
870.355, 136.435
871.626, 300.241
872.897, 256.001
874.167, 209.801
875.438, 469.597
876.708, 374.405
877.978, 528.206
879.248, 516.005
880.517, 617.799
881.787, 893.379
883.056, 866.050
884.325, 1041.170
885.594, 1129.529
886.862, 1259.180
888.130, 1332.825
889.399, 1324.605
890.667, 1406.380
891.934, 1340.150
893.202, 1320.759
894.469, 1294.337
895.737, 1064.235
897.004, 1009.978
898.270, 873.538
899.537, 708.793
900.803, 764.424
902.070, 739.968
903.336, 721.376
904.601, 576.964
905.867, 585.885
907.132, 494.150
908.398, 487.627
909.663, 547.971
910.928, 635.575
912.192, 489.061
913.457, 501.605
914.721, 553.042
915.985, 525.365
917.249, 640.824
918.512, 531.039
919.776, 437.059
921.039, 598.435
922.302, 535.225
923.565, 572.471
924.827, 582.015
926.090, 593.205
927.352, 579.685
928.614, 738.760
929.876, 668.285
931.138, 868.944
932.399, 696.040
933.660, 820.562
934.922, 744.896
936.182, 821.297
937.443, 769.708
938.704, 799.153
939.964, 924.691
941.224, 941.168
942.484, 954.812
943.744, 1005.282
945.003, 946.451
946.262, 1073.932
947.521, 1095.241
948.780, 1209.585
950.039, 1312.099
951.298, 1469.498
952.556, 1575.462
953.814, 1810.793
955.072, 1974.950
956.330, 2441.361
957.587, 2693.150
958.845, 3287.109
960.102, 3971.855
961.359, 4868.504
962.615, 5894.333
963.872, 7580.990
965.128, 9306.538
966.384, 12362.598
967.640, 15919.038
968.896, 20565.500
970.152, 26482.248
971.407, 31238.871
972.662, 36325.480
973.917, 36540.812
975.172, 33866.945
976.427, 28873.469
977.681, 23139.973
978.935, 18856.762
980.189, 14691.721
981.443, 11576.285
982.697, 9483.158
983.950, 7879.546
985.203, 6565.979
986.456, 5854.131
987.709, 4900.720
988.962, 4617.926
990.214, 4033.706
991.467, 3700.102
992.719, 3557.260
993.971, 3373.816
995.222, 3310.600
996.474, 3297.680
997.725, 3394.523
998.976, 3601.808
1000.227, 3577.020
1001.478, 3773.659
1002.728, 4155.352
1003.978, 4052.030
1005.229, 4189.402
1006.479, 3666.273
1007.728, 3513.063
1008.978, 3270.897
1010.227, 2977.828
1011.476, 2674.782
1012.725, 2431.924
1013.974, 2239.299
1015.223, 2186.246
1016.471, 1964.654
1017.719, 2091.557
1018.967, 1872.183
1020.215, 1949.087
1021.462, 1936.506
1022.710, 1884.295
1023.957, 2111.211
1025.204, 2098.896
1026.451, 2020.251
1027.697, 2277.166
1028.944, 2095.298
1030.190, 2192.733
1031.436, 2320.191
1032.682, 2467.460
1033.928, 2914.457
1035.173, 3421.938
1036.418, 3808.857
1037.663, 4336.090
1038.908, 4309.258
1040.153, 4306.239
1041.398, 3943.534
1042.642, 3440.849
1043.886, 2948.144
1045.130, 2385.546
1046.374, 2027.755
1047.617, 1644.800
1048.860, 1446.757
1050.104, 1324.145
1051.347, 1041.730
1052.589, 1008.752
1053.832, 1055.711
1055.074, 694.518
1056.316, 724.892
1057.558, 651.854
1058.800, 589.368
1060.042, 616.904
1061.283, 574.169
1062.524, 514.066
1063.765, 481.466
1065.006, 430.187
1066.247, 396.174
1067.487, 373.146
1068.728, 340.977
1069.968, 388.149
1071.208, 325.594
1072.447, 382.863
1073.687, 409.987
1074.926, 377.594
1076.165, 434.583
1077.404, 491.784
1078.643, 509.609
1079.881, 506.608
1081.120, 464.271
1082.358, 431.633
1083.596, 448.682
1084.834, 446.448
1086.071, 503.690
1087.309, 400.872
1088.546, 357.929
1089.783, 514.980
1091.020, 342.206
1092.256, 429.854
1093.493, 306.912
1094.729, 275.232
1095.965, 272.524
1097.201, 239.564
1098.436, 147.029
1099.672, 284.556
1100.907, 171.894
1102.142, 229.506
1103.377, 236.809
1104.612, 64.310
1105.846, 221.705
1107.081, 208.723
1108.315, 277.367
1109.549, 114.380
1110.782, 201.645
1112.016, 158.849
1113.249, 115.838
1114.483, 83.087
1115.716, 120.384
1116.948, 77.375
1118.181, 54.376
1119.413, 242.064
1120.646, 209.023
1121.878, 296.167
1123.110, 253.111
1124.341, 170.386
1125.573, 197.312
1126.804, 144.227
1128.035, 131.308
1129.266, 168.316
1130.497, 35.354
1131.727, 202.952
1132.957, 79.851
1134.188, 32.553
1135.418, 215.306
1136.647, 7.832
1137.877, 71.315
1139.106, 128.703
1140.335, 4.185
1141.564, 163.196
1142.793, 129.996
1144.022, 2.746
1145.250, 195.031
1146.479, 2.281
1147.707, 180.080
1148.934, 117.203
1150.162, 95.613
1151.390, 243.587
1152.617, 0.347
1153.844, 97.793
1155.071, 125.707
1156.298, 37.189
1157.524, 109.920
1158.751, 107.129
1159.977, 63.617
1161.203, 11.490
1162.428, 78.412
1163.654, 25.025
1164.879, 132.389
1166.105, 60.478
1167.330, 196.301
1168.555, 14.291
1169.779, 8.775
1171.004, 138.127
1172.228, 5.165
1173.452, 68.948
1174.676, 147.921
1175.900, 15.237
1177.123, 21.274
1178.346, 17.801
1179.570, 64.172
1180.793, 130.396
1182.015, 17.427
1183.238, 193.629
1184.460, 79.975
1185.683, 92.972
1186.905, 142.892
1188.126, 69.187
1189.348, 65.495
1190.569, 72.687
1191.791, 49.284
1193.012, 74.905
1194.233, 145.076
1195.453, 68.669
1196.674, 67.100
1197.894, 26.566
1199.114, 162.357
1200.334, 178.036
1201.554, 15.189
1202.774, 39.706
1203.993, 266.364
1205.212, 51.970
1206.431, 48.155
1207.650, 114.408
1208.869, 30.162
1210.087, 85.467
1211.305, 51.365
1212.524, 146.334
1213.741, 222.473
1214.959, 8.021
1216.177, 153.033
1217.394, 88.517
1218.611, 134.458
1219.828, 169.211
1221.045, 54.995
1222.261, 229.672
1223.478, 155.243
1224.694, 21.238
1225.910, 286.374
1227.126, 55.213
1228.342, 132.903
1229.557, 207.483
1230.772, 49.713
1231.987, 174.786
1233.202, 189.521
1234.417, 241.402
1235.631, 256.286
1236.846, 191.097
1238.060, 102.681
1239.274, 266.964
1240.488, 21.177
1241.701, 185.274
1242.915, 259.386
1244.128, 144.137
1245.341, 128.529
1246.554, 172.486
1247.767, 107.156
1248.979, 181.051
1250.191, 134.916
1251.403, 159.122
1252.615, 252.930
1253.827, 17.246
1255.039, 321.278
1256.250, 194.995
1257.461, 209.613
1258.672, 393.646
1259.883, 197.271
1261.094, 197.903
1262.304, 301.450
1263.514, 265.320
1264.724, 98.836
1265.934, 312.606
1267.144, 226.882
1268.354, 320.670
1269.563, 193.990
1270.772, 288.536
1271.981, 351.944
1273.190, 235.147
1274.398, 265.609
1275.607, 258.736
1276.815, 122.402
1278.023, 515.786
1279.231, 118.753
1280.439, 85.324
1281.646, 388.244
1282.853, 20.559
1284.060, 164.052
1285.267, 226.839
1286.474, 159.329
1287.681, 305.097
1288.887, 187.760
1290.093, 90.021
1291.299, 182.567
1292.505, 84.616
1293.711, 207.349
1294.916, 189.801
1296.121, 16.645
1297.327, 269.799
1298.531, 111.552
1299.736, 63.675
1300.941, 175.832
1302.145, 165.919
1303.349, 138.021
1304.553, 329.971
1305.757, 61.660
1306.961, 193.200
1308.164, 274.763
1309.367, 94.919
1310.570, 126.535
1311.773, 194.325
1312.976, 45.796
1314.178, 146.890
1315.381, 147.386
1316.583, 188.708
1317.785, 299.218
1318.987, 126.011
1320.188, 127.200
1321.390, 197.114
1322.591, 187.610
1323.792, 218.037
1324.993, 247.142
1326.193, 89.378
1327.394, 239.976
1328.594, 200.723
1329.794, 81.025
1330.994, 285.355
1332.194, 175.732
1333.394, 165.743
1334.593, 55.668
1335.792, 105.514
1336.991, 267.922
1338.190, 17.260
1339.389, 132.663
1340.587, 227.603
1341.786, 12.940
1342.984, 206.255
1344.182, 225.950
1345.379, 55.642
1346.577, 253.428
1347.774, 109.590
1348.972, 199.104
1350.169, 88.003
1351.365, 76.818
1352.562, 215.841
1353.759, 152.466
1354.955, 101.235
1356.151, 309.785
1357.347, 68.669
1358.543, 137.685
1359.738, 255.788
1360.934, 134.503
1362.129, 72.819
1363.324, 311.260
1364.519, 79.785
1365.713, 317.764
1366.908, 96.301
1368.102, 54.572
1369.296, 152.148
1370.490, 19.512
1371.684, 1.896
1372.877, 255.962
1374.071, 75.421
1375.264, 121.922
1376.457, 189.736
1377.650, 71.617
1378.843, 136.220
1380.035, 143.997
1381.227, 68.751
1382.419, 247.734
1383.611, 257.888
1384.803, 279.009
1385.995, 269.370
1387.186, 119.673
1388.377, 190.047
1389.568, 310.757
1390.759, 120.103
1391.950, 340.603
1393.140, 301.256
1394.331, 201.758
1395.521, 401.708
1396.711, 162.188
1397.900, 222.441
1399.090, 473.006
1400.279, 103.179
1401.469, 202.628
1402.658, 322.105
1403.847, 58.838
1405.035, 307.913
1406.224, 206.922
1407.412, 266.303
1408.600, 214.341
1409.788, 112.332
1410.976, 188.295
1412.164, 326.755
1413.351, 73.997
1414.538, 251.924
1415.725, 439.596
1416.912, 61.782
1418.099, 445.214
1419.285, 121.645
1420.472, 209.100
1421.658, 437.583
1422.844, 25.287
1424.030, 352.541
1425.215, 400.774
1426.401, 127.868
1427.586, 464.474
1428.771, 232.581
1429.956, 8.441
1431.141, 495.672
1432.325, 246.674
1433.510, 278.752
1434.694, 416.383
1435.878, 212.487
1437.062, 269.177
1438.245, 444.316
1439.429, 111.396
1440.612, 318.489
1441.795, 463.880
1442.978, 360.995
1444.161, 487.456
1445.343, 264.008
1446.526, 328.219
1447.708, 487.557
1448.890, 239.531
1450.072, 501.387
1451.253, 483.747
1452.435, 348.961
1453.616, 261.372
1454.797, 528.355
1455.978, 193.820
1457.159, 579.951
1458.340, 375.207
1459.520, 311.094
1460.700, 536.434
1461.880, 322.145
1463.060, 415.315
1464.240, 664.662
1465.420, 369.395
1466.599, 403.748
1467.778, 415.787
1468.957, 127.685
1470.136, 592.210
1471.315, 467.433
1472.493, 188.563
1473.671, 628.364
1474.849, 231.844
1476.027, 402.880
1477.205, 515.875
1478.383, 22.011
1479.560, 540.526
1480.737, 461.735
1481.914, 260.952
1483.091, 422.712
1484.268, 234.177
1485.444, 185.061
1486.621, 445.683
1487.797, 397.275
1488.973, 319.054
1490.149, 439.977
1491.324, 251.330
1492.500, 222.352
1493.675, 433.046
1494.850, 54.068
1496.025, 354.834
1497.200, 483.487
1498.374, 124.445
1499.548, 306.033
1500.723, 287.808
1501.897, 82.150
1503.071, 383.191
1504.244, 144.203
1505.418, 275.193
1506.591, 376.100
1507.764, 176.918
1508.937, 247.662
1510.110, 249.162
1511.282, 165.715
1512.455, 185.926
1513.627, 286.918
1514.799, 1.172
1515.971, 460.896
1517.143, 103.531
1518.314, 2.807
1519.486, 284.781
1520.657, 113.869
1521.828, 35.855
1522.999, 0.000
##END=



