##NAMES=Bustamite
##RRUFFID=R040014
##IDEAL CHEMISTRY=CaMn^2+^Si_2_O_6_
##LOCALITY=Broken Hill, New South Wales, Australia
##OWNER=RRUFF
##SOURCE=University of Arizona Mineral Museum
##DESCRIPTION=Orange fragment
##STATUS=The identification of this mineral has been confirmed by X-ray diffraction and chemical analysis
##URL=rruff.info/R040014
##MEASURED CHEMISTRY=(Ca_0.90_Mn_0.10_)_Σ=1_(Mn^2+^_0.78_Fe^2+^_0.19_Fe^3+^_0.02_Mg_0.01_)_Σ=1_(Si_1.98_Fe^3+^_0.02_)_Σ=2_O_6_
##PIN_ID=L00174
##ORIENTATION=Laser parallel to (-1 0 -1). Fiducial mark perpendicular to laser is parallel to -b [0 -1 0]
100.848, 0.000
102.242, 35.514
103.636, 99.609
105.030, 167.766
106.423, 229.737
107.817, 200.852
109.210, 112.756
110.603, 42.513
111.996, 8.360
113.388, 84.752
114.780, 92.622
116.172, 178.017
117.564, 209.522
118.956, 237.767
120.347, 365.515
121.738, 516.606
123.129, 691.933
124.519, 792.421
125.910, 848.134
127.300, 990.295
128.690, 1083.432
130.080, 1224.153
131.469, 1400.888
132.858, 1698.115
134.248, 1955.908
135.636, 2047.335
137.025, 2080.450
138.413, 2034.290
139.801, 1837.886
141.189, 1671.266
142.577, 1403.451
143.964, 1234.464
145.352, 1124.322
146.739, 1029.045
148.125, 939.647
149.512, 932.143
150.898, 941.287
152.284, 931.925
153.670, 941.356
155.056, 909.416
156.441, 837.818
157.827, 744.184
159.212, 696.770
160.596, 602.381
161.981, 496.225
163.365, 475.121
164.749, 404.945
166.133, 375.525
167.517, 375.182
168.900, 352.408
170.283, 426.734
171.666, 460.095
173.049, 447.469
174.431, 425.857
175.813, 365.261
177.195, 374.681
178.577, 291.117
179.959, 195.567
181.340, 130.031
182.721, 109.509
184.102, 93.997
185.483, 91.495
186.863, 34.018
188.244, 59.570
189.624, 41.154
191.003, 79.771
192.383, 94.421
193.762, 79.104
195.141, 109.817
196.520, 45.560
197.899, 55.333
199.277, 15.134
200.656, 13.039
202.034, 25.184
203.411, 43.302
204.789, 18.398
206.166, 58.459
207.543, 59.491
208.920, 78.503
210.297, 26.503
211.673, 34.497
213.049, 8.488
214.425, 43.479
215.801, 32.469
217.176, 9.542
218.552, 14.445
219.927, 21.431
221.302, 33.584
222.676, 57.601
224.051, 24.619
225.425, 68.639
226.799, 89.660
228.173, 142.683
229.546, 146.707
230.919, 203.733
232.292, 265.052
233.665, 261.253
235.038, 398.588
236.410, 362.554
237.782, 446.724
239.154, 509.483
240.526, 527.138
241.898, 527.793
243.269, 584.477
244.640, 587.210
246.011, 557.977
247.381, 552.779
248.752, 493.605
250.122, 415.438
251.492, 346.275
252.861, 322.115
254.231, 275.956
255.600, 220.800
256.969, 170.646
258.338, 141.493
259.707, 131.342
261.075, 119.193
262.443, 139.045
263.811, 131.899
265.179, 153.754
266.546, 163.358
267.914, 170.586
269.281, 194.927
270.647, 194.720
272.014, 253.103
273.380, 274.565
274.747, 337.085
276.113, 372.652
277.478, 464.255
278.844, 538.244
280.209, 621.538
281.574, 729.203
282.939, 822.878
284.304, 939.558
285.668, 1031.241
287.032, 1081.924
288.396, 1091.607
289.760, 1147.289
291.123, 1086.970
292.487, 1076.787
293.850, 1116.441
295.212, 1095.122
296.575, 1155.734
297.937, 1203.515
299.300, 1335.090
300.662, 1461.733
302.023, 1572.938
303.385, 1826.538
304.746, 2170.072
306.107, 2527.616
307.468, 2957.583
308.829, 3500.273
310.189, 4023.192
311.549, 4592.905
312.909, 4819.487
314.269, 5119.197
315.629, 5006.831
316.988, 4723.192
318.347, 4295.478
319.706, 3706.640
321.065, 3173.746
322.423, 2625.805
323.781, 2282.837
325.139, 1888.839
326.497, 1596.844
327.855, 1364.854
329.212, 1246.868
330.569, 1150.886
331.926, 1064.907
333.283, 994.931
334.639, 937.958
335.995, 828.986
337.351, 752.017
338.707, 658.050
340.063, 609.084
341.418, 536.121
342.773, 467.159
344.128, 415.717
345.483, 364.240
346.837, 297.283
348.192, 269.327
349.546, 195.373
350.899, 188.419
352.253, 142.468
353.606, 164.516
354.960, 78.566
356.313, 98.616
357.665, 68.667
359.018, 57.718
360.370, 7.231
361.722, 14.813
363.074, 15.855
364.426, 20.248
365.777, 0.929
367.128, 12.968
368.479, 27.548
369.830, 17.638
371.181, 4.336
372.531, 11.506
373.881, 21.418
375.231, 13.312
376.581, 60.907
377.930, 47.704
379.280, 74.158
380.629, 154.120
381.977, 132.101
383.326, 154.696
384.674, 250.352
386.023, 283.846
387.370, 353.165
388.718, 470.464
390.066, 587.352
391.413, 691.460
392.760, 766.095
394.107, 814.543
395.454, 929.664
396.800, 948.642
398.146, 1023.583
399.492, 1151.522
400.838, 1255.541
402.184, 1390.457
403.529, 1457.373
404.874, 1624.288
406.219, 1604.203
407.564, 1629.116
408.908, 1495.028
410.252, 1364.938
411.596, 1163.847
412.940, 969.754
414.284, 775.660
415.627, 653.563
416.970, 529.465
418.313, 425.166
419.656, 350.263
420.999, 282.159
422.341, 253.053
423.683, 216.946
425.025, 135.838
426.367, 179.727
427.708, 105.615
429.049, 118.502
430.390, 82.388
431.731, 85.272
433.072, 126.153
434.412, 72.031
435.752, 110.905
437.092, 155.775
438.432, 199.640
439.772, 210.500
441.111, 184.356
442.450, 195.206
443.789, 209.056
445.127, 170.902
446.466, 176.748
447.804, 142.103
449.142, 87.422
450.480, 73.255
451.817, 46.085
453.155, 15.915
454.492, 46.751
455.829, 35.582
457.166, 64.406
458.502, 13.224
459.838, 60.034
461.175, 28.838
462.510, 1.348
463.846, 33.456
465.181, 46.258
466.517, 42.058
467.852, 1.853
469.186, 13.649
470.521, 13.561
471.855, 11.215
473.190, 23.990
474.523, 10.758
475.857, 14.529
477.191, 102.303
478.524, 140.086
479.857, 236.864
481.190, 254.638
482.523, 318.407
483.855, 354.181
485.187, 328.962
486.519, 251.739
487.851, 243.510
489.183, 177.278
490.514, 117.056
491.845, 159.839
493.176, 103.617
494.507, 126.392
495.837, 117.163
497.168, 93.929
498.498, 153.698
499.828, 211.463
501.157, 246.233
502.487, 244.998
503.816, 323.759
505.145, 436.514
506.474, 524.265
507.802, 664.011
509.131, 788.751
510.459, 851.487
511.787, 937.221
513.115, 1036.950
514.442, 1111.673
515.770, 980.390
517.097, 913.103
518.424, 796.809
519.750, 624.512
521.077, 456.716
522.403, 366.071
523.729, 348.453
525.055, 202.863
526.381, 181.663
527.706, 161.105
529.031, 83.778
530.356, 80.432
531.681, 71.306
533.006, 63.901
534.330, 20.936
535.654, 1.656
536.978, 3.604
538.302, 18.890
539.625, 22.640
540.949, 25.426
542.272, 25.737
543.595, 33.066
544.917, 30.425
546.240, 8.188
547.562, 27.209
548.884, 20.632
550.206, 30.920
551.527, 16.534
552.849, 2.989
554.170, 24.502
555.491, 55.006
556.812, 83.504
558.132, 82.994
559.453, 40.479
560.773, 123.955
562.093, 105.426
563.412, 160.889
564.732, 212.345
566.051, 311.795
567.370, 379.238
568.689, 482.674
570.008, 584.103
571.326, 741.525
572.644, 817.941
573.963, 988.349
575.280, 1001.750
576.598, 1034.145
577.915, 1004.531
579.233, 940.911
580.550, 814.284
581.866, 719.695
583.183, 599.411
584.499, 499.762
585.815, 469.105
587.131, 385.502
588.447, 353.001
589.763, 328.482
591.078, 311.205
592.393, 295.670
593.708, 284.226
595.022, 286.709
596.337, 279.170
597.651, 310.708
598.965, 313.120
600.279, 335.113
601.593, 319.253
602.906, 370.746
604.219, 401.393
605.532, 392.805
606.845, 441.169
608.158, 452.876
609.470, 494.361
610.782, 509.830
612.094, 549.331
613.406, 603.622
614.718, 640.792
616.029, 692.131
617.340, 797.141
618.651, 841.325
619.962, 914.158
621.272, 1067.386
622.582, 1164.318
623.892, 1302.351
625.202, 1505.702
626.512, 1689.012
627.821, 1998.444
629.131, 2323.130
630.440, 2794.569
631.749, 3440.616
633.057, 4051.835
634.366, 4961.415
635.674, 6087.871
636.982, 7645.954
638.290, 9732.126
639.597, 11958.277
640.905, 14936.395
642.212, 17954.943
643.519, 20330.920
644.825, 21766.930
646.132, 21312.988
647.438, 19322.465
648.744, 16670.410
650.050, 13736.374
651.356, 11162.592
652.662, 8858.655
653.967, 7273.550
655.272, 5849.463
656.577, 4833.473
657.882, 3988.455
659.186, 3342.481
660.490, 2830.457
661.794, 2369.385
663.098, 2008.346
664.402, 1751.304
665.705, 1551.104
667.009, 1296.892
668.312, 1204.720
669.614, 1053.488
670.917, 898.343
672.219, 814.107
673.522, 762.948
674.824, 655.673
676.125, 701.951
677.427, 597.807
678.728, 592.576
680.030, 578.651
681.331, 572.736
682.631, 665.107
683.932, 709.615
685.232, 856.025
686.532, 865.725
687.832, 908.450
689.132, 931.088
690.432, 912.018
691.731, 889.872
693.030, 848.357
694.329, 758.181
695.628, 684.664
696.926, 611.312
698.224, 535.148
699.522, 452.329
700.820, 392.217
702.118, 320.254
703.415, 248.455
704.713, 280.664
706.010, 214.271
707.307, 209.646
708.603, 242.483
709.900, 182.494
711.196, 206.809
712.492, 210.241
713.788, 221.692
715.083, 161.132
716.379, 253.472
717.674, 264.893
718.969, 208.304
720.264, 247.705
721.558, 188.097
722.853, 152.479
724.147, 181.852
725.441, 119.216
726.735, 136.570
728.028, 112.914
729.322, 175.249
730.615, 113.575
731.908, 92.892
733.201, 140.199
734.493, 85.497
735.785, 147.787
737.078, 64.066
738.370, 15.337
739.661, 82.595
740.953, 76.844
742.244, 59.085
743.535, 32.317
744.826, 34.702
746.117, 11.749
747.407, 33.948
748.698, 18.136
749.988, 25.314
751.278, 28.482
752.567, 16.639
753.857, 35.786
755.146, 57.923
756.435, 10.948
757.724, 16.158
759.013, 8.746
760.301, 24.329
761.590, 33.394
762.878, 3.550
764.165, 1.488
765.453, 7.489
766.741, 42.486
768.028, 38.480
769.315, 53.438
770.602, 22.387
771.888, 53.328
773.175, 54.261
774.461, 48.814
775.747, 0.929
777.033, 3.055
778.319, 4.198
779.604, 7.645
780.889, 32.524
782.174, 1.279
783.459, 6.930
784.744, 16.219
786.028, 33.612
787.312, 29.636
788.596, 34.910
789.880, 46.214
791.164, 40.444
792.447, 16.096
793.730, 17.739
795.013, 26.626
796.296, 34.016
797.579, 54.565
798.861, 39.139
800.143, 25.707
801.425, 50.733
802.707, 26.767
803.989, 38.288
805.270, 0.219
806.551, 8.263
807.832, 52.738
809.113, 28.792
810.394, 10.653
811.674, 30.909
812.954, 1.505
814.234, 8.912
815.514, 17.311
816.794, 5.704
818.073, 3.091
819.352, 59.471
820.631, 40.846
821.910, 16.784
823.189, 79.570
824.467, 10.920
825.745, 29.264
827.023, 7.603
828.301, 35.937
829.578, 10.735
830.856, 0.417
832.133, 12.895
833.410, 7.798
834.687, 8.500
835.963, 13.791
837.240, 0.941
838.516, 1.355
839.792, 13.630
841.068, 3.900
842.343, 33.166
843.618, 57.427
844.894, 33.685
846.169, 52.940
847.443, 83.193
848.718, 16.553
849.992, 80.698
851.266, 9.045
852.540, 15.214
853.814, 72.481
855.088, 70.755
856.361, 61.037
857.634, 29.318
858.907, 31.606
860.180, 43.900
861.453, 119.192
862.725, 148.488
863.997, 115.784
865.269, 65.078
866.541, 159.371
867.812, 188.661
869.084, 174.952
870.355, 227.240
871.626, 220.534
872.897, 290.838
874.167, 227.140
875.438, 331.442
876.708, 332.743
877.978, 408.052
879.248, 486.360
880.517, 411.667
881.787, 574.982
883.056, 609.297
884.325, 633.610
885.594, 740.921
886.862, 881.232
888.130, 922.553
889.399, 1014.891
890.667, 1053.183
891.934, 1153.160
893.202, 1133.515
894.469, 1123.868
895.737, 1038.166
897.004, 962.355
898.270, 942.557
899.537, 848.510
900.803, 846.713
902.070, 703.832
903.336, 695.015
904.601, 609.220
905.867, 617.342
907.132, 573.584
908.398, 513.920
909.663, 446.735
910.928, 507.873
912.192, 422.849
913.457, 490.054
914.721, 532.299
915.985, 431.639
917.249, 546.309
918.512, 454.428
919.776, 507.365
921.039, 517.650
922.302, 520.001
923.565, 566.226
924.827, 581.585
926.090, 625.951
927.352, 637.580
928.614, 698.232
929.876, 693.767
931.138, 858.247
932.399, 835.384
933.660, 970.123
934.922, 969.003
936.182, 999.389
937.443, 1036.210
938.704, 1049.545
939.964, 1094.562
941.224, 995.269
942.484, 1001.286
943.744, 1038.672
945.003, 991.963
946.262, 1052.267
947.521, 1133.604
948.780, 1099.501
950.039, 1212.967
951.298, 1357.520
952.556, 1535.765
953.814, 1769.709
955.072, 1968.182
956.330, 2287.633
957.587, 2556.833
958.845, 3106.185
960.102, 3614.707
961.359, 4430.203
962.615, 5442.597
963.872, 6716.016
965.128, 8370.386
966.384, 11064.798
967.640, 14069.255
968.896, 18353.668
970.152, 23688.084
971.407, 28122.654
972.662, 32807.227
973.917, 33570.754
975.172, 31345.340
976.427, 27159.828
977.681, 22114.410
978.935, 17708.902
980.189, 13953.509
981.443, 11087.560
982.697, 9032.025
983.950, 7456.583
985.203, 6220.829
986.456, 5536.065
987.709, 4774.667
988.962, 4332.219
990.214, 3932.787
991.467, 3618.418
992.719, 3537.018
993.971, 3253.705
995.222, 3240.397
996.474, 3165.097
997.725, 3071.802
998.976, 3220.514
1000.227, 3046.593
1001.478, 2968.315
1002.728, 2991.748
1003.978, 2811.480
1005.229, 2650.220
1006.479, 2309.967
1007.728, 2173.720
1008.978, 2078.478
1010.227, 1907.241
1011.476, 1823.070
1012.725, 1665.845
1013.974, 1669.626
1015.223, 1775.479
1016.471, 1754.418
1017.719, 1828.221
1018.967, 1928.525
1020.215, 2143.339
1021.462, 2364.771
1022.710, 2461.473
1023.957, 2859.302
1025.204, 2993.553
1026.451, 3106.496
1027.697, 3285.388
1028.944, 3182.656
1030.190, 3149.578
1031.436, 3195.631
1032.682, 3466.573
1033.928, 3773.526
1035.173, 4265.452
1036.418, 4810.332
1037.663, 5392.050
1038.908, 5614.977
1040.153, 5537.873
1041.398, 5020.794
1042.642, 4513.351
1043.886, 3807.268
1045.130, 3044.036
1046.374, 2523.903
1047.617, 2127.887
1048.860, 1776.423
1050.104, 1533.391
1051.347, 1331.386
1052.589, 1131.546
1053.832, 1013.917
1055.074, 823.496
1056.316, 775.676
1057.558, 758.670
1058.800, 629.722
1060.042, 552.745
1061.283, 532.812
1062.524, 507.958
1063.765, 458.050
1065.006, 440.459
1066.247, 412.641
1067.487, 412.892
1068.728, 342.151
1069.968, 363.290
1071.208, 323.512
1072.447, 288.728
1073.687, 380.863
1074.926, 291.106
1076.165, 322.208
1077.404, 299.662
1078.643, 349.840
1079.881, 408.033
1081.120, 363.361
1082.358, 327.766
1083.596, 268.613
1084.834, 265.535
1086.071, 274.766
1087.309, 251.685
1088.546, 252.315
1089.783, 242.289
1091.020, 231.190
1092.256, 220.615
1093.493, 199.816
1094.729, 185.229
1095.965, 246.816
1097.201, 152.029
1098.436, 97.373
1099.672, 209.739
1100.907, 90.246
1102.142, 126.601
1103.377, 159.952
1104.612, 64.500
1105.846, 198.285
1107.081, 107.673
1108.315, 126.786
1109.549, 138.181
1110.782, 94.753
1112.016, 127.146
1113.249, 133.413
1114.483, 81.680
1115.716, 116.289
1116.948, 94.562
1118.181, 80.879
1119.413, 168.374
1120.646, 166.672
1121.878, 193.938
1123.110, 224.448
1124.341, 203.871
1125.573, 149.346
1126.804, 82.613
1128.035, 106.248
1129.266, 191.695
1130.497, 105.187
1131.727, 170.833
1132.957, 82.115
1134.188, 64.093
1135.418, 118.379
1136.647, 31.660
1137.877, 87.489
1139.106, 105.771
1140.335, 63.042
1141.564, 159.606
1142.793, 60.870
1144.022, 35.340
1145.250, 102.793
1146.479, 25.046
1147.707, 98.373
1148.934, 117.673
1150.162, 10.939
1151.390, 103.560
1152.617, 29.936
1153.844, 69.419
1155.071, 73.926
1156.298, 19.186
1157.524, 158.659
1158.751, 6.093
1159.977, 42.294
1161.203, 68.646
1162.428, 6.836
1163.654, 1.811
1164.879, 58.913
1166.105, 11.767
1167.330, 39.415
1168.555, 32.075
1169.779, 51.840
1171.004, 95.395
1172.228, 8.517
1173.452, 7.560
1174.676, 37.102
1175.900, 7.795
1177.123, 19.422
1178.346, 38.296
1179.570, 5.948
1180.793, 30.993
1182.015, 27.701
1183.238, 47.788
1184.460, 46.550
1185.683, 65.425
1186.905, 50.551
1188.126, 42.384
1189.348, 73.566
1190.569, 105.562
1191.791, 11.926
1193.012, 13.127
1194.233, 40.134
1195.453, 6.873
1196.674, 48.125
1197.894, 45.381
1199.114, 6.313
1200.334, 18.805
1201.554, 5.723
1202.774, 6.919
1203.993, 52.692
1205.212, 40.963
1206.431, 50.793
1207.650, 42.692
1208.869, 26.509
1210.087, 41.079
1211.305, 0.116
1212.524, 23.657
1213.741, 9.206
1214.959, 10.057
1216.177, 43.562
1217.394, 25.429
1218.611, 28.166
1219.828, 48.626
1221.045, 24.211
1222.261, 58.644
1223.478, 3.236
1224.694, 47.992
1225.910, 46.380
1227.126, 19.834
1228.342, 8.697
1229.557, 0.495
1230.772, 12.629
1231.987, 21.013
1233.202, 48.611
1234.417, 147.716
1235.631, 88.122
1236.846, 91.842
1238.060, 31.912
1239.274, 127.136
1240.488, 36.411
1241.701, 12.728
1242.915, 140.114
1244.128, 60.354
1245.341, 55.611
1246.554, 24.748
1247.767, 60.498
1248.979, 65.610
1250.191, 25.083
1251.403, 22.830
1252.615, 61.234
1253.827, 11.628
1255.039, 60.404
1256.250, 26.422
1257.461, 65.192
1258.672, 153.179
1259.883, 117.139
1261.094, 28.237
1262.304, 138.167
1263.514, 91.083
1264.724, 49.101
1265.934, 96.025
1267.144, 46.898
1268.354, 161.907
1269.563, 67.749
1270.772, 56.022
1271.981, 105.878
1273.190, 29.673
1274.398, 64.384
1275.607, 54.138
1276.815, 36.784
1278.023, 196.721
1279.231, 19.425
1280.439, 22.023
1281.646, 234.642
1282.853, 26.278
1284.060, 115.157
1285.267, 126.743
1286.474, 49.323
1287.681, 139.030
1288.887, 68.554
1290.093, 72.137
1291.299, 187.896
1292.505, 101.363
1293.711, 107.812
1294.916, 115.416
1296.121, 42.819
1297.327, 88.211
1298.531, 61.585
1299.736, 55.941
1300.941, 113.279
1302.145, 61.602
1303.349, 69.948
1304.553, 173.158
1305.757, 87.406
1306.961, 141.621
1308.164, 84.727
1309.367, 5.729
1310.570, 89.851
1311.773, 120.457
1312.976, 50.540
1314.178, 99.992
1315.381, 90.156
1316.583, 134.177
1317.785, 131.850
1318.987, 59.729
1320.188, 59.640
1321.390, 78.141
1322.591, 60.948
1323.792, 61.946
1324.993, 107.385
1326.193, 22.189
1327.394, 93.952
1328.594, 23.734
1329.794, 72.602
1330.994, 94.232
1332.194, 7.123
1333.394, 72.475
1334.593, 43.420
1335.792, 5.015
1336.991, 109.676
1338.190, 25.249
1339.389, 55.685
1340.587, 50.549
1341.786, 12.965
1342.984, 117.333
1344.182, 61.515
1345.379, 27.467
1346.577, 118.194
1347.774, 73.300
1348.972, 28.569
1350.169, 46.760
1351.365, 20.964
1352.562, 52.106
1353.759, 120.329
1354.955, 23.408
1356.151, 142.150
1357.347, 103.524
1358.543, 37.395
1359.738, 107.244
1360.934, 32.209
1362.129, 46.075
1363.324, 181.938
1364.519, 74.939
1365.713, 203.729
1366.908, 66.721
1368.102, 35.283
1369.296, 143.076
1370.490, 13.160
1371.684, 22.454
1372.877, 44.965
1374.071, 11.983
1375.264, 87.475
1376.457, 39.959
1377.650, 25.242
1378.843, 71.438
1380.035, 23.878
1381.227, 8.762
1382.419, 152.630
1383.611, 92.292
1384.803, 80.051
1385.995, 60.623
1387.186, 93.165
1388.377, 82.271
1389.568, 183.014
1390.759, 15.380
1391.950, 120.199
1393.140, 32.605
1394.331, 115.055
1395.521, 178.476
1396.711, 85.991
1397.900, 112.414
1399.090, 187.405
1400.279, 11.286
1401.469, 121.975
1402.658, 144.871
1403.847, 15.397
1405.035, 115.611
1406.224, 112.690
1407.412, 75.749
1408.600, 94.856
1409.788, 120.585
1410.976, 67.288
1412.164, 122.043
1413.351, 25.551
1414.538, 92.451
1415.725, 161.301
1416.912, 4.056
1418.099, 142.534
1419.285, 59.797
1420.472, 50.204
1421.658, 182.440
1422.844, 5.778
1424.030, 99.305
1425.215, 167.006
1426.401, 42.595
1427.586, 107.466
1428.771, 95.635
1429.956, 56.924
1431.141, 184.692
1432.325, 75.962
1433.510, 37.532
1434.694, 171.739
1435.878, 136.705
1437.062, 53.269
1438.245, 312.697
1439.429, 105.685
1440.612, 110.856
1441.795, 130.955
1442.978, 135.240
1444.161, 207.732
1445.343, 84.495
1446.526, 104.301
1447.708, 225.473
1448.890, 96.083
1450.072, 210.455
1451.253, 262.671
1452.435, 103.367
1453.616, 159.326
1454.797, 280.044
1455.978, 154.099
1457.159, 286.958
1458.340, 249.283
1459.520, 60.175
1460.700, 229.205
1461.880, 133.380
1463.060, 102.162
1464.240, 273.994
1465.420, 121.381
1466.599, 191.709
1467.778, 164.193
1468.957, 91.651
1470.136, 242.638
1471.315, 131.683
1472.493, 118.241
1473.671, 330.142
1474.849, 89.254
1476.027, 115.584
1477.205, 215.162
1478.383, 71.018
1479.560, 178.087
1480.737, 209.643
1481.914, 54.101
1483.091, 168.439
1484.268, 124.553
1485.444, 51.847
1486.621, 236.287
1487.797, 148.102
1488.973, 87.946
1490.149, 143.138
1491.324, 83.798
1492.500, 86.861
1493.675, 185.885
1494.850, 0.804
1496.025, 120.654
1497.200, 153.181
1498.374, 6.255
1499.548, 128.323
1500.723, 166.948
1501.897, 49.589
1503.071, 150.261
1504.244, 25.974
1505.418, 7.721
1506.591, 167.561
1507.764, 8.535
1508.937, 24.659
1510.110, 167.470
1511.282, 48.005
1512.455, 45.465
1513.627, 176.027
1514.799, 83.064
1515.971, 163.562
1517.143, 107.339
1518.314, 0.415
1519.486, 105.729
1520.657, 0.000
##END=



