##NAMES=Bustamite
##RRUFFID=R040014
##IDEAL CHEMISTRY=CaMn^2+^Si_2_O_6_
##LOCALITY=Broken Hill, New South Wales, Australia
##OWNER=RRUFF
##SOURCE=University of Arizona Mineral Museum
##DESCRIPTION=Orange fragment
##STATUS=The identification of this mineral has been confirmed by X-ray diffraction and chemical analysis
##URL=rruff.info/R040014
##MEASURED CHEMISTRY=(Ca_0.90_Mn_0.10_)_Σ=1_(Mn^2+^_0.78_Fe^2+^_0.19_Fe^3+^_0.02_Mg_0.01_)_Σ=1_(Si_1.98_Fe^3+^_0.02_)_Σ=2_O_6_
##PIN_ID=M00115
##ORIENTATION=Laser parallel to (-1 -1 0). Fiducial mark perpendicular to laser is parallel to c [0 0 1]
123.286, 0.000
124.675, 4.125
126.063, 74.835
127.452, 215.640
128.840, 406.941
130.228, 697.455
131.615, 942.094
133.003, 1169.093
134.390, 1275.452
135.777, 1441.025
137.164, 1565.855
138.550, 1537.811
139.937, 1400.416
141.323, 1168.969
142.709, 959.661
144.094, 788.304
145.480, 637.459
146.865, 606.212
148.250, 528.823
149.635, 511.321
151.019, 480.355
152.403, 604.705
153.788, 560.685
155.171, 623.849
156.555, 548.702
157.939, 434.590
159.322, 321.327
160.705, 287.722
162.088, 160.824
163.470, 164.521
164.853, 162.736
166.235, 183.226
167.617, 241.850
168.998, 259.673
170.380, 272.986
171.761, 342.008
173.142, 278.781
174.523, 362.479
175.904, 314.275
177.284, 307.161
178.664, 230.128
180.044, 164.168
181.424, 78.324
182.803, 95.657
184.183, 63.176
185.562, 37.952
186.940, 99.977
188.319, 102.068
189.698, 127.136
191.076, 207.141
192.454, 197.086
193.831, 199.974
195.209, 221.806
196.586, 150.586
197.963, 108.315
199.340, 142.004
200.717, 50.673
202.093, 3.321
203.470, 46.074
204.846, 72.860
206.221, 102.956
207.597, 72.257
208.972, 112.418
210.347, 69.449
211.722, 65.365
213.097, 2.179
214.472, 26.900
215.846, 19.535
217.220, 305.911
218.594, 216.572
219.967, 276.242
221.341, 310.733
222.714, 263.398
224.087, 391.071
225.460, 461.747
226.832, 692.409
228.204, 807.044
229.577, 897.654
230.948, 1042.237
232.320, 1133.781
233.692, 1234.704
235.063, 1328.701
236.434, 1433.463
237.805, 1513.047
239.175, 1636.190
240.545, 1733.419
241.916, 1711.923
243.286, 1747.256
244.655, 1717.799
246.025, 1626.128
247.394, 1451.558
248.763, 1302.934
250.132, 1159.934
251.501, 1041.791
252.869, 912.267
254.237, 767.912
255.605, 644.481
256.973, 564.995
258.340, 483.507
259.708, 428.017
261.075, 397.519
262.442, 353.010
263.808, 385.490
265.175, 383.957
266.541, 419.411
267.907, 432.850
269.273, 488.273
270.639, 555.681
272.004, 589.071
273.369, 683.693
274.734, 780.551
276.099, 863.852
277.463, 926.020
278.828, 1024.067
280.192, 1020.992
281.556, 1082.232
282.919, 996.457
284.283, 1042.666
285.646, 1085.858
287.009, 1063.034
288.372, 1108.129
289.734, 1104.946
291.097, 1021.022
292.459, 996.250
293.821, 1040.368
295.183, 998.370
296.544, 1011.190
297.905, 1040.873
299.266, 1081.406
300.627, 1232.782
301.988, 1381.034
303.348, 1494.237
304.709, 1793.470
306.069, 2049.650
307.428, 2532.703
308.788, 2918.764
310.147, 3461.941
311.507, 4035.845
312.865, 4418.395
314.224, 4920.385
315.583, 5072.525
316.941, 5025.202
318.299, 4718.858
319.657, 4172.979
321.015, 3551.948
322.372, 2976.867
323.729, 2426.641
325.086, 1999.512
326.443, 1735.939
327.800, 1502.176
329.156, 1296.760
330.512, 1195.816
331.868, 1069.395
333.224, 1008.144
334.579, 909.790
335.935, 856.836
337.290, 756.377
338.645, 660.666
339.999, 596.511
341.354, 514.526
342.708, 450.139
344.062, 397.016
345.416, 330.666
346.769, 309.372
348.123, 259.563
349.476, 203.200
350.829, 200.995
352.182, 157.822
353.534, 126.949
354.887, 48.712
356.239, 92.417
357.591, 90.125
358.942, 22.913
360.294, 74.218
361.645, 32.155
362.996, 30.379
364.347, 40.771
365.698, 31.667
367.048, 13.318
368.398, 31.847
369.748, 4.600
371.098, 29.795
372.448, 39.136
373.797, 0.312
375.146, 27.589
376.495, 33.644
377.844, 49.562
379.192, 44.215
380.540, 65.552
381.889, 131.355
383.236, 129.522
384.584, 224.799
385.932, 314.702
387.279, 382.104
388.626, 517.540
389.973, 585.983
391.319, 716.347
392.666, 800.668
394.012, 943.887
395.358, 987.006
396.704, 1096.954
398.049, 1244.836
399.394, 1358.698
400.740, 1392.535
402.084, 1456.346
403.429, 1571.126
404.774, 1540.873
406.118, 1524.588
407.462, 1390.271
408.806, 1259.913
410.150, 1136.508
411.493, 963.062
412.836, 755.580
414.179, 642.077
415.522, 486.553
416.865, 404.013
418.207, 288.460
419.549, 232.896
420.891, 153.319
422.233, 193.730
423.575, 107.128
424.916, 112.512
426.257, 79.882
427.598, 136.238
428.939, 74.581
430.279, 94.909
431.619, 132.223
432.959, 100.525
434.299, 143.813
435.639, 209.095
436.978, 294.372
438.318, 313.636
439.657, 298.886
440.996, 419.120
442.334, 377.340
443.673, 442.548
445.011, 381.744
446.349, 321.928
447.687, 298.103
449.024, 217.278
450.361, 213.418
451.699, 198.528
453.036, 144.605
454.372, 155.645
455.709, 160.651
457.045, 176.621
458.381, 178.558
459.717, 193.465
461.053, 181.339
462.388, 170.178
463.724, 141.985
465.059, 93.765
466.394, 67.517
467.728, 58.242
469.063, 8.951
470.397, 8.375
471.731, 43.734
473.065, 25.171
474.398, 70.414
475.732, 0.948
477.065, 57.449
478.398, 12.921
479.731, 92.362
481.063, 92.778
482.396, 78.180
483.728, 88.572
485.060, 37.870
486.391, 59.185
487.723, 17.482
489.054, 24.765
490.385, 29.037
491.716, 33.709
493.047, 16.518
494.377, 30.273
495.708, 14.097
497.038, 51.071
498.368, 5.774
499.697, 59.362
501.027, 23.482
502.356, 53.582
503.685, 102.666
505.014, 90.736
506.342, 223.798
507.671, 192.802
508.999, 273.601
510.327, 290.188
511.655, 319.768
512.982, 378.178
514.310, 388.454
515.637, 394.166
516.964, 337.238
518.291, 251.286
519.617, 244.680
520.944, 135.586
522.270, 160.100
523.596, 70.592
524.921, 80.220
526.247, 33.764
527.572, 3.853
528.897, 36.975
530.222, 17.534
531.547, 0.312
532.871, 19.327
534.196, 26.618
535.520, 8.257
536.844, 14.156
538.167, 37.903
539.491, 7.324
540.814, 39.367
542.137, 9.182
543.460, 12.710
544.783, 50.623
546.105, 26.563
547.427, 13.485
548.749, 6.388
550.071, 20.272
551.393, 24.911
552.714, 44.334
554.035, 62.819
555.356, 98.635
556.677, 132.434
557.998, 175.220
559.318, 193.990
560.638, 253.747
561.958, 304.488
563.278, 328.216
564.597, 440.928
565.917, 527.627
567.236, 669.311
568.555, 871.982
569.874, 1056.638
571.192, 1236.281
572.511, 1511.911
573.829, 1648.526
575.147, 1774.128
576.464, 1764.717
577.782, 1719.292
579.099, 1572.854
580.416, 1357.175
581.733, 1170.656
583.050, 1044.765
584.366, 894.888
585.683, 775.175
586.999, 646.069
588.315, 589.005
589.630, 505.078
590.946, 475.343
592.261, 409.371
593.576, 447.535
594.891, 447.824
596.206, 397.214
597.520, 407.624
598.834, 409.046
600.148, 465.422
601.462, 506.755
602.776, 481.180
604.089, 490.575
605.402, 556.217
606.715, 542.377
608.028, 601.868
609.341, 674.167
610.653, 682.261
611.965, 718.376
613.277, 799.294
614.589, 828.471
615.901, 886.429
617.212, 1019.665
618.523, 1068.211
619.834, 1217.502
621.145, 1336.639
622.456, 1591.541
623.766, 1732.841
625.076, 1938.450
626.386, 2292.697
627.696, 2612.247
629.006, 3161.538
630.315, 3765.589
631.624, 4521.708
632.933, 5552.841
634.242, 6593.177
635.551, 8339.842
636.859, 10316.220
638.167, 12873.143
639.475, 16069.868
640.783, 19996.811
642.090, 23203.494
643.398, 26580.574
644.705, 27738.531
646.012, 27187.406
647.318, 24636.055
648.625, 21382.826
649.931, 17739.062
651.237, 14365.457
652.543, 11760.299
653.849, 9369.752
655.155, 7796.953
656.460, 6292.148
657.765, 5299.564
659.070, 4392.823
660.375, 3645.225
661.679, 3125.801
662.984, 2734.320
664.288, 2266.069
665.592, 2077.807
666.895, 1753.471
668.199, 1534.933
669.502, 1387.759
670.805, 1231.460
672.108, 1133.154
673.411, 1015.711
674.713, 943.522
676.016, 852.195
677.318, 841.864
678.620, 815.858
679.921, 819.515
681.223, 899.899
682.524, 939.820
683.825, 1041.048
685.126, 1230.164
686.427, 1361.438
687.727, 1521.912
689.028, 1665.032
690.328, 1719.465
691.628, 1617.518
692.927, 1614.414
694.227, 1430.085
695.526, 1195.757
696.825, 1074.915
698.124, 981.208
699.423, 758.361
700.721, 697.523
702.020, 574.835
703.318, 589.039
704.616, 514.180
705.913, 435.283
707.211, 484.437
708.508, 433.602
709.805, 510.840
711.102, 595.148
712.399, 649.599
713.695, 708.087
714.992, 762.564
716.288, 946.032
717.584, 920.490
718.879, 938.938
720.175, 776.377
721.470, 763.806
722.765, 587.226
724.060, 530.636
725.355, 524.037
726.649, 392.429
727.944, 398.812
729.238, 323.185
730.532, 354.550
731.825, 345.905
733.119, 273.251
734.412, 240.589
735.705, 158.919
736.998, 245.240
738.291, 208.554
739.584, 162.861
740.876, 118.160
742.168, 66.454
743.460, 71.741
744.752, 43.022
746.043, 31.297
747.334, 53.564
748.626, 19.176
749.916, 17.939
751.207, 3.728
752.498, 44.467
753.788, 37.654
755.078, 44.820
756.368, 51.598
757.658, 25.168
758.947, 28.325
760.237, 7.474
761.526, 35.388
762.815, 10.719
764.104, 6.184
765.392, 3.103
766.680, 30.963
767.969, 2.976
769.257, 26.070
770.544, 2.889
771.832, 7.862
773.119, 4.148
774.406, 11.150
775.693, 30.143
776.980, 22.868
778.267, 16.902
779.553, 23.954
780.839, 67.027
782.125, 7.856
783.411, 13.264
784.697, 25.396
785.982, 7.538
787.267, 34.685
788.552, 17.143
789.837, 6.970
791.122, 18.792
792.406, 2.613
793.690, 9.521
794.974, 0.239
796.258, 10.043
797.542, 6.156
798.825, 20.362
800.108, 38.584
801.391, 34.768
802.674, 3.097
803.957, 24.371
805.239, 2.348
806.522, 9.064
807.804, 60.213
809.085, 11.521
810.367, 18.839
811.649, 20.834
812.930, 24.506
814.211, 3.177
815.492, 25.848
816.772, 22.516
818.053, 11.184
819.333, 4.850
820.613, 66.486
821.893, 13.859
823.173, 54.240
824.452, 35.349
825.732, 10.937
827.011, 10.522
828.290, 115.107
829.568, 11.691
830.847, 22.274
832.125, 9.145
833.403, 18.432
834.681, 45.008
835.959, 13.415
837.236, 41.156
838.514, 7.729
839.791, 57.303
841.068, 48.878
842.345, 0.542
843.621, 99.041
844.898, 11.628
846.174, 18.222
847.450, 40.820
848.726, 31.578
850.001, 30.022
851.277, 30.623
852.552, 19.236
853.827, 37.850
855.102, 53.467
856.376, 66.085
857.651, 74.391
858.925, 71.528
860.199, 82.954
861.473, 59.582
862.746, 57.212
864.020, 57.845
865.293, 101.480
866.566, 122.116
867.839, 122.753
869.112, 142.392
870.384, 121.033
871.656, 129.675
872.928, 214.319
874.200, 233.965
875.472, 206.613
876.744, 317.263
878.015, 281.915
879.286, 391.569
880.557, 427.226
881.828, 467.890
883.098, 604.557
884.369, 571.233
885.639, 703.912
886.909, 818.593
888.178, 833.282
889.448, 981.974
890.717, 1050.669
891.987, 1049.376
893.256, 1056.087
894.524, 1042.804
895.793, 990.532
897.061, 1025.262
898.330, 918.940
899.598, 865.576
900.865, 830.317
902.133, 807.097
903.401, 744.206
904.668, 696.737
905.935, 637.484
907.202, 580.211
908.468, 527.975
909.735, 508.477
911.001, 534.489
912.267, 509.230
913.533, 557.716
914.799, 614.683
916.064, 619.312
917.330, 549.125
918.595, 540.145
919.860, 575.975
921.124, 571.043
922.389, 658.878
923.653, 604.995
924.918, 691.852
926.182, 717.418
927.445, 755.232
928.709, 762.160
929.972, 807.390
931.236, 850.647
932.499, 869.678
933.761, 922.030
935.024, 922.023
936.286, 1010.638
937.549, 990.690
938.811, 1041.844
940.073, 1116.375
941.334, 1055.388
942.596, 1069.345
943.857, 1037.399
945.118, 1137.244
946.379, 1137.283
947.640, 1343.048
948.900, 1383.118
950.161, 1514.595
951.421, 1646.282
952.681, 1790.882
953.940, 2028.752
955.200, 2372.512
956.459, 2612.084
957.719, 3177.180
958.978, 3645.373
960.236, 4546.814
961.495, 5541.249
962.753, 6872.293
964.012, 8468.554
965.270, 10904.821
966.527, 13821.074
967.785, 18197.361
969.043, 23673.656
970.300, 29549.967
971.557, 36606.301
972.814, 40568.688
974.071, 41884.305
975.327, 39827.531
976.583, 34703.898
977.840, 29170.279
979.095, 23316.668
980.351, 18673.088
981.607, 15129.512
982.862, 12285.949
984.117, 10302.071
985.372, 8828.539
986.627, 7585.019
987.882, 6831.014
989.136, 6157.516
990.390, 5744.027
991.644, 5470.550
992.898, 5141.083
994.152, 5029.604
995.405, 4827.157
996.659, 4732.719
997.912, 4709.293
999.165, 4489.876
1000.417, 4526.203
1001.670, 4287.805
1002.922, 4035.418
1004.174, 3795.041
1005.426, 3436.674
1006.678, 3124.316
1007.930, 2878.969
1009.181, 2629.632
1010.432, 2447.144
1011.683, 2329.988
1012.934, 2167.681
1014.185, 2117.385
1015.435, 2046.099
1016.685, 2046.822
1017.935, 2007.555
1019.185, 2075.298
1020.435, 2052.062
1021.684, 2172.834
1022.934, 2289.617
1024.183, 2367.409
1025.432, 2518.213
1026.680, 2822.026
1027.929, 2930.850
1029.177, 3296.682
1030.425, 3659.522
1031.673, 4343.548
1032.921, 5243.408
1034.169, 6369.510
1035.416, 7536.390
1036.663, 9113.296
1037.911, 9801.162
1039.157, 10288.067
1040.404, 9784.994
1041.650, 8833.907
1042.897, 7810.854
1044.143, 6348.409
1045.389, 5232.781
1046.634, 4277.752
1047.880, 3580.573
1049.125, 2958.608
1050.371, 2471.639
1051.615, 2065.728
1052.860, 1838.754
1054.105, 1473.487
1055.349, 1328.228
1056.593, 1238.320
1057.837, 1053.465
1059.081, 971.639
1060.325, 893.920
1061.568, 812.640
1062.812, 732.837
1064.055, 707.973
1065.298, 679.227
1066.540, 652.380
1067.783, 556.646
1069.025, 602.306
1070.267, 489.507
1071.509, 533.333
1072.751, 490.535
1073.993, 519.410
1075.234, 499.254
1076.475, 448.561
1077.716, 381.991
1078.957, 478.246
1080.198, 423.856
1081.438, 422.933
1082.679, 508.220
1083.919, 414.188
1085.159, 389.421
1086.398, 339.753
1087.638, 388.875
1088.877, 318.298
1090.116, 336.770
1091.355, 336.553
1092.594, 317.942
1093.833, 311.402
1095.071, 295.896
1096.309, 250.271
1097.547, 255.594
1098.785, 245.405
1100.023, 207.108
1101.260, 261.723
1102.498, 232.170
1103.735, 234.648
1104.972, 286.115
1106.208, 201.591
1107.445, 225.120
1108.681, 192.792
1109.918, 189.296
1111.154, 248.050
1112.389, 159.569
1113.625, 251.138
1114.860, 219.924
1116.096, 151.453
1117.331, 194.218
1118.566, 227.768
1119.800, 147.409
1121.035, 256.963
1122.269, 153.679
1123.503, 168.384
1124.737, 229.003
1125.971, 178.956
1127.205, 237.203
1128.438, 209.702
1129.671, 191.285
1130.904, 206.101
1132.137, 147.040
1133.370, 194.655
1134.602, 191.027
1135.834, 168.616
1137.066, 198.244
1138.298, 124.928
1139.530, 119.519
1140.762, 151.110
1141.993, 173.701
1143.224, 168.786
1144.455, 171.347
1145.686, 155.715
1146.917, 170.304
1148.147, 139.892
1149.377, 192.485
1150.607, 173.080
1151.837, 67.669
1153.067, 174.259
1154.296, 107.846
1155.526, 99.556
1156.755, 132.140
1157.984, 140.860
1159.213, 84.441
1160.441, 78.172
1161.670, 92.953
1162.898, 26.526
1164.126, 80.098
1165.354, 34.678
1166.581, 73.245
1167.809, 42.292
1169.036, 56.852
1170.263, 59.410
1171.490, 50.130
1172.717, 47.872
1173.943, 58.485
1175.170, 25.029
1176.396, 47.570
1177.622, 14.107
1178.848, 27.359
1180.073, 52.159
1181.299, 27.328
1182.524, 10.243
1183.749, 4.765
1184.974, 21.649
1186.199, 15.226
1187.423, 46.816
1188.648, 35.712
1189.872, 45.802
1191.096, 12.729
1192.320, 25.303
1193.543, 34.191
1194.767, 15.343
1195.990, 11.045
1197.213, 17.529
1198.436, 5.229
1199.659, 33.667
1200.881, 26.674
1202.104, 26.132
1203.326, 22.198
1204.548, 16.715
1205.770, 13.062
1206.991, 63.551
1208.213, 6.291
1209.434, 15.984
1210.655, 27.761
1211.876, 11.496
1213.096, 46.692
1214.317, 28.031
1215.537, 17.822
1216.757, 37.320
1217.977, 19.452
1219.197, 79.661
1220.417, 35.139
1221.636, 50.064
1222.855, 28.003
1224.074, 7.458
1225.293, 45.476
1226.512, 3.623
1227.731, 19.379
1228.949, 80.596
1230.167, 0.437
1231.385, 20.130
1232.603, 110.797
1233.820, 16.718
1235.038, 41.285
1236.255, 34.175
1237.472, 25.850
1238.689, 98.000
1239.906, 42.842
1241.122, 50.676
1242.338, 53.499
1243.555, 0.702
1244.771, 18.914
1245.986, 11.152
1247.202, 22.596
1248.417, 72.334
1249.633, 16.935
1250.848, 102.777
1252.063, 120.481
1253.277, 55.206
1254.492, 25.882
1255.706, 68.572
1256.920, 22.232
1258.134, 79.980
1259.348, 58.640
1260.562, 22.536
1261.775, 82.119
1262.988, 25.686
1264.201, 68.288
1265.414, 15.167
1266.627, 69.361
1267.839, 35.878
1269.052, 40.384
1270.264, 64.880
1271.476, 20.364
1272.688, 10.835
1273.899, 42.545
1275.111, 86.884
1276.322, 31.301
1277.533, 17.036
1278.744, 72.333
1279.955, 9.688
1281.165, 162.028
1282.376, 71.357
1283.586, 58.673
1284.796, 135.978
1286.006, 101.267
1287.215, 89.531
1288.425, 44.782
1289.634, 69.020
1290.843, 76.245
1292.052, 123.455
1293.261, 145.649
1294.469, 95.831
1295.678, 83.984
1296.886, 120.124
1298.094, 158.251
1299.302, 96.365
1300.509, 56.466
1301.717, 136.553
1302.924, 53.627
1304.131, 129.689
1305.338, 50.734
1306.545, 43.766
1307.752, 157.785
1308.958, 98.789
1310.164, 85.789
1311.370, 136.753
1312.576, 15.295
1313.782, 130.634
1314.987, 299.551
1316.193, 52.454
1317.398, 46.345
1318.603, 74.223
1319.807, 97.087
1321.012, 113.939
1322.216, 117.879
1323.421, 108.600
1324.625, 103.236
1325.829, 98.515
1327.032, 71.588
1328.236, 82.361
1329.439, 66.102
1330.642, 28.882
1331.845, 10.389
1333.048, 87.318
1334.251, 70.037
1335.453, 79.719
1336.656, 109.789
1337.858, 65.039
1339.060, 70.686
1340.261, 106.482
1341.463, 75.061
1342.664, 25.643
1343.866, 66.165
1345.067, 31.754
1346.267, 39.644
1347.468, 77.551
1348.669, 15.918
1349.869, 70.559
1351.069, 59.006
1352.269, 75.345
1353.469, 68.242
1354.668, 71.649
1355.868, 63.146
1357.067, 77.558
1358.266, 55.036
1359.465, 63.407
1360.664, 113.388
1361.862, 50.830
1363.061, 169.690
1364.259, 49.167
1365.457, 91.947
1366.655, 58.765
1367.852, 8.126
1369.050, 100.368
1370.247, 33.789
1371.444, 73.868
1372.641, 119.495
1373.838, 99.924
1375.035, 10.699
1376.231, 93.220
1377.427, 14.467
1378.623, 37.206
1379.819, 69.600
1381.015, 39.801
1382.211, 68.600
1383.406, 94.718
1384.601, 77.532
1385.796, 73.473
1386.991, 74.572
1388.185, 66.205
1389.380, 71.899
1390.574, 71.611
1391.768, 127.154
1392.962, 136.615
1394.156, 112.455
1395.350, 70.396
1396.543, 44.708
1397.736, 77.121
1398.929, 48.499
1400.122, 51.882
1401.315, 19.934
1402.507, 33.601
1403.700, 0.117
1404.892, 45.223
1406.084, 75.474
1407.276, 35.812
1408.467, 50.867
1409.659, 51.123
1410.850, 141.392
1412.041, 56.636
1413.232, 64.861
1414.423, 131.906
1415.614, 86.908
1416.804, 10.597
1417.994, 131.724
1419.184, 66.815
1420.374, 1.456
1421.564, 125.354
1422.753, 46.982
1423.943, 66.950
1425.132, 72.894
1426.321, 79.831
1427.510, 66.327
1428.698, 76.797
1429.887, 36.528
1431.075, 77.223
1432.263, 99.935
1433.451, 52.672
1434.639, 117.819
1435.827, 73.017
1437.014, 78.459
1438.201, 73.577
1439.388, 127.147
1440.575, 92.801
1441.762, 177.478
1442.949, 167.009
1444.135, 98.621
1445.321, 169.228
1446.507, 111.989
1447.693, 105.035
1448.879, 168.582
1450.064, 125.386
1451.250, 166.519
1452.435, 16.074
1453.620, 140.621
1454.805, 191.373
1455.989, 102.098
1457.174, 169.860
1458.358, 167.624
1459.542, 125.354
1460.726, 161.057
1461.910, 197.682
1463.093, 139.303
1464.277, 233.667
1465.460, 177.724
1466.643, 196.379
1467.826, 142.118
1469.009, 139.831
1470.191, 166.520
1471.373, 173.764
1472.556, 145.410
1473.738, 214.367
1474.919, 188.049
1476.101, 157.714
1477.283, 173.377
1478.464, 156.016
1479.645, 189.859
1480.826, 130.620
1482.007, 162.445
1483.187, 98.329
1484.368, 99.224
1485.548, 73.132
1486.728, 96.059
1487.908, 78.009
1489.088, 7.954
1490.268, 141.060
1491.447, 14.187
1492.626, 156.334
1493.805, 203.511
1494.984, 60.728
1496.163, 78.017
1497.341, 109.348
1498.520, 7.737
1499.698, 94.214
1500.876, 124.779
1502.054, 20.425
1503.232, 93.158
1504.409, 9.981
1505.586, 13.904
1506.763, 135.940
1507.940, 66.916
1509.117, 45.199
1510.294, 119.636
1511.470, 39.247
1512.647, 135.666
1513.823, 66.658
1514.999, 97.332
1516.174, 128.337
1517.350, 49.065
1518.526, 4.848
1519.701, 146.739
1520.876, 105.087
1522.051, 41.625
1523.226, 73.340
1524.400, 0.000
##END=



