##NAMES=Bustamite
##RRUFFID=R040014
##IDEAL CHEMISTRY=CaMn^2+^Si_2_O_6_
##LOCALITY=Broken Hill, New South Wales, Australia
##OWNER=RRUFF
##SOURCE=University of Arizona Mineral Museum
##DESCRIPTION=Orange fragment
##STATUS=The identification of this mineral has been confirmed by X-ray diffraction and chemical analysis
##URL=rruff.info/R040014
##MEASURED CHEMISTRY=(Ca_0.90_Mn_0.10_)_Σ=1_(Mn^2+^_0.78_Fe^2+^_0.19_Fe^3+^_0.02_Mg_0.01_)_Σ=1_(Si_1.98_Fe^3+^_0.02_)_Σ=2_O_6_
##PIN_ID=M00138
##ORIENTATION=Laser parallel to c* (0 0 1). Fiducial mark perpendicular to laser is parallel to -a [-1 0 0]
91.284, 0.000
92.678, 6.222
94.071, 33.243
95.465, 53.948
96.858, 142.779
98.251, 205.638
99.644, 324.586
101.036, 441.836
102.428, 505.892
103.820, 589.610
105.212, 763.245
106.604, 866.784
107.995, 1218.067
109.387, 1872.400
110.777, 2365.213
112.168, 1746.116
113.559, 1239.838
114.949, 1033.188
116.339, 975.044
117.729, 1109.384
119.119, 1319.250
120.508, 1737.793
121.897, 2185.828
123.286, 3031.652
124.675, 3563.194
126.063, 3990.115
127.452, 4013.503
128.840, 3647.429
130.228, 3494.953
131.615, 3216.129
133.003, 3408.001
134.390, 3372.604
135.777, 3459.969
137.164, 3396.126
138.550, 3167.106
139.937, 2932.930
141.323, 2485.830
142.709, 2200.402
144.094, 1859.216
145.480, 1641.326
146.865, 1490.460
148.250, 1364.124
149.635, 1335.405
151.019, 1301.938
152.403, 1326.506
153.788, 1297.079
155.171, 1332.970
156.555, 1256.289
157.939, 1189.041
159.322, 1057.903
160.705, 914.869
162.088, 806.928
163.470, 648.071
164.853, 571.292
166.235, 457.592
167.617, 418.970
168.998, 449.427
170.380, 474.960
171.761, 484.565
173.142, 497.241
174.523, 433.971
175.904, 441.716
177.284, 340.509
178.664, 278.365
180.044, 212.293
181.424, 139.298
182.803, 90.380
184.183, 100.539
185.562, 55.775
186.940, 65.086
188.319, 27.469
189.698, 16.922
191.076, 7.441
192.454, 39.023
193.831, 67.669
195.209, 20.378
196.586, 9.860
197.963, 17.046
199.340, 38.173
200.717, 49.368
202.093, 91.168
203.470, 66.093
204.846, 97.991
206.221, 104.867
207.597, 89.723
208.972, 110.558
210.347, 107.033
211.722, 45.166
213.097, 103.940
214.472, 68.693
215.846, 40.426
217.220, 51.132
218.594, 11.189
219.967, 31.471
221.341, 2.890
222.714, 39.269
224.087, 81.667
225.460, 70.082
226.832, 179.511
228.204, 220.928
229.577, 239.294
230.948, 331.592
232.320, 346.811
233.692, 480.976
235.063, 491.162
236.434, 546.340
237.805, 623.565
239.175, 721.853
240.545, 776.252
241.916, 800.629
243.286, 915.096
244.655, 973.601
246.025, 1054.126
247.394, 1036.668
248.763, 1033.226
250.132, 931.801
251.501, 900.391
252.869, 813.997
254.237, 735.618
255.605, 699.253
256.973, 540.579
258.340, 480.705
259.708, 445.704
261.075, 362.042
262.442, 321.639
263.808, 261.441
265.175, 233.027
266.541, 247.511
267.907, 208.724
269.273, 230.030
270.639, 254.413
272.004, 280.861
273.369, 266.360
274.734, 342.900
276.099, 348.474
277.463, 382.076
278.828, 437.702
280.192, 413.349
281.556, 455.016
282.919, 462.697
284.283, 436.388
285.646, 512.074
287.009, 497.746
288.372, 491.400
289.734, 472.035
291.097, 578.656
292.459, 520.264
293.821, 581.861
295.183, 582.038
296.544, 631.619
297.905, 697.194
299.266, 743.764
300.627, 946.330
301.988, 1021.893
303.348, 1116.454
304.709, 1415.013
306.069, 1627.921
307.428, 2063.010
308.788, 2367.271
310.147, 2784.261
311.507, 3307.653
312.865, 3608.931
314.224, 4160.083
315.583, 4343.096
316.941, 4400.024
318.299, 4138.895
319.657, 3614.750
321.015, 3161.597
322.372, 2669.460
323.729, 2252.339
325.086, 1883.234
326.443, 1672.145
327.800, 1600.069
329.156, 1456.008
330.512, 1498.961
331.868, 1518.929
333.224, 1494.908
334.579, 1580.901
335.935, 1467.905
337.290, 1457.923
338.645, 1317.952
339.999, 1210.993
341.354, 1151.024
342.708, 976.088
344.062, 908.163
345.416, 730.248
346.769, 699.343
348.123, 603.448
349.476, 488.562
350.829, 465.685
352.182, 395.817
353.534, 314.958
354.887, 268.042
356.239, 229.167
357.591, 193.653
358.942, 188.531
360.294, 162.954
361.645, 160.051
362.996, 165.094
364.347, 113.543
365.698, 91.657
367.048, 135.580
368.398, 118.350
369.748, 125.766
371.098, 92.603
372.448, 94.207
373.797, 89.809
375.146, 136.555
376.495, 130.353
377.844, 186.268
379.192, 185.243
380.540, 226.833
381.889, 289.078
383.236, 324.987
384.584, 374.408
385.932, 459.857
387.279, 503.402
388.626, 680.521
389.973, 800.140
391.319, 968.225
392.666, 1209.015
394.012, 1537.329
395.358, 1884.865
396.704, 2362.285
398.049, 3125.580
399.394, 4042.877
400.740, 4855.176
402.084, 6000.478
403.429, 7015.784
404.774, 7760.090
406.118, 8198.399
407.462, 8046.708
408.806, 7665.020
410.150, 6589.332
411.493, 5654.646
412.836, 4692.960
414.179, 3781.275
415.522, 3092.591
416.865, 2370.908
418.207, 2020.225
419.549, 1571.550
420.891, 1292.883
422.233, 1074.220
423.575, 876.559
424.916, 711.899
426.257, 589.240
427.598, 540.580
428.939, 453.918
430.279, 367.255
431.619, 336.591
432.959, 257.925
434.299, 262.260
435.639, 245.612
436.978, 183.960
438.318, 183.312
439.657, 157.659
440.996, 213.003
442.334, 138.348
443.673, 139.688
445.011, 137.024
446.349, 60.360
447.687, 95.693
449.024, 82.020
450.361, 71.341
451.699, 31.658
453.036, 51.969
454.372, 69.276
455.709, 3.422
457.045, 48.875
458.381, 26.168
459.717, 79.456
461.053, 24.739
462.388, 74.022
463.724, 38.307
465.059, 25.587
466.394, 14.123
467.728, 16.852
469.063, 19.593
470.397, 15.903
471.731, 52.884
473.065, 46.112
474.398, 80.342
475.732, 173.583
477.065, 282.822
478.398, 378.078
479.731, 601.339
481.063, 643.597
482.396, 828.862
483.728, 867.137
485.060, 709.420
486.391, 674.701
487.723, 470.983
489.054, 358.261
490.385, 270.536
491.716, 155.807
493.047, 146.074
494.377, 108.341
495.708, 92.614
497.038, 53.882
498.368, 37.151
499.697, 42.415
501.027, 3.324
502.356, 45.921
503.685, 59.162
505.014, 117.399
506.342, 153.676
507.671, 207.860
508.999, 238.083
510.327, 270.301
511.655, 304.516
512.982, 303.728
514.310, 257.934
515.637, 304.136
516.964, 272.332
518.291, 172.522
519.617, 147.707
520.944, 115.890
522.270, 89.073
523.596, 85.260
524.921, 43.454
526.247, 16.665
527.572, 37.882
528.897, 35.116
530.222, 24.632
531.547, 10.613
532.871, 52.127
534.196, 61.886
535.520, 19.683
536.844, 4.483
538.167, 44.286
539.491, 31.120
540.814, 28.977
542.137, 2.867
543.460, 80.769
544.783, 33.269
546.105, 32.702
547.427, 25.710
548.749, 25.249
550.071, 8.803
551.393, 3.879
552.714, 4.022
554.035, 31.906
555.356, 40.780
556.677, 106.644
557.998, 89.501
559.318, 72.349
560.638, 130.189
561.958, 164.021
563.278, 191.844
564.597, 236.660
565.917, 283.467
567.236, 384.265
568.555, 437.055
569.874, 560.837
571.192, 628.610
572.511, 723.396
573.829, 867.131
575.147, 898.878
576.464, 957.617
577.782, 1015.347
579.099, 828.067
580.416, 800.779
581.733, 680.482
583.050, 616.213
584.366, 552.969
585.683, 434.762
586.999, 481.428
588.315, 354.144
589.630, 372.272
590.946, 325.940
592.261, 328.815
593.576, 309.157
594.891, 313.801
596.206, 347.102
597.520, 313.693
598.834, 331.637
600.148, 408.366
601.462, 399.945
602.776, 445.758
604.089, 427.483
605.402, 421.178
606.715, 594.722
608.028, 543.232
609.341, 616.732
610.653, 652.234
611.965, 691.776
613.277, 693.315
614.589, 818.881
615.901, 885.402
617.212, 897.937
618.523, 1044.375
619.834, 1165.938
621.145, 1272.028
622.456, 1451.425
623.766, 1650.325
625.076, 1842.442
626.386, 2220.854
627.696, 2425.488
629.006, 2891.242
630.315, 3453.021
631.624, 4066.582
632.933, 5069.559
634.242, 5976.861
635.551, 7662.968
636.859, 9411.845
638.167, 11759.119
639.475, 14848.440
640.783, 18068.674
642.090, 21488.506
643.398, 24765.781
644.705, 25883.740
646.012, 26370.980
647.318, 23888.168
648.625, 21165.336
649.931, 17612.504
651.237, 14120.398
652.543, 11879.524
653.849, 9216.649
655.155, 7694.846
656.460, 6257.949
657.765, 5237.045
659.070, 4396.144
660.375, 3636.209
661.679, 3058.262
662.984, 2627.572
664.288, 2334.602
665.592, 2013.619
666.895, 1741.630
668.199, 1549.016
669.502, 1370.481
670.805, 1195.450
672.108, 1120.407
673.411, 999.352
674.713, 1009.285
676.016, 860.252
677.318, 804.161
678.620, 874.058
679.921, 764.943
681.223, 765.968
682.524, 819.834
683.825, 785.326
685.126, 872.131
686.427, 927.889
687.727, 945.111
689.028, 891.344
690.328, 930.785
691.628, 867.584
692.927, 714.006
694.227, 642.354
695.526, 609.177
696.825, 466.800
698.124, 426.531
699.423, 332.876
700.721, 320.306
702.020, 267.810
703.318, 247.210
704.616, 244.028
705.913, 226.339
707.211, 169.176
708.508, 164.301
709.805, 119.895
711.102, 169.260
712.399, 186.735
713.695, 169.330
714.992, 209.037
716.288, 194.491
717.584, 241.057
718.879, 198.614
720.175, 197.161
721.470, 171.699
722.765, 121.229
724.060, 179.748
725.355, 91.259
726.649, 130.761
727.944, 149.254
729.238, 152.737
730.532, 106.212
731.825, 136.679
733.119, 57.136
734.412, 108.585
735.705, 85.025
736.998, 80.457
738.291, 43.880
739.584, 35.294
740.876, 28.639
742.168, 52.096
743.460, 36.484
744.752, 9.864
746.043, 42.231
747.334, 4.411
748.626, 60.072
749.916, 39.219
751.207, 12.499
752.498, 68.761
753.788, 10.014
755.078, 4.745
756.368, 39.478
757.658, 11.693
758.947, 6.101
760.237, 15.086
761.526, 35.265
762.815, 45.437
764.104, 41.344
765.392, 35.760
766.680, 22.912
767.969, 20.436
769.257, 16.804
770.544, 18.315
771.832, 14.428
773.119, 31.534
774.406, 9.366
775.693, 18.283
776.980, 31.779
778.267, 48.165
779.553, 9.855
780.839, 18.125
782.125, 25.118
783.411, 8.126
784.697, 1.140
785.982, 14.166
787.267, 53.207
788.552, 26.714
789.837, 72.369
791.122, 21.499
792.406, 18.353
793.690, 29.801
794.974, 44.978
796.258, 39.185
797.542, 2.580
798.825, 10.660
800.108, 4.089
801.391, 14.350
802.674, 24.573
803.957, 16.310
805.239, 12.956
806.522, 33.234
807.804, 14.466
809.085, 19.836
810.367, 14.848
811.649, 2.529
812.930, 25.206
814.211, 56.886
815.492, 13.563
816.772, 7.762
818.053, 2.113
819.333, 7.572
820.613, 1.236
821.893, 12.103
823.173, 14.448
824.452, 57.200
825.732, 47.847
827.011, 7.491
828.290, 54.134
829.568, 2.225
830.847, 40.414
832.125, 35.052
833.403, 18.688
834.681, 7.676
835.959, 1.104
837.236, 75.588
838.514, 12.221
839.791, 39.853
841.068, 51.485
842.345, 5.128
843.621, 15.775
844.898, 69.439
846.174, 37.125
847.450, 59.822
848.726, 89.525
850.001, 18.246
851.277, 90.981
852.552, 55.729
853.827, 76.485
855.102, 97.268
856.376, 92.052
857.651, 104.853
858.925, 89.666
860.199, 107.483
861.473, 185.308
862.746, 137.142
864.020, 180.982
865.293, 178.825
866.566, 194.670
867.839, 254.521
869.112, 292.373
870.384, 336.227
871.656, 327.083
872.928, 390.943
874.200, 474.805
875.472, 502.669
876.744, 595.265
878.015, 715.405
879.286, 777.275
880.557, 883.149
881.828, 1025.033
883.098, 1164.919
884.369, 1320.262
885.639, 1499.708
886.909, 1626.610
888.178, 1730.525
889.448, 1813.443
890.717, 1850.373
891.987, 1874.275
893.256, 1789.146
894.524, 1635.987
895.793, 1581.948
897.061, 1459.855
898.330, 1265.343
899.598, 1523.287
900.865, 1120.022
902.133, 1069.296
903.401, 1293.267
904.668, 824.578
905.935, 731.602
907.202, 645.267
908.468, 692.157
909.735, 660.193
911.001, 562.991
912.267, 610.882
913.533, 648.800
914.799, 650.881
916.064, 669.991
917.330, 620.107
918.595, 654.222
919.860, 679.292
921.124, 601.365
922.389, 717.818
923.653, 629.902
924.918, 702.966
926.182, 796.124
927.445, 720.154
928.709, 831.660
929.972, 840.856
931.236, 881.544
932.499, 964.664
933.761, 947.302
935.024, 968.552
936.286, 954.899
937.549, 968.717
938.811, 1079.756
940.073, 1050.376
941.334, 1138.671
942.596, 1158.157
943.857, 1134.870
945.118, 1225.181
946.379, 1244.444
947.640, 1372.792
948.900, 1495.551
950.161, 1555.858
951.421, 1720.485
952.681, 2004.830
953.940, 2191.227
955.200, 2623.633
956.459, 2887.048
957.719, 3330.729
958.978, 3998.177
960.236, 4706.621
961.495, 5890.990
962.753, 7046.455
964.012, 8752.917
965.270, 11209.400
966.527, 14055.897
967.785, 18732.393
969.043, 24028.645
970.300, 30145.166
971.557, 37851.695
972.814, 41608.242
974.071, 44184.418
975.327, 41960.504
976.583, 36367.086
977.840, 31053.686
979.095, 24420.283
980.351, 19626.898
981.607, 15723.473
982.862, 12580.104
984.117, 10456.747
985.372, 8993.399
986.627, 7549.909
987.882, 6886.574
989.136, 6079.257
990.390, 5622.949
991.644, 5372.650
992.898, 5036.362
994.152, 4937.085
995.405, 4762.816
996.659, 4807.558
997.912, 4893.310
999.165, 4689.071
1000.417, 5029.841
1001.670, 4943.623
1002.922, 4913.417
1004.174, 4773.223
1005.426, 4475.036
1006.678, 4191.861
1007.930, 3831.694
1009.181, 3491.537
1010.432, 3266.389
1011.683, 2885.252
1012.934, 2730.122
1014.185, 2645.002
1015.435, 2451.891
1016.685, 2522.790
1017.935, 2380.502
1019.185, 2454.419
1020.435, 2564.348
1021.684, 2576.287
1022.934, 2827.541
1024.183, 3017.567
1025.432, 3115.530
1026.680, 3368.502
1027.929, 3219.483
1029.177, 3128.472
1030.425, 3182.471
1031.673, 3022.182
1032.921, 3103.198
1034.169, 3253.269
1035.416, 3542.646
1036.663, 4176.689
1037.911, 4284.060
1039.157, 4601.121
1040.404, 4494.974
1041.650, 4119.446
1042.897, 3818.548
1044.143, 3230.299
1045.389, 2674.481
1046.634, 2278.615
1047.880, 1813.757
1049.125, 1568.910
1050.371, 1265.002
1051.615, 1095.739
1052.860, 1044.746
1054.105, 815.312
1055.349, 851.148
1056.593, 692.424
1057.837, 567.088
1059.081, 580.456
1060.325, 506.860
1061.568, 472.862
1062.812, 461.155
1064.055, 381.186
1065.298, 441.631
1066.540, 412.967
1067.783, 345.517
1069.025, 411.873
1070.267, 328.925
1071.509, 297.361
1072.751, 288.797
1073.993, 321.236
1075.234, 383.671
1076.475, 275.093
1077.716, 277.299
1078.957, 308.754
1080.198, 267.255
1081.438, 294.655
1082.679, 326.077
1083.919, 320.163
1085.159, 309.772
1086.398, 284.250
1087.638, 225.708
1088.877, 228.182
1090.116, 188.842
1091.355, 234.533
1092.594, 204.055
1093.833, 183.763
1095.071, 199.416
1096.309, 116.047
1097.547, 132.022
1098.785, 168.752
1100.023, 102.402
1101.260, 179.965
1102.498, 142.558
1103.735, 70.240
1104.972, 154.969
1106.208, 82.594
1107.445, 162.310
1108.681, 90.930
1109.918, 100.628
1111.154, 132.410
1112.389, 106.095
1113.625, 100.799
1114.860, 125.719
1116.096, 97.360
1117.331, 125.142
1118.566, 139.840
1119.800, 98.673
1121.035, 70.824
1122.269, 110.475
1123.503, 112.182
1124.737, 143.841
1125.971, 128.500
1127.205, 164.178
1128.438, 111.839
1129.671, 76.502
1130.904, 99.269
1132.137, 79.938
1133.370, 40.676
1134.602, 113.347
1135.834, 67.023
1137.066, 133.766
1138.298, 105.443
1139.530, 32.121
1140.762, 83.798
1141.993, 65.475
1143.224, 103.182
1144.455, 154.895
1145.686, 99.570
1146.917, 142.245
1148.147, 86.919
1149.377, 30.591
1150.607, 85.495
1151.837, 15.277
1153.067, 58.946
1154.296, 22.666
1155.526, 16.427
1156.755, 49.090
1157.984, 108.864
1159.213, 14.523
1160.441, 64.260
1161.670, 6.916
1162.898, 80.569
1164.126, 43.537
1165.354, 22.814
1166.581, 52.824
1167.809, 7.014
1169.036, 1.646
1170.263, 10.614
1171.490, 2.990
1172.717, 2.644
1173.943, 69.260
1175.170, 10.880
1176.396, 48.489
1177.622, 24.341
1178.848, 33.056
1180.073, 35.625
1181.299, 0.372
1182.524, 25.984
1183.749, 22.755
1184.974, 40.645
1186.199, 34.885
1187.423, 29.395
1188.648, 22.742
1189.872, 45.746
1191.096, 41.859
1192.320, 6.596
1193.543, 36.018
1194.767, 27.496
1195.990, 47.935
1197.213, 10.865
1198.436, 36.445
1199.659, 8.054
1200.881, 0.516
1202.104, 20.148
1203.326, 26.199
1204.548, 48.264
1205.770, 11.143
1206.991, 6.520
1208.213, 36.190
1209.434, 45.069
1210.655, 51.598
1211.876, 8.728
1213.096, 34.933
1214.317, 10.795
1215.537, 34.499
1216.757, 1.971
1217.977, 20.305
1219.197, 24.457
1220.417, 25.601
1221.636, 28.738
1222.855, 34.167
1224.074, 17.708
1225.293, 33.390
1226.512, 24.503
1227.731, 3.335
1228.949, 112.729
1230.167, 61.195
1231.385, 17.896
1232.603, 47.899
1233.820, 18.023
1235.038, 86.946
1236.255, 19.908
1237.472, 17.860
1238.689, 132.801
1239.906, 20.733
1241.122, 29.658
1242.338, 38.564
1243.555, 22.510
1244.771, 26.367
1245.986, 44.236
1247.202, 1.154
1248.417, 119.003
1249.633, 41.844
1250.848, 31.848
1252.063, 57.671
1253.277, 38.485
1254.492, 77.285
1255.706, 47.072
1256.920, 32.184
1258.134, 54.070
1259.348, 50.831
1260.562, 22.611
1261.775, 128.353
1262.988, 36.086
1264.201, 56.957
1265.414, 31.672
1266.627, 19.487
1267.839, 111.198
1269.052, 58.867
1270.264, 96.545
1271.476, 85.195
1272.688, 68.834
1273.899, 103.551
1275.111, 117.169
1276.322, 49.777
1277.533, 135.646
1278.744, 60.230
1279.955, 109.843
1281.165, 169.537
1282.376, 63.089
1283.586, 86.697
1284.796, 106.225
1286.006, 102.742
1287.215, 114.275
1288.425, 73.739
1289.634, 72.185
1290.843, 169.619
1292.052, 84.018
1293.261, 99.404
1294.469, 133.780
1295.678, 6.143
1296.886, 56.489
1298.094, 169.823
1299.302, 71.146
1300.509, 61.456
1301.717, 85.752
1302.924, 58.037
1304.131, 157.310
1305.338, 66.571
1306.545, 118.820
1307.752, 151.058
1308.958, 36.285
1310.164, 106.499
1311.370, 85.897
1312.576, 25.089
1313.782, 124.269
1314.987, 60.436
1316.193, 92.284
1317.398, 83.362
1318.603, 110.496
1319.807, 85.620
1321.012, 92.729
1322.216, 42.826
1323.421, 89.912
1324.625, 63.281
1325.829, 50.340
1327.032, 70.344
1328.236, 48.036
1329.439, 75.059
1330.642, 87.751
1331.845, 42.264
1333.048, 48.909
1334.251, 86.460
1335.453, 10.375
1336.656, 137.639
1337.858, 7.467
1339.060, 71.340
1340.261, 98.204
1341.463, 37.943
1342.664, 123.966
1343.866, 138.235
1345.067, 41.251
1346.267, 86.705
1347.468, 111.893
1348.669, 35.639
1349.869, 46.995
1351.069, 52.648
1352.269, 75.263
1353.469, 112.279
1354.668, 50.005
1355.868, 38.991
1357.067, 86.560
1358.266, 48.234
1359.465, 37.693
1360.664, 15.422
1361.862, 36.377
1363.061, 80.946
1364.259, 81.523
1365.457, 64.096
1366.655, 45.672
1367.852, 23.264
1369.050, 78.076
1370.247, 56.724
1371.444, 43.253
1372.641, 89.896
1373.838, 58.177
1375.035, 39.149
1376.231, 165.611
1377.427, 38.208
1378.623, 93.834
1379.819, 86.380
1381.015, 66.709
1382.211, 126.958
1383.406, 112.361
1384.601, 76.175
1385.796, 121.730
1386.991, 47.561
1388.185, 61.588
1389.380, 123.372
1390.574, 40.222
1391.768, 138.109
1392.962, 101.840
1394.156, 20.388
1395.350, 149.140
1396.543, 115.762
1397.736, 50.844
1398.929, 86.603
1400.122, 7.382
1401.315, 25.160
1402.507, 121.794
1403.700, 45.441
1404.892, 92.059
1406.084, 71.731
1407.276, 21.383
1408.467, 59.936
1409.659, 22.548
1410.850, 54.142
1412.041, 95.034
1413.232, 45.505
1414.423, 113.902
1415.614, 117.254
1416.804, 28.627
1417.994, 145.664
1419.184, 74.099
1420.374, 12.227
1421.564, 127.018
1422.753, 38.375
1423.943, 10.278
1425.132, 87.710
1426.321, 30.666
1427.510, 88.624
1428.698, 126.875
1429.887, 27.755
1431.075, 128.642
1432.263, 136.418
1433.451, 116.585
1434.639, 155.906
1435.827, 101.810
1437.014, 96.968
1438.201, 166.658
1439.388, 62.706
1440.575, 76.771
1441.762, 220.815
1442.949, 54.723
1444.135, 116.120
1445.321, 184.320
1446.507, 145.370
1447.693, 168.137
1448.879, 169.120
1450.064, 108.256
1451.250, 246.328
1452.435, 126.389
1453.620, 138.612
1454.805, 219.829
1455.989, 176.045
1457.174, 268.208
1458.358, 190.289
1459.542, 133.462
1460.726, 245.238
1461.910, 128.375
1463.093, 139.763
1464.277, 232.598
1465.460, 164.608
1466.643, 164.300
1467.826, 179.978
1469.009, 88.974
1470.191, 224.917
1471.373, 231.657
1472.556, 111.608
1473.738, 209.056
1474.919, 113.609
1476.101, 90.162
1477.283, 192.887
1478.464, 90.602
1479.645, 140.512
1480.826, 169.568
1482.007, 84.623
1483.187, 129.679
1484.368, 145.732
1485.548, 127.801
1486.728, 156.868
1487.908, 125.935
1489.088, 105.996
1490.268, 173.042
1491.447, 94.070
1492.626, 78.085
1493.805, 175.097
1494.984, 108.130
1496.163, 94.167
1497.341, 89.218
1498.520, 13.276
1499.698, 134.424
1500.876, 137.854
1502.054, 0.648
1503.232, 178.904
1504.409, 84.500
1505.586, 79.147
1506.763, 148.855
1507.940, 147.636
1509.117, 23.510
1510.294, 162.501
1511.470, 4.634
1512.647, 165.941
1513.823, 131.436
1514.999, 6.037
1516.174, 163.671
1517.350, 195.596
1518.526, 28.133
1519.701, 189.315
1520.876, 10.406
1522.051, 16.417
1523.226, 122.612
1524.400, 0.000
##END=



