##NAMES=Bustamite
##RRUFFID=R040014
##IDEAL CHEMISTRY=CaMn^2+^Si_2_O_6_
##LOCALITY=Broken Hill, New South Wales, Australia
##OWNER=RRUFF
##SOURCE=University of Arizona Mineral Museum
##DESCRIPTION=Orange fragment
##STATUS=The identification of this mineral has been confirmed by X-ray diffraction and chemical analysis
##URL=rruff.info/R040014
##MEASURED CHEMISTRY=(Ca_0.90_Mn_0.10_)_Σ=1_(Mn^2+^_0.78_Fe^2+^_0.19_Fe^3+^_0.02_Mg_0.01_)_Σ=1_(Si_1.98_Fe^3+^_0.02_)_Σ=2_O_6_
##PIN_ID=M00138
##ORIENTATION=Laser parallel to c* (0 0 1). Fiducial mark perpendicular to laser is parallel to -a [-1 0 0]
85.706, 0.000
87.101, 0.672
88.496, 10.470
89.890, 5.421
91.284, 4.436
92.678, 29.776
94.071, 112.759
95.465, 148.836
96.858, 237.605
98.251, 327.755
99.644, 401.047
101.036, 462.298
102.428, 467.404
103.820, 510.292
105.212, 541.842
106.604, 592.954
107.995, 769.549
109.387, 1051.563
110.777, 1201.947
112.168, 956.658
113.559, 786.663
114.949, 633.935
116.339, 664.496
117.729, 719.437
119.119, 720.821
120.508, 809.521
121.897, 932.332
123.286, 1052.244
124.675, 999.256
126.063, 975.359
127.452, 949.549
128.840, 896.817
130.228, 971.155
131.615, 1071.563
133.003, 1277.053
134.390, 1394.606
135.777, 1505.224
137.164, 1532.904
138.550, 1516.648
139.937, 1424.456
141.323, 1224.325
142.709, 1079.251
144.094, 939.307
145.480, 801.337
146.865, 730.092
148.250, 607.830
149.635, 574.007
151.019, 515.793
152.403, 531.377
153.788, 463.309
155.171, 441.775
156.555, 432.849
157.939, 366.013
159.322, 380.254
160.705, 327.564
162.088, 362.901
163.470, 309.263
164.853, 370.649
166.235, 400.058
167.617, 461.489
168.998, 480.930
170.380, 516.352
171.761, 526.760
173.142, 511.168
174.523, 456.579
175.904, 427.110
177.284, 319.581
178.664, 256.533
180.044, 204.089
181.424, 183.702
182.803, 95.356
184.183, 100.075
185.562, 89.810
186.940, 24.580
188.319, 70.405
189.698, 47.282
191.076, 64.227
192.454, 36.201
193.831, 49.188
195.209, 49.182
196.586, 42.191
197.963, 27.205
199.340, 13.225
200.717, 12.249
202.093, 1.724
203.470, 2.307
204.846, 1.342
206.221, 18.621
207.597, 9.580
208.972, 11.536
210.347, 0.490
211.722, 30.440
213.097, 26.388
214.472, 14.332
215.846, 27.274
217.220, 17.213
218.594, 23.150
219.967, 28.084
221.341, 16.525
222.714, 8.947
224.087, 4.125
225.460, 16.199
226.832, 33.457
228.204, 63.917
229.577, 66.654
230.948, 86.972
232.320, 120.476
233.692, 108.508
235.063, 110.519
236.434, 158.517
237.805, 142.514
239.175, 172.514
240.545, 183.514
241.916, 197.515
243.286, 206.516
244.655, 157.517
246.025, 208.519
247.394, 182.521
248.763, 115.522
250.132, 133.523
251.501, 90.521
252.869, 126.315
254.237, 85.383
255.605, 30.427
256.973, 22.734
258.340, 5.131
259.708, 12.605
261.075, 3.147
262.442, 11.748
263.808, 2.599
265.175, 2.348
266.541, 19.089
267.907, 0.115
269.273, 0.093
270.639, 8.743
272.004, 40.214
273.369, 33.109
274.734, 38.905
276.099, 88.139
277.463, 105.944
278.828, 168.666
280.192, 182.116
281.556, 224.639
282.919, 258.747
284.283, 282.899
285.646, 288.943
287.009, 315.190
288.372, 315.398
289.734, 331.323
291.097, 347.787
292.459, 345.358
293.821, 334.953
295.183, 340.509
296.544, 321.938
297.905, 351.995
299.266, 375.109
300.627, 422.430
301.988, 472.554
303.348, 554.682
304.709, 645.482
306.069, 758.944
307.428, 878.756
308.788, 1038.897
310.147, 1217.040
311.507, 1399.178
312.865, 1563.315
314.224, 1728.435
315.583, 1756.546
316.941, 1746.647
318.299, 1673.738
319.657, 1475.829
321.015, 1285.923
322.372, 1097.018
323.729, 932.116
325.086, 806.215
326.443, 746.315
327.800, 705.417
329.156, 697.519
330.512, 697.623
331.868, 723.727
333.224, 765.832
334.579, 772.938
335.935, 761.045
337.290, 736.430
338.645, 655.262
339.999, 628.371
341.354, 555.481
342.708, 470.588
344.062, 455.696
345.416, 380.803
346.769, 302.911
348.123, 255.017
349.476, 205.608
350.829, 164.391
352.182, 148.332
353.534, 106.435
354.887, 107.535
356.239, 89.634
357.591, 65.731
358.942, 62.721
360.294, 58.918
361.645, 41.008
362.996, 31.096
364.347, 15.182
365.698, 6.247
367.048, 12.674
368.398, 26.604
369.748, 14.726
371.098, 8.081
372.448, 11.902
373.797, 6.047
375.146, 0.232
376.495, 6.380
377.844, 3.344
379.192, 3.379
380.540, 33.639
381.889, 16.071
383.236, 19.304
384.584, 15.927
385.932, 81.761
387.279, 49.945
388.626, 123.955
389.973, 109.960
391.319, 112.956
392.666, 154.941
394.012, 146.921
395.358, 183.891
396.704, 212.853
398.049, 255.812
399.394, 294.768
400.740, 336.720
402.084, 390.670
403.429, 480.617
404.774, 567.561
406.118, 598.501
407.462, 622.439
408.806, 573.373
410.150, 518.304
411.493, 430.232
412.836, 367.157
414.179, 299.083
415.522, 248.012
416.865, 169.941
418.207, 161.873
419.549, 74.804
420.891, 114.734
422.233, 84.663
423.575, 45.592
424.916, 62.518
426.257, 8.613
427.598, 37.298
428.939, 10.208
430.279, 13.101
431.619, 41.010
432.959, 21.388
434.299, 40.460
435.639, 33.693
436.978, 10.125
438.318, 1.061
439.657, 15.260
440.996, 26.477
442.334, 5.282
443.673, 19.032
445.011, 17.782
446.349, 38.535
447.687, 37.708
449.024, 4.981
450.361, 0.269
451.699, 24.566
453.036, 7.120
454.372, 42.204
455.709, 9.554
457.045, 12.078
458.381, 1.298
459.717, 33.325
461.053, 16.944
462.388, 35.557
463.724, 48.166
465.059, 3.774
466.394, 42.380
467.728, 38.982
469.063, 94.588
470.397, 144.190
471.731, 134.786
473.065, 247.385
474.398, 310.978
475.732, 426.571
477.065, 589.158
478.398, 791.756
479.731, 1048.362
481.063, 1312.964
482.396, 1519.567
483.728, 1574.170
485.060, 1395.768
486.391, 1227.364
487.723, 957.967
489.054, 784.581
490.385, 574.189
491.716, 422.798
493.047, 371.401
494.377, 310.998
495.708, 260.609
497.038, 180.215
498.368, 188.815
499.697, 177.412
501.027, 179.003
502.356, 239.589
503.685, 233.169
505.014, 307.749
506.342, 376.323
507.671, 375.891
508.999, 402.454
510.327, 398.013
511.655, 425.566
512.982, 373.113
514.310, 352.654
515.637, 294.189
516.964, 252.719
518.291, 201.242
519.617, 204.760
520.944, 132.271
522.270, 138.777
523.596, 110.281
524.921, 40.779
526.247, 88.114
527.572, 24.401
528.897, 35.879
530.222, 14.983
531.547, 66.347
532.871, 29.771
534.196, 71.007
535.520, 32.980
536.844, 38.582
538.167, 65.738
539.491, 13.534
540.814, 35.954
542.137, 38.370
543.460, 45.784
544.783, 61.195
546.105, 24.600
547.427, 55.997
548.749, 79.388
550.071, 52.774
551.393, 105.153
552.714, 69.527
554.035, 83.895
555.356, 97.256
556.677, 128.612
557.998, 145.452
559.318, 160.306
560.638, 184.644
561.958, 206.976
563.278, 209.302
564.597, 259.622
565.917, 282.937
567.236, 334.418
568.555, 449.547
569.874, 474.844
571.192, 582.134
572.511, 710.418
573.829, 829.697
575.147, 810.969
576.464, 892.235
577.782, 867.495
579.099, 803.750
580.416, 752.997
581.733, 653.239
583.050, 639.474
584.366, 580.704
585.683, 504.679
586.999, 511.020
588.315, 443.984
589.630, 470.328
590.946, 429.206
592.261, 426.322
593.576, 482.787
594.891, 487.171
596.206, 514.285
597.520, 538.611
598.834, 507.040
600.148, 568.048
601.462, 580.689
602.776, 659.008
604.089, 655.803
605.402, 722.724
606.715, 810.957
608.028, 760.938
609.341, 788.961
610.653, 859.341
611.965, 947.967
613.277, 1016.498
614.589, 1140.141
615.901, 1237.912
617.212, 1351.778
618.523, 1411.953
619.834, 1600.074
621.145, 1718.149
622.456, 1948.995
623.766, 2194.750
625.076, 2425.810
626.386, 2856.069
627.696, 3236.117
629.006, 3922.161
630.315, 4734.765
631.624, 5489.799
632.933, 6780.797
634.242, 7971.819
635.551, 10182.231
636.859, 12402.404
638.167, 15389.410
639.475, 19468.105
640.783, 23665.875
642.090, 28102.863
643.398, 32000.600
644.705, 33510.359
646.012, 33380.891
647.318, 29897.857
648.625, 26295.971
649.931, 21872.920
651.237, 17359.871
652.543, 14471.178
653.849, 11278.112
655.155, 9405.037
656.460, 7702.274
657.765, 6265.188
659.070, 5302.122
660.375, 4421.024
661.679, 3638.073
662.984, 3164.961
664.288, 2646.844
665.592, 2430.720
666.895, 2005.823
668.199, 1761.686
669.502, 1546.543
670.805, 1309.394
672.108, 1207.239
673.411, 1006.077
674.713, 902.985
676.016, 871.736
677.318, 734.557
678.620, 716.371
679.921, 685.070
681.223, 593.873
682.524, 560.661
683.825, 590.452
685.126, 618.039
686.427, 585.784
687.727, 593.637
689.028, 643.418
690.328, 629.091
691.628, 645.862
692.927, 584.571
694.227, 553.330
695.526, 448.092
696.825, 460.451
698.124, 374.186
699.423, 364.927
700.721, 293.670
702.020, 242.409
703.318, 232.972
704.616, 244.701
705.913, 195.423
707.211, 232.141
708.508, 188.854
709.805, 219.562
711.102, 228.264
712.399, 238.962
713.695, 250.655
714.992, 233.343
716.288, 256.026
717.584, 299.704
718.879, 315.378
720.175, 250.047
721.470, 175.711
722.765, 195.371
724.060, 201.026
725.355, 173.676
726.649, 174.323
727.944, 170.965
729.238, 146.603
730.532, 134.236
731.825, 151.865
733.119, 125.490
734.412, 144.111
735.705, 71.728
736.998, 103.341
738.291, 67.951
739.584, 73.556
740.876, 51.158
742.168, 12.762
743.460, 28.361
744.752, 5.958
746.043, 26.548
747.334, 20.150
748.626, 5.757
749.916, 12.359
751.207, 6.318
752.498, 28.574
753.788, 18.180
755.078, 3.792
756.368, 33.407
757.658, 11.978
758.947, 20.376
760.237, 20.793
761.526, 2.771
762.815, 17.344
764.104, 5.081
765.392, 19.512
766.680, 16.050
767.969, 24.387
769.257, 19.170
770.544, 14.732
771.832, 37.706
773.119, 4.833
774.406, 1.370
775.693, 27.902
776.980, 7.568
778.267, 33.047
779.553, 27.454
780.839, 31.047
782.125, 10.431
783.411, 8.908
784.697, 21.617
785.982, 24.843
787.267, 12.699
788.552, 15.748
789.837, 51.806
791.122, 48.391
792.406, 18.995
793.690, 25.620
794.974, 11.251
796.258, 59.109
797.542, 11.532
798.825, 44.181
800.108, 56.855
801.391, 28.439
802.674, 19.268
803.957, 29.014
805.239, 22.296
806.522, 71.423
807.804, 23.821
809.085, 21.064
810.367, 7.693
811.649, 56.547
812.930, 0.214
814.211, 40.026
815.492, 22.735
816.772, 35.494
818.053, 66.723
819.333, 4.953
820.613, 7.817
821.893, 60.412
823.173, 19.640
824.452, 22.870
825.732, 8.101
827.011, 6.333
828.290, 3.565
829.568, 70.799
830.847, 48.034
832.125, 30.271
833.403, 23.492
834.681, 55.738
835.959, 31.970
837.236, 74.203
838.514, 55.438
839.791, 53.228
841.068, 89.915
842.345, 46.164
843.621, 72.416
844.898, 92.670
846.174, 72.926
847.450, 94.185
848.726, 68.445
850.001, 33.708
851.277, 114.975
852.552, 122.244
853.827, 122.516
855.102, 123.790
856.376, 133.066
857.651, 149.346
858.925, 152.583
860.199, 168.914
861.473, 176.202
862.746, 189.921
864.020, 211.964
865.293, 227.083
866.566, 263.382
867.839, 301.695
869.112, 339.107
870.384, 378.329
871.656, 418.652
872.928, 478.977
874.200, 531.307
875.472, 574.643
876.744, 685.983
878.015, 693.325
879.286, 827.672
880.557, 1011.022
881.828, 1067.382
883.098, 1272.746
884.369, 1362.124
885.639, 1534.505
886.909, 1748.899
888.178, 1758.302
889.448, 1954.713
890.717, 1985.137
891.987, 1921.564
893.256, 1934.997
894.524, 1778.433
895.793, 1764.752
897.061, 1611.198
898.330, 1472.344
899.598, 1428.807
900.865, 1237.288
902.133, 1165.521
903.401, 1061.962
904.668, 997.261
905.935, 938.795
907.202, 827.327
908.468, 837.568
909.735, 745.117
911.001, 743.417
912.267, 763.208
913.533, 758.992
914.799, 670.282
916.064, 749.871
917.330, 741.710
918.595, 687.667
919.860, 831.280
921.124, 727.969
922.389, 824.592
923.653, 748.221
924.918, 902.132
926.182, 845.683
927.445, 916.089
928.709, 955.743
929.972, 1020.629
931.236, 1067.368
932.499, 1096.667
933.761, 1150.131
935.024, 1147.834
936.286, 1155.546
937.549, 1176.700
938.811, 1259.426
940.073, 1302.187
941.334, 1325.927
942.596, 1335.280
943.857, 1413.873
945.118, 1484.634
946.379, 1547.708
947.640, 1693.711
948.900, 1845.507
950.161, 1880.555
951.421, 2131.595
952.681, 2368.865
953.940, 2662.703
955.200, 3107.391
956.459, 3398.246
957.719, 4175.109
958.978, 4821.628
960.236, 5755.525
961.495, 7045.429
962.753, 8432.026
964.012, 10548.948
965.270, 13435.852
966.527, 16782.795
967.785, 22428.590
969.043, 28605.551
970.300, 35532.527
971.557, 44299.500
972.814, 48196.258
974.071, 50563.254
975.327, 47070.254
976.583, 40567.266
977.840, 34344.289
979.095, 27091.326
980.351, 21608.361
981.607, 17545.406
982.862, 14122.465
984.117, 11929.530
985.372, 10225.715
986.627, 8782.798
987.882, 8059.891
989.136, 7306.990
990.390, 6824.100
991.644, 6532.219
992.898, 6257.349
994.152, 6230.486
995.405, 5876.633
996.659, 5966.790
997.912, 5970.955
999.165, 5668.128
1000.417, 5786.311
1001.670, 5367.501
1002.922, 4936.701
1004.174, 4623.909
1005.426, 3942.128
1006.678, 3547.354
1007.930, 3196.588
1009.181, 2831.831
1010.432, 2692.083
1011.683, 2373.343
1012.934, 2328.612
1014.185, 2210.891
1015.435, 2102.176
1016.685, 2250.471
1017.935, 2276.921
1019.185, 2454.233
1020.435, 2535.552
1021.684, 2682.880
1022.934, 3036.216
1024.183, 3274.834
1025.432, 3350.521
1026.680, 3438.481
1027.929, 3352.254
1029.177, 3266.632
1030.425, 3071.018
1031.673, 2731.694
1032.921, 2748.095
1034.169, 2690.781
1035.416, 2796.198
1036.663, 3084.135
1037.911, 3146.045
1039.157, 3396.014
1040.404, 3235.488
1041.650, 3054.943
1042.897, 2739.405
1044.143, 2344.875
1045.389, 2009.396
1046.634, 1723.884
1047.880, 1413.387
1049.125, 1197.862
1050.371, 996.488
1051.615, 816.398
1052.860, 821.399
1054.105, 624.862
1055.349, 654.450
1056.593, 551.995
1057.837, 507.545
1059.081, 503.125
1060.325, 455.743
1061.568, 428.498
1062.812, 370.219
1064.055, 332.686
1065.298, 303.381
1066.540, 301.002
1067.783, 207.094
1069.025, 305.781
1070.267, 164.429
1071.509, 271.093
1072.751, 245.760
1073.993, 229.434
1075.234, 208.125
1076.475, 204.304
1077.716, 194.119
1078.957, 200.826
1080.198, 158.172
1081.438, 155.914
1082.679, 226.648
1083.919, 146.776
1085.159, 205.112
1086.398, 137.870
1087.638, 147.782
1088.877, 197.699
1090.116, 94.485
1091.355, 132.416
1092.594, 58.225
1093.833, 68.169
1095.071, 105.240
1096.309, 85.210
1097.547, 84.528
1098.785, 86.379
1100.023, 1.376
1101.260, 77.632
1102.498, 109.524
1103.735, 11.753
1104.972, 124.658
1106.208, 78.601
1107.445, 77.393
1108.681, 123.323
1109.918, 85.256
1111.154, 81.316
1112.389, 76.256
1113.625, 53.254
1114.860, 15.285
1116.096, 32.238
1117.331, 71.280
1118.566, 140.302
1119.800, 53.377
1121.035, 101.384
1122.269, 86.445
1123.503, 76.426
1124.737, 117.406
1125.971, 90.388
1127.205, 83.406
1128.438, 80.390
1129.671, 68.353
1130.904, 67.462
1132.137, 58.449
1133.370, 54.455
1134.602, 47.613
1135.834, 29.606
1137.066, 32.027
1138.298, 77.629
1139.530, 31.627
1140.762, 77.167
1141.993, 86.166
1143.224, 13.292
1144.455, 114.291
1145.686, 5.289
1146.917, 74.399
1148.147, 47.396
1149.377, 31.501
1150.607, 53.716
1151.837, 13.711
1153.067, 71.705
1154.296, 46.698
1155.526, 4.690
1156.755, 101.680
1157.984, 24.827
1159.213, 4.814
1160.441, 43.817
1161.670, 1.802
1162.898, 20.784
1164.126, 27.012
1165.354, 40.009
1166.581, 25.949
1167.809, 2.962
1169.036, 25.915
1170.263, 33.004
1171.490, 6.047
1172.717, 7.103
1173.943, 3.976
1175.170, 8.971
1176.396, 70.050
1177.622, 60.979
1178.848, 22.095
1180.073, 25.868
1181.299, 37.202
1182.524, 27.699
1183.749, 24.304
1184.974, 23.417
1186.199, 7.529
1187.423, 31.459
1188.648, 39.395
1189.872, 43.291
1191.096, 42.219
1192.320, 8.114
1193.543, 19.066
1194.767, 17.879
1195.990, 28.329
1197.213, 78.060
1198.436, 50.305
1199.659, 19.470
1200.881, 10.507
1202.104, 14.103
1203.326, 35.892
1204.548, 39.629
1205.770, 23.286
1206.991, 16.021
1208.213, 3.960
1209.434, 5.660
1210.655, 38.785
1211.876, 13.802
1213.096, 48.383
1214.317, 15.770
1215.537, 24.787
1216.757, 36.493
1217.977, 51.198
1219.197, 49.739
1220.417, 52.456
1221.636, 60.985
1222.855, 1.508
1224.074, 13.056
1225.293, 77.561
1226.512, 47.940
1227.731, 39.705
1228.949, 92.160
1230.167, 4.971
1231.385, 1.552
1232.603, 50.980
1233.820, 13.205
1235.038, 13.620
1236.255, 94.116
1237.472, 14.661
1238.689, 80.053
1239.906, 21.441
1241.122, 11.058
1242.338, 20.424
1243.555, 26.227
1244.771, 101.095
1245.986, 20.590
1247.202, 8.901
1248.417, 67.176
1249.633, 10.552
1250.848, 59.091
1252.063, 47.339
1253.277, 47.329
1254.492, 120.889
1255.706, 70.100
1256.920, 28.476
1258.134, 113.673
1259.348, 45.862
1260.562, 0.912
1261.775, 63.257
1262.988, 43.571
1264.201, 52.494
1265.414, 40.637
1266.627, 57.852
1267.839, 46.185
1269.052, 66.301
1270.264, 68.661
1271.476, 93.921
1272.688, 60.023
1273.899, 122.158
1275.111, 129.231
1276.322, 45.295
1277.533, 143.592
1278.744, 66.637
1279.955, 31.752
1281.165, 87.808
1282.376, 111.824
1283.586, 65.864
1284.796, 85.862
1286.006, 13.851
1287.215, 139.160
1288.425, 45.127
1289.634, 78.130
1290.843, 93.076
1292.052, 50.010
1293.261, 111.934
1294.469, 51.847
1295.678, 29.751
1296.886, 101.644
1298.094, 96.526
1299.302, 107.393
1300.509, 116.271
1301.717, 85.118
1302.924, 42.955
1304.131, 178.782
1305.338, 77.600
1306.545, 120.409
1307.752, 153.208
1308.958, 29.994
1310.164, 103.764
1311.370, 103.379
1312.576, 68.130
1313.782, 91.871
1314.987, 49.603
1316.193, 99.326
1317.398, 106.767
1318.603, 49.134
1319.807, 68.823
1321.012, 48.507
1322.216, 89.181
1323.421, 105.826
1324.625, 71.178
1325.829, 78.786
1327.032, 78.104
1328.236, 54.688
1329.439, 75.748
1330.642, 70.522
1331.845, 27.868
1333.048, 69.381
1334.251, 58.911
1335.453, 29.418
1336.656, 107.049
1337.858, 43.487
1339.060, 75.957
1340.261, 119.408
1341.463, 8.887
1342.664, 66.211
1343.866, 36.306
1345.067, 10.252
1346.267, 82.732
1347.468, 48.211
1348.669, 48.605
1349.869, 66.989
1351.069, 47.344
1352.269, 8.655
1353.469, 52.917
1354.668, 4.867
1355.868, 111.609
1357.067, 71.917
1358.266, 11.236
1359.465, 69.086
1360.664, 31.456
1361.862, 30.858
1363.061, 124.236
1364.259, 25.590
1365.457, 72.866
1366.655, 84.135
1367.852, 60.916
1369.050, 76.062
1370.247, 79.451
1371.444, 23.070
1372.641, 104.340
1373.838, 0.797
1375.035, 33.642
1376.231, 99.426
1377.427, 6.795
1378.623, 97.274
1379.819, 47.352
1381.015, 34.752
1382.211, 120.638
1383.406, 84.440
1384.601, 14.047
1385.796, 168.385
1386.991, 148.566
1388.185, 133.639
1389.380, 144.913
1390.574, 20.477
1391.768, 96.976
1392.962, 38.378
1394.156, 3.837
1395.350, 121.155
1396.543, 42.462
1397.736, 68.736
1398.929, 76.045
1400.122, 23.431
1401.315, 79.761
1402.507, 79.995
1403.700, 30.693
1404.892, 94.429
1406.084, 28.683
1407.276, 26.692
1408.467, 103.399
1409.659, 45.623
1410.850, 15.692
1412.041, 151.475
1413.232, 6.643
1414.423, 26.792
1415.614, 62.723
1416.804, 52.815
1417.994, 117.910
1419.184, 76.662
1420.374, 7.668
1421.564, 172.547
1422.753, 46.594
1423.943, 58.351
1425.132, 93.161
1426.321, 16.908
1427.510, 74.048
1428.698, 108.865
1429.887, 1.501
1431.075, 114.362
1432.263, 54.075
1433.451, 68.829
1434.639, 185.066
1435.827, 91.872
1437.014, 148.531
1438.201, 168.354
1439.388, 66.271
1440.575, 103.728
1441.762, 196.258
1442.949, 59.885
1444.135, 170.713
1445.321, 137.515
1446.507, 68.257
1447.693, 127.248
1448.879, 137.299
1450.064, 171.058
1451.250, 196.198
1452.435, 73.737
1453.620, 186.604
1454.805, 121.351
1455.989, 129.885
1457.174, 154.919
1458.358, 169.002
1459.542, 187.692
1460.726, 195.979
1461.910, 135.893
1463.093, 161.991
1464.277, 218.685
1465.460, 91.010
1466.643, 137.613
1467.826, 148.293
1469.009, 123.441
1470.191, 215.646
1471.373, 153.016
1472.556, 58.666
1473.738, 222.796
1474.919, 90.333
1476.101, 86.993
1477.283, 124.750
1478.464, 28.416
1479.645, 153.887
1480.826, 128.497
1482.007, 79.103
1483.187, 69.695
1484.368, 99.299
1485.548, 48.839
1486.728, 235.437
1487.908, 122.009
1489.088, 33.571
1490.268, 178.169
1491.447, 78.755
1492.626, 116.313
1493.805, 180.856
1494.984, 45.375
1496.163, 93.954
1497.341, 154.698
1498.520, 52.563
1499.698, 130.382
1500.876, 94.323
1502.054, 43.360
1503.232, 44.723
1504.409, 49.944
1505.586, 55.826
1506.763, 194.163
1507.940, 106.615
1509.117, 103.071
1510.294, 130.645
1511.470, 47.569
1512.647, 105.745
1513.823, 75.642
1514.999, 33.023
1516.174, 109.773
1517.350, 57.681
1518.526, 1.277
1519.701, 171.075
1520.876, 94.283
1522.051, 50.261
1523.226, 165.689
1524.400, 0.334
1525.574, 0.000
##END=



