##NAMES=Bustamite
##RRUFFID=R040014
##IDEAL CHEMISTRY=CaMn^2+^Si_2_O_6_
##LOCALITY=Broken Hill, New South Wales, Australia
##OWNER=RRUFF
##SOURCE=University of Arizona Mineral Museum
##DESCRIPTION=Orange fragment
##STATUS=The identification of this mineral has been confirmed by X-ray diffraction and chemical analysis
##URL=rruff.info/R040014
##MEASURED CHEMISTRY=(Ca_0.90_Mn_0.10_)_Σ=1_(Mn^2+^_0.78_Fe^2+^_0.19_Fe^3+^_0.02_Mg_0.01_)_Σ=1_(Si_1.98_Fe^3+^_0.02_)_Σ=2_O_6_
##PIN_ID=M00138
##ORIENTATION=Laser parallel to c* (0 0 1). Fiducial mark perpendicular to laser is parallel to -a [-1 0 0]
92.678, 0.000
94.071, 7.988
95.465, 13.949
96.858, 92.466
98.251, 157.097
99.644, 285.196
101.036, 419.996
102.428, 445.614
103.820, 651.621
105.212, 801.178
106.604, 1069.132
107.995, 1457.768
109.387, 2555.697
110.777, 3333.666
112.168, 2644.766
113.559, 1741.386
114.949, 1386.105
116.339, 1410.627
117.729, 1701.746
119.119, 2149.400
120.508, 2900.344
121.897, 3939.679
123.286, 5188.787
124.675, 6054.309
126.063, 6646.542
127.452, 6199.587
128.840, 5428.607
130.228, 4872.730
131.615, 4414.068
133.003, 4575.716
134.390, 4566.756
135.777, 4647.254
137.164, 4625.272
138.550, 4383.872
139.937, 3966.100
141.323, 3469.008
142.709, 3063.633
144.094, 2576.009
145.480, 2228.121
146.865, 2036.193
148.250, 1912.116
149.635, 1927.071
151.019, 1841.018
152.403, 1840.461
153.788, 1734.222
155.171, 1746.410
156.555, 1622.495
157.939, 1523.565
159.322, 1356.804
160.705, 1168.204
162.088, 1058.751
163.470, 794.427
164.853, 679.218
166.235, 614.115
167.617, 607.120
168.998, 653.232
170.380, 741.449
171.761, 815.767
173.142, 841.183
174.523, 815.754
175.904, 773.275
177.284, 659.897
178.664, 527.608
180.044, 370.427
181.424, 261.367
182.803, 143.432
184.183, 112.621
185.562, 55.933
186.940, 72.366
188.319, 61.915
189.698, 83.577
191.076, 54.345
192.454, 109.213
193.831, 91.175
195.209, 88.225
196.586, 31.359
197.963, 16.570
199.340, 41.099
200.717, 84.640
202.093, 102.413
203.470, 176.444
204.846, 139.764
206.221, 174.056
207.597, 180.325
208.972, 144.573
210.347, 150.800
211.722, 122.005
213.097, 135.189
214.472, 122.350
215.846, 57.486
217.220, 2.595
218.594, 17.250
219.967, 11.266
221.341, 80.228
222.714, 116.212
224.087, 164.217
225.460, 262.242
226.832, 336.288
228.204, 399.346
229.577, 559.350
230.948, 630.218
232.320, 694.930
233.692, 857.536
235.063, 968.072
236.434, 1064.562
237.805, 1178.062
239.175, 1340.662
240.545, 1343.328
241.916, 1478.083
243.286, 1621.920
244.655, 1592.804
246.025, 1769.718
247.394, 1659.655
248.763, 1679.613
250.132, 1545.590
251.501, 1488.587
252.869, 1357.604
254.237, 1183.639
255.605, 995.691
256.973, 927.760
258.340, 789.148
259.708, 645.118
261.075, 505.046
262.442, 470.480
263.808, 403.294
265.175, 358.402
266.541, 380.742
267.907, 314.266
269.273, 371.939
270.639, 417.734
272.004, 402.628
273.369, 453.601
274.734, 516.631
276.099, 559.703
277.463, 608.807
278.828, 653.212
280.192, 741.084
281.556, 736.247
282.919, 785.422
284.283, 833.605
285.646, 827.782
287.009, 819.928
288.372, 901.027
289.734, 839.076
291.097, 823.131
292.459, 908.096
293.821, 895.026
295.183, 956.924
296.544, 956.803
297.905, 1101.649
299.266, 1258.478
300.627, 1442.281
301.988, 1513.068
303.348, 1765.407
304.709, 2096.417
306.069, 2543.379
307.428, 3096.679
308.788, 3639.425
310.147, 4296.207
311.507, 4942.383
312.865, 5412.695
314.224, 6056.750
315.583, 6179.553
316.941, 6094.155
318.299, 5760.573
319.657, 5085.945
321.015, 4412.322
322.372, 3728.721
323.729, 3145.138
325.086, 2670.576
326.443, 2386.031
327.800, 2337.504
329.156, 2126.995
330.512, 2211.503
331.868, 2137.027
333.224, 2239.566
334.579, 2335.121
335.935, 2183.730
337.290, 2172.736
338.645, 1982.395
339.999, 1833.134
341.354, 1582.253
342.708, 1432.890
344.062, 1257.540
345.416, 1067.201
346.769, 987.874
348.123, 796.556
349.476, 774.249
350.829, 640.951
352.182, 507.661
353.534, 512.380
354.887, 368.105
356.239, 383.838
357.591, 289.578
358.942, 235.323
360.294, 239.948
361.645, 216.200
362.996, 209.530
364.347, 168.428
365.698, 153.019
367.048, 132.444
368.398, 101.207
369.748, 88.099
371.098, 131.134
372.448, 122.648
373.797, 144.357
375.146, 94.230
376.495, 214.712
377.844, 206.034
379.192, 302.079
380.540, 315.974
381.889, 452.208
383.236, 491.683
384.584, 626.330
385.932, 790.966
387.279, 867.175
388.626, 1082.847
389.973, 1284.585
391.319, 1598.346
392.666, 1982.010
394.012, 2417.124
395.358, 3048.286
396.704, 3848.569
398.049, 4953.396
399.394, 6366.204
400.740, 7735.010
402.084, 9552.819
403.429, 10980.630
404.774, 12278.437
406.118, 13256.247
407.462, 12684.056
408.806, 12041.861
410.150, 10349.670
411.493, 9027.473
412.836, 7445.276
414.179, 5961.078
415.522, 4799.877
416.865, 3795.675
418.207, 3177.471
419.549, 2481.265
420.891, 2052.065
422.233, 1731.870
423.575, 1353.674
424.916, 1183.476
426.257, 913.274
427.598, 823.066
428.939, 676.855
430.279, 616.640
431.619, 478.417
432.959, 394.183
434.299, 407.939
435.639, 294.685
436.978, 301.419
438.318, 279.143
439.657, 213.856
440.996, 256.558
442.334, 179.261
443.673, 241.962
445.011, 171.665
446.349, 182.371
447.687, 157.069
449.024, 83.763
450.361, 72.447
451.699, 33.119
453.036, 56.785
454.372, 60.450
455.709, 61.115
457.045, 44.767
458.381, 104.410
459.717, 48.049
461.053, 84.676
462.388, 90.291
463.724, 9.894
465.059, 68.507
466.394, 28.040
467.728, 25.425
469.063, 50.074
470.397, 17.438
471.731, 10.018
473.065, 114.456
474.398, 128.897
475.732, 264.337
477.065, 368.770
478.398, 548.214
479.731, 772.664
481.063, 987.106
482.396, 1199.542
483.728, 1199.980
485.060, 1073.431
486.391, 970.881
487.723, 722.330
489.054, 577.771
490.385, 345.216
491.716, 243.652
493.047, 170.097
494.377, 149.542
495.708, 66.978
497.038, 27.407
498.368, 63.821
499.697, 52.226
501.027, 24.620
502.356, 101.999
503.685, 103.368
505.014, 192.730
506.342, 200.081
507.671, 238.421
508.999, 345.751
510.327, 361.072
511.655, 449.382
512.982, 414.681
514.310, 422.969
515.637, 439.246
516.964, 330.513
518.291, 296.768
519.617, 210.012
520.944, 205.245
522.270, 166.470
523.596, 93.699
524.921, 20.942
526.247, 96.198
527.572, 9.506
528.897, 2.798
530.222, 100.875
531.547, 10.423
532.871, 65.261
534.196, 55.964
535.520, 29.689
536.844, 78.420
538.167, 13.184
539.491, 26.965
540.814, 49.783
542.137, 40.654
543.460, 22.429
544.783, 18.510
546.105, 11.489
547.427, 50.504
548.749, 3.575
550.071, 19.679
551.393, 24.176
552.714, 59.009
554.035, 55.825
555.356, 46.623
556.677, 112.402
557.998, 143.167
559.318, 190.917
560.638, 248.652
561.958, 316.372
563.278, 405.078
564.597, 474.768
565.917, 564.444
567.236, 680.104
568.555, 858.750
569.874, 1047.380
571.192, 1253.995
572.511, 1497.595
573.829, 1687.178
575.147, 1828.747
576.464, 1848.301
577.782, 1756.838
579.099, 1610.360
580.416, 1402.866
581.733, 1268.356
583.050, 992.033
584.366, 904.831
585.683, 705.440
586.999, 636.774
588.315, 561.328
589.630, 495.907
590.946, 466.327
592.261, 441.168
593.576, 401.371
594.891, 454.857
596.206, 429.396
597.520, 477.115
598.834, 473.355
600.148, 487.100
601.462, 469.648
602.776, 485.531
604.089, 468.230
605.402, 539.453
606.715, 622.701
608.028, 602.254
609.341, 567.771
610.653, 727.472
611.965, 757.380
613.277, 843.939
614.589, 840.109
615.901, 990.895
617.212, 1101.911
618.523, 1170.925
619.834, 1297.117
621.145, 1367.127
622.456, 1659.954
623.766, 1784.059
625.076, 2093.542
626.386, 2452.110
627.696, 2762.181
629.006, 3290.132
630.315, 3979.560
631.624, 4650.700
632.933, 5790.497
634.242, 6812.466
635.551, 8722.979
636.859, 10721.648
638.167, 13307.396
639.475, 16863.189
640.783, 20561.172
642.090, 24681.643
643.398, 28188.715
644.705, 30045.703
646.012, 30521.697
647.318, 27629.658
648.625, 24565.355
649.931, 20275.242
651.237, 16402.477
652.543, 13788.015
653.849, 10693.973
655.155, 9019.054
656.460, 7314.497
657.765, 6039.925
659.070, 5182.873
660.375, 4409.414
661.679, 3672.188
662.984, 3114.572
664.288, 2654.937
665.592, 2375.336
666.895, 2063.954
668.199, 1871.260
669.502, 1646.959
670.805, 1493.858
672.108, 1341.106
673.411, 1261.674
674.713, 1232.884
676.016, 1056.142
677.318, 1083.313
678.620, 1142.465
679.921, 1100.598
681.223, 1096.702
682.524, 1215.220
683.825, 1223.771
685.126, 1380.774
686.427, 1443.514
687.727, 1582.710
689.028, 1563.664
690.328, 1576.023
691.628, 1430.930
692.927, 1247.449
694.227, 1107.873
695.526, 995.356
696.825, 759.938
698.124, 715.051
699.423, 552.705
700.721, 474.687
702.020, 473.664
703.318, 367.051
704.616, 299.958
705.913, 287.780
707.211, 276.563
708.508, 225.429
709.805, 246.825
711.102, 163.159
712.399, 207.356
713.695, 204.995
714.992, 118.640
716.288, 221.269
717.584, 249.883
718.879, 237.480
720.175, 212.063
721.470, 228.630
722.765, 165.181
724.060, 198.717
725.355, 169.237
726.649, 132.743
727.944, 169.233
729.238, 139.708
730.532, 192.169
731.825, 175.615
733.119, 104.046
734.412, 128.463
735.705, 142.866
736.998, 110.254
738.291, 47.628
739.584, 29.986
740.876, 54.327
742.168, 7.652
743.460, 2.955
744.752, 47.233
746.043, 80.496
747.334, 50.745
748.626, 46.980
749.916, 50.199
751.207, 34.397
752.498, 16.835
753.788, 31.767
755.078, 33.075
756.368, 18.958
757.658, 40.874
758.947, 38.618
760.237, 0.161
761.526, 16.865
762.815, 12.079
764.104, 12.006
765.392, 11.082
766.680, 30.196
767.969, 25.347
769.257, 48.469
770.544, 1.273
771.832, 18.942
773.119, 69.813
774.406, 21.559
775.693, 59.292
776.980, 43.985
778.267, 12.300
779.553, 2.615
780.839, 9.053
782.125, 10.720
783.411, 19.376
784.697, 11.032
785.982, 45.321
787.267, 24.713
788.552, 13.869
789.837, 69.562
791.122, 41.041
792.406, 56.444
793.690, 32.921
794.974, 32.611
796.258, 73.173
797.542, 19.785
798.825, 19.418
800.108, 3.072
801.391, 36.739
802.674, 13.565
803.957, 69.138
805.239, 27.887
806.522, 38.341
807.804, 8.438
809.085, 63.771
810.367, 22.975
811.649, 4.172
812.930, 33.363
814.211, 0.550
815.492, 8.271
816.772, 34.898
818.053, 90.061
819.333, 4.219
820.613, 7.630
821.893, 38.512
823.173, 2.649
824.452, 54.780
825.732, 20.907
827.011, 10.972
828.290, 63.141
829.568, 1.750
830.847, 81.353
832.125, 31.451
833.403, 26.546
834.681, 71.637
835.959, 7.275
837.236, 18.190
838.514, 123.886
839.791, 45.969
841.068, 39.056
842.345, 16.173
843.621, 74.292
844.898, 89.434
846.174, 45.595
847.450, 51.770
848.726, 71.972
850.001, 79.183
851.277, 92.295
852.552, 124.649
853.827, 108.909
855.102, 111.171
856.376, 102.445
857.651, 157.729
858.925, 150.033
860.199, 159.345
861.473, 103.669
862.746, 194.998
864.020, 172.328
865.293, 257.659
866.566, 290.991
867.839, 292.333
869.112, 321.675
870.384, 409.017
871.656, 501.364
872.928, 586.711
874.200, 653.068
875.472, 760.660
876.744, 941.791
878.015, 998.166
879.286, 1108.543
880.557, 1303.921
881.828, 1401.307
883.098, 1584.696
884.369, 1762.101
885.639, 2105.509
886.909, 2280.923
888.178, 2313.340
889.448, 2528.763
890.717, 2442.188
891.987, 2365.414
893.256, 2357.506
894.524, 2120.782
895.793, 1967.333
897.061, 1848.653
898.330, 1601.942
899.598, 1477.378
900.865, 1337.707
902.133, 1286.027
903.401, 1134.368
904.668, 1036.661
905.935, 1031.769
907.202, 913.073
908.468, 926.411
909.735, 903.681
911.001, 800.604
912.267, 723.699
913.533, 732.259
914.799, 793.793
916.064, 824.034
917.330, 732.299
918.595, 716.321
919.860, 827.182
921.124, 793.382
922.389, 873.958
923.653, 783.901
924.918, 825.621
926.182, 968.330
927.445, 914.855
928.709, 960.551
929.972, 1060.851
931.236, 1042.180
932.499, 1134.156
933.761, 1208.689
935.024, 1185.259
936.286, 1198.881
937.549, 1220.482
938.811, 1346.984
940.073, 1284.820
941.334, 1385.476
942.596, 1357.581
943.857, 1393.520
945.118, 1567.371
946.379, 1531.170
947.640, 1734.770
948.900, 1797.879
950.161, 1967.386
951.421, 2147.963
952.681, 2380.531
953.940, 2705.121
955.200, 3119.967
956.459, 3526.622
957.719, 4178.917
958.978, 4843.900
960.236, 5977.416
961.495, 7231.422
962.753, 8785.417
964.012, 10859.352
965.270, 13953.393
966.527, 17447.328
967.785, 23111.021
969.043, 29765.098
970.300, 37169.188
971.557, 46833.230
972.814, 51407.059
974.071, 54541.180
975.327, 51195.281
976.583, 44919.430
977.840, 38523.613
979.095, 30367.455
980.351, 24571.650
981.607, 19565.795
982.862, 15840.013
984.117, 13064.249
985.372, 11298.496
986.627, 9472.753
987.882, 8496.879
989.136, 7570.681
990.390, 7094.981
991.644, 6539.292
992.898, 6253.616
994.152, 6137.952
995.405, 5922.302
996.659, 6016.664
997.912, 6181.240
999.165, 6025.627
1000.417, 6480.026
1001.670, 6444.438
1002.922, 6498.861
1004.174, 6453.298
1005.426, 5857.746
1006.678, 5792.204
1007.930, 5256.676
1009.181, 4741.158
1010.432, 4585.652
1011.683, 4112.158
1012.934, 3994.676
1014.185, 3801.205
1015.435, 3589.746
1016.685, 3730.298
1017.935, 3549.706
1019.185, 3738.282
1020.435, 4036.868
1021.684, 4012.444
1022.934, 4554.052
1024.183, 4790.619
1025.432, 4995.824
1026.680, 5161.161
1027.929, 5237.973
1029.177, 5202.642
1030.425, 4977.321
1031.673, 4873.433
1032.921, 5138.378
1034.169, 5466.104
1035.416, 6021.215
1036.663, 7006.956
1037.911, 7421.781
1039.157, 8086.973
1040.404, 7921.829
1041.650, 7176.875
1042.897, 6451.795
1044.143, 5338.418
1045.389, 4635.948
1046.634, 3782.312
1047.880, 3010.979
1049.125, 2641.946
1050.371, 2188.670
1051.615, 1889.778
1052.860, 1705.767
1054.105, 1463.164
1055.349, 1285.150
1056.593, 1170.147
1057.837, 1016.989
1059.081, 1009.874
1060.325, 893.022
1061.568, 809.243
1062.812, 778.341
1064.055, 692.920
1065.298, 729.311
1066.540, 617.447
1067.783, 570.395
1069.025, 666.517
1070.267, 541.742
1071.509, 514.999
1072.751, 484.351
1073.993, 441.413
1075.234, 512.290
1076.475, 539.525
1077.716, 500.348
1078.957, 497.161
1080.198, 459.679
1081.438, 457.489
1082.679, 444.503
1083.919, 460.673
1085.159, 428.179
1086.398, 442.705
1087.638, 437.055
1088.877, 423.551
1090.116, 330.983
1091.355, 466.581
1092.594, 293.989
1093.833, 261.698
1095.071, 294.127
1096.309, 185.658
1097.547, 228.061
1098.785, 201.825
1100.023, 153.042
1101.260, 155.244
1102.498, 211.743
1103.735, 125.467
1104.972, 249.985
1106.208, 137.710
1107.445, 142.449
1108.681, 161.013
1109.918, 169.660
1111.154, 204.222
1112.389, 196.787
1113.625, 176.433
1114.860, 228.004
1116.096, 127.586
1117.331, 118.303
1118.566, 147.972
1119.800, 173.558
1121.035, 230.146
1122.269, 221.178
1123.503, 153.631
1124.737, 218.000
1125.971, 142.596
1127.205, 138.394
1128.438, 233.995
1129.671, 45.597
1130.904, 158.433
1132.137, 154.037
1133.370, 108.688
1134.602, 145.433
1135.834, 126.480
1137.066, 58.881
1138.298, 123.694
1139.530, 148.394
1140.762, 138.083
1141.993, 89.714
1143.224, 30.324
1144.455, 115.218
1145.686, 12.174
1146.917, 123.521
1148.147, 60.124
1149.377, 76.723
1150.607, 127.639
1151.837, 86.234
1153.067, 47.826
1154.296, 51.431
1155.526, 22.018
1156.755, 61.601
1157.984, 92.339
1159.213, 48.916
1160.441, 73.651
1161.670, 69.267
1162.898, 4.832
1164.126, 47.653
1165.354, 43.701
1166.581, 56.874
1167.809, 17.495
1169.036, 25.893
1170.263, 45.719
1171.490, 42.635
1172.717, 16.066
1173.943, 32.265
1175.170, 55.160
1176.396, 19.386
1177.622, 111.263
1178.848, 30.312
1180.073, 5.626
1181.299, 54.897
1182.524, 8.534
1183.749, 20.783
1184.974, 3.686
1186.199, 7.985
1187.423, 11.748
1188.648, 1.906
1189.872, 4.880
1191.096, 27.121
1192.320, 40.856
1193.543, 4.307
1194.767, 25.289
1195.990, 27.070
1197.213, 21.415
1198.436, 13.864
1199.659, 46.077
1200.881, 45.988
1202.104, 22.881
1203.326, 78.508
1204.548, 19.279
1205.770, 50.986
1206.991, 36.185
1208.213, 26.567
1209.434, 83.910
1210.655, 27.079
1211.876, 71.150
1213.096, 134.725
1214.317, 0.769
1215.537, 1.378
1216.757, 58.458
1217.977, 56.266
1219.197, 36.063
1220.417, 13.836
1221.636, 6.115
1222.855, 94.854
1224.074, 101.111
1225.293, 43.827
1226.512, 21.541
1227.731, 22.425
1228.949, 7.482
1230.167, 0.917
1231.385, 36.926
1232.603, 34.630
1233.820, 87.802
1235.038, 58.391
1236.255, 78.060
1237.472, 40.981
1238.689, 151.523
1239.906, 31.096
1241.122, 112.617
1242.338, 73.118
1243.555, 6.393
1244.771, 92.076
1245.986, 110.534
1247.202, 18.236
1248.417, 135.668
1249.633, 52.248
1250.848, 107.779
1252.063, 60.177
1253.277, 60.759
1254.492, 104.236
1255.706, 86.587
1256.920, 109.936
1258.134, 133.262
1259.348, 91.576
1260.562, 121.164
1261.775, 110.479
1262.988, 79.956
1264.201, 93.853
1265.414, 121.122
1266.627, 129.637
1267.839, 59.019
1269.052, 18.219
1270.264, 26.401
1271.476, 185.565
1272.688, 72.714
1273.899, 133.079
1275.111, 172.303
1276.322, 67.545
1277.533, 137.732
1278.744, 113.803
1279.955, 91.854
1281.165, 103.184
1282.376, 93.436
1283.586, 79.122
1284.796, 107.275
1286.006, 110.199
1287.215, 126.008
1288.425, 156.867
1289.634, 65.697
1290.843, 157.740
1292.052, 111.284
1293.261, 181.007
1294.469, 144.710
1295.678, 64.395
1296.886, 157.056
1298.094, 227.701
1299.302, 133.329
1300.509, 194.940
1301.717, 158.536
1302.924, 101.112
1304.131, 280.667
1305.338, 101.197
1306.545, 129.709
1307.752, 164.199
1308.958, 79.636
1310.164, 121.053
1311.370, 131.606
1312.576, 119.985
1313.782, 121.346
1314.987, 117.712
1316.193, 109.035
1317.398, 120.392
1318.603, 34.100
1319.807, 115.359
1321.012, 112.753
1322.216, 53.971
1323.421, 170.166
1324.625, 71.915
1325.829, 65.814
1327.032, 148.926
1328.236, 55.641
1329.439, 0.288
1330.642, 151.686
1331.845, 36.718
1333.048, 128.201
1334.251, 47.916
1335.453, 41.266
1336.656, 136.840
1337.858, 13.027
1339.060, 28.375
1340.261, 93.414
1341.463, 85.854
1342.664, 103.110
1343.866, 116.680
1345.067, 26.360
1346.267, 127.624
1347.468, 56.500
1348.669, 92.147
1349.869, 64.940
1351.069, 80.696
1352.269, 42.188
1353.469, 45.865
1354.668, 111.419
1355.868, 121.487
1357.067, 115.995
1358.266, 73.249
1359.465, 113.937
1360.664, 112.567
1361.862, 141.982
1363.061, 146.369
1364.259, 45.698
1365.457, 68.264
1366.655, 126.714
1367.852, 24.103
1369.050, 115.468
1370.247, 6.123
1371.444, 69.219
1372.641, 163.296
1373.838, 76.931
1375.035, 37.045
1376.231, 94.104
1377.427, 51.802
1378.623, 143.271
1379.819, 92.193
1381.015, 39.657
1382.211, 132.659
1383.406, 105.659
1384.601, 141.817
1385.796, 149.018
1386.991, 161.475
1388.185, 132.411
1389.380, 147.342
1390.574, 55.229
1391.768, 164.203
1392.962, 79.158
1394.156, 88.160
1395.350, 152.891
1396.543, 70.834
1397.736, 91.290
1398.929, 202.284
1400.122, 114.888
1401.315, 186.419
1402.507, 156.132
1403.700, 50.587
1404.892, 110.879
1406.084, 69.340
1407.276, 18.941
1408.467, 112.188
1409.659, 51.639
1410.850, 78.776
1412.041, 182.281
1413.232, 202.738
1414.423, 161.983
1415.614, 149.190
1416.804, 63.519
1417.994, 93.416
1419.184, 85.593
1420.374, 94.669
1421.564, 187.680
1422.753, 175.640
1423.943, 116.160
1425.132, 192.038
1426.321, 66.839
1427.510, 71.047
1428.698, 137.086
1429.887, 2.428
1431.075, 185.372
1432.263, 168.163
1433.451, 27.470
1434.639, 274.044
1435.827, 129.616
1437.014, 161.727
1438.201, 230.896
1439.388, 91.489
1440.575, 243.261
1441.762, 233.869
1442.949, 184.750
1444.135, 311.668
1445.321, 214.661
1446.507, 137.596
1447.693, 366.586
1448.879, 255.036
1450.064, 269.821
1451.250, 291.569
1452.435, 155.013
1453.620, 146.901
1454.805, 315.380
1455.989, 187.927
1457.174, 295.424
1458.358, 325.316
1459.542, 157.074
1460.726, 309.934
1461.910, 263.948
1463.093, 336.131
1464.277, 261.593
1465.460, 165.106
1466.643, 241.471
1467.826, 337.245
1469.009, 133.062
1470.191, 242.810
1471.373, 220.583
1472.556, 152.515
1473.738, 321.029
1474.919, 183.471
1476.101, 146.723
1477.283, 293.524
1478.464, 136.148
1479.645, 266.165
1480.826, 247.044
1482.007, 168.910
1483.187, 152.736
1484.368, 224.496
1485.548, 69.222
1486.728, 222.952
1487.908, 148.795
1489.088, 11.748
1490.268, 217.666
1491.447, 113.543
1492.626, 107.418
1493.805, 245.271
1494.984, 6.131
1496.163, 132.076
1497.341, 256.049
1498.520, 115.096
1499.698, 114.199
1500.876, 205.491
1502.054, 33.938
1503.232, 186.458
1504.409, 71.045
1505.586, 53.724
1506.763, 153.760
1507.940, 8.497
1509.117, 124.357
1510.294, 254.737
1511.470, 1.367
1512.647, 172.643
1513.823, 123.055
1514.999, 60.281
1516.174, 206.523
1517.350, 63.426
1518.526, 31.829
1519.701, 131.231
