##NAMES=Bustamite
##RRUFFID=R040014
##IDEAL CHEMISTRY=CaMn^2+^Si_2_O_6_
##LOCALITY=Broken Hill, New South Wales, Australia
##OWNER=RRUFF
##SOURCE=University of Arizona Mineral Museum
##DESCRIPTION=Orange fragment
##STATUS=The identification of this mineral has been confirmed by X-ray diffraction and chemical analysis
##URL=rruff.info/R040014
##MEASURED CHEMISTRY=(Ca_0.90_Mn_0.10_)_Σ=1_(Mn^2+^_0.78_Fe^2+^_0.19_Fe^3+^_0.02_Mg_0.01_)_Σ=1_(Si_1.98_Fe^3+^_0.02_)_Σ=2_O_6_
##PIN_ID=M00138
##ORIENTATION=Laser parallel to c* (0 0 1). Fiducial mark perpendicular to laser is parallel to -a [-1 0 0]
91.284, 0.000
92.678, 11.038
94.071, 29.063
95.465, 121.585
96.858, 247.068
98.251, 517.904
99.644, 661.677
101.036, 939.909
102.428, 1015.790
103.820, 1392.296
105.212, 1654.431
106.604, 1917.843
107.995, 2321.943
109.387, 3236.486
110.777, 2758.502
112.168, 3143.410
113.559, 2189.691
114.949, 1684.042
116.339, 1692.387
117.729, 1861.687
119.119, 2210.783
120.508, 3000.066
121.897, 4071.484
123.286, 5862.162
124.675, 7456.924
126.063, 8919.699
127.452, 9171.635
128.840, 8592.842
130.228, 8213.419
131.615, 7553.448
133.003, 7993.000
134.390, 7692.131
135.777, 7680.891
137.164, 7379.328
138.550, 6801.488
139.937, 6277.164
141.323, 5312.070
142.709, 4793.268
144.094, 4106.060
145.480, 3597.231
146.865, 3343.569
148.250, 3137.179
149.635, 3072.887
151.019, 3026.663
152.403, 3195.461
153.788, 3080.457
155.171, 3053.415
156.555, 2913.664
157.939, 2721.089
159.322, 2551.699
160.705, 2157.483
162.088, 1823.422
163.470, 1397.503
164.853, 1103.713
166.235, 803.050
167.617, 631.517
168.998, 583.113
170.380, 430.835
171.761, 425.680
173.142, 414.643
174.523, 424.693
175.904, 440.760
177.284, 370.906
178.664, 342.160
180.044, 241.534
181.424, 194.039
182.803, 115.676
184.183, 71.445
185.562, 35.344
186.940, 19.371
188.319, 62.479
189.698, 44.211
191.076, 4.169
192.454, 39.346
193.831, 2.760
195.209, 2.079
196.586, 79.306
197.963, 40.445
199.340, 108.501
200.717, 59.482
202.093, 113.394
203.470, 98.241
204.846, 118.032
206.221, 109.765
207.597, 131.440
208.972, 139.075
210.347, 133.668
211.722, 139.289
213.097, 118.973
214.472, 109.089
215.846, 71.408
217.220, 53.237
218.594, 26.161
219.967, 11.999
221.341, 36.869
222.714, 97.748
224.087, 183.599
225.460, 229.444
226.832, 305.280
228.204, 375.062
229.577, 533.777
230.948, 588.402
232.320, 654.943
233.692, 847.417
235.063, 933.822
236.434, 1065.190
237.805, 1186.580
239.175, 1300.083
240.545, 1489.721
241.916, 1556.462
243.286, 1779.287
244.655, 1902.203
246.025, 2199.166
247.394, 2198.172
248.763, 2312.211
250.132, 2288.280
251.501, 2151.378
252.869, 2171.505
254.237, 1914.661
255.605, 1802.845
256.973, 1578.449
258.340, 1452.916
259.708, 1377.885
261.075, 1113.471
262.442, 1099.527
263.808, 958.951
265.175, 928.670
266.541, 856.628
267.907, 853.784
269.273, 865.102
270.639, 815.557
272.004, 860.122
273.369, 819.773
274.734, 947.496
276.099, 926.277
277.463, 919.107
278.828, 944.979
280.192, 966.888
281.556, 956.824
282.919, 983.776
284.283, 935.732
285.646, 1011.677
287.009, 888.596
288.372, 1012.484
289.734, 1000.345
291.097, 1078.183
292.459, 1149.001
293.821, 1092.804
295.183, 1320.593
296.544, 1395.372
297.905, 1553.143
299.266, 1764.906
300.627, 1924.665
301.988, 2293.420
303.348, 2558.172
304.709, 3201.860
306.069, 3546.495
307.428, 4360.079
308.788, 5155.589
310.147, 6182.988
311.507, 7331.262
312.865, 8138.394
314.224, 9316.281
315.583, 9633.094
316.941, 9729.845
318.299, 9437.459
319.657, 8284.023
321.015, 7272.037
322.372, 5971.655
323.729, 5069.302
325.086, 4337.215
326.443, 3787.913
327.800, 3619.878
329.156, 3290.041
330.512, 3463.812
331.868, 3323.633
333.224, 3565.637
334.579, 3526.278
335.935, 3344.368
337.290, 3300.787
338.645, 3010.785
339.999, 2818.114
341.354, 2538.906
342.708, 2301.972
344.062, 2125.949
345.416, 1840.944
346.769, 1798.956
348.123, 1561.984
349.476, 1474.027
350.829, 1257.076
352.182, 1184.371
353.534, 1092.663
354.887, 955.341
356.239, 937.943
357.591, 826.360
358.942, 747.834
360.294, 745.415
361.645, 658.072
362.996, 621.116
364.347, 620.043
365.698, 505.878
367.048, 550.544
368.398, 588.321
369.748, 562.108
371.098, 564.926
372.448, 559.408
373.797, 585.584
375.146, 623.521
376.495, 658.292
377.844, 703.613
379.192, 750.496
380.540, 846.446
381.889, 924.782
383.236, 1060.058
384.584, 1160.306
385.932, 1359.614
387.279, 1466.312
388.626, 1768.961
389.973, 2067.851
391.319, 2426.906
392.666, 3075.347
394.012, 3713.131
395.358, 4800.226
396.704, 5947.908
398.049, 7671.500
399.394, 9949.514
400.740, 12176.900
402.084, 15084.340
403.429, 17521.746
404.774, 19719.148
406.118, 20566.555
407.462, 19863.965
408.806, 19081.383
410.150, 16518.799
411.493, 14206.222
412.836, 11783.645
414.179, 9361.072
415.522, 7778.504
416.865, 6078.937
418.207, 5150.372
419.549, 4043.824
420.891, 3395.292
422.233, 2804.768
423.575, 2337.250
424.916, 2040.736
426.257, 1622.223
427.598, 1536.710
428.939, 1283.197
430.279, 1178.686
431.619, 1096.173
432.959, 898.658
434.299, 868.139
435.639, 802.621
436.978, 692.099
438.318, 685.579
439.657, 585.061
440.996, 611.537
442.334, 550.008
443.673, 524.472
445.011, 456.929
446.349, 393.380
447.687, 357.823
449.024, 310.268
450.361, 277.707
451.699, 243.144
453.036, 236.581
454.372, 281.011
455.709, 231.435
457.045, 297.851
458.381, 283.261
459.717, 278.665
461.053, 258.061
462.388, 225.015
463.724, 165.840
465.059, 127.227
466.394, 95.620
467.728, 77.738
469.063, 36.415
470.397, 76.829
471.731, 50.249
473.065, 70.917
474.398, 6.922
475.732, 57.490
477.065, 15.906
478.398, 8.671
479.731, 43.754
481.063, 14.823
482.396, 77.590
483.728, 70.002
485.060, 9.416
486.391, 102.833
487.723, 10.247
489.054, 3.682
490.385, 33.109
491.716, 6.465
493.047, 25.053
494.377, 18.666
495.708, 9.301
497.038, 13.953
498.368, 22.625
499.697, 27.322
501.027, 2.255
502.356, 24.644
503.685, 60.468
505.014, 75.716
506.342, 113.959
507.671, 140.423
508.999, 187.427
510.327, 204.662
511.655, 293.892
512.982, 342.138
514.310, 342.391
515.637, 406.640
516.964, 366.896
518.291, 324.148
519.617, 203.402
520.944, 198.669
522.270, 130.941
523.596, 25.234
524.921, 45.534
526.247, 50.855
527.572, 29.195
528.897, 5.553
530.222, 2.328
531.547, 30.689
532.871, 19.303
534.196, 5.914
535.520, 15.513
536.844, 0.820
538.167, 22.701
539.491, 10.695
540.814, 12.910
542.137, 27.544
543.460, 90.212
544.783, 42.949
546.105, 48.731
547.427, 47.561
548.749, 19.562
550.071, 37.330
551.393, 11.265
552.714, 48.229
554.035, 14.759
555.356, 33.730
556.677, 3.687
557.998, 19.622
559.318, 72.541
560.638, 57.450
561.958, 67.348
563.278, 137.236
564.597, 99.114
565.917, 166.980
567.236, 225.836
568.555, 248.682
569.874, 315.518
571.192, 406.342
572.511, 458.155
573.829, 601.958
575.147, 650.750
576.464, 633.531
577.782, 712.301
579.099, 653.060
580.416, 572.808
581.733, 562.544
583.050, 437.269
584.366, 457.983
585.683, 359.685
586.999, 359.488
588.315, 372.080
589.630, 336.147
590.946, 290.861
592.261, 299.733
593.576, 313.598
594.891, 340.468
596.206, 358.693
597.520, 350.090
598.834, 367.674
600.148, 408.536
601.462, 378.095
602.776, 401.642
604.089, 455.176
605.402, 421.698
606.715, 554.252
608.028, 560.750
609.341, 554.417
610.653, 602.176
611.965, 621.636
613.277, 793.114
614.589, 767.550
615.901, 964.972
617.212, 957.382
618.523, 1018.780
619.834, 1285.295
621.145, 1281.667
622.456, 1547.195
623.766, 1740.261
625.076, 1964.478
626.386, 2330.306
627.696, 2664.478
629.006, 3187.992
630.315, 3858.301
631.624, 4527.230
632.933, 5823.072
634.242, 6760.046
635.551, 8828.599
636.859, 10847.116
638.167, 13333.312
639.475, 17229.705
640.783, 20855.904
642.090, 25303.125
643.398, 29221.074
644.705, 30977.199
646.012, 31939.502
647.318, 28635.188
648.625, 25592.166
649.931, 21397.215
651.237, 17011.082
652.543, 14445.322
653.849, 11290.120
655.155, 9474.596
656.460, 7698.497
657.765, 6312.075
659.070, 5478.194
660.375, 4452.044
661.679, 3914.990
662.984, 3349.920
664.288, 2810.838
665.592, 2605.742
666.895, 2249.713
668.199, 2147.775
669.502, 1849.414
670.805, 1571.263
672.108, 1565.099
673.411, 1366.921
674.713, 1325.730
676.016, 1148.080
677.318, 1124.861
678.620, 1097.652
679.921, 1078.406
681.223, 1047.954
682.524, 1051.870
683.825, 1027.581
685.126, 1090.113
686.427, 1081.122
687.727, 1131.891
689.028, 1128.553
690.328, 1008.893
691.628, 969.037
692.927, 785.541
694.227, 638.033
695.526, 577.012
696.825, 453.896
698.124, 452.413
699.423, 351.973
700.721, 355.564
702.020, 296.232
703.318, 244.215
704.616, 224.384
705.913, 220.307
707.211, 236.059
708.508, 217.142
709.805, 186.431
711.102, 197.125
712.399, 154.231
713.695, 136.421
714.992, 156.185
716.288, 194.574
717.584, 204.904
718.879, 188.265
720.175, 116.623
721.470, 150.970
722.765, 105.308
724.060, 146.634
725.355, 117.952
726.649, 161.259
727.944, 152.556
729.238, 110.844
730.532, 153.123
731.825, 95.392
733.119, 111.652
734.412, 172.902
735.705, 105.144
736.998, 102.376
738.291, 98.600
739.584, 71.814
740.876, 74.021
742.168, 27.218
743.460, 2.406
744.752, 12.577
746.043, 29.735
747.334, 17.298
748.626, 3.978
749.916, 15.141
751.207, 10.752
752.498, 14.041
753.788, 49.394
755.078, 11.447
756.368, 38.490
757.658, 47.525
758.947, 52.553
760.237, 53.766
761.526, 20.412
762.815, 42.577
764.104, 7.441
765.392, 9.477
766.680, 27.468
767.969, 18.407
769.257, 54.339
770.544, 53.628
771.832, 28.185
773.119, 52.099
774.406, 7.007
775.693, 8.093
776.980, 11.208
778.267, 36.340
779.553, 7.502
780.839, 65.678
782.125, 55.898
783.411, 30.157
784.697, 5.558
785.982, 6.318
787.267, 36.034
788.552, 24.358
789.837, 35.703
791.122, 51.073
792.406, 29.528
793.690, 24.873
794.974, 1.713
796.258, 16.706
797.542, 33.139
798.825, 33.407
800.108, 104.049
801.391, 14.437
802.674, 17.078
803.957, 4.396
805.239, 68.874
806.522, 11.359
807.804, 32.850
809.085, 3.345
810.367, 3.847
811.649, 16.355
812.930, 43.873
814.211, 51.395
815.492, 10.915
816.772, 36.434
818.053, 76.952
819.333, 42.469
820.613, 44.015
821.893, 7.520
823.173, 23.027
824.452, 77.458
825.732, 16.941
827.011, 5.424
828.290, 118.907
829.568, 19.609
830.847, 30.868
832.125, 0.655
833.403, 85.822
834.681, 2.300
835.959, 10.221
837.236, 15.257
838.514, 34.736
839.791, 1.784
841.068, 87.701
842.345, 18.192
843.621, 43.698
844.898, 83.217
846.174, 36.745
847.450, 38.285
848.726, 49.733
850.001, 35.305
851.277, 64.964
852.552, 50.545
853.827, 55.141
855.102, 81.770
856.376, 87.420
857.651, 97.091
858.925, 118.786
860.199, 125.960
861.473, 102.205
862.746, 142.938
864.020, 144.693
865.293, 134.456
866.566, 164.224
867.839, 175.566
869.112, 283.805
870.384, 253.614
871.656, 340.433
872.928, 445.257
874.200, 454.086
875.472, 532.920
876.744, 745.758
878.015, 798.611
879.286, 989.488
880.557, 1085.379
881.828, 1242.280
883.098, 1469.186
884.369, 1643.113
885.639, 1797.048
886.909, 2096.989
888.178, 2134.956
889.448, 2230.928
890.717, 2370.907
891.987, 2291.898
893.256, 2285.896
894.524, 2025.909
895.793, 1876.821
897.061, 1666.940
898.330, 1512.057
899.598, 1333.572
900.865, 1248.404
902.133, 1089.238
903.401, 993.062
904.668, 985.526
905.935, 911.816
907.202, 872.418
908.468, 819.753
909.735, 786.890
911.001, 777.035
912.267, 717.190
913.533, 749.354
914.799, 771.494
916.064, 756.685
917.330, 786.245
918.595, 802.886
919.860, 806.845
921.124, 850.042
922.389, 848.284
923.653, 859.534
924.918, 954.797
926.182, 941.069
927.445, 887.220
928.709, 1069.517
929.972, 1073.654
931.236, 1018.250
932.499, 1051.696
933.761, 1077.529
935.024, 1181.016
936.286, 1154.165
937.549, 1148.517
938.811, 1239.247
940.073, 1197.153
941.334, 1354.836
942.596, 1421.872
943.857, 1356.989
945.118, 1438.461
946.379, 1485.312
947.640, 1648.775
948.900, 1744.231
950.161, 1899.703
951.421, 2089.235
952.681, 2336.360
953.940, 2595.926
955.200, 3114.609
956.459, 3496.203
957.719, 4150.809
958.978, 4925.434
960.236, 5711.071
961.495, 7336.722
962.753, 8712.386
964.012, 10788.062
965.270, 14023.755
966.527, 17359.457
967.785, 23675.178
969.043, 29920.908
970.300, 37996.656
971.557, 48142.422
972.814, 52516.113
974.071, 56551.707
975.327, 53136.734
976.583, 45862.539
977.840, 39878.371
979.095, 31104.207
980.351, 25000.061
981.607, 20035.373
982.862, 15821.250
984.117, 13257.120
985.372, 11003.029
986.627, 9158.952
987.882, 8304.688
989.136, 7000.641
990.390, 6456.608
991.644, 5852.554
992.898, 5368.548
994.152, 5314.556
995.405, 4910.576
996.659, 5006.611
997.912, 5212.914
999.165, 5088.977
1000.417, 5835.052
1001.670, 6021.139
1002.922, 6387.242
1004.174, 6633.355
1005.426, 6199.483
1006.678, 6315.625
1007.930, 5961.780
1009.181, 5267.946
1010.432, 5074.127
1011.683, 4317.322
1012.934, 3948.529
1014.185, 3680.750
1015.435, 3184.982
1016.685, 3165.229
1017.935, 2812.306
1019.185, 2772.576
1020.435, 2819.028
1021.684, 2603.706
1022.934, 2718.030
1024.183, 2730.348
1025.432, 2666.785
1026.680, 2785.127
1027.929, 2673.441
1029.177, 2777.362
1030.425, 2912.710
1031.673, 2877.890
1032.921, 3343.297
1034.169, 3644.368
1035.416, 4143.206
1036.663, 5005.646
1037.911, 5206.758
1039.157, 5673.219
1040.404, 5509.692
1041.650, 5097.629
1042.897, 4602.124
1044.143, 3873.776
1045.389, 3277.590
1046.634, 2849.138
1047.880, 2209.978
1049.125, 1963.109
1050.371, 1682.281
1051.615, 1464.859
1052.860, 1301.460
1054.105, 1091.087
1055.349, 955.131
1056.593, 904.492
1057.837, 775.340
1059.081, 766.038
1060.325, 731.731
1061.568, 643.811
1062.812, 647.521
1064.055, 541.817
1065.298, 624.643
1066.540, 624.389
1067.783, 456.177
1069.025, 567.034
1070.267, 508.817
1071.509, 458.828
1072.751, 523.630
1073.993, 384.980
1075.234, 496.797
1076.475, 554.621
1077.716, 526.491
1078.957, 600.477
1080.198, 543.375
1081.438, 551.071
1082.679, 587.968
1083.919, 501.051
1085.159, 599.694
1086.398, 511.664
1087.638, 494.849
1088.877, 521.839
1090.116, 398.000
1091.355, 433.429
1092.594, 346.467
1093.833, 335.524
1095.071, 335.587
1096.309, 236.663
1097.547, 268.855
1098.785, 330.952
1100.023, 92.060
1101.260, 207.224
1102.498, 266.369
1103.735, 130.558
1104.972, 299.716
1106.208, 196.022
1107.445, 217.341
1108.681, 210.512
1109.918, 132.746
1111.154, 190.010
1112.389, 99.194
1113.625, 153.729
1114.860, 191.920
1116.096, 121.114
1117.331, 175.116
1118.566, 140.317
1119.800, 179.522
1121.035, 229.730
1122.269, 154.950
1123.503, 195.173
1124.737, 300.405
1125.971, 100.704
1127.205, 146.973
1128.438, 192.325
1129.671, 106.575
1130.904, 171.829
1132.137, 99.087
1133.370, 170.031
1134.602, 191.886
1135.834, 139.149
1137.066, 86.565
1138.298, 128.832
1139.530, 170.099
1140.762, 192.425
1141.993, 115.693
1143.224, 38.963
1144.455, 148.383
1145.686, 12.347
1146.917, 185.055
1148.147, 118.321
1149.377, 40.587
1150.607, 127.901
1151.837, 15.165
1153.067, 88.428
1154.296, 111.015
1155.526, 35.301
1156.755, 137.561
1157.984, 103.169
1159.213, 49.425
1160.441, 124.074
1161.670, 50.327
1162.898, 63.578
1164.126, 186.063
1165.354, 39.690
1166.581, 66.537
1167.809, 44.218
1169.036, 31.016
1170.263, 0.432
1171.490, 12.523
1172.717, 3.298
1173.943, 67.018
1175.170, 37.812
1176.396, 78.663
1177.622, 36.875
1178.848, 16.791
1180.073, 34.950
1181.299, 61.893
1182.524, 7.862
1183.749, 67.359
1184.974, 76.623
1186.199, 44.349
1187.423, 64.794
1188.648, 24.244
1189.872, 47.178
1191.096, 34.346
1192.320, 20.432
1193.543, 11.788
1194.767, 2.322
1195.990, 7.441
1197.213, 7.385
1198.436, 48.471
1199.659, 21.562
1200.881, 38.899
1202.104, 0.261
1203.326, 4.553
1204.548, 43.665
1205.770, 8.868
1206.991, 71.168
1208.213, 2.001
1209.434, 64.742
1210.655, 32.342
1211.876, 18.362
1213.096, 69.541
1214.317, 35.468
1215.537, 23.147
1216.757, 43.890
1217.977, 8.326
1219.197, 70.317
1220.417, 3.170
1221.636, 81.792
1222.855, 63.408
1224.074, 3.068
1225.293, 21.519
1226.512, 46.234
1227.731, 1.474
1228.949, 73.027
1230.167, 21.859
1231.385, 11.261
1232.603, 112.249
1233.820, 18.404
1235.038, 69.898
1236.255, 26.383
1237.472, 68.939
1238.689, 90.475
1239.906, 90.896
1241.122, 95.297
1242.338, 116.753
1243.555, 42.249
1244.771, 68.617
1245.986, 69.978
1247.202, 13.307
1248.417, 91.022
1249.633, 63.342
1250.848, 78.741
1252.063, 40.039
1253.277, 2.328
1254.492, 108.976
1255.706, 63.241
1256.920, 57.860
1258.134, 103.156
1259.348, 23.388
1260.562, 84.895
1261.775, 96.102
1262.988, 11.300
1264.201, 106.852
1265.414, 114.024
1266.627, 212.387
1267.839, 180.506
1269.052, 96.678
1270.264, 101.240
1271.476, 72.022
1272.688, 80.457
1273.899, 65.857
1275.111, 107.935
1276.322, 120.000
1277.533, 181.565
1278.744, 19.607
1279.955, 22.665
1281.165, 221.799
1282.376, 59.786
1283.586, 137.773
1284.796, 142.734
1286.006, 83.682
1287.215, 204.776
1288.425, 124.694
1289.634, 63.599
1290.843, 119.534
1292.052, 68.152
1293.261, 133.975
1294.469, 180.779
1295.678, 90.569
1296.886, 150.347
1298.094, 231.111
1299.302, 41.858
1300.509, 98.592
1301.717, 140.305
1302.924, 41.004
1304.131, 219.674
1305.338, 38.331
1306.545, 154.968
1307.752, 180.580
1308.958, 55.172
1310.164, 135.751
1311.370, 159.497
1312.576, 102.048
1313.782, 170.416
1314.987, 119.558
1316.193, 64.047
1317.398, 180.543
1318.603, 71.917
1319.807, 135.383
1321.012, 130.869
1322.216, 17.744
1323.421, 143.192
1324.625, 4.200
1325.829, 78.176
1327.032, 155.881
1328.236, 48.817
1329.439, 100.121
1330.642, 94.742
1331.845, 18.010
1333.048, 154.261
1334.251, 17.041
1335.453, 14.258
1336.656, 95.314
1337.858, 26.202
1339.060, 145.351
1340.261, 91.211
1341.463, 3.223
1342.664, 162.297
1343.866, 83.410
1345.067, 75.499
1346.267, 89.564
1347.468, 1.214
1348.669, 71.553
1349.869, 82.413
1351.069, 28.409
1352.269, 67.406
1353.469, 140.013
1354.668, 42.985
1355.868, 118.369
1357.067, 8.230
1358.266, 31.170
1359.465, 142.072
1360.664, 68.045
1361.862, 6.041
1363.061, 112.646
1364.259, 33.542
1365.457, 159.891
1366.655, 83.776
1367.852, 19.342
1369.050, 114.499
1370.247, 51.377
1371.444, 0.213
1372.641, 141.266
1373.838, 9.783
1375.035, 17.927
1376.231, 95.108
1377.427, 0.120
1378.623, 120.776
1379.819, 121.646
1381.015, 36.067
1382.211, 158.709
1383.406, 77.183
1384.601, 110.637
1385.796, 65.951
1386.991, 51.235
1388.185, 111.563
1389.380, 223.760
1390.574, 10.862
1391.768, 153.000
1392.962, 122.891
1394.156, 59.132
1395.350, 230.464
1396.543, 86.650
1397.736, 10.814
1398.929, 99.877
1400.122, 11.823
1401.315, 68.891
1402.507, 143.133
1403.700, 20.441
1404.892, 180.240
1406.084, 139.121
1407.276, 11.048
1408.467, 146.766
1409.659, 32.478
1410.850, 84.273
1412.041, 134.106
1413.232, 5.470
1414.423, 133.800
1415.614, 166.041
1416.804, 31.235
1417.994, 224.153
1419.184, 92.823
1420.374, 0.463
1421.564, 193.000
1422.753, 72.481
1423.943, 49.225
1425.132, 168.573
1426.321, 74.163
1427.510, 131.601
1428.698, 189.662
1429.887, 38.699
1431.075, 166.637
1432.263, 142.903
1433.451, 63.805
1434.639, 233.498
1435.827, 147.061
1437.014, 194.100
1438.201, 294.235
1439.388, 106.714
1440.575, 145.025
1441.762, 223.406
1442.949, 73.876
1444.135, 225.483
1445.321, 172.656
1446.507, 206.700
1447.693, 227.944
1448.879, 120.169
1450.064, 175.503
1451.250, 273.654
1452.435, 160.022
1453.620, 169.019
1454.805, 236.410
1455.989, 226.433
1457.174, 347.810
1458.358, 253.380
1459.542, 211.509
1460.726, 315.810
1461.910, 235.222
1463.093, 185.476
1464.277, 346.977
1465.460, 203.122
1466.643, 224.327
1467.826, 282.884
1469.009, 107.792
1470.191, 213.772
1471.373, 274.522
1472.556, 109.897
1473.738, 280.518
1474.919, 169.864
1476.101, 244.507
1477.283, 236.676
1478.464, 82.295
1479.645, 253.752
1480.826, 291.578
1482.007, 143.394
1483.187, 164.186
1484.368, 210.980
1485.548, 97.822
1486.728, 207.704
1487.908, 141.698
1489.088, 123.690
1490.268, 299.662
1491.447, 46.619
1492.626, 103.564
1493.805, 264.532
1494.984, 56.522
1496.163, 198.545
1497.341, 269.623
1498.520, 106.040
1499.698, 97.564
1500.876, 105.190
1502.054, 21.932
1503.232, 156.778
1504.409, 63.737
1505.586, 69.827
1506.763, 207.052
1507.940, 99.331
1509.117, 114.916
1510.294, 205.749
1511.470, 32.866
1512.647, 191.271
1513.823, 199.121
1514.999, 55.002
1516.174, 160.296
1517.350, 157.075
1518.526, 3.381
1519.701, 178.036
1520.876, 135.483
1522.051, 31.812
