##NAMES=Bustamite
##RRUFFID=R040014
##IDEAL CHEMISTRY=CaMn^2+^Si_2_O_6_
##LOCALITY=Broken Hill, New South Wales, Australia
##OWNER=RRUFF
##SOURCE=University of Arizona Mineral Museum
##DESCRIPTION=Orange fragment
##STATUS=The identification of this mineral has been confirmed by X-ray diffraction and chemical analysis
##URL=rruff.info/R040014
##MEASURED CHEMISTRY=(Ca_0.90_Mn_0.10_)_Σ=1_(Mn^2+^_0.78_Fe^2+^_0.19_Fe^3+^_0.02_Mg_0.01_)_Σ=1_(Si_1.98_Fe^3+^_0.02_)_Σ=2_O_6_
##PIN_ID=L00281
##ORIENTATION=Laser parallel to (0 1 1). Fiducial mark perpendicular to laser is parallel to a [1 0 0]
49.365, 0.000
50.765, 23.729
52.166, 42.519
53.566, 75.595
54.966, 108.566
56.365, 169.257
57.765, 201.686
59.164, 274.501
60.563, 311.452
61.962, 394.081
63.360, 429.855
64.758, 394.140
66.157, 375.420
67.554, 338.002
68.952, 334.519
70.349, 303.212
71.747, 272.084
73.144, 258.943
74.540, 200.913
75.937, 164.978
77.333, 129.105
78.729, 91.269
80.125, 60.453
81.521, 32.644
82.916, 13.836
84.311, 1.922
85.706, 3.567
87.101, 26.100
88.496, 15.334
89.890, 23.013
91.284, 6.228
92.678, 13.122
94.071, 38.253
95.465, 81.791
96.858, 126.193
98.251, 201.474
99.644, 241.642
101.036, 320.704
102.428, 407.662
103.820, 460.523
105.212, 498.295
106.604, 583.987
107.995, 598.604
109.387, 944.153
110.777, 2648.641
112.168, 1700.597
113.559, 2069.456
114.949, 875.789
116.339, 775.170
117.729, 766.120
119.119, 825.759
120.508, 1010.857
121.897, 1382.554
123.286, 1835.572
124.675, 2189.947
126.063, 2428.126
127.452, 2502.592
128.840, 2268.072
130.228, 2024.297
131.615, 1908.240
133.003, 1917.825
134.390, 1960.906
135.777, 2026.777
137.164, 2068.191
138.550, 1969.577
139.937, 1895.884
141.323, 1750.230
142.709, 1658.603
144.094, 1534.991
145.480, 1429.389
146.865, 1423.794
148.250, 1448.193
149.635, 1503.574
151.019, 1621.914
152.403, 1609.188
153.788, 1608.398
155.171, 1480.587
156.555, 1382.776
157.939, 1232.976
159.322, 1063.189
160.705, 871.414
162.088, 761.650
163.470, 587.896
164.853, 510.153
166.235, 450.420
167.617, 413.704
168.998, 429.001
170.380, 404.310
171.761, 382.652
173.142, 429.003
174.523, 418.357
175.904, 402.712
177.284, 348.068
178.664, 296.425
180.044, 228.783
181.424, 199.142
182.803, 140.503
184.183, 132.866
185.562, 93.230
186.940, 82.595
188.319, 62.962
189.698, 39.332
191.076, 50.703
192.454, 55.076
193.831, 56.451
195.209, 59.828
196.586, 22.208
197.963, 16.590
199.340, 27.974
200.717, 14.642
202.093, 1.260
203.470, 14.883
204.846, 6.510
206.221, 39.141
207.597, 15.780
208.972, 31.436
210.347, 33.113
211.722, 24.825
213.097, 41.572
214.472, 10.356
215.846, 11.593
217.220, 9.468
218.594, 35.393
219.967, 16.159
221.341, 40.803
222.714, 61.324
224.087, 41.715
225.460, 117.956
226.832, 120.048
228.204, 164.014
229.577, 197.860
230.948, 243.578
232.320, 283.133
233.692, 306.490
235.063, 353.601
236.434, 417.525
237.805, 487.382
239.175, 494.217
240.545, 520.038
241.916, 574.715
243.286, 576.248
244.655, 604.602
246.025, 581.710
247.394, 533.515
248.763, 514.997
250.132, 484.880
251.501, 412.697
252.869, 388.137
254.237, 355.283
255.605, 304.961
256.973, 256.692
258.340, 263.258
259.708, 202.204
261.075, 176.535
262.442, 183.056
263.808, 174.819
265.175, 168.586
266.541, 179.329
267.907, 170.077
269.273, 154.819
270.639, 169.558
272.004, 178.292
273.369, 215.023
274.734, 221.751
276.099, 224.476
277.463, 262.198
278.828, 284.538
280.192, 334.666
281.556, 363.381
282.919, 395.660
284.283, 447.520
285.646, 487.302
287.009, 529.157
288.372, 558.932
289.734, 625.087
291.097, 631.961
292.459, 654.620
293.821, 701.191
295.183, 702.722
296.544, 788.204
297.905, 819.673
299.266, 925.131
300.627, 1029.585
301.988, 1189.037
303.348, 1343.490
304.709, 1578.946
306.069, 1924.403
307.428, 2197.863
308.788, 2684.324
310.147, 3097.787
311.507, 3533.252
312.865, 3938.719
314.224, 4243.190
315.583, 4353.660
316.941, 4291.133
318.299, 4008.610
319.657, 3523.088
321.015, 3154.571
322.372, 2661.055
323.729, 2284.543
325.086, 1996.033
326.443, 1781.526
327.800, 1612.021
329.156, 1592.519
330.512, 1536.020
331.868, 1564.523
333.224, 1517.028
334.579, 1567.536
335.935, 1533.046
337.290, 1441.558
338.645, 1361.073
339.999, 1282.591
341.354, 1138.110
342.708, 1002.631
344.062, 889.153
345.416, 786.678
346.769, 687.416
348.123, 600.656
349.476, 525.936
350.829, 462.202
352.182, 406.393
353.534, 385.469
354.887, 307.621
356.239, 293.797
357.591, 259.985
358.942, 210.194
360.294, 216.173
361.645, 168.115
362.996, 134.161
364.347, 115.072
365.698, 122.803
367.048, 107.738
368.398, 97.218
369.748, 72.670
371.098, 77.750
372.448, 74.431
373.797, 92.830
375.146, 89.307
376.495, 115.940
377.844, 134.666
379.192, 172.726
380.540, 181.176
381.889, 232.831
383.236, 257.678
384.584, 307.200
385.932, 372.275
387.279, 417.920
388.626, 518.952
389.973, 590.514
391.319, 673.381
392.666, 870.648
394.012, 992.269
395.358, 1199.107
396.704, 1424.636
398.049, 1719.235
399.394, 2090.726
400.740, 2589.215
402.084, 3111.705
403.429, 3628.194
404.774, 4022.683
406.118, 4181.173
407.462, 4110.666
408.806, 3817.160
410.150, 3389.658
411.493, 2883.162
412.836, 2335.673
414.179, 1937.193
415.522, 1527.726
416.865, 1206.271
418.207, 990.828
419.549, 782.394
420.891, 646.965
422.233, 529.539
423.575, 410.115
424.916, 325.691
426.257, 271.267
427.598, 222.843
428.939, 187.419
430.279, 159.995
431.619, 121.573
432.959, 122.151
434.299, 50.731
435.639, 82.312
436.978, 48.892
438.318, 42.472
439.657, 42.053
440.996, 25.647
442.334, 41.249
443.673, 13.144
445.011, 0.542
446.349, 11.062
447.687, 1.330
449.024, 8.275
450.361, 11.120
451.699, 26.517
453.036, 22.922
454.372, 58.664
455.709, 30.252
457.045, 49.845
458.381, 90.445
459.717, 92.050
461.053, 130.655
462.388, 163.266
463.724, 138.880
465.059, 123.501
466.394, 101.123
467.728, 64.752
469.063, 94.396
470.397, 74.039
471.731, 39.689
473.065, 71.340
474.398, 78.991
475.732, 136.644
477.065, 191.298
478.398, 260.955
479.731, 350.613
481.063, 444.279
482.396, 522.951
483.728, 591.632
485.060, 564.312
486.391, 486.993
487.723, 377.673
489.054, 289.362
490.385, 234.050
491.716, 140.740
493.047, 100.432
494.377, 89.122
495.708, 71.813
497.038, 37.504
498.368, 47.195
499.697, 28.891
501.027, 48.591
502.356, 86.290
503.685, 88.989
505.014, 144.688
506.342, 152.386
507.671, 225.087
508.999, 263.786
510.327, 348.486
511.655, 442.186
512.982, 460.886
514.310, 525.587
515.637, 558.289
516.964, 504.991
518.291, 470.694
519.617, 373.397
520.944, 312.101
522.270, 233.807
523.596, 164.515
524.921, 127.229
526.247, 111.945
527.572, 60.667
528.897, 55.392
530.222, 1.130
531.547, 4.871
532.871, 4.621
534.196, 19.380
535.520, 0.853
536.844, 21.078
538.167, 16.310
539.491, 15.552
540.814, 38.800
542.137, 12.071
543.460, 20.348
544.783, 8.638
546.105, 8.403
547.427, 23.239
548.749, 15.558
550.071, 19.888
551.393, 26.233
552.714, 3.404
554.035, 1.962
555.356, 23.667
556.677, 6.294
557.998, 47.917
559.318, 48.539
560.638, 63.159
561.958, 113.776
563.278, 85.392
564.597, 150.005
565.917, 167.617
567.236, 225.226
568.555, 318.833
569.874, 346.438
571.192, 454.041
572.511, 569.641
573.829, 616.239
575.147, 708.834
576.464, 726.427
577.782, 738.018
579.099, 662.625
580.416, 607.210
581.733, 534.819
583.050, 430.398
584.366, 386.011
585.683, 316.659
586.999, 267.294
588.315, 215.031
589.630, 214.918
590.946, 176.557
592.261, 152.722
593.576, 180.349
594.891, 180.918
596.206, 173.500
597.520, 134.420
598.834, 175.886
600.148, 201.565
601.462, 183.269
602.776, 218.289
604.089, 203.582
605.402, 216.005
606.715, 246.438
608.028, 276.917
609.341, 297.327
610.653, 313.653
611.965, 349.228
613.277, 372.178
614.589, 405.689
615.901, 440.584
617.212, 499.105
618.523, 574.604
619.834, 626.319
621.145, 694.002
622.456, 724.352
623.766, 865.835
625.076, 991.818
626.386, 1131.437
627.696, 1370.909
629.006, 1573.846
630.315, 1866.323
631.624, 2229.800
632.933, 2655.445
634.242, 3292.281
635.551, 4109.062
636.859, 5085.671
638.167, 6437.974
639.475, 8045.909
640.783, 9992.043
642.090, 12071.454
643.398, 14330.917
644.705, 15520.309
646.012, 16111.610
647.318, 15440.987
648.625, 13520.684
649.931, 11370.392
651.237, 9489.751
652.543, 7565.102
653.849, 6207.729
655.155, 5028.069
656.460, 4117.833
657.765, 3422.981
659.070, 2799.304
660.375, 2374.627
661.679, 1968.270
662.984, 1709.574
664.288, 1498.303
665.592, 1245.595
666.895, 1088.881
668.199, 988.161
669.502, 862.434
670.805, 725.713
672.108, 687.974
673.411, 664.273
674.713, 570.522
676.016, 559.764
677.318, 542.001
678.620, 471.231
679.921, 485.787
681.223, 511.004
682.524, 486.215
683.825, 537.420
685.126, 545.619
686.427, 591.811
687.727, 659.854
689.028, 655.925
690.328, 649.989
691.628, 652.106
692.927, 593.032
694.227, 484.840
695.526, 456.929
696.825, 363.050
698.124, 307.696
699.423, 280.994
700.721, 183.767
702.020, 217.227
703.318, 203.687
704.616, 132.235
705.913, 124.251
707.211, 143.982
708.508, 131.302
709.805, 120.258
711.102, 162.988
712.399, 141.020
713.695, 130.973
714.992, 172.030
716.288, 164.081
717.584, 182.127
718.879, 190.166
720.175, 164.201
721.470, 120.230
722.765, 134.253
724.060, 63.271
725.355, 75.283
726.649, 86.290
727.944, 62.291
729.238, 67.287
730.532, 63.278
731.825, 46.263
733.119, 78.243
734.412, 33.217
735.705, 52.186
736.998, 31.150
738.291, 54.108
739.584, 28.061
740.876, 19.009
742.168, 20.950
743.460, 10.780
744.752, 6.340
746.043, 16.736
747.334, 0.651
748.626, 17.555
749.916, 30.453
751.207, 26.347
752.498, 4.235
753.788, 36.885
755.078, 25.036
756.368, 9.210
757.658, 18.601
758.947, 5.591
760.237, 6.796
761.526, 11.986
762.815, 15.764
764.104, 2.464
765.392, 3.700
766.680, 9.058
767.969, 0.815
769.257, 8.437
770.544, 14.703
771.832, 8.985
773.119, 23.718
774.406, 12.583
775.693, 4.100
776.980, 23.223
778.267, 21.434
779.553, 17.914
780.839, 44.280
782.125, 19.323
783.411, 18.078
784.697, 14.504
785.982, 13.081
787.267, 1.655
788.552, 1.778
789.837, 1.219
791.122, 1.333
792.406, 26.122
793.690, 20.596
794.974, 24.087
796.258, 13.402
797.542, 2.889
798.825, 14.371
800.108, 28.150
801.391, 27.309
802.674, 3.235
803.957, 3.786
805.239, 22.657
806.522, 13.097
807.804, 3.466
809.085, 10.966
810.367, 22.606
811.649, 13.193
812.930, 27.210
814.211, 6.611
815.492, 5.991
816.772, 27.401
818.053, 8.210
819.333, 11.173
820.613, 9.554
821.893, 3.933
823.173, 6.310
824.452, 0.743
825.732, 8.057
827.011, 1.572
828.290, 13.797
829.568, 26.163
830.847, 5.529
832.125, 14.892
833.403, 9.746
834.681, 1.611
835.959, 10.967
837.236, 41.321
838.514, 31.674
839.791, 16.025
841.068, 39.376
842.345, 18.726
843.621, 12.076
844.898, 27.425
846.174, 24.774
847.450, 34.123
848.726, 9.477
850.001, 22.836
851.277, 26.199
852.552, 41.572
853.827, 34.948
855.102, 43.330
856.376, 51.715
857.651, 43.103
858.925, 62.497
860.199, 69.896
861.473, 58.301
862.746, 98.714
864.020, 95.127
865.293, 106.543
866.566, 129.958
867.839, 165.375
869.112, 157.792
870.384, 207.209
871.656, 211.627
872.928, 243.045
874.200, 273.464
875.472, 306.884
876.744, 343.305
878.015, 410.726
879.286, 487.148
880.557, 533.571
881.828, 615.995
883.098, 663.419
884.369, 772.845
885.639, 817.274
886.909, 943.709
888.178, 948.124
889.448, 1022.564
890.717, 1044.985
891.987, 1035.435
893.256, 1003.848
894.524, 945.228
895.793, 857.619
897.061, 782.907
898.330, 706.049
899.598, 649.445
900.865, 620.316
902.133, 543.722
903.401, 535.186
904.668, 454.638
905.935, 414.750
907.202, 392.318
908.468, 388.641
909.735, 399.969
911.001, 391.411
912.267, 370.991
913.533, 382.508
914.799, 377.933
916.064, 361.382
917.330, 368.210
918.595, 385.975
919.860, 384.380
921.124, 405.454
922.389, 383.961
923.653, 464.094
924.918, 452.599
926.182, 483.126
927.445, 448.438
928.709, 543.786
929.972, 558.470
931.236, 563.023
932.499, 569.078
933.761, 626.496
935.024, 669.062
936.286, 614.163
937.549, 687.722
938.811, 697.289
940.073, 784.693
941.334, 731.909
942.596, 727.179
943.857, 753.627
945.118, 731.389
946.379, 782.518
947.640, 832.455
948.900, 872.111
950.161, 981.724
951.421, 1036.410
952.681, 1223.192
953.940, 1306.897
955.200, 1465.279
956.459, 1728.652
957.719, 1971.377
958.978, 2342.109
960.236, 2813.570
961.495, 3303.317
962.753, 4048.639
964.012, 5082.576
965.270, 6282.342
966.527, 8159.111
967.785, 10561.559
969.043, 13650.349
970.300, 17688.715
971.557, 21777.520
972.814, 25996.326
974.071, 27525.148
975.327, 27653.977
976.583, 24992.797
977.840, 20831.637
979.095, 17260.430
980.351, 13439.283
981.607, 10818.139
982.862, 8495.000
984.117, 6973.870
985.372, 5776.413
986.627, 4852.294
987.882, 4199.181
989.136, 3733.076
990.390, 3294.976
991.644, 3122.882
992.898, 2879.796
994.152, 2720.715
995.405, 2514.640
996.659, 2491.573
997.912, 2387.510
999.165, 2421.455
1000.417, 2408.406
1001.670, 2356.363
1002.922, 2314.327
1004.174, 2263.296
1005.426, 2138.273
1006.678, 2012.255
1007.930, 1895.244
1009.181, 1756.238
1010.432, 1528.239
1011.683, 1558.246
1012.934, 1457.260
1014.185, 1410.279
1015.435, 1435.304
1016.685, 1424.335
1017.935, 1476.462
1019.185, 1548.506
1020.435, 1563.555
1021.684, 1741.737
1022.934, 1903.798
1024.183, 2094.866
1025.432, 2219.048
1026.680, 2306.196
1027.929, 2444.290
1029.177, 2409.381
1030.425, 2379.479
1031.673, 2396.583
1032.921, 2446.723
1034.169, 2649.838
1035.416, 2973.615
1036.663, 3364.628
1037.911, 3826.761
1039.157, 4056.682
1040.404, 4189.278
1041.650, 3985.430
1042.897, 3467.607
1044.143, 3123.162
1045.389, 2619.375
1046.634, 2096.549
1047.880, 1801.061
1049.125, 1421.289
1050.371, 1268.485
1051.615, 1053.689
1052.860, 842.078
1054.105, 793.689
1055.349, 686.910
1056.593, 619.811
1057.837, 539.057
1059.081, 492.336
1060.325, 505.792
1061.568, 414.083
1062.812, 408.459
1064.055, 382.779
1065.298, 351.087
1066.540, 346.393
1067.783, 327.677
1069.025, 325.031
1070.267, 313.360
1071.509, 307.697
1072.751, 310.048
1073.993, 290.405
1075.234, 318.981
1076.475, 341.369
1077.716, 332.997
1078.957, 384.239
1080.198, 393.371
1081.438, 389.038
1082.679, 417.468
1083.919, 433.263
1085.159, 445.702
1086.398, 435.151
1087.638, 410.428
1088.877, 391.256
1090.116, 361.138
1091.355, 289.607
1092.594, 323.841
1093.833, 285.071
1095.071, 223.581
1096.309, 218.437
1097.547, 219.194
1098.785, 183.608
1100.023, 177.458
1101.260, 162.260
1102.498, 118.812
1103.735, 140.385
1104.972, 137.539
1106.208, 109.088
1107.445, 115.112
1108.681, 89.448
1109.918, 122.006
1111.154, 101.607
1112.389, 83.229
1113.625, 119.244
1114.860, 70.257
1116.096, 94.087
1117.331, 116.203
1118.566, 138.858
1119.800, 116.158
1121.035, 90.910
1122.269, 118.756
1123.503, 86.477
1124.737, 110.981
1125.971, 58.586
1127.205, 84.194
1128.438, 74.891
1129.671, 77.502
1130.904, 61.134
1132.137, 119.749
1133.370, 76.486
1134.602, 129.013
1135.834, 32.634
1137.066, 57.256
1138.298, 53.924
1139.530, 32.549
1140.762, 89.175
1141.993, 64.287
1143.224, 73.430
1144.455, 46.059
1145.686, 69.689
1146.917, 34.320
1148.147, 33.952
1149.377, 22.585
1150.607, 54.232
1151.837, 37.866
1153.067, 57.500
1154.296, 53.135
1155.526, 22.771
1156.755, 12.407
1157.984, 12.785
1159.213, 17.681
1160.441, 18.318
1161.670, 19.955
1162.898, 21.592
1164.126, 21.027
1165.354, 5.133
1166.581, 17.503
1167.809, 2.140
1169.036, 6.224
1170.263, 36.410
1171.490, 12.044
1172.717, 5.322
1173.943, 3.685
1175.170, 0.054
1176.396, 5.576
1177.622, 4.206
1178.848, 6.257
1180.073, 1.537
1181.299, 5.090
1182.524, 15.284
1183.749, 18.664
1184.974, 2.946
1186.199, 16.445
1187.423, 26.844
1188.648, 7.776
1189.872, 0.638
1191.096, 9.054
1192.320, 1.463
1193.543, 6.114
1194.767, 23.293
1195.990, 34.205
1197.213, 17.338
1198.436, 29.880
1199.659, 3.580
1200.881, 7.036
1202.104, 13.516
1203.326, 10.955
1204.548, 23.566
1205.770, 1.085
1206.991, 2.385
1208.213, 3.129
1209.434, 0.277
1210.655, 2.079
1211.876, 6.806
1213.096, 10.291
1214.317, 10.798
1215.537, 25.357
1216.757, 15.854
1217.977, 18.780
1219.197, 13.118
1220.417, 18.362
1221.636, 0.055
1222.855, 9.527
1224.074, 16.004
1225.293, 9.548
1226.512, 7.364
1227.731, 0.332
1228.949, 12.761
1230.167, 0.812
1231.385, 25.635
1232.603, 26.121
1233.820, 23.465
1235.038, 16.069
1236.255, 0.688
1237.472, 20.724
1238.689, 21.609
1239.906, 21.265
1241.122, 17.063
1242.338, 14.617
1243.555, 3.686
1244.771, 7.014
1245.986, 13.725
1247.202, 3.550
1248.417, 19.820
1249.633, 16.084
1250.848, 1.659
1252.063, 26.589
1253.277, 0.829
1254.492, 3.939
1255.706, 56.287
1256.920, 16.508
1258.134, 14.778
1259.348, 2.457
1260.562, 2.663
1261.775, 7.118
1262.988, 1.342
1264.201, 15.568
1265.414, 1.249
1266.627, 10.927
1267.839, 8.098
1269.052, 25.263
1270.264, 43.423
1271.476, 31.669
1272.688, 49.822
1273.899, 15.969
1275.111, 35.119
1276.322, 27.257
1277.533, 36.388
1278.744, 25.514
1279.955, 53.635
1281.165, 47.751
1282.376, 96.862
1283.586, 22.968
1284.796, 61.068
1286.006, 75.196
1287.215, 41.285
1288.425, 67.370
1289.634, 49.448
1290.843, 43.518
1292.052, 86.583
1293.261, 90.642
1294.469, 35.696
1295.678, 32.745
1296.886, 49.788
1298.094, 56.824
1299.302, 70.856
1300.509, 49.881
1301.717, 69.931
1302.924, 63.708
1304.131, 49.950
1305.338, 61.951
1306.545, 48.947
1307.752, 46.937
1308.958, 66.921
1310.164, 70.899
1311.370, 47.780
1312.576, 53.744
1313.782, 56.704
1314.987, 58.533
1316.193, 55.483
1317.398, 69.427
1318.603, 38.259
1319.807, 46.126
1321.012, 45.048
1322.216, 51.969
1323.421, 50.881
1324.625, 65.788
1325.829, 62.090
1327.032, 59.557
1328.236, 63.793
1329.439, 55.793
1330.642, 64.673
1331.845, 58.392
1333.048, 29.187
1334.251, 45.052
1335.453, 50.891
1336.656, 34.354
1337.858, 69.159
1339.060, 33.005
1340.261, 3.515
1341.463, 53.311
1342.664, 39.140
1343.866, 44.964
1345.067, 32.605
1346.267, 29.024
1347.468, 54.835
1348.669, 39.977
1349.869, 58.780
1351.069, 30.559
1352.269, 33.170
1353.469, 17.945
1354.668, 65.643
1355.868, 21.402
1357.067, 58.187
1358.266, 31.965
1359.465, 20.928
1360.664, 44.698
1361.862, 27.466
1363.061, 30.231
1364.259, 47.989
1365.457, 9.749
1366.655, 84.322
1367.852, 38.061
1369.050, 40.570
1370.247, 60.469
1371.444, 31.481
1372.641, 40.960
1373.838, 31.685
1375.035, 24.062
1376.231, 17.064
1377.427, 46.799
1378.623, 50.714
1379.819, 49.028
1381.015, 18.265
1382.211, 2.897
1383.406, 58.328
1384.601, 29.862
1385.796, 67.601
1386.991, 45.828
1388.185, 43.641
1389.380, 48.854
1390.574, 67.362
1391.768, 50.237
1392.962, 37.419
1394.156, 29.470
1395.350, 19.590
1396.543, 19.391
1397.736, 36.829
1398.929, 32.553
1400.122, 37.167
1401.315, 6.847
1402.507, 4.495
1403.700, 19.185
1404.892, 1.197
1406.084, 43.462
1407.276, 5.110
1408.467, 22.747
1409.659, 22.374
1410.850, 26.972
1412.041, 45.576
1413.232, 63.169
1414.423, 2.751
1415.614, 16.322
1416.804, 26.881
1417.994, 14.429
1419.184, 15.967
1420.374, 29.494
1421.564, 37.011
1422.753, 58.512
1423.943, 53.144
1425.132, 34.493
1426.321, 41.966
1427.510, 21.442
1428.698, 6.917
1429.887, 42.356
1431.075, 30.820
1432.263, 51.266
1433.451, 33.939
1434.639, 36.425
1435.827, 53.862
1437.014, 53.341
1438.201, 22.793
1439.388, 41.118
1440.575, 29.482
1441.762, 17.544
1442.949, 72.237
1444.135, 4.575
1445.321, 52.606
1446.507, 69.011
1447.693, 20.431
1448.879, 73.861
1450.064, 64.234
1451.250, 75.513
1452.435, 46.952
1453.620, 78.725
1454.805, 90.222
1455.989, 102.752
1457.174, 50.291
1458.358, 103.849
1459.542, 71.415
1460.726, 49.002
1461.910, 93.597
1463.093, 65.064
1464.277, 108.545
1465.460, 92.487
1466.643, 32.861
1467.826, 69.391
1469.009, 58.915
1470.191, 47.193
1471.373, 26.680
1472.556, 67.182
1473.738, 24.687
1474.919, 78.191
1476.101, 46.695
1477.283, 43.098
1478.464, 105.600
1479.645, 50.125
1480.826, 54.652
1482.007, 81.183
1483.187, 14.721
1484.368, 61.161
1485.548, 67.725
1486.728, 59.296
1487.908, 96.879
1489.088, 52.484
1490.268, 4.106
1491.447, 57.731
1492.626, 37.358
1493.805, 43.986
1494.984, 50.679
1496.163, 31.033
1497.341, 29.148
1498.520, 3.917
1499.698, 6.708
1500.876, 3.683
1502.054, 32.378
1503.232, 10.260
1504.409, 44.182
1505.586, 45.148
1506.763, 20.159
1507.940, 4.149
1509.117, 21.265
1510.294, 65.445
1511.470, 30.554
1512.647, 37.473
1513.823, 46.594
1514.999, 36.743
1516.174, 35.480
1517.350, 1.455
