##NAMES=Calcite
##RRUFFID=R050130
##IDEAL CHEMISTRY=CaCO_3_
##LOCALITY=Mexico
##OWNER=RRUFF
##SOURCE=Dave Bunk Minerals
##DESCRIPTION=Colorless cleavage rhomb
##STATUS=The identification of this mineral has been confirmed by X-ray diffraction and chemical analysis
##URL=rruff.info/R050130
##MEASURED CHEMISTRY=Ca_1.00_CO_3_; trace amounts of Si (?)
##PIN_ID=L00264
##ORIENTATION=Laser parallel to -c* (0 0 -1). Fiducial mark perpendicular to laser is parallel to a [1 0 0]
49.365, 0.000
50.765, 25.290
52.166, 26.161
53.566, 29.554
54.966, 59.910
56.365, 46.253
57.765, 39.198
59.164, 45.635
60.563, 62.421
61.962, 33.342
63.360, 27.780
64.758, 42.026
66.157, 47.828
67.554, 44.034
68.952, 47.079
70.349, 56.121
71.747, 57.478
73.144, 71.192
74.540, 45.444
75.937, 54.131
77.333, 36.840
78.729, 55.564
80.125, 22.297
81.521, 32.046
82.916, 10.826
84.311, 6.650
85.706, 6.525
87.101, 4.567
88.496, 1.633
89.890, 20.670
91.284, 3.689
92.678, 4.374
94.071, 12.452
95.465, 21.529
96.858, 14.597
98.251, 37.658
99.644, 44.697
101.036, 68.710
102.428, 71.691
103.820, 86.643
105.212, 102.566
106.604, 87.464
107.995, 109.337
109.387, 81.187
110.777, 106.015
112.168, 144.903
113.559, 148.138
114.949, 131.246
116.339, 156.382
117.729, 139.702
119.119, 119.396
120.508, 120.973
121.897, 114.210
123.286, 115.555
124.675, 112.016
126.063, 135.252
127.452, 139.555
128.840, 145.855
130.228, 161.425
131.615, 145.589
133.003, 159.739
134.390, 145.777
135.777, 116.460
137.164, 140.626
138.550, 138.934
139.937, 158.984
141.323, 121.869
142.709, 150.854
144.094, 144.753
145.480, 175.800
146.865, 187.608
148.250, 235.306
149.635, 312.886
151.019, 397.458
152.403, 505.931
153.788, 606.361
155.171, 699.775
156.555, 661.181
157.939, 593.580
159.322, 505.979
160.705, 378.376
162.088, 298.772
163.470, 238.166
164.853, 159.559
166.235, 173.949
167.617, 127.336
168.998, 105.720
170.380, 100.101
171.761, 72.480
173.142, 49.854
174.523, 68.225
175.904, 41.591
177.284, 29.954
178.664, 49.313
180.044, 29.667
181.424, 36.045
182.803, 36.390
184.183, 41.753
185.562, 12.337
186.940, 11.705
188.319, 8.148
189.698, 19.503
191.076, 4.944
192.454, 27.498
193.831, 17.006
195.209, 10.496
196.586, 23.008
197.963, 16.503
199.340, 4.990
200.717, 30.412
202.093, 7.904
203.470, 8.358
204.846, 17.846
206.221, 5.287
207.597, 19.586
208.972, 4.035
210.347, 0.379
211.722, 15.762
213.097, 10.080
214.472, 8.387
215.846, 17.858
217.220, 1.725
218.594, 11.954
219.967, 16.337
221.341, 3.522
222.714, 20.657
224.087, 7.812
225.460, 0.894
226.832, 17.939
228.204, 16.845
229.577, 19.747
230.948, 20.537
232.320, 37.846
233.692, 21.522
235.063, 23.101
236.434, 22.526
237.805, 30.940
239.175, 12.753
240.545, 19.535
241.916, 31.938
243.286, 31.223
244.655, 24.678
246.025, 55.773
247.394, 39.994
248.763, 58.013
250.132, 39.976
251.501, 68.968
252.869, 49.422
254.237, 68.992
255.605, 59.427
256.973, 68.921
258.340, 86.876
259.708, 105.867
261.075, 88.024
262.442, 139.038
263.808, 142.252
265.175, 176.525
266.541, 184.941
267.907, 213.282
269.273, 283.678
270.639, 307.015
272.004, 378.357
273.369, 463.687
274.734, 575.046
276.099, 742.389
277.463, 905.711
278.828, 1133.999
280.192, 1336.257
281.556, 1442.563
282.919, 1543.809
284.283, 1477.099
285.646, 1248.360
287.009, 1007.583
288.372, 779.896
289.734, 618.127
291.097, 491.416
292.459, 353.641
293.821, 279.870
295.183, 252.055
296.544, 193.233
297.905, 143.432
299.266, 124.638
300.627, 113.841
301.988, 93.034
303.348, 70.202
304.709, 84.406
306.069, 57.556
307.428, 67.685
308.788, 60.801
310.147, 63.934
311.507, 34.080
312.865, 46.231
314.224, 48.337
315.583, 34.430
316.941, 47.537
318.299, 18.962
319.657, 10.048
321.015, 31.154
322.372, 43.234
323.729, 27.328
325.086, 25.401
326.443, 41.471
327.800, 30.537
329.156, 25.611
330.512, 23.670
331.868, 19.726
333.224, 3.779
334.579, 13.887
335.935, 16.932
337.290, 23.942
338.645, 7.980
339.999, 16.951
341.354, 7.870
342.708, 19.868
344.062, 5.781
345.416, 18.718
346.769, 5.678
348.123, 23.636
349.476, 12.451
350.829, 15.260
352.182, 2.036
353.534, 12.890
354.887, 9.678
356.239, 2.559
357.591, 9.392
358.942, 0.186
360.294, 20.050
361.645, 35.871
362.996, 14.601
364.347, 3.479
365.698, 8.229
367.048, 13.980
368.398, 18.789
369.748, 16.509
371.098, 4.357
372.448, 23.061
373.797, 9.724
375.146, 23.509
376.495, 9.258
377.844, 14.990
379.192, 20.769
380.540, 6.650
381.889, 24.279
383.236, 14.597
384.584, 20.842
385.932, 12.578
387.279, 14.228
388.626, 4.806
389.973, 22.509
391.319, 2.201
392.666, 23.899
394.012, 9.405
395.358, 18.351
396.704, 14.039
398.049, 16.724
399.394, 11.405
400.740, 6.883
402.084, 8.256
403.429, 3.392
404.774, 12.089
406.118, 1.221
407.462, 37.438
408.806, 18.208
410.150, 17.073
411.493, 6.682
412.836, 0.388
414.179, 6.138
415.522, 24.885
416.865, 12.666
418.207, 16.419
419.549, 2.172
420.891, 26.923
422.233, 9.671
423.575, 42.418
424.916, 20.161
426.257, 11.901
427.598, 0.637
428.939, 17.369
430.279, 3.262
431.619, 16.235
432.959, 13.954
434.299, 15.724
435.639, 7.436
436.978, 10.177
438.318, 13.881
439.657, 20.590
440.996, 37.286
442.334, 12.979
443.673, 26.718
445.011, 13.403
446.349, 18.084
447.687, 27.763
449.024, 2.583
450.361, 20.254
451.699, 4.921
453.036, 19.132
454.372, 16.799
455.709, 35.519
457.045, 51.173
458.381, 18.875
459.717, 13.521
461.053, 12.164
462.388, 12.813
463.724, 17.647
465.059, 7.319
466.394, 19.011
467.728, 22.682
469.063, 31.305
470.397, 18.945
471.731, 14.563
473.065, 12.156
474.398, 21.786
475.732, 28.401
477.065, 20.323
478.398, 5.004
479.731, 34.812
481.063, 18.511
482.396, 41.111
483.728, 19.759
485.060, 41.345
486.391, 25.906
487.723, 33.492
489.054, 21.045
490.385, 26.591
491.716, 37.110
493.047, 50.610
494.377, 9.041
495.708, 49.511
497.038, 37.060
498.368, 33.568
499.697, 31.059
501.027, 33.535
502.356, 41.986
503.685, 37.489
505.014, 40.912
506.342, 17.997
507.671, 47.467
508.999, 39.959
510.327, 44.405
511.655, 38.861
512.982, 38.625
514.310, 13.116
515.637, 30.553
516.964, 22.950
518.291, 20.374
519.617, 19.793
520.944, 29.258
522.270, 39.841
523.596, 21.281
524.921, 40.692
526.247, 41.102
527.572, 51.534
528.897, 24.985
530.222, 13.425
531.547, 31.812
532.871, 44.284
534.196, 22.692
535.520, 48.156
536.844, 31.558
538.167, 41.984
539.491, 29.432
540.814, 28.476
542.137, 5.057
543.460, 13.497
544.783, 39.945
546.105, 26.358
547.427, 41.776
548.749, 35.155
550.071, 24.607
551.393, 21.973
552.714, 34.428
554.035, 27.307
555.356, 18.737
556.677, 20.147
557.998, 22.567
559.318, 32.964
560.638, 19.997
561.958, 54.943
563.278, 36.304
564.597, 41.699
565.917, 31.011
567.236, 54.477
568.555, 21.898
569.874, 19.290
571.192, 42.660
572.511, 48.002
573.829, 51.367
575.147, 9.809
576.464, 42.200
577.782, 24.604
579.099, 40.948
580.416, 34.419
581.733, 16.794
583.050, 37.277
584.366, 29.693
585.683, 17.075
586.999, 32.427
588.315, 2.153
589.630, 3.815
590.946, 30.573
592.261, 3.950
593.576, 20.345
594.891, 8.692
596.206, 18.074
597.520, 14.478
598.834, 20.891
600.148, 28.309
601.462, 4.671
602.776, 34.085
604.089, 18.446
605.402, 17.953
606.715, 1.597
608.028, 18.738
609.341, 24.119
610.653, 8.566
611.965, 14.801
613.277, 1.199
614.589, 22.625
615.901, 4.016
617.212, 23.379
618.523, 31.753
619.834, 14.122
621.145, 2.545
622.456, 6.816
623.766, 1.120
625.076, 5.470
626.386, 22.882
627.696, 11.252
629.006, 41.085
630.315, 16.410
631.624, 13.505
632.933, 22.565
634.242, 4.049
635.551, 2.315
636.859, 3.641
638.167, 2.256
639.475, 9.065
640.783, 4.426
642.090, 8.117
643.398, 11.490
644.705, 33.851
646.012, 26.185
647.318, 13.511
648.625, 18.844
649.931, 28.175
651.237, 31.506
652.543, 29.809
653.849, 1.137
655.155, 27.516
656.460, 4.841
657.765, 25.537
659.070, 13.858
660.375, 13.215
661.679, 35.533
662.984, 8.151
664.288, 5.139
665.592, 26.601
666.895, 16.909
668.199, 23.539
669.502, 4.023
670.805, 6.277
672.108, 15.542
673.411, 19.839
674.713, 30.192
676.016, 8.476
677.318, 42.756
678.620, 3.068
679.921, 30.357
681.223, 12.639
682.524, 29.924
683.825, 29.209
685.126, 26.491
686.427, 28.772
687.727, 34.015
689.028, 15.293
690.328, 28.569
691.628, 23.844
692.927, 46.117
694.227, 70.411
695.526, 37.711
696.825, 40.979
698.124, 46.247
699.423, 71.179
700.721, 69.433
702.020, 50.889
703.318, 102.155
704.616, 137.419
705.913, 201.694
707.211, 305.955
708.508, 573.218
709.805, 1105.499
711.102, 1989.773
712.399, 2982.122
713.695, 2893.376
714.992, 2068.630
716.288, 1274.882
717.584, 796.134
718.879, 447.428
720.175, 265.679
721.470, 184.927
722.765, 145.202
724.060, 123.449
725.355, 62.693
726.649, 78.941
727.944, 75.229
729.238, 39.490
730.532, 47.749
731.825, 24.364
733.119, 73.603
734.412, 19.841
735.705, 13.038
736.998, 25.273
738.291, 9.504
739.584, 30.734
740.876, 31.289
742.168, 13.516
743.460, 13.741
744.752, 41.807
746.043, 27.780
747.334, 18.001
748.626, 15.417
749.916, 20.634
751.207, 11.815
752.498, 10.105
753.788, 14.307
755.078, 55.539
756.368, 20.747
757.658, 25.902
758.947, 41.106
760.237, 1.309
761.526, 7.509
762.815, 11.561
764.104, 24.757
765.392, 22.951
766.680, 24.608
767.969, 8.726
769.257, 9.851
770.544, 19.038
771.832, 20.206
773.119, 9.390
774.406, 8.571
775.693, 24.741
776.980, 14.721
778.267, 40.884
779.553, 25.995
780.839, 6.123
782.125, 23.294
783.411, 4.557
784.697, 21.606
785.982, 9.232
787.267, 8.094
788.552, 11.052
789.837, 10.867
791.122, 9.957
792.406, 7.802
793.690, 24.723
794.974, 11.826
796.258, 3.091
797.542, 8.004
798.825, 10.109
800.108, 33.237
801.391, 15.827
802.674, 20.935
803.957, 23.059
805.239, 20.643
806.522, 8.763
807.804, 28.882
809.085, 3.931
810.367, 23.046
811.649, 2.893
812.930, 25.222
814.211, 7.314
815.492, 25.401
816.772, 45.505
818.053, 36.480
819.333, 0.530
820.613, 20.628
821.893, 2.216
823.173, 0.876
824.452, 32.601
825.732, 13.641
827.011, 22.719
828.290, 2.805
829.568, 25.888
830.847, 46.932
832.125, 10.013
833.403, 49.031
834.681, 18.158
835.959, 28.214
837.236, 21.289
838.514, 21.362
839.791, 37.434
841.068, 14.505
842.345, 32.575
843.621, 40.635
844.898, 16.702
846.174, 23.768
847.450, 8.832
848.726, 6.895
850.001, 27.957
851.277, 16.017
852.552, 3.076
853.827, 10.135
855.102, 0.807
856.376, 41.247
857.651, 23.301
858.925, 10.353
860.199, 20.404
861.473, 12.453
862.746, 7.502
864.020, 9.549
865.293, 0.595
866.566, 32.643
867.839, 32.690
869.112, 17.736
870.384, 17.780
871.656, 2.824
872.928, 50.865
874.200, 14.094
875.472, 5.937
876.744, 24.967
878.015, 13.996
879.286, 39.023
880.557, 2.050
881.828, 8.074
883.098, 8.098
884.369, 4.878
885.639, 32.141
886.909, 32.159
888.178, 13.824
889.448, 56.163
890.717, 14.169
891.987, 16.139
893.256, 3.856
894.524, 28.144
895.793, 29.124
897.061, 9.105
898.330, 22.104
899.598, 26.103
900.865, 2.899
902.133, 14.084
903.401, 36.078
904.668, 0.046
905.935, 42.005
907.202, 4.980
908.468, 31.970
909.735, 24.959
911.001, 29.947
912.267, 32.934
913.533, 9.792
914.799, 26.734
916.064, 17.694
917.330, 19.679
918.595, 6.663
919.860, 14.352
921.124, 27.587
922.389, 29.529
923.653, 0.505
924.918, 26.479
926.182, 33.418
927.445, 30.352
928.709, 25.325
929.972, 2.285
931.236, 41.259
932.499, 23.231
933.761, 36.156
935.024, 20.128
936.286, 10.611
937.549, 17.586
938.811, 8.780
940.073, 12.046
941.334, 50.994
942.596, 2.943
943.857, 20.889
945.118, 29.827
946.379, 24.803
947.640, 29.759
948.900, 4.366
950.161, 34.307
951.421, 18.257
952.681, 8.769
953.940, 13.200
955.200, 5.172
956.459, 8.857
957.719, 13.109
958.978, 26.043
960.236, 34.009
961.495, 8.923
962.753, 20.889
964.012, 2.481
965.270, 27.447
966.527, 22.375
967.785, 7.346
969.043, 9.683
970.300, 16.286
971.557, 17.103
972.814, 1.929
974.071, 14.716
975.327, 11.552
976.583, 15.521
977.840, 14.483
979.095, 2.453
980.351, 27.365
981.607, 8.336
982.862, 7.308
984.117, 30.258
985.372, 1.771
986.627, 28.200
987.882, 19.172
989.136, 4.144
990.390, 39.119
991.644, 25.093
992.898, 19.068
994.152, 25.043
995.405, 43.019
996.659, 39.995
997.912, 23.970
999.165, 59.924
1000.417, 71.870
1001.670, 55.845
1002.922, 39.821
1004.174, 35.752
1005.426, 67.715
1006.678, 47.504
1007.930, 33.482
1009.181, 69.460
1010.432, 88.426
1011.683, 101.409
1012.934, 86.390
1014.185, 78.350
1015.435, 103.320
1016.685, 88.216
1017.935, 99.201
1019.185, 82.186
1020.435, 67.171
1021.684, 96.155
1022.934, 105.099
1024.183, 65.084
1025.432, 97.071
1026.680, 78.028
1027.929, 96.014
1029.177, 130.000
1030.425, 119.985
1031.673, 104.929
1032.921, 106.898
1034.169, 78.153
1035.416, 92.737
1036.663, 84.726
1037.911, 71.715
1039.157, 98.744
1040.404, 99.735
1041.650, 99.725
1042.897, 84.716
1044.143, 106.391
1045.389, 127.383
1046.634, 98.445
1047.880, 120.429
1049.125, 135.422
1050.371, 105.415
1051.615, 151.155
1052.860, 163.152
1054.105, 120.180
1055.349, 150.100
1056.593, 132.098
1057.837, 166.073
1059.081, 152.071
1060.325, 156.070
1061.568, 152.070
1062.812, 203.074
1064.055, 216.075
1065.298, 308.077
1066.540, 476.079
1067.783, 613.081
1069.025, 520.073
1070.267, 367.141
1071.509, 372.145
1072.751, 358.158
1073.993, 436.135
1075.234, 498.143
1076.475, 574.157
1077.716, 776.166
1078.957, 909.174
1080.198, 1192.406
1081.438, 1819.422
1082.679, 3030.435
1083.919, 6518.450
1085.159, 17299.465
1086.398, 44099.531
1087.638, 53918.551
1088.877, 33367.574
1090.116, 15596.597
1091.355, 7977.625
1092.594, 4286.639
1093.833, 2438.667
1095.071, 1370.695
1096.309, 895.734
1097.547, 699.763
1098.785, 543.790
1100.023, 472.890
1101.260, 360.922
1102.498, 311.789
1103.735, 283.823
1104.972, 262.857
1106.208, 227.451
1107.445, 251.524
1108.681, 203.559
1109.918, 185.626
1111.154, 173.662
1112.389, 168.698
1113.625, 172.810
1114.860, 146.848
1116.096, 139.081
1117.331, 154.120
1118.566, 92.676
1119.800, 114.763
1121.035, 95.804
1122.269, 102.814
1123.503, 134.871
1124.737, 104.914
1125.971, 90.957
1127.205, 127.038
1128.438, 65.081
1129.671, 101.539
1130.904, 81.583
1132.137, 63.627
1133.370, 65.671
1134.602, 63.666
1135.834, 74.961
1137.066, 72.051
1138.298, 66.670
1139.530, 66.714
1140.762, 49.759
1141.993, 38.018
1143.224, 60.119
1144.455, 62.175
1145.686, 63.219
1146.917, 85.263
1148.147, 19.307
1149.377, 58.350
1150.607, 46.394
1151.837, 20.438
1153.067, 73.004
1154.296, 30.048
1155.526, 36.092
1156.755, 50.137
1157.984, 10.181
1159.213, 35.536
1160.441, 31.657
1161.670, 41.700
1162.898, 61.744
1164.126, 18.192
1165.354, 43.848
1166.581, 11.922
1167.809, 27.957
1169.036, 40.990
1170.263, 26.023
1171.490, 8.057
1172.717, 46.137
1173.943, 12.174
1175.170, 31.210
1176.396, 54.246
1177.622, 28.282
1178.848, 12.317
1180.073, 27.387
1181.299, 6.016
1182.524, 11.016
1183.749, 9.049
1184.974, 17.082
1186.199, 12.287
1187.423, 9.323
1188.648, 30.358
1189.872, 26.405
1191.096, 5.443
1192.320, 27.498
1193.543, 1.464
1194.767, 18.572
1195.990, 37.608
1197.213, 16.644
1198.436, 36.679
1199.659, 14.360
1200.881, 1.395
1202.104, 51.429
1203.326, 31.463
1204.548, 52.497
1205.770, 13.531
1206.991, 9.773
1208.213, 42.810
1209.434, 8.891
1210.655, 31.927
1211.876, 65.962
1213.096, 18.063
1214.317, 11.096
1215.537, 38.129
1216.757, 15.161
1217.977, 25.197
1219.197, 9.781
1220.417, 9.815
1221.636, 34.848
1222.855, 9.880
1224.074, 25.911
1225.293, 24.941
1226.512, 3.198
1227.731, 11.828
1228.949, 15.852
1230.167, 33.878
1231.385, 35.924
1232.603, 15.689
1233.820, 27.322
1235.038, 14.338
1236.255, 26.510
1237.472, 15.518
1238.689, 17.526
1239.906, 15.607
1241.122, 19.614
1242.338, 11.670
1243.555, 26.675
1244.771, 19.680
1245.986, 0.805
1247.202, 14.808
1248.417, 3.189
1249.633, 31.106
1250.848, 18.103
1252.063, 10.101
1253.277, 6.115
1254.492, 21.112
1255.706, 8.108
1256.920, 39.101
1258.134, 25.094
1259.348, 1.085
1260.562, 24.073
1261.775, 16.941
1262.988, 30.183
1264.201, 27.162
1265.414, 5.142
1266.627, 30.121
1267.839, 9.097
1269.052, 13.072
1270.264, 41.046
1271.476, 19.012
1272.688, 7.977
1273.899, 38.941
1275.111, 4.096
1276.322, 62.864
1277.533, 27.823
1278.744, 32.782
1279.955, 27.740
1281.165, 1.303
1282.376, 6.648
1283.586, 6.401
1284.796, 28.544
1286.006, 57.489
1287.215, 0.567
1288.425, 5.375
1289.634, 15.316
1290.843, 40.251
1292.052, 63.186
1293.261, 50.119
1294.469, 27.050
1295.678, 40.979
1296.886, 40.908
1298.094, 5.166
1299.302, 38.758
1300.509, 27.676
1301.717, 21.592
1302.924, 67.508
1304.131, 17.585
1305.338, 4.316
1306.545, 21.215
1307.752, 31.109
1308.958, 14.000
1310.164, 16.882
1311.370, 8.770
1312.576, 26.656
1313.782, 39.540
1314.987, 24.422
1316.193, 51.300
1317.398, 7.176
1318.603, 26.050
1319.807, 45.923
1321.012, 22.795
1322.216, 53.663
1323.421, 23.530
1324.625, 10.395
1325.829, 5.734
1327.032, 30.843
1328.236, 39.701
1329.439, 42.558
1330.642, 0.414
1331.845, 27.303
1333.048, 30.155
1334.251, 16.005
1335.453, 68.559
1336.656, 15.396
1337.858, 35.242
1339.060, 48.016
1340.261, 23.860
1341.463, 35.701
1342.664, 29.542
1343.866, 6.618
1345.067, 51.217
1346.267, 58.020
1347.468, 28.854
1348.669, 46.820
1349.869, 55.653
1351.069, 0.486
1352.269, 27.364
1353.469, 10.195
1354.668, 21.021
1355.868, 20.852
1357.067, 7.682
1358.266, 39.492
1359.465, 29.302
1360.664, 33.111
1361.862, 67.920
1363.061, 4.272
1364.259, 27.527
1365.457, 24.320
1366.655, 43.072
1367.852, 60.811
1369.050, 42.551
1370.247, 8.715
1371.444, 21.762
1372.641, 29.471
1373.838, 20.176
1375.035, 14.877
1376.231, 1.425
1377.427, 58.223
1378.623, 17.927
1379.819, 1.649
1381.015, 45.600
1382.211, 22.550
1383.406, 6.486
1384.601, 65.433
1385.796, 9.306
1386.991, 27.932
1388.185, 52.844
1389.380, 3.736
1390.574, 68.633
1391.768, 53.476
1392.962, 0.912
1394.156, 75.001
1395.350, 18.859
1396.543, 15.715
1397.736, 59.623
1398.929, 36.485
1400.122, 50.906
1401.315, 53.804
1402.507, 37.401
1403.700, 90.547
1404.892, 73.430
1406.084, 1.978
1407.276, 68.840
1408.467, 59.715
1409.659, 40.588
1410.850, 57.793
1412.041, 45.656
1413.232, 84.518
1414.423, 104.545
1415.614, 42.384
1416.804, 98.191
1417.994, 75.984
1419.184, 76.830
1420.374, 135.608
1421.564, 54.451
1422.753, 95.293
1423.943, 151.083
1425.132, 71.099
1426.321, 147.932
1427.510, 139.502
1428.698, 108.311
1429.887, 143.101
1431.075, 191.916
1432.263, 164.731
1433.451, 255.508
1434.639, 342.307
1435.827, 591.104
1437.014, 912.548
1438.201, 964.244
1439.388, 756.013
1440.575, 524.663
1441.762, 345.427
1442.949, 245.202
1444.135, 180.947
1445.321, 145.691
1446.507, 112.870
1447.693, 65.593
1448.879, 63.265
1450.064, 101.273
1451.250, 40.659
1452.435, 91.375
1453.620, 89.931
1454.805, 43.527
1455.989, 103.959
1457.174, 68.640
1458.358, 52.670
1459.542, 72.305
1460.726, 27.972
1461.910, 37.640
1463.093, 101.311
1464.277, 46.628
1465.460, 41.289
1466.643, 70.948
1467.826, 10.605
1469.009, 89.295
1470.191, 42.977
1471.373, 37.653
1472.556, 38.321
1473.738, 4.990
1474.919, 16.666
1476.101, 76.337
1477.283, 9.001
1478.464, 49.682
1479.645, 54.363
1480.826, 33.045
1482.007, 49.724
1483.187, 66.429
1484.368, 30.156
1485.548, 67.908
1486.728, 32.695
1487.908, 14.494
1489.088, 73.311
1490.268, 1.155
1491.447, 37.026
1492.626, 62.912
1493.805, 13.168
1494.984, 52.738
1496.163, 71.699
1497.341, 24.686
1498.520, 77.483
1499.698, 43.970
1500.876, 38.788
1502.054, 48.618
1503.232, 12.460
1504.409, 64.310
1505.586, 70.160
1506.763, 35.740
1507.940, 27.579
1509.117, 29.209
1510.294, 8.551
1511.470, 27.055
1512.647, 35.184
1513.823, 24.757
1514.999, 49.737
1516.174, 15.527
1517.350, 5.493
1518.526, 47.267
1519.701, 12.231
1520.876, 0.000
##END=



