##NAMES=Calcite
##RRUFFID=R050307
##IDEAL CHEMISTRY=CaCO_3_
##LOCALITY=Zaire
##OWNER=RRUFF
##SOURCE=Eugene Schlepp
##DESCRIPTION=Group of pink prismatic crystals
##STATUS=The identification of this mineral has been confirmed by X-ray diffraction and chemical analysis
##URL=rruff.info/R050307
##MEASURED CHEMISTRY=Ca_1.00_CO_3_
##PIN_ID=L01775
##ORIENTATION=Laser parallel to -a* (-1 0 0). Fiducial mark perpendicular to laser is parallel to -c [0 0 -1]
116.9030, 0.0000000E+00
118.1340, 0.8913570
119.3650, 26.09375
120.5960, 12.37964
121.8270, 53.93848
123.0580, 1.478516
124.2880, 92.31006
125.5190, 6.1523002E-02
126.7490, 138.0427
127.9790, 75.35132
129.2090, 185.6501
130.4390, 186.7798
131.6680, 174.6191
132.8980, 284.0728
134.1270, 349.2822
135.3560, 349.9316
136.5850, 500.0610
137.8140, 675.5325
139.0430, 802.3149
140.2710, 1184.381
141.5000, 1459.709
142.7280, 1903.277
143.9560, 2258.067
145.1840, 2722.061
146.4120, 3259.247
147.6390, 3848.613
148.8670, 4523.145
150.0940, 4796.840
151.3210, 5181.568
152.5490, 4935.448
153.7750, 4337.556
155.0020, 3543.899
156.2290, 2790.145
157.4550, 2278.506
158.6810, 1696.973
159.9080, 1219.540
161.1340, 962.1982
162.3590, 658.9456
163.5850, 589.7769
164.8110, 437.6882
166.0360, 342.6765
167.2610, 247.7375
168.4860, 115.8677
169.7110, 199.0647
170.9360, 158.3254
172.1610, 115.6460
173.3850, 32.02368
174.6100, 77.45508
175.8340, 86.96265
177.0580, 60.51685
178.2820, 41.12476
179.5050, 8.783447
180.7290, 27.48145
181.9520, 35.78296
183.1760, 46.98804
184.3990, 126.7935
185.6220, 8.661865
186.8450, 6.644287
188.0670, 11.72070
189.2900, 2.111328
190.5120, 0.1157230
191.7340, 10.76392
192.9560, 14.61450
194.1780, 38.57129
195.4000, 16.77002
196.6220, 22.96631
197.8430, 94.17188
199.0640, 113.3892
200.2860, 80.61084
201.5070, 48.83838
202.7270, 85.07324
203.9480, 92.31567
205.1690, 60.60083
206.3890, 35.93018
207.6090, 146.2725
208.8290, 9.627441
210.0490, 102.9951
211.2690, 33.39185
212.4890, 141.8276
213.7080, 90.27319
214.9280, 32.72485
216.1470, 72.20142
217.3660, 72.70190
218.5850, 27.20850
219.8030, 71.72192
221.0220, 68.27026
222.2400, 77.84839
223.4590, 111.4221
224.6770, 164.0010
225.8950, 101.5847
227.1120, 155.1799
228.3300, 209.7822
229.5480, 173.3896
230.7650, 112.0015
231.9820, 242.6179
233.1990, 151.3162
234.4160, 229.9294
235.6330, 268.5459
236.8490, 261.1658
238.0660, 356.7883
239.2820, 356.3687
240.4980, 319.8701
241.7140, 412.4990
242.9300, 398.1309
244.1460, 447.7654
245.3610, 570.4028
246.5770, 524.0454
247.7920, 606.6897
249.0070, 718.3413
250.2220, 767.0012
251.4370, 883.6633
252.6510, 1029.326
253.8660, 1069.266
255.0800, 1285.232
256.2940, 1442.200
257.5080, 1660.547
258.7220, 1762.054
259.9360, 1933.432
261.1490, 2294.672
262.3630, 2692.208
263.5760, 3134.905
264.7890, 3681.947
266.0020, 4305.552
267.2150, 5092.271
268.4270, 6356.892
269.6400, 7436.957
270.8520, 8573.149
272.0640, 10015.18
273.2760, 11287.26
274.4880, 12502.40
275.7000, 13644.57
276.9120, 14243.79
278.1230, 14289.07
279.3340, 13704.36
280.5450, 12359.68
281.7560, 10783.02
282.9670, 9018.388
284.1780, 7280.781
285.3880, 5958.193
286.5980, 4744.627
287.8090, 3746.080
289.0190, 3006.550
290.2290, 2604.038
291.4380, 2128.541
292.6480, 1710.939
293.8570, 1413.471
295.0670, 1195.221
296.2760, 1112.972
297.4850, 1011.528
298.6930, 941.0952
299.9020, 821.4436
301.1110, 729.1128
302.3190, 611.5718
303.5270, 556.0654
304.7350, 511.8169
305.9430, 501.1936
307.1510, 441.7446
308.3580, 409.0273
309.5660, 353.2595
310.7730, 312.9036
311.9800, 273.5806
313.1870, 199.2358
314.3940, 246.6460
315.6010, 202.3149
316.8070, 228.9878
318.0130, 205.6641
319.2200, 155.3457
320.4260, 130.0854
321.6310, 128.7725
322.8370, 144.8115
324.0430, 150.5522
325.2480, 134.8389
326.4540, 102.9287
327.6590, 89.93359
328.8640, 110.6313
330.0680, 81.33008
331.2730, 83.02930
332.4780, 129.7295
333.6820, 124.4292
334.8860, 132.7495
336.0900, 78.77930
337.2940, 104.3628
338.4980, 111.0679
339.7010, 39.76270
340.9050, 65.56982
342.1080, 108.3198
343.3110, 96.01270
344.5140, 61.74805
345.7170, 25.47559
346.9200, 57.25879
348.1220, 17.04102
349.3240, 8.641602
350.5270, 92.32324
351.7290, 24.00195
352.9310, 53.68799
354.1320, 7.362793
355.3340, 110.0356
356.5350, 108.7061
357.7370, 88.37305
358.9380, 11.94531
360.1390, 82.97314
361.3400, 7.799805
362.5400, 38.51025
363.7410, 64.27832
364.9410, 20.97217
366.1410, 73.65332
367.3410, 121.3608
368.5410, 49.01270
369.7410, 75.74316
370.9400, 12.38770
372.1400, 19.09912
373.3390, 68.01807
374.5380, 74.65186
375.7370, 42.28174
376.9360, 40.00439
378.1350, 34.15918
379.3330, 44.77832
380.5310, 94.17725
381.7300, 69.78125
382.9280, 105.4961
384.1260, 40.09180
385.3230, 18.75293
386.5210, 32.34082
387.7180, 44.07520
388.9160, 90.49072
390.1130, 62.06445
391.3100, 29.36621
392.5060, 59.18848
393.7030, 14.16895
394.9000, 35.47021
396.0960, 31.05176
397.2920, 19.68213
398.4880, 6.820313
399.6840, 69.65918
400.8800, 35.87305
402.0750, 18.43408
403.2710, 75.10156
404.4660, 106.5068
405.6610, 28.05176
406.8560, 69.44092
408.0510, 55.01465
409.2450, 27.40479
410.4400, 40.79395
411.6340, 2.816895
412.8280, 8.437012
414.0220, 25.06104
415.2160, 33.35400
416.4100, 37.82129
417.6030, 39.30664
418.7970, 36.16016
419.9900, 36.14600
421.1830, 4.524414
422.3760, 31.93506
423.5690, 28.37744
424.7610, 32.00244
425.9540, 62.96582
427.1460, 39.35205
428.3380, 101.6455
429.5300, 80.93408
430.7220, 73.21826
431.9140, 48.49707
433.1050, 76.77051
434.2970, 80.03857
435.4880, 63.69873
436.6790, 47.51709
437.8700, 14.72656
439.0610, 14.92822
440.2510, 63.18994
441.4420, 90.39502
442.6320, 3.577148
443.8220, 46.80127
445.0120, 110.9639
446.2020, 1.146484
447.3910, 2.702637
448.5810, 12.39160
449.7700, 36.85596
450.9600, 20.09668
452.1490, 110.1919
453.3370, 110.2744
454.5260, 39.39795
455.7150, 84.61035
456.9030, 27.32715
458.0910, 57.65381
459.2800, 60.67871
460.4670, 75.69727
461.6550, 50.97363
462.8430, 36.97803
464.0300, 61.97607
465.2180, 19.96924
466.4050, 39.99414
467.5920, 14.05078
468.7790, 80.88770
469.9650, 107.8188
471.1520, 117.7812
472.3380, 111.7012
473.5250, 74.61426
474.7110, 161.6157
475.8970, 109.5200
477.0820, 20.41650
478.2680, 8.303711
479.4540, 54.17822
480.6390, 24.04492
481.8240, 69.96533
483.0090, 30.81641
484.1940, 44.89697
485.3780, 94.73242
486.5630, 48.61523
487.7470, 50.43506
488.9320, 37.25293
490.1160, 57.20166
491.3000, 85.14258
492.4830, 134.1187
493.6670, 78.90527
494.8500, 58.68359
496.0340, 94.45557
497.2170, 116.2192
498.4000, 129.9756
499.5820, 76.72510
500.7650, 58.52930
501.9480, 22.56543
503.1300, 27.29004
504.3120, 49.00586
505.4940, 34.74902
506.6760, 52.22168
507.8580, 54.96826
509.0390, 54.51514
510.2210, 88.39209
511.4020, 48.08105
512.5830, 103.8550
513.7640, 51.68457
514.9450, 25.36182
516.1250, 103.0767
517.3060, 116.7021
518.4860, 46.39795
519.6660, 16.00586
520.8460, 68.60010
522.0260, 9.186523
523.2060, 142.7578
524.3850, 45.55469
525.5650, 90.11475
526.7440, 55.78369
527.9230, 77.49609
529.1020, 77.03711
530.2810, 108.6343
531.4590, 91.12695
532.6380, 137.6548
533.8160, 106.9585
534.9940, 49.49609
536.1720, 32.73926
537.3500, 138.5840
538.5270, 42.07031
539.7050, 70.54785
540.8820, 121.2163
542.0590, 98.68799
543.2360, 73.51416
544.4130, 38.28564
545.5900, 90.72461
546.7660, 29.15625
547.9430, 114.5806
549.1190, 23.99658
550.2950, 145.4043
551.4710, 92.80371
552.6470, 97.19434
553.8220, 90.77344
554.9980, 62.95703
556.1730, 3.881348
557.3480, 33.46973
558.5230, 28.81250
559.6980, 23.14697
560.8730, 99.47266
562.0470, 103.7905
563.2220, 29.07227
564.3960, 32.37354
565.5700, 76.66113
566.7440, 106.9468
567.9170, 48.22510
569.0910, 97.49512
570.2640, 81.75732
571.4380, 137.0127
572.6110, 126.9766
573.7840, 128.6025
574.9570, 106.7349
576.1290, 119.9614
577.3020, 83.30566
578.4740, 82.52197
579.6460, 76.48193
580.8180, 44.52051
581.9900, 56.71436
583.1620, 71.90186
584.3330, 47.35449
585.5040, 86.52686
586.6760, 54.63818
587.8470, 57.95752
589.0180, 14.96582
590.1880, 23.34863
591.3590, 23.45410
592.5290, 56.43701
593.7000, 80.55615
594.8700, 46.80176
596.0400, 23.93555
597.2090, 120.0322
598.3790, 8.626953
599.5490, 59.44873
600.7180, 79.70557
601.8870, 4.768555
603.0560, 86.82373
604.2250, 63.03760
605.3940, 41.07617
606.5620, 99.75830
607.7300, 107.7339
608.8990, 171.4375
610.0670, 79.61523
611.2350, 45.61963
612.4020, 99.76465
613.5700, 110.7559
614.7370, 34.22412
615.9050, 68.20068
617.0720, 57.27686
618.2390, 83.16113
619.4060, 110.4155
620.5720, 94.44531
621.7390, 40.19189
622.9050, 128.3286
624.0710, 3.155273
625.2370, 77.24170
626.4030, 42.16650
627.5690, 73.12061
628.7340, 94.51318
629.9000, 23.37109
631.0650, 167.2568
632.2300, 13.29443
633.3950, 131.2407
634.5600, 80.12061
635.7240, 141.0903
636.8890, 117.1826
638.0530, 67.05371
639.2170, 106.1646
640.3810, 42.12256
641.5450, 111.2529
642.7080, 69.84766
643.8720, 125.7622
645.0350, 48.54395
646.1980, 24.28760
647.3610, 30.92529
648.5240, 51.08057
649.6870, 8.662598
650.8490, 51.44629
652.0120, 29.36914
653.1740, 14.26758
654.3360, 49.63281
655.4980, 38.13525
656.6600, 59.89893
657.8210, 38.65723
658.9830, 76.31006
660.1440, 85.53027
661.3050, 76.27490
662.4660, 81.74902
663.6270, 16.52344
664.7870, 61.95068
665.9480, 29.67188
667.1080, 17.31445
668.2680, 128.3994
669.4280, 27.60986
670.5880, 42.68750
671.7480, 82.23438
672.9070, 134.8979
674.0670, 54.60352
675.2260, 52.55176
676.3850, 127.1577
677.5440, 76.81982
678.7030, 85.36865
679.8610, 37.23779
681.0200, 58.88770
682.1780, 30.61084
683.3360, 80.46484
684.4940, 87.00146
685.6520, 93.62402
686.8090, 87.57617
687.9670, 88.68945
689.1240, 71.65088
690.2810, 85.26709
691.4380, 84.87598
692.5950, 95.47852
693.7520, 81.07910
694.9080, 81.71875
696.0650, 122.2515
697.2210, 244.9282
698.3770, 263.5322
699.5330, 253.9561
700.6880, 432.5571
701.8440, 858.1533
702.9990, 1256.604
704.1550, 1612.150
705.3100, 2049.764
706.4650, 2629.431
707.6190, 3315.933
708.7740, 3666.494
709.9290, 3471.108
711.0830, 2736.846
712.2370, 2008.436
713.3910, 1320.971
714.5450, 883.6968
715.6980, 573.3594
716.8520, 404.9668
718.0050, 245.4956
719.1580, 143.0181
720.3110, 160.5659
721.4640, 201.2642
722.6170, 110.7676
723.7700, 134.2871
724.9220, 77.77979
726.0740, 86.56641
727.2260, 113.0396
728.3780, 136.3354
729.5300, 144.6729
730.6810, 89.00342
731.8330, 115.4683
732.9840, 32.96875
734.1350, 51.38281
735.2860, 129.7803
736.4370, 84.43311
737.5880, 88.07227
738.7380, 19.64844
739.8880, 95.16602
741.0390, 64.32324
742.1890, 11.74756
743.3380, 116.1543
744.4880, 110.4902
745.6380, 66.89307
746.7870, 23.71094
747.9360, 25.73633
749.0850, 109.1113
750.2340, 30.44336
751.3830, 127.0020
752.5310, 20.64502
753.6800, 77.62988
754.8280, 40.95605
755.9760, 20.27441
757.1240, 119.8770
758.2720, 45.18506
759.4190, 100.4849
760.5670, 23.01318
761.7140, 100.2988
762.8610, 18.48877
764.0080, 72.98438
765.1550, 50.19287
766.3020, 20.23193
767.4480, 58.13574
768.5950, 84.42822
769.7410, 35.65039
770.8870, 55.68359
772.0330, 99.89014
773.1780, 49.66162
774.3240, 20.97803
775.4690, 136.2686
776.6140, 15.85449
777.7590, 51.09961
778.9040, 4.399902
780.0490, 158.5854
781.1940, 16.72998
782.3380, 85.86621
783.4820, 66.95947
784.6260, 59.23926
785.7700, 113.5591
786.9140, 72.29102
788.0580, 101.2280
789.2010, 26.40869
790.3450, 50.37695
791.4880, 3.726563
792.6310, 74.41992
793.7730, 113.4209
794.9160, 92.65479
796.0590, 106.6182
797.2010, 89.03027
798.3430, 139.0610
799.4850, 130.2808
800.6270, 0.6640630
801.7690, 5.433105
802.9100, 85.55908
804.0520, 121.4263
805.1930, 13.76562
806.3340, 31.80762
807.4750, 124.9814
808.6160, 18.94434
809.7560, 103.9292
810.8970, 69.93164
812.0370, 0.8510740
813.1770, 53.70117
814.3170, 118.5796
815.4570, 108.3584
816.5960, 28.35449
817.7360, 152.1079
818.8750, 61.22656
820.0140, 30.93652
821.1530, 82.89502
822.2920, 84.98486
823.4310, 2.9300000E-03
824.5690, 78.84131
825.7070, 147.6362
826.8460, 91.46777
827.9840, 160.3682
829.1220, 82.14648
830.2590, 130.1509
831.3970, 68.90918
832.5340, 127.9082
833.6710, 33.88965
834.8080, 46.88818
835.9450, 101.7681
837.0820, 88.98584
838.2190, 136.9575
839.3550, 99.66357
840.4910, 64.56836
841.6270, 78.25879
842.7630, 63.94092
843.8990, 115.9014
845.0350, 128.7715
846.1700, 72.42871
847.3060, 41.08887
848.4410, 74.94287
849.5760, 134.5732
850.7100, 39.46436
851.8450, 8.923340
852.9800, 69.67090
854.1140, 122.2563
855.2480, 135.8340
856.3820, 63.46582
857.5160, 38.02637
858.6500, 126.5771
859.7830, 69.11963
860.9170, 96.65332
862.0500, 9.179199
863.1830, 96.77588
864.3160, 198.2827
865.4480, 92.78320
866.5810, 97.27588
867.7130, 86.76123
868.8460, 78.35107
869.9780, 85.68652
871.1100, 65.09131
872.2410, 36.54932
873.3730, 53.60986
874.5050, 54.44141
875.6360, 66.70166
876.7670, 90.14111
877.8980, 85.85059
879.0290, 98.05957
880.1590, 131.4839
881.2900, 99.94287
882.4200, 119.7646
883.5500, 72.03711
884.6800, 87.26172
885.8100, 122.6455
886.9400, 39.87305
888.0690, 157.2393
889.1990, 79.11377
890.3280, 215.5391
891.4570, 196.5894
892.5860, 16.98389
893.7140, 141.3091
894.8430, 128.5361
895.9710, 29.03662
897.1000, 182.0718
898.2280, 51.36426
899.3560, 33.44043
900.4830, 144.7188
901.6110, 11.01074
902.7380, 54.79102
903.8660, 37.99658
904.9930, 124.2407
906.1200, 131.4072
907.2460, 113.5796
908.3730, 34.09033
909.5000, 57.01660
910.6260, 61.20703
911.7520, 15.60742
912.8780, 68.31592
914.0040, 38.56885
915.1290, 78.42822
916.2550, 159.5693
917.3800, 149.4644
918.5050, 87.62549
919.6300, 16.75049
920.7550, 30.16699
921.8800, 69.95117
923.0040, 78.07129
924.1290, 58.81055
925.2530, 96.06055
926.3770, 200.0239
927.5010, 59.43457
928.6250, 81.48242
929.7480, 43.53467
930.8720, 89.57959
931.9950, 47.38086
933.1180, 112.6221
934.2410, 40.61768
935.3640, 15.39600
936.4860, 57.06836
937.6090, 102.1753
938.7310, 117.1313
939.8530, 120.0815
940.9750, 168.6440
942.0970, 85.06738
943.2180, 107.9980
944.3400, 66.68213
945.4610, 60.60986
946.5820, 72.49072
947.7030, 145.0205
948.8240, 106.5576
949.9450, 10.28271
951.0650, 52.60010
952.1860, 86.25879
953.3060, 17.12744
954.4260, 89.90674
955.5460, 53.57471
956.6650, 20.44141
957.7850, 37.29883
958.9040, 74.70068
960.0230, 102.5352
961.1420, 74.36865
962.2610, 56.19482
963.3800, 83.59033
964.4990, 27.82324
965.6170, 102.6245
966.7350, 25.36865
967.8530, 15.84619
968.9710, 16.27881
970.0890, 49.32178
971.2070, 51.93604
972.3240, 23.76953
973.4410, 154.4658
974.5580, 36.15625
975.6750, 141.7471
976.7920, 152.3877
977.9090, 16.96094
979.0250, 36.61719
980.1410, 102.2661
981.2580, 82.85010
982.3740, 34.29590
983.4890, 101.8735
984.6050, 21.49316
985.7200, 108.9058
986.8360, 176.3687
987.9510, 145.8936
989.0660, 92.48291
990.1810, 70.06641
991.2950, 147.5444
992.4100, 195.9077
993.5240, 149.4707
994.6390, 105.9517
995.7530, 185.5151
996.8660, 65.74561
997.9800, 116.2959
999.0940, 184.0547
1000.207, 154.5898
1001.320, 124.2812
1002.433, 58.80273
1003.546, 156.2808
1004.659, 271.9863
1005.772, 217.5493
1006.884, 145.8320
1007.996, 189.3877
1009.108, 106.8618
1010.220, 137.2515
1011.332, 23.12402
1012.444, 309.9932
1013.555, 213.6343
1014.666, 203.1201
1015.777, 291.5620
1016.888, 224.0029
1017.999, 183.3804
1019.110, 326.8154
1020.220, 148.2930
1021.331, 207.5317
1022.441, 166.0024
1023.551, 73.40088
1024.661, 74.82324
1025.770, 92.23828
1026.880, 91.57275
1027.989, 116.9741
1029.098, 63.36914
1030.207, 223.8438
1031.316, 196.3896
1032.425, 144.1650
1033.533, 180.6621
1034.642, 70.02197
1035.750, 85.08936
1036.858, 106.6602
1037.966, 117.7993
1039.073, 77.13184
1040.181, 185.9785
1041.288, 69.58105
1042.396, 299.7344
1043.503, 43.32471
1044.610, 177.5415
1045.716, 261.4321
1046.823, 48.04346
1047.929, 185.1235
1049.036, 262.5234
1050.142, 160.0132
1051.248, 243.4258
1052.353, 162.8955
1053.459, 204.0122
1054.564, 202.0801
1055.670, 174.2441
1056.775, 285.7002
1057.880, 265.3242
1058.985, 190.5293
1060.089, 379.8301
1061.194, 373.9053
1062.298, 580.2402
1063.402, 729.5469
1064.506, 684.2656
1065.610, 495.1338
1066.713, 456.4199
1067.817, 606.3672
1068.920, 521.3965
1070.023, 663.3965
1071.126, 627.5225
1072.229, 862.8369
1073.332, 1259.071
1074.435, 1585.385
1075.537, 2326.728
1076.639, 3914.838
1077.741, 7051.867
1078.843, 13322.87
1079.945, 21043.92
1081.046, 28902.31
1082.148, 40669.47
1083.249, 50025.68
1084.350, 46852.91
1085.451, 33297.95
1086.551, 20887.72
1087.652, 12087.99
1088.752, 6519.193
1089.853, 3383.110
1090.953, 1872.926
1092.053, 1182.893
1093.152, 955.8916
1094.252, 622.9941
1095.351, 636.8564
1096.451, 332.8232
1097.550, 397.5479
1098.649, 422.5830
1099.748, 299.4580
1100.846, 322.5732
1101.945, 203.5039
1103.043, 239.3906
1104.141, 191.0576
1105.239, 166.9150
1106.337, 162.0068
1107.434, 191.6855
1108.532, 176.3838
1109.629, 211.4521
1110.726, 193.0244
1111.823, 145.2041
1112.920, 174.2236
1114.017, 157.0781
1115.113, 201.6865
1116.210, 299.7842
1117.306, 180.4277
1118.402, 261.2598
1119.498, 218.2910
1120.593, 242.0781
1121.689, 205.2295
1122.784, 215.0898
1123.879, 315.8525
1124.974, 258.0088
1126.069, 243.8545
1127.164, 196.9902
1128.259, 124.9414
1129.353, 122.8232
1130.447, 55.53418
1131.541, 144.2314
1132.635, 69.72559
1133.729, 156.4932
1134.822, 177.0469
1135.916, 59.70410
1137.009, 11.64844
1138.102, 135.5088
1139.195, 59.14844
1140.288, 42.97461
1141.380, 141.1865
1142.473, 14.19629
1143.565, 15.53418
1144.657, 65.99121
1145.749, 101.5205
1146.841, 149.3457
1147.932, 152.5322
1149.024, 146.5850
1150.115, 135.6943
1151.206, 100.7920
1152.297, 114.2920
1153.388, 105.1416
1154.479, 179.7822
1155.569, 119.6406
1156.659, 153.9824
1157.750, 63.62012
1158.839, 146.2363
1159.929, 175.8682
1161.019, 60.74023
1162.108, 76.93262
1163.198, 1.245117
1164.287, 31.54297
1165.376, 125.2295
1166.465, 108.4023
1167.553, 32.65723
1168.642, 137.9561
1169.730, 141.1943
1170.818, 2.515625
1171.906, 49.72656
1172.994, 13.18262
1174.082, 19.42871
1175.170, 116.4609
1176.257, 120.6172
1177.344, 26.07520
1178.431, 222.0254
1179.518, 83.32812
1180.605, 68.55371
1181.691, 119.0967
1182.778, 70.12891
1183.864, 82.12988
1184.950, 87.12109
1186.036, 120.2578
1187.122, 56.55176
1188.207, 13.48730
1189.292, 166.4639
1190.378, 97.75879
1191.463, 199.6846
1192.548, 80.59766
1193.632, 47.49902
1194.717, 3.673828
1195.801, 102.9834
1196.886, 90.85352
1197.970, 205.0010
1199.054, 61.84570
1200.137, 170.6826
1201.221, 200.8818
1202.305, 76.69629
1203.388, 93.49512
1204.471, 74.28223
1205.554, 68.06445
1206.637, 145.5918
1207.719, 149.3477
1208.802, 145.7812
1209.884, 156.3730
1210.966, 53.47070
1212.048, 108.5557
1213.130, 117.3525
1214.212, 58.12012
1215.293, 176.1387
1216.374, 163.8447
1217.456, 70.38574
1218.536, 55.53516
1219.617, 90.32227
1220.698, 221.0352
1221.778, 163.8213
1222.859, 159.4355
1223.939, 92.21289
1225.019, 171.8955
1226.099, 142.5010
1227.178, 158.1494
1228.258, 110.8447
1229.337, 87.33105
1230.417, 31.80371
1231.496, 67.48340
1232.574, 102.9336
1233.653, 70.57812
1234.732, 80.29980
1235.810, 83.73145
1236.888, 230.3242
1237.966, 136.7275
1239.044, 126.1182
1240.122, 263.4961
1241.199, 13.86328
1242.277, 89.38477
1243.354, 123.7324
1244.431, 163.0811
1245.508, 64.88477
1246.585, 107.2363
1247.661, 124.5322
1248.738, 75.96387
1249.814, 173.4570
1250.890, 44.36621
1251.966, 96.76074
1253.042, 147.4707
1254.117, 38.12988
1255.193, 110.4082
1256.268, 40.36328
1257.343, 80.88574
1258.418, 76.02051
1259.493, 231.1377
1260.567, 135.0283
1261.642, 1.122070
1262.716, 113.0430
1263.790, 167.1006
1264.864, 181.3311
1265.938, 194.3115
1267.011, 17.36719
1268.085, 129.3965
1269.158, 70.35156
1270.231, 8.306641
1271.304, 25.39551
1272.377, 199.0996
1273.450, 142.6084
1274.522, 128.3340
1275.594, 55.36914
1276.666, 11.75098
1277.738, 96.10156
1278.810, 75.25977
1279.882, 4.081055
1280.953, 36.16504
1282.025, 35.75293
1283.096, 82.45703
1284.167, 18.32129
1285.238, 165.2451
1286.308, 75.94141
1287.379, 78.40332
1288.449, 72.06738
1289.519, 98.71484
1290.589, 47.09375
1291.659, 136.5439
1292.729, 155.5938
1293.798, 34.04883
1294.868, 239.6162
1295.937, 123.1348
1297.006, 118.3203
1298.075, 152.8447
