##NAMES=Calcite
##RRUFFID=R050307
##IDEAL CHEMISTRY=CaCO_3_
##LOCALITY=Zaire
##OWNER=RRUFF
##SOURCE=Eugene Schlepp
##DESCRIPTION=Group of pink prismatic crystals
##STATUS=The identification of this mineral has been confirmed by X-ray diffraction and chemical analysis
##URL=rruff.info/R050307
##MEASURED CHEMISTRY=Ca_1.00_CO_3_
##PIN_ID=L01569
##ORIENTATION=Laser parallel to -c* (0 0 -1). Fiducial mark perpendicular to laser is parallel to a [1 0 0]
116.9030, 0.0000000E+00
118.1340, 6.282227
119.3650, 43.21631
120.5960, 2.366211
121.8270, 15.00977
123.0580, 9.409668
124.2880, 18.42090
125.5190, 7.076660
126.7490, 84.52344
127.9790, 114.1084
129.2090, 199.5420
130.4390, 143.7144
131.6680, 94.53564
132.8980, 122.9336
134.1270, 122.8462
135.3560, 249.2236
136.5850, 250.0239
137.8140, 309.2080
139.0430, 311.7412
140.2710, 366.5928
141.5000, 251.7358
142.7280, 543.1489
143.9560, 323.8091
145.1840, 632.7026
146.4120, 681.8149
147.6390, 667.1309
148.8670, 866.6372
150.0940, 1002.324
151.3210, 1157.183
152.5490, 1158.210
153.7750, 1088.397
155.0020, 1144.731
156.2290, 964.2012
157.4550, 887.7949
158.6810, 799.5054
159.9080, 548.3228
161.1340, 386.2407
162.3590, 412.2559
163.5850, 404.3643
164.8110, 330.5635
166.0360, 280.8491
167.2610, 217.2173
168.4860, 187.6636
169.7110, 154.1855
170.9360, 132.2744
172.1610, 184.4868
173.3850, 103.2607
174.6100, 204.0981
175.8340, 183.9985
177.0580, 273.9614
178.2820, 303.4014
179.5050, 230.0688
180.7290, 355.2207
181.9520, 274.4380
183.1760, 246.7075
184.3990, 344.0293
185.6220, 186.4912
186.8450, 264.0396
188.0670, 118.6284
189.2900, 361.2729
190.5120, 229.9595
191.7340, 264.6348
192.9560, 155.3203
194.1780, 146.0356
195.4000, 162.3750
196.6220, 172.4868
197.8430, 219.2231
199.0640, 235.9746
200.2860, 294.7412
201.5070, 184.5234
202.7270, 260.3223
203.9480, 204.5254
205.1690, 166.9775
206.3890, 138.8359
207.6090, 120.7578
208.8290, 117.5381
210.0490, 129.7461
211.2690, 138.7764
212.4890, 168.8242
213.7080, 197.8936
214.9280, 194.9863
216.1470, 186.1006
217.3660, 214.2373
218.5850, 124.3955
219.8030, 271.5762
221.0220, 184.7803
222.2400, 166.0068
223.4590, 53.25488
224.6770, 203.5264
225.8950, 247.4492
227.1120, 185.8809
228.3300, 46.20508
229.5480, 235.5547
230.7650, 105.9268
231.9820, 243.3193
233.1990, 146.7461
234.4160, 235.2598
235.6330, 210.7920
236.8490, 53.34277
238.0660, 92.91211
239.2820, 137.5010
240.4980, 164.1074
241.7140, 183.7324
242.9300, 175.3760
244.1460, 160.0625
245.3610, 291.7324
246.5770, 218.4219
247.7920, 198.1299
249.0070, 194.8555
250.2220, 327.5967
251.4370, 92.35449
252.6510, 247.6660
253.8660, 217.1113
255.0800, 200.8555
256.2940, 259.6201
257.5080, 317.4043
258.7220, 473.2100
259.9360, 364.0332
261.1490, 399.4980
262.3630, 294.3369
263.5760, 438.9658
264.7890, 397.4844
266.0020, 534.0195
267.2150, 641.2598
268.4270, 708.9023
269.6400, 843.6904
270.8520, 943.3438
272.0640, 1007.156
273.2760, 1141.147
274.4880, 1276.196
275.7000, 1551.299
276.9120, 1733.451
278.1230, 1641.651
279.3340, 1875.896
280.5450, 1784.294
281.7560, 1712.618
282.9670, 1560.981
284.1780, 1434.379
285.3880, 1214.812
286.5980, 1002.277
287.8090, 799.7744
289.0190, 671.3057
290.2290, 576.8672
291.4380, 507.4561
292.6480, 350.0723
293.8570, 241.7148
295.0670, 272.3818
296.2760, 277.0723
297.4850, 227.0342
298.6930, 248.7705
299.9020, 222.4639
301.1110, 235.3076
302.3190, 195.1074
303.5270, 160.9697
304.7350, 146.8525
305.9430, 123.7393
307.1510, 91.67285
308.3580, 105.6094
309.5660, 95.56445
310.7730, 100.5352
311.9800, 148.5244
313.1870, 108.5283
314.3940, 154.5488
315.6010, 66.58496
316.8070, 130.6367
318.0130, 102.7031
319.2200, 147.7832
320.4260, 208.8770
321.6310, 177.5400
322.8370, 54.14941
324.0430, 108.3115
325.2480, 145.4873
326.4540, 12.67676
327.6590, 33.87793
328.8640, 182.0928
330.0680, 99.31836
331.2730, 234.5557
332.4780, 47.19629
333.6820, 182.0566
334.8860, 202.3213
336.0900, 8.406250
337.2940, 86.87793
338.4980, 124.9971
339.7010, 72.30957
340.9050, 56.63086
342.1080, 177.9639
343.3110, 77.30566
344.5140, 136.6572
345.7170, 144.0215
346.9200, 116.3926
348.1220, 73.05273
349.3240, 75.33984
350.5270, 135.7412
351.7290, 93.15234
352.9310, 124.7422
354.1320, 62.00098
355.3340, 138.4375
356.5350, 97.88379
357.7370, 83.33887
358.9380, 121.2920
360.1390, 96.26270
361.3400, 135.7529
362.5400, 90.24609
363.7410, 43.75586
364.9410, 16.27246
366.1410, 95.79883
367.3410, 192.3301
368.5410, 155.8691
369.7410, 30.58301
370.9400, 71.95996
372.1400, 32.50879
373.3390, 143.2432
374.5380, 49.80762
375.7370, 52.37793
376.9360, 13.95605
378.1350, 188.5391
379.3330, 135.1299
380.5310, 133.7256
381.7300, 167.0781
382.9280, 88.93750
384.1260, 117.5537
385.3230, 25.17383
386.5210, 59.19824
387.7180, 49.42383
388.9160, 96.95312
390.1130, 86.65527
391.3100, 151.2705
392.5060, 108.3252
393.7030, 32.95020
394.9000, 31.58203
396.0960, 245.1055
397.2920, 165.7354
398.4880, 144.3496
399.6840, 35.27637
400.8800, 66.90234
402.0750, 40.46875
403.2710, 99.15820
404.4660, 198.7900
405.6610, 116.4189
406.8560, 69.05273
408.0510, 117.7070
409.2450, 116.3730
410.4400, 141.0488
411.6340, 64.26367
412.8280, 68.72461
414.0220, 20.59277
415.2160, 28.09082
416.4100, 117.7842
417.6030, 48.48633
418.7970, 60.19531
419.9900, 145.9141
421.1830, 65.63965
422.3760, 85.37402
423.5690, 1.884766
424.7610, 60.86133
425.9540, 121.6152
427.1460, 30.37695
428.3380, 75.14355
429.5300, 145.9180
430.7220, 34.69727
431.9140, 157.6748
433.1050, 118.4668
434.2970, 255.2656
435.4880, 152.0684
436.6790, 58.87793
437.8700, 139.6943
439.0610, 35.51465
440.2510, 114.6592
441.4420, 231.1182
442.6320, 22.90039
443.8220, 31.69043
445.0120, 51.48633
446.2020, 13.59082
447.3910, 38.39453
448.5810, 81.20312
449.7700, 19.02832
450.9600, 133.8438
452.1490, 73.66309
453.3370, 109.4854
454.5260, 104.3096
455.7150, 58.13867
456.9030, 40.97168
458.0910, 79.80664
459.2800, 58.64551
460.4670, 62.48730
461.6550, 102.3330
462.8430, 125.1807
464.0300, 174.9141
465.2180, 177.8525
466.4050, 171.8145
467.5920, 55.67285
468.7790, 138.8086
469.9650, 36.67090
471.1520, 119.5361
472.3380, 122.4033
473.5250, 49.27051
474.7110, 155.1416
475.8970, 140.7930
477.0820, 42.66699
478.2680, 269.5439
479.4540, 94.31934
480.6390, 5.077148
481.8240, 223.7969
483.0090, 98.67090
484.1940, 102.5449
485.3780, 70.42285
486.5630, 45.51074
487.7470, 54.18457
488.9320, 33.06836
490.1160, 30.02344
491.3000, 73.13184
492.4830, 179.7168
493.6670, 113.5674
494.8500, 130.4209
496.0340, 90.27539
497.2170, 84.12988
498.4000, 96.71777
499.5820, 82.41309
500.7650, 119.7012
501.9480, 110.5596
503.1300, 114.5996
504.3120, 100.9951
505.4940, 72.80664
506.6760, 62.78809
507.8580, 23.64746
509.0390, 26.50586
510.2210, 57.36719
511.4020, 138.2266
512.5830, 80.19141
513.7640, 169.0518
514.9450, 14.91113
516.1250, 87.76953
517.3060, 114.6279
518.4860, 167.4863
519.6660, 191.5234
520.8460, 156.2012
522.0260, 181.0596
523.2060, 180.9170
524.3850, 167.4736
525.5650, 156.6309
526.7440, 160.4873
527.9230, 195.3477
529.1020, 210.1211
530.2810, 113.7002
531.4590, 138.1572
532.6380, 198.0225
533.8160, 5.887695
534.9940, 109.7471
536.1720, 148.6045
537.3500, 2.537109
538.5270, 119.3115
539.7050, 60.16016
540.8820, 10.00879
542.0590, 98.85254
543.2360, 51.45508
544.4130, 210.9238
545.5900, 56.76562
546.7660, 102.6064
547.9430, 92.44727
549.1190, 244.5098
550.2950, 64.39453
551.4710, 250.2324
552.6470, 273.0693
553.8220, 8.965820
554.9980, 32.79785
556.1730, 52.83496
557.3480, 112.6641
558.5230, 92.49219
559.6980, 123.3281
560.8730, 125.1660
562.0470, 173.0020
563.2220, 163.8379
564.3960, 217.6719
565.5700, 107.3906
566.7440, 153.2217
567.9170, 254.0508
569.0910, 72.87793
570.2640, 86.70410
571.4380, 200.5283
572.6110, 6.650391
573.7840, 93.15918
574.9570, 214.9668
576.1290, 202.7715
577.3020, 177.5820
578.4740, 120.3965
579.6460, 177.2090
580.8180, 129.0186
581.9900, 114.5781
583.1620, 171.3848
584.3330, 112.9531
585.5040, 127.7549
586.6760, 153.4453
587.8470, 219.2656
589.0180, 26.97363
590.1880, 21.67969
591.3590, 163.3828
592.5290, 42.08301
593.7000, 113.7822
594.8700, 198.4775
596.0400, 71.17285
597.2090, 234.8633
598.3790, 194.5527
599.5490, 98.24023
600.7180, 131.9238
601.8870, 114.7617
603.0560, 110.4541
604.2250, 65.86426
605.3940, 17.77051
606.5620, 5.593750
607.7300, 255.1191
608.8990, 9.756836
610.0670, 183.3887
611.2350, 97.01660
612.4020, 143.6543
613.5700, 163.2891
614.7370, 120.9199
615.9050, 67.54785
617.0720, 80.17773
618.2390, 136.8730
619.4060, 54.49902
620.5720, 14.87891
621.7390, 219.9072
622.9050, 121.5088
624.0710, 274.1084
625.2370, 131.7051
626.4030, 85.29785
627.5690, 200.7480
628.7340, 218.3330
629.9000, 29.64746
631.0650, 91.94824
632.2300, 59.62793
633.3950, 119.3564
634.5600, 67.46094
635.7240, 219.0283
636.8890, 181.5898
638.0530, 70.23730
639.2170, 160.8057
640.3810, 125.3604
641.5450, 89.03320
642.7080, 13.58301
643.8720, 0.1259770
645.0350, 17.96289
646.1980, 35.37012
647.3610, 76.88086
648.5240, 66.38379
649.6870, 320.8848
650.8490, 205.5576
652.0120, 342.0498
653.1740, 81.54297
654.3360, 94.03125
655.4980, 130.6426
656.6600, 67.12305
657.8210, 93.59961
658.9830, 221.0732
660.1440, 170.7988
661.3050, 207.3975
662.4660, 67.91504
663.6270, 110.9014
664.7870, 120.9697
665.9480, 164.4189
667.1080, 107.0322
668.2680, 209.4717
669.4280, 103.0527
670.5880, 59.51758
671.7480, 83.50781
672.9070, 167.9805
674.0670, 137.0156
675.2260, 116.4795
676.3850, 86.93945
677.5440, 95.91309
678.7030, 102.3643
679.8610, 114.5840
681.0200, 139.7500
682.1780, 132.2188
683.3360, 132.6846
684.4940, 205.1533
685.6520, 130.7568
686.8090, 187.2148
687.9670, 23.33105
689.1240, 32.09766
690.2810, 156.6621
691.4380, 81.08203
692.5950, 287.4951
693.7520, 252.6807
694.9080, 153.1104
696.0650, 85.57227
697.2210, 76.08203
698.3770, 112.0625
699.5330, 216.5869
700.6880, 325.9961
701.8440, 427.6309
702.9990, 654.0342
704.1550, 815.1240
705.3100, 1025.831
706.4650, 1333.223
707.6190, 1733.610
708.7740, 2208.992
709.9290, 2713.387
711.0830, 2621.756
712.2370, 2405.931
713.3910, 1589.289
714.5450, 1345.644
715.6980, 756.6777
716.8520, 463.2822
718.0050, 427.8057
719.1580, 343.1377
720.3110, 181.4639
721.4640, 304.8105
722.6170, 1.151367
723.7700, 144.5762
724.9220, 186.8975
726.0740, 153.1816
727.2260, 241.4912
728.3780, 111.7949
729.5300, 184.0791
730.6810, 124.3701
731.8330, 181.6562
732.9840, 109.9375
734.1350, 173.2725
735.2860, 117.5410
736.4370, 129.9912
737.5880, 246.2510
738.7380, 86.59082
739.8880, 18.52148
741.0390, 52.97363
742.1890, 128.2178
743.3380, 58.57422
744.4880, 82.33496
745.6380, 29.45898
746.7870, 90.16016
747.9360, 140.1260
749.0850, 213.3389
750.2340, 210.2295
751.3830, 237.8691
752.5310, 228.6533
753.6800, 163.8613
754.8280, 235.0420
755.9760, 44.21680
757.1240, 141.7119
758.2720, 70.88965
759.4190, 280.3359
760.5670, 114.6875
761.7140, 188.1973
762.8610, 169.3545
764.0080, 63.50684
765.1550, 5.348633
766.3020, 66.78320
767.4480, 82.92480
768.5950, 109.1445
769.7410, 149.4170
770.8870, 26.75781
772.0330, 0.1621090
773.1780, 85.90527
774.3240, 263.9668
775.4690, 44.02246
776.6140, 62.16016
777.7590, 117.6143
778.9040, 37.02637
780.0490, 221.3711
781.1940, 228.2764
782.3380, 18.68262
783.4820, 134.8193
784.6260, 64.82324
785.7700, 184.8184
786.9140, 156.8096
788.0580, 23.79395
789.2010, 129.7695
790.3450, 111.7393
791.4880, 106.7021
792.6310, 7.715820
793.7730, 82.66504
794.9160, 152.7754
796.0590, 238.7109
797.2010, 11.83008
798.3430, 36.77441
799.4850, 55.68652
800.6270, 162.5928
801.7690, 34.49121
802.9100, 77.48730
804.0520, 11.40820
805.1930, 130.4590
806.3340, 48.64746
807.4750, 132.4990
808.6160, 14.65625
809.7560, 157.1670
810.8970, 239.9834
812.0370, 182.7959
813.1770, 319.6494
814.3170, 35.44629
815.4570, 80.23926
816.5960, 125.1963
817.7360, 233.2422
818.8750, 197.4668
820.0140, 108.2393
821.1530, 179.3242
822.2920, 52.07422
823.4310, 288.8135
824.5690, 124.5449
825.7070, 306.0469
826.8460, 50.71973
827.9840, 184.4277
829.1220, 92.12793
830.2590, 71.97949
831.3970, 150.6699
832.5340, 80.34766
833.6710, 68.16211
834.8080, 18.17773
835.9450, 0.4589840
837.0820, 214.4346
838.2190, 36.24219
839.3550, 146.8438
840.4910, 199.9707
841.6270, 136.7539
842.7630, 203.5518
843.8990, 138.4824
845.0350, 227.0439
846.1700, 87.59766
847.3060, 159.1436
848.4410, 205.6816
849.5760, 139.2168
850.7100, 93.04980
851.8450, 14.43066
852.9800, 7.700195
854.1140, 48.77441
855.2480, 260.2393
856.3820, 272.6963
857.5160, 142.1465
858.6500, 282.5859
859.7830, 70.25391
860.9170, 190.6777
862.0500, 28.09375
863.1830, 249.5430
864.3160, 276.9824
865.4480, 190.4707
866.5810, 155.8965
867.7130, 222.3105
868.8460, 112.7227
869.9780, 81.12109
871.1100, 116.5137
872.2410, 50.90039
873.3730, 123.6562
874.5050, 75.23242
875.6360, 1.912109
876.7670, 50.10156
877.8980, 171.4258
879.0290, 223.7520
880.1590, 3.091797
881.2900, 190.0430
882.4200, 58.72852
883.5500, 93.73047
884.6800, 144.0000
885.8100, 30.74023
886.9400, 126.4883
888.0690, 261.7109
889.1990, 94.92969
890.3280, 183.1406
891.4570, 180.5039
892.5860, 23.62891
893.7140, 210.6328
894.8430, 173.8086
895.9710, 61.14648
897.1000, 24.47852
898.2280, 245.6348
899.3560, 251.8457
900.4830, 130.9844
901.6110, 191.2559
902.7380, 64.37500
903.8660, 126.7637
904.9930, 51.87500
906.1200, 38.97461
907.2460, 210.9082
908.3730, 253.4551
909.5000, 233.5293
910.6260, 133.0039
911.7520, 78.97070
912.8780, 11.24219
914.0040, 15.35547
915.1290, 24.93945
916.2550, 85.46094
917.3800, 70.50781
918.5050, 158.6797
919.6300, 104.7461
920.7550, 246.8047
921.8800, 144.8574
923.0040, 161.9062
924.1290, 199.7676
925.2530, 254.7969
926.3770, 232.1777
927.5010, 88.83203
928.6250, 238.5293
929.7480, 62.52539
930.8720, 139.5098
931.9950, 57.48633
933.1180, 97.19727
934.2410, 232.0215
935.3640, 169.9160
936.4860, 254.8574
937.6090, 78.64453
938.7310, 51.57031
939.8530, 208.3145
940.9750, 74.77930
942.0970, 180.9609
943.2180, 187.8047
944.3400, 109.1309
945.4610, 241.9590
946.5820, 152.7793
947.7030, 91.59180
948.8240, 255.3965
949.9450, 171.0176
951.0650, 9.195313
952.1860, 90.42773
953.3060, 6.279297
954.4260, 101.9746
955.5460, 25.66602
956.6650, 150.3477
957.7850, 159.8828
958.9040, 255.5469
960.0230, 245.2051
961.1420, 103.8652
962.2610, 273.3789
963.3800, 291.0312
964.4990, 41.33008
965.6170, 103.2148
966.7350, 135.8203
967.8530, 70.38086
968.9710, 173.8828
970.0890, 153.5371
971.2070, 18.35547
972.3240, 11.08594
973.4410, 167.2285
974.5580, 0.2402340
975.6750, 56.27930
976.7920, 50.78906
977.9090, 17.28906
979.0250, 126.7832
980.1410, 186.4395
981.2580, 219.9004
982.3740, 183.3691
983.4890, 153.8281
984.6050, 30.28320
985.7200, 182.7246
986.8360, 46.47461
987.9510, 121.6387
989.0660, 141.8711
990.1810, 218.2812
991.2950, 110.6855
992.4100, 175.0840
993.5240, 169.7461
994.6390, 262.0586
995.7530, 237.4629
996.8660, 210.5879
997.9800, 158.9785
999.0940, 89.35938
1000.207, 182.7344
1001.320, 123.1895
1002.433, 161.8984
1003.546, 161.2480
1004.659, 146.5938
1005.772, 262.0996
1006.884, 12.23633
1007.996, 52.59180
1009.108, 31.16602
1010.220, 222.4355
1011.332, 178.7441
1012.444, 214.0039
1013.555, 174.4160
1014.666, 3.955078
1015.777, 233.4199
1016.888, 55.37500
1017.999, 122.5625
1019.110, 157.1426
1020.220, 129.6250
1021.331, 178.2422
1022.441, 187.2363
1023.551, 143.6309
1024.661, 59.20508
1025.770, 184.3672
1026.880, 58.37500
1027.989, 243.7402
1029.098, 59.26953
1030.207, 58.64453
1031.316, 207.3848
1032.425, 82.47266
1033.533, 192.5508
1034.642, 177.7695
1035.750, 240.8379
1036.858, 226.1895
1037.966, 115.4062
1039.073, 224.3086
1040.181, 253.1426
1041.288, 217.2227
1042.396, 101.3652
1043.503, 1.601563
1044.610, 191.6562
1045.716, 61.12109
1046.823, 197.7480
1047.929, 150.5020
1049.036, 72.22852
1050.142, 195.1992
1051.248, 40.24609
1052.353, 304.2598
1053.459, 301.1230
1054.564, 228.5195
1055.670, 155.8184
1056.775, 376.8027
1057.880, 150.7773
1058.985, 181.7422
1060.089, 150.6992
1061.194, 425.5898
1062.298, 323.5273
1063.402, 487.2871
1064.506, 613.2070
1065.610, 528.9766
1066.713, 656.8594
1067.817, 495.9805
1068.920, 550.8652
1070.023, 499.9414
1071.126, 378.7012
1072.229, 580.3379
1073.332, 851.2051
1074.435, 958.0391
1075.537, 1323.875
1076.639, 2319.893
1077.741, 4378.717
1078.843, 7873.535
1079.945, 12553.45
1081.046, 16113.41
1082.148, 23016.51
1083.249, 31058.29
1084.350, 36536.90
1085.451, 36831.40
1086.551, 30301.71
1087.652, 19467.83
1088.752, 9979.344
1089.853, 4359.086
1090.953, 2304.883
1092.053, 1411.949
1093.152, 774.6660
1094.252, 668.6152
1095.351, 633.5879
1096.451, 658.2793
1097.550, 397.2578
1098.649, 202.2949
1099.748, 240.9609
1100.846, 333.4766
1101.945, 131.1289
1103.043, 233.7852
1104.141, 216.0840
1105.239, 307.7930
1106.337, 294.4355
1107.434, 274.6680
1108.532, 272.1133
1109.629, 150.5078
1110.726, 230.9648
1111.823, 68.56055
1112.920, 206.1484
1114.017, 369.7227
1115.113, 399.2891
1116.210, 246.0039
1117.306, 169.2480
1118.402, 251.7910
1119.498, 248.1953
1120.593, 273.7305
1121.689, 248.7207
1122.784, 198.7637
1123.879, 179.8262
1124.974, 51.07617
1126.069, 216.6719
1127.164, 253.2070
1128.259, 158.3008
1129.353, 280.8633
1130.447, 123.3164
1131.541, 127.7031
1132.635, 212.1348
1133.729, 10.55664
1134.822, 158.9668
1135.916, 101.3652
1137.009, 75.75391
1138.102, 242.1328
1139.195, 107.1211
1140.288, 111.6074
1141.380, 149.6367
1142.473, 57.97656
1143.565, 200.3105
1144.657, 77.63281
1145.749, 118.0742
1146.841, 81.75195
1147.932, 66.58789
1149.024, 176.3770
1150.115, 26.82227
1151.206, 129.2109
1152.297, 15.66406
1153.388, 6.025391
1154.479, 59.48633
1155.569, 21.23047
1156.659, 253.8496
1157.750, 15.29297
1158.839, 202.6816
1159.929, 14.12305
1161.019, 6.148438
1162.108, 237.3652
1163.198, 295.3887
1164.287, 174.5527
1165.376, 83.04883
1166.465, 172.1895
1167.553, 17.14648
1168.642, 85.03320
1169.730, 123.5059
1170.818, 156.6211
1171.906, 243.6953
1172.994, 108.7598
1174.082, 84.81250
1175.170, 167.5195
1176.257, 142.2793
1177.344, 132.7500
1178.431, 110.3750
1179.518, 241.4062
1180.605, 154.1621
1181.691, 86.83789
1182.778, 148.6875
1183.864, 2.488281
1184.950, 37.09766
1186.036, 57.88477
1187.122, 171.6582
1188.207, 195.4219
1189.292, 205.1719
1190.378, 195.9121
1191.463, 215.6387
1192.548, 202.1582
1193.632, 183.4531
1194.717, 192.8496
1195.801, 119.5332
1196.886, 131.2070
1197.970, 77.86523
1199.054, 274.5156
1200.137, 84.31641
1201.221, 171.9473
1202.305, 196.5684
1203.388, 129.4473
1204.471, 56.22852
1205.554, 281.1191
1206.637, 87.71875
1207.719, 335.3066
1208.802, 270.8828
1209.884, 108.4473
1210.966, 80.39844
1212.048, 59.93555
1213.130, 255.4590
1214.212, 161.0859
1215.293, 264.7422
1216.374, 182.3926
1217.456, 8.792969
1218.536, 114.7168
1219.617, 222.2129
1220.698, 121.6992
1221.778, 55.17383
1222.859, 300.0195
1223.939, 6.531250
1225.019, 72.26172
1226.099, 304.6738
1227.178, 9.787109
1228.258, 50.12305
1229.337, 218.4961
1230.417, 214.9961
1231.496, 264.6289
1232.574, 215.7012
1233.653, 256.0273
1234.732, 79.86328
1235.810, 187.1680
1236.888, 104.4629
1237.966, 219.8359
1239.044, 182.1055
1240.122, 4.632813
1241.199, 318.6055
1242.277, 338.6621
1243.354, 167.8750
1244.431, 202.0762
1245.508, 104.6992
1246.585, 339.8828
1247.661, 196.2070
1248.738, 118.4414
1249.814, 161.6094
1250.890, 31.76367
1251.966, 20.90234
1253.042, 17.06445
1254.117, 28.66992
1255.193, 18.45898
1256.268, 1.669922
1257.343, 9.347656
1258.418, 118.3477
1259.493, 205.3379
1260.567, 225.3125
1261.642, 254.2754
1262.716, 356.2305
1263.790, 235.7285
1264.864, 218.6582
1265.938, 298.8496
1267.011, 144.5781
1268.085, 168.6016
1269.158, 63.44141
1270.231, 182.2832
1271.304, 165.1504
1272.377, 145.8652
1273.450, 170.7773
1274.522, 113.7422
1275.594, 146.7441
1276.666, 118.6465
1277.738, 121.6367
1278.810, 108.5000
1279.882, 120.4707
1280.953, 105.0918
1282.025, 136.8242
1283.096, 83.73633
1284.167, 26.20312
1285.238, 20.49023
1286.308, 91.16992
1287.379, 207.3984
1288.449, 87.06641
1289.519, 187.6465
1290.589, 96.66797
1291.659, 13.70703
1292.729, 129.1855
1293.798, 62.97852
1294.868, 284.5000
1295.937, 23.05469
1297.006, 127.1367
1298.075, 86.11719
1299.143, 138.3359
