##NAMES=Calcite
##RRUFFID=R050048
##IDEAL CHEMISTRY=CaCO_3_
##LOCALITY=Magdalena, New Mexico, USA
##OWNER=RRUFF
##SOURCE=University of Arizona Mineral Museum
##DESCRIPTION=Colorless massive
##STATUS=The identification of this mineral has been confirmed by X-ray diffraction and chemical analysis
##URL=rruff.info/R050048
##MEASURED CHEMISTRY=(Ca_0.99_Zn_0.01_)CO_3_
##PIN_ID=L00439
##ORIENTATION=Laser parallel to -a* (-1 0 0). Fiducial mark perpendicular to laser is parallel to -c [0 0 -1]
116.256, 0.000
117.653, 64.384
119.050, 2.333
120.447, 27.763
121.843, 30.392
123.240, 61.664
124.636, 74.979
126.031, 88.923
127.427, 169.195
128.822, 91.572
130.217, 181.884
131.612, 93.995
133.006, 105.799
134.400, 168.207
135.794, 158.149
137.188, 234.568
138.581, 206.415
139.975, 275.646
141.368, 370.224
142.760, 391.116
144.153, 487.292
145.545, 692.730
146.937, 925.406
148.329, 1132.303
149.720, 1545.402
151.112, 1957.690
152.503, 2295.153
153.893, 2466.781
155.284, 2441.567
156.674, 2242.511
158.064, 1757.602
159.454, 1299.826
160.843, 962.168
162.233, 719.619
163.622, 474.173
165.011, 394.823
166.399, 334.563
167.787, 261.386
169.175, 188.288
170.563, 143.267
171.951, 122.320
173.338, 107.445
174.725, 102.638
176.112, 116.893
177.499, 31.209
178.885, 113.582
180.271, 50.009
181.657, 5.491
183.043, 86.021
184.428, 55.599
185.813, 49.232
187.198, 28.908
188.583, 78.630
189.967, 20.394
191.351, 55.246
192.735, 35.196
194.119, 48.208
195.502, 102.357
196.885, 36.546
198.268, 91.757
199.651, 67.975
201.033, 123.167
202.415, 64.340
203.797, 110.504
205.179, 61.665
206.561, 76.844
207.942, 110.043
209.323, 105.280
210.703, 78.539
212.084, 26.803
213.464, 56.076
214.844, 122.357
216.224, 72.648
217.603, 62.949
218.983, 90.266
220.362, 75.608
221.741, 67.975
223.119, 25.365
224.497, 73.782
225.875, 68.226
227.253, 99.758
228.631, 76.257
230.008, 107.766
231.385, 96.284
232.762, 97.811
234.139, 104.347
235.515, 88.892
236.891, 139.446
238.267, 112.009
239.643, 120.580
241.018, 187.164
242.393, 139.756
243.768, 241.361
245.143, 193.023
246.517, 222.647
247.891, 246.278
249.265, 254.916
250.639, 283.562
252.012, 271.213
253.386, 309.325
254.759, 347.988
256.131, 450.666
257.504, 499.348
258.876, 550.050
260.248, 559.092
261.620, 626.800
262.991, 786.514
264.363, 874.760
265.734, 989.461
267.104, 1219.872
268.475, 1388.066
269.845, 1623.734
271.215, 1989.405
272.585, 2425.227
273.955, 2943.233
275.324, 3605.868
276.693, 4436.507
278.062, 5188.278
279.431, 5931.925
280.799, 6344.574
282.167, 6390.217
283.535, 5949.739
284.903, 5044.143
286.270, 4273.905
287.638, 3367.760
289.005, 2652.694
290.371, 2067.698
291.738, 1616.762
293.104, 1348.881
294.470, 1009.077
295.836, 863.292
297.201, 728.545
298.567, 590.120
299.932, 501.454
301.296, 479.818
302.661, 394.177
304.025, 357.782
305.389, 366.045
306.753, 294.516
308.117, 289.014
309.480, 294.532
310.843, 181.070
312.206, 211.627
313.569, 178.201
314.931, 177.806
316.293, 183.427
317.655, 120.064
319.017, 137.934
320.378, 124.596
321.740, 166.633
323.101, 69.656
324.461, 83.353
325.822, 99.581
327.182, 167.300
328.542, 51.169
329.902, 62.548
331.261, 60.293
332.621, 63.045
333.980, 96.271
335.339, 32.040
336.697, 4.186
338.056, 77.204
339.414, 19.998
340.772, 74.796
342.129, 44.600
343.487, 47.408
344.844, 26.222
346.201, 10.041
347.557, 20.235
348.914, 45.691
350.270, 27.521
351.626, 58.355
352.982, 45.192
354.337, 51.032
355.693, 47.874
357.048, 13.719
358.402, 69.566
359.757, 82.414
361.111, 50.262
362.465, 12.502
363.819, 64.364
365.173, 4.228
366.526, 32.092
367.879, 33.958
369.232, 23.610
370.585, 7.478
371.937, 2.651
373.290, 40.222
374.642, 22.094
375.993, 44.966
377.345, 36.838
378.696, 70.711
380.047, 19.583
381.398, 29.455
382.748, 20.331
384.099, 66.207
385.449, 77.083
386.799, 39.264
388.148, 13.862
389.497, 4.038
390.847, 44.908
392.196, 44.482
393.544, 28.349
394.893, 23.214
396.241, 8.078
397.589, 38.362
398.936, 19.222
400.284, 9.920
401.631, 34.935
402.978, 27.787
404.325, 20.637
405.672, 64.485
407.018, 38.330
408.364, 39.820
409.710, 6.989
411.055, 5.120
412.401, 15.944
413.746, 20.034
415.091, 30.147
416.435, 0.340
417.780, 8.568
419.124, 44.250
420.468, 4.032
421.812, 2.813
423.155, 11.588
424.498, 80.641
425.842, 8.107
427.184, 38.161
428.527, 80.493
429.869, 15.201
431.211, 70.385
432.553, 71.070
433.895, 32.752
435.236, 26.025
436.577, 0.332
437.918, 36.306
439.259, 34.143
440.599, 22.708
441.940, 61.335
443.280, 27.959
444.619, 19.585
445.959, 25.211
447.298, 24.869
448.637, 32.506
449.976, 22.143
451.315, 21.670
452.653, 35.416
453.991, 11.050
455.329, 11.316
456.667, 7.307
458.004, 47.926
459.341, 30.456
460.678, 9.861
462.015, 48.227
463.352, 8.192
464.688, 15.407
466.024, 27.973
467.360, 71.535
468.695, 47.059
470.031, 83.615
471.366, 53.166
472.701, 51.714
474.035, 42.258
475.370, 75.176
476.704, 53.711
478.038, 22.242
479.372, 10.768
480.705, 49.287
482.038, 7.801
483.371, 8.680
484.704, 75.856
486.037, 5.354
487.369, 64.902
488.701, 4.616
490.033, 3.858
491.365, 85.320
492.696, 80.777
494.027, 24.769
495.358, 54.809
496.689, 52.238
498.019, 9.967
499.350, 63.438
500.680, 73.836
502.009, 45.228
503.339, 85.614
504.668, 130.010
505.997, 60.539
507.326, 133.907
508.655, 53.281
509.983, 59.636
511.311, 41.985
512.639, 52.328
513.967, 60.812
515.295, 70.000
516.622, 100.396
517.949, 73.742
519.276, 114.061
520.602, 127.372
521.929, 105.506
523.255, 54.689
524.581, 78.333
525.906, 90.613
527.232, 95.892
528.557, 10.163
529.882, 120.421
531.207, 53.697
532.531, 74.904
533.855, 90.141
535.179, 51.370
536.503, 79.592
537.827, 126.845
539.150, 78.052
540.473, 71.254
541.796, 62.456
543.119, 115.643
544.441, 96.008
545.764, 29.180
547.086, 106.341
548.407, 49.121
549.729, 110.268
551.050, 16.407
552.371, 75.532
553.692, 79.649
555.013, 61.759
556.333, 1.862
557.653, 118.946
558.973, 67.023
560.293, 90.800
561.612, 67.862
562.932, 84.917
564.251, 78.963
565.569, 110.002
566.888, 58.034
568.206, 71.011
569.524, 31.798
570.842, 67.805
572.160, 32.804
573.477, 102.792
574.795, 65.217
576.112, 73.160
577.428, 79.929
578.745, 72.039
580.061, 70.846
581.377, 75.794
582.693, 123.734
584.009, 108.778
585.324, 112.703
586.639, 11.644
587.954, 70.250
589.269, 16.138
590.583, 104.013
591.897, 122.883
593.212, 12.746
594.525, 147.596
595.839, 60.315
597.152, 32.152
598.465, 101.052
599.778, 95.879
601.091, 65.700
602.403, 50.513
603.716, 86.319
605.028, 48.006
606.339, 107.798
607.651, 87.584
608.962, 86.362
610.273, 82.133
611.584, 74.897
612.895, 79.637
614.205, 118.376
615.515, 92.117
616.825, 73.853
618.135, 89.298
619.444, 4.989
620.754, 114.713
622.063, 41.442
623.372, 65.130
624.680, 122.811
625.989, 3.485
627.297, 128.145
628.605, 53.798
629.912, 109.444
631.220, 49.085
632.527, 35.283
633.834, 150.315
635.141, 50.906
636.447, 159.487
637.754, 88.845
639.060, 74.416
640.366, 63.831
641.671, 41.052
642.977, 136.603
644.282, 35.626
645.587, 75.163
646.892, 149.252
648.196, 63.134
649.501, 50.650
650.805, 143.949
652.109, 27.989
653.412, 145.243
654.716, 3.265
656.019, 138.607
657.322, 83.076
658.625, 98.539
659.927, 61.996
661.230, 41.446
662.532, 26.890
663.834, 110.326
665.135, 41.756
666.437, 147.180
667.738, 62.598
669.039, 78.010
670.340, 61.416
671.640, 41.815
672.940, 30.209
674.241, 39.067
675.540, 43.456
676.840, 65.013
678.139, 34.389
679.439, 24.631
680.738, 17.710
682.036, 114.042
683.335, 80.478
684.633, 53.799
685.931, 70.328
687.229, 1.637
688.527, 96.931
689.824, 76.221
691.121, 59.505
692.418, 70.783
693.715, 31.056
695.012, 115.323
696.308, 78.823
697.604, 1.079
698.900, 154.320
700.195, 21.557
701.491, 109.786
702.786, 143.705
704.081, 98.923
705.376, 174.111
706.670, 307.650
707.964, 382.821
709.259, 684.021
710.552, 990.216
711.846, 1251.407
713.139, 1179.629
714.433, 954.811
715.726, 486.986
717.018, 394.159
718.311, 311.328
719.603, 148.491
720.895, 100.651
722.187, 150.805
723.479, 48.948
724.770, 85.190
726.061, 58.060
727.352, 114.208
728.643, 53.083
729.934, 105.067
731.224, 60.209
732.514, 66.347
733.804, 49.496
735.094, 101.640
736.383, 71.780
737.672, 95.916
738.961, 39.048
740.250, 90.198
741.539, 25.344
742.827, 36.561
744.115, 127.709
745.403, 63.359
746.691, 83.619
747.978, 117.757
749.265, 37.276
750.552, 102.408
751.839, 67.537
753.126, 14.815
754.412, 100.937
755.698, 38.056
756.984, 84.172
758.270, 41.283
759.555, 19.607
760.840, 83.463
762.125, 41.550
763.410, 72.635
764.695, 72.718
765.979, 94.797
767.263, 92.484
768.547, 77.949
769.831, 74.025
771.114, 60.099
772.398, 31.170
773.681, 46.452
774.964, 22.828
776.246, 58.907
777.529, 85.959
778.811, 81.038
780.093, 100.117
781.375, 24.228
782.656, 96.515
783.937, 60.587
785.219, 89.657
786.499, 80.726
787.780, 34.414
789.060, 87.480
790.341, 70.544
791.621, 38.607
792.901, 191.670
794.180, 47.268
795.459, 201.767
796.739, 69.773
798.017, 21.812
799.296, 198.820
800.575, 24.141
801.853, 14.888
803.131, 88.919
804.409, 10.051
805.686, 56.483
806.964, 25.633
808.241, 82.383
809.518, 97.363
810.795, 10.385
812.071, 67.406
813.347, 14.464
814.623, 77.485
815.899, 77.320
817.175, 78.356
818.450, 72.377
819.726, 102.386
821.001, 36.407
822.275, 148.448
823.550, 87.470
824.824, 114.491
826.098, 41.506
827.372, 24.544
828.646, 97.248
829.920, 0.254
831.193, 85.262
832.466, 60.231
833.739, 59.562
835.011, 119.217
836.284, 19.771
837.556, 38.232
838.828, 73.238
840.100, 15.247
841.371, 103.231
842.642, 28.409
843.914, 92.421
845.184, 38.435
846.455, 97.450
847.726, 98.431
848.996, 3.548
850.266, 118.472
851.536, 58.486
852.805, 19.509
854.075, 81.348
855.344, 31.375
856.613, 12.407
857.881, 33.471
859.150, 79.475
860.418, 22.513
861.686, 61.556
862.954, 17.602
864.222, 127.650
865.489, 10.299
866.756, 129.756
868.023, 78.816
869.290, 45.878
870.557, 129.942
871.823, 93.010
873.089, 31.080
874.355, 175.154
875.621, 57.231
876.886, 1.689
878.152, 116.393
879.417, 95.479
880.682, 111.568
881.946, 20.338
883.211, 30.099
884.475, 51.844
885.739, 7.939
887.003, 34.039
888.266, 58.147
889.530, 90.258
890.793, 66.374
892.056, 78.492
893.318, 54.614
894.581, 37.739
895.843, 90.876
897.105, 78.018
898.367, 3.835
899.629, 118.313
900.890, 49.468
902.152, 96.628
903.413, 15.792
904.673, 32.041
905.934, 45.368
907.194, 57.220
908.454, 73.388
909.714, 49.562
910.974, 40.739
912.234, 46.111
913.493, 45.220
914.752, 41.411
916.011, 35.606
917.270, 39.456
918.528, 42.465
919.786, 45.207
921.044, 53.341
922.302, 55.646
923.560, 53.868
924.817, 48.095
926.074, 34.326
927.331, 86.569
928.588, 112.828
929.844, 93.090
931.101, 95.359
932.357, 99.543
933.613, 9.086
934.868, 94.199
936.124, 88.489
937.379, 73.785
938.634, 155.085
939.889, 93.405
941.144, 76.730
942.398, 85.062
943.652, 14.398
944.906, 231.739
946.160, 66.874
947.414, 95.226
948.667, 143.583
949.920, 2.054
951.173, 155.314
952.426, 84.987
953.678, 40.367
954.931, 133.754
956.183, 20.640
957.435, 103.754
958.686, 83.398
959.938, 17.196
961.189, 78.218
962.440, 23.639
963.691, 2.936
964.941, 174.496
966.192, 7.933
967.442, 62.375
968.692, 77.825
969.942, 4.281
971.191, 113.742
972.441, 1.792
973.690, 109.681
974.939, 45.159
976.187, 55.643
977.436, 66.134
978.684, 53.837
979.932, 34.652
981.180, 81.974
982.428, 22.494
983.675, 94.021
984.922, 71.564
986.169, 2.116
987.416, 47.565
988.663, 1.146
989.909, 41.732
991.155, 67.325
992.401, 11.048
993.647, 88.584
994.893, 49.223
996.138, 69.870
997.383, 46.953
998.628, 147.615
999.873, 145.045
1001.117, 90.721
1002.362, 175.408
1003.606, 108.102
1004.850, 27.802
1006.093, 157.538
1007.337, 170.279
1008.580, 128.029
1009.823, 139.786
1011.066, 132.550
1012.308, 225.333
1013.551, 269.121
1014.793, 130.916
1016.035, 285.259
1017.277, 210.304
1018.518, 199.119
1019.760, 212.940
1021.001, 152.767
1022.242, 230.601
1023.483, 242.562
1024.723, 38.408
1025.964, 329.264
1027.204, 136.038
1028.444, 219.906
1029.683, 292.784
1030.923, 117.667
1032.162, 260.720
1033.401, 208.624
1034.640, 84.532
1035.879, 282.449
1037.117, 81.521
1038.355, 234.495
1039.593, 158.428
1040.831, 128.367
1042.069, 246.312
1043.306, 26.264
1044.544, 251.220
1045.781, 248.191
1047.017, 107.288
1048.254, 373.151
1049.490, 241.264
1050.726, 156.264
1051.962, 309.268
1053.198, 462.277
1054.434, 340.002
1055.669, 273.021
1056.904, 242.046
1058.139, 349.076
1059.374, 286.279
1060.608, 365.319
1061.843, 395.372
1063.077, 506.547
1064.311, 570.620
1065.544, 641.699
1066.778, 489.786
1068.011, 595.876
1069.244, 525.974
1070.477, 503.075
1071.710, 695.181
1072.942, 730.407
1074.174, 1169.551
1075.406, 1369.698
1076.638, 1896.364
1077.870, 2890.532
1079.101, 4414.704
1080.332, 7738.881
1081.563, 13473.064
1082.794, 26287.145
1084.025, 46061.352
1085.255, 47195.570
1086.485, 29699.805
1087.715, 14804.023
1088.945, 6888.245
1090.175, 3762.707
1091.404, 2101.937
1092.633, 1238.171
1093.862, 995.408
1095.091, 687.663
1096.319, 625.920
1097.548, 532.181
1098.776, 393.414
1100.004, 401.826
1101.231, 328.107
1102.459, 235.836
1103.686, 252.053
1104.913, 179.902
1106.140, 232.207
1107.367, 242.513
1108.593, 221.571
1109.819, 284.881
1111.046, 173.194
1112.271, 129.474
1113.497, 197.791
1114.722, 69.110
1115.948, 206.467
1117.173, 160.790
1118.398, 137.114
1119.622, 225.463
1120.847, 121.771
1122.071, 220.101
1123.295, 186.431
1124.519, 80.763
1125.742, 197.899
1126.966, 190.435
1128.189, 76.777
1129.412, 205.331
1130.635, 188.675
1131.857, 103.085
1133.080, 187.596
1134.302, 35.943
1135.524, 178.007
1136.746, 182.481
1137.967, 81.833
1139.188, 132.790
1140.410, 74.975
1141.631, 55.724
1142.851, 254.503
1144.072, 18.147
1145.292, 171.679
1146.512, 150.494
1147.732, 117.838
1148.952, 172.586
1150.172, 45.927
1151.391, 88.353
1152.610, 156.634
1153.829, 39.970
1155.048, 129.702
1156.266, 137.573
1157.484, 134.903
1158.702, 133.409
1159.920, 36.733
1161.138, 78.262
1162.356, 123.047
1163.573, 7.636
1164.790, 136.742
1166.007, 78.312
1167.224, 95.616
1168.440, 116.394
1169.656, 2.309
1170.872, 166.983
1172.088, 146.312
1173.304, 56.596
1174.519, 190.170
1175.735, 23.563
1176.950, 106.835
1178.165, 162.987
1179.379, 172.378
1180.594, 100.642
1181.808, 97.603
1183.022, 24.144
1184.236, 19.005
1185.449, 47.625
1186.663, 47.853
1187.876, 124.357
1189.089, 83.886
1190.302, 189.097
1191.515, 96.447
1192.727, 8.871
1193.939, 198.064
1195.151, 12.125
1196.363, 80.307
1197.575, 50.590
1198.786, 165.800
1199.997, 71.962
1201.208, 112.292
1202.419, 59.659
1203.630, 258.808
1204.840, 7.368
1206.051, 65.501
1207.261, 205.629
1208.470, 26.323
1209.680, 144.436
1210.889, 222.258
1212.099, 132.764
1213.308, 246.855
1214.516, 141.620
1215.725, 131.698
1216.933, 188.769
1218.142, 45.108
1219.350, 201.163
1220.557, 324.216
1221.765, 32.069
1222.972, 259.002
1224.180, 109.295
1225.387, 139.687
1226.593, 240.812
1227.800, 56.408
1229.006, 215.537
1230.213, 241.503
1231.419, 74.735
1232.624, 147.688
1233.830, 213.634
1235.035, 27.009
1236.241, 267.947
1237.446, 127.103
1238.650, 172.033
1239.855, 166.957
1241.059, 108.004
1242.264, 226.919
1243.468, 148.829
1244.671, 55.955
1245.875, 325.855
1247.078, 12.752
1248.282, 148.641
1249.485, 265.525
1250.687, 91.582
1251.890, 243.455
1253.092, 65.300
1254.295, 108.274
1255.497, 260.109
1256.699, 167.919
1257.900, 139.693
1259.102, 176.460
1260.303, 91.281
1261.504, 233.033
1262.705, 261.771
1263.905, 96.725
1265.106, 261.410
1266.306, 104.082
1267.506, 124.729
1268.706, 167.368
1269.905, 7.997
1271.105, 112.763
1272.304, 236.376
1273.503, 47.021
1274.702, 226.617
1275.900, 93.172
1277.099, 69.895
1278.297, 246.419
1279.495, 38.069
1280.693, 81.416
1281.891, 141.891
1283.088, 67.646
1284.285, 126.768
1285.482, 35.161
1286.679, 32.542
1287.876, 207.912
1289.072, 28.841
1290.268, 30.185
1291.464, 177.518
1292.660, 36.820
1293.856, 173.104
1295.051, 96.372
1296.247, 87.370
1297.442, 165.791
1298.637, 39.918
1299.831, 28.030
1301.026, 208.124
1302.220, 26.834
1303.414, 231.180
1304.608, 70.180
1305.802, 35.162
1306.995, 125.128
1308.188, 104.841
1309.381, 58.778
1310.574, 149.687
1311.767, 35.580
1312.960, 157.454
1314.152, 137.192
1315.344, 10.035
1316.536, 225.857
1317.728, 56.664
1318.919, 8.453
1320.110, 203.219
1321.301, 5.030
1322.492, 93.697
1323.683, 164.406
1324.874, 23.099
1326.064, 184.771
1327.254, 138.276
1328.444, 56.868
1329.634, 193.490
1330.823, 59.095
1332.013, 55.683
1333.202, 199.251
1334.391, 9.195
1335.580, 70.331
1336.768, 217.721
1337.956, 4.784
1339.145, 165.571
1340.333, 98.032
1341.520, 114.479
1342.708, 317.911
1343.895, 84.332
1345.083, 73.739
1346.270, 281.134
1347.456, 44.517
1348.643, 172.718
1349.829, 166.076
1351.016, 15.577
1352.202, 260.643
1353.387, 23.958
1354.573, 46.263
1355.759, 176.559
1356.944, 25.996
1358.129, 207.275
1359.314, 124.550
1360.498, 90.181
1361.683, 229.971
1362.867, 172.587
1364.051, 16.178
1365.235, 110.546
1366.419, 60.774
1367.602, 47.997
1368.785, 92.073
1369.968, 47.867
1371.151, 86.993
1372.334, 144.038
1373.517, 61.735
1374.699, 282.988
1375.881, 184.012
1377.063, 45.256
1378.245, 330.485
1379.426, 73.701
1380.608, 213.748
1381.789, 270.452
1382.970, 97.611
1384.150, 194.743
1385.331, 170.733
1386.511, 10.846
1387.691, 368.943
1388.871, 241.986
1390.051, 143.031
1391.231, 364.085
1392.410, 90.127
1393.589, 220.218
1394.768, 400.267
1395.947, 97.133
1397.126, 254.863
1398.304, 239.122
1399.483, 153.104
1400.661, 385.378
1401.838, 105.589
1403.016, 119.116
1404.194, 291.305
1405.371, 67.880
1406.548, 179.486
1407.725, 254.810
1408.901, 187.098
1410.078, 243.290
1411.254, 246.109
1412.430, 74.097
1413.606, 285.854
1414.782, 153.257
1415.958, 94.162
1417.133, 361.484
1418.308, 62.049
1419.483, 234.146
1420.658, 337.354
1421.832, 124.156
1423.007, 259.961
1424.181, 301.697
1425.355, 123.156
1426.529, 487.298
1427.702, 439.220
1428.876, 494.237
1430.049, 883.676
1431.222, 855.021
1432.395, 977.054
1433.567, 844.586
1434.740, 575.544
1435.912, 601.225
1437.084, 478.091
1438.256, 291.465
1439.428, 460.048
1440.599, 171.940
1441.770, 174.429
1442.942, 393.485
1444.112, 175.228
1445.283, 210.459
1446.454, 311.727
1447.624, 141.330
1448.794, 389.052
1449.964, 303.960
1451.134, 80.062
1452.303, 358.745
1453.473, 234.928
1454.642, 201.479
1455.811, 444.666
1456.980, 234.234
1458.148, 188.640
1459.317, 311.123
1460.485, 68.047
1461.653, 310.628
1462.821, 325.182
1463.989, 62.242
1465.156, 360.461
1466.323, 274.315
1467.490, 114.667
1468.657, 332.947
1469.824, 140.190
1470.991, 113.466
1472.157, 329.648
1473.323, 57.745
1474.489, 238.894
1475.655, 255.998
1476.820, 54.506
1477.986, 351.063
1479.151, 220.907
1480.316, 143.744
1481.481, 237.598
1482.645, 158.498
1483.810, 69.472
1484.974, 360.489
1486.138, 79.549
1487.302, 176.668
1488.465, 187.843
1489.629, 41.103
1490.792, 239.474
1491.955, 193.949
1493.118, 78.554
1494.281, 224.320
1495.443, 116.271
1496.606, 13.383
1497.768, 327.658
1498.930, 64.121
1500.091, 219.801
1501.253, 160.734
1502.414, 13.036
1503.575, 158.536
1504.736, 126.503
1505.897, 56.185
1507.058, 282.656
1508.218, 35.921
1509.379, 27.783
1510.539, 193.102
1511.698, 0.144
1512.858, 0.000
##END=



