##NAMES=Calcite
##RRUFFID=R050127
##IDEAL CHEMISTRY=CaCO_3_
##LOCALITY=Rodeo, Durango, Mexico
##OWNER=RRUFF
##SOURCE=Dave Bunk Minerals
##DESCRIPTION=Group of colorless crystals
##STATUS=The identification of this mineral has been confirmed by X-ray diffraction and chemical analysis
##URL=rruff.info/R050127
##MEASURED CHEMISTRY=Ca_1.00_CO_3_
##PIN_ID=M00388
##ORIENTATION=Laser parallel to a* (1 0 0). Fiducial mark perpendicular to laser is parallel to -c [0 0 -1]
109.5120, 0.0000000E+00
110.7440, 8.159180
111.9760, 15.62280
113.2080, 38.01855
114.4400, 7.393799
115.6710, 50.44629
116.9030, 34.86084
118.1340, 51.35815
119.3650, 60.57520
120.5960, 32.23584
121.8270, 75.12622
123.0580, 116.0801
124.2880, 92.95703
125.5190, 160.6455
126.7490, 242.0527
127.9790, 309.1035
129.2090, 400.7334
130.4390, 475.8823
131.6680, 527.4990
132.8980, 659.5483
134.1270, 868.9893
135.3560, 1040.814
136.5850, 1423.960
137.8140, 1814.403
139.0430, 2373.124
140.2710, 2710.106
141.5000, 2915.339
142.7280, 3085.804
143.9560, 3141.495
145.1840, 3267.394
146.4120, 3462.488
147.6390, 3770.761
148.8670, 4133.194
150.0940, 4739.772
151.3210, 5302.491
152.5490, 5919.334
153.7750, 6092.298
155.0020, 5999.378
156.2290, 5374.805
157.4550, 4703.097
158.6810, 3789.491
159.9080, 2995.569
161.1340, 2296.149
162.3590, 1703.826
163.5850, 1197.597
164.8110, 880.4595
166.0360, 688.4092
167.2610, 574.4434
168.4860, 459.5591
169.7110, 398.8076
170.9360, 287.1680
172.1610, 292.5962
173.3850, 203.0894
174.6100, 168.6470
175.8340, 212.3379
177.0580, 147.1035
178.2820, 70.91943
179.5050, 146.7842
180.7290, 37.69629
181.9520, 121.6538
183.1760, 73.64062
184.3990, 81.60645
185.6220, 39.56250
186.8450, 55.51416
188.0670, 74.47168
189.2900, 69.43848
190.5120, 115.4189
191.7340, 122.7954
192.9560, 183.4336
194.1780, 131.4727
195.4000, 164.5347
196.6220, 103.6206
197.8430, 70.74658
199.0640, 23.92041
200.2860, 81.14453
201.5070, 10.60742
202.7270, 149.6704
203.9480, 114.9941
205.1690, 45.34229
206.3890, 91.73340
207.6090, 77.19238
208.8290, 21.31201
210.0490, 31.22803
211.2690, 86.80078
212.4890, 62.39600
213.7080, 24.03711
214.9280, 40.77783
216.1470, 28.35449
217.3660, 29.32715
218.5850, 45.13379
219.8030, 58.95898
221.0220, 75.81787
222.2400, 68.71191
223.4590, 114.1172
224.6770, 185.5562
225.8950, 169.5015
227.1120, 138.4644
228.3300, 103.0742
229.5480, 73.93506
230.7650, 64.93066
231.9820, 156.9448
233.1990, 103.9775
234.4160, 116.0239
235.6330, 200.0845
236.8490, 165.1577
238.0660, 256.2437
239.2820, 241.5103
240.4980, 261.0884
241.7140, 242.2861
242.9300, 266.3794
244.1460, 232.4839
245.3610, 415.5996
246.5770, 448.7251
247.7920, 408.8613
249.0070, 588.0068
250.2220, 538.1621
251.4370, 597.3262
252.6510, 717.4990
253.8660, 770.6807
255.0800, 878.8940
256.2940, 971.5273
257.5080, 1061.911
258.7220, 1248.461
259.9360, 1366.431
261.1490, 1632.001
262.3630, 1743.986
263.5760, 1975.069
264.7890, 2418.238
266.0020, 2809.486
267.2150, 3285.805
268.4270, 3949.190
269.6400, 4617.637
270.8520, 5561.138
272.0640, 6606.691
273.2760, 7641.294
274.4880, 8576.943
275.7000, 9972.636
276.9120, 10874.37
278.1230, 11875.15
279.3340, 12232.96
280.5450, 12264.82
281.7560, 11660.70
282.9670, 10657.61
284.1780, 9359.557
285.3880, 7880.514
286.5980, 6520.536
287.8090, 5193.413
289.0190, 4095.701
290.2290, 3275.771
291.4380, 2606.864
292.6480, 2095.978
293.8570, 1728.112
295.0670, 1391.699
296.2760, 1143.025
297.4850, 984.2236
298.6930, 911.4316
299.9020, 748.6562
301.1110, 638.1943
302.3190, 582.4536
303.5270, 568.9331
304.7350, 508.3555
305.9430, 479.6577
307.1510, 473.3213
308.3580, 276.6870
309.5660, 439.3838
310.7730, 329.2920
311.9800, 235.6606
313.1870, 335.0415
314.3940, 214.4561
315.6010, 216.8574
316.8070, 205.2334
318.0130, 189.3027
319.2200, 203.7349
320.4260, 40.17480
321.6310, 181.9536
322.8370, 171.7793
324.0430, 254.2412
325.2480, 93.76270
326.4540, 76.23877
327.6590, 30.72070
328.8640, 141.2090
330.0680, 82.70361
331.2730, 42.23193
332.4780, 82.77686
333.6820, 48.86182
334.8860, 17.08789
336.0900, 43.61328
337.2940, 102.1431
338.4980, 77.67871
339.7010, 17.22070
340.9050, 146.7676
342.1080, 32.31934
343.3110, 30.09912
344.5140, 101.8530
345.7170, 19.82373
346.9200, 35.66895
348.1220, 76.70117
349.3240, 92.86133
350.5270, 41.42725
351.7290, 76.42188
352.9310, 19.99512
354.1320, 84.93848
355.3340, 58.51758
356.5350, 2.099609
357.7370, 71.74805
358.9380, 68.33447
360.1390, 118.9224
361.3400, 97.51172
362.5400, 80.10254
363.7410, 48.71289
364.9410, 31.25537
366.1410, 36.90088
367.3410, 6.139160
368.5410, 26.54346
369.7410, 34.95215
370.9400, 22.36523
372.1400, 31.03125
373.3390, 108.7935
374.5380, 5.352539
375.7370, 38.91162
376.9360, 124.4712
378.1350, 20.03076
379.3330, 86.58984
380.5310, 49.14893
381.7300, 100.7075
382.9280, 90.63721
384.1260, 17.82324
385.3230, 83.36816
386.5210, 98.90381
387.7180, 117.4937
388.9160, 90.02783
390.1130, 15.56055
391.3100, 71.09326
392.5060, 203.6265
393.7030, 81.15771
394.9000, 86.68799
396.0960, 169.2178
397.2920, 56.52783
398.4880, 153.1226
399.6840, 99.64844
400.8800, 26.18213
402.0750, 14.72168
403.2710, 4.301758
404.4660, 13.72070
405.6610, 18.27637
406.8560, 41.83594
408.0510, 72.42578
409.2450, 64.66504
410.4400, 106.5630
411.6340, 60.13477
412.8280, 87.70947
414.0220, 90.28564
415.2160, 69.86328
416.4100, 15.44287
417.6030, 77.23438
418.7970, 52.81445
419.9900, 13.39600
421.1830, 41.29688
422.3760, 16.87744
423.5690, 14.49170
424.7610, 76.08838
425.9540, 54.66797
427.1460, 52.24707
428.3380, 29.17578
429.5300, 8.383301
430.7220, 9.060547
431.9140, 15.51318
433.1050, 174.0210
434.2970, 23.55322
435.4880, 181.0835
436.6790, 116.7090
437.8700, 0.2353520
439.0610, 12.24512
440.2510, 12.26123
441.4420, 81.76465
442.6320, 30.26562
443.8220, 13.34570
445.0120, 31.13770
446.2020, 27.38135
447.3910, 25.92090
448.5810, 63.96387
449.7700, 48.52148
450.9600, 13.04688
452.1490, 5.113281
453.3370, 1.522461
454.5260, 77.92236
455.7150, 24.32178
456.9030, 16.71533
458.0910, 104.1045
459.2800, 51.92334
460.4670, 62.57568
461.6550, 47.72852
462.8430, 27.02832
464.0300, 8.324707
465.2180, 7.613770
466.4050, 30.89502
467.5920, 18.17188
468.7790, 86.54297
469.9650, 103.8105
471.1520, 123.0742
472.3380, 41.33398
473.5250, 34.41016
474.7110, 20.81543
475.8970, 36.03564
477.0820, 12.25098
478.2680, 101.4595
479.4540, 26.66357
480.6390, 85.86328
481.8240, 39.05859
483.0090, 62.24902
484.1940, 97.43457
485.3780, 15.61670
486.5630, 3.209473
487.7470, 12.05127
488.9320, 45.59082
490.1160, 22.73047
491.3000, 65.69824
492.4830, 112.8271
493.6670, 8.952637
494.8500, 45.08154
496.0340, 6.206543
497.2170, 33.32178
498.4000, 66.43213
499.5820, 21.53809
500.7650, 99.63721
501.9480, 63.73193
503.1300, 121.8213
504.3120, 76.90527
505.4940, 25.99219
506.6760, 32.24365
507.8580, 70.14893
509.0390, 13.22021
510.2210, 87.13379
511.4020, 146.2812
512.5830, 152.0259
513.7640, 37.32666
514.9450, 105.2256
516.1250, 138.2705
517.3060, 133.3110
518.4860, 276.3467
519.6660, 150.3770
520.8460, 84.40234
522.0260, 89.42236
523.2060, 133.4380
524.3850, 146.4478
525.5650, 134.4517
526.7440, 39.45117
527.9230, 68.44531
529.1020, 25.43506
530.2810, 50.41797
531.4590, 125.3960
532.6380, 61.36865
533.8160, 55.40137
534.9940, 196.3638
536.1720, 60.32129
537.3500, 131.2734
538.5270, 28.77979
539.7050, 27.13867
540.8820, 78.22949
542.0590, 164.1367
543.2360, 154.0381
544.4130, 45.93408
545.5900, 62.41602
546.7660, 74.42773
547.9430, 43.26611
549.1190, 32.13916
550.2950, 48.96631
551.4710, 40.99609
552.6470, 55.06494
553.8220, 63.41406
554.9980, 62.21826
556.1730, 80.01709
557.3480, 39.81055
558.5230, 21.59814
559.6980, 100.3774
560.8730, 54.15186
562.0470, 21.08008
563.2220, 81.66260
564.3960, 34.39893
565.5700, 38.12939
566.7440, 95.85352
567.9170, 55.57227
569.0910, 112.2847
570.2640, 64.00586
571.4380, 102.6836
572.6110, 173.5234
573.7840, 80.97363
574.9570, 88.65820
576.1290, 143.3379
577.3020, 26.01172
578.4740, 110.6792
579.6460, 147.9077
580.8180, 143.4111
581.9900, 55.05518
583.1620, 90.70312
584.3330, 1.655273
585.5040, 72.68066
586.6760, 138.3047
587.8470, 116.2109
589.0180, 3.728516
590.1880, 18.37109
591.3590, 99.00732
592.5290, 2.727051
593.7000, 120.5439
594.8700, 88.61182
596.0400, 34.37549
597.2090, 119.9829
598.3790, 58.56250
599.5490, 0.8105470
600.7180, 160.8145
601.8870, 45.76074
603.0560, 210.3604
604.2250, 107.9702
605.3940, 111.2603
606.5620, 31.50586
607.7300, 107.1201
608.8990, 10.67773
610.0670, 90.28174
611.2350, 84.88232
612.4020, 57.51416
613.5700, 148.1782
614.7370, 120.7368
615.9050, 135.2803
617.0720, 150.8589
618.2390, 148.3667
619.4060, 128.8125
620.5720, 164.3784
621.7390, 151.9414
622.9050, 153.5400
624.0710, 57.09521
625.2370, 174.6455
626.4030, 134.9697
627.5690, 72.31982
628.7340, 286.1011
629.9000, 161.1138
631.0650, 326.6147
632.2300, 295.1567
633.3950, 199.6953
634.5600, 228.0986
635.7240, 186.6152
636.8890, 302.5850
638.0530, 170.1709
639.2170, 284.7148
640.3810, 301.1641
641.5450, 116.6738
642.7080, 205.1797
643.8720, 205.6812
645.0350, 171.9648
646.1980, 156.4414
647.3610, 196.9326
648.5240, 94.41895
649.6870, 135.5371
650.8490, 171.0166
652.0120, 151.7998
653.1740, 79.28857
654.3360, 61.45361
655.4980, 88.95117
656.6600, 43.54248
657.8210, 82.03174
658.9830, 143.5171
660.1440, 163.9976
661.3050, 190.4741
662.4660, 186.8340
663.6270, 105.4155
664.7870, 103.8799
665.9480, 84.34033
667.1080, 66.17090
668.2680, 115.2476
669.4280, 91.63965
670.5880, 76.08350
671.7480, 143.5415
672.9070, 18.97656
674.0670, 98.40723
675.2260, 70.83398
676.3850, 108.2568
677.5440, 102.6753
678.7030, 61.51562
679.8610, 1.858887
681.0200, 85.26416
682.1780, 72.66504
683.3360, 64.06299
684.4940, 72.46533
685.6520, 79.96289
686.8090, 75.44629
687.9670, 18.83936
689.1240, 88.25928
690.2810, 73.64453
691.4380, 39.03516
692.5950, 86.42236
693.7520, 54.80518
694.9080, 84.18506
696.0650, 70.56152
697.2210, 193.9346
698.3770, 31.09180
699.5330, 190.5083
700.6880, 270.8716
701.8440, 230.9106
702.9990, 357.2671
704.1550, 586.5869
705.3100, 896.9336
706.4650, 1247.293
707.6190, 1412.650
708.7740, 1920.003
709.9290, 2508.487
711.0830, 2575.843
712.2370, 2521.200
713.3910, 1909.560
714.5450, 1547.916
715.6980, 1038.286
716.8520, 566.5552
718.0050, 494.9189
719.1580, 316.2817
720.3110, 186.0791
721.4640, 156.4409
722.6170, 114.7998
723.7700, 186.3838
724.9220, 37.74268
726.0740, 6.982422
727.2260, 103.3740
728.3780, 43.46094
729.5300, 126.6987
730.6810, 32.05469
731.8330, 149.4907
732.9840, 52.84717
734.1350, 5.203613
735.2860, 51.55322
736.4370, 98.90137
737.5880, 30.24609
738.7380, 104.0015
739.8880, 51.69678
741.0390, 99.54492
742.1890, 191.4053
743.3380, 80.42188
744.4880, 127.8481
745.6380, 56.60498
746.7870, 93.95947
747.9360, 96.21240
749.0850, 82.55859
750.2340, 39.90186
751.3830, 31.24072
752.5310, 50.57471
753.6800, 61.91797
754.8280, 116.2568
755.9760, 50.59229
757.1240, 27.92529
758.2720, 115.2529
759.4190, 107.8936
760.5670, 40.21338
761.7140, 138.5283
762.8610, 71.83984
764.0080, 102.1470
765.1550, 85.45117
766.3020, 127.7578
767.4480, 17.93115
768.5950, 44.36230
769.7410, 171.6519
770.8870, 78.93701
772.0330, 46.78174
773.1780, 87.46875
774.3240, 89.71631
775.4690, 35.96191
776.6140, 45.25732
777.7590, 192.4941
778.9040, 113.7280
780.0490, 69.95703
781.1940, 192.1826
782.3380, 22.59668
783.4820, 112.8633
784.6260, 242.0605
785.7700, 183.2539
786.9140, 86.50293
788.0580, 99.69043
789.2010, 7.542969
790.3450, 8.280273
791.4880, 3.117188
792.6310, 94.03516
793.7730, 32.18359
794.9160, 56.32617
796.0590, 144.4648
797.2010, 82.59961
798.3430, 126.7295
799.4850, 141.8555
800.6270, 126.9785
801.7690, 131.0967
802.9100, 129.2090
804.0520, 106.3184
805.1930, 100.4238
806.3340, 116.5254
807.4750, 137.6221
808.6160, 51.71484
809.7560, 127.8047
810.8970, 167.8672
812.0370, 59.94824
813.1770, 147.0234
814.3170, 193.0967
815.4570, 14.16504
816.5960, 185.2402
817.7360, 84.13184
818.8750, 123.2139
820.0140, 61.27734
821.1530, 160.4277
822.2920, 77.48340
823.4310, 37.55664
824.5690, 61.62305
825.7070, 44.64648
826.8460, 106.7061
827.9840, 209.5967
829.1220, 145.6484
830.2590, 136.6963
831.3970, 74.73926
832.5340, 133.9092
833.6710, 59.94531
834.8080, 231.9766
835.9450, 48.00586
837.0820, 144.0303
838.2190, 242.0508
839.3550, 90.07715
840.4910, 72.17383
841.6270, 159.2793
842.7630, 68.29395
843.8990, 141.3047
845.0350, 125.3115
846.1700, 33.31445
847.3060, 213.3115
848.4410, 72.30469
849.5760, 80.29492
850.7100, 107.2803
851.8450, 191.1553
852.9800, 116.1309
854.1140, 111.1055
855.2480, 102.0742
856.3820, 8.038086
857.5160, 131.9951
858.6500, 243.9473
859.7830, 37.89453
860.9170, 113.8418
862.0500, 129.2158
863.1830, 142.1914
864.3160, 27.05078
865.4480, 169.9082
866.5810, 172.7637
867.7130, 0.4052730
868.8460, 167.4375
869.9780, 157.2734
871.1100, 129.9561
872.2410, 70.78418
873.3730, 90.60938
874.5050, 81.40234
875.6360, 24.77832
876.7670, 26.98438
877.8980, 43.21582
879.0290, 45.81641
880.1590, 49.21680
881.2900, 7.911133
882.4200, 136.5967
883.5500, 172.2783
884.6800, 72.95605
885.8100, 114.6299
886.9400, 148.2617
888.0690, 140.8555
889.1990, 239.5166
890.3280, 249.1729
891.4570, 146.8252
892.5860, 257.4727
893.7140, 138.0283
894.8430, 9.666992
895.9710, 144.3008
897.1000, 61.88867
898.2280, 150.5137
899.3560, 112.1357
900.4830, 79.75195
901.6110, 76.57910
902.7380, 113.1875
903.8660, 96.31738
904.9930, 154.8916
906.1200, 169.4893
907.2460, 165.9365
908.3730, 114.3789
909.5000, 148.9980
910.6260, 71.58887
911.7520, 42.11230
912.8780, 141.6699
914.0040, 115.2500
915.1290, 151.8281
916.2550, 55.40234
917.3800, 169.9727
918.5050, 4.753906
919.6300, 120.3154
920.7550, 111.8740
921.8800, 37.42773
923.0040, 314.9775
924.1290, 51.47363
925.2530, 229.7617
926.3770, 153.2900
927.5010, 76.13965
928.6250, 50.65430
929.7480, 53.06738
930.8720, 75.57617
931.9950, 80.08203
933.1180, 84.58398
934.2410, 100.9414
935.3640, 59.57910
936.4860, 124.0732
937.6090, 102.5654
938.7310, 110.0518
939.8530, 66.53711
940.9750, 76.01953
942.0970, 155.4990
943.2180, 91.97461
944.3400, 100.4414
945.4610, 34.92383
946.5820, 113.4023
947.7030, 75.87891
948.8240, 242.3516
949.9450, 128.8311
951.0650, 145.1016
952.1860, 105.5762
953.3060, 40.04883
954.4260, 146.5176
955.5460, 29.01562
956.6650, 42.43066
957.7850, 173.8896
958.9040, 73.25977
960.0230, 175.7139
961.1420, 142.1201
962.2610, 25.41504
963.3800, 207.0312
964.4990, 41.47656
965.6170, 211.9189
966.7350, 9.359375
967.8530, 128.7959
968.9710, 62.22949
970.0890, 286.6621
971.2070, 123.0400
972.3240, 68.46680
973.4410, 46.89062
974.5580, 21.31152
975.6750, 46.26855
976.7920, 71.14062
977.9090, 156.5469
979.0250, 147.9512
980.1410, 206.3535
981.2580, 122.6299
982.3740, 155.0273
983.4890, 127.4238
984.6050, 51.81641
985.7200, 59.79297
986.8360, 62.56250
987.9510, 208.9150
989.0660, 170.2666
990.1810, 154.6152
991.2950, 213.5293
992.4100, 137.8740
993.5240, 184.2227
994.6390, 163.4512
995.7530, 186.7959
996.8660, 155.2197
997.9800, 157.7402
999.0940, 132.4395
1000.207, 124.3789
1001.320, 94.12207
1002.433, 107.6387
1003.546, 122.8867
1004.659, 132.3447
1005.772, 168.6953
1006.884, 146.0459
1007.996, 161.3936
1009.108, 230.7422
1010.220, 232.7461
1011.332, 231.1943
1012.444, 261.9346
1013.555, 206.1562
1014.666, 246.4346
1015.777, 262.3799
1016.888, 166.7236
1017.999, 189.0654
1019.110, 96.40723
1020.220, 64.74902
1021.331, 168.0898
1022.441, 137.4316
1023.551, 105.7734
1024.661, 143.1152
1025.770, 145.4561
1026.880, 117.7988
1027.989, 120.1406
1029.098, 227.1738
1030.207, 160.5254
1031.316, 211.8760
1032.425, 146.2266
1033.533, 111.5771
1034.642, 8.067383
1035.750, 129.2852
1036.858, 49.63867
1037.966, 230.9980
1039.073, 113.3584
1040.181, 124.7178
1041.288, 85.07910
1042.396, 1.291992
1043.503, 35.80762
1044.610, 152.0430
1045.716, 57.36328
1046.823, 157.7383
1047.929, 180.4111
1049.036, 248.7871
1050.142, 128.1621
1051.248, 211.5391
1052.353, 193.6660
1053.459, 145.0508
1054.564, 296.4365
1055.670, 142.7637
1056.775, 166.1494
1057.880, 164.4434
1058.985, 300.8311
1060.089, 249.2246
1061.194, 310.6221
1062.298, 388.0176
1063.402, 423.4160
1064.506, 532.8145
1065.610, 647.2129
1066.713, 589.6123
1067.817, 676.0107
1068.920, 594.4102
1070.023, 472.8115
1071.126, 485.2119
1072.229, 546.5137
1073.332, 778.0156
1074.435, 862.4180
1075.537, 1124.820
1076.639, 1456.715
1077.741, 2271.119
1078.843, 3710.481
1079.945, 6792.886
1081.046, 13904.29
1082.148, 21829.66
1083.249, 29172.07
1084.350, 41777.48
1085.451, 51656.89
1086.551, 47074.29
1087.652, 33942.71
1088.752, 23107.04
1089.853, 14040.01
1090.953, 7435.424
1092.053, 3655.869
1093.152, 2026.241
1094.252, 1339.267
1095.351, 993.8457
1096.451, 774.6211
1097.550, 687.0381
1098.649, 489.4531
1099.748, 376.7402
1100.846, 363.1582
1101.945, 308.5752
1103.043, 282.9932
1104.141, 228.4121
1105.239, 177.8311
1106.337, 224.2510
1107.434, 193.5977
1108.532, 215.5703
1109.629, 181.9922
1110.726, 141.4131
1111.823, 150.8340
1112.920, 89.27930
1114.017, 186.7021
1115.113, 195.1250
1116.210, 203.5498
1117.306, 90.97461
1118.402, 275.5078
1119.498, 107.9326
1120.593, 139.3594
1121.689, 90.78711
1122.784, 244.2148
1123.879, 178.6465
1124.974, 236.5400
1126.069, 41.97266
1127.164, 254.4492
1128.259, 66.88477
1129.353, 95.35742
1130.447, 17.16797
1131.541, 105.3877
1132.635, 55.85742
1133.729, 5.327148
1134.822, 115.4209
1135.916, 31.89551
1137.009, 97.37109
1138.102, 203.8467
1139.195, 154.3242
1140.288, 73.80176
1141.380, 16.27930
1142.473, 96.76855
1143.565, 119.2959
1144.657, 141.8398
1145.749, 160.3984
1146.841, 13.95898
1147.932, 32.52246
1149.024, 87.08691
1150.115, 87.65234
1151.206, 170.2188
1152.297, 164.9814
1153.388, 88.36426
1154.479, 146.9775
1155.569, 100.5518
1156.659, 21.12695
1157.750, 153.7031
1158.839, 38.36426
1159.929, 66.91602
1161.019, 230.4951
1162.108, 85.07422
1163.198, 18.65332
1164.287, 51.23340
1165.376, 123.7900
1166.465, 140.1572
1167.553, 99.73828
1168.642, 56.32031
1169.730, 129.9004
1170.818, 18.49316
1171.906, 138.0752
1172.994, 31.32129
1174.082, 13.21973
1175.170, 40.78516
1176.257, 40.35156
1177.344, 136.9180
1178.431, 4.514648
1179.518, 75.04883
1180.605, 219.6943
1181.691, 96.25781
1182.778, 58.82129
1183.864, 68.52246
1184.950, 75.16699
1186.036, 16.73242
1187.122, 195.2969
1188.207, 42.13867
1189.292, 88.41992
1190.378, 161.9775
1191.463, 115.5361
1192.548, 193.0938
1193.632, 21.65137
1194.717, 83.20996
1195.801, 64.76660
1196.886, 105.3242
1197.970, 160.8818
1199.054, 304.4395
1200.137, 69.99707
1201.221, 43.55469
1202.305, 102.1133
1203.388, 214.6729
1204.471, 139.3262
1205.554, 90.89648
1206.637, 39.53223
1207.719, 194.0166
1208.802, 117.5654
1209.884, 162.1143
1210.966, 47.66309
1212.048, 30.78906
1213.130, 97.74121
1214.212, 23.27148
1215.293, 210.8018
1216.374, 258.4736
1217.456, 14.00391
1218.536, 89.53223
1219.617, 55.92773
1220.698, 31.57910
1221.778, 13.62500
1222.859, 45.86816
1223.939, 8.216797
1225.019, 46.08887
1226.099, 3.427734
1227.178, 88.05176
1228.258, 133.5303
1229.337, 143.0098
1230.417, 182.4893
1231.496, 165.9678
1232.574, 141.4463
1233.653, 175.9248
1234.732, 51.40332
1235.810, 207.8809
1236.888, 142.3574
1237.966, 72.16113
1239.044, 73.29395
1240.122, 199.7510
1241.199, 69.20508
1242.277, 17.76562
1243.354, 48.21973
1244.431, 175.6748
1245.508, 73.12793
1246.585, 127.6172
1247.661, 151.1045
1248.738, 46.60938
1249.814, 115.1133
1250.890, 117.6162
1251.966, 28.11914
1253.042, 103.6211
1254.117, 20.87695
1255.193, 141.6113
1256.268, 15.10059
1257.343, 142.5879
1258.418, 104.0742
1259.493, 131.5615
1260.567, 4.342773
1261.642, 82.82617
1262.716, 33.30957
1263.790, 55.20801
1264.864, 45.24219
1265.938, 83.69336
1267.011, 145.1426
1268.085, 89.59180
1269.158, 94.04004
1270.231, 28.49121
1271.304, 53.94141
1272.377, 49.82617
1273.450, 80.27441
1274.522, 113.7217
1275.594, 58.30762
1276.666, 154.8076
1277.738, 118.2607
1278.810, 235.8301
1279.882, 131.2812
1280.953, 55.00586
1282.025, 65.45410
1283.096, 25.90137
1284.167, 41.66797
1285.238, 76.95508
1286.308, 73.39746
1287.379, 15.83887
1288.449, 24.72461
1289.519, 121.6943
1290.589, 226.1113
1291.659, 120.5254
