##NAMES=Calcite
##RRUFFID=R050130
##IDEAL CHEMISTRY=CaCO_3_
##LOCALITY=Mexico
##OWNER=RRUFF
##SOURCE=Dave Bunk Minerals
##DESCRIPTION=Colorless cleavage rhomb
##STATUS=The identification of this mineral has been confirmed by X-ray diffraction and chemical analysis
##URL=rruff.info/R050130
##MEASURED CHEMISTRY=Ca_1.00_CO_3_; trace amounts of Si (?)
##PIN_ID=L00286
##ORIENTATION=Laser parallel to a* (1 0 0). Fiducial mark perpendicular to laser is parallel to -c [0 0 -1]
88.260, 0.000
89.663, 3.026
91.065, 6.921
92.466, 6.585
93.868, 0.057
95.269, 23.437
96.670, 55.763
98.070, 55.684
99.471, 54.037
100.871, 55.796
102.271, 83.927
103.670, 97.327
105.070, 97.903
106.469, 142.591
107.868, 95.347
109.267, 108.155
110.665, 95.161
112.063, 156.526
113.461, 163.044
114.859, 211.819
116.256, 195.616
117.653, 154.280
119.050, 129.837
120.447, 124.338
121.843, 138.738
123.240, 149.059
124.636, 123.303
126.031, 120.477
127.427, 103.587
128.822, 93.641
130.217, 119.924
131.612, 90.877
133.006, 97.149
134.400, 77.333
135.794, 121.597
137.188, 122.142
138.581, 132.597
139.975, 165.928
141.368, 141.523
142.760, 154.649
144.153, 173.491
145.545, 222.699
146.937, 286.883
148.329, 354.548
149.720, 514.754
151.112, 747.285
152.503, 1098.492
153.893, 1278.736
155.284, 1394.181
156.674, 1147.533
158.064, 729.967
159.454, 492.204
160.843, 323.526
162.233, 254.801
163.622, 165.048
165.011, 100.362
166.399, 70.629
167.787, 41.912
169.175, 43.200
170.563, 24.512
171.951, 1.842
173.338, 10.171
174.725, 25.499
176.112, 2.829
177.499, 19.840
178.885, 20.494
180.271, 8.162
181.657, 7.816
183.043, 1.533
184.428, 11.883
185.813, 11.232
187.198, 25.420
188.583, 4.927
189.967, 16.728
191.351, 10.615
192.735, 1.957
194.119, 6.299
195.502, 35.638
196.885, 12.029
198.268, 26.298
199.651, 0.383
201.033, 12.177
202.415, 59.486
203.797, 40.783
205.179, 43.073
206.561, 0.604
207.942, 77.026
209.323, 22.556
210.703, 38.647
212.084, 38.137
213.464, 4.365
214.844, 71.953
216.224, 19.503
217.603, 15.839
218.983, 26.784
220.362, 15.224
221.741, 4.372
223.119, 7.942
224.497, 23.338
225.875, 3.481
227.253, 35.878
228.631, 58.196
230.008, 39.630
231.385, 45.959
232.762, 12.088
234.139, 38.604
235.515, 17.891
236.891, 55.208
238.267, 63.689
239.643, 14.689
241.018, 35.302
242.393, 22.529
243.768, 66.484
245.143, 66.551
246.517, 57.415
247.891, 49.657
249.265, 66.992
250.639, 71.140
252.012, 92.288
253.386, 107.382
254.759, 94.602
256.131, 129.899
257.504, 118.243
258.876, 138.560
260.248, 153.937
261.620, 172.274
262.991, 229.640
264.363, 244.958
265.734, 264.483
267.104, 316.857
268.475, 339.239
269.845, 465.203
271.215, 478.521
272.585, 668.005
273.955, 768.316
275.324, 989.709
276.693, 1228.276
278.062, 1622.568
279.431, 1968.958
280.799, 2197.232
282.167, 2320.548
283.535, 2075.853
284.903, 1627.114
286.270, 1308.389
287.638, 933.687
289.005, 729.963
290.371, 493.259
291.738, 417.464
293.104, 342.805
294.470, 248.094
295.836, 252.396
297.201, 157.650
298.567, 148.006
299.932, 138.249
301.296, 129.360
302.661, 95.493
304.025, 80.568
305.389, 106.630
306.753, 59.678
308.117, 61.710
309.480, 75.771
310.843, 10.793
312.206, 63.885
313.569, 39.896
314.931, 49.923
316.293, 45.984
317.655, 45.983
319.017, 44.978
320.378, 48.967
321.740, 34.952
323.101, 13.104
324.461, 19.079
325.822, 40.104
327.182, 10.116
328.542, 46.200
329.902, 1.200
331.261, 15.148
332.621, 16.229
333.980, 29.194
335.339, 46.207
336.697, 10.118
338.056, 48.042
339.414, 27.123
340.772, 10.002
342.129, 28.639
343.487, 18.541
344.844, 39.793
346.201, 1.869
347.557, 39.924
348.914, 14.859
350.270, 18.730
351.626, 56.825
352.982, 37.708
354.337, 11.334
355.693, 4.210
357.048, 3.982
358.402, 47.825
359.757, 29.692
361.111, 63.577
362.465, 2.441
363.819, 54.042
365.173, 4.852
366.526, 41.681
367.879, 16.489
369.232, 4.471
370.585, 8.096
371.937, 22.890
373.290, 31.677
374.642, 31.526
375.993, 0.681
377.345, 43.587
378.696, 9.346
380.047, 21.099
381.398, 17.836
382.748, 7.674
384.099, 61.391
385.449, 0.878
386.799, 40.809
388.148, 43.522
389.497, 58.147
390.847, 3.150
392.196, 11.551
393.544, 20.239
394.893, 21.031
396.241, 8.656
397.589, 29.331
398.936, 28.052
400.284, 20.703
401.631, 6.582
402.978, 57.024
404.325, 1.652
405.672, 0.728
407.018, 29.336
408.364, 22.020
409.710, 12.641
411.055, 15.731
412.401, 23.155
413.746, 18.408
415.091, 16.050
416.435, 25.589
417.780, 23.122
419.124, 20.772
420.468, 33.293
421.812, 22.844
423.155, 35.540
424.498, 30.042
425.842, 61.579
427.184, 6.069
428.527, 33.368
429.869, 30.844
431.211, 3.567
432.553, 45.891
433.895, 10.342
435.236, 52.241
436.577, 23.678
437.918, 4.109
439.259, 64.671
440.599, 19.086
441.940, 54.626
443.280, 32.029
444.619, 32.444
445.959, 40.834
447.298, 35.218
448.637, 27.694
449.976, 31.065
451.315, 24.429
452.653, 51.808
453.991, 13.159
455.329, 20.504
456.667, 15.841
458.004, 25.172
459.341, 6.563
460.678, 16.879
462.015, 57.224
463.352, 37.528
464.688, 45.842
466.024, 42.134
467.360, 56.421
468.695, 47.791
470.031, 35.066
471.366, 48.339
472.701, 25.435
474.035, 46.696
475.370, 41.366
476.704, 30.616
478.038, 64.860
479.372, 49.099
480.705, 46.332
482.038, 58.560
483.371, 9.755
484.704, 80.822
486.037, 30.935
487.369, 33.131
488.701, 15.137
490.033, 33.330
491.365, 49.035
492.696, 13.083
494.027, 37.139
495.358, 24.258
496.689, 30.428
498.019, 46.535
499.350, 9.695
500.680, 68.830
502.009, 10.775
503.339, 52.864
504.668, 31.961
505.997, 15.091
507.326, 59.627
508.655, 28.800
509.983, 63.801
511.311, 51.204
512.639, 32.328
513.967, 77.435
515.295, 36.424
516.622, 59.302
517.949, 36.186
519.276, 36.362
520.602, 67.516
521.929, 34.613
523.255, 73.437
524.581, 62.877
525.906, 38.749
527.232, 82.827
528.557, 7.857
529.882, 76.702
531.207, 48.440
532.531, 50.427
533.855, 25.526
535.179, 37.670
536.503, 77.290
537.827, 55.331
539.150, 44.213
540.473, 54.239
541.796, 18.390
543.119, 53.266
544.441, 24.283
545.764, 37.867
547.086, 45.873
548.407, 49.910
549.729, 54.907
551.050, 39.328
552.371, 44.177
553.692, 29.072
555.013, 26.354
556.333, 36.160
557.653, 20.077
558.973, 71.983
560.293, 21.854
561.612, 53.017
562.932, 53.965
564.251, 2.389
565.569, 61.206
566.888, 18.082
568.206, 30.928
569.524, 27.718
570.842, 56.270
572.160, 61.352
573.477, 11.164
574.795, 46.963
576.112, 40.798
577.428, 6.619
578.745, 57.427
580.061, 25.284
581.377, 1.125
582.693, 53.981
584.009, 23.879
585.324, 36.756
586.639, 25.577
587.954, 43.320
589.269, 6.113
590.583, 44.360
591.897, 60.200
593.212, 4.133
594.525, 47.694
595.839, 60.431
597.152, 2.983
598.465, 52.800
599.778, 3.506
601.091, 65.572
602.403, 27.323
603.716, 56.073
605.028, 47.892
606.339, 7.647
607.651, 57.367
608.962, 60.096
610.273, 25.794
611.584, 62.577
612.895, 34.213
614.205, 34.941
615.515, 55.596
616.825, 14.288
618.135, 58.844
619.444, 21.494
620.754, 76.254
622.063, 25.983
623.372, 67.735
624.680, 100.483
625.989, 8.228
627.297, 43.979
628.605, 28.680
629.912, 37.414
631.220, 49.685
632.527, 19.587
633.834, 40.133
635.141, 44.784
636.447, 46.489
637.754, 43.191
639.060, 50.889
640.366, 57.584
641.671, 49.104
642.977, 66.793
644.282, 45.450
645.587, 48.087
646.892, 65.778
648.196, 32.410
649.501, 28.086
650.805, 59.350
652.109, 51.994
653.412, 58.581
654.716, 2.192
656.019, 53.852
657.322, 16.347
658.625, 32.001
659.927, 93.501
661.230, 14.150
662.532, 36.757
663.834, 28.574
665.135, 16.223
666.437, 69.812
667.738, 18.546
669.039, 30.082
670.340, 48.662
671.640, 25.284
672.940, 73.875
674.241, 22.492
675.540, 9.080
676.840, 3.812
678.139, 27.420
679.439, 54.992
680.738, 2.321
682.036, 53.276
683.335, 39.856
684.633, 12.448
685.931, 55.859
687.229, 9.941
688.527, 86.636
689.824, 6.211
691.121, 1.711
692.418, 60.258
693.715, 26.824
695.012, 35.387
696.308, 7.420
697.604, 0.023
698.900, 17.925
700.195, 59.718
701.491, 84.637
702.786, 93.711
704.081, 15.535
705.376, 84.076
706.670, 26.855
707.964, 83.388
709.259, 161.925
710.552, 290.411
711.846, 507.896
713.139, 420.456
714.433, 324.911
715.726, 154.444
717.018, 90.903
718.311, 96.434
719.603, 27.962
720.895, 67.036
722.187, 79.562
723.479, 35.492
724.770, 63.988
726.061, 26.468
727.352, 23.991
728.643, 46.520
729.934, 51.556
731.224, 66.081
732.514, 45.603
733.804, 55.836
735.094, 52.355
736.383, 14.836
737.672, 76.162
738.961, 5.674
740.250, 52.204
741.539, 33.711
742.827, 2.400
744.115, 87.903
745.403, 9.283
746.691, 32.787
747.978, 77.286
749.265, 38.328
750.552, 49.824
751.839, 25.318
753.126, 34.198
754.412, 70.689
755.698, 0.953
756.984, 51.532
758.270, 22.998
759.555, 9.846
760.840, 79.326
762.125, 31.705
763.410, 55.182
764.695, 46.657
765.979, 35.361
767.263, 40.833
768.547, 6.304
769.831, 108.573
771.114, 23.040
772.398, 37.439
773.681, 85.904
774.964, 28.333
776.246, 32.795
777.529, 34.239
778.811, 16.698
780.093, 57.156
781.375, 15.522
782.656, 24.976
783.937, 38.427
785.219, 6.122
786.499, 90.322
787.780, 10.347
789.060, 50.788
790.341, 58.228
791.621, 49.667
792.901, 68.104
794.180, 27.539
795.459, 67.974
796.739, 58.408
798.017, 7.840
799.296, 96.272
800.575, 0.702
801.853, 45.130
803.131, 75.557
804.409, 25.017
805.686, 55.398
806.964, 18.807
808.241, 33.216
809.518, 44.484
810.795, 19.891
812.071, 64.247
813.347, 38.652
814.623, 15.057
815.899, 70.961
817.175, 1.635
818.450, 66.764
819.726, 64.115
821.001, 36.513
822.275, 60.531
823.550, 24.927
824.824, 37.322
826.098, 55.709
827.372, 40.103
828.646, 63.616
829.920, 0.064
831.193, 60.227
832.466, 47.618
833.739, 1.007
835.011, 84.042
836.284, 18.428
837.556, 58.814
838.828, 60.144
840.100, 8.471
841.371, 63.068
842.642, 40.447
843.914, 62.745
845.184, 14.991
846.455, 21.368
847.726, 55.746
848.996, 6.877
850.266, 46.421
851.536, 36.574
852.805, 24.918
854.075, 55.290
855.344, 7.661
856.613, 16.033
857.881, 102.369
859.150, 3.260
860.418, 59.108
861.686, 69.476
862.954, 44.845
864.222, 68.213
865.489, 0.581
866.756, 38.949
868.023, 49.317
869.290, 27.684
870.557, 68.052
871.823, 5.420
873.089, 50.788
874.355, 51.158
875.621, 24.472
876.886, 69.885
878.152, 35.243
879.417, 23.600
880.682, 77.958
881.946, 10.683
883.211, 68.670
884.475, 32.024
885.739, 14.622
887.003, 54.724
888.266, 31.072
889.530, 68.386
890.793, 63.735
892.056, 0.986
893.318, 82.362
894.581, 11.713
895.843, 42.982
897.105, 37.341
898.367, 0.656
899.629, 48.017
900.890, 16.378
902.152, 68.743
903.413, 64.107
904.673, 10.520
905.934, 48.848
907.194, 16.218
908.454, 34.330
909.714, 82.701
910.974, 7.927
912.234, 29.406
913.493, 39.776
914.752, 15.147
916.011, 58.519
917.270, 23.109
918.528, 71.253
919.786, 53.616
921.044, 16.073
922.302, 54.285
923.560, 30.642
924.817, 56.001
926.074, 38.361
927.331, 53.721
928.588, 106.090
929.844, 26.460
931.101, 52.825
932.357, 88.197
933.613, 20.561
934.868, 73.938
936.124, 59.316
937.379, 24.078
938.634, 123.458
939.889, 45.823
941.144, 53.211
942.398, 69.600
943.652, 24.990
944.906, 63.381
946.160, 23.774
947.414, 46.167
948.667, 22.562
949.920, 67.931
951.173, 76.328
952.426, 80.592
953.678, 22.991
954.931, 93.391
956.183, 0.066
957.435, 37.469
958.686, 54.877
959.938, 29.287
961.189, 58.699
962.440, 11.115
963.691, 52.533
964.941, 68.953
966.192, 31.626
967.442, 62.782
968.692, 78.909
969.942, 22.321
971.191, 62.734
972.441, 38.149
973.690, 65.572
974.939, 34.996
976.187, 44.421
977.436, 71.848
978.684, 5.723
979.932, 20.706
981.180, 57.990
982.428, 0.431
983.675, 116.873
984.922, 10.234
986.169, 68.681
987.416, 62.130
988.663, 24.581
989.909, 56.034
991.155, 22.875
992.401, 37.334
993.647, 94.796
994.893, 26.260
996.138, 91.726
997.383, 91.194
998.628, 53.663
999.873, 120.664
1001.117, 88.137
1002.362, 82.614
1003.606, 115.092
1004.850, 57.572
1006.093, 125.055
1007.337, 110.539
1008.580, 69.026
1009.823, 159.274
1011.066, 97.764
1012.308, 80.259
1013.551, 141.756
1014.793, 83.255
1016.035, 177.721
1017.277, 90.224
1018.518, 62.728
1019.760, 138.234
1021.001, 69.743
1022.242, 169.254
1023.483, 147.767
1024.723, 99.282
1025.964, 162.323
1027.204, 62.853
1028.444, 103.385
1029.683, 104.918
1030.923, 73.567
1032.162, 119.500
1033.401, 74.039
1034.640, 80.581
1035.879, 149.291
1037.117, 45.841
1038.355, 91.388
1039.593, 113.942
1040.831, 88.498
1042.069, 139.996
1043.306, 85.995
1044.544, 111.558
1045.781, 145.124
1047.017, 73.740
1048.254, 157.308
1049.490, 92.064
1050.726, 80.641
1051.962, 162.219
1053.198, 114.561
1054.434, 139.617
1055.669, 176.201
1056.904, 126.787
1058.139, 203.376
1059.374, 151.142
1060.608, 149.373
1061.843, 226.972
1063.077, 211.589
1064.311, 494.194
1065.544, 442.802
1066.778, 329.160
1068.011, 326.771
1069.244, 279.383
1070.477, 325.198
1071.710, 359.815
1072.942, 364.460
1074.174, 585.084
1075.406, 603.709
1076.638, 762.152
1077.870, 1038.782
1079.101, 1447.413
1080.332, 2822.046
1081.563, 5964.681
1082.794, 19536.016
1084.025, 40804.668
1085.255, 35263.309
1086.485, 16111.967
1087.715, 6050.625
1088.945, 2377.288
1090.175, 1525.951
1091.404, 919.616
1092.633, 624.304
1093.862, 570.972
1095.091, 392.642
1096.319, 330.342
1097.548, 302.015
1098.776, 192.689
1100.004, 267.365
1101.231, 262.044
1102.459, 174.724
1103.686, 213.405
1104.913, 104.090
1106.140, 178.715
1107.367, 145.409
1108.593, 115.105
1109.819, 137.560
1111.046, 50.259
1112.271, 91.958
1113.497, 166.667
1114.722, 28.811
1115.948, 148.514
1117.173, 120.220
1118.398, 103.927
1119.622, 192.694
1120.847, 101.403
1122.071, 127.114
1123.295, 144.825
1124.519, 71.538
1125.742, 142.252
1126.966, 106.829
1128.189, 64.545
1129.412, 170.227
1130.635, 56.944
1131.857, 53.711
1133.080, 145.432
1134.302, 52.153
1135.524, 130.961
1136.746, 115.684
1137.967, 25.408
1139.188, 113.212
1140.410, 41.941
1141.631, 78.670
1142.851, 156.430
1144.072, 8.160
1145.292, 95.973
1146.512, 37.704
1147.732, 53.438
1148.952, 107.188
1150.172, 2.923
1151.391, 47.810
1152.610, 87.628
1153.829, 41.364
1155.048, 110.204
1156.266, 27.957
1157.484, 3.696
1158.702, 109.112
1159.920, 1.852
1161.138, 68.591
1162.356, 77.468
1163.573, 38.208
1164.790, 46.948
1166.007, 17.689
1167.224, 50.429
1168.440, 82.480
1169.656, 11.221
1170.872, 39.962
1172.088, 65.406
1173.304, 6.152
1174.519, 136.938
1175.735, 49.684
1176.950, 3.570
1178.165, 114.218
1179.379, 20.965
1180.594, 56.711
1181.808, 66.536
1183.022, 4.285
1184.236, 72.033
1185.449, 37.862
1186.663, 66.609
1187.876, 64.447
1189.089, 9.635
1190.302, 73.107
1191.515, 47.936
1192.727, 0.324
1193.939, 123.419
1195.151, 4.061
1196.363, 59.678
1197.575, 90.416
1198.786, 29.763
1199.997, 73.958
1201.208, 68.730
1202.419, 35.452
1203.630, 90.173
1204.840, 3.157
1206.051, 34.560
1207.261, 123.278
1208.470, 10.772
1209.680, 83.488
1210.889, 87.295
1212.099, 37.009
1213.308, 147.727
1214.516, 57.548
1215.725, 45.263
1216.933, 123.981
1218.142, 11.544
1219.350, 91.259
1220.557, 75.975
1221.765, 28.130
1222.972, 110.567
1224.180, 48.263
1225.387, 26.086
1226.593, 100.778
1227.800, 9.546
1229.006, 97.136
1230.213, 83.816
1231.419, 23.015
1232.624, 108.692
1233.830, 61.368
1235.035, 58.099
1236.241, 115.775
1237.446, 19.558
1238.650, 100.233
1239.855, 91.907
1241.059, 18.640
1242.264, 95.308
1243.468, 49.973
1244.671, 56.727
1245.875, 134.390
1247.078, 27.053
1248.282, 85.715
1249.485, 101.376
1250.687, 10.528
1251.890, 98.127
1253.092, 55.772
1254.295, 7.500
1255.497, 107.139
1256.699, 57.777
1257.900, 27.483
1259.102, 67.119
1260.303, 53.760
1261.504, 117.400
1262.705, 63.039
1263.905, 16.676
1265.106, 135.311
1266.306, 38.944
1267.506, 69.572
1268.706, 167.199
1269.905, 48.824
1271.105, 123.448
1272.304, 89.068
1273.503, 25.312
1274.702, 98.281
1275.900, 21.873
1277.099, 67.463
1278.297, 157.051
1279.495, 13.637
1280.693, 75.222
1281.891, 82.797
1283.088, 16.368
1284.285, 142.938
1285.482, 42.499
1286.679, 28.059
1287.876, 95.616
1289.072, 16.171
1290.268, 37.716
1291.464, 146.260
1292.660, 32.796
1293.856, 95.329
1295.051, 8.858
1296.247, 17.385
1297.442, 141.903
1298.637, 14.417
1299.831, 33.928
1301.026, 94.443
1302.220, 3.060
1303.414, 77.594
1304.608, 61.061
1305.802, 11.525
1306.995, 114.988
1308.188, 48.444
1309.381, 64.897
1310.574, 113.510
1311.767, 3.956
1312.960, 89.393
1314.152, 97.826
1315.344, 34.745
1316.536, 113.668
1317.728, 31.078
1318.919, 44.484
1320.110, 92.915
1321.301, 30.200
1322.492, 54.594
1323.683, 95.014
1324.874, 22.400
1326.064, 104.782
1327.254, 67.156
1328.444, 8.470
1329.634, 105.896
1330.823, 20.258
1332.013, 11.615
1333.202, 112.529
1334.391, 20.879
1335.580, 43.223
1336.768, 99.433
1337.956, 3.230
1339.145, 100.917
1340.333, 43.241
1341.520, 23.563
1342.708, 116.171
1343.895, 30.483
1345.083, 56.793
1346.270, 110.101
1347.456, 6.595
1348.643, 98.531
1349.829, 112.928
1351.016, 3.780
1352.202, 120.493
1353.387, 20.827
1354.573, 55.110
1355.759, 137.360
1356.944, 19.666
1358.129, 96.910
1359.314, 83.148
1360.498, 4.616
1361.683, 120.589
1362.867, 51.382
1364.051, 12.593
1365.235, 80.983
1366.419, 68.369
1367.602, 16.563
1368.785, 96.689
1369.968, 7.205
1371.151, 112.131
1372.334, 112.114
1373.517, 31.941
1374.699, 116.611
1375.881, 98.160
1377.063, 29.685
1378.245, 179.228
1379.426, 19.738
1380.608, 75.273
1381.789, 136.805
1382.970, 30.334
1384.150, 105.849
1385.331, 126.531
1386.511, 22.030
1387.691, 132.516
1388.871, 53.007
1390.051, 62.429
1391.231, 127.912
1392.410, 2.392
1393.589, 99.869
1394.768, 126.030
1395.947, 23.420
1397.126, 119.863
1398.304, 95.199
1399.483, 27.539
1400.661, 124.969
1401.838, 81.357
1403.016, 66.675
1404.194, 158.073
1405.371, 45.293
1406.548, 106.594
1407.725, 186.841
1408.901, 51.336
1410.078, 132.721
1411.254, 125.916
1412.430, 49.294
1413.606, 152.233
1414.782, 57.599
1415.958, 61.093
1417.133, 161.349
1418.308, 42.595
1419.483, 146.903
1420.658, 177.089
1421.832, 39.743
1423.007, 117.880
1424.181, 150.886
1425.355, 82.018
1426.529, 239.026
1427.702, 129.265
1428.876, 243.376
1430.049, 548.550
1431.222, 424.191
1432.395, 476.419
1433.567, 428.289
1434.740, 158.327
1435.912, 248.334
1437.084, 184.523
1438.256, 47.140
1439.428, 220.949
1440.599, 39.118
1441.770, 37.035
1442.942, 171.257
1444.112, 3.337
1445.283, 124.386
1446.454, 142.301
1447.624, 32.081
1448.794, 190.940
1449.964, 116.929
1451.134, 4.704
1452.303, 158.657
1453.473, 65.576
1454.642, 100.486
1455.811, 148.196
1456.980, 39.913
1458.148, 73.773
1459.317, 150.609
1460.485, 24.424
1461.653, 119.227
1462.821, 108.013
1463.989, 23.777
1465.156, 67.986
1466.323, 91.148
1467.490, 74.153
1468.657, 185.928
1469.824, 78.712
1470.991, 43.505
1472.157, 148.275
1473.323, 32.065
1474.489, 107.871
1475.655, 108.658
1476.820, 11.524
1477.986, 142.247
1479.151, 69.438
1480.316, 41.423
1481.481, 154.402
1482.645, 16.656
1483.810, 63.648
1484.974, 160.668
1486.138, 29.708
1487.302, 79.606
1488.465, 121.670
1489.629, 10.584
1490.792, 189.687
1491.955, 80.819
1493.118, 19.984
1494.281, 134.186
1495.443, 67.371
1496.606, 13.204
1497.768, 120.033
1498.930, 30.371
1500.091, 105.123
1501.253, 152.821
1502.414, 4.850
1503.575, 83.778
1504.736, 103.206
1505.897, 3.937
1507.058, 37.477
1508.218, 52.932
1509.379, 54.655
1510.539, 97.405
1511.698, 11.234
1512.858, 0.000
##END=



