##NAMES=Calcite
##RRUFFID=R050130
##IDEAL CHEMISTRY=CaCO_3_
##LOCALITY=Mexico
##OWNER=RRUFF
##SOURCE=Dave Bunk Minerals
##DESCRIPTION=Colorless cleavage rhomb
##STATUS=The identification of this mineral has been confirmed by X-ray diffraction and chemical analysis
##URL=rruff.info/R050130
##MEASURED CHEMISTRY=Ca_1.00_CO_3_; trace amounts of Si (?)
##PIN_ID=L00264
##ORIENTATION=Laser parallel to -c* (0 0 -1). Fiducial mark perpendicular to laser is parallel to a [1 0 0]
49.365, 0.000
50.765, 9.804
52.166, 27.057
53.566, 41.654
54.966, 36.687
56.365, 100.611
57.765, 26.116
59.164, 14.260
60.563, 69.609
61.962, 34.024
63.360, 37.583
64.758, 35.495
66.157, 50.918
67.554, 66.153
68.952, 50.402
70.349, 63.720
71.747, 77.711
73.144, 73.041
74.540, 49.741
75.937, 68.139
77.333, 66.529
78.729, 69.941
80.125, 33.367
81.521, 23.810
82.916, 24.274
84.311, 39.771
85.706, 27.310
87.101, 9.891
88.496, 3.492
89.890, 17.800
91.284, 4.909
92.678, 8.642
94.071, 12.605
95.465, 1.832
96.858, 52.946
98.251, 32.717
99.644, 31.477
101.036, 35.217
102.428, 54.935
103.820, 121.631
105.212, 96.305
106.604, 91.959
107.995, 92.596
109.387, 103.215
110.777, 120.818
112.168, 122.407
113.559, 149.209
114.949, 132.923
116.339, 167.633
117.729, 164.505
119.119, 134.717
120.508, 131.657
121.897, 142.874
123.286, 151.058
124.675, 170.076
126.063, 156.198
127.452, 146.373
128.840, 169.629
130.228, 145.822
131.615, 178.653
133.003, 154.662
134.390, 125.778
135.777, 119.032
137.164, 135.911
138.550, 154.108
139.937, 147.292
141.323, 176.236
142.709, 156.140
144.094, 166.838
145.480, 190.500
146.865, 231.220
148.250, 266.813
149.635, 365.250
151.019, 491.637
152.403, 615.008
153.788, 753.340
155.171, 874.649
156.555, 923.938
157.939, 847.221
159.322, 689.499
160.705, 551.777
162.088, 378.057
163.470, 329.336
164.853, 238.619
166.235, 198.900
167.617, 142.180
168.998, 147.458
170.380, 107.734
171.761, 116.007
173.142, 89.279
174.523, 85.549
175.904, 83.815
177.284, 42.079
178.664, 79.340
180.044, 47.596
181.424, 59.847
182.803, 48.095
184.183, 48.339
185.562, 40.698
186.940, 30.972
188.319, 20.306
189.698, 20.730
191.076, 54.057
192.454, 21.437
193.831, 20.959
195.209, 32.440
196.586, 13.791
197.963, 28.225
199.340, 27.775
200.717, 15.053
202.093, 28.247
203.470, 23.551
204.846, 11.861
206.221, 23.192
207.597, 7.450
208.972, 2.268
210.347, 33.632
211.722, 24.856
213.097, 32.088
214.472, 10.363
215.846, 28.835
217.220, 8.329
218.594, 21.674
219.967, 22.976
221.341, 1.262
222.714, 19.414
224.087, 34.552
225.460, 4.615
226.832, 21.005
228.204, 15.865
229.577, 7.621
230.948, 33.838
232.320, 14.545
233.692, 33.253
235.063, 18.132
236.434, 49.581
237.805, 27.861
239.175, 37.071
240.545, 42.203
241.916, 33.409
243.286, 34.676
244.655, 41.956
246.025, 41.020
247.394, 49.670
248.763, 82.863
250.132, 73.901
251.501, 59.883
252.869, 67.912
254.237, 69.109
255.605, 77.438
256.973, 77.176
258.340, 89.948
259.708, 102.586
261.075, 121.317
262.442, 139.413
263.808, 153.463
265.175, 171.481
266.541, 216.578
267.907, 230.731
269.273, 269.015
270.639, 299.297
272.004, 384.831
273.369, 467.061
274.734, 597.247
276.099, 751.479
277.463, 940.192
278.828, 1150.366
280.192, 1300.588
281.556, 1490.794
282.919, 1495.975
284.283, 1454.223
285.646, 1215.453
287.009, 1046.656
288.372, 800.833
289.734, 658.035
291.097, 489.161
292.459, 387.306
293.821, 306.414
295.183, 229.888
296.544, 198.015
297.905, 162.105
299.266, 146.193
300.627, 118.346
301.988, 81.454
303.348, 85.607
304.709, 88.708
306.069, 70.764
307.428, 53.815
308.788, 42.884
310.147, 53.954
311.507, 44.991
312.865, 53.071
314.224, 43.116
315.583, 56.146
316.941, 41.169
318.299, 24.242
319.657, 32.258
321.015, 32.294
322.372, 39.305
323.729, 30.359
325.086, 27.363
326.443, 41.393
327.800, 0.391
329.156, 35.406
330.512, 19.397
331.868, 30.386
333.224, 11.372
334.579, 6.359
335.935, 3.338
337.290, 12.327
338.645, 3.340
339.999, 32.309
341.354, 8.316
342.708, 6.283
344.062, 14.179
345.416, 20.123
346.769, 2.963
348.123, 24.936
349.476, 23.800
350.829, 32.688
352.182, 32.463
353.534, 15.289
354.887, 23.200
356.239, 23.971
357.591, 10.750
358.942, 22.561
360.294, 4.290
361.645, 7.077
362.996, 10.863
364.347, 5.622
365.698, 6.553
367.048, 11.202
368.398, 0.112
369.748, 13.636
371.098, 24.779
372.448, 7.358
373.797, 25.138
375.146, 1.879
376.495, 17.647
377.844, 23.299
379.192, 8.042
380.540, 29.663
381.889, 24.359
383.236, 11.052
384.584, 25.587
385.932, 12.249
387.279, 5.008
388.626, 7.452
389.973, 22.211
391.319, 31.827
392.666, 8.615
394.012, 15.059
395.358, 3.660
396.704, 6.678
398.049, 3.960
399.394, 397.678
400.740, 56.372
402.084, 20.079
403.429, 19.761
404.774, 3.403
406.118, 4.048
407.462, 4.722
408.806, 12.560
410.150, 4.867
411.493, 25.882
412.836, 14.593
414.179, 5.698
415.522, 9.006
416.865, 4.711
418.207, 1.560
419.549, 3.147
420.891, 16.906
422.233, 7.385
423.575, 26.321
424.916, 10.024
426.257, 14.724
427.598, 3.433
428.939, 12.146
430.279, 5.837
431.619, 5.887
432.959, 5.424
434.299, 16.253
435.639, 34.926
436.978, 13.597
438.318, 8.736
439.657, 31.924
440.996, 12.597
442.334, 15.269
443.673, 19.970
445.011, 2.645
446.349, 5.331
447.687, 9.969
449.024, 14.624
450.361, 7.255
451.699, 25.960
453.036, 17.585
454.372, 32.206
455.709, 6.176
457.045, 16.436
458.381, 35.067
459.717, 22.714
461.053, 5.422
462.388, 15.363
463.724, 2.959
465.059, 13.551
466.394, 25.170
467.728, 24.785
469.063, 17.368
470.397, 16.000
471.731, 26.577
473.065, 11.199
474.398, 18.775
475.732, 21.346
477.065, 41.955
478.398, 9.560
479.731, 28.053
481.063, 16.577
482.396, 29.104
483.728, 10.685
485.060, 24.195
486.391, 14.698
487.723, 27.279
489.054, 16.711
490.385, 56.249
491.716, 26.730
493.047, 21.286
494.377, 19.706
495.708, 24.258
497.038, 17.649
498.368, 11.084
499.697, 30.558
501.027, 0.905
502.356, 19.491
503.685, 31.876
505.014, 26.292
506.342, 16.125
507.671, 26.741
508.999, 23.199
510.327, 5.651
511.655, 36.153
512.982, 8.638
514.310, 48.049
515.637, 38.528
516.964, 17.973
518.291, 31.435
519.617, 16.870
520.944, 36.228
522.270, 19.618
523.596, 10.001
524.921, 9.360
526.247, 21.387
527.572, 18.827
528.897, 27.192
530.222, 18.581
531.547, 35.020
532.871, 36.385
534.196, 22.824
535.520, 34.164
536.844, 34.568
538.167, 29.999
539.491, 18.364
540.814, 29.819
542.137, 28.251
543.460, 15.626
544.783, 52.062
546.105, 9.441
547.427, 27.791
548.749, 13.771
550.071, 32.193
551.393, 14.647
552.714, 21.552
554.035, 13.941
555.356, 19.281
556.677, 6.309
557.998, 34.652
559.318, 1.100
560.638, 6.548
561.958, 18.957
563.278, 32.369
564.597, 19.711
565.917, 17.058
567.236, 5.407
568.555, 41.070
569.874, 8.199
571.192, 40.632
572.511, 47.016
573.829, 24.097
575.147, 30.455
576.464, 11.794
577.782, 36.059
579.099, 3.388
580.416, 42.775
581.733, 26.755
583.050, 37.180
584.366, 17.559
585.683, 12.933
586.999, 11.258
588.315, 34.619
589.630, 6.048
590.946, 14.328
592.261, 22.397
593.576, 30.764
594.891, 25.170
596.206, 15.732
597.520, 30.600
598.834, 11.001
600.148, 10.346
601.462, 2.723
602.776, 8.096
604.089, 4.395
605.402, 33.704
606.715, 10.053
608.028, 21.431
609.341, 0.257
610.653, 20.124
611.965, 23.475
613.277, 21.852
614.589, 17.853
615.901, 9.201
617.212, 4.571
618.523, 1.043
619.834, 5.752
621.145, 27.575
622.456, 18.849
623.766, 7.202
625.076, 7.589
626.386, 23.944
627.696, 2.275
629.006, 24.598
630.315, 2.949
631.624, 13.262
632.933, 13.593
634.242, 3.995
635.551, 4.385
636.859, 17.725
638.167, 28.063
639.475, 13.377
640.783, 6.712
642.090, 30.999
643.398, 14.126
644.705, 6.428
646.012, 0.755
647.318, 12.062
648.625, 9.391
649.931, 1.738
651.237, 45.058
652.543, 1.624
653.849, 12.692
655.155, 11.237
656.460, 0.253
657.765, 6.077
659.070, 16.278
660.375, 24.616
661.679, 42.922
662.984, 5.772
664.288, 21.466
665.592, 19.329
666.895, 18.626
668.199, 11.852
669.502, 36.191
670.805, 22.543
672.108, 6.823
673.411, 28.122
674.713, 0.385
676.016, 17.664
677.318, 27.952
678.620, 10.238
679.921, 38.508
681.223, 27.736
682.524, 33.438
683.825, 1.709
685.126, 6.973
686.427, 51.241
687.727, 44.505
689.028, 27.770
690.328, 28.033
691.628, 29.294
692.927, 33.554
694.227, 53.698
695.526, 35.955
696.825, 78.207
698.124, 63.460
699.423, 57.711
700.721, 84.988
702.020, 104.240
703.318, 126.372
704.616, 144.617
705.913, 225.842
707.211, 338.085
708.508, 681.310
709.805, 1274.552
711.102, 2238.776
712.399, 3258.985
713.695, 3425.177
714.992, 2470.414
716.288, 1449.169
717.584, 925.356
718.879, 525.927
720.175, 360.157
721.470, 233.095
722.765, 177.319
724.060, 107.494
725.355, 79.787
726.649, 87.977
727.944, 53.200
729.238, 72.427
730.532, 55.648
731.825, 24.918
733.119, 72.116
734.412, 49.337
735.705, 44.018
736.998, 42.500
738.291, 42.729
739.584, 14.939
740.876, 27.147
742.168, 32.678
743.460, 39.893
744.752, 44.102
746.043, 8.941
747.334, 39.158
748.626, 34.356
749.916, 21.552
751.207, 0.746
752.498, 27.171
753.788, 24.362
755.078, 30.544
756.368, 15.711
757.658, 35.845
758.947, 26.999
760.237, 27.136
761.526, 15.315
762.815, 12.472
764.104, 26.648
765.392, 30.783
766.680, 37.955
767.969, 30.124
769.257, 24.292
770.544, 19.494
771.832, 23.637
773.119, 15.759
774.406, 22.815
775.693, 65.675
776.980, 21.833
778.267, 12.582
779.553, 13.705
780.839, 31.829
782.125, 30.979
783.411, 35.106
784.697, 20.295
785.982, 17.391
787.267, 24.567
788.552, 5.704
789.837, 8.799
791.122, 7.893
792.406, 21.027
793.690, 35.189
794.974, 27.315
796.258, 26.429
797.542, 8.444
798.825, 40.683
800.108, 24.763
801.391, 21.818
802.674, 18.918
803.957, 14.006
805.239, 28.059
806.522, 19.187
807.804, 22.137
809.085, 0.230
810.367, 0.313
811.649, 15.350
812.930, 14.405
814.211, 11.497
815.492, 28.587
816.772, 33.676
818.053, 13.442
819.333, 4.851
820.613, 15.228
821.893, 16.305
823.173, 4.365
824.452, 1.438
825.732, 27.509
827.011, 12.545
828.290, 22.613
829.568, 26.557
830.847, 11.622
832.125, 15.684
833.403, 31.723
834.681, 19.783
835.959, 4.159
837.236, 28.893
838.514, 32.884
839.791, 20.896
841.068, 16.944
842.345, 17.990
843.621, 31.035
844.898, 38.078
846.174, 21.119
847.450, 10.841
848.726, 29.190
850.001, 17.219
851.277, 22.247
852.552, 18.273
853.827, 7.298
855.102, 16.321
856.376, 11.657
857.651, 19.355
858.925, 43.366
860.199, 18.375
861.473, 23.383
862.746, 24.390
864.020, 31.396
865.293, 12.601
866.566, 19.394
867.839, 25.386
869.112, 6.622
870.384, 32.363
871.656, 18.653
872.928, 19.318
874.200, 8.712
875.472, 23.250
876.744, 32.211
878.015, 2.171
879.286, 35.129
880.557, 22.086
881.828, 14.041
883.098, 29.995
884.369, 2.948
885.639, 22.899
886.909, 13.848
888.178, 6.203
889.448, 2.260
890.717, 10.679
891.987, 36.617
893.256, 37.529
894.524, 3.536
895.793, 7.395
897.061, 12.324
898.330, 14.256
899.598, 8.142
900.865, 23.076
902.133, 22.009
903.401, 21.941
904.668, 2.338
905.935, 40.589
907.202, 10.516
908.468, 21.441
909.735, 44.345
911.001, 28.269
912.267, 15.192
913.533, 29.115
914.799, 24.013
916.064, 19.900
917.330, 2.819
918.595, 38.738
919.860, 21.656
921.124, 31.572
922.389, 3.489
923.653, 25.399
924.918, 22.313
926.182, 43.207
927.445, 1.120
928.709, 16.033
929.972, 9.055
931.236, 13.818
932.499, 21.694
933.761, 20.599
935.024, 3.505
936.286, 0.410
937.549, 33.314
938.811, 1.205
940.073, 21.108
941.334, 40.949
942.596, 46.802
943.857, 44.652
945.118, 2.553
946.379, 63.454
947.640, 5.353
948.900, 29.253
950.161, 5.355
951.421, 34.253
952.681, 15.151
953.940, 28.048
955.200, 28.940
956.459, 25.811
957.719, 2.708
958.978, 9.600
960.236, 16.496
961.495, 16.151
962.753, 0.189
964.012, 39.691
965.270, 30.568
966.527, 22.431
967.785, 28.334
969.043, 1.764
970.300, 35.114
971.557, 17.519
972.814, 42.418
974.071, 15.322
975.327, 24.177
976.583, 12.964
977.840, 4.874
979.095, 37.763
980.351, 17.327
981.607, 15.574
982.862, 18.447
984.117, 39.337
985.372, 25.240
986.627, 33.143
987.882, 51.567
989.136, 29.470
990.390, 36.372
991.644, 53.274
992.898, 22.172
994.152, 32.074
995.405, 43.978
996.659, 36.884
997.912, 54.789
999.165, 66.809
1000.417, 69.714
1001.670, 57.618
1002.922, 55.523
1004.174, 65.428
1005.426, 63.291
1006.678, 78.192
1007.930, 61.172
1009.181, 87.077
1010.432, 68.982
1011.683, 118.887
1012.934, 73.792
1014.185, 95.697
1015.435, 117.603
1016.685, 109.537
1017.935, 105.443
1019.185, 142.348
1020.435, 121.665
1021.684, 87.571
1022.934, 116.138
1024.183, 96.044
1025.432, 110.241
1026.680, 99.148
1027.929, 84.055
1029.177, 102.895
1030.425, 96.803
1031.673, 108.712
1032.921, 123.644
1034.169, 71.557
1035.416, 106.419
1036.663, 96.333
1037.911, 114.242
1039.157, 100.637
1040.404, 107.283
1041.650, 97.182
1042.897, 92.099
1044.143, 109.016
1045.389, 128.596
1046.634, 112.486
1047.880, 113.189
1049.125, 111.779
1050.371, 120.676
1051.615, 124.597
1052.860, 140.518
1054.105, 137.440
1055.349, 173.129
1056.593, 174.206
1057.837, 187.119
1059.081, 167.074
1060.325, 166.999
1061.568, 208.982
1062.812, 198.908
1064.055, 267.834
1065.298, 331.761
1066.540, 486.733
1067.783, 657.622
1069.025, 588.568
1070.267, 457.497
1071.509, 429.521
1072.751, 398.419
1073.993, 480.353
1075.234, 546.286
1076.475, 656.219
1077.716, 831.111
1078.957, 980.057
1080.198, 1326.404
1081.438, 2013.343
1082.679, 3376.355
1083.919, 7091.633
1085.159, 18762.551
1086.398, 46491.605
1087.638, 59960.598
1088.877, 39149.520
1090.116, 17708.482
1091.355, 9107.547
1092.594, 5074.508
1093.833, 2769.469
1095.071, 1601.398
1096.309, 1049.397
1097.547, 777.341
1098.785, 597.338
1100.023, 485.289
1101.260, 425.254
1102.498, 360.250
1103.735, 329.217
1104.972, 297.224
1106.208, 263.190
1107.445, 254.135
1108.681, 254.179
1109.918, 172.733
1111.154, 191.734
1112.389, 171.895
1113.625, 137.865
1114.860, 172.836
1116.096, 152.938
1117.331, 177.925
1118.566, 138.823
1119.800, 133.514
1121.035, 150.488
1122.269, 132.462
1123.503, 144.559
1124.737, 119.533
1125.971, 123.510
1127.205, 131.522
1128.438, 109.497
1129.671, 119.519
1130.904, 95.521
1132.137, 104.495
1133.370, 101.925
1134.602, 74.900
1135.834, 88.875
1137.066, 71.877
1138.298, 64.854
1139.530, 93.857
1140.762, 53.835
1141.993, 79.812
1143.224, 100.269
1144.455, 42.675
1145.686, 75.652
1146.917, 66.629
1148.147, 50.610
1149.377, 63.591
1150.607, 74.572
1151.837, 71.572
1153.067, 38.595
1154.296, 47.576
1155.526, 65.568
1156.755, 36.569
1157.984, 46.553
1159.213, 32.581
1160.441, 55.564
1161.670, 40.607
1162.898, 54.590
1164.126, 49.584
1165.354, 37.600
1166.581, 33.587
1167.809, 33.596
1169.036, 42.584
1170.263, 28.573
1171.490, 31.576
1172.717, 35.569
1173.943, 28.564
1175.170, 28.559
1176.396, 59.642
1177.622, 12.649
1178.848, 49.682
1180.073, 0.263
1181.299, 7.592
1182.524, 18.584
1183.749, 17.575
1184.974, 23.695
1186.199, 17.771
1187.423, 21.763
1188.648, 39.755
1189.872, 24.774
1191.096, 17.819
1192.320, 18.809
1193.543, 27.958
1194.767, 15.051
1195.990, 13.067
1197.213, 23.176
1198.436, 20.152
1199.659, 16.127
1200.881, 16.102
1202.104, 54.109
1203.326, 3.916
1204.548, 16.096
1205.770, 2.127
1206.991, 31.097
1208.213, 0.869
1209.434, 27.101
1210.655, 22.071
1211.876, 43.040
1213.096, 0.085
1214.317, 12.052
1215.537, 6.018
1216.757, 14.062
1217.977, 1.974
1219.197, 31.734
1220.417, 14.696
1221.636, 27.657
1222.855, 12.617
1224.074, 36.626
1225.293, 9.820
1226.512, 17.465
1227.731, 15.428
1228.949, 0.551
1230.167, 4.953
1231.385, 29.998
1232.603, 1.171
1233.820, 10.820
1235.038, 19.808
1236.255, 14.754
1237.472, 0.241
1238.689, 16.738
1239.906, 21.679
1241.122, 38.620
1242.338, 8.614
1243.555, 27.554
1244.771, 9.493
1245.986, 19.435
1247.202, 28.373
1248.417, 11.307
1249.633, 18.270
1250.848, 9.196
1252.063, 19.122
1253.277, 21.059
1254.492, 1.979
1255.706, 7.102
1256.920, 11.814
1258.134, 1.272
1259.348, 41.663
1260.562, 22.573
1261.775, 15.518
1262.988, 16.385
1264.201, 42.295
1265.414, 8.808
1266.627, 25.086
1267.839, 22.978
1269.052, 0.869
1270.264, 21.759
1271.476, 20.647
1272.688, 11.534
1273.899, 32.420
1275.111, 44.305
1276.322, 15.193
1277.533, 29.080
1278.744, 4.034
1279.955, 30.848
1281.165, 31.729
1282.376, 16.609
1283.586, 27.482
1284.796, 16.353
1286.006, 35.222
1287.215, 25.090
1288.425, 4.043
1289.634, 3.181
1290.843, 37.676
1292.052, 35.532
1293.261, 53.387
1294.469, 25.241
1295.678, 42.093
1296.886, 18.943
1298.094, 13.792
1299.302, 24.639
1300.509, 21.484
1301.717, 20.323
1302.924, 30.160
1304.131, 13.995
1305.338, 35.821
1306.545, 10.645
1307.752, 25.454
1308.958, 22.246
1310.164, 18.036
1311.370, 32.822
1312.576, 19.607
1313.782, 31.388
1314.987, 25.168
1316.193, 22.946
1317.398, 27.721
1318.603, 36.494
1319.807, 28.265
1321.012, 7.033
1322.216, 22.799
1323.421, 16.563
1324.625, 11.324
1325.829, 8.946
1327.032, 26.807
1328.236, 35.557
1329.439, 4.305
1330.642, 8.050
1331.845, 31.793
1333.048, 29.532
1334.251, 20.269
1335.453, 14.004
1336.656, 38.736
1337.858, 3.465
1339.060, 52.191
1340.261, 37.122
1341.463, 0.206
1342.664, 44.922
1343.866, 34.636
1345.067, 69.348
1346.267, 18.104
1347.468, 40.812
1348.669, 16.365
1349.869, 12.069
1351.069, 38.742
1352.269, 12.078
1353.469, 31.719
1354.668, 52.418
1355.868, 52.115
1357.067, 9.811
1358.266, 33.474
1359.465, 37.168
1360.664, 9.843
1361.862, 32.535
1363.061, 6.855
1364.259, 50.833
1365.457, 52.547
1366.655, 38.252
1367.852, 15.913
1369.050, 1.580
1370.247, 5.774
1371.444, 26.876
1372.641, 12.524
1373.838, 20.904
1375.035, 34.394
1376.231, 24.741
1377.427, 17.726
1378.623, 18.314
1379.819, 33.972
1381.015, 13.497
1382.211, 18.805
1383.406, 42.648
1384.601, 38.453
1385.796, 15.257
1386.991, 43.096
1388.185, 74.899
1389.380, 27.691
1390.574, 35.442
1391.768, 61.607
1392.962, 21.183
1394.156, 64.765
1395.350, 42.551
1396.543, 23.553
1397.736, 61.206
1398.929, 45.992
1400.122, 63.732
1401.315, 54.485
1402.507, 21.737
1403.700, 66.510
1404.892, 75.253
1406.084, 45.990
1407.276, 25.174
1408.467, 48.406
1409.659, 64.156
1410.850, 64.903
1412.041, 81.568
1413.232, 79.294
1414.423, 83.011
1415.614, 44.689
1416.804, 98.344
1417.994, 101.020
1419.184, 67.715
1420.374, 83.440
1421.564, 96.149
1422.753, 99.871
1423.943, 133.449
1425.132, 87.021
1426.321, 130.486
1427.510, 165.995
1428.698, 124.562
1429.887, 178.213
1431.075, 171.821
1432.263, 203.264
1433.451, 267.546
1434.639, 428.240
1435.827, 658.881
1437.014, 1079.507
1438.201, 1144.102
1439.388, 958.681
1440.575, 617.360
1441.762, 351.907
1442.949, 262.447
1444.135, 176.801
1445.321, 118.454
1446.507, 140.016
1447.693, 107.952
1448.879, 100.445
1450.064, 61.928
1451.250, 54.764
1452.435, 72.192
1453.620, 111.500
1454.805, 65.994
1455.989, 114.363
1457.174, 64.822
1458.358, 29.284
1459.542, 61.687
1460.726, 65.129
1461.910, 78.604
1463.093, 70.066
1464.277, 37.470
1465.460, 67.917
1466.643, 87.344
1467.826, 62.787
1469.009, 56.219
1470.191, 86.636
1471.373, 51.042
1472.556, 60.432
1473.738, 46.807
1474.919, 31.168
1476.101, 61.548
1477.283, 31.916
1478.464, 46.272
1479.645, 52.625
1480.826, 66.960
1482.007, 69.279
1483.187, 11.578
1484.368, 45.880
1485.548, 50.181
1486.728, 42.519
1487.908, 8.006
1489.088, 63.559
1490.268, 34.120
1491.447, 39.688
1492.626, 50.265
1493.805, 8.152
1494.984, 23.442
1496.163, 77.046
1497.341, 21.662
1498.520, 44.295
1499.698, 17.950
1500.876, 32.630
1502.054, 45.341
1503.232, 67.090
1504.409, 18.644
1505.586, 52.483
1506.763, 15.974
1507.940, 18.867
1509.117, 42.739
1510.294, 17.192
1511.470, 30.599
1512.647, 63.785
1513.823, 26.994
1514.999, 49.828
1516.174, 47.749
1517.350, 1.075
1518.526, 56.172
1519.701, 49.409
1520.876, 0.693
1522.051, 33.107
1523.226, 0.000
##END=



