##NAMES=Calcite
##RRUFFID=R050307
##IDEAL CHEMISTRY=CaCO_3_
##LOCALITY=Zaire
##OWNER=RRUFF
##SOURCE=Eugene Schlepp
##DESCRIPTION=Group of pink prismatic crystals
##STATUS=The identification of this mineral has been confirmed by X-ray diffraction and chemical analysis
##URL=rruff.info/R050307
##MEASURED CHEMISTRY=Ca_1.00_CO_3_
##PIN_ID=L01569
##ORIENTATION=Laser parallel to -c* (0 0 -1). Fiducial mark perpendicular to laser is parallel to a [1 0 0]
116.9030, 0.0000000E+00
118.1340, 0.5966800
119.3650, 81.02588
120.5960, 38.16748
121.8270, 5.325684
123.0580, 99.42480
124.2880, 70.68359
125.5190, 70.94775
126.7490, 45.85693
127.9790, 188.1416
129.2090, 64.59570
130.4390, 194.0542
131.6680, 185.3877
132.8980, 215.4912
134.1270, 128.2778
135.3560, 91.68066
136.5850, 150.6377
137.8140, 103.0942
139.0430, 210.0015
140.2710, 249.3188
141.5000, 251.0107
142.7280, 282.0479
143.9560, 338.7354
145.1840, 397.0498
146.4120, 460.9697
147.6390, 591.1494
148.8670, 654.5791
150.0940, 774.2393
151.3210, 697.1250
152.5490, 740.2217
153.7750, 738.5146
155.0020, 890.9863
156.2290, 677.6211
157.4550, 674.4033
158.6810, 517.3232
159.9080, 434.3750
161.1340, 313.5537
162.3590, 423.8516
163.5850, 239.2656
164.8110, 208.7891
166.0360, 351.4199
167.2610, 326.1533
168.4860, 202.9824
169.7110, 183.9072
170.9360, 200.9229
172.1610, 180.0244
173.3850, 150.2080
174.6100, 230.4727
175.8340, 107.8145
177.0580, 167.2861
178.2820, 235.9180
179.5050, 172.6182
180.7290, 164.3857
181.9520, 187.2119
183.1760, 176.1660
184.3990, 197.2393
185.6220, 170.3623
186.8450, 290.5332
188.0670, 237.7520
189.2900, 241.0186
190.5120, 235.3174
191.7340, 129.5908
192.9560, 231.8564
194.1780, 307.1201
195.4000, 160.3926
196.6220, 84.67773
197.8430, 242.9775
199.0640, 254.2969
200.2860, 143.6367
201.5070, 208.0215
202.7270, 130.4893
203.9480, 149.0068
205.1690, 207.5479
206.3890, 175.1133
207.6090, 72.70410
208.8290, 76.33008
210.0490, 120.0215
211.2690, 272.7383
212.4890, 190.4883
213.7080, 153.2695
214.9280, 251.0898
216.1470, 100.9492
217.3660, 115.8340
218.5850, 142.7441
219.8030, 55.67969
221.0220, 161.6387
222.2400, 196.6240
223.4590, 181.6338
224.6770, 178.6680
225.8950, 216.6406
227.1120, 189.8076
228.3300, 255.9150
229.5480, 223.0449
230.7650, 182.1982
231.9820, 197.3740
233.1990, 194.0732
234.4160, 130.7979
235.6330, 214.0762
236.8490, 181.3711
238.0660, 147.4814
239.2820, 196.7451
240.4980, 249.0381
241.7140, 237.0381
242.9300, 300.2090
244.1460, 245.5645
245.3610, 229.9395
246.5770, 211.3633
247.7920, 215.4062
249.0070, 253.8809
250.2220, 225.7744
251.4370, 300.2559
252.6510, 336.7578
253.8660, 370.8457
255.0800, 267.8105
256.2940, 429.3643
257.5080, 399.9346
258.7220, 332.5518
259.9360, 516.2246
261.1490, 426.9141
262.3630, 611.6182
263.5760, 494.5488
264.7890, 654.2285
266.0020, 779.2607
267.2150, 880.4365
268.4270, 854.6543
269.6400, 1087.061
270.8520, 1312.562
272.0640, 1630.150
273.2760, 1816.076
274.4880, 2015.668
275.7000, 2160.526
276.9120, 2315.505
278.1230, 2318.441
279.3340, 2383.434
280.5450, 2365.477
281.7560, 2238.566
282.9670, 2051.702
284.1780, 1859.882
285.3880, 1440.331
286.5980, 1160.872
287.8090, 895.1689
289.0190, 797.3672
290.2290, 551.7324
291.4380, 391.1338
292.6480, 437.5645
293.8570, 451.0264
295.0670, 274.5166
296.2760, 299.0361
297.4850, 311.5820
298.6930, 289.7773
299.9020, 251.3750
301.1110, 247.9922
302.3190, 232.1494
303.5270, 214.2793
304.7350, 227.9727
305.9430, 235.6465
307.1510, 254.3516
308.3580, 251.1064
309.5660, 226.8818
310.7730, 258.6777
311.9800, 127.6133
313.1870, 169.4453
314.3940, 290.2979
315.6010, 90.16699
316.8070, 111.0586
318.0130, 185.9629
319.2200, 217.8818
320.4260, 100.8320
321.6310, 173.7969
322.8370, 100.7773
324.0430, 102.7715
325.2480, 230.7812
326.4540, 115.8047
327.6590, 156.8428
328.8640, 13.89258
330.0680, 157.9561
331.2730, 214.0322
332.4780, 116.1201
333.6820, 34.22070
334.8860, 94.33301
336.0900, 156.4561
337.2940, 121.5918
338.4980, 173.7393
339.7010, 197.8994
340.9050, 66.07129
342.1080, 170.2549
343.3110, 75.45117
344.5140, 149.6582
345.7170, 94.87695
346.9200, 169.1074
348.1220, 115.3486
349.3240, 215.6016
350.5270, 111.8652
351.7290, 1.860352
352.9310, 108.4238
354.1320, 25.71973
355.3340, 103.9746
356.5350, 87.32324
357.7370, 49.10059
358.9380, 170.2100
360.1390, 6.796875
361.3400, 89.12793
362.5400, 246.4678
363.7410, 219.9170
364.9410, 18.72461
366.1410, 30.64160
367.3410, 154.0166
368.5410, 92.39941
369.7410, 258.7920
370.9400, 77.19336
372.1400, 67.60352
373.3390, 97.72559
374.5380, 101.1533
375.7370, 75.63184
376.9360, 104.7969
378.1350, 8.233398
379.3330, 61.67871
380.5310, 175.1309
381.7300, 72.42969
382.9280, 185.9932
384.1260, 112.4248
385.3230, 201.8652
386.5210, 48.30762
387.7180, 89.75977
388.9160, 160.2178
390.1130, 191.6836
391.3100, 111.1572
392.5060, 107.6221
393.7030, 37.09375
394.9000, 33.55664
396.0960, 166.0264
397.2920, 178.2900
398.4880, 250.5449
399.6840, 125.2266
400.8800, 104.7324
402.0750, 37.24414
403.2710, 159.7607
404.4660, 242.2842
405.6610, 137.8125
406.8560, 153.3457
408.0510, 96.89355
409.2450, 134.4570
410.4400, 105.0322
411.6340, 164.6211
412.8280, 9.221680
414.0220, 93.83496
415.2160, 101.4590
416.4100, 2.358398
417.6030, 116.2832
418.7970, 98.93457
419.9900, 111.4248
421.1830, 89.09570
422.3760, 150.7754
423.5690, 96.46387
424.7610, 150.1602
425.9540, 135.8652
427.1460, 144.5781
428.3380, 58.70117
429.5300, 41.00000
430.7220, 12.68750
431.9140, 32.54688
433.1050, 89.06836
434.2970, 35.76172
435.4880, 104.4619
436.6790, 143.1680
437.8700, 101.8809
439.0610, 191.6006
440.2510, 110.3252
441.4420, 5.940430
442.6320, 42.79102
443.8220, 50.29492
445.0120, 229.4229
446.2020, 102.1465
447.3910, 204.8770
448.5810, 40.61230
449.7700, 10.64746
450.9600, 46.08984
452.1490, 270.8330
453.3370, 93.58105
454.5260, 32.66602
455.7150, 209.0732
456.9030, 125.8887
458.0910, 70.63770
459.2800, 14.39160
460.4670, 214.1504
461.6550, 148.9121
462.8430, 207.6270
464.0300, 166.3984
465.2180, 190.1885
466.4050, 51.98047
467.5920, 168.7773
468.7790, 206.5801
469.9650, 125.3848
471.1520, 195.2178
472.3380, 206.0547
473.5250, 84.89551
474.7110, 130.7402
475.8970, 35.58887
477.0820, 96.44043
478.2680, 111.3047
479.4540, 64.17383
480.6390, 134.0459
481.8240, 52.92285
483.0090, 256.8027
484.1940, 92.68555
485.3780, 207.5723
486.5630, 163.4619
487.7470, 25.35352
488.9320, 161.2500
490.1160, 46.14844
491.3000, 203.0508
492.4830, 78.95508
493.6670, 152.8623
494.8500, 299.7617
496.0340, 35.72168
497.2170, 74.68262
498.4000, 105.5049
499.5820, 10.52734
500.7650, 164.8779
501.9480, 11.16016
503.1300, 168.7920
504.3120, 191.7480
505.4940, 15.72168
506.6760, 154.6953
507.8580, 23.22461
509.0390, 242.2031
510.2210, 153.1846
511.4020, 220.1699
512.5830, 161.1553
513.7640, 229.1445
514.9450, 35.86426
516.1250, 80.10547
517.3060, 70.92090
518.4860, 219.8164
519.6660, 52.75391
520.8460, 44.69238
522.0260, 71.74902
523.2060, 89.69141
524.3850, 95.52148
525.5650, 83.47070
526.7440, 173.4209
527.9230, 155.8730
529.1020, 228.3281
530.2810, 156.2852
531.4590, 126.2451
532.6380, 70.47266
533.8160, 224.4375
534.9940, 148.4023
536.1720, 171.3711
537.3500, 119.3428
538.5270, 19.38281
539.7050, 36.40430
540.8820, 43.46680
542.0590, 180.4443
543.2360, 206.3574
544.4130, 188.2734
545.5900, 213.1904
546.7660, 112.1094
547.9430, 129.0322
549.1190, 109.9580
550.2950, 131.8857
551.4710, 126.8145
552.6470, 103.7451
553.8220, 118.6768
554.9980, 105.6094
556.1730, 83.54492
557.3480, 4.482422
558.5230, 256.1602
559.6980, 94.09473
560.8730, 18.96875
562.0470, 226.9512
563.2220, 259.8740
564.3960, 29.79785
565.5700, 142.7217
566.7440, 207.6484
567.9170, 129.5752
569.0910, 191.5039
570.2640, 77.20605
571.4380, 178.8740
572.6110, 110.8252
573.7840, 204.9121
574.9570, 209.8662
576.1290, 243.6016
577.3020, 114.7773
578.4740, 271.7344
579.6460, 203.6914
580.8180, 67.65137
581.9900, 153.6113
583.1620, 31.94922
584.3330, 10.91211
585.5040, 127.9092
586.6760, 122.8711
587.8470, 65.83398
589.0180, 173.7969
590.1880, 172.7607
591.3590, 116.7959
592.5290, 168.8330
593.7000, 121.7295
594.8700, 149.6992
596.0400, 78.54883
597.2090, 11.51758
598.3790, 178.4873
599.5490, 194.4580
600.7180, 153.4248
601.8870, 199.3965
603.0560, 43.62988
604.2250, 75.31641
605.3940, 77.22949
606.5620, 57.17773
607.7300, 169.1270
608.8990, 58.07617
610.0670, 152.0254
611.2350, 156.4961
612.4020, 240.4463
613.5700, 238.3965
614.7370, 123.3477
615.9050, 133.2988
617.0720, 120.2490
618.2390, 137.3037
619.4060, 173.2529
620.5720, 122.2041
621.7390, 135.3975
622.9050, 183.3477
624.0710, 293.2969
625.2370, 238.2461
626.4030, 250.1943
627.5690, 172.1465
628.7340, 113.0996
629.9000, 130.0527
631.0650, 62.00391
632.2300, 102.9541
633.3950, 103.9072
634.5600, 225.4102
635.7240, 137.5684
636.8890, 89.51953
638.0530, 163.4688
639.2170, 55.46191
640.3810, 125.1865
641.5450, 178.1836
642.7080, 49.92969
643.8720, 161.9404
645.0350, 219.1475
646.1980, 79.05664
647.3610, 224.0723
648.5240, 175.0820
649.6870, 296.1318
650.8490, 97.14746
652.0120, 93.15137
653.1740, 109.1543
654.3360, 261.1562
655.4980, 301.4521
656.6600, 310.4961
657.8210, 199.8516
658.9830, 249.9072
660.1440, 154.9268
661.3050, 17.93359
662.4660, 201.9424
663.6270, 179.9492
664.7870, 39.96777
665.9480, 79.98438
667.1080, 156.0000
668.2680, 169.0127
669.4280, 114.0479
670.5880, 109.0811
671.7480, 11.11230
672.9070, 210.1396
674.0670, 68.16406
675.2260, 48.18848
676.3850, 178.3564
677.5440, 25.62402
678.7030, 25.59473
679.8610, 193.8271
681.0200, 189.6377
682.1780, 108.6279
683.3360, 209.6875
684.4940, 118.6934
685.6520, 91.69629
686.8090, 55.02344
687.9670, 52.78613
689.1240, 141.2744
690.2810, 84.31055
691.4380, 126.3438
692.5950, 133.3750
693.7520, 77.40430
694.9080, 178.4316
696.0650, 150.5039
697.2210, 215.0791
698.3770, 245.1016
699.5330, 338.1211
700.6880, 387.3135
701.8440, 561.8506
702.9990, 885.4238
704.1550, 1039.434
705.3100, 1267.440
706.4650, 1717.733
707.6190, 2025.734
708.7740, 2621.749
709.9290, 2906.199
711.0830, 2913.217
712.2370, 2804.230
713.3910, 1921.250
714.5450, 1406.266
715.6980, 674.2783
716.8520, 536.2881
718.0050, 254.3232
719.1580, 330.3262
720.3110, 265.3252
721.4640, 101.4014
722.6170, 504.3975
723.7700, 116.2158
724.9220, 320.2178
726.0740, 242.2168
727.2260, 178.2119
728.3780, 212.2012
729.5300, 121.1904
730.6810, 263.5332
731.8330, 221.5186
732.9840, 147.4990
734.1350, 287.4766
735.2860, 126.4590
736.4370, 199.3652
737.5880, 42.34082
738.7380, 107.3975
739.8880, 100.3701
741.0390, 187.3398
742.1890, 56.35938
743.3380, 36.65723
744.4880, 32.27637
745.6380, 106.2041
746.7870, 34.12891
747.9360, 130.0508
749.0850, 77.03223
750.2340, 152.0615
751.3830, 221.9297
752.5310, 46.07129
753.6800, 172.9258
754.8280, 117.8291
755.9760, 22.30566
757.1240, 200.5371
758.2720, 147.5195
759.4190, 14.55664
760.5670, 225.3828
761.7140, 87.20508
762.8610, 82.02344
764.0080, 117.8379
765.1550, 116.5391
766.3020, 138.5078
767.4480, 239.5391
768.5950, 164.3340
769.7410, 181.1250
770.8870, 166.6426
772.0330, 44.57617
773.1780, 102.8320
774.3240, 78.84766
775.4690, 229.5234
776.6140, 125.7969
777.7590, 188.4629
778.9040, 195.1270
780.0490, 79.71875
781.1940, 169.3809
782.3380, 34.55469
783.4820, 271.0664
784.6260, 57.68164
785.7700, 155.3535
786.9140, 49.96875
788.0580, 58.79102
789.2010, 219.7227
790.3450, 74.31055
791.4880, 125.1562
792.6310, 277.7305
793.7730, 30.31250
794.9160, 173.8848
796.0590, 52.54883
797.2010, 61.13281
798.3430, 143.8633
799.4850, 147.7480
800.6270, 231.3105
801.7690, 131.8672
802.9100, 240.4180
804.0520, 169.9629
805.1930, 191.6367
806.3340, 180.7988
807.4750, 155.3242
808.6160, 117.8418
809.7560, 202.3320
810.8970, 151.8359
812.0370, 108.5547
813.1770, 42.04492
814.3170, 198.5293
815.4570, 80.70508
816.5960, 148.4316
817.7360, 89.91406
818.8750, 175.4043
820.0140, 67.52148
821.1530, 237.0039
822.2920, 91.47461
823.4310, 29.06055
824.5690, 34.51367
825.7070, 219.9570
826.8460, 251.0156
827.9840, 155.4434
829.1220, 155.8633
830.2590, 94.57617
831.3970, 116.9805
832.5340, 81.37891
833.6710, 69.02930
834.8080, 238.4141
835.9450, 223.7891
837.0820, 93.36328
838.2190, 74.73438
839.3550, 234.0938
840.4910, 226.4492
841.6270, 271.8926
842.7630, 41.23047
843.8990, 273.5566
845.0350, 92.87695
846.1700, 46.81055
847.3060, 222.4531
848.4410, 230.7109
849.5760, 266.9590
850.7100, 168.1992
851.8450, 213.4316
852.9800, 204.6562
854.1140, 91.87305
855.2480, 115.0820
856.3820, 173.3867
857.5160, 80.58008
858.6500, 171.8398
859.7830, 359.0156
860.9170, 180.1855
862.0500, 234.3438
863.1830, 158.4961
864.3160, 132.6426
865.4480, 191.0762
866.5810, 36.20703
867.7130, 253.3242
868.8460, 118.4355
869.9780, 273.5352
871.1100, 274.6289
872.2410, 222.7227
873.3730, 177.8105
874.5050, 83.28516
875.6360, 301.3496
876.7670, 123.4277
877.8980, 332.4844
879.0290, 99.54883
880.1590, 142.9727
881.2900, 265.0176
882.4200, 177.2070
883.5500, 210.2383
884.6800, 134.2637
885.8100, 43.75586
886.9400, 96.69141
888.0690, 36.98633
889.1990, 184.9785
890.3280, 85.96094
891.4570, 185.7441
892.5860, 158.6094
893.7140, 67.57227
894.8430, 53.53320
895.9710, 242.2441
897.1000, 196.1875
898.2280, 165.1270
899.3560, 113.0820
900.4830, 6.005859
901.6110, 29.91406
902.7380, 95.81055
903.8660, 224.6992
904.9930, 213.7578
906.1200, 9.550781
907.2460, 246.4238
908.3730, 178.7422
909.5000, 179.4980
910.6260, 242.1523
911.7520, 90.62305
912.8780, 174.1621
914.0040, 153.9375
915.1290, 48.29102
916.2550, 270.4395
917.3800, 16.16211
918.5050, 150.6777
919.6300, 205.3828
920.7550, 78.07422
921.8800, 89.90234
923.0040, 39.54492
924.1290, 20.15234
925.2530, 101.8809
926.3770, 29.54102
927.5010, 150.1914
928.6250, 184.8359
929.7480, 188.2930
930.8720, 74.92383
931.9950, 203.5000
933.1180, 56.10547
934.2410, 11.28516
935.3640, 142.3027
936.4860, 174.8867
937.6090, 215.4629
938.7310, 222.0352
939.8530, 60.59961
940.9750, 78.84180
942.0970, 179.6621
943.2180, 240.1582
944.3400, 35.65039
945.4610, 162.1367
946.5820, 40.61523
947.7030, 232.0859
948.8240, 341.4043
949.9450, 153.8594
951.0650, 29.32227
952.1860, 244.7715
953.3060, 203.2168
954.4260, 64.34375
955.5460, 90.99805
956.6650, 328.3848
957.7850, 63.76562
958.9040, 217.8184
960.0230, 297.9316
961.1420, 144.7051
962.2610, 127.5723
963.3800, 122.8477
964.4990, 21.11914
965.6170, 112.3809
966.7350, 117.6387
967.8530, 29.84180
968.9710, 115.9805
970.0890, 191.2168
971.2070, 42.44531
972.3240, 140.6602
973.4410, 157.7910
974.5580, 120.9980
975.6750, 67.19922
976.7920, 111.3945
977.9090, 138.2969
979.0250, 136.4844
980.1410, 147.6504
981.2580, 99.38867
982.3740, 139.5586
983.4890, 183.7246
984.6050, 99.88281
985.7200, 250.0391
986.8360, 156.1934
987.9510, 126.3379
989.0660, 187.4473
990.1810, 60.58008
991.2950, 217.7070
992.4100, 66.74609
993.5240, 148.8613
994.6390, 105.9727
995.7530, 156.0781
996.8660, 191.2754
997.9800, 183.4004
999.0940, 13.51758
1000.207, 299.7148
1001.320, 261.4648
1002.433, 385.5625
1003.546, 96.65625
1004.659, 175.7461
1005.772, 177.8633
1006.884, 332.9414
1007.996, 1.1719000E-02
1009.108, 14.63086
1010.220, 81.41602
1011.332, 257.6035
1012.444, 124.1758
1013.555, 5.181641
1014.666, 136.2305
1015.777, 48.27344
1016.888, 104.5215
1017.999, 287.5586
1019.110, 111.5898
1020.220, 209.4453
1021.331, 30.53320
1022.441, 101.1406
1023.551, 256.2207
1024.661, 76.75781
1025.770, 145.5234
1026.880, 208.9102
1027.989, 209.3848
1029.098, 164.2031
1030.207, 142.3477
1031.316, 286.5508
1032.425, 79.55859
1033.533, 245.6582
1034.642, 177.8359
1035.750, 173.4648
1036.858, 98.41992
1037.966, 264.4004
1039.073, 61.37305
1040.181, 149.8691
1041.288, 313.9219
1042.396, 62.24609
1043.503, 43.25781
1044.610, 175.2656
1045.716, 230.9492
1046.823, 232.0488
1047.929, 268.3770
1049.036, 237.5605
1050.142, 219.5762
1051.248, 202.4355
1052.353, 137.4551
1053.459, 299.4688
1054.564, 46.41406
1055.670, 293.4023
1056.775, 134.1758
1057.880, 170.8281
1058.985, 211.8105
1060.089, 376.6211
1061.194, 423.5938
1062.298, 523.5586
1063.402, 619.5234
1064.506, 337.4023
1065.610, 525.4648
1066.713, 519.2559
1067.817, 666.7793
1068.920, 477.7148
1070.023, 649.0215
1071.126, 480.9766
1072.229, 620.8984
1073.332, 672.0723
1074.435, 964.3477
1075.537, 1707.250
1076.639, 2646.773
1077.741, 5094.689
1078.843, 9709.574
1079.945, 14815.24
1081.046, 18792.12
1082.148, 26174.99
1083.249, 33718.86
1084.350, 39005.45
1085.451, 38636.34
1086.551, 31738.61
1087.652, 20788.87
1088.752, 10430.75
1089.853, 4837.859
1090.953, 2399.291
1092.053, 1444.166
1093.152, 1099.125
1094.252, 684.3711
1095.351, 595.9961
1096.451, 407.0059
1097.550, 430.8633
1098.649, 317.7148
1099.748, 402.5605
1100.846, 292.1426
1101.945, 423.9785
1103.043, 364.8066
1104.141, 308.4883
1105.239, 304.3125
1106.337, 302.3125
1107.434, 266.1289
1108.532, 263.8379
1109.629, 273.9004
1110.726, 391.7051
1111.823, 355.4980
1112.920, 191.9707
1114.017, 366.7734
1115.113, 215.5703
1116.210, 107.3750
1117.306, 352.4824
1118.402, 70.50586
1119.498, 297.2969
1120.593, 202.0762
1121.689, 277.8535
1122.784, 186.9258
1123.879, 271.6934
1124.974, 163.7148
1126.069, 137.4727
1127.164, 325.4746
1128.259, 53.50000
1129.353, 174.9395
1130.447, 203.6699
1131.541, 60.09570
1132.635, 214.8145
1133.729, 96.77148
1134.822, 126.4844
1135.916, 137.3828
1137.009, 41.91992
1138.102, 210.7832
1139.195, 241.4531
1140.288, 1.281250
1141.380, 233.6523
1142.473, 48.28125
1143.565, 8.738281
1144.657, 137.9551
1145.749, 97.00391
1146.841, 258.6172
1147.932, 37.19727
1149.024, 153.4062
1150.115, 109.9980
1151.206, 183.5312
1152.297, 144.2227
1153.388, 12.32422
1154.479, 175.2324
1155.569, 309.7793
1156.659, 35.58008
1157.750, 11.26562
1158.839, 29.79688
1159.929, 117.6992
1161.019, 67.35742
1162.108, 52.39453
1163.198, 106.8691
1164.287, 75.92188
1165.376, 81.37695
1166.465, 221.8301
1167.553, 143.2754
1168.642, 238.7129
1169.730, 149.1426
1170.818, 55.43164
1171.906, 85.00391
1172.994, 23.07227
1174.082, 134.9648
1175.170, 211.6016
1176.257, 50.03906
1177.344, 285.5625
1178.431, 103.7461
1179.518, 8.498047
1180.605, 429.8516
1181.691, 50.19141
1182.778, 160.6035
1183.864, 208.1016
1184.950, 132.4141
1186.036, 284.5820
1187.122, 147.8770
1188.207, 315.1621
1189.292, 353.4395
1190.378, 92.70312
1191.463, 135.9629
1192.548, 120.4277
1193.632, 198.6641
1194.717, 178.8906
1195.801, 92.10938
1196.886, 173.3164
1197.970, 115.5176
1199.054, 248.7617
1200.137, 29.94531
1201.221, 112.1172
1202.305, 268.6680
1203.388, 25.82031
1204.471, 219.9609
1205.554, 295.1133
1206.637, 1.744141
1207.719, 59.38477
1208.802, 179.4980
1209.884, 120.6035
1210.966, 227.9121
1212.048, 125.9961
1213.130, 172.3301
1214.212, 353.3906
1215.293, 201.2832
1216.374, 43.32617
1217.456, 198.3047
1218.536, 215.3418
1219.617, 82.80273
1220.698, 1.814453
1221.778, 228.1367
1222.859, 118.3105
1223.939, 186.1641
1225.019, 16.83008
1226.099, 104.6035
1227.178, 69.57812
1228.258, 300.5430
1229.337, 341.4961
1230.417, 282.4375
1231.496, 367.1074
1232.574, 129.5684
1233.653, 321.5098
1234.732, 188.5723
1235.810, 100.4766
1236.888, 282.0938
1237.966, 177.9707
1239.044, 84.83594
1240.122, 2.312500
1241.199, 239.5176
1242.277, 7.337891
1243.354, 264.2168
1244.431, 180.0078
1245.508, 332.6816
1246.585, 77.46680
1247.661, 97.23828
1248.738, 151.9863
1249.814, 179.7969
1250.890, 253.6484
1251.966, 57.36523
1253.042, 177.2969
1254.117, 73.98828
1255.193, 209.6621
1256.268, 95.32422
1257.343, 3.031250
1258.418, 73.26562
1259.493, 198.2949
1260.567, 210.8418
1261.642, 210.2930
1262.716, 99.81641
1263.790, 225.9766
1264.864, 112.8984
1265.938, 195.3809
1267.011, 151.8164
1268.085, 325.4785
1269.158, 294.9238
1270.231, 94.98047
1271.304, 286.4023
1272.377, 78.66602
1273.450, 144.5293
1274.522, 25.08594
1275.594, 348.8203
1276.666, 1.349609
1277.738, 30.45117
1278.810, 298.8340
1279.882, 106.8828
1280.953, 45.68359
1282.025, 138.4688
1283.096, 229.8027
1284.167, 176.9258
1285.238, 149.1816
1286.308, 128.0469
1287.379, 65.79492
1288.449, 300.2891
1289.519, 125.3613
1290.589, 39.34375
1291.659, 175.4609
1292.729, 33.52930
1293.798, 240.4414
1294.868, 270.5996
1295.937, 253.5859
1297.006, 190.5566
1298.075, 241.5117
1299.143, 143.3730
