##NAMES=Calcite
##RRUFFID=R050048
##IDEAL CHEMISTRY=CaCO_3_
##LOCALITY=Magdalena, New Mexico, USA
##OWNER=RRUFF
##SOURCE=University of Arizona Mineral Museum
##DESCRIPTION=Colorless massive
##STATUS=The identification of this mineral has been confirmed by X-ray diffraction and chemical analysis
##URL=rruff.info/R050048
##MEASURED CHEMISTRY=(Ca_0.99_Zn_0.01_)CO_3_
##PIN_ID=M00181
##ORIENTATION=Laser parallel to c* (0 0 1). Fiducial mark perpendicular to laser is parallel to b [0 1 0]
101.049, 0.000
102.446, 1.053
103.843, 6.408
105.240, 38.385
106.637, 61.383
108.033, 82.129
109.429, 73.887
110.825, 90.185
112.220, 139.694
113.616, 139.180
115.011, 190.476
116.406, 324.462
117.800, 276.047
119.195, 253.136
120.589, 178.654
121.983, 143.542
123.377, 144.753
124.770, 154.248
126.163, 153.012
127.556, 153.154
128.949, 153.993
130.342, 143.754
131.734, 150.511
133.126, 136.432
134.518, 134.458
135.909, 132.584
137.301, 138.808
138.692, 140.161
140.083, 163.526
141.473, 147.006
142.864, 187.564
144.254, 188.194
145.644, 296.889
147.034, 308.642
148.423, 411.448
149.812, 525.305
151.201, 749.779
152.590, 919.484
153.979, 1060.440
155.367, 1083.443
156.755, 903.490
158.143, 685.580
159.530, 512.416
160.918, 408.129
162.305, 286.372
163.692, 215.423
165.078, 134.598
166.465, 140.802
167.851, 111.050
169.237, 124.329
170.623, 78.650
172.008, 80.013
173.393, 56.547
174.778, 84.961
176.163, 97.403
177.548, 38.873
178.932, 42.398
180.316, 34.933
181.700, 61.490
183.083, 64.115
184.467, 57.766
185.850, 18.405
187.233, 56.039
188.616, 19.671
189.998, 37.300
191.380, 45.928
192.762, 9.557
194.144, 12.189
195.525, 7.824
196.907, 7.463
198.288, 37.118
199.669, 11.210
201.049, 31.473
202.429, 13.839
203.810, 12.854
205.189, 6.550
206.569, 6.252
207.949, 14.960
209.328, 17.029
210.707, 42.768
212.085, 24.513
213.464, 30.458
214.842, 42.216
216.220, 3.977
217.598, 33.987
218.976, 2.767
220.353, 23.475
221.730, 3.712
223.107, 4.407
224.483, 15.824
225.860, 23.955
227.236, 17.948
228.612, 20.730
229.988, 11.512
231.363, 18.297
232.738, 16.669
234.113, 15.664
235.488, 14.665
236.863, 18.440
238.237, 11.378
239.611, 27.596
240.985, 42.727
242.359, 38.490
243.732, 3.860
245.105, 18.883
246.478, 16.625
247.851, 56.489
249.223, 5.234
250.595, 55.188
251.967, 59.094
253.339, 112.825
254.711, 67.961
256.082, 101.678
257.453, 84.384
258.824, 134.089
260.195, 99.175
261.565, 135.645
262.935, 148.284
264.305, 183.473
265.675, 180.323
267.044, 225.643
268.414, 256.928
269.783, 278.086
271.151, 372.419
272.520, 466.464
273.888, 525.829
275.256, 635.244
276.624, 853.703
277.992, 1037.340
279.359, 1241.872
280.726, 1380.433
282.093, 1407.020
283.460, 1176.630
284.827, 1046.341
286.193, 832.990
287.559, 654.655
288.925, 542.336
290.290, 365.043
291.656, 345.766
293.021, 232.486
294.386, 248.918
295.750, 125.657
297.115, 147.404
298.479, 128.646
299.843, 50.406
301.207, 89.194
302.570, 33.966
303.933, 100.742
305.296, 73.522
306.659, 53.307
308.022, 54.095
309.384, 8.886
310.746, 70.731
312.108, 23.529
313.470, 55.627
314.831, 67.049
316.193, 4.792
317.554, 63.881
318.914, 24.714
320.275, 20.668
321.635, 34.469
322.995, 1.729
324.355, 39.737
325.715, 3.552
327.074, 57.336
328.434, 15.145
329.792, 13.925
331.151, 25.714
332.510, 17.506
333.868, 5.511
335.226, 37.416
336.584, 23.202
337.941, 38.979
339.299, 47.942
340.656, 27.712
342.013, 3.519
343.370, 28.247
344.726, 5.410
346.082, 43.538
347.438, 15.879
348.794, 52.641
350.150, 0.598
351.505, 36.343
352.860, 45.098
354.215, 36.852
355.570, 34.603
356.924, 34.646
358.278, 19.183
359.632, 25.937
360.986, 5.683
362.339, 8.573
363.693, 43.066
365.046, 4.806
366.399, 42.301
367.751, 0.089
369.104, 34.895
370.456, 6.742
371.808, 1.575
373.159, 28.298
374.511, 16.785
375.862, 5.926
377.213, 51.632
378.564, 1.298
379.914, 25.799
381.265, 24.530
382.615, 40.225
383.965, 9.671
385.315, 56.961
386.664, 26.632
388.013, 19.181
389.362, 41.844
390.711, 2.750
392.060, 23.636
393.408, 29.332
394.756, 31.037
396.104, 13.300
397.451, 20.329
398.799, 51.979
400.146, 2.609
401.493, 13.248
402.840, 31.851
404.186, 30.495
405.533, 77.138
406.879, 8.719
408.225, 10.317
409.570, 18.933
410.916, 38.496
412.261, 41.054
413.606, 18.606
414.951, 22.251
416.295, 0.842
417.639, 23.548
418.983, 4.933
420.327, 23.334
421.671, 27.214
423.014, 32.292
424.357, 19.183
425.700, 5.646
427.043, 28.093
428.386, 0.535
429.728, 3.973
431.070, 12.744
432.412, 9.556
433.753, 3.328
435.095, 24.126
436.436, 33.543
437.777, 36.957
439.118, 9.436
440.458, 35.395
441.798, 28.797
443.138, 61.195
444.478, 40.591
445.818, 12.982
447.157, 43.396
448.496, 29.835
449.835, 27.218
451.174, 20.740
452.513, 20.155
453.851, 46.886
455.189, 16.751
456.527, 38.593
457.864, 49.932
459.202, 3.270
460.539, 49.611
461.876, 21.934
463.212, 63.256
464.549, 32.572
465.885, 39.883
467.221, 41.189
468.557, 76.490
469.893, 47.785
471.228, 20.074
472.563, 53.358
473.898, 9.636
475.233, 1.906
476.567, 8.164
477.902, 2.284
479.236, 24.425
480.570, 15.656
481.903, 36.882
483.237, 57.102
484.570, 1.192
485.903, 26.395
487.235, 56.651
488.568, 27.843
489.900, 71.028
491.232, 33.207
492.564, 44.380
493.896, 12.647
495.227, 17.812
496.558, 32.970
497.889, 35.121
499.220, 15.267
500.551, 38.480
501.881, 41.614
503.211, 43.478
504.541, 8.706
505.870, 9.818
507.200, 4.024
508.529, 42.158
509.858, 66.244
511.187, 17.187
512.515, 49.283
513.844, 47.596
515.172, 72.657
516.500, 29.871
517.827, 35.931
519.155, 40.985
520.482, 45.158
521.809, 59.205
523.136, 27.583
524.462, 59.620
525.789, 73.630
527.115, 30.685
528.441, 27.518
529.766, 23.842
531.092, 24.849
532.417, 62.388
533.742, 19.452
535.067, 70.246
536.391, 89.208
537.716, 11.204
539.040, 9.854
540.364, 48.897
541.688, 42.846
543.011, 46.956
544.334, 62.120
545.657, 58.053
546.980, 16.980
548.303, 62.900
549.625, 15.814
550.947, 16.613
552.269, 34.509
553.591, 31.399
554.913, 40.044
556.234, 46.061
557.555, 38.931
558.876, 42.795
560.197, 39.298
561.517, 49.344
562.837, 32.188
564.157, 31.781
565.477, 28.612
566.797, 37.429
568.116, 32.249
569.435, 60.062
570.754, 47.918
572.073, 43.719
573.391, 23.520
574.709, 32.314
576.027, 17.079
577.345, 64.555
578.663, 24.579
579.980, 30.464
581.297, 91.225
582.614, 49.486
583.931, 74.234
585.248, 48.863
586.564, 63.600
587.880, 45.865
589.196, 5.297
590.511, 72.994
591.827, 23.603
593.142, 30.623
594.457, 41.323
595.772, 75.036
597.086, 22.723
598.401, 0.736
599.715, 60.029
601.029, 92.694
602.343, 52.692
603.656, 54.345
604.969, 32.912
606.282, 28.106
607.595, 44.436
608.908, 15.099
610.220, 30.780
611.532, 4.381
612.844, 99.989
614.156, 81.892
615.468, 68.491
616.779, 74.959
618.090, 36.059
619.401, 110.641
620.712, 73.230
622.022, 130.802
623.332, 60.469
624.642, 165.028
625.952, 177.582
627.262, 129.130
628.571, 92.673
629.880, 87.288
631.189, 68.819
632.498, 52.080
633.807, 43.979
635.115, 86.146
636.423, 45.782
637.731, 43.254
639.039, 85.338
640.346, 64.833
641.653, 37.322
642.960, 87.189
644.267, 23.636
645.574, 104.110
646.880, 47.596
648.186, 90.060
649.492, 114.508
650.798, 60.034
652.103, 92.424
653.409, 48.781
654.714, 82.211
656.019, 54.661
657.323, 19.901
658.628, 97.668
659.932, 74.088
661.236, 10.491
662.540, 81.561
663.843, 14.601
665.147, 26.421
666.450, 48.811
667.753, 30.196
669.056, 30.393
670.358, 4.820
671.660, 83.420
672.963, 10.489
674.264, 40.857
675.566, 44.489
676.868, 15.446
678.169, 41.782
679.470, 6.886
680.771, 41.366
682.071, 48.699
683.372, 32.010
684.672, 51.262
685.972, 5.140
687.271, 59.317
688.571, 2.501
689.870, 21.779
691.169, 37.856
692.468, 38.132
693.767, 32.402
695.065, 64.302
696.364, 16.165
697.662, 72.422
698.960, 9.665
700.257, 97.912
701.555, 88.157
702.852, 131.398
704.149, 240.412
705.446, 206.644
706.742, 393.622
708.038, 638.614
709.335, 1186.786
710.631, 2327.942
711.926, 2920.127
713.222, 2570.338
714.517, 1708.519
715.812, 847.711
717.107, 454.885
718.402, 257.080
719.696, 165.215
720.990, 148.362
722.284, 69.807
723.578, 128.969
724.872, 105.104
726.165, 21.284
727.458, 67.460
728.751, 67.069
730.044, 91.136
731.336, 106.249
732.629, 23.228
733.921, 87.386
735.213, 25.457
736.504, 40.569
737.796, 94.727
739.087, 34.892
740.378, 12.053
741.669, 39.210
742.960, 55.364
744.250, 45.517
745.540, 33.330
746.830, 52.477
748.120, 17.554
749.410, 100.663
750.699, 25.803
751.988, 54.940
753.277, 48.005
754.566, 7.583
755.854, 45.744
757.143, 0.131
758.431, 28.987
759.719, 63.101
761.006, 14.814
762.294, 34.232
763.581, 20.327
764.868, 11.275
766.155, 70.323
767.442, 41.047
768.728, 96.582
770.014, 52.670
771.300, 9.246
772.586, 46.829
773.872, 40.889
775.157, 12.040
776.442, 97.020
777.727, 4.076
779.012, 78.130
780.297, 55.181
781.581, 26.229
782.865, 44.275
784.149, 2.318
785.433, 79.358
786.716, 16.395
787.999, 75.431
789.282, 21.468
790.565, 53.503
791.848, 59.541
793.130, 8.425
794.413, 68.602
795.695, 39.627
796.977, 8.645
798.258, 33.667
799.540, 46.628
800.821, 10.647
802.102, 43.664
803.382, 39.679
804.663, 3.691
805.943, 16.298
807.224, 10.700
808.504, 20.698
809.783, 15.694
811.063, 28.687
812.342, 3.396
813.621, 30.592
814.900, 27.551
816.179, 9.427
817.457, 43.411
818.736, 57.292
820.014, 53.845
821.292, 50.684
822.569, 55.206
823.847, 5.162
825.124, 2.107
826.401, 42.132
827.678, 4.670
828.954, 3.605
830.231, 24.651
831.507, 67.160
832.783, 68.088
834.059, 35.056
835.334, 9.982
836.610, 15.906
837.885, 87.800
839.160, 10.278
840.435, 96.327
841.709, 41.243
842.983, 37.483
844.258, 76.326
845.532, 70.237
846.805, 114.149
848.079, 70.037
849.352, 31.950
850.625, 70.775
851.898, 72.688
853.171, 71.435
854.443, 43.348
855.715, 85.260
856.988, 98.171
858.259, 66.083
859.531, 131.994
860.803, 88.906
862.074, 54.818
863.345, 140.730
864.616, 87.642
865.886, 82.554
867.157, 119.468
868.427, 61.381
869.697, 41.294
870.967, 74.207
872.236, 6.120
873.506, 70.033
874.775, 7.054
876.044, 106.856
877.313, 41.768
878.581, 55.680
879.849, 103.542
881.118, 26.545
882.386, 103.355
883.653, 39.255
884.921, 21.156
886.188, 100.014
887.455, 13.923
888.722, 69.801
889.989, 49.710
891.255, 12.636
892.522, 83.562
893.788, 31.402
895.054, 21.329
896.319, 55.255
897.585, 14.191
898.850, 55.130
900.115, 40.069
901.380, 36.962
902.645, 61.913
903.909, 26.844
905.174, 22.799
906.438, 83.753
907.701, 1.383
908.965, 78.575
910.229, 29.196
911.492, 82.155
912.755, 68.115
914.018, 20.833
915.280, 21.800
916.543, 33.733
917.805, 43.632
919.067, 60.601
920.329, 12.428
921.590, 130.541
922.852, 22.510
924.113, 22.605
925.374, 71.577
926.635, 12.549
927.895, 64.487
929.156, 75.462
930.416, 26.336
931.676, 112.313
932.936, 35.292
934.195, 55.271
935.454, 75.252
936.714, 19.106
937.973, 81.089
939.231, 11.040
940.490, 45.026
941.748, 94.005
943.006, 29.996
944.264, 143.989
945.522, 95.536
946.780, 82.325
948.037, 83.236
949.294, 27.177
950.551, 66.176
951.808, 54.178
953.064, 76.135
954.320, 87.139
955.577, 60.146
956.832, 46.080
958.088, 78.910
959.344, 56.880
960.599, 41.893
961.854, 55.889
963.109, 51.905
964.364, 27.581
965.618, 25.399
966.872, 23.614
968.127, 77.594
969.380, 15.615
970.634, 85.638
971.888, 2.337
973.141, 27.690
974.394, 3.718
975.647, 62.697
976.900, 9.498
978.152, 34.806
979.404, 23.198
980.656, 0.470
981.908, 41.950
983.160, 34.991
984.411, 77.034
985.663, 81.085
986.914, 75.121
988.165, 20.176
989.415, 41.233
990.666, 36.643
991.916, 40.706
993.166, 127.771
994.416, 44.841
995.665, 29.915
996.915, 123.024
998.164, 107.102
999.413, 225.184
1000.662, 235.267
1001.911, 180.354
1003.159, 167.443
1004.407, 87.534
1005.655, 80.630
1006.903, 132.728
1008.151, 3.829
1009.398, 189.932
1010.646, 116.038
1011.893, 65.147
1013.139, 154.259
1014.386, 62.373
1015.633, 156.490
1016.879, 169.047
1018.125, 150.168
1019.371, 220.292
1020.616, 102.468
1021.862, 124.597
1023.107, 229.728
1024.352, 161.891
1025.597, 194.710
1026.842, 141.356
1028.086, 142.496
1029.330, 200.639
1030.574, 123.814
1031.818, 154.521
1033.062, 157.671
1034.305, 79.833
1035.548, 166.993
1036.791, 108.872
1038.034, 144.037
1039.277, 164.222
1040.519, 148.056
1041.762, 226.232
1043.004, 151.412
1044.246, 136.593
1045.487, 149.777
1046.729, 161.301
1047.970, 191.506
1049.211, 158.772
1050.452, 132.419
1051.692, 233.616
1052.933, 166.829
1054.173, 188.646
1055.413, 204.855
1056.653, 186.107
1057.893, 216.289
1059.132, 198.508
1060.371, 189.792
1061.610, 276.015
1062.849, 284.192
1064.088, 400.483
1065.326, 619.719
1066.565, 490.961
1067.803, 566.204
1069.041, 429.454
1070.278, 484.287
1071.516, 592.538
1072.753, 487.918
1073.990, 790.174
1075.227, 939.430
1076.464, 1124.821
1077.700, 1723.084
1078.936, 2308.408
1080.173, 4079.687
1081.408, 7065.966
1082.644, 12472.255
1083.880, 30508.555
1085.115, 44774.844
1086.350, 40231.168
1087.585, 24337.475
1088.820, 10513.787
1090.054, 4766.545
1091.288, 2542.859
1092.522, 1448.252
1093.756, 1070.565
1094.990, 775.883
1096.224, 668.222
1097.457, 589.541
1098.690, 400.861
1099.923, 391.314
1101.156, 409.635
1102.388, 235.956
1103.621, 347.278
1104.853, 264.600
1106.085, 279.008
1107.316, 226.337
1108.548, 182.667
1109.779, 229.073
1111.010, 203.406
1112.241, 144.738
1113.472, 195.079
1114.703, 101.448
1115.933, 192.789
1117.163, 250.131
1118.393, 101.473
1119.623, 379.815
1120.853, 404.123
1122.082, 329.465
1123.311, 236.807
1124.540, 227.149
1125.769, 124.549
1126.997, 180.910
1128.226, 84.495
1129.454, 148.849
1130.682, 123.219
1131.910, 37.588
1133.138, 154.151
1134.365, 62.520
1135.592, 33.991
1136.819, 110.358
1138.046, 42.726
1139.273, 135.115
1140.499, 77.484
1141.725, 24.853
1142.951, 128.393
1144.177, 3.759
1145.403, 141.260
1146.628, 82.721
1147.854, 36.084
1149.079, 138.635
1150.304, 39.997
1151.528, 88.356
1152.753, 93.099
1153.977, 26.457
1155.201, 101.079
1156.425, 73.603
1157.649, 42.956
1158.872, 54.545
1160.096, 60.051
1161.319, 27.399
1162.542, 162.901
1163.764, 8.742
1164.987, 52.597
1166.209, 102.093
1167.431, 7.427
1168.653, 72.046
1169.875, 22.375
1171.097, 13.703
1172.318, 133.235
1173.539, 9.313
1174.760, 57.004
1175.981, 86.393
1177.202, 15.705
1178.422, 74.014
1179.642, 44.498
1180.862, 21.885
1182.082, 111.644
1183.302, 28.052
1184.521, 82.234
1185.740, 22.917
1186.959, 58.670
1188.178, 87.518
1189.397, 55.160
1190.615, 62.399
1191.834, 56.760
1193.052, 36.739
1194.269, 26.469
1195.487, 13.077
1196.705, 38.203
1197.922, 83.973
1199.139, 31.888
1200.356, 7.944
1201.573, 167.488
1202.789, 26.793
1204.006, 60.944
1205.222, 68.352
1206.438, 21.607
1207.653, 64.747
1208.869, 12.049
1210.084, 25.074
1211.299, 96.298
1212.514, 52.480
1213.729, 150.590
1214.944, 40.548
1216.158, 32.788
1217.372, 142.887
1218.586, 11.031
1219.800, 44.122
1221.014, 79.208
1222.227, 11.562
1223.440, 88.638
1224.654, 29.885
1225.866, 62.890
1227.079, 162.954
1228.292, 81.437
1229.504, 79.035
1230.716, 132.683
1231.928, 105.547
1233.139, 145.595
1234.351, 134.632
1235.562, 1.779
1236.773, 160.806
1237.984, 35.910
1239.195, 101.938
1240.406, 155.955
1241.616, 51.159
1242.826, 126.204
1244.036, 105.213
1245.246, 25.384
1246.456, 149.386
1247.665, 66.385
1248.874, 119.382
1250.083, 136.375
1251.292, 38.486
1252.501, 104.700
1253.709, 71.683
1254.917, 42.135
1256.125, 177.136
1257.333, 108.107
1258.541, 99.772
1259.748, 164.752
1260.956, 86.815
1262.163, 73.775
1263.370, 157.730
1264.576, 97.681
1265.783, 126.649
1266.989, 123.589
1268.195, 118.628
1269.401, 193.557
1270.607, 52.481
1271.813, 107.940
1273.018, 194.855
1274.223, 68.768
1275.428, 198.675
1276.633, 80.577
1277.838, 22.503
1279.042, 160.395
1280.246, 45.272
1281.450, 79.145
1282.654, 125.010
1283.858, 65.861
1285.061, 96.708
1286.265, 74.547
1287.468, 30.376
1288.671, 91.188
1289.873, 39.962
1291.076, 49.755
1292.278, 99.540
1293.480, 28.312
1294.682, 133.080
1295.884, 148.833
1297.086, 10.575
1298.287, 92.310
1299.488, 18.040
1300.689, 34.762
1301.890, 150.454
1303.091, 22.120
1304.291, 38.760
1305.491, 106.379
1306.691, 38.991
1307.891, 73.595
1309.091, 157.755
1310.290, 38.345
1311.490, 180.926
1312.689, 17.449
1313.888, 113.016
1315.086, 91.571
1316.285, 28.084
1317.483, 47.620
1318.681, 168.621
1319.879, 60.121
1321.077, 101.612
1322.275, 118.064
1323.472, 37.537
1324.669, 59.981
1325.866, 8.593
1327.063, 124.826
1328.260, 126.518
1329.456, 9.917
1330.653, 46.288
1331.849, 2.999
1333.045, 7.364
1334.240, 80.716
1335.436, 45.057
1336.631, 17.389
1337.826, 98.372
1339.021, 5.666
1340.216, 2.889
1341.411, 109.727
1342.605, 17.993
1343.799, 90.265
1344.993, 12.911
1346.187, 8.841
1347.381, 120.468
1348.574, 14.695
1349.767, 44.915
1350.961, 94.138
1352.153, 7.656
1353.346, 113.591
1354.539, 45.746
1355.731, 8.070
1356.923, 101.106
1358.115, 4.671
1359.307, 38.492
1360.498, 109.795
1361.690, 60.090
1362.881, 74.115
1364.072, 108.319
1365.263, 13.486
1366.453, 115.505
1367.644, 31.130
1368.834, 37.788
1370.024, 108.332
1371.214, 29.553
1372.404, 15.517
1373.593, 0.400
1374.783, 19.750
1375.972, 71.404
1377.161, 114.085
1378.349, 46.303
1379.538, 160.883
1380.726, 55.516
1381.915, 73.162
1383.103, 136.660
1384.290, 30.289
1385.478, 67.819
1386.665, 110.430
1387.853, 36.947
1389.040, 99.529
1390.227, 118.095
1391.413, 111.652
1392.600, 200.202
1393.786, 48.742
1394.972, 24.210
1396.158, 210.717
1397.344, 3.216
1398.530, 72.474
1399.715, 169.829
1400.900, 16.702
1402.085, 75.732
1403.270, 55.969
1404.455, 89.240
1405.639, 110.549
1406.824, 106.730
1408.008, 74.646
1409.192, 201.696
1410.375, 55.859
1411.559, 122.712
1412.742, 223.866
1413.925, 13.792
1415.108, 210.341
1416.291, 128.289
1417.474, 120.333
1418.656, 244.483
1419.839, 75.704
1421.021, 130.775
1422.202, 177.822
1423.384, 133.117
1424.566, 191.611
1425.747, 225.880
1426.928, 110.995
1428.109, 280.893
1429.290, 299.748
1430.470, 343.264
1431.651, 677.130
1432.831, 776.524
1434.011, 827.183
1435.191, 972.624
1436.370, 545.708
1437.550, 552.087
1438.729, 447.547
1439.908, 337.671
1441.087, 365.883
1442.266, 358.581
1443.444, 307.834
1444.623, 408.229
1445.801, 232.023
1446.979, 261.299
1448.157, 382.937
1449.334, 301.618
1450.512, 308.418
1451.689, 384.727
1452.866, 228.112
1454.043, 425.820
1455.220, 308.494
1456.396, 246.324
1457.573, 437.794
1458.749, 304.265
1459.925, 210.536
1461.100, 373.655
1462.276, 224.976
1463.451, 294.203
1464.627, 350.175
1465.802, 178.149
1466.977, 225.207
1468.151, 262.214
1469.326, 144.078
1470.500, 266.015
1471.674, 189.927
1472.848, 178.803
1474.022, 303.687
1475.195, 125.568
1476.369, 189.440
1477.542, 180.290
1478.715, 126.140
1479.888, 281.911
1481.061, 192.871
1482.233, 75.053
1483.405, 225.260
1484.577, 158.431
1485.749, 69.578
1486.921, 213.696
1488.093, 21.838
1489.264, 93.141
1490.435, 226.445
1491.606, 30.866
1492.777, 152.422
1493.948, 179.040
1495.118, 44.730
1496.288, 121.505
1497.459, 122.384
1498.628, 39.390
1499.798, 180.527
1500.968, 10.792
1502.137, 22.217
1503.306, 150.680
1504.475, 44.562
1505.644, 55.421
1506.813, 164.221
1507.981, 4.270
1509.149, 80.932
1510.318, 156.250
1511.485, 79.402
1512.653, 86.541
1513.821, 48.076
1514.988, 0.195
1516.155, 0.000
##END=



