##NAMES=Calcite
##RRUFFID=R050130
##IDEAL CHEMISTRY=CaCO_3_
##LOCALITY=Mexico
##OWNER=RRUFF
##SOURCE=Dave Bunk Minerals
##DESCRIPTION=Colorless cleavage rhomb
##STATUS=The identification of this mineral has been confirmed by X-ray diffraction and chemical analysis
##URL=rruff.info/R050130
##MEASURED CHEMISTRY=Ca_1.00_CO_3_; trace amounts of Si (?)
##PIN_ID=L00286
##ORIENTATION=Laser parallel to a* (1 0 0). Fiducial mark perpendicular to laser is parallel to -c [0 0 -1]
82.649, 0.000
84.053, 9.683
85.455, 16.583
86.858, 7.221
88.260, 2.080
89.663, 20.436
91.065, 2.914
92.466, 16.022
93.868, 4.200
95.269, 8.583
96.670, 20.144
98.070, 22.865
99.471, 31.725
100.871, 21.707
102.271, 15.795
103.670, 46.977
105.070, 16.244
106.469, 52.588
107.868, 44.003
109.267, 35.481
110.665, 46.053
112.063, 66.674
113.461, 81.343
114.859, 84.068
116.256, 116.829
117.653, 95.623
119.050, 101.448
120.447, 109.302
121.843, 92.185
123.240, 138.095
124.636, 107.034
126.031, 105.000
127.427, 116.992
128.822, 130.009
130.217, 119.050
131.612, 139.113
133.006, 120.196
134.400, 143.297
135.794, 187.415
137.188, 213.200
138.581, 248.359
139.975, 291.505
141.368, 311.664
142.760, 400.888
144.153, 508.070
145.545, 654.596
146.937, 844.793
148.329, 1177.998
149.720, 1849.213
151.112, 2688.436
152.503, 4122.665
153.893, 5009.903
155.284, 5475.151
156.674, 4504.411
158.064, 3049.686
159.454, 2095.987
160.843, 1352.292
162.233, 963.604
163.622, 657.930
165.011, 504.278
166.399, 372.667
167.787, 296.062
169.175, 212.462
170.563, 196.872
171.951, 175.287
173.338, 127.724
174.725, 114.171
176.112, 109.615
177.499, 72.060
178.885, 75.503
180.271, 42.944
181.657, 71.385
183.043, 55.824
184.428, 25.262
185.813, 25.701
187.198, 14.141
188.583, 29.581
189.967, 9.981
191.351, 25.455
192.735, 1.110
194.119, 16.323
195.502, 22.760
196.885, 18.200
198.268, 18.640
199.651, 4.079
201.033, 16.515
202.415, 2.050
203.797, 12.386
205.179, 20.823
206.561, 6.740
207.942, 31.695
209.323, 29.127
210.703, 10.555
212.084, 15.980
213.464, 19.401
214.844, 7.821
216.224, 25.236
217.603, 37.648
218.983, 28.057
220.362, 41.460
221.741, 11.858
223.119, 15.252
224.497, 43.716
225.875, 12.241
227.253, 45.695
228.631, 60.400
230.008, 55.831
231.385, 72.772
232.762, 62.197
234.139, 57.521
235.515, 65.105
236.891, 98.448
238.267, 105.931
239.643, 111.408
241.018, 116.902
242.393, 127.753
243.768, 166.331
245.143, 151.800
246.517, 212.204
247.891, 182.779
249.265, 218.366
250.639, 259.853
252.012, 287.646
253.386, 345.315
254.759, 399.489
256.131, 426.857
257.504, 497.840
258.876, 546.806
260.248, 644.117
261.620, 674.235
262.991, 875.309
264.363, 943.616
265.734, 1086.938
267.104, 1242.371
268.475, 1417.658
269.845, 1724.236
271.215, 1933.655
272.585, 2511.013
273.955, 2970.316
275.324, 3857.668
276.693, 5011.256
278.062, 6051.630
279.431, 7914.935
280.799, 8608.346
282.167, 9242.824
283.535, 8136.193
284.903, 6442.492
286.270, 5157.057
287.638, 3651.456
289.005, 2829.963
290.371, 2066.330
291.738, 1613.825
293.104, 1295.232
294.470, 1037.592
295.836, 896.940
297.201, 686.284
298.567, 619.722
299.932, 522.033
301.296, 475.417
302.661, 445.791
304.025, 341.113
305.389, 348.642
306.753, 278.597
308.117, 282.965
309.480, 241.406
310.843, 194.708
312.206, 207.253
313.569, 150.609
314.931, 180.931
316.293, 151.329
317.655, 156.598
319.017, 143.998
320.378, 65.317
321.740, 104.919
323.101, 87.236
324.461, 94.526
325.822, 99.377
327.182, 85.700
328.542, 71.951
329.902, 60.377
331.261, 81.682
332.621, 85.926
333.980, 72.166
335.339, 42.461
336.697, 72.694
338.056, 79.957
339.414, 56.197
340.772, 47.431
342.129, 32.747
343.487, 28.049
344.844, 72.321
346.201, 70.531
347.557, 34.770
348.914, 57.021
350.270, 50.244
351.626, 51.516
352.982, 38.707
354.337, 68.679
355.693, 27.862
357.048, 69.033
358.402, 35.209
359.757, 36.461
361.111, 37.629
362.465, 13.794
363.819, 39.309
365.173, 9.479
366.526, 20.640
367.879, 30.788
369.232, 14.985
370.585, 1.002
371.937, 16.179
373.290, 17.310
374.642, 48.534
375.993, 5.278
377.345, 31.838
378.696, 20.949
380.047, 26.063
381.398, 10.778
382.748, 28.367
384.099, 2.457
385.449, 11.573
386.799, 29.708
388.148, 33.785
389.497, 33.878
390.847, 2.969
392.196, 5.094
393.544, 28.149
394.893, 13.210
396.241, 12.276
397.589, 3.638
398.936, 22.394
400.284, 1.417
401.631, 12.434
402.978, 23.492
404.325, 13.485
405.672, 20.568
407.018, 18.580
408.364, 19.415
409.710, 8.445
411.055, 3.507
412.401, 3.453
413.746, 4.606
415.091, 4.645
416.435, 8.278
417.780, 13.800
419.124, 28.106
420.468, 6.992
421.812, 11.980
423.155, 9.097
424.498, 24.161
425.842, 24.698
427.184, 22.553
428.527, 4.404
429.869, 33.293
431.211, 0.186
432.553, 7.019
433.895, 18.847
435.236, 32.723
436.577, 21.541
437.918, 0.354
439.259, 17.224
440.599, 34.024
441.940, 9.878
443.280, 3.668
444.619, 19.452
445.959, 39.236
447.298, 1.016
448.637, 12.788
449.976, 2.556
451.315, 20.317
452.653, 3.103
453.991, 10.895
455.329, 21.761
456.667, 24.500
458.004, 25.302
459.341, 7.030
460.678, 32.752
462.015, 16.234
463.352, 17.946
464.688, 29.709
466.024, 2.417
467.360, 4.889
468.695, 17.794
470.031, 6.472
471.366, 32.144
472.701, 1.811
474.035, 18.470
475.370, 26.194
476.704, 9.842
478.038, 51.542
479.372, 9.201
480.705, 24.884
482.038, 0.510
483.371, 24.128
484.704, 29.791
486.037, 3.553
487.369, 21.044
488.701, 42.287
490.033, 5.873
491.365, 24.728
492.696, 38.302
494.027, 39.872
495.358, 24.461
496.689, 40.020
498.019, 30.573
499.350, 35.167
500.680, 35.710
502.009, 15.313
503.339, 17.851
504.668, 24.909
505.997, 50.436
507.326, 30.960
508.655, 27.478
509.983, 33.007
511.311, 20.517
512.639, 42.045
513.967, 51.609
515.295, 57.164
516.622, 41.655
517.949, 40.141
519.276, 19.621
520.602, 55.125
521.929, 44.595
523.255, 0.998
524.581, 35.521
525.906, 31.890
527.232, 42.301
528.557, 25.798
529.882, 65.173
531.207, 27.695
532.531, 45.065
533.855, 15.435
535.179, 22.851
536.503, 39.746
537.827, 42.155
539.150, 36.517
540.473, 24.895
541.796, 25.419
543.119, 51.794
544.441, 30.036
545.764, 24.330
547.086, 61.695
548.407, 32.062
549.729, 31.425
551.050, 21.639
552.371, 47.865
553.692, 34.194
555.013, 31.455
556.333, 24.707
557.653, 35.568
558.973, 38.854
560.293, 40.001
561.612, 25.235
562.932, 32.509
564.251, 21.711
565.569, 29.964
566.888, 29.202
568.206, 53.010
569.524, 46.498
570.842, 46.631
572.160, 32.757
573.477, 25.468
574.795, 42.169
576.112, 31.368
577.428, 34.482
578.745, 36.719
580.061, 11.251
581.377, 23.220
582.693, 16.602
584.009, 40.033
585.324, 39.232
586.639, 28.430
587.954, 17.505
589.269, 15.727
590.583, 47.678
591.897, 32.766
593.212, 14.913
594.525, 28.114
595.839, 50.265
597.152, 12.177
598.465, 34.300
599.778, 13.490
601.091, 37.569
602.403, 34.579
603.716, 46.937
605.028, 56.119
606.339, 45.031
607.651, 38.302
608.962, 33.264
610.273, 20.397
611.584, 17.380
612.895, 2.429
614.205, 38.523
615.515, 10.623
616.825, 40.723
618.135, 48.724
619.444, 9.153
620.754, 45.888
622.063, 12.935
623.372, 25.084
624.680, 28.984
625.989, 35.564
627.297, 46.619
628.605, 37.570
629.912, 34.653
631.220, 37.496
632.527, 8.514
633.834, 31.578
635.141, 11.542
636.447, 19.630
637.754, 12.599
639.060, 43.626
640.366, 25.414
641.671, 12.431
642.977, 12.468
644.282, 37.978
645.587, 8.029
646.892, 37.054
648.196, 2.072
649.501, 23.915
650.805, 37.969
652.109, 17.008
653.412, 42.985
654.716, 29.018
656.019, 12.027
657.322, 23.133
658.625, 7.144
659.927, 31.471
661.230, 5.596
662.532, 23.358
663.834, 38.812
665.135, 24.786
666.437, 19.761
667.738, 27.275
669.039, 18.195
670.340, 8.190
671.640, 9.180
672.940, 29.261
674.241, 26.248
675.540, 47.232
676.840, 16.132
678.139, 23.110
679.439, 41.085
680.738, 6.704
682.036, 32.660
683.335, 22.598
684.633, 8.561
685.931, 23.468
687.229, 2.186
688.527, 32.721
689.824, 32.672
691.121, 23.523
692.418, 32.451
693.715, 31.792
695.012, 22.735
696.308, 43.667
697.604, 19.560
698.900, 79.448
700.195, 62.485
701.491, 71.388
702.786, 103.265
704.081, 117.193
705.376, 181.098
706.670, 215.997
707.964, 428.854
709.259, 889.773
710.552, 2057.678
711.846, 3311.570
713.139, 2880.255
714.433, 1806.163
715.726, 809.073
717.018, 422.982
718.311, 275.841
719.603, 149.729
720.895, 102.916
722.187, 101.798
723.479, 66.675
724.770, 76.581
726.061, 66.994
727.352, 50.900
728.643, 23.802
729.934, 32.813
731.224, 9.717
732.514, 46.617
733.804, 68.521
735.094, 18.424
736.383, 9.752
737.672, 71.111
738.961, 32.950
740.250, 32.861
741.539, 15.761
742.827, 54.659
744.115, 41.510
745.403, 13.352
746.691, 34.246
747.978, 38.138
749.265, 21.974
750.552, 31.862
751.839, 23.749
753.126, 33.571
754.412, 21.455
755.698, 32.280
756.984, 23.161
758.270, 16.960
759.555, 39.908
760.840, 25.773
762.125, 0.361
763.410, 40.500
764.695, 8.361
765.979, 12.190
767.263, 23.005
768.547, 17.370
769.831, 35.225
771.114, 21.009
772.398, 30.861
773.681, 42.712
774.964, 35.797
776.246, 16.228
777.529, 3.017
778.811, 10.855
780.093, 0.699
781.375, 9.543
782.656, 35.386
783.937, 23.228
785.219, 13.068
786.499, 38.908
787.780, 10.677
789.060, 21.514
790.341, 15.294
791.621, 10.334
792.901, 24.117
794.180, 2.950
795.459, 14.782
796.739, 20.563
798.017, 4.344
799.296, 35.175
800.575, 6.354
801.853, 26.183
803.131, 20.736
804.409, 9.563
805.686, 56.389
806.964, 17.189
808.241, 15.012
809.518, 8.835
810.795, 0.612
812.071, 59.432
813.347, 20.055
814.623, 15.751
815.899, 18.301
817.175, 4.895
818.450, 28.904
819.726, 6.702
821.001, 6.516
822.275, 29.276
823.550, 18.043
824.824, 22.769
826.098, 1.155
827.372, 50.942
828.646, 24.729
829.920, 14.514
831.193, 25.270
832.466, 20.141
833.739, 9.925
835.011, 34.642
836.284, 14.426
837.556, 26.208
838.828, 27.933
840.100, 4.286
841.371, 29.173
842.642, 9.950
843.914, 31.725
845.184, 1.501
846.455, 4.725
847.726, 16.046
848.996, 8.815
850.266, 5.584
851.536, 15.345
852.805, 0.113
854.075, 35.880
855.344, 13.646
856.613, 33.412
857.881, 12.178
859.150, 13.943
860.418, 59.708
861.686, 42.473
862.954, 38.237
864.222, 7.001
865.489, 12.235
866.756, 42.521
868.023, 47.278
869.290, 21.034
870.557, 26.789
871.823, 32.545
873.089, 4.700
874.355, 17.053
875.621, 20.805
876.886, 25.557
878.152, 7.689
879.417, 17.060
880.682, 12.808
881.946, 1.443
883.211, 21.304
884.475, 20.009
885.739, 24.755
887.003, 11.502
888.266, 13.245
889.530, 44.183
890.793, 5.931
892.056, 0.679
893.318, 28.426
894.581, 23.161
895.843, 26.908
897.105, 20.655
898.367, 31.382
899.629, 31.130
900.890, 10.880
902.152, 4.632
903.413, 19.383
904.673, 51.135
905.934, 28.886
907.194, 7.638
908.454, 22.391
909.714, 48.143
910.974, 6.653
912.234, 16.406
913.493, 15.159
914.752, 1.717
916.011, 16.472
917.270, 22.193
918.528, 46.932
919.786, 12.312
921.044, 15.440
922.302, 46.192
923.560, 13.944
924.817, 35.697
926.074, 0.451
927.331, 11.792
928.588, 61.961
929.844, 30.659
931.101, 19.394
932.357, 45.018
933.613, 23.750
934.868, 28.507
936.124, 20.264
937.379, 7.014
938.634, 45.772
939.889, 31.515
941.144, 37.274
942.398, 5.965
943.652, 11.777
944.906, 44.537
946.160, 1.248
947.414, 35.009
948.667, 39.771
949.920, 30.495
951.173, 29.258
952.426, 41.997
953.678, 30.765
954.931, 48.535
956.183, 23.293
957.435, 43.064
958.686, 48.836
959.938, 13.609
961.189, 37.369
962.440, 25.049
963.691, 16.176
964.941, 31.191
966.192, 8.039
967.442, 10.732
968.692, 27.060
969.942, 10.833
971.191, 4.587
972.441, 7.824
973.690, 33.600
974.939, 23.376
976.187, 15.845
977.436, 11.838
978.684, 31.613
979.932, 28.389
981.180, 7.166
982.428, 4.055
983.675, 48.724
984.922, 55.501
986.169, 50.287
987.416, 47.074
988.663, 53.862
989.909, 41.652
991.155, 0.054
992.401, 24.848
993.647, 27.644
994.893, 40.440
996.138, 56.189
997.383, 69.591
998.628, 42.395
999.873, 48.206
1001.117, 50.007
1002.362, 79.820
1003.606, 87.532
1004.850, 35.348
1006.093, 118.165
1007.337, 99.984
1008.580, 88.803
1009.823, 120.631
1011.066, 91.460
1012.308, 144.294
1013.551, 135.129
1014.793, 75.966
1016.035, 112.981
1017.277, 95.822
1018.518, 118.663
1019.760, 149.506
1021.001, 111.350
1022.242, 171.196
1023.483, 94.705
1024.723, 66.553
1025.964, 133.402
1027.204, 88.664
1028.444, 111.011
1029.683, 91.864
1030.923, 107.719
1032.162, 138.440
1033.401, 83.299
1034.640, 92.160
1035.879, 131.025
1037.117, 54.061
1038.355, 126.930
1039.593, 113.806
1040.831, 83.685
1042.069, 145.555
1043.306, 110.438
1044.544, 87.321
1045.781, 139.206
1047.017, 112.111
1048.254, 162.999
1049.490, 162.599
1050.726, 111.527
1051.962, 194.419
1053.198, 146.317
1054.434, 192.212
1055.669, 193.108
1056.904, 153.005
1058.139, 211.904
1059.374, 180.831
1060.608, 235.739
1061.843, 282.648
1063.077, 371.936
1064.311, 696.853
1065.544, 754.771
1066.778, 494.691
1068.011, 487.612
1069.244, 432.905
1070.477, 496.828
1071.710, 558.753
1072.942, 616.684
1074.174, 842.615
1075.406, 944.547
1076.638, 1169.260
1077.870, 1704.196
1079.101, 2398.132
1080.332, 4630.126
1081.563, 9845.065
1082.794, 31994.025
1084.025, 64142.965
1085.255, 61371.926
1086.485, 28720.881
1087.715, 10929.834
1088.945, 4316.786
1090.175, 2593.785
1091.404, 1519.514
1092.633, 1045.497
1093.862, 927.456
1095.091, 657.417
1096.319, 552.379
1097.548, 468.342
1098.776, 395.307
1100.004, 402.274
1101.231, 335.242
1102.459, 304.211
1103.686, 292.181
1104.913, 232.152
1106.140, 221.124
1107.367, 177.098
1108.593, 187.072
1109.819, 185.047
1111.046, 132.024
1112.271, 145.272
1113.497, 151.264
1114.722, 135.979
1115.948, 162.996
1117.173, 171.985
1118.398, 114.995
1119.622, 167.049
1120.847, 146.043
1122.071, 160.039
1123.295, 128.051
1124.519, 106.391
1125.742, 164.464
1126.966, 133.463
1128.189, 109.463
1129.412, 99.587
1130.635, 88.501
1131.857, 120.504
1133.080, 132.636
1134.302, 39.639
1135.524, 101.658
1136.746, 135.662
1137.967, 81.676
1139.188, 98.922
1140.410, 87.931
1141.631, 62.997
1142.851, 79.037
1144.072, 55.046
1145.292, 75.797
1146.512, 38.314
1147.732, 78.326
1148.952, 65.339
1150.172, 16.353
1151.391, 28.385
1152.610, 78.477
1153.829, 25.491
1155.048, 48.506
1156.266, 25.132
1157.484, 18.147
1158.702, 50.113
1159.920, 35.128
1161.138, 66.193
1162.356, 45.456
1163.573, 10.475
1164.790, 69.518
1166.007, 35.538
1167.224, 50.555
1168.440, 38.573
1169.656, 34.590
1170.872, 65.608
1172.088, 31.706
1173.304, 10.276
1174.519, 59.759
1175.735, 16.774
1176.950, 46.790
1178.165, 41.162
1179.379, 7.177
1180.594, 5.262
1181.808, 31.189
1183.022, 4.796
1184.236, 32.257
1185.449, 36.056
1186.663, 17.082
1187.876, 49.097
1189.089, 7.515
1190.302, 43.524
1191.515, 25.559
1192.727, 1.649
1193.939, 45.672
1195.151, 13.291
1196.363, 0.292
1197.575, 39.724
1198.786, 5.796
1199.997, 43.792
1201.208, 14.787
1202.419, 38.866
1203.630, 59.860
1204.840, 2.318
1206.051, 17.309
1207.261, 24.299
1208.470, 6.797
1209.680, 27.187
1210.889, 29.171
1212.099, 25.364
1213.308, 70.399
1214.516, 61.380
1215.725, 15.232
1216.933, 35.098
1218.142, 66.363
1219.350, 47.342
1220.557, 52.321
1221.765, 5.555
1222.972, 39.421
1224.180, 34.429
1225.387, 0.468
1226.593, 33.601
1227.800, 12.075
1229.006, 90.045
1230.213, 47.014
1231.419, 30.038
1232.624, 45.004
1233.830, 91.970
1235.035, 6.171
1236.241, 26.135
1237.446, 11.141
1238.650, 25.106
1239.855, 34.071
1241.059, 19.152
1242.264, 50.116
1243.468, 30.079
1244.671, 20.367
1245.875, 45.329
1247.078, 28.923
1248.282, 37.780
1249.485, 48.279
1250.687, 30.239
1251.890, 38.198
1253.092, 48.155
1254.295, 37.112
1255.497, 50.063
1256.699, 13.046
1257.900, 18.997
1259.102, 46.947
1260.303, 13.928
1261.504, 35.904
1262.705, 16.840
1263.905, 6.775
1265.106, 44.708
1266.306, 29.631
1267.506, 18.548
1268.706, 33.463
1269.905, 5.378
1271.105, 58.352
1272.304, 38.264
1273.503, 2.174
1274.702, 36.083
1275.900, 43.990
1277.099, 14.106
1278.297, 59.791
1279.495, 20.681
1280.693, 67.564
1281.891, 22.445
1283.088, 0.322
1284.285, 32.195
1285.482, 11.066
1286.679, 17.936
1287.876, 45.803
1289.072, 7.332
1290.268, 19.475
1291.464, 41.373
1292.660, 29.213
1293.856, 32.049
1295.051, 21.883
1296.247, 8.715
1297.442, 45.537
1298.637, 28.355
1299.831, 20.829
1301.026, 69.976
1302.220, 10.233
1303.414, 30.550
1304.608, 15.331
1305.802, 1.107
1306.995, 38.879
1308.188, 21.648
1309.381, 27.413
1310.574, 79.172
1311.767, 31.927
1312.960, 31.680
1314.152, 68.429
1315.344, 10.175
1316.536, 45.917
1317.728, 23.243
1318.919, 34.978
1320.110, 60.709
1321.301, 0.563
1322.492, 42.161
1323.683, 11.949
1324.874, 9.336
1326.064, 31.373
1327.254, 18.910
1328.444, 7.388
1329.634, 25.322
1330.823, 28.014
1332.013, 1.297
1333.202, 37.427
1334.391, 23.108
1335.580, 10.785
1336.768, 25.440
1337.956, 22.111
1339.145, 39.068
1340.333, 24.696
1341.520, 11.359
1342.708, 51.014
1343.895, 49.672
1345.083, 10.327
1346.270, 45.997
1347.456, 2.352
1348.643, 63.270
1349.829, 33.914
1351.016, 9.444
1352.202, 53.818
1353.387, 32.476
1354.573, 2.108
1355.759, 16.738
1356.944, 38.367
1358.129, 18.995
1359.314, 42.623
1360.498, 10.750
1361.683, 41.872
1362.867, 31.672
1364.051, 5.294
1365.235, 71.555
1366.419, 22.516
1367.602, 15.142
1368.785, 4.696
1369.968, 18.689
1371.151, 73.824
1372.334, 40.364
1373.517, 16.728
1374.699, 57.591
1375.881, 47.406
1377.063, 2.237
1378.245, 65.090
1379.426, 21.940
1380.608, 52.785
1381.789, 73.627
1382.970, 9.465
1384.150, 49.301
1385.331, 40.134
1386.511, 0.930
1387.691, 49.749
1388.871, 47.539
1390.051, 17.267
1391.231, 54.084
1392.410, 35.881
1393.589, 59.605
1394.768, 93.268
1395.947, 53.072
1397.126, 40.517
1398.304, 25.284
1399.483, 38.761
1400.661, 97.466
1401.838, 26.201
1403.016, 22.136
1404.194, 66.875
1405.371, 37.586
1406.548, 80.219
1407.725, 89.820
1408.901, 76.253
1410.078, 80.871
1411.254, 65.214
1412.430, 14.853
1413.606, 105.527
1414.782, 76.198
1415.958, 76.752
1417.133, 107.392
1418.308, 121.536
1419.483, 139.091
1420.658, 157.375
1421.832, 79.751
1423.007, 155.340
1424.181, 155.317
1425.355, 156.751
1426.529, 254.275
1427.702, 306.853
1428.876, 499.335
1430.049, 889.793
1431.222, 1012.601
1432.395, 944.184
1433.567, 685.174
1434.740, 391.364
1435.912, 316.819
1437.084, 177.285
1438.256, 123.986
1439.428, 146.217
1440.599, 71.656
1441.770, 53.715
1442.942, 111.229
1444.112, 49.543
1445.283, 57.961
1446.454, 79.873
1447.624, 65.164
1448.794, 35.270
1449.964, 55.603
1451.134, 55.192
1452.303, 95.320
1453.473, 34.577
1454.642, 42.815
1455.811, 90.044
1456.980, 64.183
1458.148, 46.306
1459.317, 53.444
1460.485, 49.658
1461.653, 68.912
1462.821, 76.166
1463.989, 3.234
1465.156, 80.447
1466.323, 43.644
1467.490, 32.844
1468.657, 95.073
1469.824, 14.300
1470.991, 56.510
1472.157, 97.701
1473.323, 7.894
1474.489, 24.117
1475.655, 74.327
1476.820, 47.581
1477.986, 85.831
1479.151, 56.175
1480.316, 40.523
1481.481, 72.884
1482.645, 37.265
1483.810, 47.672
1484.974, 72.090
1486.138, 13.527
1487.302, 50.988
1488.465, 40.465
1489.629, 34.571
1490.792, 20.084
1491.955, 33.523
1493.118, 13.090
1494.281, 52.400
1495.443, 57.031
1496.606, 25.703
1497.768, 57.414
1498.930, 42.167
1500.091, 40.787
1501.253, 106.619
1502.414, 0.454
1503.575, 57.220
1504.736, 51.302
1505.897, 1.528
1507.058, 54.759
1508.218, 40.479
1509.379, 24.793
1510.539, 48.142
1511.698, 0.873
1512.858, 0.000
##END=



