##NAMES=Calcite
##RRUFFID=R050048
##IDEAL CHEMISTRY=CaCO_3_
##LOCALITY=Magdalena, New Mexico, USA
##OWNER=RRUFF
##SOURCE=University of Arizona Mineral Museum
##DESCRIPTION=Colorless massive
##STATUS=The identification of this mineral has been confirmed by X-ray diffraction and chemical analysis
##URL=rruff.info/R050048
##MEASURED CHEMISTRY=(Ca_0.99_Zn_0.01_)CO_3_
##PIN_ID=L00439
##ORIENTATION=Laser parallel to -a* (-1 0 0). Fiducial mark perpendicular to laser is parallel to -c [0 0 -1]
116.256, 0.000
117.653, 0.045
119.050, 1.856
120.447, 46.949
121.843, 60.553
123.240, 64.309
124.636, 22.183
126.031, 100.493
127.427, 99.786
128.822, 75.697
130.217, 177.951
131.612, 188.340
133.006, 213.701
134.400, 191.906
135.794, 282.949
137.188, 337.707
138.581, 407.022
139.975, 462.839
141.368, 607.109
142.760, 658.789
144.153, 904.842
145.545, 1183.236
146.937, 1554.943
148.329, 1917.937
149.720, 2644.197
151.112, 3211.703
152.503, 4052.442
153.893, 4339.551
155.284, 4476.973
156.674, 4081.259
158.064, 3349.739
159.454, 2630.396
160.843, 2047.209
162.233, 1567.168
163.622, 1035.263
165.011, 929.487
166.399, 718.831
167.787, 594.287
169.175, 456.852
170.563, 373.517
171.951, 311.277
173.338, 233.129
174.725, 221.066
176.112, 157.086
177.499, 142.185
178.885, 132.359
180.271, 144.603
181.657, 126.934
183.043, 70.326
184.428, 85.777
185.813, 55.285
187.198, 84.888
188.583, 2.640
189.967, 5.551
191.351, 46.295
192.735, 38.820
194.119, 71.129
195.502, 23.240
196.885, 56.431
198.268, 78.650
199.651, 54.873
201.033, 92.665
202.415, 74.262
203.797, 105.437
205.179, 65.606
206.561, 12.819
207.942, 93.062
209.323, 70.321
210.703, 77.615
212.084, 6.935
213.464, 95.268
214.844, 72.630
216.224, 99.018
217.603, 56.421
218.983, 52.840
220.362, 75.289
221.741, 72.767
223.119, 104.256
224.497, 118.225
225.875, 137.705
227.253, 144.802
228.631, 169.355
230.008, 152.935
231.385, 135.524
232.762, 104.139
234.139, 163.788
235.515, 201.446
236.891, 188.112
238.267, 182.785
239.643, 270.481
241.018, 312.172
242.393, 248.871
243.768, 319.579
245.143, 322.073
246.517, 324.787
247.891, 348.509
249.265, 442.242
250.639, 451.982
252.012, 557.731
253.386, 648.488
254.759, 671.251
256.131, 871.203
257.504, 944.408
258.876, 1021.594
260.248, 1076.758
261.620, 1280.489
262.991, 1490.222
264.363, 1581.958
265.734, 1945.697
267.104, 2224.442
268.475, 2583.253
269.845, 2986.548
271.215, 3620.169
272.585, 4396.060
273.955, 5232.606
275.324, 6553.471
276.693, 7845.133
278.062, 9527.142
279.431, 10838.801
280.799, 11840.457
282.167, 12010.565
283.535, 11391.731
284.903, 10072.119
286.270, 8512.680
287.638, 6793.633
289.005, 5524.433
290.371, 4378.324
291.738, 3465.300
293.104, 2805.354
294.470, 2312.140
295.836, 1873.443
297.201, 1551.719
298.567, 1357.151
299.932, 1108.577
301.296, 971.938
302.661, 925.998
304.025, 769.814
305.389, 711.303
306.753, 596.802
308.117, 538.333
309.480, 441.432
310.843, 470.011
312.206, 380.701
313.569, 387.322
314.931, 358.964
316.293, 350.624
317.655, 320.861
319.017, 295.441
320.378, 244.396
321.740, 243.112
323.101, 196.491
324.461, 181.232
325.822, 195.985
327.182, 187.784
328.542, 189.556
329.902, 143.338
331.261, 88.385
332.621, 148.190
333.980, 156.209
335.339, 116.029
336.697, 124.854
338.056, 80.064
339.414, 53.232
340.772, 79.582
342.129, 118.440
343.487, 149.348
344.844, 115.226
346.201, 117.173
347.557, 76.293
348.914, 54.966
350.270, 64.927
351.626, 99.827
352.982, 94.728
354.337, 100.596
355.693, 106.498
357.048, 44.135
358.402, 36.038
359.757, 134.090
361.111, 0.009
362.465, 41.892
363.819, 16.796
365.173, 112.694
366.526, 121.696
367.879, 43.590
369.232, 35.516
370.585, 10.592
371.937, 10.888
373.290, 49.195
374.642, 13.229
375.993, 25.109
377.345, 45.987
378.696, 36.491
380.047, 61.138
381.398, 52.006
382.748, 56.028
384.099, 68.175
385.449, 64.635
386.799, 97.079
388.148, 84.935
389.497, 47.896
390.847, 86.737
392.196, 3.408
393.544, 14.543
394.893, 25.831
396.241, 33.518
397.589, 32.528
398.936, 9.313
400.284, 24.531
401.631, 22.241
402.978, 52.007
404.325, 49.457
405.672, 20.524
407.018, 57.272
408.364, 47.011
409.710, 51.744
411.055, 9.471
412.401, 36.191
413.746, 35.277
415.091, 21.742
416.435, 24.441
417.780, 2.815
419.124, 16.502
420.468, 5.750
421.812, 18.013
423.155, 25.355
424.498, 19.739
425.842, 21.329
427.184, 17.273
428.527, 11.393
429.869, 2.158
431.211, 32.082
432.553, 18.753
433.895, 55.304
435.236, 100.804
436.577, 1.270
437.918, 97.727
439.259, 31.233
440.599, 60.674
441.940, 37.108
443.280, 47.535
444.619, 8.585
445.959, 26.943
447.298, 65.359
448.637, 6.793
449.976, 68.201
451.315, 121.605
452.653, 56.037
453.991, 24.337
455.329, 14.271
456.667, 21.263
458.004, 18.531
459.341, 5.128
460.678, 17.197
462.015, 14.148
463.352, 3.921
464.688, 22.787
466.024, 28.482
467.360, 33.744
468.695, 42.000
470.031, 9.247
471.366, 62.480
472.701, 16.294
474.035, 134.905
475.370, 52.679
476.704, 90.872
478.038, 8.084
479.372, 86.875
480.705, 71.042
482.038, 62.096
483.371, 22.743
484.704, 40.364
486.037, 93.503
487.369, 40.613
488.701, 146.712
490.033, 103.801
491.365, 27.414
492.696, 105.481
494.027, 30.539
495.358, 89.584
496.689, 90.619
498.019, 24.672
499.350, 1.692
500.680, 21.145
502.009, 109.502
503.339, 51.481
504.668, 119.194
505.997, 54.234
507.326, 8.821
508.655, 19.115
509.983, 55.011
511.311, 120.896
512.639, 79.857
513.967, 80.719
515.295, 73.570
516.622, 40.409
517.949, 104.354
519.276, 49.353
520.602, 94.185
521.929, 120.201
523.255, 74.981
524.581, 118.790
525.906, 55.547
527.232, 97.290
528.557, 71.458
529.882, 109.177
531.207, 76.587
532.531, 129.970
533.855, 53.741
535.179, 151.411
536.503, 118.078
537.827, 41.734
539.150, 72.374
540.473, 88.006
541.796, 55.626
543.119, 47.232
544.441, 56.733
545.764, 75.403
547.086, 83.968
548.407, 61.521
549.729, 98.062
551.050, 20.590
552.371, 61.951
553.692, 27.446
555.013, 99.686
556.333, 61.455
557.653, 98.243
558.973, 114.245
560.293, 98.426
561.612, 120.840
562.932, 114.243
564.251, 83.633
565.569, 85.012
566.888, 106.378
568.206, 93.743
569.524, 88.096
570.842, 138.436
572.160, 41.764
573.477, 53.077
574.795, 78.376
576.112, 52.663
577.428, 100.879
578.745, 67.173
580.061, 60.913
581.377, 129.148
582.693, 134.608
584.009, 51.383
585.324, 158.018
586.639, 33.601
587.954, 97.780
589.269, 33.743
590.583, 49.887
591.897, 71.735
593.212, 90.860
594.525, 90.974
595.839, 102.396
597.152, 65.826
598.465, 117.909
599.778, 90.977
601.091, 116.034
602.403, 31.079
603.716, 9.016
605.028, 133.026
606.339, 74.024
607.651, 112.749
608.962, 140.725
610.273, 71.691
611.584, 5.354
612.895, 121.573
614.205, 57.824
615.515, 119.602
616.825, 117.449
618.135, 122.178
619.444, 50.944
620.754, 105.806
622.063, 9.006
623.372, 160.438
624.680, 141.229
625.989, 7.031
627.297, 178.812
628.605, 99.042
629.912, 94.803
631.220, 91.463
632.527, 17.204
633.834, 95.514
635.141, 64.229
636.447, 17.229
637.754, 111.201
639.060, 9.878
640.366, 113.363
641.671, 102.363
642.977, 88.000
644.282, 87.628
645.587, 113.210
646.892, 127.817
648.196, 2.585
649.501, 80.738
650.805, 92.301
652.109, 80.647
653.412, 174.191
654.716, 65.875
656.019, 75.021
657.322, 23.795
658.625, 15.760
659.927, 121.129
661.230, 21.457
662.532, 11.031
663.834, 92.311
665.135, 60.472
666.437, 156.074
667.738, 95.381
669.039, 42.741
670.340, 90.095
671.640, 78.440
672.940, 135.781
674.241, 35.838
675.540, 31.207
676.840, 54.368
678.139, 27.669
679.439, 156.959
680.738, 50.235
682.036, 59.507
683.335, 101.664
684.633, 17.918
685.931, 91.129
687.229, 166.365
688.527, 89.582
689.824, 35.804
691.121, 89.866
692.418, 105.256
693.715, 60.452
695.012, 69.278
696.308, 162.433
697.604, 114.604
698.900, 155.610
700.195, 66.479
701.491, 196.474
702.786, 315.573
704.081, 210.698
705.376, 304.706
706.670, 478.859
707.964, 801.292
709.259, 1290.273
710.552, 2067.567
711.846, 2574.658
713.139, 2693.727
714.433, 2127.819
715.726, 1281.907
717.018, 788.992
718.311, 553.071
719.603, 390.143
720.895, 214.206
722.187, 225.264
723.479, 119.736
724.770, 173.781
726.061, 215.818
727.352, 109.849
728.643, 146.502
729.934, 143.325
731.224, 119.303
732.514, 149.104
733.804, 34.103
735.094, 58.013
736.383, 115.886
737.672, 133.870
738.961, 44.855
740.250, 101.652
741.539, 123.640
742.827, 38.240
744.115, 84.241
745.403, 59.856
746.691, 1.708
747.978, 38.735
749.265, 78.708
750.552, 136.676
751.839, 102.640
753.126, 32.542
754.412, 113.497
755.698, 78.445
756.984, 83.389
758.270, 90.875
759.555, 91.703
760.840, 138.637
762.125, 199.546
763.410, 188.473
764.695, 142.757
765.979, 111.646
767.263, 83.655
768.547, 57.019
769.831, 76.396
771.114, 51.315
772.398, 49.229
773.681, 118.146
774.964, 19.961
776.246, 30.873
777.529, 120.787
778.811, 19.703
780.093, 73.020
781.375, 125.927
782.656, 114.834
783.937, 90.739
785.219, 20.644
786.499, 53.553
787.780, 35.124
789.060, 72.757
790.341, 119.609
791.621, 15.133
792.901, 37.732
794.180, 40.301
795.459, 76.535
796.739, 89.381
798.017, 14.225
799.296, 94.065
800.575, 43.906
801.853, 63.744
803.131, 102.048
804.409, 96.883
805.686, 36.718
806.964, 92.551
808.241, 32.616
809.518, 57.178
810.795, 7.009
812.071, 35.084
813.347, 13.208
814.623, 87.597
815.899, 132.656
817.175, 148.378
818.450, 20.181
819.726, 87.976
821.001, 35.792
822.275, 100.627
823.550, 24.325
824.824, 96.141
826.098, 28.041
827.372, 77.858
828.646, 2.559
829.920, 31.193
831.193, 15.983
832.466, 110.566
833.739, 9.386
835.011, 55.165
836.284, 32.985
837.556, 64.808
838.828, 126.193
840.100, 65.740
841.371, 88.565
842.642, 86.392
843.914, 45.131
845.184, 41.039
846.455, 30.772
847.726, 8.587
848.996, 20.598
850.266, 41.212
851.536, 38.022
852.805, 58.666
854.075, 28.650
855.344, 83.470
856.613, 54.290
857.881, 53.115
859.150, 0.943
860.418, 7.227
861.686, 13.605
862.954, 56.441
864.222, 35.283
865.489, 0.872
866.756, 38.344
868.023, 35.837
869.290, 92.703
870.557, 87.569
871.823, 143.440
873.089, 21.314
874.355, 121.192
875.621, 50.928
876.886, 12.936
878.152, 102.802
879.417, 44.672
880.682, 62.544
881.946, 10.423
883.211, 71.306
884.475, 33.193
885.739, 23.286
887.003, 101.149
888.266, 34.050
889.530, 118.954
890.793, 139.864
892.056, 16.778
893.318, 109.697
894.581, 21.620
895.843, 121.549
897.105, 20.483
898.367, 35.436
899.629, 28.324
900.890, 32.628
902.152, 65.585
903.413, 54.547
904.673, 40.514
905.934, 63.482
907.194, 78.460
908.454, 24.442
909.714, 140.430
910.974, 129.424
912.234, 56.429
913.493, 137.438
914.752, 25.453
916.011, 12.527
917.270, 109.496
918.528, 27.523
919.786, 132.564
921.044, 26.611
922.302, 109.664
923.560, 88.723
924.817, 135.787
926.074, 14.856
927.331, 84.932
928.588, 69.014
929.844, 109.112
931.101, 14.784
932.357, 176.322
933.613, 22.438
934.868, 83.561
936.124, 101.688
937.379, 32.823
938.634, 143.966
939.889, 138.530
941.144, 9.687
942.398, 170.851
943.652, 65.739
944.906, 167.919
946.160, 58.283
947.414, 53.480
948.667, 54.685
949.920, 20.896
951.173, 73.113
952.426, 143.342
953.678, 5.576
954.931, 155.825
956.183, 39.080
957.435, 62.345
958.686, 78.617
959.938, 81.746
961.189, 100.032
962.440, 156.732
963.691, 58.037
964.941, 43.487
966.192, 96.815
967.442, 111.164
968.692, 119.528
969.942, 0.900
971.191, 26.280
972.441, 1.332
973.690, 35.938
974.939, 13.456
976.187, 39.140
977.436, 45.260
978.684, 34.669
979.932, 54.037
981.180, 93.392
982.428, 102.897
983.675, 112.341
984.922, 101.794
986.169, 41.256
987.416, 90.726
988.663, 50.205
989.909, 30.308
991.155, 119.182
992.401, 8.699
993.647, 108.223
994.893, 97.771
996.138, 35.128
997.383, 84.679
998.628, 144.238
999.873, 192.791
1001.117, 152.371
1002.362, 1.961
1003.606, 171.559
1004.850, 51.166
1006.093, 120.805
1007.337, 100.840
1008.580, 150.494
1009.823, 170.129
1011.066, 159.465
1012.308, 109.188
1013.551, 288.918
1014.793, 108.663
1016.035, 288.334
1017.277, 130.806
1018.518, 100.575
1019.760, 270.357
1021.001, 200.148
1022.242, 239.948
1023.483, 279.756
1024.723, 29.570
1025.964, 316.976
1027.204, 156.810
1028.444, 146.650
1029.683, 226.511
1030.923, 156.476
1032.162, 116.355
1033.401, 136.245
1034.640, 13.859
1035.879, 316.066
1037.117, 96.001
1038.355, 255.942
1039.593, 235.909
1040.831, 225.885
1042.069, 325.866
1043.306, 175.893
1044.544, 295.899
1045.781, 345.918
1047.017, 338.685
1048.254, 322.387
1049.490, 387.679
1050.726, 177.810
1051.962, 327.866
1053.198, 267.940
1054.434, 408.020
1055.669, 248.108
1056.904, 298.209
1058.139, 438.316
1059.374, 418.435
1060.608, 368.560
1061.843, 428.688
1063.077, 468.838
1064.311, 678.992
1065.544, 728.792
1066.778, 678.961
1068.011, 649.136
1069.244, 649.315
1070.477, 639.502
1071.710, 919.694
1072.942, 919.895
1074.174, 1290.100
1075.406, 1610.311
1076.638, 2190.869
1077.870, 3271.131
1079.101, 5291.396
1080.332, 8711.280
1081.563, 13861.568
1082.794, 22961.869
1084.025, 40232.176
1085.255, 47312.480
1086.485, 34952.820
1087.715, 19653.156
1088.945, 9703.504
1090.175, 5314.029
1091.404, 2954.391
1092.633, 1674.761
1093.862, 1245.135
1095.091, 895.525
1096.319, 685.920
1097.548, 576.319
1098.776, 416.721
1100.004, 497.787
1101.231, 578.201
1102.459, 408.791
1103.686, 459.212
1104.913, 289.636
1106.140, 280.420
1107.367, 310.851
1108.593, 321.295
1109.819, 331.903
1111.046, 343.106
1112.271, 328.493
1113.497, 333.278
1114.722, 293.746
1115.948, 244.216
1117.173, 224.689
1118.398, 145.161
1119.622, 151.516
1120.847, 226.428
1122.071, 186.027
1123.295, 116.730
1124.519, 216.131
1125.742, 166.724
1126.966, 207.212
1128.189, 57.702
1129.412, 178.909
1130.635, 89.446
1131.857, 139.942
1133.080, 221.196
1134.302, 171.696
1135.524, 112.388
1136.746, 202.888
1137.967, 22.666
1139.188, 177.960
1140.410, 268.593
1141.631, 0.906
1142.851, 350.064
1144.072, 50.573
1145.292, 101.323
1146.512, 192.882
1147.732, 63.566
1148.952, 134.807
1150.172, 205.315
1151.391, 5.823
1152.610, 152.463
1153.829, 17.032
1155.048, 143.597
1156.266, 36.069
1157.484, 116.623
1158.702, 175.530
1159.920, 186.020
1161.138, 18.205
1162.356, 279.128
1163.573, 60.393
1164.790, 100.060
1166.007, 132.040
1167.224, 52.483
1168.440, 43.524
1169.656, 54.139
1170.872, 124.633
1172.088, 165.964
1173.304, 66.517
1174.519, 186.988
1175.735, 180.309
1176.950, 10.955
1178.165, 132.453
1179.379, 63.146
1180.594, 83.545
1181.808, 199.682
1183.022, 60.298
1184.236, 260.915
1185.449, 195.693
1186.663, 86.233
1187.876, 206.611
1189.089, 49.780
1190.302, 240.137
1191.515, 131.259
1192.727, 48.146
1193.939, 262.221
1195.151, 112.839
1196.363, 43.212
1197.575, 153.670
1198.786, 196.571
1199.997, 136.947
1201.208, 157.619
1202.419, 99.631
1203.630, 289.881
1204.840, 231.320
1206.051, 761.554
1207.261, 911.777
1208.470, 1105.033
1209.680, 1345.240
1210.889, 1115.836
1212.099, 476.392
1213.308, 626.570
1214.516, 576.792
1215.725, 607.350
1216.933, 537.499
1218.142, 168.318
1219.350, 298.446
1220.557, 278.587
1221.765, 28.396
1222.972, 348.493
1224.180, 278.888
1225.387, 152.207
1226.593, 222.275
1227.800, 183.025
1229.006, 273.927
1230.213, 253.955
1231.419, 187.555
1232.624, 257.564
1233.830, 287.568
1235.035, 77.968
1236.241, 367.961
1237.446, 257.950
1238.650, 147.931
1239.855, 247.904
1241.059, 167.874
1242.264, 257.834
1243.468, 297.789
1244.671, 8.564
1245.875, 358.505
1247.078, 88.438
1248.282, 208.648
1249.485, 398.568
1250.687, 48.479
1251.890, 348.402
1253.092, 268.295
1254.295, 98.220
1255.497, 328.095
1256.699, 357.962
1257.900, 188.163
1259.102, 247.989
1260.303, 217.806
1261.504, 177.715
1262.705, 237.504
1263.905, 67.286
1265.106, 257.022
1266.306, 126.740
1267.506, 96.403
1268.706, 286.048
1269.905, 125.685
1271.105, 165.350
1272.304, 254.955
1273.503, 24.549
1274.702, 144.666
1275.900, 214.212
1277.099, 23.982
1278.297, 313.494
1279.495, 112.956
1280.693, 162.376
1281.891, 291.782
1283.088, 48.837
1284.285, 130.503
1285.482, 169.828
1286.679, 59.126
1287.876, 198.403
1289.072, 107.653
1290.268, 16.881
1291.464, 126.091
1292.660, 35.264
1293.856, 174.414
1295.051, 183.551
1296.247, 67.329
1297.442, 291.745
1298.637, 140.341
1299.831, 0.694
1301.026, 158.219
1302.220, 102.896
1303.414, 175.903
1304.608, 4.688
1305.802, 73.442
1306.995, 222.321
1308.188, 198.329
1309.381, 7.027
1310.574, 185.714
1311.767, 54.356
1312.960, 132.977
1314.152, 161.573
1315.344, 30.148
1316.536, 148.695
1317.728, 167.220
1318.919, 14.281
1320.110, 124.251
1321.301, 22.599
1322.492, 111.015
1323.683, 239.479
1324.874, 62.158
1326.064, 126.155
1327.254, 124.444
1328.444, 37.290
1329.634, 140.936
1330.823, 180.549
1332.013, 11.271
1333.202, 287.663
1334.391, 45.787
1335.580, 123.884
1336.768, 169.218
1337.956, 107.273
1339.145, 165.310
1340.333, 143.244
1341.520, 8.761
1342.708, 159.203
1343.895, 88.025
1345.083, 5.951
1346.270, 203.854
1347.456, 21.735
1348.643, 269.596
1349.829, 407.438
1351.016, 14.734
1352.202, 243.064
1353.387, 91.032
1354.573, 98.731
1355.759, 346.412
1356.944, 174.203
1358.129, 91.850
1359.314, 219.442
1360.498, 57.015
1361.683, 224.565
1362.867, 182.510
1364.051, 119.995
1365.235, 187.139
1366.419, 116.151
1367.602, 16.455
1368.785, 260.865
1369.968, 58.167
1371.151, 45.117
1372.334, 221.841
1373.517, 21.631
1374.699, 267.480
1375.881, 196.401
1377.063, 95.476
1378.245, 464.532
1379.426, 233.571
1380.608, 201.897
1381.789, 470.703
1382.970, 779.671
1384.150, 248.236
1385.331, 346.985
1386.511, 55.892
1387.691, 414.775
1388.871, 343.641
1390.051, 132.113
1391.231, 380.835
1392.410, 239.384
1393.589, 198.043
1394.768, 425.966
1395.947, 194.646
1397.126, 322.449
1398.304, 340.901
1399.483, 113.692
1400.661, 492.116
1401.838, 260.096
1403.016, 177.008
1404.194, 454.368
1405.371, 282.854
1406.548, 243.316
1407.725, 478.907
1408.901, 205.918
1410.078, 201.811
1411.254, 369.354
1412.430, 175.395
1413.606, 252.670
1414.782, 290.419
1415.958, 77.027
1417.133, 440.808
1418.308, 126.857
1419.483, 304.372
1420.658, 563.019
1421.832, 193.748
1423.007, 331.146
1424.181, 434.403
1425.355, 280.343
1426.529, 627.312
1427.702, 624.462
1428.876, 487.499
1430.049, 1111.335
1431.222, 1056.676
1432.395, 1223.999
1433.567, 1186.000
1434.740, 681.852
1435.912, 748.927
1437.084, 665.351
1438.256, 371.212
1439.428, 589.997
1440.599, 336.174
1441.770, 186.590
1442.942, 550.120
1444.112, 229.446
1445.283, 225.783
1446.454, 421.190
1447.624, 97.317
1448.794, 333.349
1449.964, 359.275
1451.134, 123.246
1452.303, 488.258
1453.473, 383.787
1454.642, 179.150
1455.811, 424.345
1456.980, 388.658
1458.148, 213.782
1459.317, 508.533
1460.485, 103.500
1461.653, 288.595
1462.821, 423.736
1463.989, 98.668
1465.156, 392.052
1466.323, 306.239
1467.490, 161.119
1468.657, 506.155
1469.824, 241.194
1470.991, 13.867
1472.157, 561.109
1473.323, 3.943
1474.489, 311.041
1475.655, 385.919
1476.820, 170.992
1477.986, 236.371
1479.151, 352.001
1480.316, 117.718
1481.481, 382.786
1482.645, 368.361
1483.810, 5.910
1484.974, 529.841
1486.138, 155.668
1487.302, 151.213
1488.465, 407.163
1489.629, 172.808
1490.792, 299.038
1491.955, 325.385
1493.118, 42.236
1494.281, 312.414
1495.443, 268.216
1496.606, 64.049
1497.768, 359.891
1498.930, 207.369
1500.091, 162.460
1501.253, 297.372
1502.414, 22.008
1503.575, 303.592
1504.736, 298.942
1505.897, 8.333
1507.058, 427.542
1508.218, 162.601
1509.379, 136.800
1510.539, 153.730
1511.698, 179.481
1512.858, 0.000
##END=



