##NAMES=Calcite
##RRUFFID=R050048
##IDEAL CHEMISTRY=CaCO_3_
##LOCALITY=Magdalena, New Mexico, USA
##OWNER=RRUFF
##SOURCE=University of Arizona Mineral Museum
##DESCRIPTION=Colorless massive
##STATUS=The identification of this mineral has been confirmed by X-ray diffraction and chemical analysis
##URL=rruff.info/R050048
##MEASURED CHEMISTRY=(Ca_0.99_Zn_0.01_)CO_3_
##PIN_ID=L00439
##ORIENTATION=Laser parallel to -a* (-1 0 0). Fiducial mark perpendicular to laser is parallel to -c [0 0 -1]
114.859, 0.000
116.256, 3.204
117.653, 37.888
119.050, 1.926
120.447, 39.397
121.843, 48.580
123.240, 35.436
124.636, 55.827
126.031, 15.657
127.427, 77.855
128.822, 34.364
130.217, 61.139
131.612, 46.143
133.006, 33.348
134.400, 107.729
135.794, 101.269
137.188, 101.949
138.581, 114.772
139.975, 131.706
141.368, 171.741
142.760, 178.869
144.153, 199.080
145.545, 278.372
146.937, 338.738
148.329, 467.170
149.720, 568.665
151.112, 695.218
152.503, 872.824
153.893, 904.480
155.284, 887.186
156.674, 786.939
158.064, 669.737
159.454, 516.573
160.843, 420.667
162.233, 312.565
163.622, 238.493
165.011, 198.451
166.399, 173.438
167.787, 168.451
169.175, 93.489
170.563, 102.551
171.951, 59.635
173.338, 87.740
174.725, 87.864
176.112, 54.112
177.499, 66.285
178.885, 36.482
180.271, 24.695
181.657, 47.922
183.043, 29.181
184.428, 38.453
185.813, 18.743
187.198, 33.045
188.583, 56.356
189.967, 9.676
191.351, 39.006
192.735, 42.344
194.119, 6.724
195.502, 9.168
196.885, 39.624
198.268, 62.081
199.651, 17.530
201.033, 30.968
202.415, 44.401
203.797, 20.833
205.179, 17.270
206.561, 6.286
207.942, 10.157
209.323, 48.600
210.703, 33.058
212.084, 4.518
213.464, 45.980
214.844, 24.452
216.224, 38.941
217.603, 33.440
218.983, 19.947
220.362, 5.455
221.741, 41.965
223.119, 13.476
224.497, 45.990
225.875, 37.506
227.253, 43.023
228.631, 38.542
230.008, 10.064
231.385, 23.589
232.762, 34.117
234.139, 18.647
235.515, 54.181
236.891, 4.281
238.267, 45.570
239.643, 60.586
241.018, 69.210
242.393, 52.744
243.768, 57.325
245.143, 89.863
246.517, 61.402
247.891, 83.943
249.265, 80.270
250.639, 90.951
252.012, 126.498
253.386, 136.034
254.759, 115.742
256.131, 124.483
257.504, 193.018
258.876, 185.556
260.248, 232.097
261.620, 234.638
262.991, 232.180
264.363, 272.729
265.734, 330.314
267.104, 356.866
268.475, 471.417
269.845, 535.003
271.215, 627.545
272.585, 809.724
273.955, 939.781
275.324, 1127.302
276.693, 1407.336
278.062, 1640.834
279.431, 1851.331
280.799, 1986.723
282.167, 2020.943
283.535, 1887.161
284.903, 1607.136
286.270, 1387.463
287.638, 1142.771
289.005, 911.117
290.371, 721.537
291.738, 572.904
293.104, 502.287
294.470, 360.570
295.836, 323.979
297.201, 240.401
298.567, 243.833
299.932, 172.275
301.296, 187.744
302.661, 178.206
304.025, 102.578
305.389, 151.055
306.753, 87.605
308.117, 104.094
309.480, 65.608
310.843, 117.108
312.206, 94.211
313.569, 89.721
314.931, 68.359
316.293, 93.877
317.655, 114.399
319.017, 54.056
320.378, 83.584
321.740, 46.116
323.101, 38.650
324.461, 80.186
325.822, 76.726
327.182, 47.269
328.542, 0.813
329.902, 78.360
331.261, 43.990
332.621, 37.585
333.980, 44.140
335.339, 21.695
336.697, 37.256
338.056, 55.818
339.414, 27.422
340.772, 32.985
342.129, 37.552
343.487, 24.198
344.844, 46.832
346.201, 2.524
347.557, 38.127
348.914, 43.699
350.270, 13.270
351.626, 30.842
352.982, 67.418
354.337, 48.466
355.693, 2.042
357.048, 40.620
358.402, 6.803
359.757, 34.773
361.111, 7.347
362.465, 9.038
363.819, 2.466
365.173, 6.104
366.526, 20.692
367.879, 5.261
369.232, 1.171
370.585, 77.367
371.937, 23.080
373.290, 2.645
374.642, 21.212
375.993, 57.790
377.345, 25.353
378.696, 63.046
380.047, 23.606
381.398, 11.834
382.748, 23.721
384.099, 2.706
385.449, 0.865
386.799, 12.460
388.148, 15.009
389.497, 11.557
390.847, 2.835
392.196, 23.709
393.544, 23.251
394.893, 3.187
396.241, 53.351
397.589, 42.889
398.936, 17.424
400.284, 20.479
401.631, 11.010
402.978, 27.537
404.325, 30.062
405.672, 8.585
407.018, 22.174
408.364, 28.774
409.710, 18.541
411.055, 48.810
412.401, 22.320
413.746, 2.828
415.091, 13.334
416.435, 12.837
417.780, 30.339
419.124, 18.837
420.468, 3.333
421.812, 30.832
423.155, 3.324
424.498, 12.182
425.842, 7.302
427.184, 22.216
428.527, 10.604
429.869, 23.136
431.211, 35.322
432.553, 9.800
433.895, 24.249
435.236, 5.311
436.577, 15.115
437.918, 19.538
439.259, 35.956
440.599, 45.374
441.940, 32.800
443.280, 25.316
444.619, 25.730
445.959, 10.145
447.298, 5.575
448.637, 22.989
449.976, 12.402
451.315, 3.815
452.653, 31.247
453.991, 19.673
455.329, 9.917
456.667, 50.485
458.004, 20.885
459.341, 40.349
460.678, 29.746
462.015, 14.696
463.352, 19.089
464.688, 9.521
466.024, 26.860
467.360, 6.244
468.695, 30.624
470.031, 15.002
471.366, 22.378
472.701, 4.248
474.035, 42.121
475.370, 12.487
476.704, 85.865
478.038, 26.230
479.372, 12.423
480.705, 20.911
482.038, 24.243
483.371, 21.572
484.704, 50.899
486.037, 49.850
487.369, 39.220
488.701, 31.539
490.033, 24.855
491.365, 8.169
492.696, 13.238
494.027, 43.547
495.358, 28.854
496.689, 71.986
498.019, 49.287
499.350, 14.586
500.680, 30.882
502.009, 24.175
503.339, 11.677
504.668, 12.965
505.997, 9.250
507.326, 18.617
508.655, 55.894
509.983, 43.168
511.311, 28.439
512.639, 56.776
513.967, 1.115
515.295, 39.496
516.622, 35.031
517.949, 42.291
519.276, 29.314
520.602, 47.567
521.929, 18.854
523.255, 48.739
524.581, 49.914
525.906, 24.154
527.232, 30.390
528.557, 59.624
529.882, 20.818
531.207, 10.046
532.531, 48.269
533.855, 28.489
535.179, 25.706
536.503, 36.919
537.827, 11.128
539.150, 48.334
540.473, 58.536
541.796, 39.095
543.119, 24.290
544.441, 24.361
545.764, 18.539
547.086, 42.724
548.407, 36.905
549.729, 16.083
551.050, 36.114
552.371, 37.287
553.692, 24.458
555.013, 37.449
556.333, 72.612
557.653, 36.772
558.973, 0.071
560.293, 52.077
561.612, 80.222
562.932, 33.364
564.251, 62.502
565.569, 15.637
566.888, 14.768
568.206, 6.895
569.524, 2.984
570.842, 37.127
572.160, 60.237
573.477, 64.313
574.795, 40.416
576.112, 31.515
577.428, 49.612
578.745, 35.705
580.061, 28.760
581.377, 35.846
582.693, 28.893
584.009, 37.065
585.324, 34.120
586.639, 9.644
587.954, 48.885
589.269, 48.330
590.583, 20.392
591.897, 30.435
593.212, 39.490
594.525, 37.019
595.839, 26.068
597.152, 65.115
598.465, 48.304
599.778, 22.354
601.091, 9.400
602.403, 61.444
603.716, 33.010
605.028, 22.025
606.339, 45.015
607.651, 96.048
608.962, 57.142
610.273, 20.098
611.584, 21.121
612.895, 69.880
614.205, 40.012
615.515, 25.027
616.825, 12.202
618.135, 97.211
619.444, 1.784
620.754, 52.198
622.063, 51.193
623.372, 53.281
624.680, 71.281
625.989, 35.200
627.297, 57.182
628.605, 63.142
629.912, 38.118
631.220, 23.492
632.527, 17.462
633.834, 53.304
635.141, 19.268
636.447, 41.228
637.754, 49.053
639.060, 24.008
640.366, 21.959
641.671, 38.908
642.977, 4.146
644.282, 10.791
645.587, 47.725
646.892, 61.656
648.196, 24.584
649.501, 6.130
650.805, 21.745
652.109, 22.854
653.412, 7.236
654.716, 34.664
656.019, 81.775
657.322, 29.628
658.625, 77.519
659.927, 13.155
661.230, 44.644
662.532, 79.453
663.834, 8.201
665.135, 37.035
666.437, 47.902
667.738, 25.775
669.039, 10.952
670.340, 8.906
671.640, 6.289
672.940, 2.709
674.241, 25.555
675.540, 27.397
676.840, 26.238
678.139, 12.076
679.439, 21.871
680.738, 22.807
682.036, 29.639
683.335, 38.455
684.633, 47.287
685.931, 36.116
687.229, 53.106
688.527, 69.783
689.824, 28.605
691.121, 50.421
692.418, 88.223
693.715, 77.037
695.012, 60.716
696.308, 78.524
697.604, 78.330
698.900, 65.137
700.195, 133.921
701.491, 160.703
702.786, 185.458
704.081, 239.255
705.376, 398.050
706.670, 468.141
707.964, 826.205
709.259, 1356.993
710.552, 2106.757
711.846, 2610.542
713.139, 2400.323
714.433, 1774.103
715.726, 1062.319
717.018, 646.094
718.311, 438.866
719.603, 295.636
720.895, 187.404
722.187, 168.101
723.479, 116.784
724.770, 89.295
726.061, 115.301
727.352, 92.439
728.643, 101.194
729.934, 58.947
731.224, 50.698
732.514, 84.446
733.804, 62.193
735.094, 50.938
736.383, 28.677
737.672, 58.417
738.961, 59.153
740.250, 37.894
741.539, 46.634
742.827, 39.239
744.115, 73.985
745.403, 36.736
746.691, 62.465
747.978, 40.212
749.265, 20.958
750.552, 43.705
751.839, 48.450
753.126, 3.430
754.412, 65.170
755.698, 46.897
756.984, 15.690
758.270, 3.575
759.555, 46.153
760.840, 51.866
762.125, 76.039
763.410, 4.762
764.695, 63.483
765.979, 73.181
767.263, 7.118
768.547, 81.592
769.831, 56.664
771.114, 2.374
772.398, 45.016
773.681, 57.721
774.964, 9.871
776.246, 29.574
777.529, 37.276
778.811, 12.020
780.093, 9.673
781.375, 38.366
782.656, 26.058
783.937, 30.748
785.219, 50.437
786.499, 53.124
787.780, 54.785
789.060, 30.478
790.341, 60.153
791.621, 46.844
792.901, 91.539
794.180, 32.231
795.459, 75.924
796.739, 17.615
798.017, 32.678
799.296, 36.318
800.575, 47.006
801.853, 88.693
803.131, 4.617
804.409, 68.307
805.686, 1.012
806.964, 28.666
808.241, 62.516
809.518, 1.808
810.795, 17.866
812.071, 66.540
813.347, 5.788
814.623, 55.671
815.899, 66.339
817.175, 53.006
818.450, 21.588
819.726, 54.219
821.001, 28.673
822.275, 4.660
823.550, 37.935
824.824, 4.524
826.098, 23.934
827.372, 71.443
828.646, 17.093
829.920, 20.741
831.193, 8.430
832.466, 32.041
833.739, 0.311
835.011, 25.336
836.284, 71.206
837.556, 22.853
838.828, 70.500
840.100, 1.854
841.371, 19.791
842.642, 42.437
843.914, 27.082
845.184, 21.727
846.455, 52.373
847.726, 10.018
848.996, 20.664
850.266, 43.311
851.536, 2.957
852.805, 20.604
854.075, 6.250
855.344, 49.897
856.613, 5.545
857.881, 39.193
859.150, 6.158
860.418, 4.512
861.686, 29.132
862.954, 48.776
864.222, 18.421
865.489, 11.067
866.756, 41.713
868.023, 44.360
869.290, 7.010
870.557, 46.661
871.823, 54.312
873.089, 33.965
874.355, 33.618
875.621, 25.272
876.886, 77.927
878.152, 51.585
879.417, 7.753
880.682, 49.906
881.946, 11.566
883.211, 48.228
884.475, 42.892
885.739, 14.556
887.003, 27.222
888.266, 23.889
889.530, 30.557
890.793, 15.227
892.056, 38.897
893.318, 22.569
894.581, 60.242
895.843, 24.917
897.105, 3.593
898.367, 3.270
899.629, 47.949
900.890, 28.629
902.152, 44.310
903.413, 13.993
904.673, 40.323
905.934, 87.206
907.194, 27.873
908.454, 4.458
909.714, 39.211
910.974, 62.354
912.234, 36.029
913.493, 11.296
914.752, 38.377
916.011, 12.971
917.270, 16.648
918.528, 63.326
919.786, 43.267
921.044, 10.052
922.302, 14.628
923.560, 44.147
924.817, 28.831
926.074, 49.516
927.331, 49.206
928.588, 3.900
929.844, 28.596
931.101, 60.283
932.357, 58.983
933.613, 47.686
934.868, 115.390
936.124, 49.097
937.379, 48.806
938.634, 44.518
939.889, 32.232
941.144, 20.949
942.398, 19.668
943.652, 28.389
944.906, 29.112
946.160, 49.837
947.414, 66.565
948.667, 35.295
949.920, 6.030
951.173, 40.767
952.426, 22.507
953.678, 0.249
954.931, 79.551
956.183, 20.301
957.435, 19.858
958.686, 64.613
959.938, 45.374
961.189, 47.924
962.440, 44.690
963.691, 18.459
964.941, 26.791
966.192, 52.569
967.442, 31.351
968.692, 3.135
969.942, 26.078
971.191, 40.297
972.441, 38.476
973.690, 55.848
974.939, 106.631
976.187, 43.417
977.436, 7.637
978.684, 71.430
979.932, 78.227
981.180, 2.974
982.428, 22.831
983.675, 67.640
984.922, 76.350
986.169, 32.835
987.416, 53.972
988.663, 8.782
989.909, 78.598
991.155, 58.219
992.401, 97.040
993.647, 81.864
994.893, 67.696
996.138, 49.532
997.383, 99.372
998.628, 120.215
999.873, 77.065
1001.117, 110.918
1002.362, 75.775
1003.606, 93.635
1004.850, 36.512
1006.093, 93.417
1007.337, 126.325
1008.580, 134.235
1009.823, 195.789
1011.066, 100.433
1012.308, 103.354
1013.551, 185.279
1014.793, 141.206
1016.035, 161.136
1017.277, 141.069
1018.518, 124.005
1019.760, 78.957
1021.001, 128.911
1022.242, 181.869
1023.483, 168.830
1024.723, 99.794
1025.964, 161.774
1027.204, 90.757
1028.444, 131.742
1029.683, 141.350
1030.923, 123.342
1032.162, 106.337
1033.401, 150.580
1034.640, 192.582
1035.879, 185.586
1037.117, 188.596
1038.355, 169.610
1039.593, 187.627
1040.831, 139.648
1042.069, 189.671
1043.306, 182.698
1044.544, 168.728
1045.781, 240.760
1047.017, 216.796
1048.254, 232.834
1049.490, 239.875
1050.726, 153.919
1051.962, 244.966
1053.198, 225.015
1054.434, 234.830
1055.669, 275.885
1056.904, 272.943
1058.139, 296.845
1059.374, 346.910
1060.608, 345.346
1061.843, 443.418
1063.077, 588.055
1064.311, 669.144
1065.544, 791.235
1066.778, 714.329
1068.011, 650.425
1069.244, 645.528
1070.477, 724.273
1071.710, 825.381
1072.942, 1058.499
1074.174, 1395.620
1075.406, 1900.743
1076.638, 2580.438
1077.870, 4027.581
1079.101, 6547.726
1080.332, 11089.887
1081.563, 17457.051
1082.794, 29484.244
1084.025, 50171.414
1085.255, 56218.590
1086.485, 39395.914
1087.715, 20513.090
1088.945, 10040.269
1090.175, 5213.451
1091.404, 2825.634
1092.633, 1767.822
1093.862, 1228.012
1095.091, 886.204
1096.319, 735.399
1097.548, 618.595
1098.776, 493.794
1100.004, 457.028
1101.231, 434.232
1102.459, 327.434
1103.686, 356.645
1104.913, 290.857
1106.140, 297.121
1107.367, 308.339
1108.593, 270.560
1109.819, 249.783
1111.046, 237.008
1112.271, 189.236
1113.497, 177.467
1114.722, 221.700
1115.948, 217.935
1117.173, 180.173
1118.398, 180.449
1119.622, 185.053
1120.847, 186.296
1122.071, 202.542
1123.295, 118.862
1124.519, 102.112
1125.742, 149.369
1126.966, 102.671
1128.189, 113.931
1129.412, 101.941
1130.635, 63.360
1131.857, 83.624
1133.080, 113.115
1134.302, 135.160
1135.524, 48.428
1136.746, 116.081
1137.967, 86.352
1139.188, 77.660
1140.410, 91.934
1141.631, 40.422
1142.851, 105.110
1144.072, 56.386
1145.292, 57.706
1146.512, 76.036
1147.732, 51.315
1148.952, 129.757
1150.172, 102.113
1151.391, 23.551
1152.610, 136.886
1153.829, 92.168
1155.048, 30.450
1156.266, 82.959
1157.484, 82.313
1158.702, 102.599
1159.920, 51.965
1161.138, 13.249
1162.356, 105.533
1163.573, 35.827
1164.790, 55.172
1166.007, 81.274
1167.224, 84.622
1168.440, 49.020
1169.656, 77.374
1170.872, 30.654
1172.088, 85.965
1173.304, 45.258
1174.519, 61.535
1175.735, 1.875
1176.950, 53.152
1178.165, 87.495
1179.379, 8.135
1180.594, 17.285
1181.808, 52.555
1183.022, 50.473
1184.236, 56.890
1185.449, 35.404
1186.663, 80.669
1187.876, 69.035
1189.089, 72.444
1190.302, 20.705
1191.515, 54.049
1192.727, 62.335
1193.939, 73.591
1195.151, 18.881
1196.363, 18.146
1197.575, 70.398
1198.786, 86.647
1199.997, 36.896
1201.208, 82.152
1202.419, 56.406
1203.630, 64.657
1204.840, 28.028
1206.051, 8.723
1207.261, 117.521
1208.470, 65.329
1209.680, 26.591
1210.889, 31.831
1212.099, 27.069
1213.308, 103.304
1214.516, 33.538
1215.725, 60.834
1216.933, 107.066
1218.142, 17.768
1219.350, 67.062
1220.557, 71.287
1221.765, 7.300
1222.972, 87.993
1224.180, 76.272
1225.387, 73.620
1226.593, 85.833
1227.800, 18.045
1229.006, 84.254
1230.213, 61.461
1231.419, 0.891
1232.624, 63.092
1233.830, 138.293
1235.035, 36.493
1236.241, 85.692
1237.446, 100.277
1238.650, 77.479
1239.855, 130.676
1241.059, 83.872
1242.264, 69.068
1243.468, 31.263
1244.671, 22.551
1245.875, 137.744
1247.078, 39.936
1248.282, 69.234
1249.485, 47.419
1250.687, 20.602
1251.890, 94.784
1253.092, 85.960
1254.295, 49.161
1255.497, 53.333
1256.699, 93.501
1257.900, 49.669
1259.102, 34.828
1260.303, 80.983
1261.504, 71.288
1262.705, 61.433
1263.905, 11.438
1265.106, 52.660
1266.306, 67.754
1267.506, 19.845
1268.706, 91.934
1269.905, 42.020
1271.105, 28.086
1272.304, 78.149
1273.503, 4.792
1274.702, 10.244
1275.900, 123.275
1277.099, 6.303
1278.297, 88.325
1279.495, 46.346
1280.693, 2.361
1281.891, 51.370
1283.088, 32.375
1284.285, 72.376
1285.482, 10.626
1286.679, 2.363
1287.876, 64.347
1289.072, 32.328
1290.268, 7.696
1291.464, 69.273
1292.660, 13.219
1293.856, 25.160
1295.051, 40.902
1296.247, 86.982
1297.442, 65.897
1298.637, 53.746
1299.831, 9.590
1301.026, 27.410
1302.220, 44.225
1303.414, 25.033
1304.608, 55.836
1305.802, 89.634
1306.995, 42.423
1308.188, 30.206
1309.381, 35.016
1310.574, 29.742
1311.767, 20.493
1312.960, 28.238
1314.152, 56.976
1315.344, 38.292
1316.536, 42.419
1317.728, 89.125
1318.919, 30.822
1320.110, 53.513
1321.301, 30.198
1322.492, 23.876
1323.683, 17.303
1324.874, 72.969
1326.064, 0.369
1327.254, 17.283
1328.444, 9.930
1329.634, 46.569
1330.823, 23.203
1332.013, 17.832
1333.202, 53.453
1334.391, 26.069
1335.580, 39.679
1336.768, 67.284
1337.956, 37.885
1339.145, 43.481
1340.333, 94.074
1341.520, 50.664
1342.708, 46.250
1343.895, 52.833
1345.083, 54.413
1346.270, 93.990
1347.456, 21.566
1348.643, 66.139
1349.829, 100.344
1351.016, 31.086
1352.202, 41.473
1353.387, 58.032
1354.573, 63.591
1355.759, 123.152
1356.944, 46.715
1358.129, 31.280
1359.314, 101.849
1360.498, 13.578
1361.683, 30.994
1362.867, 98.573
1364.051, 40.839
1365.235, 28.190
1366.419, 32.535
1367.602, 23.854
1368.785, 84.767
1369.968, 74.410
1371.151, 70.899
1372.334, 51.348
1373.517, 12.747
1374.699, 78.594
1375.881, 90.594
1377.063, 63.588
1378.245, 158.576
1379.426, 6.560
1380.608, 48.506
1381.789, 102.480
1382.970, 89.449
1384.150, 83.361
1385.331, 133.320
1386.511, 29.275
1387.691, 102.226
1388.871, 146.171
1390.051, 26.808
1391.231, 165.731
1392.410, 68.568
1393.589, 80.435
1394.768, 127.419
1395.947, 45.133
1397.126, 79.758
1398.304, 66.182
1399.483, 52.018
1400.661, 135.392
1401.838, 88.735
1403.016, 21.201
1404.194, 70.826
1405.371, 95.476
1406.548, 116.347
1407.725, 143.734
1408.901, 152.319
1410.078, 127.885
1411.254, 204.542
1412.430, 85.228
1413.606, 155.592
1414.782, 175.101
1415.958, 87.348
1417.133, 192.808
1418.308, 62.256
1419.483, 221.438
1420.658, 221.000
1421.832, 88.914
1423.007, 130.265
1424.181, 179.538
1425.355, 162.854
1426.529, 216.286
1427.702, 330.750
1428.876, 305.229
1430.049, 519.708
1431.222, 657.979
1432.395, 639.448
1433.567, 704.404
1434.740, 466.803
1435.912, 433.195
1437.084, 305.464
1438.256, 183.989
1439.428, 224.311
1440.599, 168.268
1441.770, 81.320
1442.942, 147.433
1444.112, 99.074
1445.283, 104.141
1446.454, 135.174
1447.624, 59.348
1448.794, 113.294
1449.964, 139.203
1451.134, 36.862
1452.303, 119.439
1453.473, 98.238
1454.642, 58.003
1455.811, 81.672
1456.980, 97.371
1458.148, 55.058
1459.317, 62.330
1460.485, 41.128
1461.653, 103.983
1462.821, 119.803
1463.989, 72.679
1465.156, 145.579
1466.323, 49.500
1467.490, 81.414
1468.657, 117.325
1469.824, 64.214
1470.991, 86.072
1472.157, 201.892
1473.323, 25.678
1474.489, 77.560
1475.655, 173.408
1476.820, 50.415
1477.986, 80.582
1479.151, 136.829
1480.316, 86.095
1481.481, 160.410
1482.645, 131.757
1483.810, 5.156
1484.974, 94.604
1486.138, 98.113
1487.302, 97.708
1488.465, 89.368
1489.629, 95.100
1490.792, 144.909
1491.955, 143.807
1493.118, 74.814
1494.281, 81.958
1495.443, 108.250
1496.606, 39.685
1497.768, 158.274
1498.930, 70.039
1500.091, 64.007
1501.253, 101.206
1502.414, 86.673
1503.575, 99.457
1504.736, 110.608
1505.897, 5.803
1507.058, 154.322
1508.218, 88.116
1509.379, 116.761
1510.539, 87.736
1511.698, 14.072
1512.858, 0.000
##END=



