##NAMES=Calcite
##RRUFFID=R040070
##IDEAL CHEMISTRY=CaCO_3_
##LOCALITY=Pryor Mountain, Big Horn County, Montana, USA
##OWNER=RRUFF
##SOURCE=University of Arizona Mineral Museum
##DESCRIPTION=Orange scalenohedral crystals
##STATUS=The identification of this mineral has been confirmed by X-ray diffraction and chemical analysis
##URL=rruff.info/R040070
##MEASURED CHEMISTRY=(Ca_0.99_Mg_0.01_)CO_3_
##PIN_ID=L00173
##ORIENTATION=Laser parallel to a* (1 0 0). Fiducial mark perpendicular to laser is parallel to -c [0 0 -1]
98.947, 0.000
100.340, 0.090
101.732, 6.948
103.124, 0.793
104.516, 16.907
105.908, 23.031
107.300, 27.512
108.691, 7.213
110.082, 31.094
111.473, 1.878
112.864, 25.276
114.254, 15.534
115.644, 28.889
117.034, 41.331
118.424, 23.847
119.813, 19.427
121.203, 32.063
122.592, 33.748
123.981, 21.478
125.369, 33.247
126.758, 27.052
128.146, 23.890
129.534, 17.764
130.922, 19.116
132.309, 23.955
133.696, 21.664
135.083, 38.680
136.470, 38.711
137.857, 42.757
139.243, 74.818
140.630, 61.893
142.016, 89.981
143.401, 132.081
144.787, 189.191
146.172, 269.312
147.557, 359.442
148.942, 463.580
150.327, 608.728
151.711, 755.885
153.096, 837.052
154.480, 833.228
155.863, 726.414
157.247, 576.613
158.630, 452.826
160.013, 351.266
161.396, 241.780
162.779, 167.003
164.161, 150.113
165.544, 96.337
166.926, 87.567
168.308, 43.801
169.689, 61.040
171.070, 40.284
172.452, 41.532
173.833, 46.785
175.213, 30.046
176.594, 37.314
177.974, 49.585
179.354, 27.877
180.734, 23.173
182.114, 33.471
183.493, 24.768
184.872, 9.063
186.251, 12.358
187.630, 14.652
189.008, 25.945
190.387, 8.239
191.765, 7.534
193.143, 4.830
194.520, 12.128
195.898, 9.269
197.275, 10.728
198.652, 9.030
200.029, 16.339
201.405, 15.669
202.782, 18.025
204.158, 14.161
205.534, 14.021
206.909, 6.102
208.285, 8.467
209.660, 12.832
211.035, 6.204
212.410, 8.577
213.784, 10.950
215.159, 17.748
216.533, 2.115
217.907, 6.606
219.281, 4.029
220.654, 23.337
222.027, 7.702
223.400, 4.933
224.773, 16.431
226.146, 9.795
227.518, 10.447
228.891, 4.912
230.263, 25.271
231.634, 11.629
233.006, 20.988
234.377, 34.346
235.748, 23.703
237.119, 25.062
238.490, 27.421
239.860, 36.780
241.231, 42.145
242.601, 30.523
243.970, 53.882
245.340, 44.249
246.709, 41.631
248.079, 54.014
249.448, 49.409
250.816, 87.136
252.185, 72.499
253.553, 88.851
254.921, 110.210
256.289, 94.560
257.657, 116.940
259.024, 149.324
260.391, 160.665
261.758, 190.246
263.125, 198.606
264.492, 264.840
265.858, 284.035
267.224, 360.379
268.590, 386.631
269.956, 505.892
271.321, 608.160
272.687, 742.481
274.052, 930.768
275.416, 1171.061
276.781, 1428.326
278.146, 1592.634
279.510, 1772.943
280.874, 1794.315
282.237, 1659.632
283.601, 1432.954
284.964, 1142.278
286.327, 953.606
287.690, 790.019
289.053, 562.368
290.416, 465.711
291.778, 364.048
293.140, 299.398
294.502, 239.753
295.863, 193.096
297.225, 160.466
298.586, 155.857
299.947, 143.945
301.308, 117.458
302.668, 90.652
304.029, 91.025
305.389, 87.377
306.749, 83.825
308.108, 73.182
309.468, 66.535
310.827, 74.893
312.186, 53.247
313.545, 57.090
314.903, 84.480
316.262, 43.858
317.620, 11.213
318.978, 31.568
320.336, 41.549
321.693, 48.904
323.051, 30.272
324.408, 5.721
325.765, 42.102
327.121, 34.455
328.478, 5.197
329.834, 34.187
331.190, 7.534
332.546, 17.880
333.902, 12.270
335.257, 1.384
336.612, 18.962
337.967, 31.316
339.322, 8.677
340.677, 30.021
342.031, 21.386
343.385, 32.730
344.739, 30.074
346.093, 11.417
347.446, 21.760
348.799, 25.102
350.153, 28.443
351.505, 5.785
352.858, 29.125
354.210, 4.534
355.563, 30.805
356.915, 10.176
358.267, 13.533
359.618, 12.870
360.969, 25.209
362.321, 7.544
363.672, 9.879
365.022, 8.261
366.373, 22.594
367.723, 11.926
369.073, 22.256
370.423, 6.586
371.773, 12.097
373.122, 21.439
374.471, 37.788
375.821, 23.182
377.169, 14.506
378.518, 29.828
379.866, 26.148
381.215, 6.510
382.563, 3.746
383.910, 27.377
385.258, 31.692
386.605, 15.930
387.952, 7.242
389.299, 20.228
390.646, 14.190
391.992, 4.497
393.339, 18.833
394.685, 4.164
396.031, 18.531
397.376, 1.843
398.722, 7.144
400.067, 3.557
401.412, 15.740
402.757, 8.035
404.101, 25.335
405.446, 11.627
406.790, 8.941
408.134, 34.231
409.478, 16.531
410.821, 13.832
412.165, 13.843
413.508, 20.481
414.851, 5.794
416.193, 7.143
417.536, 16.483
418.878, 21.897
420.220, 26.167
421.562, 1.568
422.904, 24.695
424.245, 6.954
425.586, 27.213
426.927, 33.525
428.268, 0.782
429.609, 33.063
430.949, 20.326
432.289, 37.648
433.629, 2.914
434.969, 41.796
436.309, 14.076
437.648, 14.327
438.987, 13.580
440.326, 19.825
441.665, 3.069
443.003, 32.311
444.342, 43.552
445.680, 31.791
447.018, 29.071
448.355, 2.370
449.693, 11.604
451.030, 13.836
452.367, 30.076
453.704, 13.309
455.041, 12.540
456.377, 19.784
457.713, 10.012
459.049, 5.279
460.385, 8.494
461.721, 0.749
463.056, 26.036
464.391, 12.913
465.726, 16.350
467.061, 2.567
468.395, 16.036
469.730, 23.218
471.064, 16.398
472.398, 27.576
473.731, 4.215
475.065, 8.956
476.398, 12.139
477.731, 35.305
479.064, 30.972
480.397, 6.336
481.729, 24.819
483.062, 15.001
484.394, 3.153
485.725, 11.445
487.057, 24.592
488.389, 29.737
489.720, 9.579
491.051, 35.781
492.382, 30.921
493.712, 8.112
495.043, 23.268
496.373, 20.313
497.703, 16.444
499.032, 14.580
500.362, 30.709
501.691, 13.839
503.020, 34.343
504.349, 32.844
505.678, 36.602
507.007, 37.732
508.335, 34.457
509.663, 23.071
510.991, 26.270
512.319, 26.400
513.646, 19.575
514.973, 24.440
516.300, 11.560
517.627, 14.902
518.954, 19.838
520.280, 18.973
521.607, 21.088
522.933, 30.218
524.259, 8.400
525.584, 35.511
526.910, 25.621
528.235, 20.728
529.560, 32.833
530.885, 0.995
532.209, 17.155
533.534, 15.257
534.858, 5.356
536.182, 27.452
537.506, 40.546
538.829, 23.639
540.152, 10.729
541.476, 29.810
542.799, 1.120
544.121, 28.961
545.444, 13.041
546.766, 24.118
548.088, 6.812
549.410, 24.256
550.732, 27.322
552.053, 14.367
553.375, 15.429
554.696, 6.466
556.017, 19.522
557.337, 36.543
558.658, 22.583
559.978, 32.302
561.298, 30.350
562.618, 20.385
563.938, 24.428
565.257, 16.471
566.576, 22.504
567.895, 19.229
569.214, 18.580
570.533, 12.615
571.851, 10.326
573.170, 12.680
574.488, 4.683
575.805, 5.687
577.123, 1.708
578.440, 20.726
579.758, 33.741
581.075, 26.514
582.391, 48.525
583.708, 30.511
585.024, 8.550
586.341, 34.555
587.657, 15.453
588.972, 19.453
590.288, 5.450
591.603, 18.474
592.918, 6.578
594.233, 14.409
595.548, 21.393
596.863, 20.375
598.177, 34.352
599.491, 23.330
600.805, 39.247
602.119, 27.220
603.432, 44.201
604.746, 12.182
606.059, 7.153
607.372, 44.037
608.685, 26.018
609.997, 21.799
611.309, 29.816
612.621, 35.763
613.933, 19.734
615.245, 33.686
616.557, 13.614
617.868, 22.515
619.179, 17.320
620.490, 35.109
621.801, 35.203
623.111, 27.144
624.421, 13.076
625.731, 2.051
627.041, 22.872
628.351, 23.798
629.660, 21.717
630.970, 12.674
632.279, 20.117
633.588, 16.873
634.896, 22.930
636.205, 26.904
637.513, 12.823
638.821, 31.121
640.129, 13.084
641.437, 44.992
642.744, 0.203
644.051, 20.664
645.358, 22.557
646.665, 46.482
647.972, 5.356
649.278, 30.348
650.584, 7.291
651.890, 15.151
653.196, 22.080
654.502, 26.960
655.807, 18.866
657.113, 19.767
658.418, 31.499
659.722, 3.614
661.027, 45.367
662.331, 31.312
663.636, 37.966
664.940, 12.770
666.244, 15.667
667.547, 6.519
668.851, 22.372
670.154, 11.217
671.457, 11.134
672.760, 37.053
674.062, 12.924
675.365, 28.783
676.667, 18.694
677.969, 38.274
679.271, 20.319
680.572, 8.644
681.874, 27.478
683.175, 57.344
684.476, 41.158
685.777, 25.972
687.077, 10.781
688.378, 12.191
689.678, 56.328
690.978, 28.137
692.278, 36.866
693.577, 67.674
694.877, 41.541
696.176, 74.329
697.475, 50.080
698.774, 94.132
700.072, 68.597
701.371, 91.422
702.669, 143.245
703.967, 236.016
705.265, 360.177
706.562, 520.943
707.860, 879.705
709.157, 1582.438
710.454, 2315.169
711.751, 2778.896
713.047, 2259.664
714.344, 1388.413
715.640, 804.173
716.936, 508.976
718.232, 301.718
719.527, 200.509
720.823, 131.908
722.118, 109.681
723.413, 90.444
724.708, 80.321
726.002, 72.039
727.297, 57.872
728.591, 76.458
729.885, 44.160
731.179, 45.808
732.472, 57.539
733.766, 33.177
735.059, 62.883
736.352, 43.633
737.645, 34.350
738.937, 32.406
740.230, 18.106
741.522, 28.804
742.814, 57.499
744.106, 45.180
745.397, 34.859
746.689, 18.518
747.980, 41.264
749.271, 32.907
750.562, 43.573
751.853, 39.341
753.143, 36.672
754.433, 26.745
755.723, 29.412
757.013, 27.077
758.303, 24.977
759.592, 24.636
760.881, 36.311
762.170, 30.901
763.459, 18.552
764.748, 8.774
766.036, 12.859
767.325, 27.518
768.613, 19.151
769.901, 51.766
771.188, 25.392
772.476, 26.976
773.763, 5.405
775.050, 23.261
776.337, 58.876
777.624, 19.496
778.910, 34.117
780.196, 16.704
781.482, 36.328
782.768, 25.948
784.054, 39.597
785.339, 17.206
786.625, 22.792
787.910, 15.401
789.195, 38.988
790.479, 10.588
791.764, 23.244
793.048, 21.838
794.332, 11.556
795.616, 21.118
796.900, 33.768
798.183, 29.213
799.467, 29.796
800.750, 17.464
802.033, 21.289
803.316, 2.943
804.598, 12.740
805.880, 21.272
807.163, 14.882
808.445, 30.445
809.726, 17.005
811.008, 15.557
812.289, 9.872
813.570, 16.696
814.851, 14.140
816.132, 5.390
817.413, 9.084
818.693, 11.567
819.973, 14.918
821.253, 31.388
822.533, 23.818
823.813, 26.312
825.092, 6.757
826.371, 6.198
827.650, 8.688
828.929, 14.130
830.208, 6.046
831.486, 8.924
832.764, 0.410
834.042, 4.958
835.320, 9.436
836.598, 12.894
837.875, 56.350
839.152, 23.803
840.429, 40.255
841.706, 15.355
842.983, 37.026
844.259, 16.462
845.536, 29.895
846.812, 20.326
848.088, 5.755
849.363, 24.181
850.639, 21.605
851.914, 1.973
853.189, 28.445
854.464, 11.861
855.739, 3.276
857.013, 30.687
858.288, 7.097
859.562, 38.507
860.836, 29.915
862.110, 22.321
863.383, 26.725
864.656, 14.127
865.930, 16.526
867.203, 35.924
868.475, 19.320
869.748, 8.714
871.020, 38.106
872.292, 8.496
873.564, 9.117
874.836, 7.263
876.108, 14.640
877.379, 0.984
878.650, 20.388
879.922, 12.759
881.192, 17.128
882.463, 17.495
883.733, 20.861
885.004, 2.226
886.274, 5.589
887.544, 44.951
888.813, 11.311
890.083, 18.670
891.352, 4.973
892.621, 28.380
893.890, 7.700
895.159, 23.049
896.427, 17.399
897.695, 21.751
898.964, 11.100
900.232, 2.419
901.499, 9.235
902.767, 16.107
904.034, 5.447
905.301, 0.214
906.568, 30.121
907.835, 36.456
909.102, 43.789
910.368, 19.880
911.634, 34.433
912.900, 5.744
914.166, 26.061
915.432, 29.376
916.697, 13.659
917.962, 53.148
919.227, 13.408
920.492, 43.723
921.757, 33.009
923.021, 42.324
924.285, 23.634
925.550, 21.946
926.813, 0.655
928.077, 32.953
929.341, 18.261
930.604, 39.541
931.867, 29.847
933.130, 5.887
934.393, 16.415
935.655, 8.717
936.918, 39.017
938.180, 14.280
939.442, 16.565
940.703, 44.818
941.965, 40.114
943.226, 3.344
944.488, 9.626
945.749, 2.100
947.009, 35.129
948.270, 2.397
949.530, 16.683
950.791, 32.969
952.051, 0.748
953.311, 5.500
954.570, 2.773
955.830, 5.069
957.089, 13.151
958.348, 1.405
959.607, 36.632
960.866, 31.902
962.124, 26.135
963.383, 12.361
964.641, 10.769
965.899, 33.998
967.156, 16.149
968.414, 35.331
969.671, 27.801
970.928, 8.117
972.185, 30.337
973.442, 26.600
974.699, 29.857
975.955, 14.117
977.211, 16.629
978.468, 52.501
979.723, 20.701
980.979, 26.925
982.234, 48.113
983.490, 2.624
984.745, 46.670
986.000, 42.436
987.254, 38.639
988.509, 59.856
989.763, 61.122
991.017, 41.388
992.271, 42.656
993.525, 55.788
994.779, 37.071
996.032, 51.291
997.285, 31.557
998.538, 37.812
999.791, 65.004
1001.044, 84.281
1002.296, 105.557
1003.548, 78.602
1004.800, 124.872
1006.052, 89.093
1007.304, 84.278
1008.555, 121.568
1009.807, 115.803
1011.058, 128.069
1012.309, 112.333
1013.559, 139.600
1014.810, 155.868
1016.060, 106.100
1017.310, 114.341
1018.560, 150.673
1019.810, 134.925
1021.060, 109.186
1022.309, 153.451
1023.558, 145.659
1024.807, 154.302
1026.056, 125.549
1027.305, 130.844
1028.553, 116.026
1029.801, 152.340
1031.049, 147.625
1032.297, 106.980
1033.545, 136.252
1034.793, 122.653
1036.040, 170.854
1037.287, 173.318
1038.534, 121.585
1039.781, 202.932
1041.027, 144.333
1042.274, 157.282
1043.520, 161.626
1044.766, 182.947
1046.012, 176.751
1047.257, 179.667
1048.503, 202.963
1049.748, 167.223
1050.993, 213.454
1052.238, 204.115
1053.483, 202.420
1054.727, 193.614
1055.971, 204.276
1057.216, 252.195
1058.459, 247.458
1059.703, 235.791
1060.947, 294.801
1062.190, 308.217
1063.433, 383.476
1064.676, 419.804
1065.919, 634.400
1067.162, 769.693
1068.404, 628.761
1069.646, 531.113
1070.888, 520.958
1072.130, 551.284
1073.372, 628.516
1074.613, 769.940
1075.855, 924.277
1077.096, 1141.580
1078.337, 1488.832
1079.578, 2150.062
1080.818, 3491.330
1082.059, 6717.706
1083.299, 13937.856
1084.539, 29293.127
1085.779, 54029.488
1087.018, 63025.855
1088.258, 41990.133
1089.497, 18272.424
1090.736, 8376.694
1091.975, 4327.939
1093.213, 2459.088
1094.452, 1578.267
1095.690, 1030.485
1096.928, 809.827
1098.166, 648.145
1099.404, 528.340
1100.642, 442.536
1101.879, 394.659
1103.116, 358.603
1104.353, 332.822
1105.590, 251.371
1106.827, 268.538
1108.063, 242.787
1109.299, 200.001
1110.536, 213.332
1111.771, 183.579
1113.007, 172.782
1114.243, 168.027
1115.478, 161.260
1116.713, 173.510
1117.948, 130.756
1119.183, 118.039
1120.418, 138.323
1121.652, 178.802
1122.886, 150.963
1124.120, 119.223
1125.354, 107.665
1126.588, 97.854
1127.821, 117.130
1129.055, 97.541
1130.288, 103.754
1131.521, 96.009
1132.753, 81.191
1133.986, 92.059
1135.218, 106.256
1136.450, 78.441
1137.682, 108.012
1138.914, 69.884
1140.146, 75.316
1141.377, 52.702
1142.609, 32.854
1143.840, 77.186
1145.071, 56.454
1146.301, 52.382
1147.532, 38.594
1148.762, 26.847
1149.992, 24.941
1151.222, 20.399
1152.452, 68.614
1153.682, 68.941
1154.911, 69.079
1156.140, 26.168
1157.369, 23.334
1158.598, 59.394
1159.827, 106.529
1161.055, 61.013
1162.284, 43.171
1163.512, 35.477
1164.740, 47.621
1165.967, 18.868
1167.195, 46.101
1168.422, 22.272
1169.650, 58.707
1170.877, 40.960
1172.103, 26.236
1173.330, 25.426
1174.557, 21.593
1175.783, 17.590
1177.009, 23.025
1178.235, 26.314
1179.461, 14.475
1180.686, 34.555
1181.912, 8.230
1183.137, 37.286
1184.362, 2.680
1185.587, 46.335
1186.811, 11.394
1188.036, 6.834
1189.260, 32.869
1190.484, 22.972
1191.708, 15.059
1192.932, 6.942
1194.155, 8.923
1195.378, 34.010
1196.602, 32.956
1197.825, 30.911
1199.047, 45.235
1200.270, 26.904
1201.492, 42.939
1202.715, 30.621
1203.937, 17.512
1205.159, 42.448
1206.380, 25.298
1207.602, 48.188
1208.823, 5.981
1210.044, 27.765
1211.265, 25.686
1212.486, 2.545
1213.707, 27.286
1214.927, 9.892
1216.147, 13.955
1217.367, 6.250
1218.587, 25.568
1219.807, 50.318
1221.027, 5.054
1222.246, 21.872
1223.465, 12.821
1224.684, 42.740
1225.903, 47.553
1227.121, 38.404
1228.340, 12.155
1229.558, 2.820
1230.776, 34.705
1231.994, 8.451
1233.212, 13.182
1234.429, 31.006
1235.646, 28.683
1236.864, 35.354
1238.081, 41.828
1239.297, 50.116
1240.514, 48.788
1241.730, 17.348
1242.947, 17.151
1244.163, 9.889
1245.378, 62.532
1246.594, 54.152
1247.810, 48.854
1249.025, 62.389
1250.240, 13.078
1251.455, 3.378
1252.670, 64.125
1253.885, 21.632
1255.099, 45.214
1256.313, 16.685
1257.527, 36.148
1258.741, 41.604
1259.955, 31.052
1261.168, 38.496
1262.382, 35.259
1263.595, 35.341
1264.808, 26.750
1266.021, 21.150
1267.233, 2.537
1268.446, 54.916
1269.658, 30.280
1270.870, 29.365
1272.082, 45.974
1273.294, 24.304
1274.505, 5.619
1275.716, 37.923
1276.928, 27.217
1278.139, 34.500
1279.349, 4.227
1280.560, 40.033
1281.770, 42.282
1282.981, 0.510
1284.191, 4.278
1285.401, 3.922
1286.610, 6.111
1287.820, 46.287
1289.029, 10.453
1290.239, 17.608
1291.448, 5.246
1292.656, 27.886
1293.865, 18.008
1295.073, 54.104
1296.282, 13.818
1297.490, 23.222
1298.698, 8.294
1299.906, 39.356
1301.113, 50.133
1302.320, 30.429
1303.528, 54.427
1304.735, 35.449
1305.942, 14.540
1307.148, 27.453
1308.355, 7.436
1309.561, 28.406
1310.767, 11.366
1311.973, 12.245
1313.179, 19.178
1314.384, 2.046
1315.590, 9.164
1316.795, 7.284
1318.000, 14.665
1319.205, 6.484
1320.410, 19.273
1321.614, 14.034
1322.819, 28.194
1324.023, 14.563
1325.227, 26.576
1326.431, 2.630
1327.634, 29.021
1328.838, 32.766
1330.041, 35.260
1331.244, 23.005
1332.447, 0.615
1333.650, 25.199
1334.852, 14.454
1336.055, 15.516
1337.257, 29.198
1338.459, 21.339
1339.661, 38.353
1340.862, 33.399
1342.064, 29.971
1343.265, 30.203
1344.466, 12.835
1345.667, 13.385
1346.868, 4.954
1348.068, 38.068
1349.269, 25.363
1350.469, 44.315
1351.669, 32.636
1352.869, 56.288
1354.069, 58.670
1355.268, 21.152
1356.468, 60.593
1357.667, 37.833
1358.866, 38.260
1360.065, 27.932
1361.263, 38.281
1362.462, 29.150
1363.660, 43.563
1364.858, 45.022
1366.056, 23.277
1367.254, 7.614
1368.451, 8.948
1369.649, 19.248
1370.846, 13.627
1372.043, 28.951
1373.240, 47.152
1374.436, 8.270
1375.633, 23.536
1376.829, 24.669
1378.025, 10.817
1379.221, 33.026
1380.417, 32.214
1381.613, 0.580
1382.808, 41.714
1384.003, 25.892
1385.199, 57.701
1386.393, 8.314
1387.588, 13.236
1388.783, 8.873
1389.977, 30.229
1391.171, 14.965
1392.365, 47.625
1393.559, 15.338
1394.753, 42.997
1395.946, 64.644
1397.140, 48.169
1398.333, 28.612
1399.526, 55.707
1400.719, 63.258
1401.911, 79.597
1403.104, 91.211
1404.296, 46.834
1405.488, 99.916
1406.680, 76.305
1407.872, 64.560
1409.063, 77.708
1410.255, 61.149
1411.446, 123.514
1412.637, 97.183
1413.828, 101.304
1415.018, 78.650
1416.209, 96.031
1417.399, 56.481
1418.589, 96.422
1419.779, 78.270
1420.969, 73.895
1422.159, 68.564
1423.348, 72.378
1424.537, 80.113
1425.726, 93.894
1426.915, 110.966
1428.104, 136.924
1429.293, 120.846
1430.481, 108.113
1431.669, 159.737
1432.857, 265.550
1434.045, 309.499
1435.233, 471.357
1436.420, 661.871
1437.608, 803.525
1438.795, 745.360
1439.982, 586.305
1441.169, 350.156
1442.355, 256.112
1443.542, 126.875
1444.728, 114.650
1445.914, 125.571
1447.100, 78.914
1448.286, 71.231
1449.472, 71.697
1450.657, 54.359
1451.842, 55.805
1453.027, 55.084
1454.212, 42.747
1455.397, 55.362
1456.581, 34.729
1457.766, 27.880
1458.950, 32.041
1460.134, 28.046
1461.318, 34.009
1462.501, 35.412
1463.685, 30.060
1464.868, 27.677
1466.051, 62.264
1467.234, 3.142
1468.417, 17.434
1469.600, 61.004
1470.782, 35.563
1471.965, 48.106
1473.147, 37.649
1474.329, 56.183
1475.510, 19.708
1476.692, 16.300
1477.873, 29.885
1479.055, 0.473
1480.236, 93.048
1481.416, 16.609
1482.597, 70.192
1483.778, 12.756
1484.958, 74.300
1486.138, 34.826
1487.318, 46.354
1488.498, 4.886
1489.678, 6.580
1490.857, 6.984
1492.037, 37.595
1493.216, 41.270
1494.395, 0.043
1495.574, 43.651
1496.752, 9.800
1497.931, 48.311
1499.109, 0.049
1500.287, 33.598
1501.465, 28.420
1502.643, 36.102
1503.820, 35.635
1504.998, 5.066
1506.175, 15.673
1507.352, 20.865
1508.529, 4.115
1509.706, 14.369
1510.882, 37.666
1512.059, 24.584
1513.235, 22.714
1514.411, 10.558
1515.587, 16.362
1516.762, 10.359
1517.938, 33.497
1519.113, 11.206
1520.288, 24.981
1521.463, 36.919
1522.638, 22.180
1523.813, 0.122
1524.987, 0.000
##END=



