##NAMES=Calcite
##RRUFFID=R050127
##IDEAL CHEMISTRY=CaCO_3_
##LOCALITY=Rodeo, Durango, Mexico
##OWNER=RRUFF
##SOURCE=Dave Bunk Minerals
##DESCRIPTION=Group of colorless crystals
##STATUS=The identification of this mineral has been confirmed by X-ray diffraction and chemical analysis
##URL=rruff.info/R050127
##MEASURED CHEMISTRY=Ca_1.00_CO_3_
##PIN_ID=M00125
##ORIENTATION=Laser parallel to -c* (0 0 -1). Fiducial mark perpendicular to laser is parallel to -a [-1 0 0]
84.311, 0.000
85.706, 32.270
87.101, 61.929
88.496, 16.945
89.890, 64.326
91.284, 39.042
92.678, 3.100
94.071, 82.145
95.465, 178.633
96.858, 205.949
98.251, 142.511
99.644, 119.698
101.036, 117.873
102.428, 38.895
103.820, 83.474
105.212, 15.258
106.604, 54.673
107.995, 68.837
109.387, 177.790
110.777, 170.836
112.168, 96.610
113.559, 63.400
114.949, 45.215
116.339, 92.719
117.729, 68.601
119.119, 125.050
120.508, 179.480
121.897, 130.484
123.286, 46.000
124.675, 30.817
126.063, 64.966
127.452, 62.603
128.840, 49.570
130.228, 56.396
131.615, 13.929
133.003, 75.188
134.390, 28.505
135.777, 77.476
137.164, 45.742
138.550, 94.521
139.937, 108.606
141.323, 56.446
142.709, 110.941
144.094, 85.192
145.480, 124.477
146.865, 43.581
148.250, 138.538
149.635, 126.258
151.019, 162.070
152.403, 270.475
153.788, 312.306
155.171, 501.063
156.555, 577.396
157.939, 745.744
159.322, 705.137
160.705, 548.042
162.088, 432.341
163.470, 226.391
164.853, 228.030
166.235, 130.312
167.617, 159.310
168.998, 124.100
170.380, 56.575
171.761, 69.658
173.142, 53.384
174.523, 75.440
175.904, 54.642
177.284, 80.214
178.664, 64.263
180.044, 20.326
181.424, 48.399
182.803, 3.467
184.183, 34.526
185.562, 24.578
186.940, 27.619
188.319, 27.634
189.698, 22.623
191.076, 39.577
192.454, 31.496
193.831, 24.555
195.209, 6.965
196.586, 4.473
197.963, 1.949
199.340, 5.210
200.717, 28.648
202.093, 2.029
203.470, 28.303
204.846, 7.545
206.221, 4.106
207.597, 11.565
208.972, 10.690
210.347, 14.180
211.722, 25.919
213.097, 16.901
214.472, 16.779
215.846, 8.663
217.220, 11.450
218.594, 7.935
219.967, 16.355
221.341, 24.208
222.714, 5.257
224.087, 4.182
225.460, 51.232
226.832, 3.062
228.204, 3.930
229.577, 12.102
230.948, 16.053
232.320, 36.004
233.692, 20.590
235.063, 30.876
236.434, 38.222
237.805, 24.974
239.175, 11.539
240.545, 12.106
241.916, 18.598
243.286, 29.678
244.655, 10.021
246.025, 23.358
247.394, 12.229
248.763, 37.063
250.132, 5.742
251.501, 59.165
252.869, 97.525
254.237, 32.567
255.605, 57.515
256.973, 54.063
258.340, 72.195
259.708, 98.398
261.075, 73.578
262.442, 119.478
263.808, 140.348
265.175, 204.880
266.541, 176.311
267.907, 129.195
269.273, 198.298
270.639, 207.177
272.004, 234.777
273.369, 227.321
274.734, 361.035
276.099, 368.504
277.463, 529.728
278.828, 656.665
280.192, 693.305
281.556, 1049.294
282.919, 1128.914
284.283, 1354.677
285.646, 1325.827
287.009, 1048.519
288.372, 995.832
289.734, 694.729
291.097, 622.968
292.459, 428.063
293.821, 367.935
295.183, 331.742
296.544, 219.090
297.905, 245.909
299.266, 192.269
300.627, 211.840
301.988, 156.098
303.348, 116.593
304.709, 148.106
306.069, 117.181
307.428, 142.584
308.788, 99.731
310.147, 141.974
311.507, 131.657
312.865, 132.818
314.224, 113.974
315.583, 109.131
316.941, 105.484
318.299, 115.872
319.657, 116.079
321.015, 112.059
322.372, 118.570
323.729, 103.718
325.086, 77.902
326.443, 75.911
327.800, 78.550
329.156, 79.708
330.512, 98.215
331.868, 82.702
333.224, 84.119
334.579, 98.103
335.935, 89.071
337.290, 116.883
338.645, 95.863
339.999, 86.656
341.354, 80.833
342.708, 105.819
344.062, 89.200
345.416, 78.888
346.769, 88.764
348.123, 78.287
349.476, 87.710
350.829, 95.124
352.182, 54.528
353.534, 117.917
354.887, 75.493
356.239, 83.936
357.591, 46.259
358.942, 99.506
360.294, 77.412
361.645, 66.235
362.996, 73.156
364.347, 21.515
365.698, 44.338
367.048, 91.628
368.398, 98.587
369.748, 79.445
371.098, 71.466
372.448, 84.461
373.797, 52.611
375.146, 104.804
376.495, 88.879
377.844, 53.056
379.192, 116.976
380.540, 88.046
381.889, 81.239
383.236, 60.984
384.584, 56.900
385.932, 51.238
387.279, 52.460
388.626, 53.901
389.973, 49.686
391.319, 75.086
392.666, 88.045
394.012, 69.198
395.358, 85.443
396.704, 24.573
398.049, 74.700
399.394, 75.823
400.740, 44.827
402.084, 77.685
403.429, 56.599
404.774, 47.111
406.118, 43.132
407.462, 26.995
408.806, 52.951
410.150, 30.925
411.493, 56.016
412.836, 41.327
414.179, 87.488
415.522, 40.865
416.865, 49.891
418.207, 61.903
419.549, 11.871
420.891, 73.893
422.233, 12.036
423.575, 43.015
424.916, 17.342
426.257, 52.538
427.598, 38.948
428.939, 43.240
430.279, 20.366
431.619, 34.703
432.959, 41.024
434.299, 35.450
435.639, 44.719
436.978, 77.116
438.318, 53.468
439.657, 61.784
440.996, 74.053
442.334, 28.291
443.673, 70.481
445.011, 74.624
446.349, 9.850
447.687, 60.954
449.024, 31.154
450.361, 87.224
451.699, 48.301
453.036, 57.016
454.372, 62.136
455.709, 70.269
457.045, 46.335
458.381, 56.332
459.717, 46.329
461.053, 74.391
462.388, 92.334
463.724, 88.292
465.059, 57.929
466.394, 85.725
467.728, 47.346
469.063, 65.163
470.397, 63.692
471.731, 78.388
473.065, 77.035
474.398, 42.678
475.732, 64.241
477.065, 61.164
478.398, 39.667
479.731, 81.393
481.063, 12.930
482.396, 90.523
483.728, 47.108
485.060, 29.579
486.391, 76.041
487.723, 44.360
489.054, 67.693
490.385, 34.901
491.716, 59.362
493.047, 34.955
494.377, 34.389
495.708, 74.775
497.038, 83.162
498.368, 59.625
499.697, 75.302
501.027, 12.633
502.356, 22.948
503.685, 48.364
505.014, 116.711
506.342, 63.042
507.671, 59.446
508.999, 44.785
510.327, 55.213
511.655, 55.617
512.982, 37.825
514.310, 38.414
515.637, 45.710
516.964, 54.136
518.291, 48.310
519.617, 52.413
520.944, 42.729
522.270, 67.112
523.596, 39.488
524.921, 39.577
526.247, 69.568
527.572, 72.953
528.897, 49.439
530.222, 51.779
531.547, 59.086
532.871, 23.535
534.196, 50.766
535.520, 45.228
536.844, 17.611
538.167, 46.847
539.491, 19.433
540.814, 34.818
542.137, 15.183
543.460, 17.474
544.783, 24.641
546.105, 26.266
547.427, 40.266
548.749, 36.563
550.071, 46.846
551.393, 28.240
552.714, 2.311
554.035, 12.793
555.356, 7.494
556.677, 26.675
557.998, 43.064
559.318, 58.461
560.638, 75.729
561.958, 79.550
563.278, 92.461
564.597, 91.760
565.917, 29.044
567.236, 44.261
568.555, 27.587
569.874, 29.829
571.192, 54.175
572.511, 26.464
573.829, 4.946
575.147, 2.229
576.464, 38.550
577.782, 43.920
579.099, 34.081
580.416, 24.509
581.733, 31.677
583.050, 3.026
584.366, 33.165
585.683, 41.498
586.999, 53.772
588.315, 21.062
589.630, 51.281
590.946, 54.533
592.261, 2.812
593.576, 31.066
594.891, 2.356
596.206, 5.217
597.520, 8.627
598.834, 15.037
600.148, 18.440
601.462, 24.650
602.776, 45.059
604.089, 7.460
605.402, 46.649
606.715, 3.995
608.028, 32.208
609.341, 25.618
610.653, 16.098
611.965, 7.244
613.277, 0.642
614.589, 13.005
615.901, 26.279
617.212, 22.582
618.523, 3.998
619.834, 36.369
621.145, 1.263
622.456, 64.160
623.766, 19.467
625.076, 30.894
626.386, 4.156
627.696, 49.492
629.006, 31.823
630.315, 53.172
631.624, 56.519
632.933, 25.888
634.242, 8.778
635.551, 31.854
636.859, 24.917
638.167, 25.405
639.475, 5.544
640.783, 11.862
642.090, 22.360
643.398, 0.466
644.705, 48.845
646.012, 24.082
647.318, 18.610
648.625, 9.579
649.931, 5.129
651.237, 3.052
652.543, 28.483
653.849, 17.776
655.155, 69.722
656.460, 4.989
657.765, 77.297
659.070, 59.320
660.375, 30.728
661.679, 60.991
662.984, 23.269
664.288, 16.546
665.592, 22.568
666.895, 10.805
668.199, 24.440
669.502, 45.745
670.805, 2.954
672.108, 48.543
673.411, 7.911
674.713, 76.183
676.016, 28.553
677.318, 64.714
678.620, 3.934
679.921, 13.183
681.223, 66.390
682.524, 12.403
683.825, 40.835
685.126, 13.071
686.427, 69.304
687.727, 49.536
689.028, 17.234
690.328, 48.883
691.628, 26.100
692.927, 42.307
694.227, 66.071
695.526, 10.312
696.825, 63.410
698.124, 81.736
699.423, 29.815
700.721, 58.903
702.020, 39.021
703.318, 136.146
704.616, 102.131
705.913, 117.503
707.211, 166.689
708.508, 142.821
709.805, 349.801
711.102, 453.865
712.399, 1117.908
713.695, 2378.030
714.992, 2654.863
716.288, 2336.038
717.584, 999.212
718.879, 483.384
720.175, 315.553
721.470, 191.124
722.765, 161.250
724.060, 97.414
725.355, 89.533
726.649, 109.661
727.944, 71.819
729.238, 113.931
730.532, 28.951
731.825, 103.959
733.119, 52.108
734.412, 53.254
735.705, 63.305
736.998, 44.403
738.291, 50.531
739.584, 28.491
740.876, 46.720
742.168, 47.855
743.460, 46.024
744.752, 23.101
746.043, 50.229
747.334, 46.191
748.626, 42.188
749.916, 66.303
751.207, 2.703
752.498, 79.294
753.788, 16.304
755.078, 72.363
756.368, 59.411
757.658, 23.503
758.947, 80.603
760.237, 14.600
761.526, 27.695
762.815, 71.675
764.104, 33.765
765.392, 62.126
766.680, 21.535
767.969, 12.523
769.257, 67.480
770.544, 25.488
771.832, 36.550
773.119, 5.594
774.406, 33.571
775.693, 53.639
776.980, 13.557
778.267, 83.007
779.553, 12.028
780.839, 74.084
782.125, 69.066
783.411, 35.118
784.697, 55.167
785.982, 32.215
787.267, 7.260
788.552, 82.294
789.837, 1.937
791.122, 38.971
792.406, 57.814
793.690, 17.836
794.974, 36.774
796.258, 2.737
797.542, 84.739
798.825, 67.633
800.108, 41.650
801.391, 36.655
802.674, 28.781
803.957, 38.774
805.239, 27.489
806.522, 2.398
807.804, 44.237
809.085, 4.820
810.367, 48.156
811.649, 85.824
812.930, 46.204
814.211, 83.739
815.492, 21.681
816.772, 44.620
818.053, 92.528
819.333, 6.593
820.613, 41.300
821.893, 0.143
823.173, 15.036
824.452, 51.110
825.732, 0.090
827.011, 5.820
828.290, 71.351
829.568, 26.254
830.847, 21.459
832.125, 38.358
833.403, 49.147
834.681, 45.972
835.959, 62.866
837.236, 67.954
838.514, 50.844
839.791, 51.663
841.068, 58.550
842.345, 22.434
843.621, 69.232
844.898, 29.113
846.174, 88.979
847.450, 6.143
848.726, 13.727
850.001, 60.515
851.277, 3.383
852.552, 94.246
853.827, 27.109
855.102, 27.971
856.376, 50.831
857.651, 44.689
858.925, 59.547
860.199, 95.402
861.473, 48.256
862.746, 35.109
864.020, 56.961
865.293, 76.812
866.566, 38.662
867.839, 6.490
869.112, 61.352
870.384, 37.192
871.656, 22.030
872.928, 60.874
874.200, 2.284
875.472, 38.553
876.744, 83.389
878.015, 39.224
879.286, 54.057
880.557, 26.890
881.828, 50.721
883.098, 52.551
884.369, 24.381
885.639, 31.209
886.909, 67.037
888.178, 28.137
889.448, 76.672
890.717, 12.480
891.987, 62.287
893.256, 3.090
894.524, 31.894
895.793, 7.698
897.061, 17.500
898.330, 42.275
899.598, 10.924
900.865, 62.873
902.133, 42.669
903.401, 30.467
904.668, 78.739
905.935, 29.537
907.202, 9.280
908.468, 112.077
909.735, 9.874
911.001, 60.645
912.267, 75.440
913.533, 73.174
914.799, 89.963
916.064, 59.757
917.330, 2.449
918.595, 76.341
919.860, 29.104
921.124, 13.829
922.389, 55.621
923.653, 16.401
924.918, 93.193
926.182, 9.828
927.445, 67.619
928.709, 65.410
929.972, 4.860
931.236, 89.932
932.499, 57.656
933.761, 5.447
935.024, 48.238
936.286, 45.029
937.549, 86.819
938.811, 31.609
940.073, 23.273
941.334, 59.063
942.596, 14.539
943.857, 43.330
945.118, 24.126
946.379, 15.886
947.640, 59.682
948.900, 38.225
950.161, 100.021
951.421, 37.818
952.681, 32.616
953.940, 74.413
955.200, 0.215
956.459, 57.017
957.719, 53.828
958.978, 15.613
960.236, 110.183
961.495, 97.325
962.753, 24.122
964.012, 66.920
965.270, 14.529
966.527, 37.328
967.785, 104.115
969.043, 19.914
970.300, 77.714
971.557, 21.767
972.814, 22.569
974.071, 79.006
975.327, 5.229
976.583, 25.573
977.840, 25.996
979.095, 49.328
980.351, 41.452
981.607, 31.234
982.862, 49.010
984.117, 35.801
985.372, 37.990
986.627, 32.734
987.882, 34.178
989.136, 15.975
990.390, 12.773
991.644, 7.037
992.898, 15.561
994.152, 30.169
995.405, 28.977
996.659, 38.787
997.912, 42.223
999.165, 44.723
1000.417, 50.556
1001.670, 51.371
1002.922, 63.022
1004.174, 65.827
1005.426, 188.656
1006.678, 129.474
1007.930, 64.293
1009.181, 152.115
1010.432, 70.936
1011.683, 47.759
1012.934, 47.583
1014.185, 104.408
1015.435, 88.237
1016.685, 87.068
1017.935, 76.900
1019.185, 138.080
1020.435, 68.967
1021.684, 73.804
1022.934, 136.209
1024.183, 81.065
1025.432, 118.517
1026.680, 36.357
1027.929, 119.198
1029.177, 196.040
1030.425, 41.045
1031.673, 135.889
1032.921, 119.733
1034.169, 121.578
1035.416, 93.429
1036.663, 64.280
1037.911, 82.132
1039.157, 139.084
1040.404, 18.129
1041.650, 121.976
1042.897, 114.853
1044.143, 65.630
1045.389, 133.507
1046.634, 80.452
1047.880, 119.330
1049.125, 132.211
1050.371, 87.368
1051.615, 154.251
1052.860, 81.793
1054.105, 106.786
1055.349, 193.737
1056.593, 128.762
1057.837, 195.630
1059.081, 133.561
1060.325, 105.449
1061.568, 131.358
1062.812, 112.414
1064.055, 170.331
1065.298, 265.248
1066.540, 233.239
1067.783, 358.867
1069.025, 453.790
1070.267, 386.793
1071.509, 369.716
1072.751, 244.676
1073.993, 270.634
1075.234, 357.562
1076.475, 354.614
1077.716, 546.554
1078.957, 593.495
1080.198, 674.203
1081.438, 963.145
1082.679, 1223.100
1083.919, 2445.028
1085.159, 4269.982
1086.398, 10445.997
1087.638, 32942.961
1088.877, 41409.918
1090.116, 32156.881
1091.355, 10933.841
1092.594, 3572.807
1093.833, 2193.898
1095.071, 1137.860
1096.309, 780.823
1097.547, 696.786
1098.785, 471.749
1100.023, 393.021
1101.260, 377.984
1102.498, 262.947
1103.735, 292.250
1104.972, 253.161
1106.208, 223.239
1107.445, 249.209
1108.681, 158.327
1109.918, 246.404
1111.154, 181.377
1112.389, 70.350
1113.625, 143.424
1114.860, 125.410
1116.096, 132.448
1117.331, 118.432
1118.566, 88.417
1119.800, 167.596
1121.035, 126.582
1122.269, 41.567
1123.503, 145.554
1124.737, 78.383
1125.971, 101.368
1127.205, 83.366
1128.438, 46.634
1129.671, 133.812
1130.904, 59.843
1132.137, 48.828
1133.370, 113.071
1134.602, 64.055
1135.834, 89.038
1137.066, 116.030
1138.298, 59.011
1139.530, 134.041
1140.762, 119.020
1141.993, 104.998
1143.224, 80.896
1144.455, 46.872
1145.686, 3.061
1146.917, 125.033
1148.147, 36.007
1149.377, 111.396
1150.607, 56.493
1151.837, 26.463
1153.067, 98.568
1154.296, 62.658
1155.526, 31.783
1156.755, 37.041
1157.984, 22.002
1159.213, 36.359
1160.441, 77.263
1161.670, 61.218
1162.898, 53.883
1164.126, 31.271
1165.354, 34.390
1166.581, 85.732
1167.809, 6.774
1169.036, 104.855
1170.263, 31.138
1171.490, 15.786
1172.717, 17.065
1173.943, 46.985
1175.170, 90.902
1176.396, 30.076
1177.622, 4.012
1178.848, 122.958
1180.073, 47.982
1181.299, 74.884
1182.524, 52.012
1183.749, 26.940
1184.974, 47.833
1186.199, 81.705
1187.423, 3.319
1188.648, 82.616
1189.872, 42.679
1191.096, 73.561
1192.320, 104.441
1193.543, 6.525
1194.767, 82.413
1195.990, 76.652
1197.213, 19.485
1198.436, 78.567
1199.659, 11.992
1200.881, 7.848
1202.104, 18.788
1203.326, 1.807
1204.548, 45.753
1205.770, 32.394
1206.991, 57.324
1208.213, 49.140
1209.434, 6.603
1210.655, 40.409
1211.876, 69.210
1213.096, 25.075
1214.317, 43.867
1215.537, 54.851
1216.757, 23.642
1217.977, 87.421
1219.197, 35.960
1220.417, 36.835
1221.636, 127.600
1222.855, 17.185
1224.074, 107.939
1225.293, 101.774
1226.512, 14.226
1227.731, 134.508
1228.949, 83.367
1230.167, 64.229
1231.385, 128.949
1232.603, 39.727
1233.820, 128.435
1235.038, 89.137
1236.255, 60.390
1237.472, 99.086
1238.689, 110.780
1239.906, 24.471
1241.122, 119.158
1242.338, 93.842
1243.555, 74.521
1244.771, 119.197
1245.986, 3.988
1247.202, 128.656
1248.417, 62.322
1249.633, 3.164
1250.848, 125.821
1252.063, 30.475
1253.277, 75.125
1254.492, 90.772
1255.706, 33.426
1256.920, 148.070
1258.134, 104.708
1259.348, 35.469
1260.562, 123.100
1261.775, 47.728
1262.988, 158.383
1264.201, 86.998
1265.414, 17.606
1266.627, 148.210
1267.839, 112.808
1269.052, 65.400
1270.264, 169.988
1271.476, 67.572
1272.688, 60.497
1273.899, 135.063
1275.111, 20.635
1276.322, 53.202
1277.533, 151.762
1278.744, 14.317
1279.955, 115.866
1281.165, 102.411
1282.376, 62.943
1283.586, 124.452
1284.796, 53.956
1286.006, 116.476
1287.215, 104.955
1288.425, 3.573
1289.634, 99.888
1290.843, 21.341
1292.052, 128.746
1293.261, 182.158
1294.469, 7.565
1295.678, 37.952
1296.886, 105.326
1298.094, 35.692
1299.302, 39.053
1300.509, 30.400
1301.717, 15.719
1302.924, 89.030
1304.131, 42.332
1305.338, 21.601
1306.545, 71.854
1307.752, 1.099
1308.958, 8.330
1310.164, 29.552
1311.370, 10.540
1312.576, 46.971
1313.782, 37.115
1314.987, 54.302
1316.193, 85.911
1317.398, 12.063
1318.603, 114.210
1319.807, 69.360
1321.012, 19.503
1322.216, 103.635
1323.421, 54.596
1324.625, 40.710
1325.829, 106.815
1327.032, 7.094
1328.236, 61.983
1329.439, 161.049
1330.642, 34.894
1331.845, 50.141
1333.048, 58.992
1334.251, 21.994
1335.453, 133.001
1336.656, 91.987
1337.858, 25.963
1339.060, 65.827
1340.261, 12.785
1341.463, 73.732
1342.664, 26.616
1343.866, 3.547
1345.067, 102.812
1346.267, 43.618
1347.468, 27.462
1348.669, 40.747
1349.869, 48.363
1351.069, 42.480
1352.269, 129.339
1353.469, 13.808
1354.668, 134.892
1355.868, 98.725
1357.067, 4.448
1358.266, 126.299
1359.465, 27.113
1360.664, 66.920
1361.862, 156.691
1363.061, 0.489
1364.259, 43.226
1365.457, 122.960
1366.655, 32.280
1367.852, 91.339
1369.050, 48.643
1370.247, 21.380
1371.444, 152.955
1372.641, 37.285
1373.838, 34.431
1375.035, 86.066
1376.231, 4.331
1377.427, 71.170
1378.623, 77.698
1379.819, 5.023
1381.015, 93.338
1382.211, 81.515
1383.406, 93.815
1384.601, 220.785
1385.796, 82.068
1386.991, 120.980
1388.185, 120.120
1389.380, 40.259
1390.574, 133.504
1391.768, 119.629
1392.962, 30.798
1394.156, 181.798
1395.350, 135.007
1396.543, 83.208
1397.736, 157.387
1398.929, 68.347
1400.122, 105.466
1401.315, 106.322
1402.507, 40.461
1403.700, 101.544
1404.892, 127.679
1406.084, 61.664
1407.276, 169.504
1408.467, 89.075
1409.659, 75.000
1410.850, 176.742
1412.041, 93.214
1413.232, 137.120
1414.423, 122.856
1415.614, 18.339
1416.804, 176.580
1417.994, 105.258
1419.184, 93.167
1420.374, 175.669
1421.564, 124.296
1422.753, 150.195
1423.943, 204.005
1425.132, 86.112
1426.321, 202.583
1427.510, 177.284
1428.698, 54.817
1429.887, 180.334
1431.075, 145.556
1432.263, 140.071
1433.451, 284.947
1434.639, 244.293
1435.827, 308.529
1437.014, 619.058
1438.201, 700.929
1439.388, 805.731
1440.575, 658.019
1441.762, 341.629
1442.949, 407.660
1444.135, 158.013
1445.321, 141.351
1446.507, 247.356
1447.693, 153.486
1448.879, 74.750
1450.064, 206.074
1451.250, 88.240
1452.435, 145.481
1453.620, 129.690
1454.805, 40.867
1455.989, 184.749
1457.174, 175.440
1458.358, 55.488
1459.542, 198.489
1460.726, 132.431
1461.910, 187.043
1463.093, 235.900
1464.277, 117.641
1465.460, 121.429
1466.643, 195.175
1467.826, 69.873
1469.009, 136.590
1470.191, 173.206
1471.373, 97.772
1472.556, 212.274
1473.738, 143.809
1474.919, 26.269
1476.101, 213.828
1477.283, 102.346
1478.464, 49.908
1479.645, 218.545
1480.826, 34.224
1482.007, 106.873
1483.187, 122.659
1484.368, 9.521
1485.548, 213.527
1486.728, 46.552
1487.908, 103.561
1489.088, 197.574
1490.268, 7.411
1491.447, 105.612
1492.626, 152.654
1493.805, 53.717
1494.984, 84.831
1496.163, 115.013
1497.341, 75.256
1498.520, 151.532
1499.698, 82.930
1500.876, 87.414
1502.054, 153.992
1503.232, 10.192
1504.409, 74.902
1505.586, 172.719
1506.763, 56.206
1507.940, 162.749
1509.117, 99.337
1510.294, 5.042
1511.470, 106.564
1512.647, 74.267
1513.823, 15.544
1514.999, 118.033
1516.174, 83.642
1517.350, 19.176
1518.526, 39.540
1519.701, 0.000
##END=



