##NAMES=Calcite
##RRUFFID=R050127
##IDEAL CHEMISTRY=CaCO_3_
##LOCALITY=Rodeo, Durango, Mexico
##OWNER=RRUFF
##SOURCE=Dave Bunk Minerals
##DESCRIPTION=Group of colorless crystals
##STATUS=The identification of this mineral has been confirmed by X-ray diffraction and chemical analysis
##URL=rruff.info/R050127
##MEASURED CHEMISTRY=Ca_1.00_CO_3_
##PIN_ID=M00125
##ORIENTATION=Laser parallel to -c* (0 0 -1). Fiducial mark perpendicular to laser is parallel to -a [-1 0 0]
101.036, 0.000
102.428, 20.070
103.820, 40.866
105.212, 99.023
106.604, 0.771
107.995, 12.897
109.387, 135.885
110.777, 163.215
112.168, 67.938
113.559, 19.658
114.949, 78.812
116.339, 61.990
117.729, 88.379
119.119, 160.165
120.508, 165.360
121.897, 174.877
123.286, 111.729
124.675, 58.260
126.063, 139.727
127.452, 37.566
128.840, 87.181
130.228, 16.624
131.615, 29.761
133.003, 46.748
134.390, 29.437
135.777, 4.753
137.164, 25.356
138.550, 35.018
139.937, 22.424
141.323, 45.003
142.709, 84.678
144.094, 73.694
145.480, 88.031
146.865, 100.126
148.250, 70.075
149.635, 150.647
151.019, 168.220
152.403, 263.652
153.788, 284.862
155.171, 524.554
156.555, 624.248
157.939, 840.571
159.322, 793.351
160.705, 573.611
162.088, 431.322
163.470, 301.150
164.853, 259.183
166.235, 206.090
167.617, 163.018
168.998, 151.105
170.380, 140.320
171.761, 105.571
173.142, 85.967
174.523, 90.333
175.904, 50.291
177.284, 104.158
178.664, 51.864
180.044, 79.478
181.424, 62.399
182.803, 70.127
184.183, 70.097
185.562, 62.175
186.940, 40.295
188.319, 55.987
189.698, 19.732
191.076, 17.516
192.454, 18.333
193.831, 7.242
195.209, 20.033
196.586, 15.902
197.963, 4.770
199.340, 25.633
200.717, 32.489
202.093, 31.316
203.470, 16.436
204.846, 18.892
206.221, 19.324
207.597, 30.153
208.972, 35.406
210.347, 30.280
211.722, 23.487
213.097, 18.098
214.472, 6.745
215.846, 1.469
217.220, 22.121
218.594, 0.494
219.967, 17.930
221.341, 23.406
222.714, 8.324
224.087, 14.417
225.460, 14.823
226.832, 7.053
228.204, 12.448
229.577, 40.843
230.948, 20.181
232.320, 27.643
233.692, 24.677
235.063, 2.822
236.434, 53.838
237.805, 3.944
239.175, 3.329
240.545, 0.338
241.916, 38.626
243.286, 39.689
244.655, 10.749
246.025, 63.600
247.394, 33.561
248.763, 13.632
250.132, 36.475
251.501, 60.190
252.869, 43.937
254.237, 41.644
255.605, 66.238
256.973, 27.968
258.340, 87.572
259.708, 89.917
261.075, 75.401
262.442, 88.725
263.808, 86.068
265.175, 165.110
266.541, 99.175
267.907, 166.889
269.273, 178.137
270.639, 175.130
272.004, 246.500
273.369, 265.927
274.734, 384.616
276.099, 436.034
277.463, 599.324
278.828, 775.332
280.192, 857.287
281.556, 1306.248
282.919, 1398.086
284.283, 1661.664
285.646, 1649.298
287.009, 1301.817
288.372, 1168.246
289.734, 807.333
291.097, 662.593
292.459, 454.323
293.821, 387.176
295.183, 319.765
296.544, 231.749
297.905, 217.317
299.266, 196.574
300.627, 209.129
301.988, 166.286
303.348, 110.338
304.709, 151.202
306.069, 89.164
307.428, 115.387
308.788, 112.408
310.147, 88.415
311.507, 75.493
312.865, 56.210
314.224, 100.277
315.583, 112.217
316.941, 85.222
318.299, 68.186
319.657, 84.179
321.015, 68.933
322.372, 69.138
323.729, 64.849
325.086, 63.928
326.443, 49.505
327.800, 43.989
329.156, 35.524
330.512, 48.966
331.868, 51.098
333.224, 70.124
334.579, 52.124
335.935, 38.859
337.290, 63.524
338.645, 44.161
339.999, 34.509
341.354, 91.184
342.708, 71.512
344.062, 85.069
345.416, 33.456
346.769, 104.942
348.123, 60.425
349.476, 83.822
350.829, 67.084
352.182, 35.380
353.534, 201.265
354.887, 307.053
356.239, 79.853
357.591, 194.383
358.942, 126.549
360.294, 74.962
361.645, 60.508
362.996, 96.395
364.347, 66.377
365.698, 46.302
367.048, 68.012
368.398, 35.753
369.748, 32.509
371.098, 78.491
372.448, 63.386
373.797, 74.261
375.146, 39.951
376.495, 54.611
377.844, 95.045
379.192, 65.098
380.540, 11.769
381.889, 92.871
383.236, 14.464
384.584, 51.152
385.932, 43.566
387.279, 55.116
388.626, 67.329
389.973, 29.006
391.319, 49.330
392.666, 13.128
394.012, 24.010
395.358, 28.915
396.704, 33.129
398.049, 43.128
399.394, 32.919
400.740, 20.767
402.084, 34.058
403.429, 14.263
404.774, 36.109
406.118, 35.746
407.462, 29.103
408.806, 21.859
410.150, 1.605
411.493, 18.971
412.836, 21.573
414.179, 58.335
415.522, 31.956
416.865, 8.611
418.207, 40.312
419.549, 49.816
420.891, 26.590
422.233, 26.422
423.575, 37.164
424.916, 65.921
426.257, 60.660
427.598, 21.975
428.939, 0.732
430.279, 22.768
431.619, 46.791
432.959, 36.733
434.299, 45.765
435.639, 15.648
436.978, 50.506
438.318, 42.340
439.657, 19.258
440.996, 67.048
442.334, 10.860
443.673, 34.606
445.011, 67.332
446.349, 27.042
447.687, 33.538
449.024, 33.212
450.361, 39.216
451.699, 38.852
453.036, 63.518
454.372, 74.119
455.709, 13.879
457.045, 12.061
458.381, 45.488
459.717, 78.021
461.053, 24.539
462.388, 41.046
463.724, 64.019
465.059, 60.314
466.394, 66.139
467.728, 30.088
469.063, 49.368
470.397, 47.629
471.731, 21.772
473.065, 56.849
474.398, 32.836
475.732, 61.994
477.065, 32.192
478.398, 28.265
479.731, 9.403
481.063, 48.449
482.396, 71.437
483.728, 49.417
485.060, 22.354
486.391, 40.278
487.723, 48.131
489.054, 20.025
490.385, 28.917
491.716, 48.770
493.047, 51.621
494.377, 34.535
495.708, 55.367
497.038, 43.138
498.368, 48.008
499.697, 42.834
501.027, 39.865
502.356, 41.000
503.685, 32.504
505.014, 39.453
506.342, 29.239
507.671, 27.339
508.999, 29.183
510.327, 15.195
511.655, 35.875
512.982, 35.950
514.310, 50.074
515.637, 47.266
516.964, 53.171
518.291, 41.283
519.617, 45.875
520.944, 20.759
522.270, 43.611
523.596, 38.584
524.921, 50.429
526.247, 56.189
527.572, 70.095
528.897, 40.810
530.222, 15.543
531.547, 49.433
532.871, 35.905
534.196, 47.826
535.520, 48.705
536.844, 49.493
538.167, 45.348
539.491, 54.202
540.814, 60.831
542.137, 55.802
543.460, 32.445
544.783, 59.243
546.105, 32.010
547.427, 32.826
548.749, 37.703
550.071, 59.426
551.393, 26.244
552.714, 3.091
554.035, 52.629
555.356, 84.388
556.677, 20.163
557.998, 40.984
559.318, 85.760
560.638, 23.489
561.958, 16.276
563.278, 3.019
564.597, 37.774
565.917, 34.564
567.236, 60.335
568.555, 1.927
569.874, 39.726
571.192, 28.450
572.511, 21.185
573.829, 49.070
575.147, 20.843
576.464, 58.519
577.782, 26.325
579.099, 54.196
580.416, 20.941
581.733, 25.683
583.050, 36.542
584.366, 68.444
585.683, 5.574
586.999, 63.142
588.315, 19.767
589.630, 16.480
590.946, 29.289
592.261, 2.093
593.576, 42.936
594.891, 46.605
596.206, 53.416
597.520, 6.245
598.834, 44.919
600.148, 20.793
601.462, 42.438
602.776, 38.194
604.089, 52.826
605.402, 17.477
606.715, 46.198
608.028, 7.095
609.341, 51.631
610.653, 19.353
611.965, 35.221
613.277, 1.925
614.589, 10.316
615.901, 57.996
617.212, 46.728
618.523, 30.550
619.834, 48.221
621.145, 10.072
622.456, 47.776
623.766, 0.445
625.076, 63.353
626.386, 52.002
627.696, 27.731
629.006, 40.452
630.315, 33.063
631.624, 35.841
632.933, 47.558
634.242, 42.363
635.551, 68.087
636.859, 1.053
638.167, 57.505
639.475, 24.717
640.783, 24.481
642.090, 28.206
643.398, 40.817
644.705, 40.503
646.012, 12.469
647.318, 2.122
648.625, 27.029
649.931, 27.752
651.237, 45.486
652.543, 40.217
653.849, 36.254
655.155, 35.703
656.460, 19.424
657.765, 24.122
659.070, 24.243
660.375, 36.934
661.679, 39.960
662.984, 17.154
664.288, 13.474
665.592, 9.284
666.895, 35.982
668.199, 0.549
669.502, 26.200
670.805, 47.852
672.108, 13.584
673.411, 30.311
674.713, 51.012
676.016, 6.291
677.318, 38.414
678.620, 16.004
679.921, 35.675
681.223, 36.318
682.524, 35.993
683.825, 16.666
685.126, 34.337
686.427, 21.988
687.727, 52.543
689.028, 8.761
690.328, 16.870
691.628, 31.768
692.927, 28.430
694.227, 61.091
695.526, 28.749
696.825, 47.404
698.124, 33.078
699.423, 78.730
700.721, 75.989
702.020, 63.689
703.318, 141.297
704.616, 113.910
705.913, 92.541
707.211, 179.196
708.508, 154.776
709.805, 358.193
711.102, 534.866
712.399, 1235.498
713.695, 2721.051
714.992, 3046.683
716.288, 2658.309
717.584, 1078.873
718.879, 492.405
720.175, 312.815
721.470, 204.433
722.765, 132.102
724.060, 149.715
725.355, 74.359
726.649, 102.968
727.944, 78.545
729.238, 84.091
730.532, 41.694
731.825, 42.634
733.119, 33.273
734.412, 23.386
735.705, 67.530
736.998, 34.066
738.291, 11.621
739.584, 40.208
740.876, 5.792
742.168, 43.737
743.460, 37.315
744.752, 33.837
746.043, 32.344
747.334, 20.902
748.626, 19.345
749.916, 31.911
751.207, 55.476
752.498, 17.038
753.788, 56.492
755.078, 41.654
756.368, 28.165
757.658, 24.718
758.947, 6.725
760.237, 29.815
761.526, 10.452
762.815, 41.076
764.104, 30.252
765.392, 75.776
766.680, 18.249
767.969, 26.773
769.257, 59.114
770.544, 16.137
771.832, 64.681
773.119, 36.193
774.406, 20.703
775.693, 43.210
776.980, 15.236
778.267, 54.738
779.553, 43.104
780.839, 27.621
782.125, 46.118
783.411, 29.171
784.697, 38.100
785.982, 22.591
787.267, 13.079
788.552, 20.565
789.837, 10.049
791.122, 2.530
792.406, 35.860
793.690, 2.664
794.974, 74.792
796.258, 41.245
797.542, 81.710
798.825, 28.173
800.108, 15.365
801.391, 14.016
802.674, 31.647
803.957, 40.765
805.239, 49.179
806.522, 9.600
807.804, 64.019
809.085, 15.435
810.367, 67.849
811.649, 29.219
812.930, 34.392
814.211, 75.965
815.492, 0.649
816.772, 2.731
818.053, 34.053
819.333, 2.353
820.613, 6.632
821.893, 46.001
823.173, 23.208
824.452, 25.554
825.732, 15.918
827.011, 17.260
828.290, 34.618
829.568, 17.976
830.847, 19.388
832.125, 29.742
833.403, 19.068
834.681, 27.418
835.959, 44.767
837.236, 64.149
838.514, 52.509
839.791, 61.782
841.068, 47.356
842.345, 18.697
843.621, 46.389
844.898, 1.673
846.174, 56.006
847.450, 50.333
848.726, 27.662
850.001, 62.987
851.277, 17.312
852.552, 94.636
853.827, 6.042
855.102, 9.273
856.376, 84.585
857.651, 20.896
858.925, 33.206
860.199, 17.514
861.473, 50.820
862.746, 42.125
864.020, 11.429
865.293, 34.731
866.566, 41.032
867.839, 19.332
869.112, 74.630
870.384, 55.927
871.656, 23.223
872.928, 30.519
874.200, 32.813
875.472, 29.894
876.744, 40.381
878.015, 0.654
879.286, 51.925
880.557, 26.200
881.828, 46.474
883.098, 23.747
884.369, 2.981
885.639, 8.606
886.909, 32.552
888.178, 2.791
889.448, 39.054
890.717, 26.316
891.987, 77.503
893.256, 82.763
894.524, 24.082
895.793, 25.163
897.061, 18.408
898.330, 31.652
899.598, 23.895
900.865, 39.098
902.133, 60.294
903.401, 26.543
904.668, 58.790
905.935, 60.982
907.202, 7.771
908.468, 56.469
909.735, 89.699
911.001, 13.915
912.267, 52.388
913.533, 33.624
914.799, 87.901
916.064, 81.142
917.330, 36.383
918.595, 57.624
919.860, 11.820
921.124, 91.059
922.389, 21.308
923.653, 5.507
924.918, 67.757
926.182, 60.006
927.445, 87.226
928.709, 55.476
929.972, 60.676
931.236, 57.928
932.499, 7.180
933.761, 24.431
935.024, 65.682
936.286, 14.933
937.549, 55.183
938.811, 48.414
940.073, 51.605
941.334, 54.828
942.596, 67.007
943.857, 50.033
945.118, 24.283
946.379, 37.041
947.640, 75.290
948.900, 16.540
950.161, 58.789
951.421, 47.038
952.681, 33.041
953.940, 126.239
955.200, 70.221
956.459, 67.470
957.719, 44.720
958.978, 19.903
960.236, 52.154
961.495, 37.363
962.753, 58.615
964.012, 21.867
965.270, 54.686
966.527, 53.938
967.785, 90.820
969.043, 15.872
970.300, 9.130
971.557, 24.199
972.814, 46.389
974.071, 45.651
975.327, 10.914
976.583, 47.178
977.840, 22.587
979.095, 22.641
980.351, 80.897
981.607, 13.870
982.862, 56.367
984.117, 21.622
985.372, 63.868
986.627, 96.129
987.882, 1.610
989.136, 15.652
990.390, 64.914
991.644, 42.823
992.898, 84.420
994.152, 50.644
995.405, 50.895
996.659, 107.914
997.912, 55.167
999.165, 51.421
1000.417, 17.675
1001.670, 58.932
1002.922, 82.170
1004.174, 43.428
1005.426, 73.041
1006.678, 43.249
1007.930, 61.510
1009.181, 103.777
1010.432, 61.046
1011.683, 54.302
1012.934, 90.574
1014.185, 50.848
1015.435, 99.085
1016.685, 127.387
1017.935, 38.669
1019.185, 131.948
1020.435, 70.298
1021.684, 137.585
1022.934, 161.941
1024.183, 90.243
1025.432, 129.561
1026.680, 112.797
1027.929, 90.136
1029.177, 96.219
1030.425, 65.926
1031.673, 123.227
1032.921, 106.567
1034.169, 128.877
1035.416, 110.793
1036.663, 81.081
1037.911, 62.572
1039.157, 101.793
1040.404, 69.165
1041.650, 159.488
1042.897, 94.823
1044.143, 72.158
1045.389, 136.857
1046.634, 44.269
1047.880, 137.608
1049.125, 151.948
1050.371, 73.362
1051.615, 141.704
1052.860, 123.712
1054.105, 127.057
1055.349, 174.403
1056.593, 95.852
1057.837, 102.652
1059.081, 148.001
1060.325, 49.351
1061.568, 142.695
1062.812, 126.161
1064.055, 135.643
1065.298, 208.039
1066.540, 240.415
1067.783, 379.809
1069.025, 485.186
1070.267, 389.529
1071.509, 350.907
1072.751, 262.286
1073.993, 311.635
1075.234, 379.015
1076.475, 369.951
1077.716, 526.335
1078.957, 553.720
1080.198, 691.105
1081.438, 943.490
1082.679, 1155.862
1083.919, 2393.253
1085.159, 4321.643
1086.398, 10199.039
1087.638, 32216.439
1088.877, 41363.832
1090.116, 30931.297
1091.355, 10618.698
1092.594, 3331.101
1093.833, 2022.578
1095.071, 1124.981
1096.309, 787.396
1097.547, 626.812
1098.785, 441.226
1100.023, 388.658
1101.260, 358.073
1102.498, 250.493
1103.735, 263.915
1104.972, 256.345
1106.208, 189.825
1107.445, 253.259
1108.681, 172.693
1109.918, 192.389
1111.154, 221.823
1112.389, 96.256
1113.625, 205.690
1114.860, 82.133
1116.096, 53.576
1117.331, 116.021
1118.566, 43.465
1119.800, 151.256
1121.035, 92.701
1122.269, 77.146
1123.503, 98.591
1124.737, 144.034
1125.971, 120.478
1127.205, 130.870
1128.438, 115.313
1129.671, 108.755
1130.904, 121.689
1132.137, 93.899
1133.370, 57.675
1134.602, 71.115
1135.834, 73.554
1137.066, 100.957
1138.298, 103.400
1139.530, 132.865
1140.762, 109.047
1141.993, 93.481
1143.224, 112.752
1144.455, 34.184
1145.686, 39.616
1146.917, 62.184
1148.147, 26.614
1149.377, 90.496
1150.607, 57.001
1151.837, 63.427
1153.067, 85.065
1154.296, 28.491
1155.526, 60.943
1156.755, 83.005
1157.984, 40.427
1159.213, 113.962
1160.441, 33.740
1161.670, 26.156
1162.898, 117.165
1164.126, 11.579
1165.354, 58.921
1166.581, 63.455
1167.809, 2.862
1169.036, 80.799
1170.263, 3.205
1171.490, 16.604
1172.717, 17.062
1173.943, 45.457
1175.170, 12.858
1176.396, 38.358
1177.622, 26.245
1178.848, 91.189
1180.073, 14.568
1181.299, 21.944
1182.524, 102.871
1183.749, 23.264
1184.974, 3.212
1186.199, 70.415
1187.423, 16.777
1188.648, 86.136
1189.872, 72.972
1191.096, 44.326
1192.320, 80.879
1193.543, 14.345
1194.767, 38.695
1195.990, 100.275
1197.213, 15.617
1198.436, 93.032
1199.659, 26.331
1200.881, 35.993
1202.104, 62.419
1203.326, 9.947
1204.548, 21.259
1205.770, 77.809
1206.991, 45.116
1208.213, 88.419
1209.434, 12.622
1210.655, 8.917
1211.876, 31.295
1213.096, 70.424
1214.317, 35.706
1215.537, 71.095
1216.757, 28.491
1217.977, 68.762
1219.197, 65.010
1220.417, 46.255
1221.636, 178.495
1222.855, 5.101
1224.074, 105.125
1225.293, 84.349
1226.512, 43.643
1227.731, 137.858
1228.949, 72.150
1230.167, 53.622
1231.385, 84.823
1232.603, 85.048
1233.820, 100.820
1235.038, 99.008
1236.255, 32.795
1237.472, 88.973
1238.689, 123.266
1239.906, 30.437
1241.122, 131.606
1242.338, 61.278
1243.555, 60.442
1244.771, 108.603
1245.986, 47.957
1247.202, 80.113
1248.417, 126.266
1249.633, 75.581
1250.848, 154.728
1252.063, 40.873
1253.277, 69.791
1254.492, 123.928
1255.706, 8.153
1256.920, 125.283
1258.134, 110.411
1259.348, 87.664
1260.562, 87.785
1261.775, 57.903
1262.988, 104.030
1264.201, 71.137
1265.414, 5.242
1266.627, 98.377
1267.839, 100.469
1269.052, 73.557
1270.264, 130.642
1271.476, 96.714
1272.688, 76.974
1273.899, 59.037
1275.111, 73.092
1276.322, 48.142
1277.533, 67.939
1278.744, 33.217
1279.955, 82.243
1281.165, 98.264
1282.376, 64.281
1283.586, 57.278
1284.796, 52.270
1286.006, 56.250
1287.215, 100.220
1288.425, 2.816
1289.634, 105.139
1290.843, 61.088
1292.052, 27.030
1293.261, 117.966
1294.469, 4.896
1295.678, 41.818
1296.886, 114.722
1298.094, 18.620
1299.302, 82.499
1300.509, 54.371
1301.717, 14.762
1302.924, 78.092
1304.131, 33.933
1305.338, 9.767
1306.545, 122.586
1307.752, 2.398
1308.958, 105.188
1310.164, 3.058
1311.370, 31.710
1312.576, 76.472
1313.782, 4.138
1314.987, 60.862
1316.193, 113.509
1317.398, 20.796
1318.603, 82.869
1319.807, 73.546
1321.012, 37.175
1322.216, 120.836
1323.421, 48.082
1324.625, 94.727
1325.829, 134.326
1327.032, 29.054
1328.236, 55.553
1329.439, 26.138
1330.642, 8.447
1331.845, 138.130
1333.048, 86.650
1334.251, 27.789
1335.453, 59.753
1336.656, 20.288
1337.858, 32.813
1339.060, 94.271
1340.261, 17.780
1341.463, 98.281
1342.664, 44.258
1343.866, 14.743
1345.067, 77.555
1346.267, 34.025
1347.468, 19.487
1348.669, 64.840
1349.869, 17.233
1351.069, 62.675
1352.269, 67.112
1353.469, 18.457
1354.668, 91.857
1355.868, 37.151
1357.067, 17.468
1358.266, 113.928
1359.465, 31.303
1360.664, 26.692
1361.862, 142.108
1363.061, 59.442
1364.259, 123.771
1365.457, 71.096
1366.655, 7.583
1367.852, 80.177
1369.050, 76.983
1370.247, 37.286
1371.444, 109.585
1372.641, 6.121
1373.838, 13.170
1375.035, 60.463
1376.231, 5.289
1377.427, 1.954
1378.623, 63.190
1379.819, 1.427
1381.015, 59.616
1382.211, 25.917
1383.406, 64.704
1384.601, 74.746
1385.796, 28.625
1386.991, 73.178
1388.185, 72.990
1389.380, 18.743
1390.574, 121.535
1391.768, 140.036
1392.962, 21.810
1394.156, 149.577
1395.350, 122.336
1396.543, 0.297
1397.736, 153.445
1398.929, 33.180
1400.122, 85.906
1401.315, 147.579
1402.507, 27.170
1403.700, 87.874
1404.892, 102.564
1406.084, 52.206
1407.276, 183.875
1408.467, 54.543
1409.659, 46.035
1410.850, 168.025
1412.041, 77.396
1413.232, 130.995
1414.423, 167.504
1415.614, 19.484
1416.804, 113.287
1417.994, 157.616
1419.184, 78.001
1420.374, 202.817
1421.564, 131.506
1422.753, 99.005
1423.943, 224.355
1425.132, 91.787
1426.321, 178.590
1427.510, 158.788
1428.698, 113.364
1429.887, 210.060
1431.075, 170.120
1432.263, 159.310
1433.451, 274.302
1434.639, 277.052
1435.827, 388.223
1437.014, 683.214
1438.201, 799.147
1439.388, 956.285
1440.575, 681.406
1441.762, 389.505
1442.949, 383.281
1444.135, 262.515
1445.321, 115.746
1446.507, 222.845
1447.693, 143.900
1448.879, 120.050
1450.064, 251.693
1451.250, 51.707
1452.435, 221.592
1453.620, 191.407
1454.805, 49.432
1455.989, 190.222
1457.174, 139.687
1458.358, 97.524
1459.542, 191.966
1460.726, 86.991
1461.910, 84.483
1463.093, 216.135
1464.277, 65.440
1465.460, 141.970
1466.643, 152.504
1467.826, 51.909
1469.009, 129.367
1470.191, 180.319
1471.373, 54.758
1472.556, 201.171
1473.738, 155.609
1474.919, 57.999
1476.101, 281.430
1477.283, 22.909
1478.464, 54.399
1479.645, 151.863
1480.826, 4.293
1482.007, 164.735
1483.187, 132.225
1484.368, 25.271
1485.548, 151.222
1486.728, 88.741
1487.908, 85.323
1489.088, 183.972
1490.268, 89.691
1491.447, 43.507
1492.626, 178.371
1493.805, 27.291
1494.984, 69.248
1496.163, 99.242
1497.341, 71.294
1498.520, 123.414
1499.698, 87.599
1500.876, 31.858
1502.054, 202.197
1503.232, 23.545
1504.409, 68.820
1505.586, 143.764
1506.763, 13.748
1507.940, 72.760
1509.117, 86.780
1510.294, 10.206
1511.470, 129.776
1512.647, 115.687
1513.823, 23.461
1514.999, 186.586
1516.174, 29.999
1517.350, 27.999
1518.526, 203.119
1519.701, 47.012
1520.876, 122.572
1522.051, 125.334
1523.226, 0.000
##END=



