##NAMES=Calcite
##RRUFFID=R050130
##IDEAL CHEMISTRY=CaCO_3_
##LOCALITY=Mexico
##OWNER=RRUFF
##SOURCE=Dave Bunk Minerals
##DESCRIPTION=Colorless cleavage rhomb
##STATUS=The identification of this mineral has been confirmed by X-ray diffraction and chemical analysis
##URL=rruff.info/R050130
##MEASURED CHEMISTRY=Ca_1.00_CO_3_; trace amounts of Si (?)
##PIN_ID=L00264
##ORIENTATION=Laser parallel to -c* (0 0 -1). Fiducial mark perpendicular to laser is parallel to a [1 0 0]
49.365, 0.000
50.765, 17.996
52.166, 29.350
53.566, 30.004
54.966, 60.985
56.365, 62.860
57.765, 76.836
59.164, 92.272
60.563, 106.469
61.962, 127.056
63.360, 131.529
64.758, 130.587
66.157, 115.974
67.554, 108.418
68.952, 121.640
70.349, 101.458
71.747, 76.442
73.144, 72.311
74.540, 63.852
75.937, 38.449
77.333, 30.097
78.729, 28.794
80.125, 19.534
81.521, 11.314
82.916, 15.133
84.311, 2.013
85.706, 9.875
87.101, 21.793
88.496, 2.742
89.890, 1.282
91.284, 20.279
92.678, 19.251
94.071, 0.802
95.465, 0.878
96.858, 12.977
98.251, 25.098
99.644, 35.238
101.036, 33.397
102.428, 28.572
103.820, 44.761
105.212, 34.964
106.604, 53.179
107.995, 58.408
109.387, 90.650
110.777, 178.905
112.168, 123.173
113.559, 92.453
114.949, 95.744
116.339, 97.047
117.729, 87.361
119.119, 84.686
120.508, 86.021
121.897, 92.367
123.286, 96.723
124.675, 84.088
126.063, 77.463
127.452, 80.847
128.840, 107.240
130.228, 96.641
131.615, 115.050
133.003, 80.468
134.390, 103.899
135.777, 92.342
137.164, 104.797
138.550, 101.262
139.937, 136.736
141.323, 116.219
142.709, 135.710
144.094, 122.207
145.480, 157.710
146.865, 181.215
148.250, 242.721
149.635, 324.229
151.019, 437.731
152.403, 559.238
153.788, 764.735
155.171, 850.204
156.555, 891.676
157.939, 857.151
159.322, 661.630
160.705, 476.114
162.088, 353.615
163.470, 283.119
164.853, 202.627
166.235, 164.140
167.617, 140.673
168.998, 132.213
170.380, 101.757
171.761, 102.305
173.142, 98.858
174.523, 80.414
175.904, 77.974
177.284, 75.537
178.664, 60.104
180.044, 72.676
181.424, 65.252
182.803, 57.831
184.183, 65.414
185.562, 54.999
186.940, 72.590
188.319, 69.189
189.698, 34.791
191.076, 71.398
192.454, 42.007
193.831, 30.619
195.209, 43.233
196.586, 43.851
197.963, 45.472
199.340, 59.095
200.717, 49.720
202.093, 40.349
203.470, 34.980
204.846, 38.613
206.221, 59.247
207.597, 34.883
208.972, 34.521
210.347, 40.161
211.722, 21.802
213.097, 45.446
214.472, 38.093
215.846, 47.887
217.220, 34.718
218.594, 40.561
219.967, 44.403
221.341, 24.238
222.714, 37.060
224.087, 31.870
225.460, 35.665
226.832, 46.437
228.204, 52.191
229.577, 57.929
230.948, 38.653
232.320, 55.557
233.692, 47.254
235.063, 46.924
236.434, 32.541
237.805, 48.561
239.175, 45.118
240.545, 46.681
241.916, 45.267
243.286, 53.846
244.655, 59.434
246.025, 67.976
247.394, 55.548
248.763, 73.114
250.132, 88.220
251.501, 77.731
252.869, 84.321
254.237, 101.267
255.605, 91.538
256.973, 111.626
258.340, 125.806
259.708, 123.253
261.075, 138.841
262.442, 153.436
263.808, 193.067
265.175, 184.700
266.541, 224.336
267.907, 269.975
269.273, 300.617
270.639, 359.261
272.004, 416.929
273.369, 530.578
274.734, 665.230
276.099, 865.884
277.463, 1033.540
278.828, 1306.198
280.192, 1515.940
281.556, 1677.603
282.919, 1653.253
284.283, 1558.613
285.646, 1302.282
287.009, 1087.952
288.372, 847.652
289.734, 642.354
291.097, 490.031
292.459, 383.779
293.821, 290.492
295.183, 246.276
296.544, 204.979
297.905, 167.680
299.266, 148.384
300.627, 111.087
301.988, 110.776
303.348, 85.465
304.709, 89.154
306.069, 74.860
307.428, 71.792
308.788, 57.484
310.147, 55.178
311.507, 33.057
312.865, 49.755
314.224, 51.451
315.583, 25.148
316.941, 38.845
318.299, 36.582
319.657, 32.282
321.015, 31.996
322.372, 30.305
323.729, 24.136
325.086, 23.846
326.443, 23.552
327.800, 28.576
329.156, 13.284
330.512, 11.992
331.868, 27.710
333.224, 19.420
334.579, 1.159
335.935, 13.870
337.290, 18.582
338.645, 10.295
339.999, 32.280
341.354, 23.994
342.708, 16.707
344.062, 10.463
345.416, 18.191
346.769, 15.906
348.123, 19.621
349.476, 5.342
350.829, 10.219
352.182, 17.949
353.534, 2.665
354.887, 11.395
356.239, 33.111
357.591, 20.828
358.942, 24.545
360.294, 9.266
361.645, 10.983
362.996, 15.699
364.347, 24.416
365.698, 16.133
367.048, 23.850
368.398, 4.567
369.748, 19.322
371.098, 13.038
372.448, 13.780
373.797, 5.654
375.146, 22.379
376.495, 19.095
377.844, 27.811
379.192, 14.526
380.540, 5.596
381.889, 6.310
383.236, 5.059
384.584, 10.770
385.932, 8.480
387.279, 8.190
388.626, 6.918
389.973, 16.988
391.319, 25.695
392.666, 12.402
394.012, 4.881
395.358, 0.822
396.704, 14.526
398.049, 2.229
399.394, 9.068
400.740, 5.660
402.084, 9.359
403.429, 1.058
404.774, 2.757
406.118, 1.456
407.462, 17.191
408.806, 2.045
410.150, 0.331
411.493, 7.367
412.836, 10.103
414.179, 18.833
415.522, 9.466
416.865, 2.456
418.207, 8.154
419.549, 4.859
420.891, 9.609
422.233, 2.680
423.575, 24.029
424.916, 6.739
426.257, 12.449
427.598, 9.158
428.939, 10.051
430.279, 8.759
431.619, 7.478
432.959, 16.793
434.299, 8.934
435.639, 13.705
436.978, 16.402
438.318, 10.099
439.657, 16.796
440.996, 1.143
442.334, 21.552
443.673, 15.736
445.011, 11.031
446.349, 10.679
447.687, 11.357
449.024, 2.034
450.361, 1.710
451.699, 9.810
453.036, 0.514
454.372, 1.184
455.709, 1.142
457.045, 4.558
458.381, 5.234
459.717, 4.925
461.053, 5.594
462.388, 9.266
463.724, 18.933
465.059, 21.601
466.394, 6.269
467.728, 3.065
469.063, 13.599
470.397, 29.261
471.731, 2.078
473.065, 9.580
474.398, 23.334
475.732, 15.992
477.065, 14.648
478.398, 1.303
479.731, 11.969
481.063, 8.010
482.396, 8.339
483.728, 0.692
485.060, 10.079
486.391, 24.755
487.723, 3.584
489.054, 25.066
490.385, 16.727
491.716, 9.363
493.047, 14.014
494.377, 4.648
495.708, 28.492
497.038, 19.156
498.368, 22.788
499.697, 2.546
501.027, 32.081
502.356, 13.707
503.685, 2.333
505.014, 8.957
506.342, 18.580
507.671, 23.202
508.999, 10.842
510.327, 0.537
511.655, 9.081
512.982, 17.703
514.310, 9.333
515.637, 17.054
516.964, 18.691
518.291, 15.303
519.617, 11.914
520.944, 16.523
522.270, 15.143
523.596, 15.765
524.921, 28.370
526.247, 13.974
527.572, 19.576
528.897, 4.177
530.222, 17.776
531.547, 7.374
532.871, 0.030
534.196, 11.564
535.520, 37.156
536.844, 14.748
538.167, 33.338
539.491, 3.072
540.814, 19.514
542.137, 5.100
543.460, 17.684
544.783, 20.268
546.105, 19.852
547.427, 9.433
548.749, 2.986
550.071, 15.589
551.393, 28.164
552.714, 11.741
554.035, 24.123
555.356, 27.680
556.677, 16.254
557.998, 33.814
559.318, 6.922
560.638, 14.491
561.958, 20.058
563.278, 21.606
564.597, 25.160
565.917, 5.706
567.236, 2.267
568.555, 10.745
569.874, 19.272
571.192, 5.829
572.511, 7.387
573.829, 20.946
575.147, 1.014
576.464, 27.524
577.782, 17.076
579.099, 4.620
580.416, 36.170
581.733, 18.593
583.050, 30.139
584.366, 21.685
585.683, 26.230
586.999, 0.228
588.315, 19.311
589.630, 11.867
590.946, 9.403
592.261, 6.916
593.576, 1.454
594.891, 24.984
596.206, 17.512
597.520, 25.039
598.834, 3.436
600.148, 18.004
601.462, 9.567
602.776, 8.099
604.089, 4.939
605.402, 13.459
606.715, 26.992
608.028, 34.476
609.341, 5.044
610.653, 24.834
611.965, 7.267
613.277, 19.740
614.589, 6.137
615.901, 11.655
617.212, 8.132
618.523, 13.608
619.834, 12.084
621.145, 19.576
622.456, 20.322
623.766, 12.824
625.076, 18.365
626.386, 29.632
627.696, 30.117
629.006, 26.601
630.315, 26.897
631.624, 0.375
632.933, 12.854
634.242, 21.348
635.551, 39.822
636.859, 10.256
638.167, 4.243
639.475, 18.223
640.783, 33.458
642.090, 0.208
643.398, 5.246
644.705, 8.703
646.012, 9.856
647.318, 7.311
648.625, 27.801
649.931, 9.258
651.237, 26.705
652.543, 1.519
653.849, 5.940
655.155, 22.381
656.460, 4.851
657.765, 23.029
659.070, 15.501
660.375, 19.142
661.679, 24.555
662.984, 26.972
664.288, 21.401
665.592, 9.217
666.895, 31.635
668.199, 14.940
669.502, 12.405
670.805, 9.829
672.108, 0.252
673.411, 7.669
674.713, 16.085
676.016, 16.502
677.318, 21.911
678.620, 10.338
679.921, 9.747
681.223, 17.155
682.524, 14.565
683.825, 28.969
685.126, 31.372
686.427, 19.751
687.727, 21.150
689.028, 33.522
690.328, 41.769
691.628, 18.168
692.927, 30.936
694.227, 42.326
695.526, 36.874
696.825, 57.904
698.124, 46.734
699.423, 69.081
700.721, 94.943
702.020, 93.322
703.318, 124.728
704.616, 169.084
705.913, 248.160
707.211, 383.532
708.508, 694.994
709.805, 1344.430
711.102, 2429.797
712.399, 3585.205
713.695, 3573.569
714.992, 2412.937
716.288, 1349.301
717.584, 768.661
718.879, 433.032
720.175, 289.404
721.470, 180.759
722.765, 131.076
724.060, 100.743
725.355, 83.078
726.649, 85.426
727.944, 47.332
729.238, 50.295
730.532, 37.653
731.825, 33.770
733.119, 29.112
734.412, 20.451
735.705, 33.842
736.998, 49.197
738.291, 44.550
739.584, 26.316
740.876, 26.646
742.168, 20.975
743.460, 41.117
744.752, 11.448
746.043, 41.790
747.334, 34.089
748.626, 14.400
749.916, 30.651
751.207, 20.993
752.498, 15.311
753.788, 17.627
755.078, 36.822
756.368, 5.135
757.658, 41.427
758.947, 11.824
760.237, 14.110
761.526, 10.423
762.815, 17.733
764.104, 31.042
765.392, 3.075
766.680, 24.227
767.969, 13.504
769.257, 21.818
770.544, 5.088
771.832, 15.378
773.119, 16.971
774.406, 23.263
775.693, 14.550
776.980, 1.160
778.267, 12.667
779.553, 2.966
780.839, 10.247
782.125, 18.592
783.411, 28.871
784.697, 18.148
785.982, 17.424
787.267, 14.602
788.552, 10.874
789.837, 19.144
791.122, 22.414
792.406, 7.669
793.690, 11.546
794.974, 3.190
796.258, 28.072
797.542, 17.207
798.825, 20.433
800.108, 10.673
801.391, 13.918
802.674, 5.151
803.957, 10.405
805.239, 20.642
806.522, 3.107
807.804, 9.927
809.085, 16.142
810.367, 6.385
811.649, 10.729
812.930, 4.970
814.211, 0.791
815.492, 8.445
816.772, 24.850
818.053, 28.083
819.333, 3.685
820.613, 19.523
821.893, 3.749
823.173, 1.973
824.452, 13.551
825.732, 9.757
827.011, 17.870
828.290, 19.461
829.568, 13.678
830.847, 22.893
832.125, 10.119
833.403, 25.318
834.681, 16.513
835.959, 12.723
837.236, 25.931
838.514, 21.138
839.791, 9.343
841.068, 19.547
842.345, 31.750
843.621, 10.951
844.898, 10.152
846.174, 3.649
847.450, 30.546
848.726, 0.261
850.001, 24.930
851.277, 4.879
852.552, 13.307
853.827, 5.508
855.102, 15.671
856.376, 5.849
857.651, 25.026
858.925, 1.201
860.199, 16.376
861.473, 15.450
862.746, 0.714
864.020, 27.876
865.293, 2.036
866.566, 17.195
867.839, 10.353
869.112, 4.510
870.384, 27.666
871.656, 8.820
872.928, 7.974
874.200, 21.126
875.472, 13.277
876.744, 4.573
878.015, 11.573
879.286, 34.718
880.557, 8.137
881.828, 8.999
883.098, 7.133
884.369, 16.263
885.639, 11.394
886.909, 10.526
888.178, 0.343
889.448, 5.786
890.717, 5.915
891.987, 5.958
893.256, 21.165
894.524, 18.286
895.793, 14.407
897.061, 8.529
898.330, 2.631
899.598, 25.750
900.865, 5.869
902.133, 8.981
903.401, 4.098
904.668, 21.217
905.935, 23.333
907.202, 3.549
908.468, 16.566
909.735, 33.638
911.001, 1.246
912.267, 7.853
913.533, 10.961
914.799, 15.053
916.064, 23.166
917.330, 16.277
918.595, 13.016
919.860, 21.128
921.124, 4.234
922.389, 10.345
923.653, 9.415
924.918, 5.474
926.182, 16.634
927.445, 11.741
928.709, 29.846
929.972, 9.304
931.236, 2.785
932.499, 27.818
933.761, 1.103
935.024, 23.996
936.286, 21.095
937.549, 9.193
938.811, 10.292
940.073, 8.387
941.334, 10.467
942.596, 17.565
943.857, 12.662
945.118, 29.732
946.379, 13.821
947.640, 21.547
948.900, 25.648
950.161, 9.750
951.421, 18.852
952.681, 18.939
953.940, 24.039
955.200, 26.102
956.459, 15.187
957.719, 8.289
958.978, 23.030
960.236, 33.115
961.495, 10.217
962.753, 3.713
964.012, 21.374
965.270, 7.437
966.527, 7.330
967.785, 4.590
969.043, 14.511
970.300, 16.612
971.557, 4.324
972.814, 11.425
974.071, 14.484
975.327, 8.472
976.583, 3.625
977.840, 8.706
979.095, 9.196
980.351, 31.900
981.607, 18.994
982.862, 0.089
984.117, 44.168
985.372, 20.263
986.627, 37.358
987.882, 15.449
989.136, 21.544
990.390, 32.639
991.644, 49.717
992.898, 41.812
994.152, 46.907
995.405, 16.992
996.659, 41.075
997.912, 39.794
999.165, 31.889
1000.417, 64.824
1001.670, 45.920
1002.922, 66.570
1004.174, 46.666
1005.426, 50.286
1006.678, 54.388
1007.930, 72.462
1009.181, 83.565
1010.432, 81.605
1011.683, 76.711
1012.934, 84.726
1014.185, 94.755
1015.435, 91.865
1016.685, 89.933
1017.935, 93.043
1019.185, 124.147
1020.435, 99.227
1021.684, 78.338
1022.934, 100.437
1024.183, 109.534
1025.432, 102.646
1026.680, 113.760
1027.929, 97.495
1029.177, 88.610
1030.425, 104.726
1031.673, 94.251
1032.921, 100.725
1034.169, 90.831
1035.416, 104.953
1036.663, 99.561
1037.911, 93.688
1039.157, 108.726
1040.404, 117.839
1041.650, 96.953
1042.897, 89.655
1044.143, 118.791
1045.389, 105.927
1046.634, 98.101
1047.880, 129.232
1049.125, 114.340
1050.371, 123.478
1051.615, 146.601
1052.860, 138.740
1054.105, 133.318
1055.349, 147.460
1056.593, 152.605
1057.837, 136.505
1059.081, 210.651
1060.325, 195.130
1061.568, 179.173
1062.812, 235.317
1064.055, 252.465
1065.298, 335.614
1066.540, 559.780
1067.783, 678.930
1069.025, 559.086
1070.267, 441.251
1071.509, 398.389
1072.751, 400.543
1073.993, 461.871
1075.234, 588.707
1076.475, 672.895
1077.716, 851.050
1078.957, 1044.209
1080.198, 1368.856
1081.438, 2055.997
1082.679, 3580.209
1083.919, 7821.342
1085.159, 20876.514
1086.398, 51905.703
1087.638, 62004.879
1088.877, 35834.047
1090.116, 14883.260
1091.355, 7002.427
1092.594, 3655.596
1093.833, 2106.717
1095.071, 1325.885
1096.309, 898.055
1097.547, 713.227
1098.785, 567.400
1100.023, 501.667
1101.260, 426.841
1102.498, 378.014
1103.735, 319.218
1104.972, 264.435
1106.208, 255.609
1107.445, 224.784
1108.681, 225.960
1109.918, 224.137
1111.154, 193.353
1112.389, 147.436
1113.625, 191.640
1114.860, 161.817
1116.096, 150.563
1117.331, 122.578
1118.566, 121.839
1119.800, 134.022
1121.035, 126.210
1122.269, 105.445
1123.503, 175.808
1124.737, 110.629
1125.971, 104.810
1127.205, 117.992
1128.438, 120.776
1129.671, 108.988
1130.904, 70.169
1132.137, 66.339
1133.370, 95.539
1134.602, 69.721
1135.834, 66.902
1137.066, 91.084
1138.298, 71.265
1139.530, 83.480
1140.762, 71.661
1141.993, 72.843
1143.224, 80.049
1144.455, 25.230
1145.686, 49.411
1146.917, 43.594
1148.147, 30.776
1149.377, 56.032
1150.607, 58.238
1151.837, 58.423
1153.067, 56.885
1154.296, 23.071
1155.526, 28.373
1156.755, 46.576
1157.984, 54.760
1159.213, 57.805
1160.441, 46.038
1161.670, 33.242
1162.898, 50.929
1164.126, 41.117
1165.354, 43.305
1166.581, 36.571
1167.809, 45.758
1169.036, 28.944
1170.263, 57.148
1171.490, 37.333
1172.717, 35.603
1173.943, 42.095
1175.170, 23.329
1176.396, 34.532
1177.622, 13.931
1178.848, 35.009
1180.073, 15.357
1181.299, 19.544
1182.524, 13.731
1183.749, 10.155
1184.974, 26.061
1186.199, 17.329
1187.423, 18.566
1188.648, 20.744
1189.872, 41.350
1191.096, 25.559
1192.320, 45.744
1193.543, 2.989
1194.767, 38.165
1195.990, 17.386
1197.213, 21.560
1198.436, 42.733
1199.659, 17.538
1200.881, 8.291
1202.104, 23.875
1203.326, 45.660
1204.548, 41.823
1205.770, 15.986
1206.991, 5.840
1208.213, 33.331
1209.434, 29.590
1210.655, 19.747
1211.876, 40.902
1213.096, 11.057
1214.317, 27.210
1215.537, 14.551
1216.757, 12.736
1217.977, 31.892
1219.197, 17.163
1220.417, 2.686
1221.636, 35.483
1222.855, 8.628
1224.074, 19.790
1225.293, 15.971
1226.512, 9.205
1227.731, 39.392
1228.949, 4.540
1230.167, 9.707
1231.385, 37.840
1232.603, 11.239
1233.820, 15.384
1235.038, 24.530
1236.255, 8.691
1237.472, 49.864
1238.689, 35.084
1239.906, 13.742
1241.122, 47.393
1242.338, 28.503
1243.555, 30.918
1244.771, 24.027
1245.986, 1.186
1247.202, 43.293
1248.417, 50.398
1249.633, 13.502
1250.848, 10.603
1252.063, 31.721
1253.277, 38.819
1254.492, 25.915
1255.706, 25.010
1256.920, 12.105
1258.134, 11.198
1259.348, 15.290
1260.562, 46.381
1261.775, 6.528
1262.988, 20.559
1264.201, 4.645
1265.414, 21.730
1266.627, 20.814
1267.839, 9.896
1269.052, 0.030
1270.264, 45.042
1271.476, 25.114
1272.688, 34.179
1273.899, 56.240
1275.111, 16.302
1276.322, 31.362
1277.533, 37.420
1278.744, 19.477
1279.955, 39.530
1281.165, 31.580
1282.376, 34.622
1283.586, 72.662
1284.796, 16.695
1286.006, 25.719
1287.215, 28.738
1288.425, 18.756
1289.634, 53.771
1290.843, 52.784
1292.052, 34.790
1293.261, 28.795
1294.469, 8.793
1295.678, 19.790
1296.886, 55.783
1298.094, 16.226
1299.302, 40.758
1300.509, 4.737
1301.717, 21.714
1302.924, 31.687
1304.131, 9.341
1305.338, 14.623
1306.545, 22.585
1307.752, 3.464
1308.958, 36.479
1310.164, 34.420
1311.370, 9.357
1312.576, 30.291
1313.782, 45.219
1314.987, 22.144
1316.193, 42.066
1317.398, 8.986
1318.603, 0.098
1319.807, 15.048
1321.012, 22.957
1322.216, 1.863
1323.421, 9.235
1324.625, 3.659
1325.829, 29.578
1327.032, 32.466
1328.236, 9.650
1329.439, 18.745
1330.642, 12.382
1331.845, 13.504
1333.048, 30.366
1334.251, 1.775
1335.453, 20.387
1336.656, 26.238
1337.858, 12.086
1339.060, 50.894
1340.261, 16.756
1341.463, 34.594
1342.664, 40.430
1343.866, 4.737
1345.067, 68.091
1346.267, 36.505
1347.468, 4.673
1348.669, 30.144
1349.869, 47.958
1351.069, 24.770
1352.269, 24.562
1353.469, 8.367
1354.668, 64.165
1355.868, 28.986
1357.067, 34.779
1358.266, 31.552
1359.465, 3.358
1360.664, 19.130
1361.862, 25.911
1363.061, 6.681
1364.259, 26.447
1365.457, 21.036
1366.655, 26.794
1367.852, 22.504
1369.050, 17.285
1370.247, 9.014
1371.444, 15.708
1372.641, 24.428
1373.838, 10.910
1375.035, 37.758
1376.231, 1.453
1377.427, 23.111
1378.623, 22.818
1379.819, 18.496
1381.015, 15.114
1382.211, 8.759
1383.406, 12.788
1384.601, 20.766
1385.796, 29.739
1386.991, 0.610
1388.185, 47.544
1389.380, 14.462
1390.574, 44.421
1391.768, 40.335
1392.962, 48.211
1394.156, 45.541
1395.350, 22.383
1396.543, 42.308
1397.736, 68.977
1398.929, 46.905
1400.122, 36.830
1401.315, 62.717
1402.507, 42.613
1403.700, 63.528
1404.892, 30.441
1406.084, 35.310
1407.276, 65.185
1408.467, 38.088
1409.659, 36.988
1410.850, 64.764
1412.041, 67.041
1413.232, 53.766
1414.423, 74.613
1415.614, 60.293
1416.804, 91.464
1417.994, 100.305
1419.184, 63.035
1420.374, 99.843
1421.564, 78.556
1422.753, 81.880
1423.943, 113.366
1425.132, 87.662
1426.321, 128.450
1427.510, 117.825
1428.698, 93.895
1429.887, 142.998
1431.075, 162.674
1432.263, 182.296
1433.451, 265.946
1434.639, 381.662
1435.827, 685.364
1437.014, 1051.058
1438.201, 1099.723
1439.388, 850.215
1440.575, 571.888
1441.762, 327.557
1442.949, 253.830
1444.135, 152.253
1445.321, 119.845
1446.507, 120.448
1447.693, 68.832
1448.879, 48.350
1450.064, 89.006
1451.250, 31.045
1452.435, 33.518
1453.620, 56.794
1454.805, 26.201
1455.989, 61.125
1457.174, 52.548
1458.358, 50.064
1459.542, 51.571
1460.726, 57.025
1461.910, 1.491
1463.093, 47.976
1464.277, 16.424
1465.460, 38.852
1466.643, 44.260
1467.826, 7.648
1469.009, 52.051
1470.191, 55.448
1471.373, 26.852
1472.556, 36.238
1473.738, 8.611
1474.919, 20.995
1476.101, 42.394
1477.283, 3.157
1478.464, 41.288
1479.645, 44.734
1480.826, 26.192
1482.007, 7.654
1483.187, 28.104
1484.368, 21.555
1485.548, 50.998
1486.728, 23.438
1487.908, 2.941
1489.088, 33.455
1490.268, 18.986
1491.447, 23.531
1492.626, 36.078
1493.805, 3.472
1494.984, 10.039
1496.163, 55.412
1497.341, 4.931
1498.520, 32.458
1499.698, 25.878
1500.876, 3.534
1502.054, 57.981
1503.232, 4.285
1504.409, 32.712
1505.586, 72.131
1506.763, 39.143
1507.940, 34.491
1509.117, 16.788
1510.294, 0.138
1511.470, 25.603
1512.647, 40.265
1513.823, 36.930
1514.999, 42.700
1516.174, 48.319
1517.350, 9.327
1518.526, 39.067
1519.701, 0.213
1520.876, 25.618
1522.051, 31.665
1523.226, 0.000
##END=



