##NAMES=Calcite
##RRUFFID=R040070
##IDEAL CHEMISTRY=CaCO_3_
##LOCALITY=Pryor Mountain, Big Horn County, Montana, USA
##OWNER=RRUFF
##SOURCE=University of Arizona Mineral Museum
##DESCRIPTION=Orange scalenohedral crystals
##STATUS=The identification of this mineral has been confirmed by X-ray diffraction and chemical analysis
##URL=rruff.info/R040070
##MEASURED CHEMISTRY=(Ca_0.99_Mg_0.01_)CO_3_
##PIN_ID=M00039
##ORIENTATION=Laser parallel to -c* (0 0 -1). Fiducial mark perpendicular to laser is parallel to a [1 0 0]
94.768, 0.000
96.161, 13.069
97.554, 21.140
98.947, 27.464
100.340, 19.706
101.732, 28.993
103.124, 38.634
104.516, 28.733
105.908, 68.303
107.300, 59.276
108.691, 76.656
110.082, 78.386
111.473, 155.337
112.864, 237.419
114.254, 186.562
115.644, 163.720
117.034, 153.010
118.424, 116.484
119.813, 94.366
121.203, 58.380
122.592, 68.910
123.981, 21.291
125.369, 25.527
126.758, 6.588
128.146, 37.610
129.534, 41.439
130.922, 51.077
132.309, 39.629
133.696, 40.940
135.083, 61.114
136.470, 44.469
137.857, 108.387
139.243, 55.876
140.630, 78.869
142.016, 118.601
143.401, 104.332
144.787, 166.644
146.172, 219.570
147.557, 344.524
148.942, 471.903
150.327, 631.769
151.711, 831.103
153.096, 1092.246
154.480, 1132.526
155.863, 1112.758
157.247, 907.182
158.630, 672.867
160.013, 491.437
161.396, 372.839
162.779, 329.626
164.161, 193.039
165.544, 172.342
166.926, 155.645
168.308, 85.951
169.689, 30.281
171.070, 71.603
172.452, 65.922
173.833, 58.237
175.213, 44.583
176.594, 16.937
177.974, 41.311
179.354, 44.733
180.734, 1.829
182.114, 5.619
183.493, 35.092
184.872, 17.573
186.251, 2.064
187.630, 15.437
189.008, 12.076
190.387, 35.617
191.765, 18.831
193.143, 36.728
194.520, 8.709
195.898, 1.853
197.275, 2.417
198.652, 8.978
200.029, 16.466
201.405, 16.916
202.782, 25.374
204.158, 9.838
205.534, 19.688
206.909, 5.217
208.285, 21.721
209.660, 13.294
211.035, 14.906
212.410, 8.471
213.784, 13.939
215.159, 7.614
216.533, 13.006
217.907, 46.432
219.281, 37.868
220.654, 15.358
222.027, 66.903
223.400, 19.649
224.773, 79.694
226.146, 63.083
227.518, 32.544
228.891, 15.972
230.263, 23.457
231.634, 39.479
233.006, 37.893
234.377, 69.408
235.748, 64.153
237.119, 80.050
238.490, 68.490
239.860, 76.785
241.231, 85.192
242.601, 68.921
243.970, 66.979
245.340, 71.115
246.709, 94.192
248.079, 91.142
249.448, 102.805
250.816, 105.913
252.185, 113.289
253.553, 132.714
254.921, 150.374
256.289, 146.479
257.657, 167.807
259.024, 183.383
260.391, 230.848
261.758, 260.950
263.125, 295.678
264.492, 323.708
265.858, 305.501
267.224, 474.194
268.590, 485.239
269.956, 552.796
271.321, 708.478
272.687, 822.260
274.052, 978.022
275.416, 1319.858
276.781, 1589.593
278.146, 1818.362
279.510, 2159.182
280.874, 2263.007
282.237, 2285.496
283.601, 2069.273
284.964, 1651.896
286.327, 1379.103
287.690, 1104.789
289.053, 840.369
290.416, 714.611
291.778, 538.098
293.140, 435.660
294.502, 333.205
295.863, 337.777
297.225, 264.473
298.586, 232.974
299.947, 203.402
301.308, 160.733
302.668, 147.269
304.029, 149.563
305.389, 174.928
306.749, 117.162
308.108, 136.364
309.468, 111.639
310.827, 95.041
312.186, 95.173
313.545, 90.315
314.903, 80.158
316.262, 90.259
317.620, 67.670
318.978, 96.712
320.336, 99.769
321.693, 80.793
323.051, 56.837
324.408, 63.836
325.765, 54.841
327.121, 62.855
328.478, 61.839
329.834, 68.917
331.190, 74.994
332.546, 106.070
333.902, 91.183
335.257, 104.828
336.612, 39.243
337.967, 105.182
339.322, 81.196
340.677, 68.064
342.031, 115.032
343.385, 60.086
344.739, 67.571
346.093, 42.299
347.446, 93.162
348.799, 70.984
350.153, 58.704
351.505, 114.183
352.858, 86.984
354.210, 58.849
355.563, 89.172
356.915, 38.998
358.267, 80.868
359.618, 58.381
360.969, 50.909
362.321, 60.556
363.672, 31.969
365.022, 2.297
366.373, 27.123
367.723, 50.018
369.073, 31.765
370.423, 26.339
371.773, 32.038
373.122, 26.840
374.471, 116.478
375.821, 31.048
377.169, 99.660
378.518, 32.687
379.866, 30.290
381.215, 26.072
382.563, 87.933
383.910, 18.529
385.258, 49.267
386.605, 52.389
387.952, 14.777
389.299, 66.984
390.646, 63.596
391.992, 45.174
393.339, 78.044
394.685, 56.715
396.031, 64.448
397.376, 23.193
398.722, 39.801
400.067, 42.401
401.412, 30.162
402.757, 45.825
404.101, 63.403
405.446, 32.964
406.790, 16.519
408.134, 8.934
409.478, 7.602
410.821, 15.128
412.165, 14.303
413.508, 59.336
414.851, 36.832
416.193, 14.425
417.536, 31.931
418.878, 13.494
420.220, 2.947
421.562, 23.612
422.904, 16.704
424.245, 30.302
425.586, 1.686
426.927, 23.058
428.268, 48.419
429.609, 1.771
430.949, 6.891
432.289, 50.432
433.629, 24.745
434.969, 28.048
436.309, 13.340
437.648, 29.620
438.987, 18.792
440.326, 11.164
441.665, 9.422
443.003, 7.333
444.342, 12.170
445.680, 38.172
447.018, 3.630
448.355, 16.551
449.693, 35.722
451.030, 5.118
452.367, 50.027
453.704, 28.162
455.041, 28.364
456.377, 18.483
457.713, 4.592
459.049, 28.692
460.385, 42.783
461.721, 62.863
463.056, 12.935
464.391, 62.998
465.726, 42.052
467.061, 73.096
468.395, 76.132
469.730, 42.166
471.064, 12.191
472.398, 65.215
473.731, 50.230
475.065, 42.244
476.398, 47.249
477.731, 56.245
479.064, 62.224
480.397, 54.204
481.729, 60.434
483.062, 54.139
484.394, 59.038
485.725, 56.128
487.057, 51.957
488.389, 57.729
489.720, 33.614
491.051, 32.519
492.382, 31.423
493.712, 16.318
495.043, 42.203
496.373, 34.962
497.703, 57.816
499.032, 38.682
500.362, 53.539
501.691, 46.373
503.020, 24.214
504.349, 34.030
505.678, 53.837
507.007, 64.662
508.335, 54.591
509.663, 26.518
510.991, 81.785
512.319, 45.686
513.646, 55.690
514.973, 44.561
516.300, 73.957
517.627, 87.155
518.954, 91.000
520.280, 85.776
521.607, 74.601
522.933, 51.270
524.259, 71.968
525.584, 58.290
526.910, 34.552
528.235, 56.413
529.560, 64.239
530.885, 65.972
532.209, 27.734
533.534, 125.617
534.858, 83.387
536.182, 73.032
537.506, 19.824
538.829, 66.697
540.152, 54.210
541.476, 28.735
542.799, 66.410
544.121, 58.834
545.444, 44.389
546.766, 31.959
548.088, 45.130
549.410, 67.730
550.732, 56.500
552.053, 6.822
553.375, 53.394
554.696, 34.925
556.017, 36.478
557.337, 110.849
558.658, 77.280
559.978, 26.714
561.298, 48.086
562.618, 66.514
563.938, 80.007
565.257, 84.364
566.576, 89.413
567.895, 99.030
569.214, 80.190
570.533, 53.419
571.851, 32.458
573.170, 71.872
574.488, 38.184
575.805, 55.456
577.123, 39.753
578.440, 77.969
579.758, 106.986
581.075, 37.438
582.391, 77.366
583.708, 92.590
585.024, 78.704
586.341, 112.065
587.657, 84.416
588.972, 98.335
590.288, 60.203
591.603, 122.593
592.918, 60.789
594.233, 106.076
595.548, 78.226
596.863, 64.167
598.177, 106.417
599.491, 111.855
600.805, 81.963
602.119, 48.438
603.432, 53.440
604.746, 81.575
606.059, 74.118
607.372, 82.141
608.685, 88.368
609.997, 105.902
611.309, 80.050
612.621, 40.186
613.933, 106.309
615.245, 108.410
616.557, 125.256
617.868, 161.279
619.179, 176.412
620.490, 182.598
621.801, 223.971
623.111, 230.110
624.421, 286.302
625.731, 221.474
627.041, 257.175
628.351, 173.222
629.660, 167.429
630.970, 193.562
632.279, 114.251
633.588, 153.248
634.896, 97.303
636.205, 115.357
637.513, 159.452
638.821, 145.592
640.129, 171.748
641.437, 156.862
642.744, 172.881
644.051, 181.947
645.358, 208.936
646.665, 214.969
647.972, 172.902
649.278, 184.777
650.584, 188.691
651.890, 229.485
653.196, 226.489
654.502, 151.033
655.807, 95.759
657.113, 150.701
658.418, 173.723
659.722, 61.640
661.027, 51.449
662.331, 69.265
663.636, 28.186
664.940, 30.632
666.244, 28.188
667.547, 0.272
668.851, 33.209
670.154, 8.026
671.457, 23.876
672.760, 17.322
674.062, 0.462
675.365, 38.388
676.667, 42.232
677.969, 21.070
679.271, 7.065
680.572, 41.308
681.874, 33.476
683.175, 2.786
684.476, 10.839
685.777, 5.548
687.077, 13.282
688.378, 10.015
689.678, 2.582
690.978, 36.308
692.278, 30.027
693.577, 26.740
694.877, 13.757
696.176, 93.920
697.475, 45.540
698.774, 46.047
700.072, 114.706
701.371, 115.328
702.669, 122.884
703.967, 209.382
705.265, 417.941
706.562, 571.587
707.860, 872.181
709.157, 1706.503
710.454, 2842.073
711.751, 3996.560
713.047, 3570.049
714.344, 2420.661
715.640, 1358.268
716.936, 915.700
718.232, 587.218
719.527, 299.807
720.823, 243.393
722.118, 131.973
723.413, 131.549
724.708, 121.124
726.002, 110.695
727.297, 98.384
728.591, 62.644
729.885, 79.206
731.179, 28.654
732.472, 43.169
733.766, 35.615
735.059, 45.157
736.352, 34.697
737.645, 22.135
738.937, 51.678
740.230, 5.217
741.522, 3.750
742.814, 29.278
744.106, 49.801
745.397, 2.680
746.689, 15.835
747.980, 34.344
749.271, 13.848
750.562, 24.348
751.853, 24.157
753.143, 7.318
754.433, 2.211
755.723, 18.252
757.013, 5.711
758.303, 59.122
759.592, 44.558
760.881, 40.013
762.170, 54.466
763.459, 13.916
764.748, 15.360
766.036, 70.803
767.325, 13.757
768.613, 23.595
769.901, 17.017
771.188, 12.565
772.476, 80.842
773.763, 28.245
775.050, 33.643
776.337, 3.962
777.624, 41.425
778.910, 5.809
780.196, 32.190
781.482, 22.435
782.768, 34.922
784.054, 34.724
785.339, 33.607
786.625, 24.066
787.910, 90.244
789.195, 28.550
790.479, 35.853
791.764, 30.152
793.048, 9.447
794.332, 9.738
795.616, 11.792
796.900, 48.307
798.183, 21.586
799.467, 33.861
800.750, 27.134
802.033, 25.402
803.316, 37.667
804.598, 23.740
805.880, 51.190
807.163, 9.448
808.445, 10.299
809.726, 12.054
811.008, 15.181
812.289, 9.416
813.570, 25.430
814.851, 26.948
816.132, 40.089
817.413, 26.309
818.693, 11.380
819.973, 10.653
821.253, 4.424
822.533, 23.499
823.813, 51.604
825.092, 59.584
826.371, 38.717
827.650, 62.288
828.929, 82.011
830.208, 56.554
831.486, 72.674
832.764, 22.087
834.042, 100.303
835.320, 89.370
836.598, 87.447
837.875, 49.935
839.152, 112.916
840.429, 70.846
841.706, 107.836
842.983, 116.812
844.259, 95.634
845.536, 139.719
846.812, 121.778
848.088, 138.823
849.363, 99.647
850.639, 171.814
851.914, 143.942
853.189, 107.073
854.464, 202.239
855.739, 208.406
857.013, 189.572
858.288, 204.752
859.562, 216.935
860.836, 261.116
862.110, 252.913
863.383, 255.479
864.656, 228.660
865.930, 210.840
867.203, 145.020
868.475, 142.198
869.748, 102.375
871.020, 143.552
872.292, 101.728
873.564, 57.904
874.836, 73.079
876.108, 122.253
877.379, 142.428
878.650, 139.601
879.922, 150.105
881.192, 139.784
882.463, 143.142
883.733, 92.321
885.004, 108.415
886.274, 45.569
887.544, 128.691
888.813, 80.854
890.083, 134.973
891.352, 130.041
892.621, 106.217
893.890, 79.215
895.159, 114.206
896.427, 93.324
897.695, 125.517
898.964, 110.257
900.232, 135.339
901.499, 141.501
902.767, 95.578
904.034, 109.700
905.301, 128.115
906.568, 96.167
907.835, 132.962
909.102, 92.063
910.368, 132.112
911.634, 113.323
912.900, 68.535
914.166, 113.729
915.432, 78.940
916.697, 43.027
917.962, 75.122
919.227, 34.335
920.492, 106.462
921.757, 54.596
923.021, 51.703
924.285, 69.922
925.550, 41.137
926.813, 95.304
928.077, 24.495
929.341, 40.264
930.604, 80.489
931.867, 9.569
933.130, 58.761
934.393, 68.417
935.655, 40.624
936.918, 85.522
938.180, 55.728
939.442, 27.308
940.703, 102.540
941.965, 51.728
943.226, 50.948
944.488, 53.145
945.749, 66.256
947.009, 61.369
948.270, 23.492
949.530, 75.724
950.791, 19.891
952.051, 85.110
953.311, 84.302
954.570, 35.489
955.830, 75.721
957.089, 76.902
958.348, 96.134
959.607, 64.258
960.866, 24.804
962.124, 10.258
963.383, 4.248
964.641, 0.633
965.899, 10.740
967.156, 24.951
968.414, 21.190
969.671, 55.401
970.928, 14.550
972.185, 3.697
973.442, 10.402
974.699, 2.803
975.955, 17.045
977.211, 30.713
978.468, 17.520
979.723, 4.240
980.979, 15.999
982.234, 72.239
983.490, 14.524
984.745, 40.698
986.000, 39.937
987.254, 34.188
988.509, 7.470
989.763, 51.725
991.017, 34.105
992.271, 32.525
993.525, 9.910
994.779, 53.326
996.032, 105.750
997.285, 111.116
998.538, 129.576
999.791, 240.022
1001.044, 264.977
1002.296, 262.631
1003.548, 293.898
1004.800, 201.267
1006.052, 180.269
1007.304, 170.531
1008.555, 155.258
1009.807, 140.215
1011.058, 90.607
1012.309, 114.033
1013.559, 83.561
1014.810, 79.864
1016.060, 193.267
1017.310, 171.563
1018.560, 187.826
1019.810, 170.094
1021.060, 288.345
1022.309, 172.783
1023.558, 292.272
1024.807, 213.725
1026.056, 246.037
1027.305, 185.584
1028.553, 228.931
1029.801, 176.079
1031.049, 173.520
1032.297, 114.924
1033.545, 161.270
1034.793, 164.517
1036.040, 105.748
1037.287, 165.986
1038.534, 97.395
1039.781, 185.713
1041.027, 132.191
1042.274, 147.749
1043.520, 160.024
1044.766, 160.330
1046.012, 115.148
1047.257, 147.859
1048.503, 226.390
1049.748, 109.894
1050.993, 184.533
1052.238, 216.942
1053.483, 154.586
1054.727, 184.004
1055.971, 231.447
1057.216, 195.020
1058.459, 221.447
1059.703, 183.775
1060.947, 261.064
1062.190, 268.385
1063.433, 324.701
1064.676, 445.160
1065.919, 611.620
1067.162, 572.660
1068.404, 620.889
1069.646, 543.371
1070.888, 563.812
1072.130, 580.125
1073.372, 678.872
1074.613, 770.302
1075.855, 880.455
1077.096, 1143.061
1078.337, 1540.334
1079.578, 2122.750
1080.818, 3363.857
1082.059, 6411.160
1083.299, 13544.789
1084.539, 29807.281
1085.779, 53785.914
1087.018, 59562.316
1088.258, 38304.684
1089.497, 18746.984
1090.736, 9514.269
1091.975, 5118.504
1093.213, 2944.738
1094.452, 1731.970
1095.690, 1184.195
1096.928, 843.415
1098.166, 696.757
1099.404, 568.020
1100.642, 484.232
1101.879, 446.574
1103.116, 349.776
1104.353, 289.974
1105.590, 317.167
1106.827, 284.354
1108.063, 240.538
1109.299, 274.715
1110.536, 258.963
1111.771, 185.137
1113.007, 211.456
1114.243, 161.323
1115.478, 174.482
1116.713, 171.636
1117.948, 174.785
1119.183, 199.435
1120.418, 205.117
1121.652, 236.296
1122.886, 215.178
1124.120, 201.291
1125.354, 157.408
1126.588, 102.438
1127.821, 83.543
1129.055, 86.551
1130.288, 72.208
1131.521, 111.296
1132.753, 53.996
1133.986, 107.073
1135.218, 70.143
1136.450, 53.241
1137.682, 113.299
1138.914, 31.371
1140.146, 22.415
1141.377, 31.568
1142.609, 24.749
1143.840, 23.865
1145.071, 37.878
1146.301, 15.884
1147.532, 19.880
1148.762, 6.132
1149.992, 1.157
1151.222, 64.806
1152.452, 40.762
1153.682, 6.290
1154.911, 76.644
1156.140, 49.430
1157.369, 4.442
1158.598, 25.589
1159.827, 28.555
1161.055, 7.413
1162.284, 58.295
1163.512, 34.134
1164.740, 59.964
1165.967, 68.078
1167.195, 66.601
1168.422, 74.407
1169.650, 26.205
1170.877, 13.994
1172.103, 22.772
1173.330, 56.541
1174.557, 7.301
1175.783, 48.050
1177.009, 22.209
1178.235, 25.506
1179.461, 34.211
1180.686, 47.907
1181.912, 71.593
1183.137, 77.271
1184.362, 73.918
1185.587, 32.811
1186.811, 54.462
1188.036, 17.142
1189.260, 8.056
1190.484, 68.961
1191.708, 61.918
1192.932, 62.474
1194.155, 8.283
1195.378, 54.695
1196.602, 27.023
1197.825, 14.758
1199.047, 59.756
1200.270, 18.458
1201.492, 56.982
1202.715, 52.405
1203.937, 27.614
1205.159, 61.432
1206.380, 85.056
1207.602, 94.126
1208.823, 86.108
1210.044, 86.583
1211.265, 52.039
1212.486, 51.412
1213.707, 14.892
1214.927, 40.361
1216.147, 44.991
1217.367, 55.481
1218.587, 86.066
1219.807, 16.410
1221.027, 58.028
1222.246, 11.716
1223.465, 26.751
1224.684, 94.066
1225.903, 59.546
1227.121, 5.790
1228.340, 84.983
1229.558, 24.150
1230.776, 40.486
1231.994, 23.968
1233.212, 65.095
1234.429, 69.549
1235.646, 87.653
1236.864, 90.889
1238.081, 105.977
1239.297, 104.053
1240.514, 100.122
1241.730, 183.181
1242.947, 120.231
1244.163, 71.273
1245.378, 91.618
1246.594, 148.642
1247.810, 70.657
1249.025, 173.655
1250.240, 110.667
1251.455, 146.648
1252.670, 103.633
1253.885, 122.595
1255.099, 119.548
1256.313, 86.492
1257.527, 155.427
1258.741, 67.354
1259.955, 6.663
1261.168, 118.254
1262.382, 156.144
1263.595, 128.112
1264.808, 157.982
1266.021, 134.843
1267.233, 79.695
1268.446, 151.537
1269.658, 153.371
1270.870, 149.194
1272.082, 226.008
1273.294, 189.817
1274.505, 230.617
1275.716, 173.409
1276.928, 168.193
1278.139, 218.969
1279.349, 167.715
1280.560, 183.474
1281.770, 97.224
1282.981, 130.935
1284.191, 100.666
1285.401, 142.261
1286.610, 77.792
1287.820, 69.347
1289.029, 82.819
1290.239, 107.257
1291.448, 110.718
1292.656, 123.016
1293.865, 129.414
1295.073, 133.236
1296.282, 121.346
1297.490, 119.832
1298.698, 143.204
1299.906, 157.928
1301.113, 127.378
1302.320, 77.349
1303.528, 63.122
1304.735, 76.355
1305.942, 126.589
1307.148, 91.706
1308.355, 143.033
1309.561, 121.248
1310.767, 153.558
1311.973, 194.890
1313.179, 201.205
1314.384, 178.512
1315.590, 125.621
1316.795, 231.666
1318.000, 134.735
1319.205, 197.933
1320.410, 213.882
1321.614, 125.019
1322.819, 209.341
1324.023, 142.356
1325.227, 158.396
1326.431, 112.479
1327.634, 124.285
1328.838, 45.819
1330.041, 143.971
1331.244, 106.937
1332.447, 85.979
1333.650, 35.847
1334.852, 17.380
1336.055, 28.664
1337.257, 92.663
1338.459, 81.860
1339.661, 15.713
1340.862, 34.453
1342.064, 20.789
1343.265, 41.178
1344.466, 31.651
1345.667, 66.234
1346.868, 73.032
1348.068, 3.800
1349.269, 23.571
1350.469, 33.193
1351.669, 48.047
1352.869, 50.930
1354.069, 57.770
1355.268, 59.324
1356.468, 76.284
1357.667, 47.640
1358.866, 46.309
1360.065, 20.919
1361.263, 35.960
1362.462, 22.667
1363.660, 65.755
1364.858, 18.095
1366.056, 105.748
1367.254, 27.673
1368.451, 54.139
1369.649, 22.935
1370.846, 65.584
1372.043, 72.508
1373.240, 88.202
1374.436, 32.558
1375.633, 16.181
1376.829, 87.500
1378.025, 16.062
1379.221, 120.584
1380.417, 40.130
1381.613, 73.366
1382.808, 90.624
1384.003, 130.872
1385.199, 78.922
1386.393, 113.988
1387.588, 96.178
1388.783, 7.646
1389.977, 102.515
1391.171, 162.584
1392.365, 89.654
1393.559, 65.750
1394.753, 104.832
1395.946, 67.781
1397.140, 79.830
1398.333, 92.863
1399.526, 107.881
1400.719, 96.884
1401.911, 139.871
1403.104, 53.802
1404.296, 65.733
1405.488, 110.533
1406.680, 48.158
1407.872, 124.070
1409.063, 126.971
1410.255, 85.871
1411.446, 74.760
1412.637, 129.646
1413.828, 142.229
1415.018, 244.004
1416.209, 178.856
1417.399, 98.746
1418.589, 194.624
1419.779, 176.493
1420.969, 174.356
1422.159, 91.213
1423.348, 148.075
1424.537, 266.943
1425.726, 189.805
1426.915, 225.347
1428.104, 299.133
1429.293, 257.063
1430.481, 267.303
1431.669, 315.692
1432.857, 500.525
1434.045, 645.177
1435.233, 1043.594
1436.420, 1299.046
1437.608, 1422.963
1438.795, 1282.076
1439.982, 941.371
1441.169, 837.362
1442.355, 685.946
1443.542, 596.755
1444.728, 571.551
1445.914, 536.375
1447.100, 601.196
1448.286, 556.586
1449.472, 572.984
1450.657, 617.712
1451.842, 578.803
1453.027, 661.144
1454.212, 635.459
1455.397, 659.139
1456.581, 668.177
1457.766, 682.365
1458.950, 655.483
1460.134, 649.588
1461.318, 578.689
1462.501, 505.751
1463.685, 555.570
1464.868, 438.338
1466.051, 475.283
1467.234, 401.185
1468.417, 319.045
1469.600, 326.862
1470.782, 372.629
1471.965, 269.340
1473.147, 319.994
1474.329, 296.584
1475.510, 276.116
1476.692, 262.689
1477.873, 224.537
1479.055, 277.561
1480.236, 316.712
1481.416, 171.861
1482.597, 262.018
1483.778, 213.197
1484.958, 211.394
1486.138, 201.601
1487.318, 170.577
1488.498, 134.062
1489.678, 133.333
1490.857, 143.336
1492.037, 142.000
1493.216, 187.359
1494.395, 41.758
1495.574, 89.194
1496.752, 46.680
1497.931, 110.233
1499.109, 48.876
1500.287, 61.617
1501.465, 14.431
1502.643, 6.690
1503.820, 3.563
1504.998, 4.008
1506.175, 28.435
1507.352, 30.675
1508.529, 65.133
1509.706, 96.541
1510.882, 101.199
1512.059, 131.021
1513.235, 25.599
1514.411, 50.033
1515.587, 64.898
1516.762, 0.132
1517.938, 24.083
1519.113, 47.707
1520.288, 42.712
1521.463, 0.000
##END=



