##NAMES=Calcite
##RRUFFID=R050127
##IDEAL CHEMISTRY=CaCO_3_
##LOCALITY=Rodeo, Durango, Mexico
##OWNER=RRUFF
##SOURCE=Dave Bunk Minerals
##DESCRIPTION=Group of colorless crystals
##STATUS=The identification of this mineral has been confirmed by X-ray diffraction and chemical analysis
##URL=rruff.info/R050127
##MEASURED CHEMISTRY=Ca_1.00_CO_3_
##PIN_ID=M00125
##ORIENTATION=Laser parallel to -c* (0 0 -1). Fiducial mark perpendicular to laser is parallel to -a [-1 0 0]
80.125, 0.000
81.521, 141.639
82.916, 0.993
84.311, 109.225
85.706, 67.482
87.101, 96.859
88.496, 57.721
89.890, 119.058
91.284, 151.394
92.678, 111.654
94.071, 127.025
95.465, 287.776
96.858, 278.885
98.251, 197.949
99.644, 192.076
101.036, 154.956
102.428, 151.010
103.820, 88.619
105.212, 72.020
106.604, 44.789
107.995, 64.599
109.387, 221.192
110.777, 197.332
112.168, 143.248
113.559, 156.925
114.949, 102.519
116.339, 92.342
117.729, 92.168
119.119, 213.623
120.508, 245.752
121.897, 118.476
123.286, 33.475
124.675, 52.966
126.063, 67.558
127.452, 11.700
128.840, 63.809
130.228, 45.144
131.615, 51.297
133.003, 80.971
134.390, 111.350
135.777, 110.191
137.164, 15.410
138.550, 89.528
139.937, 127.328
141.323, 120.168
142.709, 131.433
144.094, 89.454
145.480, 101.629
146.865, 94.123
148.250, 192.143
149.635, 134.914
151.019, 195.758
152.403, 255.940
153.788, 304.098
155.171, 504.951
156.555, 629.993
157.939, 747.991
159.322, 793.661
160.705, 592.871
162.088, 468.550
163.470, 318.716
164.853, 244.684
166.235, 154.531
167.617, 180.034
168.998, 137.595
170.380, 114.898
171.761, 84.662
173.142, 62.597
174.523, 41.979
175.904, 73.035
177.284, 109.898
178.664, 53.771
180.044, 43.646
181.424, 15.491
182.803, 11.357
184.183, 6.808
185.562, 18.995
186.940, 13.761
188.319, 8.488
189.698, 19.827
191.076, 21.919
192.454, 16.422
193.831, 20.967
195.209, 41.345
196.586, 4.182
197.963, 7.651
199.340, 21.166
200.717, 61.105
202.093, 13.511
203.470, 38.736
204.846, 29.775
206.221, 37.781
207.597, 10.385
208.972, 22.511
210.347, 54.017
211.722, 5.285
213.097, 21.345
214.472, 17.044
215.846, 11.299
217.220, 15.422
218.594, 0.434
219.967, 27.396
221.341, 0.211
222.714, 6.143
224.087, 36.099
225.460, 13.372
226.832, 13.849
228.204, 1.212
229.577, 16.165
230.948, 14.568
232.320, 1.492
233.692, 41.520
235.063, 6.481
236.434, 20.494
237.805, 33.375
239.175, 11.381
240.545, 8.817
241.916, 16.934
243.286, 19.774
244.655, 4.426
246.025, 61.373
247.394, 11.769
248.763, 16.040
250.132, 33.797
251.501, 64.371
252.869, 62.841
254.237, 57.058
255.605, 47.342
256.973, 68.312
258.340, 131.243
259.708, 141.002
261.075, 77.708
262.442, 134.290
263.808, 129.580
265.175, 191.946
266.541, 209.226
267.907, 188.218
269.273, 226.694
270.639, 216.081
272.004, 279.042
273.369, 278.231
274.734, 360.597
276.099, 422.675
277.463, 530.627
278.828, 681.422
280.192, 778.836
281.556, 1110.352
282.919, 1176.511
284.283, 1361.002
285.646, 1358.473
287.009, 1126.586
288.372, 1026.089
289.734, 738.661
291.097, 610.149
292.459, 454.233
293.821, 389.651
295.183, 329.914
296.544, 253.906
297.905, 235.978
299.266, 209.977
300.627, 235.839
301.988, 139.807
303.348, 134.538
304.709, 181.181
306.069, 122.857
307.428, 157.379
308.788, 133.636
310.147, 104.982
311.507, 93.115
312.865, 118.738
314.224, 125.137
315.583, 95.531
316.941, 125.218
318.299, 168.887
319.657, 137.432
321.015, 110.901
322.372, 99.372
323.729, 122.636
325.086, 104.031
326.443, 107.293
327.800, 137.448
329.156, 126.435
330.512, 107.993
331.868, 115.728
333.224, 133.163
334.579, 101.424
335.935, 117.451
337.290, 109.275
338.645, 162.923
339.999, 97.825
341.354, 118.931
342.708, 118.707
344.062, 91.349
345.416, 84.091
346.769, 101.221
348.123, 81.446
349.476, 129.867
350.829, 122.160
352.182, 111.694
353.534, 69.045
354.887, 133.328
356.239, 119.024
357.591, 120.170
358.942, 129.666
360.294, 93.447
361.645, 76.310
362.996, 101.381
364.347, 143.055
365.698, 52.121
367.048, 110.325
368.398, 126.432
369.748, 55.594
371.098, 95.431
372.448, 99.399
373.797, 60.671
375.146, 89.791
376.495, 104.733
377.844, 68.173
379.192, 126.063
380.540, 96.914
381.889, 120.307
383.236, 93.210
384.584, 119.746
385.932, 116.356
387.279, 84.676
388.626, 114.505
389.973, 50.039
391.319, 70.458
392.666, 46.156
394.012, 90.867
395.358, 89.169
396.704, 60.197
398.049, 92.821
399.394, 52.677
400.740, 60.063
402.084, 49.708
403.429, 81.752
404.774, 42.091
406.118, 44.955
407.462, 35.154
408.806, 57.065
410.150, 11.541
411.493, 83.030
412.836, 50.657
414.179, 66.476
415.522, 51.210
416.865, 59.884
418.207, 104.462
419.549, 56.115
420.891, 67.084
422.233, 50.975
423.575, 47.693
424.916, 81.490
426.257, 32.237
427.598, 24.375
428.939, 57.397
430.279, 81.693
431.619, 50.727
432.959, 23.311
434.299, 23.700
435.639, 46.816
436.978, 88.938
438.318, 59.867
439.657, 81.824
440.996, 91.736
442.334, 33.590
443.673, 96.419
445.011, 94.282
446.349, 81.112
447.687, 70.946
449.024, 80.694
450.361, 79.465
451.699, 101.174
453.036, 52.462
454.372, 64.223
455.709, 38.960
457.045, 73.995
458.381, 72.918
459.717, 108.983
461.053, 103.785
462.388, 92.423
463.724, 54.837
465.059, 96.991
466.394, 60.472
467.728, 102.551
469.063, 90.761
470.397, 65.868
471.731, 102.835
473.065, 46.788
474.398, 25.866
475.732, 71.880
477.065, 37.956
478.398, 43.951
479.731, 60.129
481.063, 62.173
482.396, 50.252
483.728, 105.251
485.060, 39.182
486.391, 57.133
487.723, 72.003
489.054, 57.961
490.385, 61.981
491.716, 36.797
493.047, 57.636
494.377, 69.629
495.708, 95.516
497.038, 75.341
498.368, 69.128
499.697, 67.140
501.027, 68.984
502.356, 48.848
503.685, 58.256
505.014, 55.035
506.342, 62.749
507.671, 65.523
508.999, 19.196
510.327, 25.067
511.655, 12.095
512.982, 100.693
514.310, 49.276
515.637, 36.166
516.964, 83.376
518.291, 35.220
519.617, 66.249
520.944, 88.978
522.270, 95.636
523.596, 9.404
524.921, 33.334
526.247, 78.902
527.572, 83.691
528.897, 73.476
530.222, 62.032
531.547, 80.809
532.871, 56.555
534.196, 66.135
535.520, 53.966
536.844, 44.751
538.167, 27.377
539.491, 46.245
540.814, 67.004
542.137, 80.868
543.460, 33.671
544.783, 94.532
546.105, 16.463
547.427, 26.198
548.749, 62.056
550.071, 34.654
551.393, 60.338
552.714, 1.920
554.035, 72.697
555.356, 24.469
556.677, 36.115
557.998, 17.899
559.318, 34.511
560.638, 39.172
561.958, 6.790
563.278, 84.545
564.597, 1.143
565.917, 35.751
567.236, 84.320
568.555, 67.978
569.874, 54.445
571.192, 45.212
572.511, 40.842
573.829, 57.535
575.147, 64.322
576.464, 58.010
577.782, 74.864
579.099, 28.519
580.416, 60.403
581.733, 19.034
583.050, 68.667
584.366, 53.467
585.683, 9.013
586.999, 46.585
588.315, 7.773
589.630, 73.089
590.946, 52.693
592.261, 48.471
593.576, 14.153
594.891, 5.730
596.206, 63.482
597.520, 32.107
598.834, 36.820
600.148, 72.577
601.462, 77.087
602.776, 30.858
604.089, 32.616
605.402, 31.041
606.715, 85.695
608.028, 35.478
609.341, 60.162
610.653, 12.073
611.965, 23.798
613.277, 24.402
614.589, 7.102
615.901, 4.467
617.212, 8.765
618.523, 3.996
619.834, 25.710
621.145, 1.583
622.456, 68.948
623.766, 8.638
625.076, 43.189
626.386, 55.878
627.696, 40.553
629.006, 90.186
630.315, 30.854
631.624, 23.434
632.933, 49.925
634.242, 23.479
635.551, 66.478
636.859, 38.942
638.167, 38.976
639.475, 2.148
640.783, 6.641
642.090, 48.361
643.398, 16.817
644.705, 36.393
646.012, 55.064
647.318, 14.696
648.625, 64.244
649.931, 64.687
651.237, 21.217
652.543, 12.796
653.849, 48.407
655.155, 71.174
656.460, 42.653
657.765, 16.222
659.070, 30.829
660.375, 27.680
661.679, 22.376
662.984, 32.873
664.288, 35.402
665.592, 63.540
666.895, 68.918
668.199, 49.288
669.502, 67.283
670.805, 33.162
672.108, 56.390
673.411, 3.220
674.713, 74.347
676.016, 5.807
677.318, 54.323
678.620, 92.846
679.921, 39.366
681.223, 77.661
682.524, 36.036
683.825, 40.547
685.126, 13.875
686.427, 53.620
687.727, 29.101
689.028, 47.649
690.328, 47.105
691.628, 10.587
692.927, 36.030
694.227, 48.432
695.526, 70.934
696.825, 65.807
698.124, 47.222
699.423, 30.684
700.721, 105.033
702.020, 23.686
703.318, 104.044
704.616, 87.357
705.913, 113.798
707.211, 102.141
708.508, 122.575
709.805, 343.778
711.102, 530.206
712.399, 1205.499
713.695, 2488.838
714.992, 2799.099
716.288, 2459.459
717.584, 1029.806
718.879, 541.015
720.175, 325.418
721.470, 116.600
722.765, 156.925
724.060, 158.318
725.355, 70.792
726.649, 81.233
727.944, 66.590
729.238, 75.087
730.532, 6.463
731.825, 38.295
733.119, 57.662
734.412, 62.205
735.705, 7.544
736.998, 57.898
738.291, 40.196
739.584, 33.542
740.876, 48.884
742.168, 29.074
743.460, 61.404
744.752, 14.339
746.043, 87.665
747.334, 37.987
748.626, 7.310
749.916, 55.494
751.207, 42.642
752.498, 138.453
753.788, 50.705
755.078, 71.172
756.368, 69.470
757.658, 64.765
758.947, 58.000
760.237, 36.760
761.526, 75.436
762.815, 22.712
764.104, 60.920
765.392, 74.166
766.680, 4.878
767.969, 91.024
769.257, 87.170
770.544, 71.996
771.832, 24.966
773.119, 29.717
774.406, 74.694
775.693, 38.830
776.980, 101.814
778.267, 67.017
779.553, 68.073
780.839, 40.269
782.125, 67.460
783.411, 27.640
784.697, 67.824
785.982, 20.957
787.267, 21.056
788.552, 57.228
789.837, 17.802
791.122, 66.351
792.406, 17.514
793.690, 2.401
794.974, 57.907
796.258, 19.872
797.542, 86.588
798.825, 32.589
800.108, 24.669
801.391, 19.773
802.674, 59.785
803.957, 72.881
805.239, 65.974
806.522, 42.974
807.804, 58.777
809.085, 11.858
810.367, 5.066
811.649, 54.998
812.930, 35.949
814.211, 49.957
815.492, 0.411
816.772, 84.372
818.053, 73.373
819.333, 0.618
820.613, 33.410
821.893, 44.449
823.173, 49.472
824.452, 41.493
825.732, 13.551
827.011, 64.598
828.290, 32.272
829.568, 23.279
830.847, 60.285
832.125, 47.289
833.403, 47.285
834.681, 35.318
835.959, 45.308
837.236, 128.274
838.514, 22.257
839.791, 44.306
841.068, 71.282
842.345, 24.208
843.621, 42.176
844.898, 69.142
846.174, 48.980
847.450, 74.923
848.726, 8.213
850.001, 48.835
851.277, 7.917
852.552, 50.991
853.827, 107.841
855.102, 6.742
856.376, 16.556
857.651, 36.449
858.925, 52.339
860.199, 41.227
861.473, 54.111
862.746, 41.993
864.020, 40.873
865.293, 52.750
866.566, 58.624
867.839, 53.496
869.112, 28.366
870.384, 36.232
871.656, 43.097
872.928, 60.959
874.200, 55.820
875.472, 60.678
876.744, 67.535
878.015, 14.388
879.286, 21.239
880.557, 40.097
881.828, 5.952
883.098, 111.803
884.369, 18.507
885.639, 78.307
886.909, 13.861
888.178, 12.042
889.448, 43.583
890.717, 15.400
891.987, 84.196
893.256, 42.961
894.524, 28.771
895.793, 117.515
897.061, 65.321
898.330, 44.004
899.598, 116.808
900.865, 92.587
902.133, 56.190
903.401, 60.991
904.668, 3.215
905.935, 110.578
907.202, 15.631
908.468, 41.147
909.735, 39.924
911.001, 38.699
912.267, 132.471
913.533, 83.517
914.799, 22.288
916.064, 51.964
917.330, 27.731
918.595, 10.496
919.860, 33.950
921.124, 55.713
922.389, 83.477
923.653, 13.240
924.918, 98.927
926.182, 12.637
927.445, 71.401
928.709, 70.147
929.972, 85.910
931.236, 73.678
932.499, 62.445
933.761, 33.202
935.024, 113.967
936.286, 38.670
937.549, 49.433
938.811, 54.106
940.073, 29.779
941.334, 149.539
942.596, 38.784
943.857, 53.547
945.118, 95.806
946.379, 24.066
947.640, 58.682
948.900, 44.660
950.161, 70.065
951.421, 70.746
952.681, 70.393
953.940, 13.019
955.200, 76.744
956.459, 72.468
957.719, 157.192
958.978, 16.084
960.236, 86.632
961.495, 72.188
962.753, 81.004
964.012, 93.720
965.270, 52.405
966.527, 90.121
967.785, 67.299
969.043, 23.021
970.300, 51.744
971.557, 81.869
972.814, 13.559
974.071, 149.280
975.327, 91.003
976.583, 66.725
977.840, 8.349
979.095, 38.922
980.351, 92.757
981.607, 3.599
982.862, 15.115
984.117, 45.891
985.372, 4.605
986.627, 72.300
987.882, 41.015
989.136, 55.729
990.390, 33.372
991.644, 21.092
992.898, 32.812
994.152, 60.474
995.405, 62.197
996.659, 56.921
997.912, 44.657
999.165, 9.618
1000.417, 35.933
1001.670, 86.189
1002.922, 118.963
1004.174, 110.687
1005.426, 121.412
1006.678, 85.939
1007.930, 31.579
1009.181, 107.315
1010.432, 116.066
1011.683, 85.806
1012.934, 89.621
1014.185, 57.373
1015.435, 55.126
1016.685, 191.896
1017.935, 48.654
1019.185, 139.414
1020.435, 92.149
1021.684, 144.912
1022.934, 148.785
1024.183, 98.602
1025.432, 174.370
1026.680, 156.258
1027.929, 81.056
1029.177, 115.836
1030.425, 79.884
1031.673, 121.653
1032.921, 123.264
1034.169, 109.035
1035.416, 154.357
1036.663, 80.473
1037.911, 47.200
1039.157, 109.918
1040.404, 54.169
1041.650, 139.882
1042.897, 156.696
1044.143, 126.569
1045.389, 140.374
1046.634, 75.385
1047.880, 162.486
1049.125, 168.312
1050.371, 45.377
1051.615, 240.207
1052.860, 211.204
1054.105, 149.037
1055.349, 265.472
1056.593, 138.305
1057.837, 210.020
1059.081, 240.853
1060.325, 124.714
1061.568, 191.546
1062.812, 139.380
1064.055, 137.226
1065.298, 214.050
1066.540, 255.028
1067.783, 433.875
1069.025, 479.653
1070.267, 493.572
1071.509, 398.418
1072.751, 327.336
1073.993, 303.382
1075.234, 398.229
1076.475, 356.123
1077.716, 636.981
1078.957, 631.839
1080.198, 790.219
1081.438, 1111.097
1082.679, 1391.975
1083.919, 2697.013
1085.159, 4913.900
1086.398, 11548.793
1087.638, 36023.684
1088.877, 44978.578
1090.116, 33163.484
1091.355, 11408.396
1092.594, 3690.313
1093.833, 2246.334
1095.071, 1197.255
1096.309, 822.823
1097.547, 703.748
1098.785, 532.071
1100.023, 464.246
1101.260, 397.171
1102.498, 294.094
1103.735, 292.042
1104.972, 222.983
1106.208, 194.044
1107.445, 337.991
1108.681, 138.091
1109.918, 195.238
1111.154, 236.178
1112.389, 83.122
1113.625, 128.260
1114.860, 120.201
1116.096, 79.141
1117.331, 140.083
1118.566, 31.058
1119.800, 169.997
1121.035, 155.945
1122.269, 78.870
1123.503, 174.076
1124.737, 136.012
1125.971, 157.947
1127.205, 183.846
1128.438, 160.745
1129.671, 148.121
1130.904, 148.898
1132.137, 10.822
1133.370, 88.036
1134.602, 119.911
1135.834, 39.833
1137.066, 99.015
1138.298, 77.932
1139.530, 109.228
1140.762, 142.287
1141.993, 33.198
1143.224, 104.604
1144.455, 41.778
1145.686, 27.683
1146.917, 146.767
1148.147, 58.331
1149.377, 37.443
1150.607, 110.670
1151.837, 34.581
1153.067, 146.768
1154.296, 43.671
1155.526, 73.573
1156.755, 95.266
1157.984, 34.162
1159.213, 113.173
1160.441, 24.663
1161.670, 68.725
1162.898, 71.071
1164.126, 38.282
1165.354, 51.685
1166.581, 74.998
1167.809, 42.028
1169.036, 63.284
1170.263, 18.264
1171.490, 32.337
1172.717, 97.148
1173.943, 17.989
1175.170, 39.826
1176.396, 24.685
1177.622, 44.417
1178.848, 78.558
1180.073, 75.601
1181.299, 70.454
1182.524, 99.977
1183.749, 6.063
1184.974, 23.779
1186.199, 113.734
1187.423, 44.493
1188.648, 151.252
1189.872, 83.694
1191.096, 47.497
1192.320, 97.447
1193.543, 19.206
1194.767, 0.040
1195.990, 75.968
1197.213, 9.530
1198.436, 73.220
1199.659, 27.503
1200.881, 67.241
1202.104, 42.938
1203.326, 88.600
1204.548, 49.255
1205.770, 104.100
1206.991, 62.862
1208.213, 138.500
1209.434, 73.545
1210.655, 87.419
1211.876, 77.034
1213.096, 41.051
1214.317, 106.649
1215.537, 121.242
1216.757, 56.832
1217.977, 169.407
1219.197, 58.149
1220.417, 14.880
1221.636, 184.436
1222.855, 56.737
1224.074, 97.460
1225.293, 164.990
1226.512, 18.358
1227.731, 183.179
1228.949, 114.816
1230.167, 51.698
1231.385, 144.389
1232.603, 118.135
1233.820, 190.813
1235.038, 161.303
1236.255, 124.554
1237.472, 197.981
1238.689, 122.398
1239.906, 70.941
1241.122, 203.342
1242.338, 122.618
1243.555, 143.015
1244.771, 143.407
1245.986, 39.000
1247.202, 159.739
1248.417, 201.125
1249.633, 96.174
1250.848, 226.549
1252.063, 76.972
1253.277, 104.906
1254.492, 219.264
1255.706, 57.620
1256.920, 123.411
1258.134, 130.752
1259.348, 62.223
1260.562, 196.551
1261.775, 119.871
1262.988, 177.317
1264.201, 102.623
1265.414, 116.001
1266.627, 110.402
1267.839, 145.684
1269.052, 48.958
1270.264, 142.271
1271.476, 133.515
1272.688, 116.751
1273.899, 200.965
1275.111, 26.177
1276.322, 122.573
1277.533, 172.761
1278.744, 47.879
1279.955, 170.043
1281.165, 186.202
1282.376, 55.484
1283.586, 191.623
1284.796, 37.736
1286.006, 84.839
1287.215, 193.935
1288.425, 26.979
1289.634, 57.015
1290.843, 167.022
1292.052, 78.005
1293.261, 191.985
1294.469, 70.958
1295.678, 48.921
1296.886, 138.874
1298.094, 56.814
1299.302, 124.740
1300.509, 166.658
1301.717, 23.432
1302.924, 127.454
1304.131, 97.298
1305.338, 19.857
1306.545, 83.862
1307.752, 35.616
1308.958, 51.375
1310.164, 31.076
1311.370, 38.738
1312.576, 88.470
1313.782, 45.093
1314.987, 98.708
1316.193, 75.292
1317.398, 9.782
1318.603, 137.307
1319.807, 128.693
1321.012, 122.151
1322.216, 111.529
1323.421, 85.654
1324.625, 68.095
1325.829, 112.519
1327.032, 21.074
1328.236, 86.306
1329.439, 112.337
1330.642, 85.560
1331.845, 131.889
1333.048, 173.832
1334.251, 84.874
1335.453, 110.376
1336.656, 2.670
1337.858, 6.881
1339.060, 97.886
1340.261, 73.783
1341.463, 12.939
1342.664, 145.839
1343.866, 26.956
1345.067, 111.889
1346.267, 119.969
1347.468, 151.929
1348.669, 193.976
1349.869, 80.924
1351.069, 98.938
1352.269, 246.909
1353.469, 43.895
1354.668, 66.865
1355.868, 184.820
1357.067, 44.762
1358.266, 275.558
1359.465, 160.753
1360.664, 125.648
1361.862, 213.460
1363.061, 87.711
1364.259, 88.499
1365.457, 206.092
1366.655, 20.072
1367.852, 83.650
1369.050, 144.455
1370.247, 57.750
1371.444, 117.514
1372.641, 92.830
1373.838, 14.517
1375.035, 74.957
1376.231, 3.602
1377.427, 73.175
1378.623, 115.649
1379.819, 52.915
1381.015, 175.439
1382.211, 162.781
1383.406, 92.021
1384.601, 159.707
1385.796, 15.481
1386.991, 145.984
1388.185, 197.728
1389.380, 80.382
1390.574, 54.925
1391.768, 145.362
1392.962, 49.000
1394.156, 275.414
1395.350, 116.022
1396.543, 35.578
1397.736, 207.150
1398.929, 166.414
1400.122, 46.961
1401.315, 217.984
1402.507, 98.497
1403.700, 145.661
1404.892, 133.834
1406.084, 99.847
1407.276, 249.118
1408.467, 112.622
1409.659, 105.806
1410.850, 305.932
1412.041, 184.911
1413.232, 121.917
1414.423, 263.690
1415.614, 177.829
1416.804, 209.478
1417.994, 261.649
1419.184, 81.551
1420.374, 174.970
1421.564, 225.653
1422.753, 157.461
1423.943, 252.536
1425.132, 97.304
1426.321, 237.979
1427.510, 296.870
1428.698, 169.565
1429.887, 255.626
1431.075, 274.520
1432.263, 113.016
1433.451, 403.370
1434.639, 361.894
1435.827, 360.692
1437.014, 714.474
1438.201, 856.983
1439.388, 932.601
1440.575, 794.289
1441.762, 430.376
1442.949, 450.141
1444.135, 348.890
1445.321, 154.033
1446.507, 296.807
1447.693, 172.113
1448.879, 113.185
1450.064, 291.898
1451.250, 92.448
1452.435, 169.288
1453.620, 209.122
1454.805, 71.024
1455.989, 202.358
1457.174, 285.404
1458.358, 66.245
1459.542, 238.100
1460.726, 146.646
1461.910, 104.958
1463.093, 241.440
1464.277, 184.525
1465.460, 150.839
1466.643, 277.757
1467.826, 191.443
1469.009, 717.510
1470.191, 231.403
1471.373, 96.398
1472.556, 344.838
1473.738, 232.729
1474.919, 45.550
1476.101, 336.886
1477.283, 141.591
1478.464, 36.309
1479.645, 397.091
1480.826, 88.866
1482.007, 203.543
1483.187, 232.122
1484.368, 117.603
1485.548, 183.952
1486.728, 86.321
1487.908, 110.934
1489.088, 280.488
1490.268, 175.042
1491.447, 97.903
1492.626, 231.488
1493.805, 127.635
1494.984, 136.819
1496.163, 227.998
1497.341, 63.199
1498.520, 173.414
1499.698, 121.668
1500.876, 4.411
1502.054, 266.006
1503.232, 126.346
1504.409, 16.252
1505.586, 245.250
1506.763, 111.874
1507.940, 131.625
1509.117, 155.506
1510.294, 63.500
1511.470, 166.602
1512.647, 173.834
1513.823, 0.750
1514.999, 180.655
1516.174, 134.521
1517.350, 22.709
1518.526, 65.750
1519.701, 63.914
1520.876, 48.828
1522.051, 162.002
1523.226, 0.294
1524.400, 0.000
##END=



