##NAMES=Calcite
##RRUFFID=R050307
##IDEAL CHEMISTRY=CaCO_3_
##LOCALITY=Zaire
##OWNER=RRUFF
##SOURCE=Eugene Schlepp
##DESCRIPTION=Group of pink prismatic crystals
##STATUS=The identification of this mineral has been confirmed by X-ray diffraction and chemical analysis
##URL=rruff.info/R050307
##MEASURED CHEMISTRY=Ca_1.00_CO_3_
##PIN_ID=L01775
##ORIENTATION=Laser parallel to -a* (-1 0 0). Fiducial mark perpendicular to laser is parallel to -c [0 0 -1]
116.9030, 0.0000000E+00
118.1340, 0.6997070
119.3650, 8.011230
120.5960, 100.4736
121.8270, 102.9746
123.0580, 124.5557
124.2880, 90.17139
125.5190, 25.54199
126.7490, 29.05225
127.9790, 80.51318
129.2090, 43.77979
130.4390, 64.73730
131.6680, 7.705078
132.8980, 111.3784
134.1270, 128.9292
135.3560, 141.8979
136.5850, 76.24170
137.8140, 242.9253
139.0430, 251.9160
140.2710, 388.1855
141.5000, 358.7100
142.7280, 499.4688
143.9560, 520.4414
145.1840, 637.6138
146.4120, 913.9717
147.6390, 982.5029
148.8670, 1286.196
150.0940, 1553.042
151.3210, 1745.034
152.5490, 1785.163
153.7750, 1543.426
155.0020, 1363.812
156.2290, 1089.308
157.4550, 874.9072
158.6810, 587.6045
159.9080, 465.3940
161.1340, 337.2705
162.3590, 306.2285
163.5850, 232.2637
164.8110, 244.3726
166.0360, 88.55029
167.2610, 111.7959
168.4860, 62.10889
169.7110, 108.4868
170.9360, 48.92480
172.1610, 99.41943
173.3850, 15.97217
174.6100, 47.58252
175.8340, 118.2476
177.0580, 5.961426
178.2820, 136.7251
179.5050, 17.54785
180.7290, 49.42822
181.9520, 125.3511
183.1760, 46.34619
184.3990, 4.379395
185.6220, 87.45605
186.8450, 91.56982
188.0670, 65.78369
189.2900, 158.0566
190.5120, 237.3506
191.7340, 176.6406
192.9560, 268.9238
194.1780, 100.2051
195.4000, 255.5010
196.6220, 237.8223
197.8430, 178.1675
199.0640, 179.5537
200.2860, 281.9497
201.5070, 84.36426
202.7270, 275.8003
203.9480, 213.2559
205.1690, 218.7251
206.3890, 104.2095
207.6090, 149.7095
208.8290, 51.22510
210.0490, 92.75684
211.2690, 93.30664
212.4890, 173.8726
213.7080, 174.4595
214.9280, 59.06543
216.1470, 40.68799
217.3660, 128.3291
218.5850, 202.9878
219.8030, 46.93311
221.0220, 104.6240
222.2400, 121.3560
223.4590, 132.1040
224.6770, 168.8687
225.8950, 146.6489
227.1120, 145.4502
228.3300, 114.2690
229.5480, 189.2754
230.7650, 145.1528
231.9820, 170.3018
233.1990, 168.1523
234.4160, 172.9404
235.6330, 149.8765
236.8490, 110.8267
238.0660, 106.7920
239.2820, 146.7720
240.4980, 81.76611
241.7140, 120.0181
242.9300, 174.0283
244.1460, 136.0532
245.3610, 217.0918
246.5770, 155.1440
247.7920, 246.7607
249.0070, 231.8262
250.2220, 282.9053
251.4370, 189.9971
252.6510, 237.3594
253.8660, 239.4878
255.0800, 275.6289
256.2940, 343.7886
257.5080, 536.1680
258.7220, 498.1553
259.9360, 418.3154
261.1490, 515.6904
262.3630, 713.8730
263.5760, 801.9429
264.7890, 685.4307
266.0020, 929.5210
267.2150, 1036.707
268.4270, 1278.974
269.6400, 1384.313
270.8520, 1734.710
272.0640, 1950.166
273.2760, 2370.077
274.4880, 2828.634
275.7000, 2944.256
276.9120, 3420.900
278.1230, 3439.660
279.3340, 3357.795
280.5450, 3156.550
281.7560, 2659.336
282.9670, 2290.153
284.1780, 1926.999
285.3880, 1584.355
286.5980, 1205.542
287.8090, 1035.830
289.0190, 815.8862
290.2290, 636.8574
291.4380, 630.8535
292.6480, 440.8711
293.8570, 436.9082
295.0670, 388.9658
296.2760, 268.0420
297.4850, 224.1367
298.6930, 253.2490
299.9020, 246.3901
301.1110, 212.5479
302.3190, 196.7217
303.5270, 131.9111
304.7350, 304.1152
305.9430, 144.3340
307.1510, 251.5679
308.3580, 128.8159
309.5660, 158.3994
310.7730, 160.6738
311.9800, 67.96240
313.1870, 81.26367
314.3940, 139.5771
315.6010, 253.9033
316.8070, 41.24072
318.0130, 193.5898
319.2200, 35.95068
320.4260, 71.32227
321.6310, 10.29492
322.8370, 259.0986
324.0430, 103.7568
325.2480, 150.9326
326.4540, 70.35547
327.6590, 38.78906
328.8640, 133.2324
330.0680, 83.68457
331.2730, 92.14648
332.4780, 19.61621
333.6820, 65.09570
334.8860, 19.84570
336.0900, 39.13672
337.2940, 0.8486330
338.4980, 44.36035
339.7010, 70.88086
340.9050, 6.089844
342.1080, 58.67578
343.3110, 85.21973
344.5140, 2.228516
345.7170, 0.3310550
346.9200, 29.89648
348.1220, 92.47168
349.3240, 118.0527
350.5270, 94.64258
351.7290, 99.25977
352.9310, 100.8330
354.1320, 81.51758
355.3340, 73.15625
356.5350, 77.80371
357.7370, 10.45703
358.9380, 85.11816
360.1390, 85.78516
361.3400, 62.45996
362.5400, 16.14258
363.7410, 28.16992
364.9410, 71.51855
366.1410, 93.21484
367.3410, 38.91699
368.5410, 112.6250
369.7410, 88.33887
370.9400, 80.06055
372.1400, 117.7881
373.3390, 150.5205
374.5380, 73.25977
375.7370, 109.0264
376.9360, 33.22363
378.1350, 77.52441
379.3330, 131.2803
380.5310, 38.04102
381.7300, 84.80762
382.9280, 152.5801
384.1260, 90.35645
385.3230, 5.860352
386.5210, 97.92285
387.7180, 86.01953
388.9160, 95.81348
390.1130, 146.6162
391.3100, 90.42285
392.5060, 122.2285
393.7030, 103.3838
394.9000, 58.19922
396.0960, 43.77832
397.2920, 54.96387
398.4880, 72.84473
399.6840, 194.6562
400.8800, 186.4736
402.0750, 2.713867
403.2710, 93.08984
404.4660, 55.89844
405.6610, 33.70898
406.8560, 38.52637
408.0510, 14.64844
409.2450, 58.18164
410.4400, 75.02246
411.6340, 57.87109
412.8280, 141.7295
414.0220, 85.59668
415.2160, 27.47070
416.4100, 26.64648
417.6030, 39.23242
418.7970, 18.74414
419.9900, 83.00293
421.1830, 21.10547
422.3760, 26.21094
423.5690, 22.67676
424.7610, 38.57227
425.9540, 23.57617
427.1460, 33.43359
428.3380, 12.70215
429.5300, 14.21094
430.7220, 3.870117
431.9140, 2.051758
433.1050, 24.97754
434.2970, 34.75098
435.4880, 79.31055
436.6790, 56.25391
437.8700, 117.2012
439.0610, 74.15527
440.2510, 32.11523
441.4420, 183.0801
442.6320, 160.7861
443.8220, 21.76270
445.0120, 94.74512
446.2020, 71.73340
447.3910, 25.72656
448.5810, 35.72559
449.7700, 12.51758
450.9600, 23.18652
452.1490, 0.2451170
453.3370, 59.77637
454.5260, 62.90332
455.7150, 84.93555
456.9030, 10.97266
458.0910, 85.01367
459.2800, 20.05859
460.4670, 12.10742
461.6550, 23.16016
462.8430, 88.21777
464.0300, 64.30078
465.2180, 45.19727
466.4050, 2.289063
467.5920, 26.61914
468.7790, 83.46289
469.9650, 134.5469
471.1520, 37.63672
472.3380, 116.7285
473.5250, 123.8232
474.7110, 73.92285
475.8970, 70.02539
477.0820, 3.131836
478.2680, 13.23926
479.4540, 95.34961
480.6390, 74.46094
481.8240, 72.57812
483.0090, 20.30176
484.1940, 15.31934
485.3780, 44.78418
486.5630, 17.91309
487.7470, 146.9512
488.9320, 78.05859
490.1160, 145.1729
491.3000, 213.2920
492.4830, 117.4326
493.6670, 130.4873
494.8500, 34.61719
496.0340, 147.7471
497.2170, 221.8818
498.4000, 300.0186
499.5820, 234.3457
500.7650, 203.3008
501.9480, 115.4688
503.1300, 42.64160
504.3120, 136.8154
505.4940, 85.99316
506.6760, 201.1055
507.8580, 150.2871
509.0390, 146.4717
510.2210, 91.65723
511.4020, 103.4541
512.5830, 128.0361
513.7640, 113.2295
514.9450, 60.42480
516.1250, 35.62305
517.3060, 17.82324
518.4860, 41.03223
519.6660, 40.00879
520.8460, 55.06250
522.0260, 89.27832
523.2060, 115.4961
524.3850, 159.7148
525.5650, 43.93750
526.7440, 74.16113
527.9230, 134.5068
529.1020, 13.26562
530.2810, 142.9531
531.4590, 52.86328
532.6380, 183.0850
533.8160, 83.30957
534.9940, 13.46484
536.1720, 201.7510
537.3500, 9.969727
538.5270, 95.06152
539.7050, 193.5371
540.8820, 162.7598
542.0590, 175.9834
543.2360, 102.2090
544.4130, 36.23535
545.5900, 78.46484
546.7660, 125.6953
547.9430, 66.92871
549.1190, 96.16504
550.2950, 139.6445
551.4710, 133.8828
552.6470, 108.1230
553.8220, 102.3643
554.9980, 114.2588
556.1730, 145.8535
557.3480, 131.0996
558.5230, 138.9473
559.6980, 108.1973
560.8730, 65.42871
562.0470, 136.6807
563.2220, 150.0195
564.3960, 40.85938
565.5700, 71.12207
566.7440, 49.38574
567.9170, 44.65137
569.0910, 183.9209
570.2640, 92.42090
571.4380, 217.6914
572.6110, 86.60254
573.7840, 140.7695
574.9570, 1.955078
576.1290, 130.3164
577.3020, 42.58984
578.4740, 227.8643
579.6460, 22.14258
580.8180, 142.4395
581.9900, 73.73730
583.1620, 41.86914
584.3330, 164.4131
585.5040, 82.40430
586.6760, 141.7021
587.8470, 101.9854
589.0180, 131.2705
590.1880, 125.5879
591.3590, 74.84766
592.5290, 60.14160
593.7000, 141.1162
594.8700, 8.909180
596.0400, 152.2041
597.2090, 88.49902
598.3790, 107.7949
599.5490, 92.09082
600.7180, 93.38672
601.8870, 128.6826
603.0560, 201.9785
604.2250, 199.4287
605.3940, 199.2109
606.5620, 144.1299
607.7300, 154.2490
608.8990, 123.7822
610.0670, 120.0781
611.2350, 190.3740
612.4020, 158.5088
613.5700, 180.0137
614.7370, 142.2588
615.9050, 183.5547
617.0720, 142.8516
618.2390, 138.8994
619.4060, 109.2080
620.5720, 40.52051
621.7390, 168.8311
622.9050, 159.1934
624.0710, 54.00195
625.2370, 183.0830
626.4030, 132.3936
627.5690, 185.7031
628.7340, 70.01270
629.9000, 18.34277
631.0650, 107.6533
632.2300, 15.03516
633.3950, 73.65430
634.5600, 181.7539
635.7240, 160.0332
636.8890, 69.30371
638.0530, 215.6406
639.2170, 194.9102
640.3810, 170.1777
641.5450, 146.3242
642.7080, 201.5996
643.8720, 143.8740
645.0350, 128.1465
646.1980, 43.41797
647.3610, 80.23340
648.5240, 47.96777
649.6870, 104.2412
650.8490, 119.5127
652.0120, 44.78223
653.1740, 88.04980
654.3360, 108.3164
655.4980, 174.6748
656.6600, 151.9385
657.8210, 164.8574
658.9830, 190.1172
660.1440, 109.3818
661.3050, 270.6445
662.4660, 144.9092
663.6270, 144.1699
664.7870, 142.4297
665.9480, 93.68555
667.1080, 4.024414
668.2680, 63.38379
669.4280, 213.3555
670.5880, 2.366211
671.7480, 158.9033
672.9070, 142.1709
674.0670, 47.43945
675.2260, 92.36230
676.3850, 169.8076
677.5440, 127.8682
678.7030, 144.1377
679.8610, 178.4150
681.0200, 179.6904
682.1780, 186.9629
683.3360, 47.23340
684.4940, 249.5986
685.6520, 91.86328
686.8090, 162.1260
687.9670, 146.3877
689.1240, 40.64551
690.2810, 222.9053
691.4380, 228.1602
692.5950, 230.5479
693.7520, 294.7969
694.9080, 76.04199
696.0650, 56.28418
697.2210, 217.5234
698.3770, 83.78711
699.5330, 144.0273
700.6880, 144.2686
701.8440, 10.49414
702.9990, 174.7354
704.1550, 234.3730
705.3100, 276.6680
706.4650, 431.9170
707.6190, 522.6016
708.7740, 641.8584
709.9290, 664.0771
711.0830, 650.5518
712.2370, 456.7656
713.3910, 406.9746
714.5450, 186.7314
715.6980, 187.0449
716.8520, 107.2568
718.0050, 118.9092
719.1580, 165.5967
720.3110, 128.7959
721.4640, 23.04590
722.6170, 116.5732
723.7700, 0.2421880
724.9220, 34.92969
726.0740, 128.0967
727.2260, 178.2588
728.3780, 88.21094
729.5300, 77.36426
730.6810, 20.15918
731.8330, 141.9922
732.9840, 5.141602
734.1350, 103.1816
735.2860, 142.3164
736.4370, 167.4463
737.5880, 93.56934
738.7380, 133.7197
739.8880, 61.83301
741.0390, 60.17969
742.1890, 69.95801
743.3380, 45.09375
744.4880, 27.14062
745.6380, 31.20605
746.7870, 149.2402
747.9360, 131.4258
749.0850, 103.4580
750.2340, 194.4834
751.3830, 185.5293
752.5310, 128.6611
753.6800, 346.8770
754.8280, 97.44141
755.9760, 374.9160
757.1240, 82.26465
758.2720, 201.4648
759.4190, 144.4443
760.5670, 47.41699
761.7140, 112.3828
762.8610, 104.5605
764.0080, 121.5264
765.1550, 124.5742
766.3020, 120.4561
767.4480, 57.62500
768.5950, 137.9541
769.7410, 46.09082
770.8870, 100.2910
772.0330, 26.98242
773.1780, 57.89355
774.3240, 210.2949
775.4690, 45.52246
776.6140, 69.41309
777.7590, 129.2969
778.9040, 81.61621
780.0490, 190.4922
781.1940, 95.34375
782.3380, 161.2656
783.4820, 105.3760
784.6260, 79.16992
785.7700, 84.10645
786.9140, 147.1553
788.0580, 97.92871
789.2010, 121.7754
790.3450, 168.6123
791.4880, 131.5273
792.6310, 47.49219
793.7730, 79.32617
794.9160, 13.94434
796.0590, 152.1006
797.2010, 92.80566
798.3430, 132.4990
799.4850, 100.0391
800.6270, 112.7178
801.7690, 212.3887
802.9100, 184.3691
804.0520, 54.43555
805.1930, 61.92090
806.3340, 192.6738
807.4750, 94.58008
808.6160, 153.6318
809.7560, 176.3604
810.8970, 83.92285
812.0370, 285.6924
813.1770, 39.29492
814.3170, 165.8896
815.4570, 130.7412
816.5960, 209.3457
817.7360, 144.0400
818.8750, 214.6025
820.0140, 325.1777
821.1530, 61.87305
822.2920, 148.4102
823.4310, 201.1914
824.5690, 92.05078
825.7070, 191.5615
826.8460, 119.2852
827.9840, 265.7803
829.1220, 55.26660
830.2590, 187.7432
831.3970, 154.2100
832.5340, 191.6709
833.6710, 134.3584
834.8080, 84.13770
835.9450, 294.5723
837.0820, 173.0400
838.2190, 203.4570
839.3550, 163.9697
840.4910, 7.630859
841.6270, 74.01367
842.7630, 84.57129
843.8990, 12.98438
845.0350, 81.59961
846.1700, 174.1592
847.3060, 29.65625
848.4410, 109.9736
849.5760, 113.2832
850.7100, 120.6025
851.8450, 70.89551
852.9800, 244.5342
854.1140, 15.80859
855.2480, 55.92871
856.3820, 190.2842
857.5160, 1.448242
858.6500, 77.64746
859.7830, 299.0928
860.9170, 123.5615
862.0500, 96.71582
863.1830, 107.1748
864.3160, 2.326172
865.4480, 145.4600
866.5810, 3.165039
867.7130, 103.9443
868.8460, 205.3564
869.9780, 229.9512
871.1100, 210.0342
872.2410, 170.1064
873.3730, 247.1699
874.5050, 94.22656
875.6360, 106.2734
876.7670, 148.3125
877.8980, 120.3438
879.0290, 145.2109
880.1590, 232.2100
881.2900, 92.12695
882.4200, 151.0508
883.5500, 63.04492
884.6800, 162.0312
885.8100, 154.0088
886.9400, 92.97656
888.0690, 70.93457
889.1990, 49.88477
890.3280, 5.825195
891.4570, 42.24707
892.5860, 20.20117
893.7140, 48.60742
894.8430, 127.3838
895.9710, 144.2412
897.1000, 137.0439
898.2280, 49.89648
899.3560, 176.7373
900.4830, 79.57031
901.6110, 67.39355
902.7380, 98.20898
903.8660, 15.99414
904.9930, 52.78809
906.1200, 31.49805
907.2460, 0.8505860
908.3730, 137.9102
909.5000, 6.854492
910.6260, 23.61133
911.7520, 132.2949
912.8780, 145.0361
914.0040, 52.76758
915.1290, 27.39160
916.2550, 88.30078
917.3800, 69.98633
918.5050, 23.66211
919.6300, 161.3721
920.7550, 62.04785
921.8800, 33.71191
923.0040, 127.3672
924.1290, 109.0137
925.2530, 60.65039
926.3770, 59.27734
927.5010, 45.89648
928.6250, 75.41211
929.7480, 152.0205
930.8720, 16.93848
931.9950, 96.52441
933.1180, 147.1016
934.2410, 6.329102
935.3640, 143.2236
936.4860, 196.7744
937.6090, 22.31641
938.7310, 6.848633
939.8530, 107.7100
940.9750, 71.66895
942.0970, 34.11426
943.2180, 72.54883
944.3400, 72.97656
945.4610, 8.604492
946.5820, 59.79590
947.7030, 142.1865
948.8240, 144.3867
949.9450, 35.76758
951.0650, 93.13770
952.1860, 69.49902
953.3060, 115.8506
954.4260, 94.19238
955.5460, 63.52539
956.6650, 219.7520
957.7850, 39.06641
958.9040, 18.38867
960.0230, 128.7002
961.1420, 47.00098
962.2610, 188.2939
963.3800, 136.5781
964.4990, 160.7197
965.6170, 198.9873
966.7350, 161.2471
967.8530, 43.49609
968.9710, 19.73633
970.0890, 121.9453
971.2070, 90.16895
972.3240, 152.3818
973.4410, 18.58594
974.5580, 138.7822
975.6750, 35.56348
976.7920, 54.67285
977.9090, 86.81543
979.0250, 35.50879
980.1410, 46.66406
981.2580, 59.82324
982.3740, 135.9561
983.4890, 218.0752
984.6050, 44.81348
985.7200, 144.2617
986.8360, 15.22852
987.9510, 253.2803
989.0660, 119.8770
990.1810, 242.4268
991.2950, 81.45215
992.4100, 169.4102
993.5240, 34.33887
994.6390, 122.3359
995.7530, 102.3262
996.8660, 24.60059
997.9800, 175.5840
999.0940, 286.7539
1000.207, 98.84375
1001.320, 196.7578
1002.433, 21.71680
1003.546, 166.6074
1004.659, 169.6172
1005.772, 267.6396
1006.884, 229.5068
1007.996, 182.8125
1009.108, 128.8359
1010.220, 163.0732
1011.332, 201.2324
1012.444, 140.2510
1013.555, 255.4189
1014.666, 238.4961
1015.777, 258.8154
1016.888, 419.0439
1017.999, 322.0703
1019.110, 193.0420
1020.220, 271.8311
1021.331, 242.8389
1022.441, 174.9092
1023.551, 123.7676
1024.661, 134.4326
1025.770, 208.7168
1026.880, 271.3398
1027.989, 94.87109
1029.098, 206.9688
1030.207, 209.0566
1031.316, 154.2881
1032.425, 253.0635
1033.533, 190.2344
1034.642, 283.9346
1035.750, 179.9160
1036.858, 142.6436
1037.966, 205.4209
1039.073, 122.9424
1040.181, 237.7539
1041.288, 155.8096
1042.396, 53.83105
1043.503, 185.0371
1044.610, 193.6045
1045.716, 200.2754
1046.823, 103.9365
1047.929, 180.7598
1049.036, 108.1494
1050.142, 228.2715
1051.248, 176.9844
1052.353, 95.96582
1053.459, 276.5957
1054.564, 190.0693
1055.670, 118.7725
1056.775, 267.5254
1057.880, 139.1172
1058.985, 132.6279
1060.089, 145.5908
1061.194, 423.1572
1062.298, 379.5811
1063.402, 480.1465
1064.506, 537.3438
1065.610, 597.9170
1066.713, 418.6553
1067.817, 565.3027
1068.920, 486.6230
1070.023, 569.1045
1071.126, 539.9277
1072.229, 711.6367
1073.332, 804.1914
1074.435, 1118.521
1075.537, 1294.988
1076.639, 2265.309
1077.741, 3670.617
1078.843, 6291.213
1079.945, 10695.88
1081.046, 16735.26
1082.148, 27767.35
1083.249, 40037.48
1084.350, 44107.30
1085.451, 35512.52
1086.551, 25695.84
1087.652, 16608.14
1088.752, 8772.852
1089.853, 4292.152
1090.953, 2244.811
1092.053, 1442.767
1093.152, 894.0322
1094.252, 672.4805
1095.351, 629.1465
1096.451, 352.6504
1097.550, 232.0342
1098.649, 214.5137
1099.748, 123.6299
1100.846, 303.0391
1101.945, 159.5820
1103.043, 216.2500
1104.141, 301.3545
1105.239, 154.4902
1106.337, 314.2705
1107.434, 265.3809
1108.532, 278.2197
1109.629, 160.4688
1110.726, 204.7832
1111.823, 103.9492
1112.920, 110.1465
1114.017, 52.46191
1115.113, 258.7461
1116.210, 345.0039
1117.306, 202.0059
1118.402, 153.0176
1119.498, 277.6631
1120.593, 337.6533
1121.689, 298.6670
1122.784, 229.7549
1123.879, 270.7021
1124.974, 221.6699
1126.069, 301.5361
1127.164, 217.5449
1128.259, 47.55176
1129.353, 114.5859
1130.447, 128.7207
1131.541, 23.21777
1132.635, 122.9023
1133.729, 101.7627
1134.822, 152.4902
1135.916, 86.63379
1137.009, 81.38574
1138.102, 129.4834
1139.195, 10.58301
1140.288, 68.93066
1141.380, 24.05371
1142.473, 41.02734
1143.565, 73.00684
1144.657, 41.09277
1145.749, 20.18457
1146.841, 7.052734
1147.932, 9.756836
1149.024, 32.43457
1150.115, 79.17578
1151.206, 137.1377
1152.297, 61.20996
1153.388, 28.27246
1154.479, 56.27734
1155.569, 16.42090
1156.659, 157.3311
1157.750, 72.27148
1158.839, 170.3232
1159.929, 41.46875
1161.019, 20.12402
1162.108, 21.71387
1163.198, 78.17578
1164.287, 33.54785
1165.376, 123.4219
1166.465, 50.77734
1167.553, 152.7725
1168.642, 36.67578
1169.730, 161.4463
1170.818, 49.04883
1171.906, 129.7363
1172.994, 65.05762
1174.082, 139.4805
1175.170, 12.10645
1176.257, 153.8867
1177.344, 144.4258
1178.431, 54.24023
1179.518, 143.6855
1180.605, 25.99512
1181.691, 103.3027
1182.778, 66.15918
1183.864, 208.9160
1184.950, 163.0176
1186.036, 62.08301
1187.122, 112.1289
1188.207, 149.3027
1189.292, 128.3115
1190.378, 16.29883
1191.463, 95.26758
1192.548, 22.61719
1193.632, 144.2988
1194.717, 162.1953
1195.801, 138.6992
1196.886, 98.56055
1197.970, 252.4102
1199.054, 19.76758
1200.137, 187.1055
1201.221, 4.878906
1202.305, 6.732422
1203.388, 82.04883
1204.471, 397.3926
1205.554, 81.13477
1206.637, 213.0547
1207.719, 157.7402
1208.802, 124.8242
1209.884, 55.47852
1210.966, 219.1074
1212.048, 16.17188
1213.130, 148.4629
1214.212, 44.08594
1215.293, 171.6875
1216.374, 231.5840
1217.456, 220.5176
1218.536, 31.06250
1219.617, 170.0020
1220.698, 61.49414
1221.778, 157.9531
1222.859, 315.6250
1223.939, 64.03516
1225.019, 62.55078
1226.099, 98.91406
1227.178, 125.3711
1228.258, 100.1973
1229.337, 167.2930
1230.417, 74.57227
1231.496, 11.82812
1232.574, 45.24219
1233.653, 254.4492
1234.732, 200.6348
1235.810, 169.0527
1236.888, 289.2539
1237.966, 192.8320
1239.044, 87.28516
1240.122, 101.5918
1241.199, 84.45508
1242.277, 85.93555
1243.354, 68.05469
1244.431, 113.3340
1245.508, 117.6465
1246.585, 237.5293
1247.661, 180.3242
1248.738, 222.6875
1249.814, 285.2773
1250.890, 166.4922
1251.966, 150.5410
1253.042, 166.5645
1254.117, 233.6172
1255.193, 135.8496
1256.268, 160.6270
1257.343, 158.5723
1258.418, 77.01367
1259.493, 121.7109
1260.567, 137.4004
1261.642, 23.38477
1262.716, 205.9277
1263.790, 133.0215
1264.864, 109.0156
1265.938, 203.8984
1267.011, 138.2969
1268.085, 115.8594
1269.158, 52.91992
1270.231, 103.4434
1271.304, 135.7129
1272.377, 130.8184
1273.450, 102.8496
1274.522, 213.9082
1275.594, 284.0215
1276.666, 57.75781
1277.738, 292.7969
1278.810, 170.7148
1279.882, 115.8086
1280.953, 86.04492
1282.025, 33.74414
1283.096, 95.45703
1284.167, 58.29688
1285.238, 110.9395
1286.308, 104.3027
1287.379, 73.83398
1288.449, 48.85547
1289.519, 16.48633
1290.589, 24.77539
1291.659, 65.11914
1292.729, 13.00000
1293.798, 87.54492
1294.868, 57.07617
1295.937, 51.42969
1297.006, 71.64648
1298.075, 99.88281
1299.143, 135.6523
