##NAMES=Calcite
##RRUFFID=R050130
##IDEAL CHEMISTRY=CaCO_3_
##LOCALITY=Mexico
##OWNER=RRUFF
##SOURCE=Dave Bunk Minerals
##DESCRIPTION=Colorless cleavage rhomb
##STATUS=The identification of this mineral has been confirmed by X-ray diffraction and chemical analysis
##URL=rruff.info/R050130
##MEASURED CHEMISTRY=Ca_1.00_CO_3_; trace amounts of Si (?)
##PIN_ID=L00286
##ORIENTATION=Laser parallel to a* (1 0 0). Fiducial mark perpendicular to laser is parallel to -c [0 0 -1]
85.455, 0.000
86.858, 0.575
88.260, 11.553
89.663, 11.163
91.065, 0.654
92.466, 9.401
93.868, 22.880
95.269, 33.485
96.670, 32.004
98.070, 48.279
99.471, 46.193
100.871, 74.653
102.271, 74.584
103.670, 112.928
105.070, 130.637
106.469, 133.670
107.868, 125.993
109.267, 143.579
110.665, 136.400
112.063, 148.435
113.461, 146.664
114.859, 155.072
116.256, 148.643
117.653, 176.365
119.050, 173.228
120.447, 161.221
121.843, 158.336
123.240, 175.566
124.636, 173.906
126.031, 159.348
127.427, 169.886
128.822, 146.514
130.217, 159.223
131.612, 157.007
133.006, 190.862
134.400, 143.785
135.794, 160.771
137.188, 137.816
138.581, 145.918
139.975, 176.074
141.368, 189.282
142.760, 173.539
144.153, 199.843
145.545, 200.193
146.937, 232.587
148.329, 299.023
149.720, 430.502
151.112, 543.021
152.503, 801.580
153.893, 941.176
155.284, 1002.811
156.674, 889.483
158.064, 635.203
159.454, 463.956
160.843, 322.738
162.233, 294.566
163.622, 201.423
165.011, 188.310
166.399, 149.226
167.787, 164.168
169.175, 120.134
170.563, 142.100
171.951, 133.080
173.338, 122.059
174.725, 112.041
176.112, 111.034
177.499, 97.039
178.885, 98.064
180.271, 92.118
181.657, 91.183
183.043, 92.263
184.428, 77.358
185.813, 83.465
187.198, 97.583
188.583, 64.715
189.967, 78.859
191.351, 89.016
192.735, 63.190
194.119, 61.378
195.502, 71.580
196.885, 63.794
198.268, 53.022
199.651, 61.262
201.033, 64.516
202.415, 50.783
203.797, 59.064
205.179, 82.365
206.561, 74.682
207.942, 64.011
209.323, 54.375
210.703, 58.744
212.084, 82.140
213.464, 65.546
214.844, 80.967
216.224, 83.397
217.603, 72.838
218.983, 56.288
220.362, 52.749
221.741, 44.220
223.119, 46.812
224.497, 41.301
225.875, 32.900
227.253, 54.427
228.631, 22.599
230.008, 50.148
231.385, 60.674
232.762, 53.209
234.139, 65.752
235.515, 78.308
236.891, 48.700
238.267, 66.277
239.643, 63.861
241.018, 67.463
242.393, 64.230
243.768, 53.852
245.143, 74.564
246.517, 69.200
247.891, 62.843
249.265, 70.492
250.639, 80.264
252.012, 84.629
253.386, 114.167
254.759, 90.839
256.131, 109.299
257.504, 113.240
258.876, 127.241
260.248, 150.292
261.620, 131.386
262.991, 181.521
264.363, 163.693
265.734, 208.540
267.104, 257.776
268.475, 289.041
269.845, 328.332
271.215, 378.123
272.585, 471.990
273.955, 579.391
275.324, 732.773
276.693, 897.175
278.062, 1135.596
279.431, 1413.594
280.799, 1560.048
282.167, 1691.519
283.535, 1530.008
284.903, 1200.511
286.270, 986.029
287.638, 689.559
289.005, 567.102
290.371, 384.666
291.738, 347.243
293.104, 243.826
294.470, 200.420
295.836, 186.025
297.201, 130.640
298.567, 136.664
299.932, 107.298
301.296, 93.942
302.661, 97.595
304.025, 48.257
305.389, 87.926
306.753, 43.604
308.117, 61.290
309.480, 73.984
310.843, 18.686
312.206, 47.445
313.569, 41.162
314.931, 63.885
316.293, 46.615
317.655, 56.543
319.017, 27.286
320.378, 14.035
321.740, 27.110
323.101, 20.418
324.461, 19.184
325.822, 6.002
327.182, 29.780
328.542, 11.566
329.902, 1.567
331.261, 39.791
332.621, 7.396
333.980, 28.265
335.339, 34.369
336.697, 33.211
338.056, 17.030
339.414, 8.853
340.772, 15.975
342.129, 2.807
343.487, 21.644
344.844, 16.484
346.201, 6.329
347.557, 20.178
348.914, 7.030
350.270, 37.887
351.626, 14.747
352.982, 22.610
354.337, 37.577
355.693, 11.448
357.048, 5.678
358.402, 17.221
359.757, 34.101
361.111, 16.985
362.465, 5.128
363.819, 31.771
365.173, 1.336
366.526, 27.560
367.879, 11.541
369.232, 11.640
370.585, 39.261
371.937, 1.834
373.290, 25.073
374.642, 0.982
375.993, 0.894
377.345, 4.808
378.696, 6.725
380.047, 7.643
381.398, 15.037
382.748, 16.960
384.099, 17.080
385.449, 20.993
386.799, 9.068
388.148, 11.995
389.497, 58.923
390.847, 6.852
392.196, 29.879
393.544, 8.808
394.893, 5.261
396.241, 6.671
397.589, 7.457
398.936, 12.482
400.284, 2.586
401.631, 14.451
402.978, 21.385
404.325, 20.321
405.672, 18.257
407.018, 23.194
408.364, 21.132
409.710, 46.070
411.055, 9.010
412.401, 3.050
413.746, 14.110
415.091, 11.830
416.435, 19.224
417.780, 13.281
419.124, 16.661
420.468, 1.608
421.812, 13.558
423.155, 16.512
424.498, 26.469
425.842, 11.611
427.184, 13.426
428.527, 8.703
429.869, 14.667
431.211, 10.694
432.553, 28.337
433.895, 10.379
435.236, 0.576
436.577, 3.533
437.918, 2.760
439.259, 18.720
440.599, 10.317
441.940, 23.642
443.280, 4.603
444.619, 14.260
445.959, 5.224
447.298, 32.210
448.637, 25.176
449.976, 39.144
451.315, 3.299
452.653, 3.269
453.991, 6.906
455.329, 5.087
456.667, 5.058
458.004, 34.106
459.341, 4.921
460.678, 17.050
462.015, 14.021
463.352, 17.992
464.688, 24.964
466.024, 10.937
467.360, 7.910
468.695, 15.883
470.031, 41.856
471.366, 7.013
472.701, 3.987
474.035, 31.960
475.370, 15.934
476.704, 24.909
478.038, 0.912
479.372, 14.885
480.705, 20.858
482.038, 1.129
483.371, 5.155
484.704, 46.847
486.037, 5.816
487.369, 19.785
488.701, 47.625
490.033, 5.596
491.365, 4.447
492.696, 8.482
494.027, 6.482
495.358, 16.555
496.689, 8.396
498.019, 45.347
499.350, 32.391
500.680, 1.340
502.009, 19.286
503.339, 48.323
504.668, 13.267
505.997, 21.211
507.326, 50.155
508.655, 50.098
509.983, 40.041
511.311, 31.984
512.639, 16.926
513.967, 7.868
515.295, 20.807
516.622, 38.785
517.949, 11.630
519.276, 20.567
520.602, 24.508
521.929, 19.448
523.255, 13.301
524.581, 26.284
525.906, 27.203
527.232, 31.139
528.557, 36.792
529.882, 25.437
531.207, 25.369
532.531, 22.273
533.855, 18.207
535.179, 49.135
536.503, 46.063
537.827, 35.989
539.150, 52.914
540.473, 0.838
541.796, 31.758
543.119, 11.321
544.441, 29.589
545.764, 8.748
547.086, 26.658
548.407, 29.567
549.729, 18.474
551.050, 9.620
552.371, 40.275
553.692, 22.168
555.013, 36.912
556.333, 5.196
557.653, 11.687
558.973, 39.568
560.293, 11.369
561.612, 38.246
562.932, 54.121
564.251, 28.995
565.569, 42.868
566.888, 29.739
568.206, 53.608
569.524, 29.476
570.842, 24.343
572.160, 23.092
573.477, 28.360
574.795, 30.223
576.112, 43.214
577.428, 56.494
578.745, 27.353
580.061, 31.210
581.377, 43.066
582.693, 27.920
584.009, 8.772
585.324, 48.622
586.639, 8.827
587.954, 53.674
589.269, 13.520
590.583, 40.364
591.897, 61.731
593.212, 26.044
594.525, 44.842
595.839, 4.679
597.152, 19.512
598.465, 31.343
599.778, 31.612
601.091, 43.440
602.403, 3.734
603.716, 37.084
605.028, 14.901
606.339, 30.715
607.651, 67.528
608.962, 7.340
610.273, 48.143
611.584, 3.060
612.895, 6.740
614.205, 49.536
615.515, 12.330
616.825, 42.121
618.135, 28.512
619.444, 38.351
620.754, 36.137
622.063, 32.922
623.372, 29.704
624.680, 37.485
625.989, 33.265
627.297, 51.044
628.605, 7.821
629.912, 45.595
631.220, 20.317
632.527, 29.087
633.834, 66.091
635.141, 15.857
636.447, 69.450
637.754, 36.212
639.060, 14.972
640.366, 42.573
641.671, 15.782
642.977, 51.536
644.282, 40.304
645.587, 5.946
646.892, 33.540
648.196, 21.202
649.501, 36.377
650.805, 28.937
652.109, 36.605
653.412, 51.043
654.716, 21.744
656.019, 11.472
657.322, 30.198
658.625, 43.627
659.927, 11.365
661.230, 38.085
662.532, 43.804
663.834, 23.562
665.135, 30.277
666.437, 24.388
667.738, 42.099
669.039, 58.809
670.340, 19.519
671.640, 19.128
672.940, 14.835
674.241, 29.649
675.540, 31.330
676.840, 36.232
678.139, 39.931
679.439, 28.628
680.738, 15.315
682.036, 24.009
683.335, 39.702
684.633, 28.392
685.931, 25.083
687.229, 26.773
688.527, 60.461
689.824, 19.147
691.121, 41.831
692.418, 47.514
693.715, 40.194
695.012, 63.872
696.308, 45.619
697.604, 69.961
698.900, 89.356
700.195, 43.832
701.491, 96.501
702.786, 88.017
704.081, 140.686
705.376, 172.353
706.670, 242.018
707.964, 460.582
709.259, 841.244
710.552, 1893.154
711.846, 2906.812
713.139, 2499.618
714.433, 1519.183
715.726, 675.836
717.018, 359.385
718.311, 232.036
719.603, 155.685
720.895, 137.333
722.187, 110.979
723.479, 70.623
724.770, 70.351
726.061, 54.992
727.352, 23.878
728.643, 23.516
729.934, 36.156
731.224, 37.794
732.514, 71.434
733.804, 75.075
735.094, 44.714
736.383, 49.352
737.672, 56.989
738.961, 19.624
740.250, 47.076
741.539, 39.708
742.827, 44.947
744.115, 38.579
745.403, 23.148
746.691, 29.776
747.978, 33.410
749.265, 29.045
750.552, 59.678
751.839, 33.043
753.126, 24.673
754.412, 45.302
755.698, 43.932
756.984, 59.561
758.270, 26.495
759.555, 31.121
760.840, 39.724
762.125, 16.348
763.410, 37.247
764.695, 36.681
765.979, 27.301
767.263, 41.252
768.547, 47.661
769.831, 27.277
771.114, 30.817
772.398, 30.431
773.681, 8.045
774.964, 17.658
776.246, 37.270
777.529, 22.881
778.811, 35.490
780.093, 43.537
781.375, 28.145
782.656, 39.751
783.937, 26.174
785.219, 26.778
786.499, 32.382
787.780, 0.984
789.060, 27.584
790.341, 9.153
791.621, 36.751
792.901, 37.349
794.180, 14.095
795.459, 51.492
796.739, 31.048
798.017, 5.636
799.296, 15.237
800.575, 8.048
801.853, 54.530
803.131, 20.108
804.409, 22.312
805.686, 43.315
806.964, 20.883
808.241, 29.456
809.518, 49.219
810.795, 9.698
812.071, 31.269
813.347, 7.156
814.623, 29.636
815.899, 54.207
817.175, 4.777
818.450, 22.346
819.726, 3.086
821.001, 38.514
822.275, 54.077
823.550, 22.153
824.824, 50.716
826.098, 11.278
827.372, 1.801
828.646, 12.361
829.920, 16.079
831.193, 27.470
832.466, 34.019
833.739, 47.568
835.011, 9.354
836.284, 30.901
837.556, 41.449
838.828, 36.057
840.100, 42.604
841.371, 28.151
842.642, 12.697
843.914, 21.239
845.184, 13.784
846.455, 34.330
847.726, 44.875
848.996, 1.420
850.266, 0.036
851.536, 9.492
852.805, 12.047
854.075, 6.589
855.344, 13.868
856.613, 35.667
857.881, 35.202
859.150, 63.737
860.418, 31.271
861.686, 13.811
862.954, 2.649
864.222, 17.888
865.489, 16.425
866.756, 18.966
868.023, 18.507
869.290, 25.049
870.557, 17.591
871.823, 22.133
873.089, 37.676
874.355, 31.218
875.621, 4.761
876.886, 0.696
878.152, 39.848
879.417, 3.608
880.682, 36.933
881.946, 16.475
883.211, 65.018
884.475, 24.560
885.739, 4.103
887.003, 31.646
888.266, 2.192
889.530, 54.737
890.793, 1.283
892.056, 2.830
893.318, 32.378
894.581, 13.074
895.843, 17.469
897.105, 21.012
898.367, 56.556
899.629, 34.100
900.890, 13.646
902.152, 38.191
903.413, 31.737
904.673, 20.285
905.934, 46.834
907.194, 16.383
908.454, 23.933
909.714, 49.483
910.974, 28.037
912.234, 65.592
913.493, 6.148
914.752, 6.295
916.011, 37.260
917.270, 15.816
918.528, 38.373
919.786, 21.934
921.044, 25.496
922.302, 35.059
923.560, 20.624
924.817, 30.190
926.074, 30.705
927.331, 19.272
928.588, 41.841
929.844, 25.411
931.101, 10.019
932.357, 69.548
933.613, 21.116
934.868, 42.690
936.124, 23.266
937.379, 7.842
938.634, 36.419
939.889, 58.761
941.144, 35.341
942.398, 51.901
943.652, 39.482
944.906, 46.065
946.160, 22.487
947.414, 22.072
948.667, 10.658
949.920, 0.815
951.173, 28.773
952.426, 15.624
953.678, 25.222
954.931, 49.821
956.183, 3.208
957.435, 55.393
958.686, 23.996
959.938, 7.400
961.189, 44.203
962.440, 0.809
963.691, 10.584
964.941, 47.007
966.192, 21.615
967.442, 24.224
968.692, 30.793
969.942, 17.404
971.191, 2.380
972.441, 18.235
973.690, 15.149
974.939, 54.464
976.187, 30.079
977.436, 63.695
978.684, 6.208
979.932, 9.832
981.180, 24.258
982.428, 27.889
983.675, 22.523
984.922, 10.842
986.169, 18.793
987.416, 14.429
988.663, 3.933
989.909, 43.706
991.155, 53.346
992.401, 56.988
993.647, 52.632
994.893, 23.286
996.138, 76.941
997.383, 71.598
998.628, 64.257
999.873, 124.848
1001.117, 98.368
1002.362, 65.311
1003.606, 97.977
1004.850, 67.645
1006.093, 102.334
1007.337, 92.007
1008.580, 100.682
1009.823, 95.359
1011.066, 127.038
1012.308, 132.720
1013.551, 152.154
1014.793, 72.840
1016.035, 125.533
1017.277, 113.228
1018.518, 128.925
1019.760, 113.625
1021.001, 145.326
1022.242, 148.030
1023.483, 106.736
1024.723, 102.444
1025.964, 143.154
1027.204, 127.047
1028.444, 98.760
1029.683, 146.229
1030.923, 88.946
1032.162, 122.672
1033.401, 109.400
1034.640, 63.130
1035.879, 111.862
1037.117, 117.947
1038.355, 109.682
1039.593, 135.426
1040.831, 125.172
1042.069, 94.924
1043.306, 107.678
1044.544, 152.659
1045.781, 154.418
1047.017, 118.180
1048.254, 144.944
1049.490, 167.709
1050.726, 139.477
1051.962, 162.247
1053.198, 130.018
1054.434, 176.790
1055.669, 165.565
1056.904, 184.341
1058.139, 209.119
1059.374, 194.900
1060.608, 252.767
1061.843, 316.551
1063.077, 416.344
1064.311, 694.861
1065.544, 701.662
1066.778, 491.465
1068.011, 491.269
1069.244, 361.076
1070.477, 463.884
1071.710, 575.694
1072.942, 577.534
1074.174, 806.347
1075.406, 916.162
1076.638, 1150.086
1077.870, 1670.905
1079.101, 2326.727
1080.332, 4594.118
1081.563, 9856.945
1082.794, 31766.764
1084.025, 63775.590
1085.255, 59464.426
1086.485, 27073.258
1087.715, 10672.087
1088.945, 4207.924
1090.175, 2478.761
1091.404, 1496.601
1092.633, 1057.443
1093.862, 867.292
1095.091, 671.141
1096.319, 555.018
1097.548, 482.871
1098.776, 368.710
1100.004, 402.157
1101.231, 370.024
1102.459, 260.933
1103.686, 308.802
1104.913, 227.620
1106.140, 251.499
1107.367, 251.379
1108.593, 155.070
1109.819, 254.086
1111.046, 158.970
1112.271, 202.552
1113.497, 169.438
1114.722, 110.327
1115.948, 135.216
1117.173, 155.107
1118.398, 123.999
1119.622, 189.961
1120.847, 139.857
1122.071, 145.270
1123.295, 124.195
1124.519, 143.094
1125.742, 164.198
1126.966, 149.100
1128.189, 78.002
1129.412, 141.853
1130.635, 78.788
1131.857, 103.720
1133.080, 99.349
1134.302, 71.261
1135.524, 118.193
1136.746, 141.045
1137.967, 73.959
1139.188, 110.874
1140.410, 113.791
1141.631, 80.594
1142.851, 108.528
1144.072, 94.453
1145.292, 69.371
1146.512, 59.289
1147.732, 86.221
1148.952, 80.197
1150.172, 76.186
1151.391, 81.109
1152.610, 45.359
1153.829, 36.287
1155.048, 75.341
1156.266, 26.271
1157.484, 40.201
1158.702, 53.449
1159.920, 33.379
1161.138, 52.315
1162.356, 91.577
1163.573, 11.508
1164.790, 46.573
1166.007, 26.610
1167.224, 29.541
1168.440, 92.683
1169.656, 20.613
1170.872, 73.543
1172.088, 40.605
1173.304, 9.465
1174.519, 66.462
1175.735, 21.398
1176.950, 37.326
1178.165, 46.005
1179.379, 7.938
1180.594, 33.865
1181.808, 26.844
1183.022, 10.176
1184.236, 49.745
1185.449, 23.102
1186.663, 38.276
1187.876, 27.064
1189.089, 5.016
1190.302, 4.934
1191.515, 26.149
1192.727, 5.500
1193.939, 71.428
1195.151, 7.396
1196.363, 41.314
1197.575, 27.232
1198.786, 20.148
1199.997, 71.063
1201.208, 32.978
1202.419, 20.891
1203.630, 59.803
1204.840, 13.001
1206.051, 2.089
1207.261, 62.819
1208.470, 34.396
1209.680, 66.302
1210.889, 43.320
1212.099, 16.294
1213.308, 62.197
1214.516, 27.197
1215.725, 32.102
1216.933, 73.005
1218.142, 5.907
1219.350, 60.807
1220.557, 63.706
1221.765, 0.987
1222.972, 69.908
1224.180, 38.801
1225.387, 12.862
1226.593, 81.753
1227.800, 15.357
1229.006, 67.522
1230.213, 31.399
1231.419, 20.310
1232.624, 40.187
1233.830, 43.220
1235.035, 23.317
1236.241, 65.193
1237.446, 57.117
1238.650, 15.990
1239.855, 64.862
1241.059, 11.879
1242.264, 40.799
1243.468, 46.669
1244.671, 7.043
1245.875, 95.824
1247.078, 10.689
1248.282, 42.554
1249.485, 83.418
1250.687, 26.332
1251.890, 65.189
1253.092, 51.039
1254.295, 0.909
1255.497, 54.758
1256.699, 19.606
1257.900, 44.601
1259.102, 50.438
1260.303, 31.275
1261.504, 35.171
1262.705, 28.005
1263.905, 4.835
1265.106, 66.663
1266.306, 17.491
1267.506, 18.317
1268.706, 59.134
1269.905, 15.051
1271.105, 29.757
1272.304, 47.562
1273.503, 10.635
1274.702, 20.163
1275.900, 20.959
1277.099, 28.742
1278.297, 88.524
1279.495, 22.305
1280.693, 48.072
1281.891, 59.832
1283.088, 27.588
1284.285, 27.339
1285.482, 24.912
1286.679, 23.827
1287.876, 26.563
1289.072, 31.297
1290.268, 41.028
1291.464, 25.743
1292.660, 15.448
1293.856, 14.150
1295.051, 48.848
1296.247, 0.544
1297.442, 54.235
1298.637, 7.920
1299.831, 29.601
1301.026, 38.279
1302.220, 0.954
1303.414, 54.634
1304.608, 29.298
1305.802, 15.041
1306.995, 53.611
1308.188, 8.258
1309.381, 10.888
1310.574, 36.514
1311.767, 4.136
1312.960, 66.763
1314.152, 38.376
1315.344, 8.986
1316.536, 82.589
1317.728, 62.921
1318.919, 29.516
1320.110, 84.107
1321.301, 21.306
1322.492, 30.270
1323.683, 55.841
1324.874, 19.408
1326.064, 18.972
1327.254, 64.188
1328.444, 16.257
1329.634, 3.289
1330.823, 7.171
1332.013, 24.362
1333.202, 52.891
1334.391, 2.417
1335.580, 0.062
1336.768, 30.805
1337.956, 21.317
1339.145, 59.827
1340.333, 52.337
1341.520, 44.840
1342.708, 41.341
1343.895, 43.838
1345.083, 56.333
1346.270, 64.826
1347.456, 3.317
1348.643, 37.805
1349.829, 86.207
1351.016, 19.308
1352.202, 53.168
1353.387, 10.357
1354.573, 18.114
1355.759, 76.570
1356.944, 15.927
1358.129, 72.381
1359.314, 90.835
1360.498, 50.289
1361.683, 57.716
1362.867, 48.171
1364.051, 1.627
1365.235, 67.908
1366.419, 35.287
1367.602, 9.652
1368.785, 55.990
1369.968, 57.326
1371.151, 40.663
1372.334, 69.006
1373.517, 25.771
1374.699, 65.533
1375.881, 10.290
1377.063, 7.037
1378.245, 103.760
1379.426, 23.507
1380.608, 90.616
1381.789, 60.295
1382.970, 12.014
1384.150, 23.730
1385.331, 53.295
1386.511, 14.010
1387.691, 74.694
1388.871, 44.394
1390.051, 38.973
1391.231, 67.602
1392.410, 21.888
1393.589, 69.561
1394.768, 100.080
1395.947, 30.709
1397.126, 46.337
1398.304, 72.986
1399.483, 12.630
1400.661, 119.890
1401.838, 71.497
1403.016, 20.093
1404.194, 92.546
1405.371, 45.727
1406.548, 81.160
1407.725, 131.753
1408.901, 82.914
1410.078, 90.673
1411.254, 109.049
1412.430, 54.457
1413.606, 95.710
1414.782, 57.068
1415.958, 61.613
1417.133, 158.144
1418.308, 62.077
1419.483, 93.505
1420.658, 171.929
1421.832, 84.831
1423.007, 136.893
1424.181, 122.877
1425.355, 131.612
1426.529, 176.958
1427.702, 230.379
1428.876, 406.797
1430.049, 719.212
1431.222, 742.132
1432.395, 698.623
1433.567, 493.011
1434.740, 224.210
1435.912, 180.341
1437.084, 157.635
1438.256, 94.924
1439.428, 89.425
1440.599, 39.365
1441.770, 68.624
1442.942, 108.896
1444.112, 20.085
1445.283, 86.540
1446.454, 78.643
1447.624, 75.839
1448.794, 83.589
1449.964, 79.572
1451.134, 50.640
1452.303, 104.685
1453.473, 15.596
1454.642, 55.594
1455.811, 112.610
1456.980, 22.258
1458.148, 53.108
1459.317, 32.091
1460.485, 22.054
1461.653, 77.019
1462.821, 79.983
1463.989, 25.929
1465.156, 82.847
1466.323, 66.800
1467.490, 12.761
1468.657, 118.775
1469.824, 18.792
1470.991, 61.787
1472.157, 110.762
1473.323, 19.839
1474.489, 55.935
1475.655, 39.020
1476.820, 3.877
1477.986, 57.219
1479.151, 83.280
1480.316, 12.386
1481.481, 36.563
1482.645, 80.809
1483.810, 31.028
1484.974, 100.320
1486.138, 15.651
1487.302, 43.012
1488.465, 124.410
1489.629, 30.853
1490.792, 50.282
1491.955, 42.818
1493.118, 24.413
1494.281, 79.067
1495.443, 47.899
1496.606, 10.551
1497.768, 109.098
1498.930, 20.804
1500.091, 56.567
1501.253, 74.387
1502.414, 43.267
1503.575, 71.190
1504.736, 46.061
1505.897, 22.727
1507.058, 104.385
1508.218, 8.087
1509.379, 26.431
1510.539, 47.625
1511.698, 0.000
##END=



