##NAMES=Calcite
##RRUFFID=R050048
##IDEAL CHEMISTRY=CaCO_3_
##LOCALITY=Magdalena, New Mexico, USA
##OWNER=RRUFF
##SOURCE=University of Arizona Mineral Museum
##DESCRIPTION=Colorless massive
##STATUS=The identification of this mineral has been confirmed by X-ray diffraction and chemical analysis
##URL=rruff.info/R050048
##MEASURED CHEMISTRY=(Ca_0.99_Zn_0.01_)CO_3_
##PIN_ID=M00181
##ORIENTATION=Laser parallel to c* (0 0 1). Fiducial mark perpendicular to laser is parallel to b [0 1 0]
99.652, 0.000
101.049, 29.783
102.446, 3.257
103.843, 40.847
105.240, 59.461
106.637, 122.051
108.033, 87.651
109.429, 137.617
110.825, 154.492
112.220, 204.946
113.616, 262.723
115.011, 307.628
116.406, 368.504
117.800, 305.227
119.195, 279.695
120.589, 293.826
121.983, 283.547
123.377, 266.799
124.770, 306.528
126.163, 296.688
127.556, 315.239
128.949, 312.147
130.342, 310.799
131.734, 332.917
133.126, 306.732
134.518, 286.804
135.909, 285.119
137.301, 280.830
138.692, 302.417
140.083, 303.377
141.473, 305.526
142.864, 336.851
144.254, 347.334
145.644, 404.965
147.034, 426.733
148.423, 480.630
149.812, 602.650
151.201, 815.783
152.590, 921.025
153.979, 1099.368
155.367, 1110.808
156.755, 989.345
158.143, 824.977
159.530, 608.693
160.918, 524.491
162.305, 383.368
163.692, 330.323
165.078, 332.352
166.465, 259.451
167.851, 249.628
169.237, 235.885
170.623, 259.207
172.008, 228.549
173.393, 185.052
174.778, 193.603
176.163, 181.227
177.548, 176.908
178.932, 146.658
180.316, 170.453
181.700, 137.293
183.083, 179.183
184.467, 150.070
185.850, 137.942
187.233, 108.836
188.616, 138.737
189.998, 126.660
191.380, 123.601
192.762, 144.568
194.144, 127.588
195.525, 99.631
196.907, 87.691
198.288, 52.767
199.669, 134.863
201.049, 105.979
202.429, 138.115
203.810, 96.272
205.189, 101.449
206.569, 133.647
207.949, 74.865
209.328, 133.104
210.707, 58.366
212.085, 34.651
213.464, 57.383
214.842, 108.726
216.220, 124.093
217.598, 99.485
218.976, 120.973
220.353, 94.365
221.730, 101.849
223.107, 93.352
224.483, 61.871
225.860, 113.498
227.236, 69.056
228.612, 69.647
229.988, 83.298
231.363, 52.922
232.738, 106.561
234.113, 108.500
235.488, 131.484
236.863, 117.664
238.237, 94.353
239.611, 71.175
240.985, 94.156
242.359, 91.914
243.732, 54.301
245.105, 92.066
246.478, 118.849
247.851, 116.780
249.223, 93.806
250.595, 84.381
251.967, 167.759
253.339, 112.746
254.711, 151.666
256.082, 107.569
257.453, 154.681
258.824, 195.519
260.195, 174.365
261.565, 183.499
262.935, 196.360
264.305, 230.568
265.675, 251.135
267.044, 251.294
268.414, 257.659
269.783, 361.152
271.151, 368.776
272.520, 431.103
273.888, 486.938
275.256, 680.859
276.624, 804.547
277.992, 1038.056
279.359, 1194.433
280.726, 1266.623
282.093, 1364.684
283.460, 1200.977
284.827, 1090.198
286.193, 787.235
287.559, 666.550
288.925, 526.048
290.290, 393.542
291.656, 301.069
293.021, 245.628
294.386, 242.215
295.750, 184.832
297.115, 126.475
298.479, 130.143
299.843, 73.835
301.207, 110.682
302.570, 82.418
303.933, 108.175
305.296, 74.952
306.659, 38.747
308.022, 89.560
309.384, 48.390
310.746, 69.237
312.108, 57.099
313.470, 43.772
314.831, 58.868
316.193, 37.774
317.554, 33.694
318.914, 57.626
320.275, 42.904
321.635, 57.861
322.995, 20.830
324.355, 13.510
325.715, 18.482
327.074, 39.614
328.434, 3.624
329.792, 67.642
331.151, 16.250
332.510, 20.287
333.868, 91.736
335.226, 40.154
336.584, 62.214
337.941, 62.297
339.299, 2.622
340.656, 59.933
342.013, 18.020
343.370, 44.269
344.726, 2.368
346.082, 47.473
347.438, 28.584
348.794, 33.162
350.150, 5.715
351.505, 35.449
352.860, 17.583
354.215, 30.122
355.570, 24.734
356.924, 34.896
358.278, 2.936
359.632, 29.235
360.986, 22.411
362.339, 12.592
363.693, 28.787
365.046, 32.990
366.399, 11.801
367.751, 0.413
369.104, 12.369
370.456, 4.851
371.808, 16.924
373.159, 37.302
374.511, 3.152
375.862, 5.616
377.213, 21.768
378.564, 9.993
379.914, 17.246
381.265, 0.889
382.615, 14.433
383.965, 8.678
385.315, 18.014
386.664, 6.243
388.013, 50.784
389.362, 23.032
390.711, 13.281
392.060, 44.469
393.408, 66.236
394.756, 7.343
396.104, 27.899
397.451, 18.823
398.799, 37.414
400.146, 14.352
401.493, 26.881
402.840, 4.836
404.186, 10.393
405.533, 2.378
406.879, 13.028
408.225, 2.201
409.570, 22.522
410.916, 6.312
412.261, 4.895
413.606, 25.098
414.951, 2.298
416.295, 19.496
417.639, 27.693
418.983, 5.116
420.327, 26.121
421.671, 11.307
423.014, 11.493
424.357, 3.068
425.700, 20.764
427.043, 8.700
428.386, 18.425
429.728, 1.256
431.070, 26.918
432.412, 8.102
433.753, 27.709
435.095, 22.471
436.436, 10.656
437.777, 10.155
439.118, 4.970
440.458, 0.787
441.798, 11.396
443.138, 11.419
444.478, 35.778
445.818, 12.040
447.157, 25.865
448.496, 11.702
449.835, 6.454
451.174, 16.609
452.513, 66.765
453.851, 66.921
455.189, 67.516
456.527, 50.453
457.864, 49.608
459.202, 33.763
460.539, 31.917
461.876, 6.070
463.212, 39.253
464.549, 72.402
465.885, 30.554
467.221, 14.705
468.557, 21.854
469.893, 52.005
471.228, 41.154
472.563, 43.301
473.898, 38.447
475.233, 35.589
476.567, 45.730
477.902, 72.868
479.236, 21.004
480.570, 5.137
481.903, 40.264
483.237, 32.389
484.570, 18.489
485.903, 17.616
487.235, 13.441
488.568, 20.541
489.900, 42.639
491.232, 1.733
492.564, 24.818
493.896, 5.901
495.227, 11.024
496.558, 31.037
497.889, 21.094
499.220, 11.148
500.551, 7.805
501.881, 58.230
503.211, 15.344
504.541, 60.370
505.870, 27.395
507.200, 44.563
508.529, 7.580
509.858, 63.054
511.187, 23.284
512.515, 31.284
513.844, 8.667
515.172, 8.976
516.500, 45.528
517.827, 42.758
519.155, 37.688
520.482, 58.798
521.809, 38.754
523.136, 46.302
524.462, 46.958
525.789, 79.897
527.115, 87.019
528.441, 88.960
529.766, 70.676
531.092, 74.021
532.417, 50.627
533.742, 10.535
535.067, 71.433
536.391, 26.227
537.716, 39.094
539.040, 69.751
540.364, 11.645
541.688, 31.572
543.011, 51.429
544.334, 33.280
545.657, 37.569
546.980, 0.592
548.303, 63.230
549.625, 47.046
550.947, 53.856
552.269, 15.741
553.591, 26.476
554.913, 61.110
556.234, 34.891
557.555, 45.958
558.876, 56.727
560.197, 40.961
561.517, 33.719
562.837, 48.305
564.157, 50.050
565.477, 26.696
566.797, 52.427
568.116, 79.153
569.435, 59.854
570.754, 63.302
572.073, 74.160
573.391, 40.721
574.709, 87.423
576.027, 78.124
577.345, 78.855
578.663, 35.266
579.980, 65.943
581.297, 77.615
582.614, 24.281
583.931, 30.715
585.248, 57.252
586.564, 92.386
587.880, 53.006
589.196, 59.456
590.511, 74.254
591.827, 50.875
593.142, 50.314
594.457, 103.248
595.772, 76.850
597.086, 93.758
598.401, 65.927
599.715, 59.770
601.029, 54.845
602.343, 35.600
603.656, 56.827
604.969, 43.505
606.282, 96.752
607.595, 95.405
608.908, 89.907
610.220, 73.643
611.532, 38.296
612.844, 47.834
614.156, 21.365
615.468, 80.888
616.779, 67.543
618.090, 53.054
619.401, 106.592
620.712, 32.957
622.022, 103.523
623.332, 45.914
624.642, 132.393
625.952, 183.865
627.262, 114.311
628.571, 123.771
629.880, 78.237
631.189, 78.684
632.498, 70.125
633.807, 54.896
635.115, 77.987
636.423, 59.408
637.731, 79.830
639.039, 115.913
640.346, 71.357
641.653, 50.776
642.960, 61.724
644.267, 111.499
645.574, 72.833
646.880, 96.253
648.186, 119.641
649.492, 127.463
650.798, 71.866
652.103, 171.809
653.409, 52.005
654.714, 101.340
656.019, 80.653
657.323, 90.724
658.628, 38.188
659.932, 27.511
661.236, 49.658
662.540, 36.614
663.843, 23.952
665.147, 41.240
666.450, 10.059
667.753, 16.331
669.056, 72.561
670.358, 29.820
671.660, 3.673
672.963, 27.551
674.264, 15.663
675.566, 52.221
676.868, 21.430
678.169, 33.622
679.470, 27.869
680.771, 2.292
682.071, 2.560
683.372, 9.574
684.672, 40.700
685.972, 26.841
687.271, 8.956
688.571, 23.061
689.870, 39.161
691.169, 67.635
692.468, 76.725
693.767, 3.219
695.065, 49.850
696.364, 29.916
697.662, 23.353
698.960, 72.328
700.257, 75.376
701.555, 87.359
702.852, 145.387
704.149, 186.128
705.446, 265.157
706.742, 381.181
708.038, 675.200
709.335, 1198.760
710.631, 2278.598
711.926, 2904.611
713.222, 2482.582
714.517, 1633.588
715.812, 897.590
717.107, 503.589
718.402, 285.531
719.696, 171.521
720.990, 140.507
722.284, 45.307
723.578, 118.283
724.872, 67.254
726.165, 84.032
727.458, 57.999
728.751, 65.451
730.044, 87.409
731.336, 28.363
732.629, 21.312
733.921, 98.256
735.213, 32.148
736.504, 43.084
737.796, 89.015
739.087, 44.687
740.378, 45.488
741.669, 76.413
742.960, 30.335
744.250, 50.258
745.540, 10.822
746.830, 68.083
748.120, 0.984
749.410, 2.883
750.699, 47.776
751.988, 43.664
753.277, 21.551
754.566, 49.437
755.854, 82.319
757.143, 33.198
758.431, 3.944
759.719, 46.925
761.006, 0.793
762.294, 70.662
763.581, 27.531
764.868, 4.396
766.155, 11.748
767.442, 34.604
768.728, 31.454
770.014, 31.081
771.300, 8.925
772.586, 50.764
773.872, 18.599
775.157, 27.430
776.442, 12.226
777.727, 7.950
779.012, 73.862
780.297, 90.671
781.581, 9.523
782.865, 77.270
784.149, 22.060
785.433, 72.846
786.716, 33.630
787.999, 29.410
789.282, 25.187
790.565, 26.961
791.848, 21.731
793.130, 21.083
794.413, 12.584
795.695, 17.027
796.977, 1.786
798.258, 3.452
799.540, 9.303
800.821, 10.054
802.102, 15.803
803.382, 10.548
804.663, 8.645
805.943, 30.036
807.224, 0.223
808.504, 36.519
809.783, 39.259
811.063, 43.996
812.342, 3.268
813.621, 15.467
814.900, 19.117
816.179, 8.152
817.457, 6.595
818.736, 45.294
820.014, 21.012
821.292, 42.264
822.569, 81.153
823.847, 37.867
825.124, 72.583
826.401, 26.633
827.678, 42.768
828.954, 4.784
830.231, 10.924
831.507, 45.479
832.783, 4.332
834.059, 56.771
835.334, 49.757
836.610, 72.456
837.885, 14.732
839.160, 2.426
840.435, 50.054
841.709, 35.321
842.983, 39.900
844.258, 92.590
845.532, 121.281
846.805, 3.029
848.079, 65.679
849.352, 49.367
850.625, 29.043
851.898, 54.660
853.171, 122.357
854.443, 90.062
855.715, 116.767
856.988, 37.471
858.259, 123.180
859.531, 140.889
860.803, 110.597
862.074, 30.304
863.345, 127.013
864.616, 53.723
865.886, 96.432
867.157, 76.141
868.427, 140.850
869.697, 19.558
870.967, 68.266
872.236, 62.974
873.506, 104.682
874.775, 51.390
876.044, 104.099
877.313, 47.807
878.581, 18.484
879.849, 85.217
881.118, 13.075
882.386, 7.629
883.653, 28.334
884.921, 142.034
886.188, 114.697
887.455, 66.403
888.722, 70.109
889.989, 56.815
891.255, 61.521
892.522, 48.426
893.788, 46.943
895.054, 32.657
896.319, 40.372
897.585, 52.087
898.850, 41.298
900.115, 55.348
901.380, 46.649
902.645, 39.042
903.909, 66.761
905.174, 53.482
906.438, 44.184
907.701, 63.916
908.965, 89.648
910.229, 65.381
911.492, 57.454
912.755, 120.190
914.018, 58.578
915.280, 133.321
916.543, 74.065
917.805, 65.390
919.067, 49.217
920.329, 19.935
921.590, 65.654
922.852, 64.375
924.113, 26.959
925.374, 79.683
926.635, 61.417
927.895, 59.102
929.156, 79.755
930.416, 55.580
931.676, 78.311
932.936, 61.044
934.195, 124.799
935.454, 79.536
936.714, 13.262
937.973, 133.002
939.231, 76.743
940.490, 107.486
941.748, 120.231
943.006, 31.978
944.264, 33.727
945.522, 51.476
946.780, 59.191
948.037, 28.930
949.294, 59.510
950.551, 32.789
951.808, 24.501
953.064, 32.078
954.320, 73.970
955.577, 26.699
956.832, 61.423
958.088, 52.200
959.344, 33.757
960.599, 13.538
961.854, 58.322
963.109, 35.107
964.364, 49.517
965.618, 2.293
966.872, 70.085
968.127, 70.221
969.380, 32.029
970.634, 73.761
971.888, 46.553
973.141, 17.651
974.394, 92.144
975.647, 4.058
976.900, 56.742
978.152, 65.546
979.404, 24.364
980.656, 53.833
981.908, 22.648
983.160, 18.525
984.411, 112.980
985.663, 52.819
986.914, 144.664
988.165, 107.517
989.415, 96.373
990.666, 89.211
991.916, 34.074
993.166, 74.942
994.416, 96.856
995.665, 77.730
996.915, 201.607
998.164, 121.363
999.413, 184.250
1000.662, 252.053
1001.911, 195.946
1003.159, 202.841
1004.407, 105.695
1005.655, 148.603
1006.903, 138.513
1008.151, 88.425
1009.398, 159.341
1010.646, 89.258
1011.893, 83.179
1013.139, 149.105
1014.386, 138.033
1015.633, 216.962
1016.879, 127.896
1018.125, 229.832
1019.371, 143.772
1020.616, 186.716
1021.862, 220.661
1023.107, 204.612
1024.352, 181.646
1025.597, 188.601
1026.842, 131.558
1028.086, 199.518
1029.330, 140.674
1030.574, 134.307
1031.818, 157.826
1033.062, 119.875
1034.305, 140.967
1035.548, 158.916
1036.791, 155.917
1038.034, 197.896
1039.277, 204.521
1040.519, 165.997
1041.762, 181.986
1043.004, 137.037
1044.246, 98.078
1045.487, 162.085
1046.729, 190.121
1047.970, 95.139
1049.211, 182.292
1050.452, 132.340
1051.692, 271.391
1052.933, 122.451
1054.173, 178.978
1055.413, 196.049
1056.653, 208.886
1057.893, 242.073
1059.132, 235.152
1060.371, 270.347
1061.610, 321.432
1062.849, 355.581
1064.088, 453.804
1065.326, 683.896
1066.565, 570.097
1067.803, 560.699
1069.041, 390.795
1070.278, 472.894
1071.516, 600.993
1072.753, 590.095
1073.990, 717.276
1075.227, 918.381
1076.464, 1117.487
1077.700, 1620.595
1078.936, 2323.908
1080.173, 4059.033
1081.408, 7224.159
1082.644, 12899.355
1083.880, 31204.496
1085.115, 45739.637
1086.350, 39934.785
1087.585, 23619.930
1088.820, 10405.074
1090.054, 4860.236
1091.288, 2587.400
1092.522, 1582.085
1093.756, 1074.248
1094.990, 787.413
1096.224, 586.669
1097.457, 571.835
1098.690, 469.001
1099.923, 399.171
1101.156, 402.342
1102.388, 316.514
1103.621, 375.686
1104.853, 261.858
1106.085, 218.185
1107.316, 277.365
1108.548, 141.546
1109.779, 225.854
1111.010, 211.035
1112.241, 191.218
1113.472, 215.423
1114.703, 141.608
1115.933, 159.793
1117.163, 274.116
1118.393, 200.152
1119.623, 319.341
1120.853, 272.696
1122.082, 299.253
1123.311, 199.443
1124.540, 119.574
1125.769, 71.764
1126.997, 143.959
1128.226, 108.154
1129.454, 171.523
1130.682, 146.719
1131.910, 69.427
1133.138, 144.798
1134.365, 51.993
1135.592, 41.323
1136.819, 125.693
1138.046, 69.994
1139.273, 95.286
1140.499, 84.525
1141.725, 0.250
1142.951, 158.302
1144.177, 16.581
1145.403, 87.084
1146.628, 81.270
1147.854, 38.546
1149.079, 82.822
1150.304, 53.986
1151.528, 38.852
1152.753, 68.180
1153.977, 93.322
1155.201, 42.482
1156.425, 58.862
1157.649, 31.997
1158.872, 98.471
1160.096, 82.248
1161.319, 101.377
1162.542, 97.569
1163.764, 27.963
1164.987, 52.085
1166.209, 34.012
1167.431, 38.172
1168.653, 116.286
1169.875, 79.417
1171.097, 2.524
1172.318, 90.628
1173.539, 50.778
1174.760, 65.876
1175.981, 70.271
1177.202, 30.633
1178.422, 14.444
1179.642, 5.545
1180.862, 1.617
1182.082, 53.685
1183.302, 21.048
1184.521, 86.684
1185.740, 5.372
1186.959, 19.424
1188.178, 42.642
1189.397, 17.994
1190.615, 24.134
1191.834, 60.174
1193.052, 29.671
1194.269, 60.029
1195.487, 9.625
1196.705, 56.690
1197.922, 77.693
1199.139, 48.067
1200.356, 3.680
1201.573, 141.304
1202.789, 24.631
1204.006, 18.778
1205.222, 66.730
1206.438, 18.985
1207.653, 115.931
1208.869, 32.106
1210.084, 13.962
1211.299, 101.003
1212.514, 21.914
1213.729, 69.838
1214.944, 120.752
1216.158, 99.006
1217.372, 65.910
1218.586, 137.045
1219.800, 31.955
1221.014, 142.893
1222.227, 64.026
1223.440, 85.909
1224.654, 4.360
1225.866, 85.204
1227.079, 112.285
1228.292, 39.678
1229.504, 151.747
1230.716, 72.767
1231.928, 99.064
1233.139, 75.904
1234.351, 147.734
1235.562, 75.162
1236.773, 184.980
1237.984, 15.205
1239.195, 128.600
1240.406, 185.401
1241.616, 42.200
1242.826, 142.994
1244.036, 107.784
1245.246, 68.719
1246.456, 94.546
1247.665, 122.325
1248.874, 123.111
1250.083, 106.883
1251.292, 30.659
1252.501, 144.032
1253.709, 125.792
1254.917, 39.615
1256.125, 157.365
1257.333, 124.111
1258.541, 66.086
1259.748, 124.821
1260.956, 179.551
1262.163, 40.403
1263.370, 122.120
1264.576, 77.836
1265.783, 118.560
1266.989, 157.257
1268.195, 108.290
1269.401, 261.978
1270.607, 131.658
1271.813, 193.799
1273.018, 101.463
1274.223, 36.122
1275.428, 231.769
1276.633, 106.410
1277.838, 37.048
1279.042, 156.680
1280.246, 47.307
1281.450, 37.923
1282.654, 54.529
1283.858, 57.128
1285.061, 69.701
1286.265, 73.257
1287.468, 11.744
1288.671, 60.254
1289.873, 16.732
1291.076, 85.202
1292.278, 122.663
1293.480, 33.203
1294.682, 90.647
1295.884, 102.085
1297.086, 17.439
1298.287, 85.977
1299.488, 76.385
1300.689, 24.785
1301.890, 146.172
1303.091, 13.536
1304.291, 2.876
1305.491, 100.201
1306.691, 67.521
1307.891, 22.800
1309.091, 151.072
1310.290, 0.336
1311.490, 73.588
1312.689, 139.832
1313.888, 2.934
1315.086, 93.289
1316.285, 126.407
1317.483, 73.595
1318.681, 110.771
1319.879, 20.938
1321.077, 89.093
1322.275, 152.570
1323.472, 78.661
1324.669, 128.703
1325.866, 93.699
1327.063, 1.216
1328.260, 86.831
1329.456, 2.889
1330.653, 87.841
1331.849, 44.839
1333.045, 40.138
1334.240, 61.815
1335.436, 81.771
1336.631, 11.249
1337.826, 122.696
1339.021, 34.349
1340.216, 20.534
1341.411, 104.380
1342.605, 9.714
1343.799, 23.823
1344.993, 176.595
1346.187, 65.461
1347.381, 5.557
1348.574, 138.296
1349.767, 19.139
1350.961, 83.920
1352.153, 27.749
1353.346, 106.511
1354.539, 72.197
1355.731, 138.062
1356.923, 79.765
1358.115, 111.575
1359.307, 14.384
1360.498, 127.190
1361.690, 30.083
1362.881, 82.891
1364.072, 74.625
1365.263, 27.438
1366.453, 111.256
1367.644, 2.080
1368.834, 20.290
1370.024, 34.458
1371.214, 3.204
1372.404, 8.121
1373.593, 45.604
1374.783, 7.097
1375.972, 104.838
1377.161, 151.831
1378.349, 45.750
1379.538, 117.100
1380.726, 150.476
1381.915, 114.750
1383.103, 209.110
1384.290, 93.460
1385.478, 101.803
1386.665, 221.965
1387.853, 54.138
1389.040, 79.437
1390.227, 136.703
1391.413, 87.833
1392.600, 160.102
1393.786, 89.360
1394.972, 13.392
1396.158, 170.838
1397.344, 75.851
1398.530, 145.055
1399.715, 211.042
1400.900, 36.853
1402.085, 192.773
1403.270, 142.832
1404.455, 63.420
1405.639, 132.160
1406.824, 232.040
1408.008, 92.176
1409.192, 153.888
1410.375, 23.665
1411.559, 154.326
1412.742, 258.561
1413.925, 10.807
1415.108, 181.163
1416.291, 167.159
1417.474, 142.784
1418.656, 338.748
1419.839, 157.343
1421.021, 144.371
1422.202, 246.372
1423.384, 206.109
1424.566, 295.180
1425.747, 246.926
1426.928, 169.667
1428.109, 289.290
1429.290, 344.579
1430.470, 394.137
1431.651, 603.037
1432.831, 775.630
1434.011, 860.631
1435.191, 1010.847
1436.370, 695.168
1437.550, 587.823
1438.729, 501.527
1439.908, 267.641
1441.087, 399.903
1442.266, 390.055
1443.444, 313.653
1444.623, 454.124
1445.801, 317.312
1446.979, 302.596
1448.157, 445.083
1449.334, 306.211
1450.512, 296.545
1451.689, 456.844
1452.866, 335.104
1454.043, 460.907
1455.220, 342.059
1456.396, 294.176
1457.573, 415.530
1458.749, 364.342
1459.925, 308.701
1461.100, 465.574
1462.276, 295.088
1463.451, 383.840
1464.627, 293.729
1465.802, 187.451
1466.977, 280.109
1468.151, 370.674
1469.326, 180.190
1470.500, 371.637
1471.674, 289.049
1472.848, 185.467
1474.022, 331.001
1475.195, 158.703
1476.369, 243.445
1477.542, 246.159
1478.715, 175.819
1479.888, 249.436
1481.061, 250.025
1482.233, 137.764
1483.405, 242.551
1484.577, 268.552
1485.749, 111.529
1486.921, 213.500
1488.093, 98.533
1489.264, 159.665
1490.435, 306.833
1491.606, 43.060
1492.777, 114.449
1493.948, 304.014
1495.118, 85.688
1496.288, 48.489
1497.459, 206.410
1498.628, 126.467
1499.798, 262.698
1500.968, 158.123
1502.137, 15.253
1503.306, 233.607
1504.475, 167.740
1505.644, 85.507
1506.813, 245.232
1507.981, 170.649
1509.149, 152.116
1510.318, 105.143
1511.485, 125.062
1512.653, 230.190
1513.821, 179.386
1514.988, 0.699
1516.155, 255.675
1517.322, 0.000
##END=



