##NAMES=Calcite
##RRUFFID=R040070
##IDEAL CHEMISTRY=CaCO_3_
##LOCALITY=Pryor Mountain, Big Horn County, Montana, USA
##OWNER=RRUFF
##SOURCE=University of Arizona Mineral Museum
##DESCRIPTION=Orange scalenohedral crystals
##STATUS=The identification of this mineral has been confirmed by X-ray diffraction and chemical analysis
##URL=rruff.info/R040070
##MEASURED CHEMISTRY=(Ca_0.99_Mg_0.01_)CO_3_
##PIN_ID=M00039
##ORIENTATION=Laser parallel to -c* (0 0 -1). Fiducial mark perpendicular to laser is parallel to a [1 0 0]
94.768, 0.000
96.161, 5.255
97.554, 13.102
98.947, 33.939
100.340, 43.126
101.732, 36.849
103.124, 41.692
104.516, 26.365
105.908, 78.637
107.300, 78.365
108.691, 103.557
110.082, 159.150
111.473, 242.049
112.864, 253.153
114.254, 192.383
115.644, 226.683
117.034, 190.051
118.424, 142.461
119.813, 166.205
121.203, 125.461
122.592, 63.817
123.981, 77.315
125.369, 43.796
126.758, 71.271
128.146, 18.653
129.534, 60.884
130.922, 74.984
132.309, 48.952
133.696, 51.798
135.083, 73.536
136.470, 31.177
137.857, 92.770
139.243, 64.135
140.630, 66.529
142.016, 94.042
143.401, 118.444
144.787, 147.218
146.172, 205.456
147.557, 252.255
148.942, 378.993
150.327, 506.181
151.711, 636.410
153.096, 843.876
154.480, 928.930
155.863, 896.259
157.247, 759.577
158.630, 606.701
160.013, 461.052
161.396, 345.512
162.779, 247.776
164.161, 167.615
165.544, 142.935
166.926, 92.400
168.308, 91.657
169.689, 76.912
171.070, 81.171
172.452, 52.429
173.833, 45.688
175.213, 30.954
176.594, 23.252
177.974, 41.561
179.354, 17.911
180.734, 13.286
182.114, 33.681
183.493, 0.915
184.872, 17.496
186.251, 32.914
187.630, 6.338
189.008, 14.776
190.387, 0.218
191.765, 4.337
193.143, 13.866
194.520, 17.058
195.898, 12.893
197.275, 12.406
198.652, 6.919
200.029, 12.566
201.405, 6.950
202.782, 10.532
204.158, 7.991
205.534, 4.520
206.909, 22.001
208.285, 12.503
209.660, 32.957
211.035, 17.498
212.410, 28.927
213.784, 11.633
215.159, 1.157
216.533, 5.269
217.907, 1.864
219.281, 19.470
220.654, 2.928
222.027, 17.700
223.400, 15.694
224.773, 31.085
226.146, 24.572
227.518, 6.994
228.891, 51.332
230.263, 25.588
231.634, 46.917
233.006, 0.255
234.377, 19.605
235.748, 79.900
237.119, 6.087
238.490, 53.461
239.860, 79.995
241.231, 41.292
242.601, 76.446
243.970, 46.560
245.340, 84.094
246.709, 84.374
248.079, 112.574
249.448, 122.636
250.816, 132.247
252.185, 129.390
253.553, 122.736
254.921, 141.086
256.289, 164.423
257.657, 171.679
259.024, 195.975
260.391, 212.839
261.758, 240.138
263.125, 264.912
264.492, 307.665
265.858, 351.827
267.224, 412.811
268.590, 449.567
269.956, 521.203
271.321, 622.831
272.687, 793.452
274.052, 952.121
275.416, 1124.776
276.781, 1454.375
278.146, 1698.011
279.510, 2028.601
280.874, 2149.679
282.237, 2237.250
283.601, 1879.837
284.964, 1649.488
286.327, 1315.940
287.690, 1054.526
289.053, 767.656
290.416, 678.070
291.778, 520.574
293.140, 435.251
294.502, 310.625
295.863, 240.009
297.225, 250.523
298.586, 175.066
299.947, 173.536
301.308, 168.999
302.668, 131.438
304.029, 129.836
305.389, 132.252
306.749, 99.581
308.108, 108.019
309.468, 97.606
310.827, 82.750
312.186, 77.914
313.545, 66.808
314.903, 69.353
316.262, 53.453
317.620, 43.598
318.978, 44.676
320.336, 56.876
321.693, 51.930
323.051, 69.032
324.408, 36.149
325.765, 84.330
327.121, 67.407
328.478, 61.690
329.834, 84.854
331.190, 51.986
332.546, 11.443
333.902, 70.540
335.257, 79.833
336.612, 26.957
337.967, 94.184
339.322, 77.406
340.677, 17.555
342.031, 3.591
343.385, 42.627
344.739, 70.607
346.093, 76.653
347.446, 72.534
348.799, 63.585
350.153, 51.499
351.505, 63.367
352.858, 50.347
354.210, 51.356
355.563, 35.594
356.915, 48.431
358.267, 42.061
359.618, 43.022
360.969, 66.943
362.321, 55.585
363.672, 55.083
365.022, 48.397
366.373, 42.207
367.723, 30.416
369.073, 65.754
370.423, 21.120
371.773, 55.004
373.122, 32.544
374.471, 58.376
375.821, 52.183
377.169, 63.040
378.518, 37.803
379.866, 24.038
381.215, 7.598
382.563, 28.383
383.910, 18.183
385.258, 61.589
386.605, 44.320
387.952, 60.158
389.299, 54.908
390.646, 66.588
391.992, 6.319
393.339, 18.111
394.685, 13.907
396.031, 77.433
397.376, 50.217
398.722, 29.910
400.067, 13.654
401.412, 29.409
402.757, 32.203
404.101, 21.866
405.446, 40.642
406.790, 48.412
408.134, 22.289
409.478, 19.140
410.821, 3.001
412.165, 5.716
413.508, 27.489
414.851, 16.852
416.193, 21.734
417.536, 31.311
418.878, 23.035
420.220, 18.682
421.562, 17.718
422.904, 7.183
424.245, 13.917
425.586, 12.831
426.927, 4.683
428.268, 0.212
429.609, 8.246
430.949, 28.693
432.289, 31.131
433.629, 33.010
434.969, 20.991
436.309, 23.407
437.648, 35.813
438.987, 25.214
440.326, 34.664
441.665, 2.016
443.003, 35.350
444.342, 29.708
445.680, 14.067
447.018, 68.415
448.355, 21.782
449.693, 3.889
451.030, 24.567
452.367, 31.730
453.704, 5.017
455.041, 59.296
456.377, 51.566
457.713, 17.828
459.049, 12.087
460.385, 23.336
461.721, 22.576
463.056, 25.806
464.391, 32.436
465.726, 26.073
467.061, 44.439
468.395, 14.631
469.730, 21.818
471.064, 13.994
472.398, 74.161
473.731, 18.320
475.065, 59.471
476.398, 73.613
477.731, 45.749
479.064, 70.838
480.397, 24.923
481.729, 65.034
483.062, 41.131
484.394, 36.225
485.725, 19.237
487.057, 43.314
488.389, 5.384
489.720, 19.443
491.051, 25.492
492.382, 0.479
493.712, 31.280
495.043, 3.300
496.373, 22.309
497.703, 6.188
499.032, 6.178
500.362, 13.157
501.691, 37.939
503.020, 35.380
504.349, 45.274
505.678, 30.218
507.007, 12.218
508.335, 26.247
509.663, 65.230
510.991, 63.588
512.319, 37.658
513.646, 59.735
514.973, 38.170
516.300, 55.958
517.627, 56.336
518.954, 37.151
520.280, 52.073
521.607, 39.003
522.933, 96.011
524.259, 34.664
525.584, 64.635
526.910, 39.571
528.235, 67.479
529.560, 26.306
530.885, 35.194
532.209, 4.523
533.534, 51.263
534.858, 95.345
536.182, 79.845
537.506, 34.669
538.829, 87.506
540.152, 34.150
541.476, 57.767
542.799, 29.412
544.121, 68.006
545.444, 60.747
546.766, 42.443
548.088, 61.160
549.410, 57.869
550.732, 71.569
552.053, 46.013
553.375, 43.552
554.696, 48.057
556.017, 36.314
557.337, 63.370
558.658, 26.923
559.978, 44.388
561.298, 32.978
562.618, 78.453
563.938, 33.933
565.257, 33.483
566.576, 11.055
567.895, 13.263
569.214, 11.204
570.533, 37.854
571.851, 22.341
573.170, 47.773
574.488, 68.793
575.805, 60.274
577.123, 23.808
578.440, 40.186
579.758, 49.561
581.075, 58.479
582.391, 58.191
583.708, 65.635
585.024, 73.745
586.341, 75.668
587.657, 87.645
588.972, 93.851
590.288, 96.250
591.603, 67.157
592.918, 62.483
594.233, 107.934
595.548, 163.278
596.863, 106.374
598.177, 97.636
599.491, 126.018
600.805, 121.883
602.119, 66.345
603.432, 134.116
604.746, 81.380
606.059, 53.731
607.372, 62.923
608.685, 133.351
609.997, 72.786
611.309, 111.001
612.621, 74.762
613.933, 91.120
615.245, 126.553
616.557, 132.248
617.868, 183.438
619.179, 178.806
620.490, 180.946
621.801, 198.068
623.111, 269.212
624.421, 287.472
625.731, 229.650
627.041, 263.606
628.351, 209.679
629.660, 197.702
630.970, 226.029
632.279, 172.337
633.588, 124.525
634.896, 111.031
636.205, 105.857
637.513, 138.440
638.821, 136.533
640.129, 173.686
641.437, 192.793
642.744, 158.841
644.051, 165.025
645.358, 167.841
646.665, 184.050
647.972, 175.000
649.278, 195.967
650.584, 197.719
651.890, 191.738
653.196, 182.509
654.502, 180.437
655.807, 170.015
657.113, 157.055
658.418, 152.982
659.722, 91.951
661.027, 80.906
662.331, 89.896
663.636, 41.908
664.940, 32.740
666.244, 41.628
667.547, 0.640
668.851, 16.642
670.154, 0.446
671.457, 5.539
672.760, 60.438
674.062, 0.591
675.365, 86.365
676.667, 31.239
677.969, 40.170
679.271, 20.038
680.572, 5.021
681.874, 19.806
683.175, 19.728
684.476, 13.562
685.777, 54.469
687.077, 8.235
688.378, 0.030
689.678, 9.812
690.978, 3.020
692.278, 52.122
693.577, 42.698
694.877, 22.394
696.176, 60.201
697.475, 29.882
698.774, 61.656
700.072, 157.307
701.371, 51.091
702.669, 99.862
703.967, 239.549
705.265, 429.309
706.562, 579.050
707.860, 1010.806
709.157, 1748.488
710.454, 3121.154
711.751, 4341.835
713.047, 3781.460
714.344, 2442.190
715.640, 1404.766
716.936, 848.411
718.232, 521.003
719.527, 345.714
720.823, 220.300
722.118, 174.880
723.413, 90.340
724.708, 93.813
726.002, 90.266
727.297, 2.850
728.591, 68.363
729.885, 81.978
731.179, 26.654
732.472, 12.677
733.766, 54.822
735.059, 41.386
736.352, 68.984
737.645, 13.627
738.937, 56.270
740.230, 0.081
741.522, 33.561
742.814, 53.200
744.106, 70.838
745.397, 28.472
746.689, 20.899
747.980, 46.712
749.271, 2.320
750.562, 27.922
751.853, 8.481
753.143, 61.106
754.433, 23.689
755.723, 26.267
757.013, 1.843
758.303, 36.587
759.592, 20.958
760.881, 42.500
762.170, 59.010
763.459, 25.456
764.748, 16.061
766.036, 41.583
767.325, 8.900
768.613, 28.608
769.901, 3.113
771.188, 22.388
772.476, 14.094
773.763, 0.427
775.050, 36.046
776.337, 52.516
777.624, 72.983
778.910, 4.447
780.196, 51.907
781.482, 12.636
782.768, 38.809
784.054, 59.252
785.339, 9.693
786.625, 1.871
787.910, 67.560
789.195, 3.012
790.479, 61.418
791.764, 9.837
793.048, 21.385
794.332, 59.796
795.616, 30.204
796.900, 61.609
798.183, 0.989
799.467, 8.409
800.750, 53.803
802.033, 38.196
803.316, 50.586
804.598, 6.973
805.880, 26.360
807.163, 44.743
808.445, 44.125
809.726, 43.505
811.008, 46.354
812.289, 20.565
813.570, 41.940
814.851, 56.312
816.132, 60.681
817.413, 12.049
818.693, 83.348
819.973, 34.632
821.253, 49.927
822.533, 90.941
823.813, 40.671
825.092, 66.509
826.371, 72.629
827.650, 32.008
828.929, 67.830
830.208, 92.458
831.486, 98.696
832.764, 38.970
834.042, 53.158
835.320, 76.692
836.598, 115.386
837.875, 128.482
839.152, 142.506
840.429, 150.079
841.706, 157.214
842.983, 126.090
844.259, 133.362
845.536, 129.413
846.812, 122.032
848.088, 132.327
849.363, 137.535
850.639, 122.874
851.914, 131.117
853.189, 157.457
854.464, 159.168
855.739, 246.147
857.013, 209.504
858.288, 254.870
859.562, 325.240
860.836, 235.609
862.110, 196.978
863.383, 256.345
864.656, 187.713
865.930, 205.079
867.203, 168.445
868.475, 190.810
869.748, 104.176
871.020, 136.541
872.292, 170.906
873.564, 54.271
874.836, 120.634
876.108, 80.998
877.379, 147.362
878.650, 115.725
879.922, 123.089
881.192, 101.249
882.463, 102.613
883.733, 103.978
885.004, 83.251
886.274, 122.505
887.544, 109.130
888.813, 87.215
890.083, 114.582
891.352, 126.807
892.621, 130.173
893.890, 76.236
895.159, 92.545
896.427, 95.908
897.695, 146.274
898.964, 121.577
900.232, 141.374
901.499, 94.750
902.767, 132.943
904.034, 140.246
905.301, 122.838
906.568, 103.228
907.835, 142.529
909.102, 117.841
910.368, 122.048
911.634, 88.924
912.900, 83.837
914.166, 88.318
915.432, 70.024
916.697, 86.625
917.962, 92.920
919.227, 64.322
920.492, 30.985
921.757, 72.336
923.021, 54.582
924.285, 57.417
925.550, 75.711
926.813, 78.880
928.077, 83.269
929.341, 108.680
930.604, 56.094
931.867, 21.358
933.130, 67.773
934.393, 129.276
935.655, 37.688
936.918, 82.105
938.180, 23.397
939.442, 55.537
940.703, 88.954
941.965, 11.046
943.226, 83.462
944.488, 4.240
945.749, 27.104
947.009, 48.519
948.270, 117.903
949.530, 38.317
950.791, 66.518
952.051, 101.812
953.311, 42.226
954.570, 75.640
955.830, 89.054
957.089, 83.346
958.348, 38.720
959.607, 71.134
960.866, 28.547
962.124, 10.039
963.383, 82.371
964.641, 95.721
965.899, 66.132
967.156, 50.542
968.414, 49.951
969.671, 16.269
970.928, 9.719
972.185, 67.087
973.442, 3.504
974.699, 16.094
975.955, 11.311
977.211, 26.282
978.468, 9.116
979.723, 13.510
980.979, 31.091
982.234, 65.297
983.490, 44.685
984.745, 27.099
986.000, 48.487
987.254, 15.123
988.509, 14.155
989.763, 68.584
991.017, 79.094
992.271, 38.480
993.525, 14.996
994.779, 53.412
996.032, 108.803
997.285, 164.396
998.538, 152.945
999.791, 272.351
1001.044, 298.856
1002.296, 364.990
1003.548, 367.449
1004.800, 257.102
1006.052, 238.019
1007.304, 235.467
1008.555, 189.391
1009.807, 166.943
1011.058, 125.596
1012.309, 104.990
1013.559, 163.551
1014.810, 156.135
1016.060, 159.524
1017.310, 214.911
1018.560, 181.572
1019.810, 229.210
1021.060, 282.723
1022.309, 251.168
1023.558, 316.744
1024.807, 250.185
1026.056, 266.659
1027.305, 250.213
1028.553, 249.581
1029.801, 235.021
1031.049, 133.495
1032.297, 224.141
1033.545, 185.831
1034.793, 150.337
1036.040, 228.618
1037.287, 158.309
1038.534, 177.766
1039.781, 167.219
1041.027, 129.646
1042.274, 140.997
1043.520, 244.346
1044.766, 136.870
1046.012, 202.343
1047.257, 137.540
1048.503, 199.656
1049.748, 201.252
1050.993, 280.724
1052.238, 262.088
1053.483, 253.669
1054.727, 190.030
1055.971, 238.951
1057.216, 277.522
1058.459, 239.925
1059.703, 242.292
1060.947, 265.033
1062.190, 336.845
1063.433, 347.477
1064.676, 512.625
1065.919, 646.020
1067.162, 766.726
1068.404, 600.123
1069.646, 527.771
1070.888, 585.363
1072.130, 576.963
1073.372, 664.449
1074.613, 760.839
1075.855, 904.443
1077.096, 1079.056
1078.337, 1493.436
1079.578, 2085.561
1080.818, 3505.176
1082.059, 6474.588
1083.299, 13445.211
1084.539, 30382.861
1085.779, 55293.277
1087.018, 58308.621
1088.258, 35584.980
1089.497, 17078.361
1090.736, 8464.706
1091.975, 4556.038
1093.213, 2673.374
1094.452, 1703.571
1095.690, 1160.897
1096.928, 912.219
1098.166, 676.535
1099.404, 572.846
1100.642, 500.152
1101.879, 507.454
1103.116, 382.751
1104.353, 361.042
1105.590, 308.416
1106.827, 280.699
1108.063, 262.977
1109.299, 271.250
1110.536, 276.623
1111.771, 258.580
1113.007, 217.837
1114.243, 262.197
1115.478, 229.443
1116.713, 206.683
1117.948, 235.917
1119.183, 210.626
1120.418, 245.345
1121.652, 206.562
1122.886, 201.645
1124.120, 203.307
1125.354, 176.486
1126.588, 133.656
1127.821, 108.814
1129.055, 105.984
1130.288, 134.876
1131.521, 170.046
1132.753, 64.209
1133.986, 90.367
1135.218, 142.518
1136.450, 6.847
1137.682, 61.268
1138.914, 42.393
1140.146, 72.510
1141.377, 41.651
1142.609, 40.260
1143.840, 78.857
1145.071, 25.922
1146.301, 39.978
1147.532, 95.025
1148.762, 51.066
1149.992, 2.901
1151.222, 62.119
1152.452, 16.130
1153.682, 62.868
1154.911, 65.089
1156.140, 30.963
1157.369, 9.043
1158.598, 15.858
1159.827, 95.968
1161.055, 37.853
1162.284, 31.729
1163.512, 81.609
1164.740, 94.468
1165.967, 15.319
1167.195, 18.160
1168.422, 47.991
1169.650, 63.812
1170.877, 32.626
1172.103, 64.431
1173.330, 56.227
1174.557, 37.014
1175.783, 89.792
1177.009, 63.561
1178.235, 55.323
1179.461, 17.075
1180.686, 11.816
1181.912, 46.548
1183.137, 3.568
1184.362, 12.136
1185.587, 58.979
1186.811, 59.664
1188.036, 65.546
1189.260, 101.427
1190.484, 89.117
1191.708, 45.990
1192.932, 57.908
1194.155, 0.643
1195.378, 30.809
1196.602, 33.081
1197.825, 63.786
1199.047, 89.543
1200.270, 37.415
1201.492, 91.225
1202.715, 42.819
1203.937, 39.674
1205.159, 85.353
1206.380, 105.057
1207.602, 21.877
1208.823, 17.436
1210.044, 39.070
1211.265, 7.816
1212.486, 109.209
1213.707, 2.283
1214.927, 127.443
1216.147, 39.896
1217.367, 53.610
1218.587, 51.035
1219.807, 77.552
1221.027, 101.936
1222.246, 49.354
1223.465, 46.748
1224.684, 129.031
1225.903, 8.390
1227.121, 43.650
1228.340, 91.295
1229.558, 40.841
1230.776, 36.210
1231.994, 89.779
1233.212, 132.091
1234.429, 133.342
1235.646, 95.526
1236.864, 137.698
1238.081, 123.862
1239.297, 146.019
1240.514, 121.167
1241.730, 143.309
1242.947, 150.442
1244.163, 145.567
1245.378, 183.684
1246.594, 120.792
1247.810, 123.927
1249.025, 183.018
1250.240, 120.203
1251.455, 82.428
1252.670, 171.689
1253.885, 105.852
1255.099, 149.076
1256.313, 78.116
1257.527, 195.218
1258.741, 107.243
1259.955, 77.259
1261.168, 125.266
1262.382, 130.264
1263.595, 133.262
1264.808, 132.243
1266.021, 150.214
1267.233, 172.212
1268.446, 179.290
1269.658, 149.115
1270.870, 204.056
1272.082, 197.988
1273.294, 203.917
1274.505, 155.838
1275.716, 218.750
1276.928, 140.660
1278.139, 152.562
1279.349, 180.430
1280.560, 145.315
1281.770, 192.193
1282.981, 183.173
1284.191, 118.991
1285.401, 130.720
1286.610, 95.563
1287.820, 151.251
1289.029, 89.018
1290.239, 130.795
1291.448, 112.361
1292.656, 172.972
1293.865, 156.695
1295.073, 194.297
1296.282, 122.237
1297.490, 134.819
1298.698, 116.194
1299.906, 137.292
1301.113, 154.846
1302.320, 104.912
1303.528, 138.339
1304.735, 39.654
1305.942, 117.212
1307.148, 192.590
1308.355, 87.931
1309.561, 126.457
1310.767, 152.975
1311.973, 114.208
1313.179, 120.453
1314.384, 127.873
1315.590, 177.228
1316.795, 144.500
1318.000, 171.891
1319.205, 182.236
1320.410, 192.490
1321.614, 188.983
1322.819, 188.262
1324.023, 159.560
1325.227, 180.675
1326.431, 152.733
1327.634, 49.962
1328.838, 113.406
1330.041, 52.430
1331.244, 101.676
1332.447, 37.912
1333.650, 36.161
1334.852, 79.473
1336.055, 22.226
1337.257, 25.890
1338.459, 0.043
1339.661, 6.538
1340.862, 9.048
1342.064, 50.951
1343.265, 36.070
1344.466, 17.288
1345.667, 23.279
1346.868, 8.481
1348.068, 82.115
1349.269, 40.910
1350.469, 24.224
1351.669, 15.617
1352.869, 36.839
1354.069, 24.871
1355.268, 44.250
1356.468, 105.106
1357.667, 45.284
1358.866, 6.074
1360.065, 50.651
1361.263, 5.486
1362.462, 51.440
1363.660, 26.399
1364.858, 57.040
1366.056, 46.124
1367.254, 48.990
1368.451, 102.847
1369.649, 51.932
1370.846, 71.239
1372.043, 3.050
1373.240, 9.498
1374.436, 36.726
1375.633, 5.404
1376.829, 44.294
1378.025, 56.294
1379.221, 101.543
1380.417, 126.061
1381.613, 109.490
1382.808, 131.907
1384.003, 173.311
1385.199, 139.702
1386.393, 158.069
1387.588, 83.445
1388.783, 136.701
1389.977, 94.033
1391.171, 60.236
1392.365, 74.420
1393.559, 43.867
1394.753, 31.983
1395.946, 21.244
1397.140, 42.490
1398.333, 25.593
1399.526, 75.943
1400.719, 50.148
1401.911, 115.339
1403.104, 103.516
1404.296, 122.689
1405.488, 109.811
1406.680, 63.915
1407.872, 104.080
1409.063, 144.234
1410.255, 57.383
1411.446, 141.527
1412.637, 164.711
1413.828, 130.921
1415.018, 166.844
1416.209, 101.027
1417.399, 159.223
1418.589, 161.416
1419.779, 169.604
1420.969, 195.789
1422.159, 196.448
1423.348, 186.145
1424.537, 222.317
1425.726, 226.251
1426.915, 258.211
1428.104, 191.076
1429.293, 268.871
1430.481, 243.175
1431.669, 369.105
1432.857, 443.936
1434.045, 692.191
1435.233, 1115.137
1436.420, 1415.972
1437.608, 1480.935
1438.795, 1224.712
1439.982, 999.927
1441.169, 807.957
1442.355, 668.993
1443.542, 616.404
1444.728, 571.272
1445.914, 632.444
1447.100, 559.085
1448.286, 619.535
1449.472, 520.344
1450.657, 708.770
1451.842, 604.512
1453.027, 651.237
1454.212, 641.938
1455.397, 644.612
1456.581, 695.263
1457.766, 748.814
1458.950, 649.851
1460.134, 671.731
1461.318, 569.847
1462.501, 553.165
1463.685, 605.617
1464.868, 546.018
1466.051, 492.793
1467.234, 470.676
1468.417, 354.992
1469.600, 455.271
1470.782, 471.506
1471.965, 331.694
1473.147, 368.831
1474.329, 332.917
1475.510, 302.957
1476.692, 216.000
1477.873, 283.159
1479.055, 257.335
1480.236, 247.668
1481.416, 287.246
1482.597, 282.928
1483.778, 259.628
1484.958, 210.333
1486.138, 164.091
1487.318, 161.954
1488.498, 259.655
1489.678, 194.440
1490.857, 131.245
1492.037, 228.110
1493.216, 78.016
1494.395, 64.958
1495.574, 146.949
1496.752, 81.000
1497.931, 102.127
1499.109, 10.353
1500.287, 143.694
1501.465, 7.847
1502.643, 133.710
1503.820, 16.361
1504.998, 13.117
1506.175, 8.005
1507.352, 57.018
1508.529, 93.204
1509.706, 57.581
1510.882, 122.195
1512.059, 113.101
1513.235, 124.091
1514.411, 39.366
1515.587, 118.569
1516.762, 38.277
1517.938, 67.336
1519.113, 17.512
1520.288, 0.265
1521.463, 0.000
##END=



