##NAMES=Calcite
##RRUFFID=R050048
##IDEAL CHEMISTRY=CaCO_3_
##LOCALITY=Magdalena, New Mexico, USA
##OWNER=RRUFF
##SOURCE=University of Arizona Mineral Museum
##DESCRIPTION=Colorless massive
##STATUS=The identification of this mineral has been confirmed by X-ray diffraction and chemical analysis
##URL=rruff.info/R050048
##MEASURED CHEMISTRY=(Ca_0.99_Zn_0.01_)CO_3_
##PIN_ID=M00181
##ORIENTATION=Laser parallel to c* (0 0 1). Fiducial mark perpendicular to laser is parallel to b [0 1 0]
101.049, 0.000
102.446, 33.116
103.843, 8.656
105.240, 37.543
106.637, 30.463
108.033, 65.781
109.429, 73.573
110.825, 91.236
112.220, 152.357
113.616, 207.664
115.011, 331.982
116.406, 382.137
117.800, 340.986
119.195, 296.417
120.589, 197.343
121.983, 175.698
123.377, 155.429
124.770, 133.550
126.163, 123.152
127.556, 157.074
128.949, 127.273
130.342, 130.651
131.734, 108.197
133.126, 114.895
134.518, 147.720
135.909, 148.666
137.301, 125.725
138.692, 152.889
140.083, 139.155
141.473, 179.520
142.864, 170.986
144.254, 187.545
145.644, 269.188
147.034, 314.768
148.423, 434.638
149.812, 543.731
151.201, 697.739
152.590, 888.778
153.979, 1036.512
155.367, 1037.652
156.755, 833.622
158.143, 694.646
159.530, 511.164
160.918, 368.283
162.305, 266.649
163.692, 229.958
165.078, 177.198
166.465, 147.478
167.851, 115.795
169.237, 97.156
170.623, 79.566
172.008, 86.005
173.393, 47.472
174.778, 75.965
176.163, 29.484
177.548, 26.069
178.932, 4.693
180.316, 45.409
181.700, 4.206
183.083, 14.078
184.467, 22.971
185.850, 31.851
187.233, 31.728
188.616, 40.610
189.998, 9.500
191.380, 14.605
192.762, 62.303
194.144, 22.227
195.525, 2.847
196.907, 36.901
198.288, 5.936
199.669, 30.032
201.049, 4.995
202.429, 33.996
203.810, 19.003
205.189, 14.992
206.569, 2.022
207.949, 19.959
209.328, 4.064
210.707, 31.095
212.085, 25.135
213.464, 18.188
214.842, 12.244
216.220, 24.304
217.598, 9.634
218.976, 0.435
220.353, 6.510
221.730, 5.413
223.107, 12.667
224.483, 3.244
225.860, 32.852
227.236, 19.949
228.612, 32.048
229.988, 49.146
231.363, 7.245
232.738, 68.337
234.113, 29.430
235.488, 47.523
236.863, 57.494
238.237, 80.859
239.611, 53.937
240.985, 67.019
242.359, 68.104
243.732, 94.190
245.105, 91.279
246.478, 109.369
247.851, 109.491
249.223, 162.583
250.595, 137.676
251.967, 230.025
253.339, 188.097
254.711, 220.221
256.082, 238.288
257.453, 271.196
258.824, 332.696
260.195, 351.235
261.565, 413.309
262.935, 475.573
264.305, 526.448
265.675, 643.715
267.044, 666.860
268.414, 845.007
269.783, 941.443
271.151, 1182.856
272.520, 1369.708
273.888, 1678.282
275.256, 2277.267
276.624, 2590.960
277.992, 3382.727
279.359, 3949.498
280.726, 4483.304
282.093, 4834.959
283.460, 4016.823
284.827, 3745.598
286.193, 2733.522
287.559, 2220.452
288.925, 1740.400
290.290, 1237.365
291.656, 1045.530
293.021, 785.521
294.386, 686.526
295.750, 559.563
297.115, 436.586
298.479, 398.617
299.843, 331.657
301.207, 291.701
302.570, 217.779
303.933, 241.839
305.296, 207.656
306.659, 180.728
308.022, 180.805
309.384, 165.887
310.746, 152.972
312.108, 109.065
313.470, 143.153
314.831, 152.234
316.193, 86.313
317.554, 129.414
318.914, 80.131
320.275, 100.203
321.635, 59.662
322.995, 49.022
324.355, 87.348
325.715, 59.452
327.074, 98.530
328.434, 50.609
329.792, 32.688
331.151, 55.769
332.510, 30.942
333.868, 55.026
335.226, 50.556
336.584, 49.637
337.941, 34.784
339.299, 35.893
340.656, 28.972
342.013, 21.076
343.370, 44.154
344.726, 31.477
346.082, 20.339
347.438, 30.410
348.794, 75.514
350.150, 101.617
351.505, 51.681
352.860, 35.787
354.215, 46.846
355.570, 54.662
356.924, 39.716
358.278, 45.767
359.632, 34.005
360.986, 26.255
362.339, 14.232
363.693, 63.284
365.046, 27.436
366.399, 59.482
367.751, 8.167
369.104, 20.998
370.456, 10.682
371.808, 0.991
373.159, 3.083
374.511, 17.117
375.862, 84.176
377.213, 37.202
378.564, 42.643
379.914, 19.689
381.265, 14.695
382.615, 37.715
383.965, 10.067
385.315, 31.992
386.664, 30.253
388.013, 67.248
389.362, 21.235
390.711, 43.272
392.060, 7.259
393.408, 17.232
394.756, 18.656
396.104, 54.620
397.451, 22.662
398.799, 21.700
400.146, 27.355
401.493, 41.607
402.840, 18.531
404.186, 24.451
405.533, 8.889
406.879, 27.043
408.225, 50.943
409.570, 23.838
410.916, 35.272
412.261, 11.261
413.606, 28.872
414.951, 42.970
416.295, 0.806
417.639, 21.345
418.983, 23.452
420.327, 10.668
421.671, 24.319
423.014, 14.074
424.357, 4.188
425.700, 10.545
427.043, 9.252
428.386, 9.047
429.728, 28.642
431.070, 11.418
432.412, 24.102
433.753, 10.217
435.095, 32.521
436.436, 7.185
437.777, 19.841
439.118, 4.507
440.458, 31.132
441.798, 57.766
443.138, 0.604
444.478, 48.013
445.818, 1.374
447.157, 22.226
448.496, 48.820
449.835, 28.436
451.174, 40.085
452.513, 21.337
453.851, 30.239
455.189, 28.845
456.527, 24.387
457.864, 68.923
459.202, 42.455
460.539, 66.981
461.876, 1.499
463.212, 27.005
464.549, 59.505
465.885, 2.998
467.221, 34.478
468.557, 37.952
469.893, 85.425
471.228, 55.893
472.563, 34.364
473.898, 67.828
475.233, 36.291
476.567, 66.746
477.902, 32.195
479.236, 6.637
480.570, 80.067
481.903, 13.490
483.237, 16.902
484.570, 18.306
485.903, 34.705
487.235, 63.097
488.568, 61.483
489.900, 66.863
491.232, 50.235
492.564, 27.604
493.896, 42.964
495.227, 13.317
496.558, 49.659
497.889, 30.994
499.220, 38.322
500.551, 46.642
501.881, 39.955
503.211, 46.260
504.541, 21.564
505.870, 5.860
507.200, 56.141
508.529, 39.415
509.858, 39.854
511.187, 101.183
512.515, 38.436
513.844, 51.818
515.172, 56.127
516.500, 94.360
517.827, 99.614
519.155, 26.622
520.482, 35.137
521.809, 63.570
523.136, 72.675
524.462, 30.912
525.789, 57.129
527.115, 73.395
528.441, 46.077
529.766, 27.289
531.092, 51.062
532.417, 45.311
533.742, 69.430
535.067, 51.559
536.391, 74.679
537.716, 21.012
539.040, 53.114
540.364, 35.207
541.688, 57.292
543.011, 24.369
544.334, 91.436
545.657, 28.494
546.980, 50.543
548.303, 75.583
549.625, 48.617
550.947, 59.641
552.269, 65.629
553.591, 20.638
554.913, 87.634
556.234, 43.624
557.555, 43.604
558.876, 71.576
560.197, 53.473
561.517, 65.429
562.837, 89.378
564.157, 10.318
565.477, 54.264
566.797, 97.183
568.116, 64.094
569.435, 69.998
570.754, 10.193
572.073, 93.058
573.391, 73.598
574.709, 96.465
576.027, 50.824
577.345, 35.771
578.663, 55.564
579.980, 21.218
581.297, 74.047
582.614, 50.861
583.931, 47.797
585.248, 74.540
586.564, 51.156
587.880, 76.716
589.196, 30.503
590.511, 74.146
591.827, 60.026
593.142, 32.453
594.457, 62.212
595.772, 95.613
597.086, 82.352
598.401, 57.056
599.715, 67.787
601.029, 97.595
602.343, 75.494
603.656, 54.206
604.969, 54.051
606.282, 76.735
607.595, 40.431
608.908, 31.117
610.220, 58.889
611.532, 39.375
612.844, 31.055
614.156, 75.807
615.468, 69.438
616.779, 50.469
618.090, 88.135
619.401, 135.784
620.712, 83.416
622.022, 147.285
623.332, 109.932
624.642, 174.791
625.952, 143.457
627.262, 130.406
628.571, 135.270
629.880, 73.125
631.189, 135.702
632.498, 55.371
633.807, 99.939
635.115, 97.505
636.423, 73.040
637.731, 54.953
639.039, 102.500
640.346, 95.728
641.653, 95.980
642.960, 105.337
644.267, 96.834
645.574, 139.657
646.880, 83.169
648.186, 132.674
649.492, 172.706
650.798, 73.179
652.103, 119.663
653.409, 63.695
654.714, 113.171
656.019, 75.574
657.323, 82.036
658.628, 50.493
659.932, 54.919
661.236, 67.896
662.540, 62.089
663.843, 63.736
665.147, 68.169
666.450, 16.851
667.753, 29.235
669.056, 66.688
670.358, 19.399
671.660, 28.805
672.963, 54.204
674.264, 38.598
675.566, 18.010
676.868, 9.150
678.169, 12.424
679.470, 4.196
680.771, 33.148
682.071, 35.324
683.372, 23.343
684.672, 1.967
685.972, 31.271
687.271, 6.292
688.571, 9.552
689.870, 26.781
691.169, 50.058
692.468, 53.300
693.767, 10.567
695.065, 81.408
696.364, 59.635
697.662, 133.736
698.960, 102.969
700.257, 115.863
701.555, 171.098
702.852, 195.063
704.149, 260.245
705.446, 380.466
706.742, 576.628
708.038, 1030.830
709.335, 1895.037
710.631, 3704.784
711.926, 4496.981
713.222, 4068.092
714.517, 2537.196
715.812, 1289.380
717.107, 785.538
718.402, 429.722
719.696, 271.903
720.990, 239.334
722.284, 147.483
723.578, 78.655
724.872, 83.823
726.165, 72.987
727.458, 109.497
728.751, 96.665
730.044, 56.839
731.336, 64.009
732.629, 53.154
733.921, 60.244
735.213, 12.422
736.504, 36.378
737.796, 54.554
739.087, 26.721
740.378, 15.878
741.669, 35.048
742.960, 95.214
744.250, 31.383
745.540, 38.460
746.830, 6.624
748.120, 25.783
749.410, 48.874
750.699, 29.032
751.988, 59.188
753.277, 37.342
754.566, 40.497
755.854, 7.649
757.143, 69.798
758.431, 39.946
759.719, 20.093
761.006, 42.239
762.294, 25.383
763.581, 59.497
764.868, 4.570
766.155, 48.705
767.442, 21.823
768.728, 4.007
770.014, 27.142
771.300, 2.726
772.586, 18.400
773.872, 20.524
775.157, 31.645
776.442, 1.232
777.727, 15.885
779.012, 36.000
780.297, 8.116
781.581, 18.770
782.865, 1.671
784.149, 33.577
785.433, 48.628
786.716, 14.302
787.999, 36.770
789.282, 30.826
790.565, 53.880
791.848, 55.932
793.130, 29.985
794.413, 4.035
795.695, 50.085
796.977, 14.810
798.258, 41.229
799.540, 2.734
800.821, 33.298
802.102, 28.328
803.382, 6.644
804.663, 1.377
805.943, 21.397
807.224, 27.415
808.504, 23.433
809.783, 40.449
811.063, 10.465
812.342, 53.478
813.621, 57.490
814.900, 23.437
816.179, 27.559
817.457, 68.555
818.736, 48.546
820.014, 3.458
821.292, 23.363
822.569, 6.344
823.847, 4.667
825.124, 30.758
826.401, 44.672
827.678, 53.654
828.954, 42.614
830.231, 75.804
831.507, 69.478
832.783, 7.641
834.059, 80.712
835.334, 33.644
836.610, 63.585
837.885, 27.469
839.160, 0.070
840.435, 78.854
841.709, 48.482
842.983, 42.199
844.258, 73.108
845.532, 75.082
846.805, 54.056
848.079, 98.810
849.352, 23.784
850.625, 66.759
851.898, 23.735
853.171, 48.710
854.443, 117.687
855.715, 54.663
856.988, 110.641
858.259, 158.619
859.531, 191.597
860.803, 120.575
862.074, 120.553
863.345, 138.532
864.616, 96.512
865.886, 57.493
867.157, 115.478
868.427, 53.463
869.697, 43.448
870.967, 113.434
872.236, 26.420
873.506, 67.406
874.775, 43.396
876.044, 81.387
877.313, 10.380
878.581, 43.374
879.849, 116.369
881.118, 10.367
882.386, 33.365
883.653, 53.375
884.921, 67.385
886.188, 50.395
887.455, 43.414
888.722, 31.354
889.989, 22.375
891.255, 55.396
892.522, 27.402
893.788, 41.364
895.054, 34.387
896.319, 68.415
897.585, 45.450
898.850, 77.486
900.115, 87.416
901.380, 43.442
902.645, 80.481
903.909, 81.521
905.174, 54.562
906.438, 68.604
907.701, 37.647
908.965, 114.609
910.229, 69.654
911.492, 64.700
912.755, 93.720
914.018, 72.782
915.280, 43.843
916.543, 40.907
917.805, 60.880
919.067, 19.948
920.329, 3.997
921.590, 78.978
922.852, 50.049
924.113, 33.737
925.374, 66.785
926.635, 58.845
927.895, 17.921
929.156, 96.727
930.416, 82.775
931.676, 76.854
932.936, 0.874
934.195, 59.605
935.454, 42.416
936.714, 26.768
937.973, 38.308
939.231, 0.703
940.490, 72.376
941.748, 54.458
943.006, 64.542
944.264, 60.627
945.522, 4.714
946.780, 31.733
948.037, 3.176
949.294, 30.840
950.551, 55.934
951.808, 40.724
953.064, 149.822
954.320, 92.922
955.577, 18.492
956.832, 50.525
958.088, 83.632
959.344, 79.740
960.599, 18.851
961.854, 55.964
963.109, 9.052
964.364, 34.169
965.618, 3.712
966.872, 63.878
968.127, 40.001
969.380, 26.873
970.634, 59.246
971.888, 28.079
973.141, 3.797
974.394, 29.292
975.647, 18.927
976.900, 13.199
978.152, 38.328
979.404, 27.541
980.656, 53.584
981.908, 83.719
983.160, 15.143
984.411, 80.972
985.663, 63.116
986.914, 112.263
988.165, 39.412
989.415, 103.573
990.666, 62.684
991.916, 0.854
993.166, 45.027
994.416, 81.206
995.665, 27.407
996.915, 106.611
998.164, 168.817
999.413, 202.027
1000.662, 244.239
1001.911, 176.455
1003.159, 243.672
1004.407, 125.893
1005.655, 138.116
1006.903, 90.357
1008.151, 151.584
1009.398, 107.815
1010.646, 125.048
1011.893, 147.283
1013.139, 144.521
1014.386, 121.761
1015.633, 157.003
1016.879, 198.896
1018.125, 130.143
1019.371, 174.392
1020.616, 175.643
1021.862, 216.896
1023.107, 187.153
1024.352, 124.437
1025.597, 170.698
1026.842, 177.547
1028.086, 173.812
1029.330, 159.079
1030.574, 141.379
1031.818, 157.661
1033.062, 125.386
1034.305, 135.694
1035.548, 154.975
1036.791, 88.917
1038.034, 192.207
1039.277, 127.499
1040.519, 151.792
1041.762, 166.088
1043.004, 149.387
1044.246, 148.687
1045.487, 130.916
1046.729, 171.684
1047.970, 148.991
1049.211, 221.378
1050.452, 198.829
1051.692, 274.158
1052.933, 186.500
1054.173, 173.843
1055.413, 276.187
1056.653, 192.615
1057.893, 185.971
1059.132, 276.328
1060.371, 226.717
1061.610, 350.092
1062.849, 335.787
1064.088, 523.165
1065.326, 702.543
1066.565, 641.016
1067.803, 640.452
1069.041, 460.841
1070.278, 610.240
1071.516, 626.632
1072.753, 679.044
1073.990, 916.441
1075.227, 1136.841
1076.464, 1452.243
1077.700, 2101.646
1078.936, 2974.052
1080.173, 5280.460
1081.408, 9077.876
1082.644, 15974.300
1083.880, 39020.723
1085.115, 55477.156
1086.350, 50282.469
1087.585, 30098.924
1088.820, 12715.364
1090.054, 5909.819
1091.288, 3124.277
1092.522, 1827.734
1093.756, 1321.193
1094.990, 915.652
1096.224, 729.112
1097.457, 728.517
1098.690, 462.982
1099.923, 472.519
1101.156, 496.988
1102.388, 311.457
1103.621, 413.927
1104.853, 324.446
1106.085, 288.008
1107.316, 321.482
1108.548, 266.958
1109.779, 266.433
1111.010, 187.909
1112.241, 203.385
1113.472, 216.889
1114.703, 186.304
1115.933, 184.788
1117.163, 232.459
1118.393, 258.950
1119.623, 390.434
1120.853, 429.920
1122.082, 385.347
1123.311, 231.833
1124.540, 215.747
1125.769, 149.235
1126.997, 227.723
1128.226, 62.205
1129.454, 182.715
1130.682, 135.203
1131.910, 88.279
1133.138, 169.820
1134.365, 125.308
1135.592, 95.796
1136.819, 103.283
1138.046, 43.781
1139.273, 124.790
1140.499, 79.275
1141.725, 29.912
1142.951, 147.254
1144.177, 40.739
1145.403, 125.351
1146.628, 94.834
1147.854, 56.316
1149.079, 69.987
1150.304, 61.467
1151.528, 60.027
1152.753, 79.659
1153.977, 10.135
1155.201, 56.678
1156.425, 82.150
1157.649, 32.623
1158.872, 67.092
1160.096, 74.717
1161.319, 37.184
1162.542, 66.648
1163.764, 9.889
1164.987, 121.566
1166.209, 70.073
1167.431, 57.524
1168.653, 98.980
1169.875, 82.693
1171.097, 13.139
1172.318, 76.582
1173.539, 7.978
1174.760, 23.455
1175.981, 63.886
1177.202, 13.315
1178.422, 18.741
1179.642, 37.016
1180.862, 15.383
1182.082, 89.781
1183.302, 23.744
1184.521, 43.634
1185.740, 40.175
1186.959, 72.547
1188.178, 44.102
1189.397, 44.622
1190.615, 48.986
1191.834, 11.483
1193.052, 19.965
1194.269, 60.369
1195.487, 15.878
1196.705, 5.207
1197.922, 96.530
1199.139, 34.412
1200.356, 46.729
1201.573, 90.073
1202.789, 18.263
1204.006, 52.569
1205.222, 66.004
1206.438, 35.201
1207.653, 41.974
1208.869, 43.659
1210.084, 77.601
1211.299, 139.908
1212.514, 21.673
1213.729, 31.040
1214.944, 145.286
1216.158, 16.765
1217.372, 105.003
1218.586, 39.417
1219.800, 74.648
1221.014, 64.501
1222.227, 50.740
1223.440, 90.990
1224.654, 70.587
1225.866, 52.011
1227.079, 76.844
1228.292, 83.883
1229.504, 104.215
1230.716, 109.417
1231.928, 71.484
1233.139, 134.753
1234.351, 122.953
1235.562, 67.216
1236.773, 170.411
1237.984, 67.604
1239.195, 86.795
1240.406, 160.983
1241.616, 80.169
1242.826, 112.352
1244.036, 90.533
1245.246, 36.850
1246.456, 128.026
1247.665, 110.198
1248.874, 104.367
1250.083, 43.534
1251.292, 33.698
1252.501, 75.948
1253.709, 106.106
1254.917, 82.261
1256.125, 156.414
1257.333, 107.562
1258.541, 49.736
1259.748, 181.876
1260.956, 101.987
1262.163, 16.095
1263.370, 158.198
1264.576, 99.302
1265.783, 107.400
1266.989, 98.496
1268.195, 72.588
1269.401, 164.676
1270.607, 117.763
1271.813, 117.847
1273.018, 216.927
1274.223, 54.006
1275.428, 190.083
1276.633, 100.154
1277.838, 47.225
1279.042, 130.287
1280.246, 95.345
1281.450, 77.392
1282.654, 58.435
1283.858, 7.473
1285.061, 73.503
1286.265, 25.529
1287.468, 62.477
1288.671, 99.475
1289.873, 31.422
1291.076, 92.351
1292.278, 125.254
1293.480, 20.148
1294.682, 68.037
1295.884, 42.910
1297.086, 25.775
1298.287, 69.634
1299.488, 46.468
1300.689, 88.312
1301.890, 136.145
1303.091, 85.953
1304.291, 25.754
1305.491, 67.533
1306.691, 103.306
1307.891, 168.072
1309.091, 128.186
1310.290, 49.940
1311.490, 122.688
1312.689, 61.429
1313.888, 13.164
1315.086, 159.889
1316.285, 106.585
1317.483, 114.298
1318.681, 89.417
1319.879, 71.116
1321.077, 105.809
1322.275, 120.463
1323.472, 0.133
1324.669, 61.352
1325.866, 147.985
1327.063, 5.361
1328.260, 81.625
1329.456, 19.259
1330.653, 74.885
1331.849, 16.503
1333.045, 22.115
1334.240, 61.718
1335.436, 18.316
1336.631, 17.983
1337.826, 96.105
1339.021, 57.314
1340.216, 67.183
1341.411, 74.613
1342.605, 31.835
1343.799, 75.701
1344.993, 49.235
1346.187, 21.234
1347.381, 103.210
1348.574, 24.729
1349.767, 37.757
1350.961, 0.727
1352.153, 38.224
1353.346, 122.402
1354.539, 40.899
1355.731, 17.602
1356.923, 24.805
1358.115, 108.304
1359.307, 3.804
1360.498, 113.197
1361.690, 10.755
1362.881, 70.253
1364.072, 4.053
1365.263, 49.597
1366.453, 46.141
1367.644, 0.304
1368.834, 7.267
1370.024, 20.146
1371.214, 7.575
1372.404, 23.013
1373.593, 62.621
1374.783, 23.914
1375.972, 37.951
1377.161, 57.842
1378.349, 38.729
1379.538, 98.609
1380.726, 84.484
1381.915, 74.353
1383.103, 178.143
1384.290, 57.999
1385.478, 102.705
1386.665, 114.547
1387.853, 22.383
1389.040, 79.183
1390.227, 89.006
1391.413, 78.614
1392.600, 153.424
1393.786, 106.228
1394.972, 35.026
1396.158, 142.818
1397.344, 67.578
1398.530, 148.295
1399.715, 74.068
1400.900, 50.822
1402.085, 80.944
1403.270, 62.493
1404.455, 112.012
1405.639, 102.684
1406.824, 143.107
1408.008, 81.460
1409.192, 124.022
1410.375, 89.667
1411.559, 89.099
1412.742, 169.734
1413.925, 89.370
1415.108, 186.933
1416.291, 85.185
1417.474, 116.811
1418.656, 158.439
1419.839, 119.069
1421.021, 161.495
1422.202, 212.140
1423.384, 189.170
1424.566, 183.562
1425.747, 303.682
1426.928, 153.054
1428.109, 313.446
1429.290, 364.409
1430.470, 493.823
1431.651, 928.296
1432.831, 1073.678
1434.011, 1369.021
1435.191, 1377.476
1436.370, 837.823
1437.550, 701.371
1438.729, 544.331
1439.908, 493.381
1441.087, 512.587
1442.266, 379.847
1443.444, 342.051
1444.623, 399.589
1445.801, 317.548
1446.979, 369.851
1448.157, 418.814
1449.334, 361.880
1450.512, 394.917
1451.689, 365.926
1452.866, 345.599
1454.043, 403.539
1455.220, 344.448
1456.396, 414.113
1457.573, 401.945
1458.749, 299.739
1459.925, 333.433
1461.100, 380.290
1462.276, 259.116
1463.451, 324.914
1464.627, 339.676
1465.802, 213.398
1466.977, 247.083
1468.151, 197.725
1469.326, 217.333
1470.500, 284.924
1471.674, 248.495
1472.848, 207.024
1474.022, 328.739
1475.195, 140.512
1476.369, 227.459
1477.542, 165.438
1478.715, 190.454
1479.888, 173.492
1481.061, 184.636
1482.233, 69.934
1483.405, 191.319
1484.577, 178.727
1485.749, 43.176
1486.921, 151.669
1488.093, 104.217
1489.264, 82.830
1490.435, 177.509
1491.606, 23.271
1492.777, 68.133
1493.948, 160.119
1495.118, 71.254
1496.288, 143.549
1497.459, 128.003
1498.628, 12.633
1499.798, 163.453
1500.968, 62.470
1502.137, 18.715
1503.306, 201.230
1504.475, 1.941
1505.644, 10.258
1506.813, 115.886
1507.981, 65.208
1509.149, 82.823
1510.318, 162.086
1511.485, 114.441
1512.653, 139.354
1513.821, 137.227
1514.988, 0.604
1516.155, 0.000
##END=



