##NAMES=Cancrinite
##RRUFFID=R050352
##IDEAL CHEMISTRY=(Na,Ca,[box])_8_(Al_6_Si_6_)O_24_(CO_3_,S^6+^O_4_)_2_&#183;2H_2_O
##LOCALITY=York River, quarry #2, Dungannon Township, Ontario, Canada
##OWNER=RRUFF
##SOURCE=California Institute of Technology
##DESCRIPTION=Pink fragment
##STATUS=The identification of this mineral has been confirmed by X-ray diffraction and chemical analysis
##URL=rruff.info/R050352
##MEASURED CHEMISTRY=(Na_6.07_Ca_1.62_[box]_0.31_)_Σ=8_(Al_0.99_Si_1.01_O_4_)_6_((CO_3_)_0.84_[box]_0.16_)_Σ=2_·2H_2_O
##PIN_ID=L01694
##ORIENTATION=Laser parallel to -c* (0 0 -1). Fiducial mark perpendicular to laser is parallel to a [1 0 0]
83.60200, 0.0000000E+00
84.83700, 247.8467
86.07200, 730.1162
87.30800, 1108.277
88.54200, 1431.235
89.77700, 1661.098
91.01200, 1729.388
92.24600, 1816.640
93.48000, 1694.820
94.71400, 1530.782
95.94800, 1322.639
97.18200, 1147.822
98.41600, 945.8516
99.64900, 811.8730
100.8830, 723.5840
102.1160, 572.9121
103.3490, 477.1724
104.5820, 382.9980
105.8150, 401.5278
107.0470, 695.4282
108.2800, 1003.309
109.5120, 1337.650
110.7440, 986.8418
111.9760, 627.1973
113.2080, 574.9678
114.4400, 632.3584
115.6710, 763.5454
116.9030, 713.7773
118.1340, 861.4561
119.3650, 956.8799
120.5960, 987.6274
121.8270, 984.4766
123.0580, 1153.499
124.2880, 1057.129
125.5190, 993.3301
126.7490, 958.6494
127.9790, 840.3818
129.2090, 781.6934
130.4390, 681.9727
131.6680, 612.7734
132.8980, 554.9707
134.1270, 512.2769
135.3560, 470.8867
136.5850, 486.7539
137.8140, 505.8374
139.0430, 549.1045
140.2710, 735.5171
141.5000, 819.0493
142.7280, 918.6885
143.9560, 658.4292
145.1840, 546.2671
146.4120, 388.1978
147.6390, 137.2178
148.8670, 13.32275
150.0940, 46.50879
151.3210, 97.22705
152.5490, 54.88770
153.7750, 136.4458
155.0020, 220.4043
156.2290, 176.3555
157.4550, 220.7666
158.6810, 149.8921
159.9080, 222.7700
161.1340, 211.5024
162.3590, 53.10986
163.5850, 40.60449
164.8110, 113.9971
166.0360, 60.29785
167.2610, 50.52441
168.4860, 155.3091
169.7110, 72.19385
170.9360, 219.1216
172.1610, 322.0845
173.3850, 391.0796
174.6100, 520.0981
175.8340, 508.1211
177.0580, 575.1230
178.2820, 823.0908
179.5050, 882.0239
180.7290, 1160.922
181.9520, 1314.790
183.1760, 1456.629
184.3990, 1559.440
185.6220, 1668.227
186.8450, 1893.988
188.0670, 1854.727
189.2900, 2233.442
190.5120, 2105.126
191.7340, 2235.667
192.9560, 2254.963
194.1780, 2394.937
195.4000, 2364.618
196.6220, 2407.029
197.8430, 2279.334
199.0640, 2149.521
200.2860, 1974.699
201.5070, 1940.890
202.7270, 1892.095
203.9480, 1734.313
205.1690, 1487.544
206.3890, 1192.787
207.6090, 1301.042
208.8290, 1179.307
210.0490, 1198.581
211.2690, 1175.863
212.4890, 1374.154
213.7080, 1484.453
214.9280, 1608.759
216.1470, 1735.073
217.3660, 1922.393
218.5850, 1979.718
219.8030, 2045.050
221.0220, 2373.387
222.2400, 2391.192
223.4590, 2462.944
224.6770, 2510.972
225.8950, 2569.984
227.1120, 2671.350
228.3300, 2651.668
229.5480, 2712.983
230.7650, 2758.036
231.9820, 2789.625
233.1990, 2961.987
234.4160, 2830.999
235.6330, 2966.319
236.8490, 2853.911
238.0660, 2991.213
239.2820, 2909.065
240.4980, 2883.148
241.7140, 2826.779
242.9300, 2668.798
244.1460, 2720.305
245.3610, 2795.706
246.5770, 2706.181
247.7920, 2783.491
249.0070, 2790.389
250.2220, 2984.146
251.4370, 3201.755
252.6510, 3359.229
253.8660, 3561.583
255.0800, 3699.833
256.2940, 3976.989
257.5080, 4399.060
258.7220, 4814.053
259.9360, 5534.978
261.1490, 5815.835
262.3630, 6143.635
263.5760, 6552.358
264.7890, 7424.800
266.0020, 7935.765
267.2150, 8738.246
268.4270, 9501.299
269.6400, 10264.05
270.8520, 10978.63
272.0640, 11628.07
273.2760, 12025.54
274.4880, 12337.03
275.7000, 12423.53
276.9120, 12107.04
278.1230, 11670.58
279.3340, 10929.12
280.5450, 10044.68
281.7560, 9035.247
282.9670, 7970.827
284.1780, 7396.416
285.3880, 6600.012
286.5980, 6221.616
287.8090, 5738.225
289.0190, 5833.839
290.2290, 5707.456
291.4380, 5799.078
292.6480, 5912.703
293.8570, 6117.328
295.0670, 6316.243
296.2760, 6278.874
297.4850, 6506.226
298.6930, 6549.312
299.9020, 6306.354
301.1110, 6184.183
302.3190, 5926.804
303.5270, 5496.650
304.7350, 4952.948
305.9430, 4584.686
307.1510, 4177.126
308.3580, 3652.512
309.5660, 3435.705
310.7730, 2936.308
311.9800, 2662.261
313.1870, 2384.827
314.3940, 2061.474
315.6010, 1905.108
316.8070, 1579.760
318.0130, 1589.396
319.2200, 1396.021
320.4260, 1285.646
321.6310, 1178.267
322.8370, 1171.873
324.0430, 1227.465
325.2480, 1231.056
326.4540, 1194.635
327.6590, 1484.207
328.8640, 1510.766
330.0680, 1406.308
331.2730, 1647.836
332.4780, 1671.349
333.6820, 1641.846
334.8860, 1781.328
336.0900, 1678.794
337.2940, 1551.245
338.4980, 1469.683
339.7010, 1335.109
340.9050, 1301.537
342.1080, 1297.955
343.3110, 1166.368
344.5140, 1206.773
345.7170, 1126.180
346.9200, 1039.576
348.1220, 1054.963
349.3240, 986.3374
350.5270, 855.7051
351.7290, 826.0601
352.9310, 696.5396
354.1320, 586.7344
355.3340, 488.0518
356.5350, 380.3545
357.7370, 312.6416
358.9380, 187.9136
360.1390, 137.1689
361.3400, 50.40527
362.5400, 11.37988
363.7410, 111.2002
364.9410, 117.0840
366.1410, 148.0347
367.3410, 316.0605
368.5410, 101.2134
369.7410, 1.502930
370.9400, 157.9229
372.1400, 66.56982
373.3390, 78.34424
374.5380, 131.2441
375.7370, 13.73926
376.9360, 144.3252
378.1350, 14.47461
379.3330, 45.21973
380.5310, 44.91748
381.7300, 68.56641
382.9280, 122.1704
384.1260, 103.7349
385.3230, 193.2554
386.5210, 114.7397
387.7180, 219.1831
388.9160, 238.5889
390.1130, 212.9556
391.3100, 241.2832
392.5060, 447.5732
393.7030, 629.8271
394.9000, 712.0454
396.0960, 746.2285
397.2920, 808.3760
398.4880, 952.4893
399.6840, 1080.568
400.8800, 1127.612
402.0750, 1104.624
403.2710, 957.6011
404.4660, 1091.546
405.6610, 910.4570
406.8560, 701.3354
408.0510, 764.1807
409.2450, 522.9951
410.4400, 612.7798
411.6340, 594.5596
412.8280, 611.2979
414.0220, 519.2441
415.2160, 556.9277
416.4100, 523.8389
417.6030, 669.5400
418.7970, 800.3931
419.9900, 978.7715
421.1830, 1079.844
422.3760, 1276.112
423.5690, 1582.292
424.7610, 1875.602
425.9540, 2191.140
427.1460, 2747.493
428.3380, 3290.582
429.5300, 4014.906
430.7220, 4942.694
431.9140, 5808.884
433.1050, 6890.631
434.2970, 8134.594
435.4880, 9439.506
436.6790, 10767.99
437.8700, 12302.16
439.0610, 13564.97
440.2510, 14290.89
441.4420, 14927.97
442.6320, 14743.86
443.8220, 14028.85
445.0120, 12838.65
446.2020, 11125.67
447.3910, 9695.718
448.5810, 8059.679
449.7700, 6656.997
450.9600, 5774.823
452.1490, 4978.470
453.3370, 4589.559
454.5260, 4337.108
455.7150, 4085.722
456.9030, 4023.762
458.0910, 4379.225
459.2800, 4516.360
460.4670, 4695.628
461.6550, 5007.964
462.8430, 5323.650
464.0300, 5439.090
465.2180, 5456.217
466.4050, 5514.438
467.5920, 5499.439
468.7790, 5205.847
469.9650, 5110.551
471.1520, 4677.575
472.3380, 4182.326
473.5250, 3752.337
474.7110, 3160.162
475.8970, 2769.989
477.0820, 2462.520
478.2680, 2098.168
479.4540, 1936.850
480.6390, 1619.609
481.8240, 1602.355
483.0090, 1464.961
484.1940, 1361.477
485.3780, 1356.116
486.5630, 1330.787
487.7470, 1354.799
488.9320, 1461.271
490.1160, 1523.518
491.3000, 1572.496
492.4830, 1601.507
493.6670, 1632.687
494.8500, 1647.829
496.0340, 1648.356
497.2170, 1614.232
498.4000, 1578.725
499.5820, 1564.930
500.7650, 1496.295
501.9480, 1404.431
503.1300, 1396.918
504.3120, 1421.601
505.4940, 1470.535
506.6760, 1590.589
507.8580, 1686.446
509.0390, 1886.661
510.2210, 2069.438
511.4020, 2345.841
512.5830, 2617.560
513.7640, 2973.288
514.9450, 3468.812
516.1250, 3833.557
517.3060, 4340.971
518.4860, 4874.546
519.6660, 5419.107
520.8460, 5797.775
522.0260, 6157.185
523.2060, 6237.133
524.3850, 6287.798
525.5650, 5819.164
526.7440, 5437.083
527.9230, 4867.710
529.1020, 4125.167
530.2810, 3418.642
531.4590, 2827.760
532.6380, 2336.853
533.8160, 2021.217
534.9940, 1671.379
536.1720, 1441.523
537.3500, 1188.637
538.5270, 1064.721
539.7050, 909.8530
540.8820, 887.8057
542.0590, 727.8057
543.2360, 651.7769
544.4130, 611.7197
545.5900, 499.6338
546.7660, 359.5361
547.9430, 273.4087
549.1190, 335.2539
550.2950, 306.0693
551.4710, 302.8555
552.6470, 262.6187
553.8220, 266.3711
554.9980, 211.1045
556.1730, 288.8174
557.3480, 208.5005
558.5230, 253.1504
559.6980, 211.6221
560.8730, 80.41699
562.0470, 148.0200
563.2220, 95.58789
564.3960, 111.1333
565.5700, 74.64209
566.7440, 20.11523
567.9170, 52.55371
569.0910, 109.9722
570.2640, 93.35791
571.4380, 124.7090
572.6110, 68.02686
573.7840, 168.3057
574.9570, 110.5684
576.1290, 116.7944
577.3020, 213.9810
578.4740, 43.13428
579.6460, 124.2466
580.8180, 90.32031
581.9900, 55.35400
583.1620, 100.3560
584.3330, 79.31982
585.5040, 132.2432
586.6760, 88.12695
587.8470, 90.72705
589.0180, 55.22754
590.1880, 39.49658
591.3590, 51.79248
592.5290, 128.6406
593.7000, 119.8452
594.8700, 7.811035
596.0400, 80.34082
597.2090, 7.599121
598.3790, 12.84326
599.5490, 105.6377
600.7180, 32.72949
601.8870, 16.78857
603.0560, 52.23486
604.2250, 32.90527
605.3940, 35.92578
606.5620, 14.72070
607.7300, 43.53564
608.8990, 1.645996
610.0670, 23.98926
611.2350, 21.75928
612.4020, 78.31445
613.5700, 15.01611
614.7370, 44.54443
615.9050, 35.96045
617.0720, 98.56689
618.2390, 61.89111
619.4060, 46.56055
620.5720, 19.97510
621.7390, 17.15918
622.9050, 44.70703
624.0710, 52.35303
625.2370, 14.63428
626.4030, 8.506836
627.5690, 37.77490
628.7340, 28.05859
629.9000, 72.84375
631.0650, 101.8071
632.2300, 6.701172
633.3950, 97.96191
634.5600, 105.5801
635.7240, 82.15039
636.8890, 145.6738
638.0530, 190.1499
639.2170, 249.5820
640.3810, 201.9717
641.5450, 142.3184
642.7080, 235.6182
643.8720, 78.87549
645.0350, 101.0918
646.1980, 218.2798
647.3610, 239.8086
648.5240, 155.0024
649.6870, 116.3306
650.8490, 71.36719
652.0120, 91.79590
653.1740, 78.49365
654.3360, 55.14746
655.4980, 57.18848
656.6600, 53.32031
657.8210, 22.21875
658.9830, 49.00684
660.1440, 5.825195
661.3050, 73.72363
662.4660, 176.5576
663.6270, 111.6328
664.7870, 75.77246
665.9480, 142.4238
667.1080, 85.37988
668.2680, 26.88379
669.4280, 135.4316
670.5880, 232.4492
671.7480, 205.9209
672.9070, 162.4355
674.0670, 303.7324
675.2260, 354.4912
676.3850, 348.7520
677.5440, 412.9014
678.7030, 461.2373
679.8610, 572.0400
681.0200, 614.1338
682.1780, 737.4092
683.3360, 874.6934
684.4940, 897.8633
685.6520, 984.7822
686.8090, 927.8086
687.9670, 894.0381
689.1240, 874.8584
690.2810, 986.9062
691.4380, 954.9131
692.5950, 966.0645
693.7520, 1057.195
694.9080, 1060.194
696.0650, 1134.787
697.2210, 1122.880
698.3770, 1164.059
699.5330, 1173.647
700.6880, 1182.253
701.8440, 1146.229
702.9990, 1080.856
704.1550, 997.3955
705.3100, 881.3105
706.4650, 859.3574
707.6190, 862.9033
708.7740, 870.0664
709.9290, 923.8643
711.0830, 917.7549
712.2370, 1048.799
713.3910, 1180.692
714.5450, 1268.959
715.6980, 1347.727
716.8520, 1667.292
718.0050, 1504.751
719.1580, 1370.730
720.3110, 1335.139
721.4640, 994.7119
722.6170, 848.5059
723.7700, 618.0723
724.9220, 401.7227
726.0740, 450.1895
727.2260, 338.6055
728.3780, 454.8838
729.5300, 315.6689
730.6810, 189.2148
731.8330, 238.9639
732.9840, 242.1055
734.1350, 190.5781
735.2860, 195.2168
736.4370, 253.0352
737.5880, 223.2510
738.7380, 227.9512
739.8880, 292.3916
741.0390, 358.0186
742.1890, 195.1211
743.3380, 410.1758
744.4880, 293.4746
745.6380, 378.9453
746.7870, 251.2881
747.9360, 418.6191
749.0850, 265.4131
750.2340, 330.7891
751.3830, 255.0820
752.5310, 284.9629
753.6800, 321.1055
754.8280, 243.8086
755.9760, 360.1016
757.1240, 207.0518
758.2720, 257.0186
759.4190, 323.4111
760.5670, 306.8643
761.7140, 445.4736
762.8610, 376.0527
764.0080, 499.4473
765.1550, 604.7676
766.3020, 620.4883
767.4480, 723.7402
768.5950, 808.9922
769.7410, 925.3311
770.8870, 985.0723
772.0330, 1009.590
773.1780, 1082.582
774.3240, 1073.470
775.4690, 1066.157
776.6140, 941.5078
777.7590, 736.9502
778.9040, 638.0752
780.0490, 497.5381
781.1940, 526.3447
782.3380, 456.4482
783.4820, 377.5996
784.6260, 216.1914
785.7700, 313.8252
786.9140, 267.0557
788.0580, 110.0752
789.2010, 253.8516
790.3450, 181.6621
791.4880, 194.3662
792.6310, 226.9180
793.7730, 182.7744
794.9160, 128.8672
796.0590, 146.1201
797.2010, 139.4326
798.3430, 110.4756
799.4850, 115.7783
800.6270, 48.45410
801.7690, 23.79980
802.9100, 11.06348
804.0520, 16.72852
805.1930, 139.2842
806.3340, 3.997070
807.4750, 231.0957
808.6160, 111.5498
809.7560, 89.83691
810.8970, 129.8857
812.0370, 19.63184
813.1770, 115.7744
814.3170, 131.1279
815.4570, 102.4258
816.5960, 6.672852
817.7360, 109.8555
818.8750, 54.98535
820.0140, 41.06055
821.1530, 57.07910
822.2920, 45.95605
823.4310, 67.91992
824.5690, 14.74121
825.7070, 93.50586
826.8460, 27.21484
827.9840, 4.129883
829.1220, 55.54004
830.2590, 24.04297
831.3970, 26.62207
832.5340, 75.72363
833.6710, 126.0166
834.8080, 84.74023
835.9450, 12.60547
837.0820, 54.53809
838.2190, 39.44434
839.3550, 35.62695
840.4910, 81.22656
841.6270, 4.031250
842.7630, 3.219727
843.8990, 57.52832
845.0350, 0.9238280
846.1700, 2.623047
847.3060, 2.115234
848.4410, 64.55273
849.5760, 61.05957
850.7100, 27.24023
851.8450, 139.4922
852.9800, 32.69824
854.1140, 112.5225
855.2480, 55.96094
856.3820, 145.0225
857.5160, 23.95996
858.6500, 35.99121
859.7830, 55.89551
860.9170, 74.75391
862.0500, 61.56543
863.1830, 62.33105
864.3160, 107.0498
865.4480, 134.7432
866.5810, 65.36230
867.7130, 43.43945
868.8460, 26.25293
869.9780, 39.93555
871.1100, 44.91211
872.2410, 113.0947
873.3730, 135.3115
874.5050, 77.36426
875.6360, 10.54297
876.7670, 5.766602
877.8980, 27.07031
879.0290, 75.92090
880.1590, 72.17188
881.2900, 18.62695
882.4200, 78.46777
883.5500, 54.57617
884.6800, 20.54883
885.8100, 1.678711
886.9400, 39.30762
888.0690, 54.57715
889.1990, 15.95020
890.3280, 99.85059
891.4570, 8.477539
892.5860, 41.33398
893.7140, 8.761719
894.8430, 106.3740
895.9710, 74.13477
897.1000, 49.86035
898.2280, 57.56250
899.3560, 51.26270
900.4830, 40.86914
901.6110, 81.47363
902.7380, 63.05664
903.8660, 95.60254
904.9930, 96.88477
906.1200, 19.53809
907.2460, 20.92871
908.3730, 142.2822
909.5000, 131.6045
910.6260, 230.8945
911.7520, 105.1543
912.8780, 130.3789
914.0040, 146.5664
915.1290, 303.7217
916.2550, 298.8555
917.3800, 487.9570
918.5050, 362.0342
919.6300, 494.1094
920.7550, 340.8145
921.8800, 485.8281
923.0040, 570.7100
924.1290, 520.9062
925.2530, 752.6797
926.3770, 672.1230
927.5010, 657.6064
928.6250, 792.2051
929.7480, 812.5977
930.8720, 955.7393
931.9950, 907.9277
933.1180, 974.0625
934.2410, 845.0498
935.3640, 886.0342
936.4860, 710.7100
937.6090, 758.2510
938.7310, 898.2129
939.8530, 789.8086
940.9750, 918.7832
942.0970, 921.6396
943.2180, 1102.953
944.3400, 1087.740
945.4610, 1137.410
946.5820, 1253.224
947.7030, 1478.499
948.8240, 1480.200
949.9450, 1558.936
951.0650, 1496.527
952.1860, 1579.347
953.3060, 1672.918
954.4260, 1672.248
955.5460, 1637.496
956.6650, 1580.786
957.7850, 1612.250
958.9040, 1570.530
960.0230, 1355.530
961.1420, 1324.866
962.2610, 1290.903
963.3800, 1274.905
964.4990, 1095.667
965.6170, 1263.392
966.7350, 1341.942
967.8530, 1331.067
968.9710, 1170.382
970.0890, 1342.255
971.2070, 1327.647
972.3240, 1440.399
973.4410, 1517.271
974.5580, 1567.198
975.6750, 1536.206
976.7920, 1601.607
977.9090, 1591.551
979.0250, 1468.080
980.1410, 1474.159
981.2580, 1550.460
982.3740, 1586.732
983.4890, 1694.547
984.6050, 1837.860
985.7200, 1963.482
986.8360, 2003.559
987.9510, 2137.749
989.0660, 2252.098
990.1810, 2279.771
991.2950, 2271.805
992.4100, 2223.451
993.5240, 2428.992
994.6390, 2356.602
995.7530, 2435.271
996.8660, 2589.869
997.9800, 2364.451
999.0940, 2648.271
1000.207, 2570.311
1001.320, 2623.178
1002.433, 2669.613
1003.546, 2531.820
1004.659, 2632.537
1005.772, 2514.562
1006.884, 2565.794
1007.996, 2483.217
1009.108, 2416.023
1010.220, 2372.625
1011.332, 2288.768
1012.444, 2237.516
1013.555, 2100.873
1014.666, 2104.506
1015.777, 1975.238
1016.888, 1866.191
1017.999, 1924.666
1019.110, 1761.254
1020.220, 1863.062
1021.331, 1824.396
1022.441, 1886.882
1023.551, 1926.687
1024.661, 1880.948
1025.770, 2076.105
1026.880, 2031.979
1027.989, 2251.035
1029.098, 2183.361
1030.207, 2446.318
1031.316, 2655.986
1032.425, 2956.815
1033.533, 3319.024
1034.642, 3703.506
1035.750, 4600.564
1036.858, 5631.451
1037.966, 7024.497
1039.073, 8620.963
1040.181, 10276.67
1041.288, 11768.59
1042.396, 12691.99
1043.503, 12759.10
1044.610, 12605.50
1045.716, 12907.51
1046.823, 13805.27
1047.929, 16363.66
1049.036, 20357.47
1050.142, 25354.17
1051.248, 30960.87
1052.353, 35910.45
1053.459, 40114.45
1054.564, 43087.69
1055.670, 44461.20
1056.775, 44637.09
1057.880, 42943.57
1058.985, 38866.54
1060.089, 33436.94
1061.194, 26598.70
1062.298, 19832.81
1063.402, 14350.94
1064.506, 9974.803
1065.610, 7455.645
1066.713, 5534.400
1067.817, 4528.146
1068.920, 3586.239
1070.023, 3167.346
1071.126, 2697.257
1072.229, 2275.629
1073.332, 2111.911
1074.435, 1896.115
1075.537, 1612.105
1076.639, 1683.294
1077.741, 1523.831
1078.843, 1559.420
1079.945, 1439.915
1081.046, 1399.974
1082.148, 1632.980
1083.249, 1586.917
1084.350, 1480.194
1085.451, 1752.842
1086.551, 1676.923
1087.652, 1742.836
1088.752, 1757.120
1089.853, 1817.324
1090.953, 1608.145
1092.053, 1668.941
1093.152, 1699.379
1094.252, 1472.287
1095.351, 1567.246
1096.451, 1603.001
1097.550, 1438.946
1098.649, 1276.788
1099.748, 1291.418
1100.846, 1165.914
1101.945, 1240.585
1103.043, 1105.057
1104.141, 1084.488
1105.239, 1006.017
1106.337, 990.5273
1107.434, 754.6465
1108.532, 748.5469
1109.629, 664.5059
1110.726, 592.3906
1111.823, 632.6670
1112.920, 512.0361
1114.017, 461.4307
1115.113, 478.2930
1116.210, 559.5654
1117.306, 734.3428
1118.402, 745.4268
1119.498, 1001.515
1120.593, 771.5742
1121.689, 1054.813
1122.784, 1203.105
1123.879, 969.7627
1124.974, 872.8662
1126.069, 621.5830
1127.164, 640.3213
1128.259, 445.1758
1129.353, 339.6855
1130.447, 206.2227
1131.541, 178.3555
1132.635, 146.8877
1133.729, 228.4131
1134.822, 61.43750
1135.916, 213.8887
1137.009, 66.02832
1138.102, 94.18945
1139.195, 67.46387
1140.288, 13.06348
1141.380, 210.9258
1142.473, 1.197266
1143.565, 98.78125
1144.657, 23.27344
1145.749, 176.7578
1146.841, 68.04297
1147.932, 79.85352
1149.024, 19.87695
1150.115, 134.4746
1151.206, 41.47266
1152.297, 59.85742
1153.388, 61.18750
1154.479, 73.54883
1155.569, 45.21680
1156.659, 122.5371
1157.750, 72.42578
1158.839, 57.02344
1159.929, 23.74805
1161.019, 76.34961
1162.108, 117.6367
1163.198, 16.26172
1164.287, 221.1562
1165.376, 10.52734
1166.465, 42.16602
1167.553, 60.66992
1168.642, 56.95117
1169.730, 188.4863
1170.818, 56.63672
1171.906, 8.880859
1172.994, 12.34570
1174.082, 67.00000
1175.170, 103.1465
1176.257, 64.46289
1177.344, 149.7754
1178.431, 9.277344
1179.518, 16.83789
1180.605, 16.51367
1181.691, 11.34961
1182.778, 92.83398
1183.864, 171.7715
1184.950, 108.9707
1186.036, 75.72656
1187.122, 188.0000
1188.207, 36.77734
1189.292, 162.1250
1190.378, 42.12305
1191.463, 1.203125
1192.548, 5.363281
1193.632, 102.7852
1194.717, 161.0156
1195.801, 161.2676
1196.886, 177.7051
1197.970, 184.3496
1199.054, 104.6836
1200.137, 97.02344
1201.221, 0.9472660
1202.305, 22.16211
1203.388, 47.45508
1204.471, 61.36523
1205.554, 108.8672
1206.637, 56.58789
1207.719, 207.6582
1208.802, 190.6172
1209.884, 208.5195
1210.966, 71.04492
1212.048, 391.4121
1213.130, 89.58789
1214.212, 241.7734
1215.293, 148.6914
1216.374, 34.05859
1217.456, 75.17383
1218.536, 220.1641
1219.617, 234.0430
1220.698, 331.0781
1221.778, 358.2148
1222.859, 166.7520
1223.939, 48.59180
1225.019, 270.3848
1226.099, 75.63867
1227.178, 268.3223
1228.258, 50.97852
1229.337, 119.9082
1230.417, 102.6309
1231.496, 78.25391
1232.574, 126.1777
1233.653, 130.6797
1234.732, 107.0195
1235.810, 104.3867
1236.888, 195.5801
1237.966, 240.8125
1239.044, 220.9824
1240.122, 233.0879
1241.199, 137.1250
1242.277, 109.0977
1243.354, 7.998047
1244.431, 0.1816410
1245.508, 112.5547
1246.585, 228.2188
1247.661, 147.8184
1248.738, 139.3516
1249.814, 138.8164
1250.890, 88.20898
1251.966, 68.53125
1253.042, 211.7793
1254.117, 99.95898
1255.193, 185.0645
1256.268, 172.1016
1257.343, 136.0645
1258.418, 210.6074
