##NAMES=Cancrinite
##RRUFFID=R050352
##IDEAL CHEMISTRY=(Na,Ca,[box])_8_(Al_6_Si_6_)O_24_(CO_3_,S^6+^O_4_)_2_&#183;2H_2_O
##LOCALITY=York River, quarry #2, Dungannon Township, Ontario, Canada
##OWNER=RRUFF
##SOURCE=California Institute of Technology
##DESCRIPTION=Pink fragment
##STATUS=The identification of this mineral has been confirmed by X-ray diffraction and chemical analysis
##URL=rruff.info/R050352
##MEASURED CHEMISTRY=(Na_6.07_Ca_1.62_[box]_0.31_)_Σ=8_(Al_0.99_Si_1.01_O_4_)_6_((CO_3_)_0.84_[box]_0.16_)_Σ=2_·2H_2_O
##PIN_ID=M00367
##ORIENTATION=Laser parallel to a* (1 0 0). Fiducial mark perpendicular to laser is parallel to c [0 0 1]
170.9360, 0.0000000E+00
172.1610, 150.1240
173.3850, 138.1602
174.6100, 151.5469
175.8340, 89.51270
177.0580, 49.73340
178.2820, 79.16895
179.5050, 129.5146
180.7290, 56.16797
181.9520, 62.06250
183.1760, 174.7188
184.3990, 126.5781
185.6220, 200.8555
186.8450, 147.8926
188.0670, 485.0020
189.2900, 417.5215
190.5120, 537.8516
191.7340, 703.4473
192.9560, 767.8379
194.1780, 1121.613
195.4000, 1138.424
196.6220, 1492.002
197.8430, 1583.615
199.0640, 2037.654
200.2860, 2475.789
201.5070, 2840.586
202.7270, 3319.686
203.9480, 3786.797
205.1690, 4368.676
206.3890, 4877.109
207.6090, 5585.926
208.8290, 6371.955
210.0490, 6947.041
211.2690, 7854.072
212.4890, 8688.951
213.7080, 9549.602
214.9280, 10482.97
216.1470, 11352.00
217.3660, 11887.66
218.5850, 12638.90
219.8030, 13061.69
221.0220, 13370.00
222.2400, 13984.74
223.4590, 14070.63
224.6770, 13941.22
225.8950, 13943.52
227.1120, 13671.28
228.3300, 13575.50
229.5480, 12980.22
230.7650, 12586.49
231.9820, 12070.34
233.1990, 11433.82
234.4160, 11114.95
235.6330, 10493.76
236.8490, 9509.266
238.0660, 9198.496
239.2820, 8770.473
240.4980, 8265.203
241.7140, 7901.719
242.9300, 7565.029
244.1460, 7487.107
245.3610, 7249.832
246.5770, 7484.215
247.7920, 7669.291
249.0070, 7894.131
250.2220, 8564.820
251.4370, 8965.398
252.6510, 9646.912
253.8660, 10569.38
255.0800, 11551.82
256.2940, 12911.25
257.5080, 14309.70
258.7220, 16030.07
259.9360, 18204.67
261.1490, 20109.22
262.3630, 22380.82
263.5760, 25022.46
264.7890, 27593.16
266.0020, 30555.93
267.2150, 33511.76
268.4270, 36379.64
269.6400, 38708.61
270.8520, 40903.62
272.0640, 42548.55
273.2760, 43150.79
274.4880, 42969.21
275.7000, 42119.73
276.9120, 39704.77
278.1230, 36773.09
279.3340, 32924.76
280.5450, 29195.95
281.7560, 25615.19
282.9670, 22348.54
284.1780, 19804.84
285.3880, 17661.28
286.5980, 16334.84
287.8090, 15242.52
289.0190, 15132.33
290.2290, 15287.24
291.4380, 15474.26
292.6480, 15948.40
293.8570, 16215.63
295.0670, 16510.96
296.2760, 16878.38
297.4850, 16788.86
298.6930, 16948.40
299.9020, 16754.97
301.1110, 16122.57
302.3190, 15228.25
303.5270, 14270.98
304.7350, 12912.76
305.9430, 11802.58
307.1510, 10522.45
308.3580, 9351.352
309.5660, 8426.301
310.7730, 7554.283
311.9800, 6505.301
313.1870, 5752.369
314.3940, 5038.549
315.6010, 4706.816
316.8070, 4232.869
318.0130, 3738.717
319.2200, 3736.334
320.4260, 3420.758
321.6310, 3473.141
322.8370, 3365.414
324.0430, 3475.744
325.2480, 3847.395
326.4540, 4197.590
327.6590, 4611.357
328.8640, 5044.605
330.0680, 5699.285
331.2730, 6217.365
332.4780, 7070.807
333.6820, 7633.570
334.8860, 8416.641
336.0900, 9307.020
337.2940, 10380.66
338.4980, 11705.56
339.7010, 13110.69
340.9050, 14655.03
342.1080, 16292.57
343.3110, 17639.34
344.5140, 19301.30
345.7170, 20332.45
346.9200, 20612.74
348.1220, 20648.18
349.3240, 19870.73
350.5270, 18763.37
351.7290, 17308.15
352.9310, 15177.03
354.1320, 13607.99
355.3340, 11524.07
356.5350, 9738.244
357.7370, 8041.473
358.9380, 6646.789
360.1390, 5360.156
361.3400, 4279.586
362.5400, 3358.061
363.7410, 2544.580
364.9410, 2037.137
366.1410, 1307.727
367.3410, 1005.342
368.5410, 588.9609
369.7410, 314.5547
370.9400, 57.10742
372.1400, 81.60547
373.3390, 371.9375
374.5380, 285.6426
375.7370, 476.4844
376.9360, 551.5156
378.1350, 575.7578
379.3330, 697.2227
380.5310, 689.9395
381.7300, 561.9043
382.9280, 687.0859
384.1260, 563.5215
385.3230, 351.1738
386.5210, 517.9922
387.7180, 279.0195
388.9160, 173.1914
390.1130, 6.478516
391.3100, 55.16016
392.5060, 249.7441
393.7030, 438.2871
394.9000, 570.7969
396.0960, 1003.270
397.2920, 1266.707
398.4880, 1563.109
399.6840, 1912.475
400.8800, 2337.805
402.0750, 2965.094
403.2710, 3575.350
404.4660, 4300.482
405.6610, 5235.738
406.8560, 6024.875
408.0510, 6932.973
409.2450, 8077.023
410.4400, 9251.039
411.6340, 10606.62
412.8280, 12110.04
414.0220, 13145.95
415.2160, 13974.92
416.4100, 15157.70
417.6030, 15344.57
418.7970, 15098.44
419.9900, 14526.00
421.1830, 13643.11
422.3760, 12405.24
423.5690, 11257.53
424.7610, 9805.639
425.9540, 8435.229
427.1460, 7425.293
428.3380, 6511.783
429.5300, 5493.459
430.7220, 4819.553
431.9140, 4268.090
433.1050, 3611.365
434.2970, 3556.701
435.4880, 3218.896
436.6790, 2900.346
437.8700, 2610.803
439.0610, 2496.553
440.2510, 2414.873
441.4420, 2245.551
442.6320, 2245.092
443.8220, 2328.754
445.0120, 2498.998
446.2020, 2797.697
447.3910, 3187.295
448.5810, 3736.908
449.7700, 4380.783
450.9600, 5228.488
452.1490, 6570.053
453.3370, 8052.713
454.5260, 9481.445
455.7150, 11341.91
456.9030, 13146.69
458.0910, 14979.35
459.2800, 16154.57
460.4670, 16693.83
461.6550, 16188.01
462.8430, 15723.86
464.0300, 14409.39
465.2180, 13424.90
466.4050, 11723.57
467.5920, 10390.06
468.7790, 9483.109
469.9650, 8498.037
471.1520, 7947.652
472.3380, 7396.734
473.5250, 7288.527
474.7110, 7067.988
475.8970, 7170.412
477.0820, 7353.031
478.2680, 7673.359
479.4540, 7929.980
480.6390, 8659.904
481.8240, 9313.574
483.0090, 9991.613
484.1940, 11131.93
485.3780, 12010.34
486.5630, 13397.86
487.7470, 14721.80
488.9320, 15705.85
490.1160, 17217.38
491.3000, 18662.63
492.4830, 19531.44
493.6670, 20756.97
494.8500, 21247.49
496.0340, 21651.54
497.2170, 22067.34
498.4000, 21687.24
499.5820, 21376.44
500.7650, 20837.56
501.9480, 19667.14
503.1300, 18678.55
504.3120, 17561.97
505.4940, 16350.76
506.6760, 15175.79
507.8580, 14108.61
509.0390, 12928.14
510.2210, 12049.88
511.4020, 10945.42
512.5830, 10132.46
513.7640, 9596.355
514.9450, 8533.742
516.1250, 7912.693
517.3060, 7217.865
518.4860, 6496.656
519.6660, 5887.879
520.8460, 5279.848
522.0260, 4797.648
523.2060, 4339.285
524.3850, 3892.908
525.5650, 3603.352
526.7440, 3134.410
527.9230, 2809.420
529.1020, 2528.709
530.2810, 2167.752
531.4590, 1932.199
532.6380, 1742.873
533.8160, 1632.934
534.9940, 1601.680
536.1720, 1462.482
537.3500, 1298.201
538.5270, 1110.842
539.7050, 1079.404
540.8820, 912.9043
542.0590, 875.3223
543.2360, 774.6582
544.4130, 741.0137
545.5900, 783.1660
546.7660, 707.2949
547.9430, 695.3379
549.1190, 664.2988
550.2950, 486.2070
551.4710, 529.0586
552.6470, 339.8281
553.8220, 373.5059
554.9980, 484.0977
556.1730, 461.6387
557.3480, 591.0918
558.5230, 389.4766
559.6980, 275.7734
560.8730, 451.0000
562.0470, 188.6328
563.2220, 293.7051
564.3960, 157.6934
565.5700, 381.7051
566.7440, 246.6055
567.9170, 368.9160
569.0910, 504.1230
570.2640, 217.0469
571.4380, 9.070313
572.6110, 63.47070
573.7840, 303.0586
574.9570, 82.39258
576.1290, 97.37305
577.3020, 249.4863
578.4740, 65.23633
579.6460, 168.5859
580.8180, 74.31836
581.9900, 175.1074
583.1620, 52.47266
584.3330, 168.1660
585.5040, 131.5801
586.6760, 146.0059
587.8470, 93.07031
589.0180, 156.3867
590.1880, 106.1758
591.3590, 123.5527
592.5290, 40.48047
593.7000, 34.65039
594.8700, 57.41797
596.0400, 5.863281
597.2090, 25.77539
598.3790, 73.91602
599.5490, 3.773438
600.7180, 11.23438
601.8870, 49.12500
603.0560, 14.88086
604.2250, 29.76367
605.3940, 73.70508
606.5620, 2.660156
607.7300, 104.8965
608.8990, 49.02930
610.0670, 50.95117
611.2350, 0.9121090
612.4020, 142.6406
613.5700, 3.732422
614.7370, 76.76367
615.9050, 261.1445
617.0720, 53.42383
618.2390, 64.40820
619.4060, 22.41016
620.5720, 26.44141
621.7390, 25.83594
622.9050, 73.76172
624.0710, 38.76367
625.2370, 105.4473
626.4030, 108.7070
627.5690, 116.9395
628.7340, 24.63867
629.9000, 50.04492
631.0650, 22.39062
632.2300, 39.69922
633.3950, 119.1055
634.5600, 9.109375
635.7240, 81.75000
636.8890, 208.5020
638.0530, 20.99609
639.2170, 186.3652
640.3810, 76.38086
641.5450, 79.70312
642.7080, 21.32812
643.8720, 74.50391
645.0350, 30.21875
646.1980, 94.81836
647.3610, 113.3086
648.5240, 157.6895
649.6870, 91.96094
650.8490, 103.1230
652.0120, 201.1758
653.1740, 131.1230
654.3360, 49.96680
655.4980, 222.7031
656.6600, 28.45508
657.8210, 211.1914
658.9830, 340.9727
660.1440, 442.8262
661.3050, 500.7598
662.4660, 341.8789
663.6270, 524.0391
664.7870, 536.4141
665.9480, 507.9141
667.1080, 758.1660
668.2680, 693.9004
669.4280, 746.2598
670.5880, 570.1113
671.7480, 978.1641
672.9070, 1083.881
674.0670, 1256.422
675.2260, 1177.256
676.3850, 1210.002
677.5440, 1441.908
678.7030, 1413.754
679.8610, 1508.201
681.0200, 1406.443
682.1780, 1457.598
683.3360, 1498.242
684.4940, 1250.668
685.6520, 1486.639
686.8090, 860.0801
687.9670, 1053.119
689.1240, 1034.543
690.2810, 1045.914
691.4380, 723.5781
692.5950, 750.4199
693.7520, 711.1602
694.9080, 660.6680
696.0650, 752.7891
697.2210, 625.7578
698.3770, 696.3555
699.5330, 720.8105
700.6880, 477.4766
701.8440, 619.9883
702.9990, 593.8184
704.1550, 347.3652
705.3100, 628.0723
706.4650, 487.3633
707.6190, 500.3809
708.7740, 550.7324
709.9290, 540.3164
711.0830, 591.3770
712.2370, 319.6484
713.3910, 360.5410
714.5450, 440.5234
715.6980, 386.2578
716.8520, 452.0020
718.0050, 522.8047
719.1580, 410.0332
720.3110, 611.7070
721.4640, 450.8145
722.6170, 348.4258
723.7700, 391.9590
724.9220, 365.7148
726.0740, 429.0137
727.2260, 361.7715
728.3780, 464.3867
729.5300, 538.4414
730.6810, 727.0977
731.8330, 536.9668
732.9840, 566.9238
734.1350, 747.2520
735.2860, 560.8828
736.4370, 662.3906
737.5880, 632.5566
738.7380, 897.3906
739.8880, 632.3359
741.0390, 547.0391
742.1890, 753.0312
743.3380, 894.1230
744.4880, 747.1855
745.6380, 772.7656
746.7870, 1127.322
747.9360, 1145.977
749.0850, 1162.617
750.2340, 1200.484
751.3830, 1328.799
752.5310, 1351.188
753.6800, 1427.389
754.8280, 1588.504
755.9760, 1851.377
757.1240, 2047.936
758.2720, 2155.180
759.4190, 2570.146
760.5670, 2728.059
761.7140, 3407.186
762.8610, 3986.885
764.0080, 4519.352
765.1550, 5372.768
766.3020, 6349.383
767.4480, 7255.740
768.5950, 8201.453
769.7410, 9247.295
770.8870, 9961.426
772.0330, 10470.66
773.1780, 10306.76
774.3240, 10075.16
775.4690, 9248.664
776.6140, 8240.896
777.7590, 7113.674
778.9040, 5982.363
780.0490, 4972.438
781.1940, 4293.520
782.3380, 3472.434
783.4820, 2934.801
784.6260, 2508.766
785.7700, 1871.789
786.9140, 1670.936
788.0580, 1511.707
789.2010, 1176.500
790.3450, 1135.643
791.4880, 962.4336
792.6310, 747.6309
793.7730, 863.6855
794.9160, 573.5469
796.0590, 621.4316
797.2010, 497.7969
798.3430, 650.5273
799.4850, 433.4355
800.6270, 564.6152
801.7690, 280.4883
802.9100, 311.3438
804.0520, 254.0020
805.1930, 144.7070
806.3340, 251.3320
807.4750, 135.8789
808.6160, 322.3496
809.7560, 148.7441
810.8970, 29.94336
812.0370, 319.2676
813.1770, 317.4023
814.3170, 16.46484
815.4570, 10.44336
816.5960, 52.66211
817.7360, 106.1172
818.8750, 103.8203
820.0140, 140.5586
821.1530, 231.9043
822.2920, 78.29102
823.4310, 180.5996
824.5690, 14.83203
825.7070, 98.00781
826.8460, 82.98242
827.9840, 33.91406
829.1220, 58.73633
830.2590, 91.48828
831.3970, 124.8320
832.5340, 36.70508
833.6710, 39.83398
834.8080, 38.52734
835.9450, 66.16602
837.0820, 43.97070
838.2190, 19.65234
839.3550, 23.68164
840.4910, 179.3555
841.6270, 89.49219
842.7630, 264.0566
843.8990, 51.78320
845.0350, 2.320313
846.1700, 84.56250
847.3060, 10.28125
848.4410, 5.958984
849.5760, 16.15820
850.7100, 149.6172
851.8450, 9.761719
852.9800, 154.8496
854.1140, 108.1523
855.2480, 142.6953
856.3820, 106.7090
857.5160, 125.5117
858.6500, 5.582031
859.7830, 201.1641
860.9170, 83.87695
862.0500, 180.4219
863.1830, 137.8203
864.3160, 60.49805
865.4480, 99.19727
866.5810, 202.1543
867.7130, 152.4082
868.8460, 75.26953
869.9780, 5.791016
871.1100, 133.3379
872.2410, 292.2246
873.3730, 130.2871
874.5050, 282.3359
875.6360, 0.6425780
876.7670, 26.33789
877.8980, 8.056641
879.0290, 33.00586
880.1590, 19.91016
881.2900, 64.40625
882.4200, 85.74414
883.5500, 137.4629
884.6800, 138.2305
885.8100, 125.0176
886.9400, 112.6992
888.0690, 129.3730
889.1990, 219.0352
890.3280, 212.6543
891.4570, 189.2402
892.5860, 296.8633
893.7140, 266.4805
894.8430, 224.1094
895.9710, 20.70312
897.1000, 432.2773
898.2280, 448.8184
899.3560, 316.3516
900.4830, 264.8926
901.6110, 363.4355
902.7380, 449.0078
903.8660, 596.5645
904.9930, 378.1152
906.1200, 502.6406
907.2460, 606.1387
908.3730, 823.6621
909.5000, 1015.170
910.6260, 958.6484
911.7520, 1207.162
912.8780, 1281.656
914.0040, 1476.121
915.1290, 1799.584
916.2550, 1826.020
917.3800, 2256.441
918.5050, 2500.834
919.6300, 2737.205
920.7550, 3228.545
921.8800, 3667.855
923.0040, 3937.133
924.1290, 4540.383
925.2530, 4915.605
926.3770, 5544.826
927.5010, 5769.018
928.6250, 6062.180
929.7480, 6629.311
930.8720, 6404.418
931.9950, 6602.490
933.1180, 6622.537
934.2410, 6467.547
935.3640, 5919.449
936.4860, 5941.391
937.6090, 5639.598
938.7310, 5553.904
939.8530, 5185.938
940.9750, 5295.490
942.0970, 5220.455
943.2180, 5713.902
944.3400, 6142.104
945.4610, 6486.111
946.5820, 7267.621
947.7030, 7985.719
948.8240, 8646.773
949.9450, 9590.590
951.0650, 10651.29
952.1860, 11061.16
953.3060, 11868.36
954.4260, 11915.65
955.5460, 11990.05
956.6650, 11731.54
957.7850, 11131.36
958.9040, 10495.80
960.0230, 10191.77
961.1420, 9763.379
962.2610, 9274.088
963.3800, 8891.508
964.4990, 8844.703
965.6170, 8718.215
966.7350, 8515.523
967.8530, 8374.797
968.9710, 8495.355
970.0890, 8362.658
971.2070, 8610.594
972.3240, 8350.703
973.4410, 8482.576
974.5580, 8568.258
975.6750, 8766.889
976.7920, 8391.275
977.9090, 8263.949
979.0250, 8408.742
980.1410, 8275.945
981.2580, 8343.422
982.3740, 8347.965
983.4890, 8556.102
984.6050, 8568.027
985.7200, 8778.840
986.8360, 8817.898
987.9510, 9003.553
989.0660, 8593.033
990.1810, 8882.646
991.2950, 8277.096
992.4100, 8220.605
993.5240, 8051.602
994.6390, 7842.406
995.7530, 7716.578
996.8660, 7427.844
997.9800, 7365.650
999.0940, 7338.041
1000.207, 7182.004
1001.320, 6951.900
1002.433, 6804.832
1003.546, 6503.430
1004.659, 6390.479
1005.772, 6428.906
1006.884, 6166.137
1007.996, 5934.688
1009.108, 6080.627
1010.220, 5626.281
1011.332, 5280.184
1012.444, 4878.463
1013.555, 4668.322
1014.666, 4487.516
1015.777, 4239.623
1016.888, 4044.326
1017.999, 3695.102
1019.110, 3298.188
1020.220, 3281.217
1021.331, 3116.680
1022.441, 3068.248
1023.551, 2944.703
1024.661, 2620.295
1025.770, 2497.098
1026.880, 2410.719
1027.989, 2150.254
1029.098, 2117.713
1030.207, 2016.826
1031.316, 2029.324
1032.425, 2165.209
1033.533, 2274.699
1034.642, 2652.605
1035.750, 3023.424
1036.858, 3538.086
1037.966, 4068.131
1039.073, 5003.551
1040.181, 5616.258
1041.288, 6551.020
1042.396, 6378.605
1043.503, 6251.225
1044.610, 5977.145
1045.716, 6428.113
1046.823, 7248.828
1047.929, 8639.387
1049.036, 10717.74
1050.142, 13225.35
1051.248, 15532.73
1052.353, 17449.97
1053.459, 18868.31
1054.564, 19227.36
1055.670, 19211.89
1056.775, 18794.86
1057.880, 17127.31
1058.985, 14958.61
1060.089, 11984.32
1061.194, 9365.797
1062.298, 6559.449
1063.402, 4537.039
1064.506, 3167.822
1065.610, 2126.867
1066.713, 1568.562
1067.817, 1159.619
1068.920, 799.3457
1070.023, 710.1465
1071.126, 695.4648
1072.229, 628.9043
1073.332, 435.3242
1074.435, 547.6523
1075.537, 430.1992
1076.639, 360.2773
1077.741, 116.0020
1078.843, 281.6934
1079.945, 250.3711
1081.046, 421.0156
1082.148, 240.6309
1083.249, 329.2148
1084.350, 39.88477
1085.451, 218.4180
1086.551, 188.9824
1087.652, 412.8555
1088.752, 405.4590
1089.853, 339.9062
1090.953, 208.3203
1092.053, 15.17578
1093.152, 116.1621
1094.252, 75.80273
1095.351, 44.99023
1096.451, 118.7461
1097.550, 71.73047
1098.649, 18.25391
1099.748, 66.22852
1100.846, 37.40039
1101.945, 70.45703
1103.043, 68.93945
1104.141, 83.28320
1105.239, 122.9902
1106.337, 11.02148
1107.434, 83.72461
1108.532, 59.73633
1109.629, 171.1934
1110.726, 55.15430
1111.823, 0.5703130
1112.920, 81.42773
1114.017, 11.98047
1115.113, 159.1484
1116.210, 90.77148
1117.306, 361.4551
1118.402, 368.2305
1119.498, 349.0898
1120.593, 318.4512
1121.689, 444.1895
1122.784, 544.9824
1123.879, 758.5938
1124.974, 481.5742
1126.069, 491.5547
1127.164, 465.6914
1128.259, 201.9180
1129.353, 59.13867
1130.447, 19.50781
1131.541, 159.3320
1132.635, 274.3438
1133.729, 214.3008
1134.822, 214.2188
1135.916, 202.0820
1137.009, 67.90625
1138.102, 32.98828
1139.195, 34.75391
1140.288, 92.39844
1141.380, 98.21484
1142.473, 82.21484
1143.565, 166.7305
1144.657, 110.9727
1145.749, 18.42969
1146.841, 81.52344
1147.932, 209.6328
1149.024, 241.4883
1150.115, 164.4453
1151.206, 162.6406
1152.297, 44.70312
1153.388, 26.67578
1154.479, 147.8086
1155.569, 4.085938
1156.659, 264.7148
1157.750, 178.4883
1158.839, 79.71484
1159.929, 137.7773
1161.019, 16.43750
1162.108, 179.8203
1163.198, 69.76562
1164.287, 102.6055
1165.376, 316.6250
1166.465, 27.28125
1167.553, 177.0781
1168.642, 79.40234
1169.730, 223.9844
1170.818, 148.6445
1171.906, 26.72266
1172.994, 167.9609
1174.082, 154.8438
1175.170, 315.4531
1176.257, 297.5938
1177.344, 113.2734
1178.431, 416.1836
1179.518, 186.6680
1180.605, 118.9492
1181.691, 167.4609
1182.778, 194.9062
1183.864, 166.9648
1184.950, 227.6211
1186.036, 353.0703
1187.122, 240.8555
1188.207, 117.5430
1189.292, 67.71484
1190.378, 282.9375
1191.463, 331.8281
1192.548, 283.9609
1193.632, 292.3633
1194.717, 238.7305
1195.801, 168.5898
1196.886, 245.2305
1197.970, 391.6367
1199.054, 224.4531
1200.137, 199.1602
1201.221, 69.81250
1202.305, 273.1133
1203.388, 270.2344
1204.471, 286.2500
1205.554, 227.0000
1206.637, 332.4258
1207.719, 418.0898
1208.802, 433.1250
1209.884, 460.7656
1210.966, 447.4180
1212.048, 426.2461
1213.130, 425.8906
1214.212, 389.0703
1215.293, 487.7109
1216.374, 403.6016
1217.456, 322.5312
1218.536, 151.0078
1219.617, 441.7188
1220.698, 472.0469
1221.778, 155.2070
1222.859, 430.3750
1223.939, 349.5508
1225.019, 491.5273
1226.099, 343.2617
1227.178, 250.2344
1228.258, 113.1484
1229.337, 246.7344
1230.417, 508.0352
1231.496, 455.4648
1232.574, 351.8594
1233.653, 360.6172
1234.732, 267.8359
1235.810, 477.0117
1236.888, 43.66797
1237.966, 178.7500
1239.044, 401.0312
1240.122, 296.0586
1241.199, 51.55078
1242.277, 362.5391
1243.354, 39.73047
1244.431, 291.7422
1245.508, 174.2891
1246.585, 149.4688
1247.661, 129.3906
1248.738, 100.5703
1249.814, 87.67969
1250.890, 111.9375
1251.966, 328.4805
1253.042, 362.9492
1254.117, 265.3438
1255.193, 256.3867
1256.268, 209.7383
1257.343, 31.88672
1258.418, 170.6055
1259.493, 131.5586
1260.567, 249.6641
1261.642, 518.8711
1262.716, 436.4844
1263.790, 557.6484
1264.864, 499.5234
1265.938, 465.0664
1267.011, 361.5156
1268.085, 9.734375
1269.158, 39.85156
1270.231, 31.12109
1271.304, 91.31641
1272.377, 79.69531
1273.450, 95.14844
1274.522, 26.73438
1275.594, 41.13672
1276.666, 71.88672
1277.738, 257.0586
1278.810, 576.0547
1279.882, 70.93750
1280.953, 74.44141
1282.025, 262.7500
1283.096, 62.07422
1284.167, 113.1406
1285.238, 61.06641
1286.308, 40.57812
1287.379, 89.62109
1288.449, 130.5312
1289.519, 5.921875
1290.589, 128.0273
1291.659, 112.1992
1292.729, 236.3516
1293.798, 17.71484
1294.868, 387.5898
1295.937, 300.0547
1297.006, 294.4922
1298.075, 218.0078
1299.143, 183.4766
1300.212, 20.00391
1301.280, 137.6914
1302.348, 75.22656
1303.416, 124.7969
1304.484, 222.2148
1305.552, 317.2148
1306.620, 251.9766
1307.687, 338.8828
1308.754, 135.7695
1309.821, 71.29297
1310.888, 71.80859
1311.955, 140.9023
1313.021, 221.0273
1314.088, 29.60547
1315.154, 439.7656
1316.220, 211.8516
1317.286, 453.1953
1318.352, 422.0898
1319.417, 23.16797
1320.483, 277.9297
1321.548, 197.3320
1322.613, 611.2812
1323.678, 296.3711
1324.743, 331.5820
1325.807, 132.0391
1326.872, 258.2969
1327.936, 269.6055
1329.000, 265.4844
1330.064, 333.0664
1331.128, 358.0938
1332.191, 367.0391
1333.255, 413.4219
1334.318, 236.4297
1335.381, 162.4414
