##NAMES=Cancrinite
##RRUFFID=R050352
##IDEAL CHEMISTRY=(Na,Ca,[box])_8_(Al_6_Si_6_)O_24_(CO_3_,S^6+^O_4_)_2_&#183;2H_2_O
##LOCALITY=York River, quarry #2, Dungannon Township, Ontario, Canada
##OWNER=RRUFF
##SOURCE=California Institute of Technology
##DESCRIPTION=Pink fragment
##STATUS=The identification of this mineral has been confirmed by X-ray diffraction and chemical analysis
##URL=rruff.info/R050352
##MEASURED CHEMISTRY=(Na_6.07_Ca_1.62_[box]_0.31_)_Σ=8_(Al_0.99_Si_1.01_O_4_)_6_((CO_3_)_0.84_[box]_0.16_)_Σ=2_·2H_2_O
##PIN_ID=L01694
##ORIENTATION=Laser parallel to -c* (0 0 -1). Fiducial mark perpendicular to laser is parallel to a [1 0 0]
83.60200, 0.0000000E+00
84.83700, 271.1846
86.07200, 714.9355
87.30800, 1069.009
88.54200, 1557.815
89.77700, 1872.650
91.01200, 1994.250
92.24600, 1979.262
93.48000, 2074.701
94.71400, 1714.460
95.94800, 1654.741
97.18200, 1352.966
98.41600, 1136.566
99.64900, 1006.549
100.8830, 864.2925
102.1160, 811.6152
103.3490, 669.6382
104.5820, 567.1265
105.8150, 597.3877
107.0470, 730.3916
108.2800, 1332.566
109.5120, 1766.246
110.7440, 1137.695
111.9760, 685.1274
113.2080, 523.7075
114.4400, 641.5664
115.6710, 751.8154
116.9030, 595.7891
118.1340, 777.4282
119.3650, 860.2412
120.5960, 790.0820
121.8270, 761.4390
123.0580, 877.2715
124.2880, 802.9370
125.5190, 742.2949
126.7490, 730.4375
127.9790, 704.1152
129.2090, 678.2910
130.4390, 610.9297
131.6680, 611.9980
132.8980, 666.4624
134.1270, 451.2939
135.3560, 481.4683
136.5850, 470.9619
137.8140, 588.7529
139.0430, 594.8125
140.2710, 752.1030
141.5000, 790.5918
142.7280, 976.2646
143.9560, 908.1123
145.1840, 686.1284
146.4120, 442.3042
147.6390, 226.6328
148.8670, 41.10840
150.0940, 3.723633
151.3210, 45.47363
152.5490, 92.64893
153.7750, 96.64697
155.0020, 203.0352
156.2290, 181.2573
157.4550, 206.7144
158.6810, 236.9775
159.9080, 191.0166
161.1340, 297.8535
162.3590, 300.5024
163.5850, 129.0483
164.8110, 34.52344
166.0360, 78.93164
167.2610, 1.725586
168.4860, 34.44336
169.7110, 193.2148
170.9360, 269.0356
172.1610, 268.9019
173.3850, 293.8105
174.6100, 404.7588
175.8340, 546.7334
177.0580, 680.7134
178.2820, 800.6826
179.5050, 865.6431
180.7290, 1005.595
181.9520, 1148.825
183.1760, 1228.485
184.3990, 1460.425
185.6220, 1671.364
186.8450, 1802.301
188.0670, 1748.240
189.2900, 1926.179
190.5120, 1971.176
191.7340, 2005.019
192.9560, 2139.775
194.1780, 2245.311
195.4000, 2342.604
196.6220, 2438.596
197.8430, 2275.438
199.0640, 2240.241
200.2860, 2185.067
201.5070, 1956.919
202.7270, 1890.798
203.9480, 1730.701
205.1690, 1594.628
206.3890, 1263.580
207.6090, 1235.553
208.8290, 1151.548
210.0490, 1198.563
211.2690, 1302.862
212.4890, 1355.982
213.7080, 1510.728
214.9280, 1710.819
216.1470, 1586.927
217.3660, 1995.052
218.5850, 2003.191
219.8030, 2068.347
221.0220, 2342.516
222.2400, 2239.697
223.4590, 2298.892
224.6770, 2449.448
225.8950, 2376.567
227.1120, 2600.082
228.3300, 2884.812
229.5480, 2710.000
230.7650, 2779.056
231.9820, 2918.570
233.1990, 2853.314
234.4160, 2804.728
235.6330, 2926.656
236.8490, 2930.081
238.0660, 2984.747
239.2820, 2969.548
240.4980, 2781.940
241.7140, 2889.010
242.9300, 2686.382
244.1460, 2736.777
245.3610, 2652.172
246.5770, 2732.614
247.7920, 2799.090
249.0070, 2989.560
250.2220, 3040.975
251.4370, 2989.317
252.6510, 3232.599
253.8660, 3396.828
255.0800, 3659.012
256.2940, 4013.159
257.5080, 4369.273
258.7220, 4807.880
259.9360, 5235.561
261.1490, 5772.460
262.3630, 6263.481
263.5760, 6753.468
264.7890, 7466.347
266.0020, 8239.941
267.2150, 8971.195
268.4270, 9546.092
269.6400, 10423.52
270.8520, 10941.83
272.0640, 11749.10
273.2760, 11957.40
274.4880, 12309.74
275.7000, 12640.10
276.9120, 12424.50
278.1230, 11900.93
279.3340, 11199.38
280.5450, 10277.85
281.7560, 9444.339
282.9670, 8276.852
284.1780, 7515.383
285.3880, 6970.933
286.5980, 6371.497
287.8090, 5938.072
289.0190, 5825.665
290.2290, 5820.273
291.4380, 5934.893
292.6480, 6086.526
293.8570, 6110.171
295.0670, 6260.825
296.2760, 6483.973
297.4850, 6585.647
298.6930, 6500.696
299.9020, 6416.604
301.1110, 6283.117
302.3190, 5925.831
303.5270, 5567.160
304.7350, 5194.839
305.9430, 4763.017
307.1510, 4294.395
308.3580, 3782.593
309.5660, 3408.948
310.7730, 2929.765
311.9800, 2713.551
313.1870, 2422.798
314.3940, 1998.490
315.6010, 1941.208
316.8070, 1615.914
318.0130, 1481.608
319.2200, 1371.292
320.4260, 1263.970
321.6310, 1258.651
322.8370, 1300.338
324.0430, 1137.023
325.2480, 1174.700
326.4540, 1353.384
327.6590, 1377.057
328.8640, 1598.717
330.0680, 1523.365
331.2730, 1671.000
332.4780, 1534.625
333.6820, 1588.254
334.8860, 1683.881
336.0900, 1711.493
337.2940, 1516.091
338.4980, 1496.680
339.7010, 1402.256
340.9050, 1293.857
342.1080, 1282.450
343.3110, 1207.035
344.5140, 1092.608
345.7170, 1015.173
346.9200, 1046.727
348.1220, 997.2705
349.3240, 963.8037
350.5270, 881.3262
351.7290, 834.8379
352.9310, 801.3384
354.1320, 622.8262
355.3340, 690.3013
356.5350, 494.7632
357.7370, 288.2090
358.9380, 248.6406
360.1390, 220.0566
361.3400, 180.4575
362.5400, 19.84229
363.7410, 84.80518
364.9410, 98.50977
366.1410, 179.6807
367.3410, 173.1260
368.5410, 210.0557
369.7410, 175.1392
370.9400, 139.4233
372.1400, 147.9287
373.3390, 100.6348
374.5380, 80.69678
375.7370, 24.47363
376.9360, 25.49658
378.1350, 23.59082
379.3330, 6.756836
380.5310, 8.013184
381.7300, 9.432129
382.9280, 11.45410
384.1260, 49.08203
385.3230, 106.6616
386.5210, 200.2061
387.7180, 214.7192
388.9160, 287.8237
390.1130, 370.6572
391.3100, 377.0811
392.5060, 403.4775
393.7030, 408.8423
394.9000, 660.1758
396.0960, 689.4775
397.2920, 867.7490
398.4880, 781.9888
399.6840, 955.1982
400.8800, 1226.376
402.0750, 1159.524
403.2710, 1061.640
404.4660, 1152.726
405.6610, 896.7803
406.8560, 797.8037
408.0510, 762.7969
409.2450, 750.7593
410.4400, 531.6929
411.6340, 514.5981
412.8280, 546.5508
414.0220, 549.4790
415.2160, 653.4248
416.4100, 703.2310
417.6030, 874.8228
418.7970, 925.7627
419.9900, 1052.184
421.1830, 1196.631
422.3760, 1322.516
423.5690, 1730.808
424.7610, 1977.866
425.9540, 2517.200
427.1460, 2866.785
428.3380, 3518.801
429.5300, 4065.693
430.7220, 4997.418
431.9140, 5992.948
433.1050, 6792.589
434.2970, 8144.690
435.4880, 9267.421
436.6790, 10929.62
437.8700, 12030.51
439.0610, 13309.89
440.2510, 14242.02
441.4420, 14914.34
442.6320, 14947.73
443.8220, 14289.17
445.0120, 13094.59
446.2020, 11417.93
447.3910, 9893.390
448.5810, 8214.206
449.7700, 7058.771
450.9600, 6113.450
452.1490, 5328.316
453.3370, 4727.942
454.5260, 4348.847
455.7150, 4245.101
456.9030, 4312.758
458.0910, 4425.619
459.2800, 4520.235
460.4670, 4856.015
461.6550, 5081.121
462.8430, 5400.096
464.0300, 5528.070
465.2180, 5690.018
466.4050, 5797.101
467.5920, 5749.445
468.7790, 5566.676
469.9650, 5185.481
471.1520, 4906.488
472.3380, 4453.973
473.5250, 3851.835
474.7110, 3386.785
475.8970, 2912.263
477.0820, 2450.162
478.2680, 2138.309
479.4540, 1999.758
480.6390, 1735.779
481.8240, 1644.196
483.0090, 1534.615
484.1940, 1453.467
485.3780, 1414.949
486.5630, 1430.043
487.7470, 1452.422
488.9320, 1511.600
490.1160, 1481.570
491.3000, 1643.653
492.4830, 1667.905
493.6670, 1693.120
494.8500, 1730.118
496.0340, 1663.993
497.2170, 1635.563
498.4000, 1566.237
499.5820, 1516.251
500.7650, 1571.792
501.9480, 1510.899
503.1300, 1580.300
504.3120, 1619.400
505.4940, 1628.339
506.6760, 1696.141
507.8580, 1693.028
509.0390, 2019.215
510.2210, 2131.491
511.4020, 2320.354
512.5830, 2704.192
513.7640, 3063.954
514.9450, 3560.353
516.1250, 3918.231
517.3060, 4406.713
518.4860, 5018.947
519.6660, 5435.606
520.8460, 5786.783
522.0260, 6282.121
523.2060, 6526.197
524.3850, 6424.998
525.5650, 6099.182
526.7440, 5585.830
527.9230, 5082.703
529.1020, 4291.719
530.2810, 3575.201
531.4590, 3065.647
532.6380, 2491.947
533.8160, 2196.682
534.9940, 1775.657
536.1720, 1509.605
537.3500, 1282.523
538.5270, 1214.410
539.7050, 923.2656
540.8820, 837.0918
542.0590, 759.9014
543.2360, 604.6924
544.4130, 592.4551
545.5900, 496.1963
546.7660, 499.9160
547.9430, 386.6045
549.1190, 386.2705
550.2950, 349.9062
551.4710, 343.5146
552.6470, 367.0918
553.8220, 243.6338
554.9980, 244.1445
556.1730, 234.6211
557.3480, 266.0635
558.5230, 69.48828
559.6980, 219.8730
560.8730, 99.22754
562.0470, 87.54297
563.2220, 215.8379
564.3960, 113.0996
565.5700, 163.3232
566.7440, 91.50879
567.9170, 42.66211
569.0910, 155.7705
570.2640, 178.8438
571.4380, 212.9043
572.6110, 36.92578
573.7840, 23.90527
574.9570, 104.8438
576.1290, 12.74219
577.3020, 68.59180
578.4740, 136.3984
579.6460, 34.16309
580.8180, 66.88379
581.9900, 35.55859
583.1620, 27.19043
584.3330, 23.79785
585.5040, 25.14160
586.6760, 35.87598
587.8470, 24.36719
589.0180, 33.18945
590.1880, 92.73633
591.3590, 12.80371
592.5290, 48.58496
593.7000, 19.66992
594.8700, 143.8018
596.0400, 57.91992
597.2090, 11.98242
598.3790, 113.9873
599.5490, 187.9121
600.7180, 141.9219
601.8870, 56.00195
603.0560, 6.232422
604.2250, 39.06055
605.3940, 55.16016
606.5620, 26.05957
607.7300, 12.00977
608.8990, 61.54297
610.0670, 73.33984
611.2350, 34.28613
612.4020, 133.7842
613.5700, 42.97168
614.7370, 28.07910
615.9050, 53.46387
617.0720, 28.95312
618.2390, 173.5420
619.4060, 92.80469
620.5720, 4.753906
621.7390, 82.66406
622.9050, 125.4736
624.0710, 42.26855
625.2370, 42.96094
626.4030, 123.6025
627.5690, 46.19629
628.7340, 84.88574
629.9000, 125.2686
631.0650, 88.73730
632.2300, 41.15625
633.3950, 40.52539
634.5600, 80.84082
635.7240, 142.1055
636.8890, 122.3213
638.0530, 129.4883
639.2170, 284.6064
640.3810, 141.6816
641.5450, 235.7061
642.7080, 155.6836
643.8720, 217.6113
645.0350, 199.4922
646.1980, 100.3408
647.3610, 94.30273
648.5240, 9.342773
649.6870, 41.44336
650.8490, 46.59375
652.0120, 82.40918
653.1740, 143.9580
654.3360, 90.89355
655.4980, 197.0215
656.6600, 102.4131
657.8210, 38.90723
658.9830, 152.1250
660.1440, 47.17773
661.3050, 24.47656
662.4660, 155.6719
663.6270, 129.0703
664.7870, 58.76660
665.9480, 83.26855
667.1080, 132.7598
668.2680, 291.1045
669.4280, 176.5156
670.5880, 191.7217
671.7480, 219.9697
672.9070, 109.3770
674.0670, 335.8135
675.2260, 410.6025
676.3850, 374.7012
677.5440, 541.9053
678.7030, 398.9951
679.8610, 633.1611
681.0200, 575.5635
682.1780, 757.3740
683.3360, 889.4883
684.4940, 849.8184
685.6520, 992.5068
686.8090, 943.3877
687.9670, 885.8691
689.1240, 792.9863
690.2810, 951.3340
691.4380, 947.8643
692.5950, 1017.826
693.7520, 1056.207
694.9080, 1082.276
696.0650, 1107.378
697.2210, 1230.118
698.3770, 1128.112
699.5330, 1222.897
700.6880, 1106.168
701.8440, 1229.975
702.9990, 1176.965
704.1550, 919.4639
705.3100, 1042.637
706.4650, 906.1709
707.6190, 945.8057
708.7740, 1036.231
709.9290, 890.2412
711.0830, 827.8428
712.2370, 1049.605
713.3910, 1177.768
714.5450, 1173.195
715.6980, 1222.850
716.8520, 1603.960
718.0050, 1477.142
719.1580, 1536.101
720.3110, 1436.135
721.4640, 1065.134
722.6170, 880.7461
723.7700, 704.7549
724.9220, 649.5195
726.0740, 421.8740
727.2260, 362.5371
728.3780, 309.6455
729.5300, 265.2012
730.6810, 237.0781
731.8330, 305.8545
732.9840, 396.2139
734.1350, 324.4883
735.2860, 392.5352
736.4370, 323.4229
737.5880, 344.3535
738.7380, 284.0713
739.8880, 256.6553
741.0390, 331.9229
742.1890, 208.9902
743.3380, 204.2646
744.4880, 232.4873
745.6380, 172.3174
746.7870, 359.1826
747.9360, 187.2764
749.0850, 163.7109
750.2340, 259.4355
751.3830, 177.2959
752.5310, 235.7383
753.6800, 234.2686
754.8280, 206.0449
755.9760, 211.8994
757.1240, 256.7139
758.2720, 338.1123
759.4190, 359.0859
760.5670, 408.4531
761.7140, 415.4580
762.8610, 506.5342
764.0080, 543.3135
765.1550, 579.3828
766.3020, 656.9580
767.4480, 685.4062
768.5950, 735.4561
769.7410, 827.2549
770.8870, 990.4902
772.0330, 997.5293
773.1780, 1100.990
774.3240, 1158.238
775.4690, 1030.636
776.6140, 903.2510
777.7590, 865.1328
778.9040, 879.0771
780.0490, 717.3643
781.1940, 465.2666
782.3380, 506.3779
783.4820, 406.3643
784.6260, 286.8848
785.7700, 267.3301
786.9140, 222.2539
788.0580, 295.3730
789.2010, 331.4609
790.3450, 159.6484
791.4880, 69.03711
792.6310, 35.14160
793.7730, 200.6289
794.9160, 173.6631
796.0590, 233.3750
797.2010, 267.5049
798.3430, 202.1396
799.4850, 61.58008
800.6270, 50.11523
801.7690, 52.91504
802.9100, 90.35840
804.0520, 82.84570
805.1930, 106.0303
806.3340, 78.68066
807.4750, 115.3789
808.6160, 93.08398
809.7560, 42.84668
810.8970, 27.08789
812.0370, 6.996094
813.1770, 79.84180
814.3170, 42.62891
815.4570, 58.35840
816.5960, 29.02930
817.7360, 39.35840
818.8750, 30.83496
820.0140, 16.60547
821.1530, 25.01465
822.2920, 15.71387
823.4310, 25.51172
824.5690, 14.32129
825.7070, 6.772461
826.8460, 1.802734
827.9840, 57.76855
829.1220, 180.6777
830.2590, 50.53516
831.3970, 112.3350
832.5340, 82.08203
833.6710, 42.22754
834.8080, 155.3779
835.9450, 6.6405997E-02
837.0820, 92.42480
838.2190, 59.13477
839.3550, 15.21484
840.4910, 15.50781
841.6270, 126.7471
842.7630, 11.06543
843.8990, 90.05762
845.0350, 18.13086
846.1700, 79.85059
847.3060, 245.0674
848.4410, 7.937500
849.5760, 3.245117
850.7100, 137.5137
851.8450, 151.2256
852.9800, 149.5625
854.1140, 186.4736
855.2480, 100.0889
856.3820, 124.6172
857.5160, 66.09863
858.6500, 66.46875
859.7830, 7.876953
860.9170, 57.17188
862.0500, 64.58105
863.1830, 51.58105
864.3160, 6.303711
865.4480, 42.30762
866.5810, 1.531250
867.7130, 35.92480
868.8460, 41.91992
869.9780, 63.20508
871.1100, 3.577148
872.2410, 29.32227
873.3730, 11.22852
874.5050, 98.70117
875.6360, 44.19727
876.7670, 72.53223
877.8980, 104.0928
879.0290, 32.68066
880.1590, 29.17188
881.2900, 28.30176
882.4200, 47.84766
883.5500, 4.490234
884.6800, 22.64551
885.8100, 24.02930
886.9400, 94.07715
888.0690, 81.74121
889.1990, 17.61035
890.3280, 63.54980
891.4570, 168.8438
892.5860, 74.73730
893.7140, 79.46289
894.8430, 50.58496
895.9710, 50.30371
897.1000, 37.15039
898.2280, 48.99219
899.3560, 58.79688
900.4830, 160.5635
901.6110, 44.70605
902.7380, 25.03906
903.8660, 77.57617
904.9930, 90.15332
906.1200, 157.6904
907.2460, 193.1943
908.3730, 121.6650
909.5000, 221.1279
910.6260, 152.5586
911.7520, 94.96191
912.8780, 166.3301
914.0040, 343.6836
915.1290, 319.0078
916.2550, 491.2998
917.3800, 491.5605
918.5050, 405.8008
919.6300, 473.0244
920.7550, 554.0967
921.8800, 466.0625
923.0040, 542.8242
924.1290, 574.8730
925.2530, 753.0010
926.3770, 722.4756
927.5010, 873.5439
928.6250, 699.4248
929.7480, 818.0225
930.8720, 744.4805
931.9950, 863.1631
933.1180, 798.9609
934.2410, 913.4590
935.3640, 881.3457
936.4860, 953.2402
937.6090, 920.9189
938.7310, 900.1289
939.8530, 870.0820
940.9750, 858.1025
942.0970, 907.9814
943.2180, 895.9863
944.3400, 962.6182
945.4610, 1088.513
946.5820, 1157.048
947.7030, 1264.152
948.8240, 1497.871
949.9450, 1501.407
951.0650, 1661.982
952.1860, 1708.407
953.3060, 1621.519
954.4260, 1796.144
955.5460, 1628.388
956.6650, 1610.336
957.7850, 1556.849
958.9040, 1574.090
960.0230, 1481.655
961.1420, 1480.505
962.2610, 1370.050
963.3800, 1376.336
964.4990, 1407.110
965.6170, 1191.315
966.7350, 1286.755
967.8530, 1243.042
968.9710, 1364.734
970.0890, 1482.288
971.2070, 1423.608
972.3240, 1483.857
973.4410, 1509.443
974.5580, 1590.305
975.6750, 1437.149
976.7920, 1565.455
977.9090, 1568.021
979.0250, 1670.132
980.1410, 1613.924
981.2580, 1720.147
982.3740, 1785.848
983.4890, 1775.477
984.6050, 2072.490
985.7200, 2108.678
986.8360, 1923.902
987.9510, 2233.102
989.0660, 2078.442
990.1810, 2283.404
991.2950, 2362.452
992.4100, 2395.236
993.5240, 2600.255
994.6390, 2546.760
995.7530, 2608.454
996.8660, 2623.586
997.9800, 2735.222
999.0940, 2814.012
1000.207, 2836.547
1001.320, 2792.000
1002.433, 2779.481
1003.546, 2771.640
1004.659, 2688.683
1005.772, 2615.633
1006.884, 2714.855
1007.996, 2622.998
1009.108, 2647.223
1010.220, 2587.936
1011.332, 2478.080
1012.444, 2411.414
1013.555, 2260.699
1014.666, 2170.775
1015.777, 2109.682
1016.888, 1964.259
1017.999, 2028.125
1019.110, 1812.638
1020.220, 1913.410
1021.331, 2085.629
1022.441, 2156.986
1023.551, 2060.346
1024.661, 2177.997
1025.770, 2117.796
1026.880, 2340.647
1027.989, 2182.731
1029.098, 2334.492
1030.207, 2650.312
1031.316, 2828.046
1032.425, 3120.203
1033.533, 3428.934
1034.642, 4013.158
1035.750, 4712.559
1036.858, 5667.773
1037.966, 7010.734
1039.073, 8299.186
1040.181, 10250.47
1041.288, 12370.78
1042.396, 13003.88
1043.503, 13411.49
1044.610, 12985.25
1045.716, 13218.49
1046.823, 14344.49
1047.929, 16439.25
1049.036, 20249.80
1050.142, 25247.66
1051.248, 30248.97
1052.353, 35477.23
1053.459, 40223.76
1054.564, 43545.66
1055.670, 44658.51
1056.775, 45005.54
1057.880, 43591.09
1058.985, 39974.64
1060.089, 34859.24
1061.194, 27876.92
1062.298, 21151.85
1063.402, 15210.00
1064.506, 10920.47
1065.610, 7971.785
1066.713, 6183.027
1067.817, 4839.244
1068.920, 3868.654
1070.023, 3287.701
1071.126, 2939.605
1072.229, 2530.619
1073.332, 2164.102
1074.435, 2053.342
1075.537, 1838.943
1076.639, 1773.580
1077.741, 1707.537
1078.843, 1569.203
1079.945, 1607.619
1081.046, 1546.883
1082.148, 1599.967
1083.249, 1620.912
1084.350, 1496.047
1085.451, 1732.922
1086.551, 1956.502
1087.652, 1953.988
1088.752, 1880.047
1089.853, 1888.229
1090.953, 1774.572
1092.053, 1690.451
1093.152, 1736.771
1094.252, 1605.475
1095.351, 1516.098
1096.451, 1659.967
1097.550, 1584.531
1098.649, 1438.881
1099.748, 1503.699
1100.846, 1302.285
1101.945, 1263.670
1103.043, 1239.477
1104.141, 1266.197
1105.239, 923.2812
1106.337, 989.9707
1107.434, 822.1953
1108.532, 864.7383
1109.629, 814.2051
1110.726, 669.6562
1111.823, 544.3672
1112.920, 510.1133
1114.017, 590.6602
1115.113, 847.5078
1116.210, 761.5918
1117.306, 900.5664
1118.402, 1173.600
1119.498, 1142.566
1120.593, 1382.453
1121.689, 1656.674
1122.784, 1474.510
1123.879, 1425.418
1124.974, 1261.699
1126.069, 1014.758
1127.164, 796.8574
1128.259, 670.8047
1129.353, 481.5215
1130.447, 348.9434
1131.541, 237.8750
1132.635, 133.3164
1133.729, 98.55859
1134.822, 76.68750
1135.916, 36.83594
1137.009, 72.79688
1138.102, 40.46680
1139.195, 37.85352
1140.288, 104.0254
1141.380, 179.2246
1142.473, 16.21094
1143.565, 171.7539
1144.657, 23.73633
1145.749, 68.21875
1146.841, 110.5352
1147.932, 174.9160
1149.024, 60.25391
1150.115, 93.09766
1151.206, 51.96875
1152.297, 88.65820
1153.388, 40.97266
1154.479, 61.26758
1155.569, 175.1680
1156.659, 0.6367190
1157.750, 146.1582
1158.839, 91.75781
1159.929, 109.7695
1161.019, 123.4727
1162.108, 127.8594
1163.198, 35.38086
1164.287, 143.5684
1165.376, 123.5742
1166.465, 55.74414
1167.553, 153.5469
1168.642, 94.21875
1169.730, 227.0312
1170.818, 92.64062
1171.906, 120.0293
1172.994, 95.08203
1174.082, 67.31055
1175.170, 23.56055
1176.257, 25.90039
1177.344, 74.05469
1178.431, 49.05469
1179.518, 93.06836
1180.605, 15.57812
1181.691, 24.59961
1182.778, 55.72266
1183.864, 82.43555
1184.950, 2.017578
1186.036, 33.33203
1187.122, 19.85547
1188.207, 76.16797
1189.292, 92.03320
1190.378, 41.19727
1191.463, 78.27344
1192.548, 34.38086
1193.632, 134.9434
1194.717, 54.07422
1195.801, 88.79688
1196.886, 99.87695
1197.970, 100.4688
1199.054, 50.40625
1200.137, 132.0488
1201.221, 161.2656
1202.305, 129.7891
1203.388, 252.0938
1204.471, 67.16992
1205.554, 214.0898
1206.637, 201.8477
1207.719, 120.7207
1208.802, 186.0762
1209.884, 240.4277
1210.966, 34.46289
1212.048, 72.09766
1213.130, 100.8594
1214.212, 50.16016
1215.293, 108.1738
1216.374, 177.5195
1217.456, 198.1152
1218.536, 294.7344
1219.617, 263.1074
1220.698, 220.6211
1221.778, 88.00586
1222.859, 230.4785
1223.939, 134.0586
1225.019, 149.5039
1226.099, 356.2012
1227.178, 152.1602
1228.258, 198.1641
1229.337, 319.4648
1230.417, 3.855469
1231.496, 176.6230
1232.574, 1.474609
1233.653, 347.8320
1234.732, 241.3574
1235.810, 94.66406
1236.888, 200.8594
1237.966, 118.3379
1239.044, 129.7500
1240.122, 128.0918
1241.199, 59.42773
1242.277, 283.6348
1243.354, 91.77734
1244.431, 250.8516
1245.508, 187.8633
1246.585, 207.8047
1247.661, 187.6836
1248.738, 195.4941
1249.814, 1.763672
1250.890, 119.8965
1251.966, 20.48633
1253.042, 178.9961
1254.117, 83.44727
1255.193, 132.8242
1256.268, 117.1738
1257.343, 145.4512
1258.418, 116.6621
