##NAMES=Cancrinite
##RRUFFID=R050352
##IDEAL CHEMISTRY=(Na,Ca,[box])_8_(Al_6_Si_6_)O_24_(CO_3_,S^6+^O_4_)_2_&#183;2H_2_O
##LOCALITY=York River, quarry #2, Dungannon Township, Ontario, Canada
##OWNER=RRUFF
##SOURCE=California Institute of Technology
##DESCRIPTION=Pink fragment
##STATUS=The identification of this mineral has been confirmed by X-ray diffraction and chemical analysis
##URL=rruff.info/R050352
##MEASURED CHEMISTRY=(Na_6.07_Ca_1.62_[box]_0.31_)_Σ=8_(Al_0.99_Si_1.01_O_4_)_6_((CO_3_)_0.84_[box]_0.16_)_Σ=2_·2H_2_O
##PIN_ID=L01694
##ORIENTATION=Laser parallel to -c* (0 0 -1). Fiducial mark perpendicular to laser is parallel to a [1 0 0]
83.60200, 0.0000000E+00
84.83700, 310.5776
86.07200, 823.8442
87.30800, 1130.710
88.54200, 1499.719
89.77700, 1806.050
91.01200, 1994.502
92.24600, 1952.880
93.48000, 1894.647
94.71400, 1587.611
95.94800, 1508.471
97.18200, 1174.748
98.41600, 1076.066
99.64900, 848.6392
100.8830, 832.2563
102.1160, 668.5073
103.3490, 544.5845
104.5820, 470.3682
105.8150, 434.1025
107.0470, 634.6172
108.2800, 898.6069
109.5120, 1089.624
110.7440, 881.1133
111.9760, 655.4346
113.2080, 587.8760
114.4400, 586.0479
115.6710, 773.5459
116.9030, 1017.623
118.1340, 980.1011
119.3650, 1138.164
120.5960, 1214.840
121.8270, 1189.545
123.0580, 1224.352
124.2880, 1243.293
125.5190, 1056.730
126.7490, 1106.480
127.9790, 997.6465
129.2090, 900.2021
130.4390, 828.1167
131.6680, 759.3594
132.8980, 705.9033
134.1270, 621.1523
135.3560, 461.7969
136.5850, 494.1050
137.8140, 384.6162
139.0430, 389.2891
140.2710, 323.0908
141.5000, 334.0010
142.7280, 330.0127
143.9560, 245.1221
145.1840, 90.32422
146.4120, 22.61670
147.6390, 13.00684
148.8670, 124.5483
150.0940, 183.0112
151.3210, 110.4004
152.5490, 148.7163
153.7750, 204.9092
155.0020, 244.7383
156.2290, 225.5786
157.4550, 66.77441
158.6810, 92.64160
159.9080, 136.2612
161.1340, 41.66846
162.3590, 127.8574
163.5850, 85.89600
164.8110, 40.18555
166.0360, 44.36914
167.2610, 80.63623
168.4860, 183.9712
169.7110, 210.3633
170.9360, 346.8032
172.1610, 365.2822
173.3850, 623.7954
174.6100, 697.3213
175.8340, 751.8325
177.0580, 949.3091
178.2820, 1027.744
179.5050, 1125.140
180.7290, 1345.497
181.9520, 1519.821
183.1760, 1686.863
184.3990, 1770.374
185.6220, 2053.606
186.8450, 2090.812
188.0670, 2257.990
189.2900, 2421.101
190.5120, 2422.959
191.7340, 2540.543
192.9560, 2605.775
194.1780, 2662.686
195.4000, 2658.415
196.6220, 2618.983
197.8430, 2645.421
199.0640, 2500.869
200.2860, 2190.331
201.5070, 2044.806
202.7270, 1873.243
203.9480, 1748.797
205.1690, 1601.311
206.3890, 1428.834
207.6090, 1343.370
208.8290, 1417.916
210.0490, 1413.473
211.2690, 1619.038
212.4890, 1650.612
213.7080, 1883.195
214.9280, 2106.787
216.1470, 2125.388
217.3660, 2287.997
218.5850, 2376.612
219.8030, 2659.237
221.0220, 2802.867
222.2400, 2784.884
223.4590, 2935.356
224.6770, 2960.343
225.8950, 3142.195
227.1120, 3186.190
228.3300, 3254.896
229.5480, 3224.446
230.7650, 3266.765
231.9820, 3345.384
233.1990, 3382.411
234.4160, 3396.107
235.6330, 3323.917
236.8490, 3476.214
238.0660, 3372.644
239.2820, 3448.474
240.4980, 3327.366
241.7140, 3215.794
242.9300, 3289.701
244.1460, 3358.424
245.3610, 3271.927
246.5770, 3260.123
247.7920, 3414.071
249.0070, 3487.828
250.2220, 3544.395
251.4370, 3721.778
252.6510, 3883.004
253.8660, 4204.089
255.0800, 4381.046
256.2940, 4710.893
257.5080, 5186.637
258.7220, 5738.289
259.9360, 6430.858
261.1490, 6937.345
262.3630, 7256.655
263.5760, 7915.444
264.7890, 8715.810
266.0020, 9482.585
267.2150, 10254.97
268.4270, 11419.06
269.6400, 12226.92
270.8520, 12876.68
272.0640, 13725.47
273.2760, 14203.27
274.4880, 14555.09
275.7000, 14718.93
276.9120, 14341.78
278.1230, 13722.65
279.3340, 12763.54
280.5450, 11678.43
281.7560, 10549.33
282.9670, 9458.249
284.1780, 8699.174
285.3880, 7800.106
286.5980, 7307.047
287.8090, 7000.992
289.0190, 6839.940
290.2290, 6849.895
291.4380, 6918.777
292.6480, 7148.512
293.8570, 7243.238
295.0670, 7465.059
296.2760, 7697.306
297.4850, 7730.202
298.6930, 7767.784
299.9020, 7416.927
301.1110, 7265.647
302.3190, 6844.616
303.5270, 6491.585
304.7350, 5944.950
305.9430, 5444.589
307.1510, 4823.172
308.3580, 4308.347
309.5660, 3876.176
310.7730, 3414.874
311.9800, 3145.586
313.1870, 2765.444
314.3940, 2371.379
315.6010, 2127.312
316.8070, 1986.231
318.0130, 1817.151
319.2200, 1609.057
320.4260, 1524.947
321.6310, 1468.824
322.8370, 1449.684
324.0430, 1436.544
325.2480, 1488.390
326.4540, 1528.234
327.6590, 1707.078
328.8640, 1673.921
330.0680, 1812.750
331.2730, 1892.564
332.4780, 1981.379
333.6820, 2052.180
334.8860, 1934.966
336.0900, 2022.757
337.2940, 1825.544
338.4980, 1739.321
339.7010, 1645.107
340.9050, 1530.883
342.1080, 1451.671
343.3110, 1330.452
344.5140, 1255.450
345.7170, 1184.993
346.9200, 1142.753
348.1220, 1110.508
349.3240, 1054.698
350.5270, 1092.991
351.7290, 951.7280
352.9310, 852.3779
354.1320, 765.9790
355.3340, 543.8745
356.5350, 531.5664
357.7370, 451.2466
358.9380, 223.9136
360.1390, 165.5669
361.3400, 12.79541
362.5400, 105.8091
363.7410, 1.605469
364.9410, 59.04980
366.1410, 120.5391
367.3410, 172.9561
368.5410, 200.7397
369.7410, 196.4956
370.9400, 148.4155
372.1400, 46.53516
373.3390, 175.8223
374.5380, 9.273926
375.7370, 99.77832
376.9360, 76.38965
378.1350, 70.90869
379.3330, 42.83545
380.5310, 69.33301
381.7300, 19.45459
382.9280, 4.481445
384.1260, 44.51270
385.3230, 80.45654
386.5210, 165.3535
387.7180, 196.2935
388.9160, 234.0190
390.1130, 290.7900
391.3100, 321.5229
392.5060, 381.2163
393.7030, 552.8711
394.9000, 583.4883
396.0960, 820.0688
397.2920, 891.6133
398.4880, 987.1216
399.6840, 1149.594
400.8800, 1178.032
402.0750, 1206.435
403.2710, 1124.803
404.4660, 1089.136
405.6610, 939.4365
406.8560, 810.7021
408.0510, 681.9375
409.2450, 602.1431
410.4400, 591.4634
411.6340, 586.8135
412.8280, 560.2803
414.0220, 537.5454
415.2160, 659.0645
416.4100, 620.5894
417.6030, 729.0884
418.7970, 864.7695
419.9900, 1084.248
421.1830, 1177.054
422.3760, 1629.808
423.5690, 1699.405
424.7610, 2127.013
425.9540, 2560.400
427.1460, 3057.203
428.3380, 3878.000
429.5300, 4596.720
430.7220, 5593.893
431.9140, 6802.131
433.1050, 8177.470
434.2970, 9739.115
435.4880, 11453.31
436.6790, 13197.53
437.8700, 14861.92
439.0610, 16497.20
440.2510, 17448.72
441.4420, 17961.25
442.6320, 17629.02
443.8220, 16786.79
445.0120, 15069.52
446.2020, 13002.76
447.3910, 11002.58
448.5810, 9333.489
449.7700, 7945.016
450.9600, 6670.185
452.1490, 5924.341
453.3370, 5249.843
454.5260, 4937.712
455.7150, 4696.164
456.9030, 4832.565
458.0910, 4991.791
459.2800, 5179.493
460.4670, 5629.414
461.6550, 6036.159
462.8430, 6297.711
464.0300, 6449.060
465.2180, 6326.718
466.4050, 6466.509
467.5920, 6256.066
468.7790, 6051.332
469.9650, 5839.063
471.1520, 5406.267
472.3380, 4831.902
473.5250, 4291.003
474.7110, 3638.947
475.8970, 3222.335
477.0820, 2802.541
478.2680, 2377.747
479.4540, 2189.130
480.6390, 1882.355
481.8240, 1789.686
483.0090, 1593.598
484.1940, 1547.509
485.3780, 1657.653
486.5630, 1573.793
487.7470, 1666.545
488.9320, 1636.458
490.1160, 1653.197
491.3000, 1809.909
492.4830, 1823.215
493.6670, 1767.551
494.8500, 1812.243
496.0340, 1813.918
497.2170, 1780.590
498.4000, 1613.794
499.5820, 1564.010
500.7650, 1578.360
501.9480, 1564.162
503.1300, 1564.824
504.3120, 1675.703
505.4940, 1569.643
506.6760, 1749.456
507.8580, 1850.556
509.0390, 1867.065
510.2210, 2265.945
511.4020, 2576.548
512.5830, 2859.755
513.7640, 3414.285
514.9450, 3957.714
516.1250, 4577.159
517.3060, 5153.301
518.4860, 5915.732
519.6660, 6469.669
520.8460, 7063.151
522.0260, 7466.867
523.2060, 7883.994
524.3850, 7569.414
525.5650, 7122.431
526.7440, 6254.604
527.9230, 5532.780
529.1020, 4678.500
530.2810, 3960.102
531.4590, 3251.845
532.6380, 2787.870
533.8160, 2382.415
534.9940, 1933.961
536.1720, 1674.478
537.3500, 1458.971
538.5270, 1362.436
539.7050, 1075.874
540.8820, 1041.282
542.0590, 913.6582
543.2360, 666.0029
544.4130, 626.3154
545.5900, 452.5962
546.7660, 586.8472
547.9430, 457.0693
549.1190, 345.2715
550.2950, 280.4434
551.4710, 238.5840
552.6470, 225.6914
553.8220, 191.9448
554.9980, 234.8027
556.1730, 168.8076
557.3480, 161.7759
558.5230, 162.7090
559.6980, 113.4297
560.8730, 156.4644
562.0470, 72.28711
563.2220, 79.07031
564.3960, 110.8203
565.5700, 102.5454
566.7440, 149.2456
567.9170, 43.90918
569.0910, 39.53125
570.2640, 52.11035
571.4380, 176.6509
572.6110, 155.1709
573.7840, 124.6587
574.9570, 46.11475
576.1290, 147.5347
577.3020, 136.9170
578.4740, 92.26123
579.6460, 126.5796
580.8180, 74.91846
581.9900, 74.48926
583.1620, 25.28320
584.3330, 34.43750
585.5040, 55.54736
586.6760, 3.378906
587.8470, 43.65869
589.0180, 22.65088
590.1880, 38.90381
591.3590, 45.80859
592.5290, 81.79102
593.7000, 7.490723
594.8700, 45.50684
596.0400, 39.17676
597.2090, 6.856445
598.3790, 36.33594
599.5490, 49.11328
600.7180, 48.24170
601.8870, 24.27539
603.0560, 63.74219
604.2250, 59.12988
605.3940, 68.92578
606.5620, 48.28564
607.7300, 33.14355
608.8990, 40.77295
610.0670, 48.61279
611.2350, 40.67236
612.4020, 2.280273
613.5700, 103.1875
614.7370, 53.88281
615.9050, 18.83643
617.0720, 54.80762
618.2390, 59.54639
619.4060, 31.00146
620.5720, 25.47656
621.7390, 63.09570
622.9050, 83.24463
624.0710, 73.45801
625.2370, 11.74463
626.4030, 7.903320
627.5690, 8.955566
628.7340, 39.70605
629.9000, 9.955566
631.0650, 69.97412
632.2300, 4.146973
633.3950, 21.32861
634.5600, 47.42188
635.7240, 42.12012
636.8890, 33.76514
638.0530, 136.3574
639.2170, 123.8979
640.3810, 82.38672
641.5450, 117.8213
642.7080, 82.20557
643.8720, 161.5386
645.0350, 169.8394
646.1980, 79.09375
647.3610, 91.31006
648.5240, 13.50391
649.6870, 81.74463
650.8490, 196.9375
652.0120, 104.8926
653.1740, 21.99414
654.3360, 131.9893
655.4980, 92.80713
656.6600, 28.19287
657.8210, 29.11328
658.9830, 29.44824
660.1440, 86.45361
661.3050, 81.10449
662.4660, 153.3481
663.6270, 79.31201
664.7870, 92.70068
665.9480, 39.52441
667.1080, 139.2998
668.2680, 115.9263
669.4280, 168.6646
670.5880, 164.9590
671.7480, 147.3560
672.9070, 286.2578
674.0670, 300.4058
675.2260, 373.0552
676.3850, 427.0894
677.5440, 493.4736
678.7030, 483.9741
679.8610, 643.2114
681.0200, 711.1260
682.1780, 879.0991
683.3360, 1024.737
684.4940, 998.7354
685.6520, 1110.951
686.8090, 1128.469
687.9670, 989.7324
689.1240, 1023.794
690.2810, 1059.488
691.4380, 1139.125
692.5950, 1070.476
693.7520, 1181.641
694.9080, 1401.960
696.0650, 1418.933
697.2210, 1351.074
698.3770, 1346.094
699.5330, 1342.988
700.6880, 1333.958
701.8440, 1176.313
702.9990, 1138.077
704.1550, 1148.634
705.3100, 1160.313
706.4650, 1061.058
707.6190, 986.0620
708.7740, 1055.602
709.9290, 1066.282
711.0830, 1137.418
712.2370, 1182.757
713.3910, 1391.651
714.5450, 1383.523
715.6980, 1618.733
716.8520, 1562.995
718.0050, 1628.330
719.1580, 1538.930
720.3110, 1494.433
721.4640, 1187.765
722.6170, 855.6831
723.7700, 825.9990
724.9220, 643.1558
726.0740, 399.0610
727.2260, 358.3477
728.3780, 254.6206
729.5300, 367.6309
730.6810, 197.5693
731.8330, 193.9805
732.9840, 198.4395
734.1350, 208.8267
735.2860, 143.3081
736.4370, 321.4121
737.5880, 431.3423
738.7380, 273.6484
739.8880, 282.6982
741.0390, 282.8447
742.1890, 294.1118
743.3380, 282.5278
744.4880, 357.2510
745.6380, 252.1294
746.7870, 355.7466
747.9360, 296.7656
749.0850, 352.9639
750.2340, 308.5435
751.3830, 309.0366
752.5310, 292.4624
753.6800, 323.6992
754.8280, 257.2490
755.9760, 324.8213
757.1240, 370.9736
758.2720, 348.9502
759.4190, 518.4004
760.5670, 449.6953
761.7140, 325.3828
762.8610, 589.7246
764.0080, 573.2891
765.1550, 575.0977
766.3020, 594.9307
767.4480, 775.9336
768.5950, 881.5664
769.7410, 968.5039
770.8870, 980.2041
772.0330, 1094.064
773.1780, 1263.682
774.3240, 1167.051
775.4690, 1075.337
776.6140, 1106.491
777.7590, 931.7451
778.9040, 761.5703
780.0490, 766.4932
781.1940, 530.2168
782.3380, 512.2207
783.4820, 450.2090
784.6260, 436.7666
785.7700, 372.3252
786.9140, 300.5068
788.0580, 348.9219
789.2010, 135.7686
790.3450, 104.1719
791.4880, 129.1680
792.6310, 165.5674
793.7730, 31.74316
794.9160, 133.5850
796.0590, 245.3730
797.2010, 123.0410
798.3430, 170.9521
799.4850, 24.78418
800.6270, 77.85449
801.7690, 204.5527
802.9100, 91.25195
804.0520, 90.66699
805.1930, 114.4385
806.3340, 75.05273
807.4750, 168.8271
808.6160, 131.5293
809.7560, 17.09863
810.8970, 23.81641
812.0370, 34.18750
813.1770, 7.869141
814.3170, 72.99902
815.4570, 1.191406
816.5960, 83.54785
817.7360, 148.2295
818.8750, 121.8545
820.0140, 189.4229
821.1530, 90.93750
822.2920, 26.39551
823.4310, 8.793945
824.5690, 20.87207
825.7070, 25.38281
826.8460, 100.5781
827.9840, 67.71875
829.1220, 110.2881
830.2590, 107.7236
831.3970, 100.8008
832.5340, 104.7188
833.6710, 44.58203
834.8080, 61.39062
835.9450, 29.14453
837.0820, 40.84180
838.2190, 90.48438
839.3550, 6.923828
840.4910, 34.39844
841.6270, 37.95410
842.7630, 21.40820
843.8990, 79.71582
845.0350, 172.9717
846.1700, 2.180664
847.3060, 45.67090
848.4410, 3.608398
849.5760, 15.60938
850.7100, 5.678711
851.8450, 39.18945
852.9800, 10.00488
854.1140, 45.23535
855.2480, 122.4414
856.3820, 80.06836
857.5160, 106.6455
858.6500, 15.82617
859.7830, 42.63672
860.9170, 19.95020
862.0500, 40.60449
863.1830, 16.66699
864.3160, 11.63574
865.4480, 48.74512
866.5810, 58.85645
867.7130, 96.37793
868.8460, 226.8838
869.9780, 135.3730
871.1100, 63.10547
872.2410, 33.06152
873.3730, 95.93066
874.5050, 101.2324
875.6360, 97.28711
876.7670, 94.84180
877.8980, 23.63672
879.0290, 36.86523
880.1590, 96.72559
881.2900, 61.75586
882.4200, 52.10352
883.5500, 39.72363
884.6800, 173.4717
885.8100, 35.21973
886.9400, 16.03613
888.0690, 16.10352
889.1990, 28.87109
890.3280, 44.75195
891.4570, 11.98926
892.5860, 6.250000
893.7140, 8.232422
894.8430, 36.97852
895.9710, 26.90137
897.1000, 18.18555
898.2280, 71.70605
899.3560, 23.41797
900.4830, 100.4033
901.6110, 165.1934
902.7380, 63.96289
903.8660, 171.7158
904.9930, 83.45215
906.1200, 215.1504
907.2460, 146.8213
908.3730, 98.46582
909.5000, 139.0713
910.6260, 137.6484
911.7520, 294.1904
912.8780, 209.7119
914.0040, 330.1982
915.1290, 265.6885
916.2550, 371.1455
917.3800, 339.5742
918.5050, 526.9727
919.6300, 357.3359
920.7550, 452.6709
921.8800, 605.9736
923.0040, 639.1934
924.1290, 644.4395
925.2530, 788.9180
926.3770, 892.2354
927.5010, 879.6309
928.6250, 1039.148
929.7480, 876.0771
930.8720, 838.4043
931.9950, 889.1709
933.1180, 943.4248
934.2410, 945.5830
935.3640, 961.6328
936.4860, 1026.615
937.6090, 992.1016
938.7310, 1088.314
939.8530, 1013.038
940.9750, 1148.064
942.0970, 1082.898
943.2180, 1105.096
944.3400, 1291.109
945.4610, 1244.538
946.5820, 1457.641
947.7030, 1562.164
948.8240, 1809.223
949.9450, 1780.852
951.0650, 1817.285
952.1860, 1880.930
953.3060, 1941.819
954.4260, 1676.570
955.5460, 1873.578
956.6650, 1957.146
957.7850, 1684.416
958.9040, 1719.305
960.0230, 1579.371
961.1420, 1626.558
962.2610, 1585.031
963.3800, 1556.342
964.4990, 1524.461
965.6170, 1503.223
966.7350, 1444.590
967.8530, 1463.944
968.9710, 1497.023
970.0890, 1626.148
971.2070, 1550.115
972.3240, 1609.373
973.4410, 1661.273
974.5580, 1628.980
975.6750, 1720.948
976.7920, 1751.678
977.9090, 1879.457
979.0250, 1807.459
980.1410, 1684.825
981.2580, 1830.026
982.3740, 1899.211
983.4890, 2114.026
984.6050, 2209.075
985.7200, 2100.741
986.8360, 2192.412
987.9510, 2292.906
989.0660, 2399.063
990.1810, 2488.018
991.2950, 2557.772
992.4100, 2478.618
993.5240, 2664.591
994.6390, 2730.128
995.7530, 2701.835
996.8660, 2939.242
997.9800, 2903.632
999.0940, 2683.875
1000.207, 2908.639
1001.320, 3010.156
1002.433, 2879.271
1003.546, 2975.216
1004.659, 2863.689
1005.772, 2988.204
1006.884, 2929.027
1007.996, 2795.109
1009.108, 2823.389
1010.220, 2787.560
1011.332, 2622.563
1012.444, 2505.990
1013.555, 2253.209
1014.666, 2353.408
1015.777, 2150.496
1016.888, 2344.885
1017.999, 2134.956
1019.110, 2063.106
1020.220, 1985.969
1021.331, 2181.002
1022.441, 2066.363
1023.551, 1992.547
1024.661, 2275.421
1025.770, 2269.266
1026.880, 2296.447
1027.989, 2411.935
1029.098, 2691.964
1030.207, 2787.735
1031.316, 2893.656
1032.425, 3506.634
1033.533, 3792.168
1034.642, 4626.369
1035.750, 5274.675
1036.858, 6794.130
1037.966, 8165.303
1039.073, 10036.59
1040.181, 12200.27
1041.288, 13911.32
1042.396, 14744.97
1043.503, 14855.03
1044.610, 14537.23
1045.716, 14716.88
1046.823, 16159.22
1047.929, 19274.25
1049.036, 23770.65
1050.142, 29966.39
1051.248, 36273.84
1052.353, 41728.78
1053.459, 46792.23
1054.564, 50136.30
1055.670, 51473.79
1056.775, 51213.35
1057.880, 49105.91
1058.985, 44667.40
1060.089, 38897.96
1061.194, 30424.86
1062.298, 22655.89
1063.402, 16021.04
1064.506, 11264.60
1065.610, 8269.836
1066.713, 6492.062
1067.817, 5190.295
1068.920, 4123.242
1070.023, 3533.112
1071.126, 3010.898
1072.229, 2653.759
1073.332, 2336.600
1074.435, 2086.369
1075.537, 1920.179
1076.639, 1736.621
1077.741, 1669.523
1078.843, 1523.463
1079.945, 1444.713
1081.046, 1512.382
1082.148, 1654.193
1083.249, 1751.789
1084.350, 1690.889
1085.451, 1742.787
1086.551, 1819.508
1087.652, 1887.588
1088.752, 1723.794
1089.853, 1878.230
1090.953, 1723.897
1092.053, 1737.651
1093.152, 2051.050
1094.252, 1813.126
1095.351, 1719.266
1096.451, 1791.114
1097.550, 1577.267
1098.649, 1523.429
1099.748, 1569.288
1100.846, 1540.631
1101.945, 1459.179
1103.043, 1129.620
1104.141, 1180.407
1105.239, 1103.252
1106.337, 761.5674
1107.434, 854.3311
1108.532, 931.0000
1109.629, 782.4863
1110.726, 480.5498
1111.823, 634.4746
1112.920, 535.5840
1114.017, 494.7480
1115.113, 503.5957
1116.210, 317.9062
1117.306, 514.8945
1118.402, 791.9160
1119.498, 673.5342
1120.593, 736.3145
1121.689, 645.1201
1122.784, 629.7119
1123.879, 721.3623
1124.974, 655.9180
1126.069, 484.9111
1127.164, 324.1748
1128.259, 264.2227
1129.353, 292.9316
1130.447, 283.9863
1131.541, 180.7012
1132.635, 276.3154
1133.729, 136.5361
1134.822, 65.74121
1135.916, 20.68652
1137.009, 126.3848
1138.102, 129.5752
1139.195, 130.8809
1140.288, 92.55664
1141.380, 55.41113
1142.473, 36.07617
1143.565, 32.04004
1144.657, 24.19629
1145.749, 186.2988
1146.841, 73.53223
1147.932, 95.14551
1149.024, 35.62207
1150.115, 159.4043
1151.206, 1.996094
1152.297, 42.58008
1153.388, 184.8096
1154.479, 25.53613
1155.569, 105.1602
1156.659, 64.27539
1157.750, 121.7119
1158.839, 23.32715
1159.929, 31.84668
1161.019, 48.65039
1162.108, 115.8340
1163.198, 82.12402
1164.287, 54.32031
1165.376, 14.47070
1166.465, 26.77246
1167.553, 67.79590
1168.642, 40.18066
1169.730, 8.610352
1170.818, 42.89453
1171.906, 122.1260
1172.994, 163.9004
1174.082, 8.198242
1175.170, 63.97754
1176.257, 26.13770
1177.344, 93.90723
1178.431, 112.0898
1179.518, 117.7363
1180.605, 33.04590
1181.691, 95.71191
1182.778, 210.7598
1183.864, 88.07617
1184.950, 169.9434
1186.036, 66.20898
1187.122, 45.02539
1188.207, 10.44922
1189.292, 45.19922
1190.378, 26.40430
1191.463, 183.5156
1192.548, 143.7578
1193.632, 112.7637
1194.717, 258.0000
1195.801, 19.08203
1196.886, 93.26367
1197.970, 84.50586
1199.054, 149.0605
1200.137, 161.5918
1201.221, 176.1367
1202.305, 152.3262
1203.388, 151.4570
1204.471, 163.3672
1205.554, 148.5859
1206.637, 230.2109
1207.719, 114.5059
1208.802, 100.7832
1209.884, 28.43555
1210.966, 161.0137
1212.048, 123.0410
1213.130, 168.9961
1214.212, 80.03125
1215.293, 91.58594
1216.374, 130.8418
1217.456, 40.65039
1218.536, 241.6953
1219.617, 180.5117
1220.698, 119.5371
1221.778, 92.67969
1222.859, 173.7227
1223.939, 245.1621
1225.019, 223.5508
1226.099, 286.7949
1227.178, 207.9004
1228.258, 198.9473
1229.337, 264.5449
1230.417, 142.0977
1231.496, 150.5879
1232.574, 45.74609
1233.653, 253.9863
1234.732, 233.1387
1235.810, 371.2812
1236.888, 239.0508
1237.966, 257.5469
1239.044, 57.91211
1240.122, 151.2070
1241.199, 176.4277
1242.277, 123.5742
1243.354, 103.6484
1244.431, 174.6465
1245.508, 296.5723
1246.585, 128.4297
1247.661, 113.2129
1248.738, 201.9180
1249.814, 154.5527
1250.890, 144.1113
1251.966, 186.5957
1253.042, 164.0059
1254.117, 177.3418
1255.193, 66.60352
1256.268, 29.78516
1257.343, 51.88477
1258.418, 37.09570
1259.493, 4.810547
