##NAMES=Carrollite
##RRUFFID=R040165
##IDEAL CHEMISTRY=Cu^1+^Co^3+^_2_S_4_
##LOCALITY=Katanga, Democratic Republic of the Congo
##OWNER=RRUFF
##SOURCE=University of Arizona Mineral Museum
##DESCRIPTION=Steel gray octahedral crystals that have a tarnished exterior
##STATUS=The identification of this mineral has been confirmed by X-ray diffraction and chemical analysis
##URL=rruff.info/R040165
##MEASURED CHEMISTRY=(Cu_0.97_Fe_0.03_)Co_1.98_S_4_
##PIN_ID=M00105
##ORIENTATION=Laser parallel to -a* (-1 0 0). Fiducial mark perpendicular to laser is parallel to -c [0 0 -1]
96.62100, 0.0000000E+00
97.86200, 8.394531
99.10300, 634.1367
100.3440, 232.7930
101.5850, 26.41016
102.8250, 844.9062
104.0650, 2655.625
105.3050, 4434.020
106.5450, 6228.254
107.7850, 8377.973
109.0250, 6856.707
110.2640, 6329.855
111.5030, 7802.516
112.7420, 9551.531
113.9810, 10629.04
115.2200, 10543.34
116.4580, 9758.391
117.6970, 8487.238
118.9350, 6387.047
120.1730, 4720.098
121.4100, 3913.535
122.6480, 3514.543
123.8850, 2145.551
125.1230, 1101.844
126.3600, 998.2695
127.5960, 977.2305
128.8330, 1510.121
130.0700, 1555.211
131.3060, 1884.535
132.5420, 1017.879
133.7780, 435.9805
135.0140, 440.8750
136.2500, 1024.402
137.4850, 1585.961
138.7200, 1431.688
139.9550, 1102.484
141.1900, 327.2070
142.4250, 143.8984
143.6600, 98.73828
144.8940, 441.7695
146.1280, 599.0625
147.3620, 205.6016
148.5960, 189.5742
149.8300, 208.3984
151.0630, 1153.250
152.2960, 850.2734
153.5300, 965.5430
154.7620, 706.1445
155.9950, 482.8320
157.2280, 505.4609
158.4600, 76.31641
159.6920, 509.1562
160.9250, 862.6406
162.1560, 685.2461
163.3880, 1201.047
164.6200, 1900.453
165.8510, 1808.082
167.0820, 2038.875
168.3130, 1374.324
169.5440, 1721.543
170.7750, 1459.859
172.0050, 759.4766
173.2350, 679.4180
174.4650, 764.6758
175.6950, 1095.242
176.9250, 1051.082
178.1550, 1104.188
179.3840, 1191.535
180.6130, 757.1016
181.8420, 757.8672
183.0710, 738.8125
184.3000, 807.9062
185.5280, 1069.559
186.7570, 1366.457
187.9850, 1743.883
189.2130, 1992.633
190.4400, 2383.191
191.6680, 2540.910
192.8960, 2550.090
194.1230, 2812.738
195.3500, 2765.414
196.5770, 2788.012
197.8030, 2821.301
199.0300, 2936.633
200.2560, 2971.996
201.4830, 2585.844
202.7090, 2835.520
203.9340, 1727.746
205.1600, 590.9688
206.3860, 202.1836
207.6110, 195.5977
208.8360, 268.3906
210.0610, 472.1836
211.2860, 102.9766
212.5100, 372.2344
213.7350, 620.4492
214.9590, 442.6758
216.1830, 5.093750
217.4070, 122.8477
218.6310, 29.40625
219.8540, 93.32812
221.0780, 16.04688
222.3010, 83.74609
223.5240, 130.4336
224.7470, 57.89453
225.9690, 83.89844
227.1920, 105.7812
228.4140, 134.8477
229.6360, 291.4453
230.8580, 92.16016
232.0800, 363.9648
233.3020, 94.07422
234.5230, 411.7227
235.7440, 242.4258
236.9650, 498.9297
238.1860, 443.3555
239.4070, 354.0234
240.6280, 1118.438
241.8480, 1549.871
243.0680, 997.3789
244.2880, 1266.145
245.5080, 1821.723
246.7280, 2040.055
247.9470, 2376.598
249.1660, 2387.242
250.3860, 2676.918
251.6040, 2946.559
252.8230, 2871.137
254.0420, 3301.613
255.2600, 2930.980
256.4790, 3215.215
257.6970, 3781.266
258.9150, 3570.824
260.1320, 3177.680
261.3500, 3643.227
262.5670, 1902.504
263.7840, 1730.605
265.0010, 1439.707
266.2180, 1265.477
267.4350, 1098.973
268.6510, 956.3320
269.8680, 805.0977
271.0840, 706.3203
272.3000, 716.4531
273.5160, 599.4609
274.7310, 477.1211
275.9470, 601.6406
277.1620, 531.0312
278.3770, 345.2969
279.5920, 7.457031
280.8070, 40.45312
282.0210, 487.3164
283.2360, 610.1641
284.4500, 161.9375
285.6640, 326.6406
286.8780, 31.73047
288.0920, 76.14844
289.3050, 447.3867
290.5180, 238.8516
291.7320, 323.0195
292.9450, 150.3906
294.1570, 366.0820
295.3700, 176.8750
296.5830, 258.4414
297.7950, 258.6719
299.0070, 267.5938
300.2190, 210.7734
301.4310, 220.6836
302.6420, 297.6484
303.8540, 454.2266
305.0650, 453.6641
306.2760, 663.4180
307.4870, 402.5859
308.6980, 473.9023
309.9080, 324.6133
311.1190, 776.2461
312.3290, 205.8125
313.5390, 435.4180
314.7490, 249.0625
315.9580, 215.7500
317.1680, 270.4805
318.3770, 383.7578
319.5860, 456.7969
320.7950, 326.2773
322.0040, 258.1680
323.2130, 437.0977
324.4210, 732.0586
325.6290, 268.0547
326.8380, 255.9219
328.0460, 444.8672
329.2530, 198.8125
330.4610, 14.94531
331.6680, 371.1094
332.8760, 269.3086
334.0830, 561.5352
335.2890, 407.7773
336.4960, 526.0547
337.7030, 464.3672
338.9090, 414.6875
340.1150, 476.2031
341.3210, 667.4336
342.5270, 554.8477
343.7330, 662.3047
344.9380, 784.7969
346.1440, 1172.324
347.3490, 1046.891
348.5540, 1053.484
349.7590, 1277.121
350.9630, 1223.758
352.1680, 1321.609
353.3720, 1358.062
354.5760, 1356.207
355.7800, 1358.809
356.9840, 1382.848
358.1870, 1270.043
359.3910, 1031.988
360.5940, 1034.648
361.7970, 943.8398
363.0000, 1169.898
364.2030, 769.6328
365.4050, 428.0469
366.6080, 843.5625
367.8100, 626.0859
369.0120, 617.9258
370.2140, 319.2148
371.4150, 299.4844
372.6170, 86.52734
373.8180, 186.1445
375.0190, 16.21094
376.2200, 7.933594
377.4210, 478.6172
378.6220, 32.07812
379.8220, 12.33984
381.0230, 382.0000
382.2230, 139.1484
383.4230, 158.7500
384.6220, 136.7109
385.8220, 309.7148
387.0220, 214.7812
388.2210, 364.9023
389.4200, 65.04688
390.6190, 125.2109
391.8180, 30.40234
393.0160, 407.6094
394.2150, 340.8320
395.4130, 272.0742
396.6110, 368.3516
397.8090, 349.6562
399.0060, 358.9766
400.2040, 212.3164
401.4010, 282.6758
402.5980, 91.05859
403.7950, 66.46094
404.9920, 282.9141
406.1890, 39.38672
407.3860, 290.8828
408.5820, 22.59766
409.7780, 375.9531
410.9740, 307.5312
412.1700, 313.1445
413.3650, 350.7891
414.5610, 482.4688
415.7560, 479.1836
416.9510, 306.9336
418.1460, 307.7188
419.3410, 136.5547
420.5360, 410.4297
421.7300, 224.3438
422.9240, 409.3047
424.1180, 214.3516
425.3120, 251.9375
426.5060, 144.0312
427.7000, 307.1641
428.8930, 85.34375
430.0860, 259.5742
431.2790, 375.6094
432.4720, 317.8711
433.6650, 615.3008
434.8580, 75.84375
436.0500, 221.4648
437.2420, 100.1953
438.4340, 650.0273
439.6260, 435.0430
440.8180, 333.2266
442.0090, 419.4648
443.2010, 554.7539
444.3920, 146.0977
445.5830, 406.5000
446.7740, 490.9570
447.9640, 260.4805
449.1550, 349.1094
450.3450, 573.8125
451.5350, 409.5898
452.7250, 758.4648
453.9150, 394.4023
455.1050, 332.4062
456.2940, 449.4766
457.4830, 762.6055
458.6720, 561.8008
459.8610, 209.0625
461.0500, 625.3906
462.2390, 416.7812
463.4270, 561.2422
464.6150, 396.4453
465.8040, 365.0352
466.9910, 634.6953
468.1790, 645.4180
469.3670, 455.2031
470.5540, 577.0547
471.7410, 391.9766
472.9280, 441.9609
474.1150, 459.0117
475.3020, 601.1250
476.4890, 466.3047
477.6750, 645.5469
478.8610, 521.8594
480.0470, 461.2383
481.2330, 438.6758
482.4190, 845.1836
483.6040, 660.7539
484.7900, 763.3906
485.9750, 1030.094
487.1600, 795.8711
488.3450, 1014.707
489.5290, 1042.613
490.7140, 916.6094
491.8980, 836.6758
493.0820, 946.8281
494.2660, 699.0430
495.4500, 1049.340
496.6340, 562.7930
497.8170, 680.4258
499.0010, 951.2930
500.1840, 1098.293
501.3670, 930.3594
502.5500, 852.4922
503.7320, 1018.695
504.9150, 1230.996
506.0970, 1374.316
507.2790, 1704.980
508.4610, 1396.648
509.6430, 1919.422
510.8250, 979.3164
512.0060, 1159.344
513.1870, 889.4805
514.3680, 1188.734
515.5490, 1545.062
516.7300, 1155.617
517.9110, 1252.355
519.0910, 1467.191
520.2710, 1096.168
521.4510, 1159.008
522.6310, 1263.094
523.8110, 1562.336
524.9910, 1624.648
526.1700, 1620.324
527.3490, 1468.449
528.5280, 1432.938
529.7070, 1507.492
530.8860, 1301.113
532.0650, 1325.793
533.2430, 1264.535
534.4210, 1548.344
535.5990, 1165.207
536.7770, 1407.133
537.9550, 1139.824
539.1320, 1338.664
540.3100, 1468.781
541.4870, 1176.957
542.6640, 1392.219
543.8410, 1542.523
545.0170, 1637.891
546.1940, 1667.562
547.3700, 1532.785
548.5470, 1594.328
549.7230, 1490.945
550.8980, 1428.457
552.0740, 1639.188
553.2500, 1767.328
554.4250, 1562.180
555.6000, 1822.094
556.7750, 1715.066
557.9500, 1997.102
559.1250, 1848.211
560.2990, 1666.574
561.4730, 2241.984
562.6480, 1744.391
563.8220, 1880.746
564.9950, 1537.156
566.1690, 1825.629
567.3430, 1920.195
568.5160, 1778.820
569.6890, 1780.504
570.8620, 1888.246
572.0350, 1996.934
573.2070, 1732.832
574.3800, 1513.867
575.5520, 1269.809
576.7240, 1234.004
577.8960, 1058.332
579.0680, 935.3633
580.2400, 833.3867
581.4110, 759.9844
582.5830, 675.3945
583.7540, 695.2383
584.9250, 556.6953
586.0950, 588.2031
587.2660, 549.7617
588.4370, 310.4180
589.6070, 422.0781
590.7770, 240.0820
591.9470, 196.2656
593.1170, 230.8477
594.2860, 198.6992
595.4560, 374.5938
596.6250, 617.5312
597.7940, 667.5195
598.9630, 452.5547
600.1320, 189.6289
601.3000, 479.7539
602.4690, 179.9531
603.6370, 96.21875
604.8050, 53.47656
605.9730, 28.38672
607.1410, 178.2891
608.3090, 336.0898
609.4760, 309.6016
610.6430, 462.1602
611.8100, 334.7617
612.9770, 325.4062
614.1440, 430.0938
615.3110, 240.8164
616.4770, 505.5820
617.6430, 172.3945
618.8090, 592.2461
619.9750, 271.1406
621.1410, 183.0898
622.3070, 348.0820
623.4720, 297.1094
624.6370, 114.1836
625.8020, 157.2891
626.9670, 435.7305
628.1320, 270.9141
629.2970, 384.1328
630.4610, 339.9648
631.6250, 489.5898
632.7890, 548.6016
633.9530, 369.9453
635.1170, 615.3438
636.2810, 815.7891
637.4440, 626.2656
638.6070, 463.7734
639.7700, 674.3125
640.9330, 638.8828
642.0960, 654.4883
643.2590, 343.1211
644.4210, 261.7852
645.5830, 408.4805
646.7450, 183.1328
647.9070, 339.8789
649.0690, 259.6641
650.2310, 143.4727
651.3920, 189.5234
652.5530, 104.3711
653.7140, 232.2578
654.8750, 142.1680
656.0360, 385.2578
657.1970, 737.4648
658.3570, 634.4141
659.5170, 357.1875
660.6770, 580.2344
661.8370, 250.1914
662.9970, 200.2539
664.1570, 340.3359
665.3160, 122.4414
666.4750, 242.5664
667.6340, 180.7070
668.7930, 105.8633
669.9520, 318.0391
671.1110, 277.2344
672.2690, 64.44141
673.4270, 78.66406
674.5850, 41.90625
675.7430, 194.1562
676.9010, 115.5703
678.0590, 21.33203
679.2160, 50.91797
680.3730, 292.1797
681.5300, 7.886719
682.6870, 359.1758
683.8440, 120.4766
685.0010, 91.21484
686.1570, 19.07422
687.3130, 218.6484
688.4690, 19.96094
689.6250, 396.2812
690.7810, 262.6172
691.9370, 26.03906
693.0920, 287.3008
694.2470, 249.6523
695.4020, 245.0156
696.5570, 392.3867
697.7120, 126.0938
698.8670, 16.30859
700.0210, 11.07812
701.1750, 14.46484
702.3290, 82.85938
703.4830, 41.26172
704.6370, 259.6680
705.7910, 194.3555
706.9440, 38.78125
708.0970, 219.2070
709.2510, 168.6367
710.4030, 110.3047
711.5560, 199.0781
712.7090, 56.49219
713.8610, 194.1406
715.0140, 109.8906
716.1660, 230.1562
717.3180, 154.6289
718.4690, 201.6328
719.6210, 119.1445
720.7730, 199.5391
721.9240, 77.35938
723.0750, 132.7070
724.2260, 190.5273
725.3770, 79.35156
726.5270, 48.17188
727.6780, 232.9922
728.8280, 24.92578
729.9780, 90.86328
731.1280, 127.3477
732.2780, 335.3594
733.4280, 232.0664
734.5770, 234.7773
735.7260, 319.4805
736.8760, 206.1875
738.0250, 102.8945
739.1730, 244.5938
740.3220, 166.2305
741.4700, 189.2344
742.6190, 148.9258
743.7670, 215.9062
744.9150, 87.63281
746.0630, 67.39844
747.2100, 448.0742
748.3580, 304.7539
749.5050, 147.4219
750.6520, 476.0898
751.7990, 173.7539
752.9460, 188.4102
754.0930, 223.0625
755.2390, 227.7109
756.3860, 277.8242
757.5320, 150.8086
758.6780, 305.2695
759.8240, 176.8945
760.9690, 480.5195
762.1150, 185.1328
763.2600, 359.7383
764.4060, 55.33984
765.5510, 285.9219
766.6950, 218.4922
767.8400, 27.93750
768.9850, 57.57422
770.1290, 6.058594
771.2730, 237.1836
772.4170, 429.9531
773.5610, 312.9648
774.7050, 465.0469
775.8480, 136.8086
776.9920, 565.2188
778.1350, 252.6211
779.2780, 408.0156
780.4210, 392.4023
781.5640, 510.7812
782.7060, 454.1484
783.8490, 50.51172
784.9910, 358.8477
786.1330, 172.1719
787.2750, 487.4922
788.4170, 141.7969
789.5580, 28.90234
790.7000, 178.3359
791.8410, 242.5586
792.9820, 300.2227
794.1230, 24.80078
795.2640, 126.0586
796.4040, 59.64844
797.5450, 83.49219
798.6850, 12.32031
799.8250, 168.4258
800.9650, 404.8672
802.1050, 366.6289
803.2450, 450.3828
804.3840, 615.1289
805.5230, 526.8594
806.6630, 522.2617
807.8020, 343.3086
808.9400, 379.0156
810.0790, 325.7109
811.2170, 347.4062
812.3560, 237.0898
813.4940, 501.7656
814.6320, 203.7305
815.7700, 421.5977
816.9070, 446.2500
818.0450, 64.89062
819.1820, 382.4922
820.3190, 608.1016
821.4560, 248.7070
822.5930, 423.3281
823.7300, 112.9180
824.8670, 377.4922
826.0030, 341.0625
827.1390, 397.6250
828.2750, 201.1797
829.4110, 500.3828
830.5470, 321.9258
831.6820, 317.4570
832.8180, 506.9844
833.9530, 11.50391
835.0880, 62.98828
836.2230, 328.2578
837.3580, 367.5352
838.4920, 355.8750
839.6270, 230.3242
840.7610, 540.7617
841.8950, 59.80469
843.0290, 410.5547
844.1630, 178.9102
845.2960, 271.2656
846.4300, 33.38672
847.5630, 134.0391
848.6960, 116.3242
849.8290, 169.5195
850.9620, 336.8711
852.0940, 289.0156
853.2270, 181.0820
854.3590, 79.49219
855.4910, 283.0742
856.6230, 72.58203
857.7550, 495.6367
858.8870, 17.85547
860.0180, 74.07422
861.1500, 132.2930
862.2810, 135.5117
863.4120, 135.6758
864.5430, 26.89844
865.6730, 72.44141
866.8040, 54.03516
867.9340, 83.05469
869.0640, 104.1719
870.1940, 98.50781
871.3240, 79.74219
872.4540, 64.97656
873.5830, 60.21484
874.7130, 141.4531
875.8420, 114.3008
876.9710, 70.10938
878.1000, 233.0469
879.2290, 48.80078
880.3570, 18.33594
881.4860, 103.5234
882.6140, 244.2422
883.7420, 143.3320
884.8700, 285.4375
885.9980, 21.53906
887.1250, 49.64453
888.2530, 133.7656
889.3800, 104.8906
890.5070, 42.01953
891.6340, 11.84375
892.7610, 9.511719
893.8880, 74.57031
895.0140, 55.53125
896.1400, 264.6484
897.2670, 442.7656
898.3930, 187.8984
899.5180, 340.0312
900.6440, 129.8789
901.7700, 195.0273
902.8950, 157.1875
904.0200, 294.7773
905.1450, 370.6211
906.2700, 231.1484
907.3950, 250.3398
908.5190, 48.44922
909.6440, 314.7500
910.7680, 181.9648
911.8920, 446.1875
913.0160, 187.4219
914.1400, 87.66797
915.2630, 47.92188
916.3870, 343.1914
917.5100, 94.46875
918.6330, 270.7617
919.7560, 110.1367
920.8790, 188.4492
922.0010, 214.7812
923.1240, 162.1172
924.2460, 310.4766
925.3680, 505.6328
926.4900, 228.0156
927.6120, 311.4102
928.7340, 434.6602
929.8550, 331.8281
930.9760, 590.2930
932.0980, 491.6875
933.2190, 501.7617
934.3390, 384.9922
935.4600, 413.5000
936.5810, 327.0234
937.7010, 246.5781
938.8210, 284.1914
939.9410, 122.8242
941.0610, 180.5234
942.1810, 404.2422
943.3010, 46.98438
944.4200, 259.7422
945.5390, 555.5195
946.6580, 481.3164
947.7770, 403.1367
948.8960, 387.9727
950.0150, 339.8516
951.1330, 415.7539
952.2510, 262.6797
953.3690, 370.1875
954.4870, 354.1562
955.6050, 354.1445
956.7230, 331.1562
957.8400, 425.2109
958.9580, 622.0156
960.0750, 423.1250
961.1920, 569.2578
962.3090, 202.4062
963.4250, 399.5820
964.5420, 454.7891
965.6580, 415.0234
966.7740, 447.2773
967.8900, 458.9727
969.0060, 516.5234
970.1220, 484.6367
971.2380, 481.3320
972.3530, 503.0156
973.4680, 498.7852
974.5830, 439.2266
975.6980, 526.7070
976.8130, 479.9805
977.9280, 692.5781
979.0420, 426.1953
980.1560, 761.8398
981.2710, 629.8906
982.3850, 568.6602
983.4980, 325.4141
984.6120, 677.3008
985.7260, 386.2852
986.8390, 477.3281
987.9520, 855.4961
989.0650, 489.7305
990.1780, 409.0508
991.2910, 428.9531
992.4030, 683.3633
993.5160, 572.2656
994.6280, 488.7383
995.7400, 702.2305
996.8520, 571.7695
997.9640, 847.3398
999.0750, 792.6758
1000.187, 763.3164
1001.298, 557.9883
1002.409, 644.7305
1003.520, 783.5000
1004.631, 629.3008
1005.741, 773.1289
1006.852, 564.9922
1007.962, 481.8828
1009.072, 806.8008
1010.182, 784.8203
1011.292, 738.5000
1012.402, 364.5156
1013.511, 699.6133
1014.621, 546.6641
1015.730, 765.7109
1016.839, 788.0977
1017.948, 666.0586
1019.056, 799.2891
1020.165, 665.5508
1021.273, 592.8633
1022.382, 627.3242
1023.490, 803.5977
1024.598, 672.0312
1025.706, 755.0234
1026.813, 926.1797
1027.921, 614.8789
1029.028, 673.4492
1030.135, 814.0547
1031.242, 621.6875
1032.349, 767.3594
1033.456, 876.0664
1034.562, 570.8320
1035.668, 919.6289
1036.775, 751.4570
1037.881, 725.3516
1038.987, 938.2773
1040.092, 738.2578
1041.198, 802.8516
1042.303, 736.7461
1043.408, 797.8320
1044.514, 845.9453
1045.618, 960.0977
1046.723, 876.2773
1047.828, 708.4961
1048.932, 784.7852
1050.037, 847.1094
1051.141, 1371.469
1052.245, 1061.855
1053.349, 1093.301
1054.452, 1123.773
1055.556, 861.2852
1056.659, 896.8281
1057.762, 1045.406
1058.865, 1202.043
1059.968, 996.7188
1061.071, 1228.426
1062.174, 1026.266
1063.276, 1256.152
1064.378, 916.1211
1065.480, 873.1367
1066.582, 1313.188
1067.684, 896.2969
1068.786, 978.4375
1069.887, 949.6172
1070.988, 922.2266
1072.090, 1028.297
1073.191, 1325.105
1074.291, 1180.418
1075.392, 1274.348
1076.493, 1289.133
1077.593, 1231.543
1078.693, 1117.984
1079.793, 1328.457
1080.893, 909.9648
1081.993, 1331.504
1083.092, 1067.070
1084.192, 1409.676
1085.291, 1043.316
1086.390, 1341.992
1087.489, 980.6992
1088.588, 1136.441
1089.686, 970.2148
1090.785, 1211.762
1091.883, 1281.605
1092.981, 1314.477
1094.079, 1186.375
1095.177, 1315.309
1096.275, 1011.277
1097.373, 1155.273
1098.470, 1201.305
1099.567, 1070.367
1100.664, 1089.457
1101.761, 936.6016
1102.858, 758.7773
1103.954, 780.9844
1105.051, 827.2227
1106.147, 1043.898
1107.243, 1013.297
1108.339, 1146.652
1109.435, 1157.648
1110.531, 1055.070
1111.626, 1268.523
1112.722, 664.0039
1113.817, 1115.043
1114.912, 807.6094
1116.007, 1231.895
1117.101, 1093.250
1118.196, 1144.902
1119.290, 1232.145
1120.385, 1321.852
1121.479, 1217.578
1122.573, 1233.332
1123.666, 970.1406
1124.760, 1118.969
1125.853, 996.8242
1126.947, 646.7109
1128.040, 866.5898
1129.133, 857.5234
1130.226, 700.4766
1131.318, 839.4609
1132.411, 864.4727
1133.503, 667.5078
1134.596, 551.5664
1135.688, 675.6484
1136.780, 344.7500
1137.871, 740.8789
1138.963, 232.0312
1140.054, 810.2070
1141.146, 675.4023
1142.237, 511.6562
1143.328, 538.4297
1144.419, 666.4453
1145.509, 666.8047
1146.600, 518.1836
1147.690, 515.6133
1148.780, 459.0625
1149.870, 166.8320
1150.960, 982.3359
1152.050, 943.3477
1153.139, 1329.660
1154.229, 607.2305
1155.318, 316.3008
1156.407, 475.9102
1157.496, 231.2695
1158.585, 583.9297
1159.674, 256.6250
1160.762, 356.3438
1161.850, 408.0820
1162.939, 488.8320
1164.027, 500.6133
1165.114, 381.1602
1166.202, 10.98047
1167.290, 276.8203
1168.377, 529.6797
1169.464, 56.55469
1170.551, 494.4531
1171.638, 313.3711
1172.725, 289.3047
1173.812, 194.2656
1174.898, 315.2422
1175.984, 455.2422
1177.071, 283.2539
1178.157, 330.2852
1179.242, 300.8633
1180.328, 296.9297
1181.414, 467.0156
1182.499, 230.1133
1183.584, 174.0273
1184.669, 261.1641
1185.754, 349.3086
1186.839, 410.4727
1187.924, 171.6523
1189.008, 228.8477
1190.092, 224.3477
1191.177, 261.2852
1192.260, 312.5273
1193.344, 265.7812
1194.428, 343.0508
1195.512, 235.3320
1196.595, 257.3398
1197.678, 417.5312
1198.761, 196.2695
1199.844, 47.39453
1200.927, 176.5312
1202.009, 245.1992
1203.092, 208.5273
1204.174, 143.6641
1205.256, 444.8711
1206.338, 340.0859
1207.420, 216.3125
1208.502, 104.5469
1209.583, 238.8008
1210.665, 190.0664
1211.746, 281.1680
1212.827, 184.6289
1213.908, 430.9219
1214.988, 138.2305
1216.069, 72.55078
1217.149, 288.8828
1218.230, 145.2227
1219.310, 299.5781
1220.390, 49.05859
1221.470, 368.2930
1222.549, 544.6484
1223.629, 171.0195
1224.708, 14.39453
1225.787, 599.7852
1226.866, 353.1836
1227.945, 163.5898
1229.024, 55.01172
1230.103, 109.4336
1231.181, 72.87109
1232.259, 140.3125
1233.337, 19.76562
1234.415, 106.2305
1235.493, 53.23047
1236.571, 17.66797
1237.648, 175.4062
1238.726, 55.04297
1239.803, 289.2891
1240.880, 188.6445
1241.957, 31.00781
1243.034, 153.6172
1244.110, 324.6758
1245.187, 173.0117
1246.263, 53.78516
1247.339, 226.4102
1248.415, 118.3828
1249.491, 75.75781
1250.566, 164.9102
1251.642, 208.0703
1252.717, 353.1055
1253.793, 154.4102
1254.868, 377.5859
1255.943, 338.7773
1257.017, 37.02734
1258.092, 139.1484
1259.166, 197.3320
1260.241, 260.5195
1261.315, 99.71094
1262.389, 37.91406
1263.462, 55.00781
1264.536, 71.32812
1265.610, 72.54688
1266.683, 131.5391
1267.756, 277.9961
1268.829, 230.2305
1269.902, 318.4727
1270.975, 330.7148
1272.048, 13.96875
1273.120, 27.78125
1274.192, 559.4453
1275.264, 52.67969
