##NAMES=Carrollite
##RRUFFID=R050089
##IDEAL CHEMISTRY=Cu^1+^Co^3+^_2_S_4_
##LOCALITY=Kambove, Katanga, Democratic Republic of the Congo
##OWNER=RRUFF
##SOURCE=Rock Currier
##DESCRIPTION=Steel-gray octahedral crystal associated with calcite
##STATUS=The identification of this mineral has been confirmed by X-ray diffraction and chemical analysis
##URL=rruff.info/R050089
##MEASURED CHEMISTRY=(Cu_0.96_Fe^2+^_0.04_)_Σ=1_Co_2.00_S_4.00_ ; the vein is pyrite: (Fe_0.99_Co_0.01_)_Σ=1_S_2.00_
##PIN_ID=L00215
##ORIENTATION=Laser parallel to a* (1 0 0). Fiducial mark perpendicular to laser is parallel to b [0 1 0]
96.62100, 0.0000000E+00
97.86200, 1.214844
99.10300, 547.2891
100.3440, 507.2773
101.5850, 1430.566
102.8250, 2783.734
104.0650, 2339.816
105.3050, 3461.133
106.5450, 3754.957
107.7850, 3559.926
109.0250, 4743.004
110.2640, 4201.844
111.5030, 5208.480
112.7420, 7601.590
113.9810, 9623.949
115.2200, 12850.49
116.4580, 18191.61
117.6970, 21467.35
118.9350, 19652.62
120.1730, 10370.12
121.4100, 3652.547
122.6480, 2221.562
123.8850, 1468.109
125.1230, 250.6445
126.3600, 412.8633
127.5960, 916.5703
128.8330, 633.1523
130.0700, 687.5273
131.3060, 542.8672
132.5420, 237.1758
133.7780, 518.6328
135.0140, 604.4727
136.2500, 412.1172
137.4850, 514.9961
138.7200, 375.8789
139.9550, 330.3008
141.1900, 130.0391
142.4250, 130.4766
143.6600, 10.14062
144.8940, 306.8164
146.1280, 117.4922
147.3620, 6.156250
148.5960, 35.69922
149.8300, 242.0742
151.0630, 280.7734
152.2960, 12.89844
153.5300, 90.65625
154.7620, 227.1523
155.9950, 28.15625
157.2280, 81.19922
158.4600, 177.8125
159.6920, 56.81250
160.9250, 317.4844
162.1560, 748.9062
163.3880, 944.6250
164.6200, 840.8555
165.8510, 636.9023
167.0820, 789.8047
168.3130, 850.6562
169.5440, 1079.508
170.7750, 1171.930
172.0050, 805.6953
173.2350, 850.5547
174.4650, 963.5117
175.6950, 796.3672
176.9250, 918.2383
178.1550, 1062.496
179.3840, 845.7891
180.6130, 787.3164
181.8420, 1042.102
183.0710, 1113.035
184.3000, 1394.457
185.5280, 1721.824
186.7570, 1809.117
187.9850, 2009.531
189.2130, 2120.922
190.4400, 2259.926
191.6680, 2464.281
192.8960, 2468.895
194.1230, 2710.551
195.3500, 2686.934
196.5770, 2842.379
197.8030, 2983.590
199.0300, 3129.766
200.2560, 3566.914
201.4830, 3188.070
202.7090, 2671.254
203.9340, 1980.457
205.1600, 1088.668
206.3860, 905.8750
207.6110, 684.0781
208.8360, 505.0508
210.0610, 741.7773
211.2860, 845.1797
212.5100, 822.4492
213.7350, 295.6914
214.9590, 419.7422
216.1830, 282.9688
217.4070, 135.4961
218.6310, 351.0938
219.8540, 102.3359
221.0780, 107.4883
222.3010, 52.57031
223.5240, 106.5586
224.7470, 171.5117
225.9690, 218.4688
227.1920, 365.4258
228.4140, 300.7344
229.6360, 99.34375
230.8580, 169.3203
232.0800, 65.37500
233.3020, 81.44531
234.5230, 151.9688
235.7440, 171.7891
236.9650, 59.01172
238.1860, 24.53906
239.4070, 148.9844
240.6280, 8.789063
241.8480, 47.60156
243.0680, 219.5547
244.2880, 394.4336
245.5080, 40.68750
246.7280, 41.98438
247.9470, 162.4141
249.1660, 147.2695
250.3860, 323.8750
251.6040, 374.3672
252.8230, 79.08594
254.0420, 118.1641
255.2600, 54.52734
256.4790, 19.91016
257.6970, 268.5195
258.9150, 112.3164
260.1320, 169.8984
261.3500, 187.1719
262.5670, 325.4453
263.7840, 201.1250
265.0010, 157.7109
266.2180, 376.6445
267.4350, 450.0039
268.6510, 294.2695
269.8680, 438.5781
271.0840, 45.78516
272.3000, 123.5195
273.5160, 404.2500
274.7310, 260.3359
275.9470, 408.2578
277.1620, 444.8867
278.3770, 23.87500
279.5920, 385.9688
280.8070, 415.6680
282.0210, 55.03125
283.2360, 434.4180
284.4500, 127.3477
285.6640, 65.15625
286.8780, 187.2305
288.0920, 359.2695
289.3050, 275.8320
290.5180, 246.0742
291.7320, 336.4180
292.9450, 504.7617
294.1570, 294.4883
295.3700, 150.1523
296.5830, 296.6719
297.7950, 555.7852
299.0070, 523.9727
300.2190, 544.5547
301.4310, 396.5312
302.6420, 280.8203
303.8540, 562.4180
305.0650, 373.0781
306.2760, 616.3984
307.4870, 645.5898
308.6980, 798.2656
309.9080, 883.8906
311.1190, 604.6094
312.3290, 967.4883
313.5390, 692.1445
314.7490, 597.7734
315.9580, 812.2969
317.1680, 501.6016
318.3770, 745.8047
319.5860, 450.9180
320.7950, 688.0508
322.0040, 671.1328
323.2130, 608.1836
324.4210, 956.1680
325.6290, 1386.184
326.8380, 840.2305
328.0460, 972.2969
329.2530, 975.9141
330.4610, 747.5000
331.6680, 836.6289
332.8760, 1096.789
334.0830, 756.2930
335.2890, 1495.113
336.4960, 845.3125
337.7030, 983.5312
338.9090, 772.7695
340.1150, 865.0430
341.3210, 636.3398
342.5270, 933.6641
343.7330, 534.0195
344.9380, 926.4023
346.1440, 642.8164
347.3490, 645.2656
348.5540, 1029.742
349.7590, 1250.246
350.9630, 1249.785
352.1680, 1138.352
353.3720, 964.9492
354.5760, 1039.578
355.7800, 1392.246
356.9840, 1329.945
358.1870, 1048.680
359.3910, 1416.844
360.5940, 1121.641
361.7970, 1227.898
363.0000, 1597.723
364.2030, 1137.625
365.4050, 1183.480
366.6080, 842.0742
367.8100, 775.7383
369.0120, 1299.078
370.2140, 1416.590
371.4150, 1095.406
372.6170, 725.2539
373.8180, 766.4062
375.0190, 524.4531
376.2200, 705.3594
377.4210, 509.0391
378.6220, 512.9023
379.8220, 566.6758
381.0230, 520.4727
382.2230, 572.6406
383.4230, 548.3281
384.6220, 607.3828
385.8220, 510.5898
387.0220, 481.6758
388.2210, 476.4727
389.4200, 422.4531
390.6190, 496.2969
391.8180, 386.3281
393.0160, 408.8398
394.2150, 335.5898
395.4130, 563.5000
396.6110, 432.4219
397.8090, 489.2734
399.0060, 852.8047
400.2040, 419.2148
401.4010, 487.9102
402.5980, 479.9766
403.7950, 687.9844
404.9920, 421.0938
406.1890, 631.2148
407.3860, 559.3633
408.5820, 443.5352
409.7780, 645.6992
410.9740, 750.9258
412.1700, 588.1758
413.3650, 640.4570
414.5610, 602.7695
415.7560, 662.7578
416.9510, 857.0664
418.1460, 954.5234
419.3410, 873.0625
420.5360, 753.6367
421.7300, 786.2500
422.9240, 721.5391
424.1180, 565.2383
425.3120, 734.9805
426.5060, 812.1758
427.7000, 667.0312
428.8930, 756.9297
430.0860, 918.6562
431.2790, 851.7461
432.4720, 653.9062
433.6650, 994.1055
434.8580, 871.3711
436.0500, 703.7734
437.2420, 832.2227
438.4340, 682.7266
439.6260, 979.3047
440.8180, 715.0234
442.0090, 828.7969
443.2010, 965.6328
444.3920, 970.5742
445.5830, 913.5742
446.7740, 980.6406
447.9640, 875.7656
449.1550, 1066.941
450.3450, 994.1914
451.5350, 1305.496
452.7250, 887.8594
453.9150, 1073.285
455.1050, 960.7734
456.2940, 1037.320
457.4830, 815.9297
458.6720, 762.6094
459.8610, 1022.352
461.0500, 1033.160
462.2390, 783.0352
463.4270, 976.9805
464.6150, 1122.000
465.8040, 1244.098
466.9910, 1184.258
468.1790, 1128.484
469.3670, 1035.785
470.5540, 1015.184
471.7410, 1090.652
472.9280, 1533.195
474.1150, 1525.809
475.3020, 1274.492
476.4890, 1425.250
477.6750, 1216.074
478.8610, 1307.992
480.0470, 1272.035
481.2330, 1297.055
482.4190, 1239.203
483.6040, 1411.422
484.7900, 1437.715
485.9750, 1264.074
487.1600, 1463.516
488.3450, 1578.020
489.5290, 1523.598
490.7140, 1725.246
491.8980, 1622.969
493.0820, 1648.762
494.2660, 1529.629
495.4500, 1692.566
496.6340, 1900.574
497.8170, 1782.660
499.0010, 1877.816
500.1840, 1769.039
501.3670, 1861.336
502.5500, 1862.715
503.7320, 1913.164
504.9150, 1816.688
506.0970, 1891.297
507.2790, 1842.984
508.4610, 2076.805
509.6430, 2097.723
510.8250, 2015.742
512.0060, 2051.934
513.1870, 2060.281
514.3680, 1934.793
515.5490, 1990.512
516.7300, 2280.539
517.9110, 1952.570
519.0910, 2173.750
520.2710, 2347.047
521.4510, 2263.957
522.6310, 2090.477
523.8110, 1940.141
524.9910, 2079.922
526.1700, 2035.793
527.3490, 2445.746
528.5280, 2361.039
529.7070, 2397.191
530.8860, 2297.910
532.0650, 2105.543
533.2430, 2292.086
534.4210, 2194.727
535.5990, 2175.504
536.7770, 2430.355
537.9550, 2356.273
539.1320, 2554.266
540.3100, 2552.113
541.4870, 2416.387
542.6640, 2468.508
543.8410, 2476.039
545.0170, 2447.895
546.1940, 2706.223
547.3700, 2849.883
548.5470, 2790.621
549.7230, 2697.426
550.8980, 2785.301
552.0740, 2644.215
553.2500, 2878.230
554.4250, 2837.328
555.6000, 2708.246
556.7750, 3060.324
557.9500, 3071.645
559.1250, 3243.105
560.2990, 3201.988
561.4730, 2880.598
562.6480, 2790.305
563.8220, 2771.336
564.9950, 2885.199
566.1690, 2914.141
567.3430, 3030.145
568.5160, 2849.625
569.6890, 2974.766
570.8620, 3095.336
572.0350, 2611.590
573.2070, 2644.543
574.3800, 2437.977
575.5520, 2070.473
576.7240, 1884.031
577.8960, 2058.656
579.0680, 1742.344
580.2400, 1586.090
581.4110, 1236.848
582.5830, 1124.594
583.7540, 874.6016
584.9250, 582.4023
586.0950, 765.5078
587.2660, 433.6914
588.4370, 726.9375
589.6070, 638.2383
590.7770, 544.8711
591.9470, 402.3164
593.1170, 533.8281
594.2860, 333.4688
595.4560, 297.1406
596.6250, 492.8711
597.7940, 416.6836
598.9630, 575.5547
600.1320, 374.4805
601.3000, 510.4688
602.4690, 424.5117
603.6370, 248.6055
604.8050, 281.9922
605.9730, 513.1992
607.1410, 167.4648
608.3090, 447.7852
609.4760, 241.1602
610.6430, 119.2891
611.8100, 396.7734
612.9770, 252.3125
614.1440, 341.1406
615.3110, 249.8320
616.4770, 366.5742
617.6430, 379.8203
618.8090, 455.6719
619.9750, 375.5742
621.1410, 402.3398
622.3070, 192.3438
623.4720, 447.3906
624.6370, 310.4883
625.8020, 174.6367
626.9670, 590.8320
628.1320, 501.0781
629.2970, 306.3672
630.4610, 371.7109
631.6250, 438.0977
632.7890, 434.5312
633.9530, 499.0156
635.1170, 585.5547
636.2810, 375.1289
637.4440, 347.7539
638.6070, 439.4258
639.7700, 259.1406
640.9330, 311.9023
642.0960, 426.3008
643.2590, 410.1758
644.4210, 445.0977
645.5830, 424.3906
646.7450, 536.0898
647.9070, 302.6914
649.0690, 285.7852
650.2310, 163.2812
651.3920, 264.2578
652.5530, 187.4688
653.7140, 299.7227
654.8750, 216.0117
656.0360, 12.66016
657.1970, 543.6992
658.3570, 194.0938
659.5170, 360.5234
660.6770, 37.01562
661.8370, 293.4844
662.9970, 93.01172
664.1570, 57.43359
665.3160, 260.1641
666.4750, 85.78906
667.6340, 93.55859
668.7930, 122.1055
669.9520, 98.20312
671.1110, 14.39062
672.2690, 82.32812
673.4270, 93.08203
674.5850, 185.9492
675.7430, 69.66797
676.9010, 206.5000
678.0590, 170.3555
679.2160, 67.76172
680.3730, 146.8711
681.5300, 140.2148
682.6870, 162.7852
683.8440, 18.21875
685.0010, 30.76562
686.1570, 139.0820
687.3130, 239.9570
688.4690, 151.3867
689.6250, 55.30469
690.7810, 84.75781
691.9370, 30.17188
693.0920, 146.1484
694.2470, 24.46875
695.4020, 213.4883
696.5570, 214.4258
697.7120, 114.0703
698.8670, 210.1758
700.0210, 117.7695
701.1750, 437.4883
702.3290, 47.60547
703.4830, 118.5469
704.6370, 107.4609
705.7910, 16.39062
706.9440, 123.6719
708.0970, 84.22656
709.2510, 245.3555
710.4030, 184.5508
711.5560, 121.2500
712.7090, 85.82031
713.8610, 39.19531
715.0140, 57.22656
716.1660, 92.94531
717.3180, 176.6758
718.4690, 117.4648
719.6210, 41.83203
720.7730, 1.816406
721.9240, 25.55078
723.0750, 72.70703
724.2260, 156.8945
725.3770, 77.23438
726.5270, 151.9570
727.6780, 114.6875
728.8280, 12.69922
729.9780, 315.0234
731.1280, 51.91797
732.2780, 45.64844
733.4280, 174.6250
734.5770, 333.3672
735.7260, 140.0977
736.8760, 194.8477
738.0250, 201.5977
739.1730, 229.3555
740.3220, 218.1172
741.4700, 209.8789
742.6190, 7.648438
743.7670, 193.3906
744.9150, 199.1641
746.0630, 154.9102
747.2100, 438.6641
748.3580, 67.58203
749.5050, 273.1133
750.6520, 558.0820
751.7990, 39.77734
752.9460, 94.30859
754.0930, 145.9883
755.2390, 366.6680
756.3860, 0.3476560
757.5320, 209.7578
758.6780, 21.59766
759.8240, 302.0000
760.9690, 204.5977
762.1150, 292.1914
763.2600, 336.7852
764.4060, 313.3789
765.5510, 497.9688
766.6950, 162.5547
767.8400, 255.1406
768.9850, 226.7188
770.1290, 325.2969
771.2730, 347.8672
772.4170, 122.4375
773.5610, 170.0039
774.7050, 272.5820
775.8480, 452.1367
776.9920, 237.6914
778.1350, 197.2422
779.2780, 96.78125
780.4210, 151.6445
781.5640, 235.2344
782.7060, 584.7500
783.8490, 141.2617
784.9910, 108.7734
786.1330, 478.2656
787.2750, 51.75391
788.4170, 47.78516
789.5580, 637.5977
790.7000, 177.9727
791.8410, 421.3438
792.9820, 445.3203
794.1230, 420.9375
795.2640, 388.2852
796.4040, 447.7266
797.5450, 415.7617
798.6850, 475.7617
799.8250, 452.0781
800.9650, 303.3984
802.1050, 390.6953
803.2450, 284.9922
804.3840, 215.2812
805.5230, 608.3203
806.6630, 367.5938
807.8020, 20.35938
808.9400, 341.3789
810.0790, 318.5898
811.2170, 304.7969
812.3560, 271.9922
813.4940, 530.1797
814.6320, 441.3594
815.7700, 225.5312
816.9070, 448.9570
818.0450, 627.0117
819.1820, 71.69922
820.3190, 283.2188
821.4560, 66.89062
822.5930, 271.1797
823.7300, 335.2031
824.8670, 109.2188
826.0030, 153.2227
827.1390, 309.2188
828.2750, 207.2422
829.4110, 53.22266
830.5470, 114.1797
831.6820, 162.3750
832.8180, 230.4766
833.9530, 247.5938
835.0880, 84.16797
836.2230, 122.5781
837.3580, 67.67578
838.4920, 400.9961
839.6270, 103.4102
840.7610, 158.0703
841.8950, 137.7188
843.0290, 169.3672
844.1630, 297.6094
845.2960, 80.24609
846.4300, 191.5156
847.5630, 57.16406
848.6960, 31.82422
849.8290, 123.7461
850.9620, 175.3203
852.0940, 363.8867
853.2270, 274.9766
854.3590, 120.0195
855.4910, 161.5820
856.6230, 31.19531
857.7550, 115.8867
858.8870, 259.3594
860.0180, 116.8906
861.1500, 44.42969
862.2810, 159.9961
863.4120, 187.4180
864.5430, 50.15625
865.6730, 158.4648
866.8040, 12.15234
867.9340, 391.7148
869.0640, 144.9922
870.1940, 89.28125
871.3240, 56.44531
872.4540, 237.7852
873.5830, 157.0117
874.7130, 233.5430
875.8420, 167.4727
876.9710, 331.7031
878.1000, 253.9297
879.2290, 255.9297
880.3570, 57.16016
881.4860, 267.3984
882.6140, 389.6328
883.7420, 230.8711
884.8700, 129.4141
885.9980, 23.65625
887.1250, 276.8984
888.2530, 137.0898
889.3800, 250.0703
890.5070, 42.24219
891.6340, 175.4180
892.7610, 1.875000
893.8880, 305.3008
895.0140, 54.65625
896.1400, 143.8398
897.2670, 244.0273
898.3930, 234.2148
899.5180, 274.8828
900.6440, 281.6133
901.7700, 206.8203
902.8950, 255.0352
904.0200, 96.25391
905.1450, 407.4766
906.2700, 115.7070
907.3950, 134.9414
908.5190, 347.1719
909.6440, 20.57812
910.7680, 335.6641
911.8920, 266.9180
913.0160, 121.1758
914.1400, 195.4375
915.2630, 100.8789
916.3870, 26.64453
917.5100, 160.5898
918.6330, 394.8242
919.7560, 254.0469
920.8790, 383.7500
922.0010, 323.0117
923.1240, 242.9258
924.2460, 123.4023
925.3680, 365.6914
926.4900, 658.9922
927.6120, 376.3047
928.7340, 356.6250
929.8550, 22.97266
930.9760, 285.3320
932.0980, 514.6953
933.2190, 194.0781
934.3390, 191.4688
935.4600, 277.8906
936.5810, 414.3164
937.7010, 276.7539
938.8210, 96.20703
939.9410, 404.6680
941.0610, 284.1484
942.1810, 761.6484
943.3010, 723.0625
944.4200, 114.6055
945.5390, 204.1562
946.6580, 450.7227
947.7770, 328.3008
948.8960, 328.9023
950.0150, 152.5156
951.1330, 608.1445
952.2510, 368.3281
953.3690, 454.4844
954.4870, 333.0938
955.6050, 123.8633
956.7230, 354.0391
957.8400, 495.8477
958.9580, 314.6758
960.0750, 581.9844
961.1920, 373.8359
962.3090, 542.7109
963.4250, 520.6133
964.5420, 685.5234
965.6580, 616.9844
966.7740, 599.5977
967.8900, 563.1602
969.0060, 379.5664
970.1220, 517.9102
971.2380, 280.0469
972.3530, 315.6445
973.4680, 551.7109
974.5830, 303.7461
975.6980, 545.0898
976.8130, 564.4570
977.9280, 427.8438
979.0420, 454.2852
980.1560, 282.2383
981.2710, 571.7773
982.3850, 634.8125
983.4980, 459.0820
984.6120, 489.7656
985.7260, 575.4766
986.8390, 345.2031
987.9520, 721.9570
989.0650, 560.7344
990.1780, 350.5352
991.2910, 513.4609
992.4030, 460.3242
993.5160, 481.2188
994.6280, 530.2656
995.7400, 646.6016
996.8520, 473.5859
997.9640, 490.6016
999.0750, 643.7695
1000.187, 468.8438
1001.298, 518.7852
1002.409, 675.9141
1003.520, 607.8594
1004.631, 226.0742
1005.741, 593.3359
1006.852, 648.6055
1007.962, 199.9062
1009.072, 643.2656
1010.182, 627.6562
1011.292, 476.0742
1012.402, 972.5352
1013.511, 588.0312
1014.621, 585.5508
1015.730, 624.1289
1016.839, 544.7344
1017.948, 628.3789
1019.056, 356.0781
1020.165, 647.5664
1021.273, 794.3555
1022.382, 533.3477
1023.490, 902.2148
1024.598, 287.1172
1025.706, 749.0508
1026.813, 500.2695
1027.921, 346.2734
1029.028, 589.3398
1030.135, 736.4297
1031.242, 625.5547
1032.349, 576.7109
1033.456, 704.9102
1034.562, 860.1406
1035.668, 676.4023
1036.775, 1027.699
1037.881, 992.0273
1038.987, 1318.383
1040.092, 1092.770
1041.198, 827.1914
1042.303, 860.6641
1043.408, 823.1484
1044.514, 1009.684
1045.618, 1057.254
1046.723, 1007.855
1047.828, 845.4883
1048.932, 961.8242
1050.037, 1207.465
1051.141, 906.1992
1052.245, 927.9766
1053.349, 1236.785
1054.452, 807.6328
1055.556, 875.5234
1056.659, 830.4531
1057.762, 918.4453
1058.865, 804.4766
1059.968, 935.9492
1061.071, 552.6367
1062.174, 1134.551
1063.276, 1164.711
1064.378, 1218.992
1065.480, 857.2227
1066.582, 1207.484
1067.684, 1136.551
1068.786, 1318.879
1069.887, 1277.242
1070.988, 1181.633
1072.090, 1102.062
1073.191, 1587.523
1074.291, 1151.020
1075.392, 1216.051
1076.493, 1488.629
1077.593, 972.2539
1078.693, 1204.914
1079.793, 1166.605
1080.893, 1162.332
1081.993, 1017.094
1083.092, 1341.883
1084.192, 1440.707
1085.291, 1495.559
1086.390, 1484.445
1087.489, 1426.980
1088.588, 1198.402
1089.686, 1188.434
1090.785, 1088.504
1091.883, 933.6055
1092.981, 1008.719
1094.079, 945.4492
1095.177, 1122.113
1096.275, 943.7422
1097.373, 1026.801
1098.470, 964.5469
1099.567, 907.7227
1100.664, 1322.141
1101.761, 784.6250
1102.858, 1123.137
1103.954, 997.6875
1105.051, 851.5469
1106.147, 924.1914
1107.243, 888.7969
1108.339, 794.6523
1109.435, 1050.547
1110.531, 746.3555
1111.626, 946.1523
1112.722, 1199.980
1113.817, 1265.832
1114.912, 1108.719
1116.007, 1078.516
1117.101, 1114.477
1118.196, 1013.469
1119.290, 1019.418
1120.385, 1002.719
1121.479, 978.6172
1122.573, 949.7227
1123.666, 953.8633
1124.760, 867.0469
1125.853, 782.2891
1126.947, 818.6406
1128.040, 676.0430
1129.133, 628.4766
1130.226, 568.4727
1131.318, 530.8984
1132.411, 530.0312
1133.503, 523.5664
1134.596, 575.0977
1135.688, 599.7695
1136.780, 655.4688
1137.871, 563.2109
1138.963, 501.9805
1140.054, 445.8281
1141.146, 433.0234
1142.237, 455.9492
1143.328, 518.2266
1144.419, 519.1211
1145.509, 732.5234
1146.600, 685.5312
1147.690, 594.9922
1148.780, 471.4414
1149.870, 338.4570
1150.960, 172.4453
1152.050, 161.5156
1153.139, 217.0859
1154.229, 553.2383
1155.318, 260.4102
1156.407, 453.6094
1157.496, 522.8281
1158.585, 263.0742
1159.674, 341.3438
1160.762, 266.6328
1161.850, 437.9453
1162.939, 417.2773
1164.027, 452.6719
1165.114, 416.0430
1166.202, 273.4453
1167.290, 311.8594
1168.377, 91.29688
1169.464, 303.7539
1170.551, 246.2305
1171.638, 367.7812
1172.725, 457.0156
1173.812, 206.6016
1174.898, 80.21484
1175.984, 100.8398
1177.071, 125.4922
1178.157, 163.1602
1179.242, 188.0469
1180.328, 435.5781
1181.414, 184.3281
1182.499, 501.0703
1183.584, 381.8594
1184.669, 311.0234
1185.754, 332.8516
1186.839, 349.6914
1187.924, 256.5508
1189.008, 117.4297
1190.092, 309.3203
1191.177, 393.2227
1192.260, 91.85156
1193.344, 294.0664
1194.428, 7.000000
1195.512, 262.9453
1196.595, 103.9023
1197.678, 66.12500
1198.761, 45.01172
1199.844, 200.0039
1200.927, 606.0039
1202.009, 462.4062
1203.092, 20.16016
1204.174, 392.2070
1205.256, 26.73047
1206.338, 75.34375
1207.420, 99.42578
1208.502, 134.5195
1209.583, 175.0586
1210.665, 187.2891
1211.746, 204.8906
1212.827, 229.0391
1213.908, 217.2031
1214.988, 256.3750
1216.069, 99.56250
1217.149, 126.7578
1218.230, 123.9688
1219.310, 90.19141
1220.390, 304.4297
1221.470, 190.7930
1222.549, 211.9297
1223.629, 94.19922
1224.708, 33.48047
1225.787, 42.23047
1226.866, 85.66016
1227.945, 113.1289
1229.024, 25.46484
1230.103, 123.2422
1231.181, 148.9414
1232.259, 208.3867
1233.337, 205.5820
1234.415, 71.21094
1235.493, 130.9766
1236.571, 120.8281
1237.648, 64.31641
1238.726, 477.4688
1239.803, 0.8945310
1240.880, 380.0586
1241.957, 266.2305
1243.034, 106.4141
1244.110, 45.60938
1245.187, 21.18359
1246.263, 111.0195
1247.339, 60.68359
1248.415, 189.4453
1249.491, 103.6680
1250.566, 173.8945
1251.642, 191.1250
1252.717, 379.3633
1253.793, 325.2773
1254.868, 157.7305
1255.943, 300.3164
1257.017, 410.5703
1258.092, 376.1992
1259.166, 100.9766
1260.241, 230.2422
1261.315, 63.50781
1262.389, 65.78125
1263.462, 106.9453
1264.536, 211.2656
1265.610, 34.48438
1266.683, 137.7070
1267.756, 309.9297
1268.829, 122.8320
1269.902, 157.3359
1270.975, 135.5156
1272.048, 15.29688
1273.120, 221.8711
