##NAMES=Cassiterite
##RRUFFID=R040072
##IDEAL CHEMISTRY=SnO_2_
##LOCALITY=Bolivia
##OWNER=RRUFF
##SOURCE=University of Arizona Mineral Museum
##DESCRIPTION=Black fragment
##STATUS=The identification of this mineral has been confirmed by X-ray diffraction and chemical analysis
##URL=rruff.info/R040072
##MEASURED CHEMISTRY=Sn_0.99_O_2_
##PIN_ID=M00007
##ORIENTATION=Laser parallel to a* (1 0 0). Fiducial mark perpendicular to laser is parallel to c [0 0 1]
214.472, 0.000
215.846, 103.243
217.220, 78.998
218.594, 221.496
219.967, 291.603
221.341, 408.625
222.714, 330.213
224.087, 261.493
225.460, 190.809
226.832, 218.360
228.204, 212.583
229.577, 113.723
230.948, 115.202
232.320, 58.947
233.692, 91.683
235.063, 2.588
236.434, 31.464
237.805, 35.659
239.175, 1.528
240.545, 40.602
241.916, 92.425
243.286, 108.514
244.655, 74.991
246.025, 125.384
247.394, 151.176
248.763, 280.575
250.132, 332.466
251.501, 282.477
252.869, 263.768
254.237, 233.146
255.605, 190.444
256.973, 185.278
258.340, 175.074
259.708, 154.701
261.075, 206.167
262.442, 144.999
263.808, 88.943
265.175, 111.777
266.541, 153.606
267.907, 151.959
269.273, 197.994
270.639, 188.144
272.004, 200.759
273.369, 153.982
274.734, 169.313
276.099, 72.255
277.463, 49.278
278.828, 37.415
280.192, 42.508
281.556, 24.929
282.919, 4.901
284.283, 4.400
285.646, 91.282
287.009, 75.891
288.372, 198.244
289.734, 221.298
291.097, 264.875
292.459, 333.323
293.821, 386.734
295.183, 418.910
296.544, 361.212
297.905, 435.034
299.266, 393.071
300.627, 369.048
301.988, 357.757
303.348, 333.260
304.709, 315.097
306.069, 292.720
307.428, 266.755
308.788, 239.223
310.147, 191.745
311.507, 222.318
312.865, 180.923
314.224, 104.553
315.583, 148.199
316.941, 111.850
318.299, 150.498
319.657, 33.133
321.015, 140.749
322.372, 136.334
323.729, 156.895
325.086, 231.433
326.443, 199.942
327.800, 70.372
329.156, 157.628
330.512, 95.782
331.868, 17.849
333.224, 192.874
334.579, 219.877
335.935, 160.862
337.290, 59.827
338.645, 16.768
339.999, 131.684
341.354, 101.570
342.708, 65.424
344.062, 163.244
345.416, 130.030
346.769, 45.772
348.123, 127.475
349.476, 32.121
350.829, 75.736
352.182, 74.333
353.534, 97.898
354.887, 28.571
356.239, 10.933
357.591, 5.421
358.942, 42.128
360.294, 39.304
361.645, 31.724
362.996, 52.128
364.347, 23.486
365.698, 34.112
367.048, 41.783
368.398, 71.495
369.748, 30.235
371.098, 99.993
372.448, 75.808
373.797, 82.697
375.146, 126.678
376.495, 31.762
377.844, 92.585
379.192, 1.583
380.540, 117.800
381.889, 23.295
383.236, 3.059
384.584, 63.101
385.932, 21.574
387.279, 44.969
388.626, 12.958
389.973, 45.198
391.319, 21.095
392.666, 127.537
394.012, 141.537
395.358, 129.108
396.704, 164.545
398.049, 189.985
399.394, 200.726
400.740, 267.120
402.084, 361.849
403.429, 400.962
404.774, 419.738
406.118, 513.616
407.462, 553.172
408.806, 682.484
410.150, 651.319
411.493, 700.410
412.836, 676.460
414.179, 713.191
415.522, 730.755
416.865, 657.113
418.207, 584.206
419.549, 566.190
420.891, 539.042
422.233, 519.674
423.575, 486.480
424.916, 508.067
426.257, 465.580
427.598, 531.477
428.939, 598.633
430.279, 562.632
431.619, 662.839
432.959, 683.956
434.299, 828.056
435.639, 880.780
436.978, 829.603
438.318, 941.397
439.657, 730.681
440.996, 692.702
442.334, 652.417
443.673, 608.003
445.011, 460.691
446.349, 436.830
447.687, 486.593
449.024, 431.012
450.361, 513.447
451.699, 494.924
453.036, 486.466
454.372, 541.162
455.709, 555.883
457.045, 527.521
458.381, 584.805
459.717, 566.287
461.053, 663.582
462.388, 663.735
463.724, 745.847
465.059, 723.826
466.394, 765.764
467.728, 779.629
469.063, 785.421
470.397, 907.142
471.731, 940.609
473.065, 919.332
474.398, 1067.832
475.732, 1102.593
477.065, 1126.926
478.398, 1126.932
479.731, 1043.385
481.063, 1035.605
482.396, 1037.073
483.728, 1079.551
485.060, 1113.554
486.391, 1166.370
487.723, 1240.402
489.054, 1269.340
490.385, 1362.244
491.716, 1503.670
493.047, 1546.294
494.377, 1780.470
495.708, 1860.787
497.038, 2067.894
498.368, 2064.164
499.697, 2087.316
501.027, 2082.377
502.356, 2106.228
503.685, 2032.796
505.014, 1999.080
506.342, 1934.252
507.671, 1848.740
508.999, 1891.958
510.327, 1799.364
511.655, 1770.299
512.982, 1697.265
514.310, 1633.472
515.637, 1578.276
516.964, 1441.587
518.291, 1363.741
519.617, 1252.750
520.944, 1149.966
522.270, 1044.881
523.596, 975.030
524.921, 897.951
526.247, 862.312
527.572, 820.299
528.897, 824.247
530.222, 865.458
531.547, 914.115
532.871, 944.398
534.196, 1089.357
535.520, 1165.668
536.844, 1240.051
538.167, 1442.638
539.491, 1597.688
540.814, 1644.734
542.137, 1661.733
543.460, 1538.719
544.783, 1658.268
546.105, 1424.537
547.427, 1336.946
548.749, 1255.597
550.071, 1214.387
551.393, 1146.649
552.714, 1097.500
554.035, 1061.739
555.356, 1013.912
556.677, 993.800
557.998, 977.801
559.318, 948.852
560.638, 913.056
561.958, 874.959
563.278, 823.470
564.597, 789.680
565.917, 751.174
567.236, 724.419
568.555, 697.323
569.874, 662.547
571.192, 639.777
572.511, 627.012
573.829, 528.253
575.147, 593.502
576.464, 472.760
577.782, 520.026
579.099, 405.304
580.416, 454.592
581.733, 468.892
583.050, 373.204
584.366, 415.529
585.683, 353.870
586.999, 364.228
588.315, 376.601
589.630, 379.015
590.946, 443.391
592.261, 411.811
593.576, 507.248
594.891, 487.703
596.206, 518.185
597.520, 604.689
598.834, 570.251
600.148, 608.854
601.462, 697.501
602.776, 811.186
604.089, 860.590
605.402, 946.649
606.715, 991.437
608.028, 1022.261
609.341, 1063.104
610.653, 1195.967
611.965, 1266.847
613.277, 1416.008
614.589, 1420.570
615.901, 1565.839
617.212, 1739.391
618.523, 1943.797
619.834, 2257.938
621.145, 2515.531
622.456, 2923.635
623.766, 3563.188
625.076, 4193.600
626.386, 5301.039
627.696, 6629.759
629.006, 8525.208
630.315, 10773.924
631.624, 13004.337
632.933, 15181.477
634.242, 15719.616
635.551, 15167.437
636.859, 13463.833
638.167, 11208.344
639.475, 9117.278
640.783, 7403.804
642.090, 6228.411
643.398, 5658.943
644.705, 4725.791
646.012, 4202.302
647.318, 3795.273
648.625, 3524.315
649.931, 3382.446
651.237, 3359.136
652.543, 3161.981
653.849, 3095.693
655.155, 3125.360
656.460, 3091.202
657.765, 3080.019
659.070, 3111.876
660.375, 3131.962
661.679, 3190.561
662.984, 3254.293
664.288, 3353.950
665.592, 3477.186
666.895, 3685.688
668.199, 3711.732
669.502, 3838.539
670.805, 3953.391
672.108, 3977.174
673.411, 4032.243
674.713, 4127.131
676.016, 4102.187
677.318, 4107.487
678.620, 4302.369
679.921, 4241.999
681.223, 4236.917
682.524, 4211.952
683.825, 4196.889
685.126, 4241.895
686.427, 4366.834
687.727, 4351.795
689.028, 4276.795
690.328, 4441.825
691.628, 4366.888
692.927, 4621.996
694.227, 4547.122
695.526, 4512.281
696.825, 4297.453
698.124, 4162.667
699.423, 3907.894
700.721, 3511.134
702.020, 3002.399
703.318, 2637.674
704.616, 2358.972
705.913, 2160.289
707.211, 1946.633
708.508, 1795.997
709.805, 1751.369
711.102, 1644.746
712.399, 1610.130
713.695, 1617.521
714.992, 1521.917
716.288, 1520.650
717.584, 1650.722
718.879, 1462.130
720.175, 1454.541
721.470, 1414.956
722.765, 1196.375
724.060, 1279.797
725.355, 1249.222
726.649, 1263.648
727.944, 1182.090
729.238, 1044.533
730.532, 1150.979
731.825, 978.427
733.119, 996.877
734.412, 999.372
735.705, 932.940
736.998, 913.593
738.291, 933.287
739.584, 886.926
740.876, 816.657
742.168, 803.398
743.460, 760.218
744.752, 732.163
746.043, 730.538
747.334, 675.981
748.626, 719.382
749.916, 670.432
751.207, 640.475
752.498, 659.912
753.788, 576.460
755.078, 577.499
756.368, 604.414
757.658, 470.025
758.947, 418.016
760.237, 489.129
761.526, 325.508
762.815, 221.152
764.104, 149.198
765.392, 69.354
766.680, 24.913
767.969, 6.568
769.257, 17.841
770.544, 33.802
771.832, 14.182
773.119, 33.466
774.406, 46.563
775.693, 11.259
776.980, 38.627
778.267, 67.750
779.553, 2.143
780.839, 63.505
782.125, 82.215
783.411, 24.423
784.697, 79.719
785.982, 104.505
787.267, 51.284
788.552, 66.021
789.837, 59.833
791.122, 35.214
792.406, 28.824
793.690, 74.260
794.974, 34.354
796.258, 24.352
797.542, 96.698
798.825, 37.073
800.108, 30.485
801.391, 19.930
802.674, 37.403
803.957, 53.887
805.239, 41.555
806.522, 8.981
807.804, 28.611
809.085, 59.761
810.367, 23.118
811.649, 35.457
812.930, 29.779
814.211, 56.084
815.492, 24.372
816.772, 72.640
818.053, 94.893
819.333, 72.129
820.613, 29.348
821.893, 15.549
823.173, 76.729
824.452, 69.892
825.732, 90.036
827.011, 29.163
828.290, 77.270
829.568, 42.358
830.847, 12.426
832.125, 95.471
833.403, 58.503
834.681, 94.545
835.959, 72.491
837.236, 102.417
838.514, 93.491
839.791, 126.492
841.068, 238.587
842.345, 173.536
843.621, 304.444
844.898, 264.404
846.174, 340.505
847.450, 445.499
848.726, 388.579
850.001, 569.592
851.277, 489.586
852.552, 482.457
853.827, 445.544
855.102, 364.396
856.376, 428.361
857.651, 475.895
858.925, 439.319
860.199, 521.327
861.473, 568.932
862.746, 549.791
864.020, 523.673
865.293, 487.606
866.566, 506.343
867.839, 474.221
869.112, 499.037
870.384, 534.641
871.656, 401.258
872.928, 389.811
874.200, 368.446
875.472, 411.209
876.744, 392.724
878.015, 291.307
879.286, 281.567
880.557, 292.660
881.828, 269.123
883.098, 226.334
884.369, 218.045
885.639, 182.229
886.909, 155.408
888.178, 138.482
889.448, 119.486
890.717, 110.476
891.987, 124.533
893.256, 103.313
894.524, 101.813
895.793, 83.519
897.061, 79.432
898.330, 74.470
899.598, 54.385
900.865, 42.161
902.133, 56.104
903.401, 5.772
904.668, 42.391
905.935, 1.964
907.202, 58.614
908.468, 66.188
909.735, 2.282
911.001, 62.133
912.267, 56.515
913.533, 24.137
914.799, 7.855
916.064, 60.366
917.330, 55.731
918.595, 114.885
919.860, 47.040
921.124, 3.049
922.389, 53.346
923.653, 15.934
924.918, 90.427
926.182, 7.918
927.445, 17.753
928.709, 59.775
929.972, 92.754
931.236, 84.031
932.499, 73.437
933.761, 11.805
935.024, 48.873
936.286, 51.199
937.549, 10.752
938.811, 101.577
940.073, 80.167
941.334, 83.754
942.596, 28.652
943.857, 96.960
945.118, 123.152
946.379, 108.914
947.640, 167.078
948.900, 85.154
950.161, 164.293
951.421, 220.106
952.681, 285.245
953.940, 197.918
955.200, 128.511
956.459, 228.005
957.719, 144.940
958.978, 199.710
960.236, 216.601
961.495, 254.526
962.753, 228.268
964.012, 291.033
965.270, 294.746
966.527, 251.540
967.785, 293.172
969.043, 360.979
970.300, 426.850
971.557, 399.597
972.814, 374.137
974.071, 382.590
975.327, 345.271
976.583, 368.896
977.840, 360.577
979.095, 273.976
980.351, 256.547
981.607, 299.944
982.862, 210.101
984.117, 218.665
985.372, 104.471
986.627, 146.975
987.882, 144.361
989.136, 83.845
990.390, 96.263
991.644, 68.754
992.898, 99.223
994.152, 103.669
995.405, 86.140
996.659, 47.494
997.912, 67.871
999.165, 42.224
1000.417, 52.554
1001.670, 51.860
1002.922, 76.143
1004.174, 20.402
1005.426, 69.638
1006.678, 36.851
1007.930, 47.960
1009.181, 14.825
1010.432, 8.728
1011.683, 34.665
1012.934, 33.352
1014.185, 21.345
1015.435, 13.314
1016.685, 44.259
1017.935, 13.182
1019.185, 16.081
1020.435, 57.070
1021.684, 47.923
1022.934, 56.792
1024.183, 30.644
1025.432, 9.431
1026.680, 47.637
1027.929, 26.250
1029.177, 97.086
1030.425, 34.095
1031.673, 35.561
1032.921, 89.194
1034.169, 2.808
1035.416, 82.455
1036.663, 79.659
1037.911, 98.167
1039.157, 108.539
1040.404, 105.793
1041.650, 82.046
1042.897, 92.499
1044.143, 56.720
1045.389, 97.869
1046.634, 86.919
1047.880, 48.931
1049.125, 70.936
1050.371, 95.957
1051.615, 46.350
1052.860, 147.386
1054.105, 108.099
1055.349, 85.396
1056.593, 87.957
1057.837, 80.914
1059.081, 83.313
1060.325, 97.719
1061.568, 98.383
1062.812, 101.885
1064.055, 115.462
1065.298, 102.971
1066.540, 41.540
1067.783, 89.917
1069.025, 74.750
1070.267, 60.841
1071.509, 99.582
1072.751, 65.822
1073.993, 86.781
1075.234, 98.456
1076.475, 45.916
1077.716, 76.942
1078.957, 79.361
1080.198, 109.023
1081.438, 86.664
1082.679, 78.249
1083.919, 119.145
1085.159, 64.496
1086.398, 63.907
1087.638, 115.767
1088.877, 128.569
1090.116, 85.293
1091.355, 98.052
1092.594, 103.341
1093.833, 141.179
1095.071, 109.116
1096.309, 79.019
1097.547, 93.089
1098.785, 109.891
1100.023, 107.968
1101.260, 63.046
1102.498, 107.125
1103.735, 185.201
1104.972, 70.252
1106.208, 164.338
1107.445, 86.415
1108.681, 152.484
1109.918, 102.555
1111.154, 172.616
1112.389, 102.670
1113.625, 130.717
1114.860, 88.755
1116.096, 78.785
1117.331, 165.808
1118.566, 169.823
1119.800, 253.831
1121.035, 310.831
1122.269, 583.824
1123.503, 775.813
1124.737, 627.799
1125.971, 356.776
1127.205, 355.747
1128.438, 267.712
1129.671, 343.669
1130.904, 315.621
1132.137, 308.568
1133.370, 289.515
1134.602, 277.399
1135.834, 285.360
1137.066, 262.077
1138.298, 264.485
1139.530, 238.998
1140.762, 248.750
1141.993, 254.625
1143.224, 227.514
1144.455, 170.332
1145.686, 232.983
1146.917, 188.721
1148.147, 133.360
1149.377, 217.038
1150.607, 109.719
1151.837, 186.502
1153.067, 174.042
1154.296, 139.792
1155.526, 142.402
1156.755, 105.417
1157.984, 83.516
1159.213, 71.228
1160.441, 64.869
1161.670, 44.458
1162.898, 41.999
1164.126, 46.114
1165.354, 28.091
1166.581, 46.557
1167.809, 0.945
1169.036, 35.736
1170.263, 13.377
1171.490, 12.055
1172.717, 47.622
1173.943, 14.966
1175.170, 26.335
1176.396, 1.806
1177.622, 1.980
1178.848, 35.984
1180.073, 55.550
1181.299, 53.341
1182.524, 3.604
1183.749, 42.633
1184.974, 22.099
1186.199, 17.091
1187.423, 15.243
1188.648, 38.591
1189.872, 5.672
1191.096, 5.109
1192.320, 81.742
1193.543, 22.550
1194.767, 24.315
1195.990, 5.924
1197.213, 10.372
1198.436, 57.438
1199.659, 11.952
1200.881, 33.899
1202.104, 24.762
1203.326, 38.437
1204.548, 11.617
1205.770, 45.175
1206.991, 13.980
1208.213, 7.856
1209.434, 41.733
1210.655, 51.612
1211.876, 70.510
1213.096, 27.421
1214.317, 18.157
1215.537, 91.073
1216.757, 25.957
1217.977, 66.790
1219.197, 59.722
1220.417, 63.609
1221.636, 79.562
1222.855, 108.514
1224.074, 169.375
1225.293, 193.345
1226.512, 183.501
1227.731, 122.288
1228.949, 148.259
1230.167, 109.230
1231.385, 108.210
1232.603, 112.192
1233.820, 106.174
1235.038, 167.168
1236.255, 82.162
1237.472, 211.155
1238.689, 131.148
1239.906, 147.142
1241.122, 172.136
1242.338, 178.128
1243.555, 193.119
1244.771, 198.253
1245.986, 187.095
1247.202, 192.082
1248.417, 217.066
1249.633, 194.048
1250.848, 275.029
1252.063, 219.008
1253.277, 192.986
1254.492, 234.965
1255.706, 207.946
1256.920, 172.927
1258.134, 241.910
1259.348, 264.895
1260.562, 286.880
1261.775, 255.868
1262.988, 276.884
1264.201, 278.874
1265.414, 310.866
1266.627, 331.996
1267.839, 305.176
1269.052, 316.526
1270.264, 327.227
1271.476, 328.226
1272.688, 334.859
1273.899, 345.306
1275.111, 343.309
1276.322, 324.395
1277.533, 334.399
1278.744, 303.690
1279.955, 371.299
1281.165, 316.307
1282.376, 338.311
1283.586, 432.949
1284.796, 414.210
1286.006, 386.860
1287.215, 426.963
1288.425, 430.015
1289.634, 359.808
1290.843, 360.847
1292.052, 392.216
1293.261, 423.476
1294.469, 356.500
1295.678, 402.084
1296.886, 414.108
1298.094, 421.191
1299.302, 495.796
1300.509, 444.933
1301.717, 449.128
1302.924, 406.394
1304.131, 502.794
1305.338, 478.323
1306.545, 570.214
1307.752, 524.023
1308.958, 518.267
1310.164, 514.516
1311.370, 490.860
1312.576, 547.724
1313.782, 495.719
1314.987, 433.832
1316.193, 491.910
1317.398, 447.987
1318.603, 382.109
1319.807, 478.794
1321.012, 384.054
1322.216, 461.072
1323.421, 416.091
1324.625, 354.245
1325.829, 389.403
1327.032, 357.611
1328.236, 359.722
1329.439, 430.259
1330.642, 331.434
1331.845, 372.130
1333.048, 410.890
1334.251, 270.060
1335.453, 386.069
1336.656, 352.203
1337.858, 311.382
1339.060, 291.534
1340.261, 297.657
1341.463, 308.694
1342.664, 303.467
1343.866, 251.489
1345.067, 306.182
1346.267, 244.148
1347.468, 165.067
1348.669, 277.583
1349.869, 284.184
1351.069, 241.074
1352.269, 300.940
1353.469, 221.770
1354.668, 250.610
1355.868, 270.443
1357.067, 281.267
1358.266, 204.083
1359.465, 272.891
1360.664, 267.688
1361.862, 173.475
1363.061, 277.249
1364.259, 251.009
1365.457, 335.755
1366.655, 297.486
1367.852, 268.200
1369.050, 293.897
1370.247, 281.581
1371.444, 359.250
1372.641, 325.909
1373.838, 343.558
1375.035, 324.196
1376.231, 355.825
1377.427, 365.444
1378.623, 341.055
1379.819, 311.657
1381.015, 320.562
1382.211, 386.835
1383.406, 321.414
1384.601, 368.988
1385.796, 375.560
1386.991, 278.129
1388.185, 277.699
1389.380, 269.271
1390.574, 256.849
1391.768, 236.438
1392.962, 213.087
1394.156, 206.714
1395.350, 183.361
1396.543, 132.049
1397.736, 134.373
1398.929, 121.702
1400.122, 165.036
1401.315, 139.375
1402.507, 139.183
1403.700, 69.067
1404.892, 129.417
1406.084, 37.764
1407.276, 59.115
1408.467, 73.471
1409.659, 13.827
1410.850, 9.165
1412.041, 3.463
1413.232, 2.277
1414.423, 90.972
1415.614, 29.206
1416.804, 79.414
1417.994, 82.315
1419.184, 29.529
1420.374, 84.907
1421.564, 9.942
1422.753, 14.797
1423.943, 81.331
1425.132, 36.547
1426.321, 46.427
1427.510, 8.307
1428.698, 30.187
1429.887, 30.934
1431.075, 44.068
1432.263, 15.797
1433.451, 48.334
1434.639, 8.525
1435.827, 38.375
1437.014, 96.782
1438.201, 27.060
1439.388, 1.904
1440.575, 43.251
1441.762, 6.392
1442.949, 32.458
1444.135, 24.759
1445.321, 20.959
1446.507, 15.167
1447.693, 11.490
1448.879, 3.606
1450.064, 5.714
1451.250, 29.084
1452.435, 29.340
1453.620, 108.608
1454.805, 105.892
1455.989, 106.051
1457.174, 128.506
1458.358, 98.840
1459.542, 74.194
1460.726, 113.569
1461.910, 97.968
1463.093, 122.389
1464.277, 174.835
1465.460, 122.308
1466.643, 185.804
1467.826, 120.326
1469.009, 57.857
1470.191, 89.392
1471.373, 119.930
1472.556, 201.414
1473.738, 132.958
1474.919, 210.790
1476.101, 149.927
1477.283, 211.248
1478.464, 243.756
1479.645, 207.075
1480.826, 106.486
1482.007, 163.340
1483.187, 119.037
1484.368, 147.837
1485.548, 146.758
1486.728, 207.650
1487.908, 104.088
1489.088, 164.144
1490.268, 195.291
1491.447, 119.385
1492.626, 118.480
1493.805, 139.130
1494.984, 68.750
1496.163, 124.509
1497.341, 141.637
1498.520, 83.627
1499.698, 87.465
1500.876, 52.133
1502.054, 50.611
1503.232, 60.415
1504.409, 204.707
1505.586, 83.463
1506.763, 177.940
1507.940, 182.213
1509.117, 132.138
1510.294, 170.149
1511.470, 121.682
1512.647, 169.398
1513.823, 54.639
1514.999, 121.080
1516.174, 122.601
1517.350, 103.316
1518.526, 105.989
1519.701, 122.632
1520.876, 106.292
1522.051, 98.056
1523.226, 128.019
1524.400, 54.312
1525.574, 168.946
1526.749, 23.874
1527.923, 57.097
1529.097, 60.699
1530.270, 192.820
1531.444, 39.638
1532.617, 60.296
1533.790, 1.897
1534.963, 63.580
1536.136, 73.020
1537.309, 0.000
##END=



