##NAMES=Cassiterite
##RRUFFID=R040017
##IDEAL CHEMISTRY=SnO_2_
##LOCALITY=Bolivia
##OWNER=RRUFF
##SOURCE=University of Arizona Mineral Museum
##DESCRIPTION=Dark brown short prismatic single crystals
##STATUS=The identification of this mineral has been confirmed by X-ray diffraction and chemical analysis
##URL=rruff.info/R040017
##MEASURED CHEMISTRY=Sn_1.00_O_2_; trace amounts of Fe
##PIN_ID=M00048
##ORIENTATION=Laser parallel to -c* (0 0 -1). Fiducial mark perpendicular to laser is parallel to a [1 0 0]
180.832, 0.000
182.215, 13.866
183.598, 7.644
184.981, 11.421
186.363, 39.136
187.745, 38.966
189.127, 57.085
190.509, 77.417
191.891, 30.663
193.272, 11.585
194.653, 41.765
196.034, 69.899
197.414, 106.593
198.795, 87.683
200.175, 84.655
201.555, 64.862
202.935, 73.861
204.314, 44.210
205.693, 92.024
207.072, 41.410
208.451, 92.243
209.830, 58.781
211.208, 9.323
212.586, 25.812
213.964, 12.642
215.342, 34.222
216.719, 68.810
218.096, 84.151
219.473, 153.272
220.850, 172.202
222.226, 163.963
223.603, 215.573
224.979, 102.061
226.355, 143.665
227.730, 102.469
229.105, 120.223
230.481, 125.114
231.856, 174.810
233.230, 237.989
234.605, 150.719
235.979, 174.401
237.353, 127.049
238.727, 227.667
240.100, 211.256
241.474, 185.818
242.847, 311.351
244.220, 395.852
245.592, 431.321
246.965, 349.762
248.337, 237.177
249.709, 297.567
251.080, 249.934
252.452, 310.281
253.823, 282.608
255.194, 321.936
256.565, 262.313
257.936, 362.734
259.306, 338.185
260.676, 290.662
262.046, 313.154
263.416, 346.661
264.785, 309.308
266.155, 280.082
267.524, 273.628
268.892, 164.308
270.261, 137.095
271.629, 88.695
272.997, 37.417
274.365, 51.178
275.733, 58.579
277.100, 90.386
278.468, 56.947
279.835, 107.170
281.201, 53.069
282.568, 78.879
283.934, 76.308
285.300, 99.492
286.666, 100.673
288.032, 172.852
289.397, 156.028
290.762, 134.203
292.127, 230.375
293.492, 206.546
294.857, 206.716
296.221, 171.885
297.585, 207.053
298.949, 207.220
300.312, 152.386
301.676, 236.518
303.039, 230.592
304.402, 245.604
305.765, 225.557
307.127, 153.497
308.489, 141.440
309.851, 122.387
311.213, 162.338
312.575, 100.294
313.936, 163.254
315.297, 178.218
316.658, 127.188
318.019, 72.162
319.379, 143.141
320.740, 150.126
322.100, 95.117
323.460, 148.114
324.819, 113.117
326.178, 148.126
327.538, 94.141
328.897, 95.094
330.255, 121.951
331.614, 104.707
332.972, 110.369
334.330, 54.966
335.688, 101.469
337.045, 58.898
338.403, 129.259
339.760, 113.489
341.117, 57.500
342.473, 85.633
343.830, 80.725
345.186, 72.681
346.542, 90.596
347.898, 38.492
349.253, 77.291
350.609, 64.112
351.964, 23.771
353.319, 22.591
354.673, 40.143
356.028, 23.910
357.382, 20.496
358.736, 23.159
360.090, 57.406
361.443, 17.930
362.797, 31.822
364.150, 55.255
365.503, 11.314
366.856, 64.058
368.208, 101.449
369.560, 54.862
370.912, 42.290
372.264, 8.267
373.616, 31.185
374.967, 18.271
376.318, 18.094
377.669, 16.072
379.020, 21.843
380.370, 38.381
381.720, 57.605
383.070, 94.830
384.420, 85.016
385.770, 167.243
387.119, 194.471
388.468, 248.702
389.817, 220.934
391.166, 190.168
392.514, 319.405
393.863, 224.644
395.211, 321.885
396.558, 295.130
397.906, 327.377
399.253, 365.628
400.600, 420.882
401.947, 461.053
403.294, 513.401
404.641, 556.665
405.987, 620.932
407.333, 666.202
408.679, 742.475
410.024, 737.751
411.370, 976.029
412.715, 998.311
414.060, 1239.594
415.405, 1267.879
416.749, 1347.166
418.093, 1442.385
419.437, 1461.836
420.781, 1501.948
422.125, 1588.822
423.468, 1586.953
424.811, 1688.852
426.154, 1734.585
427.497, 1980.584
428.840, 2134.004
430.182, 2259.119
431.524, 2442.355
432.866, 2624.609
434.208, 2791.875
435.549, 2966.147
436.890, 3134.425
438.231, 3311.711
439.572, 3541.002
440.913, 3702.301
442.253, 3955.607
443.593, 4143.920
444.933, 4261.239
446.273, 4482.565
447.612, 4692.900
448.951, 4681.242
450.290, 4815.591
451.629, 4716.950
452.968, 4609.316
454.306, 4580.692
455.644, 4370.076
456.982, 4166.469
458.320, 3952.870
459.657, 3654.280
460.995, 3441.699
462.332, 3194.126
463.668, 2970.563
465.005, 2738.009
466.341, 2560.248
467.678, 2439.927
469.014, 2218.400
470.349, 2133.881
471.685, 1954.373
473.020, 1802.873
474.355, 1683.373
475.690, 1548.848
477.025, 1441.377
478.359, 1343.881
479.693, 1311.386
481.027, 1252.896
482.361, 1199.409
483.695, 1219.925
485.028, 1149.446
486.361, 1236.972
487.694, 1152.503
489.027, 1147.040
490.359, 1164.582
491.692, 1098.131
493.024, 1090.643
494.356, 1018.206
495.687, 1061.775
497.019, 1107.253
498.350, 1116.739
499.681, 1076.318
501.012, 998.835
502.342, 999.349
503.672, 886.896
505.002, 897.533
506.332, 838.101
507.662, 738.749
508.992, 730.902
510.321, 697.482
511.650, 599.471
512.979, 587.610
514.307, 527.853
515.636, 484.409
516.964, 439.047
518.292, 404.905
519.619, 361.084
520.947, 295.292
522.274, 211.571
523.601, 178.741
524.928, 128.334
526.255, 109.884
527.581, 80.158
528.907, 107.988
530.233, 128.830
531.559, 153.685
532.885, 182.356
534.210, 171.429
535.535, 259.321
536.860, 241.224
538.185, 317.140
539.509, 316.068
540.834, 363.009
542.158, 466.962
543.482, 421.928
544.805, 426.906
546.129, 314.897
547.452, 307.901
548.775, 313.917
550.098, 190.947
551.420, 263.991
552.742, 261.048
554.065, 295.119
555.386, 308.202
556.708, 182.301
558.030, 256.414
559.351, 183.544
560.672, 157.693
561.993, 166.859
563.313, 120.052
564.634, 82.269
565.954, 111.512
567.274, 92.783
568.594, 99.079
569.913, 47.405
571.233, 40.755
572.552, 53.132
573.871, 28.977
575.189, 51.927
576.508, 39.346
577.826, 52.778
579.144, 100.223
580.462, 57.682
581.780, 17.155
583.097, 28.641
584.414, 81.141
585.731, 98.655
587.048, 103.182
588.365, 122.723
589.681, 133.277
590.997, 220.845
592.313, 246.426
593.629, 329.021
594.944, 342.630
596.260, 396.252
597.575, 458.887
598.890, 498.536
600.204, 589.199
601.519, 634.875
602.833, 754.565
604.147, 892.268
605.461, 973.985
606.774, 1102.716
608.088, 1279.461
609.401, 1438.220
610.714, 1576.668
612.026, 1754.786
613.339, 1898.594
614.651, 2050.426
615.963, 2289.277
617.275, 2557.143
618.587, 2878.029
619.898, 3380.933
621.210, 3810.856
622.521, 4506.797
623.832, 5338.755
625.142, 6495.737
626.453, 8177.735
627.763, 10059.753
629.073, 13211.790
630.383, 16553.848
631.692, 20155.920
633.001, 24038.021
634.311, 24680.137
635.619, 24262.277
636.928, 21084.436
638.237, 17146.615
639.545, 13708.818
640.853, 10681.034
642.161, 8633.271
643.469, 6765.521
644.776, 5553.790
646.083, 4820.075
647.390, 4016.373
648.697, 3531.685
650.004, 3087.013
651.310, 2788.363
652.616, 2466.726
653.922, 2222.116
655.228, 2040.533
656.534, 1906.974
657.839, 1691.434
659.144, 1604.908
660.449, 1501.399
661.754, 1436.906
663.058, 1337.429
664.362, 1155.967
665.666, 1192.521
666.970, 1044.089
668.274, 1085.669
669.577, 1004.264
670.881, 1001.871
672.184, 979.488
673.487, 907.117
674.789, 907.756
676.092, 834.407
677.394, 873.068
678.696, 871.740
679.997, 767.422
681.299, 815.115
682.600, 741.819
683.901, 876.532
685.202, 803.256
686.503, 786.990
687.804, 828.734
689.104, 856.488
690.404, 868.252
691.704, 988.450
693.004, 978.531
694.303, 1017.729
695.602, 1024.950
696.901, 980.102
698.200, 949.866
699.499, 831.802
700.797, 796.951
702.095, 684.309
703.393, 551.318
704.691, 488.308
705.989, 423.390
707.286, 393.270
708.583, 368.090
709.880, 361.064
711.177, 348.966
712.473, 350.875
713.770, 334.792
715.066, 315.715
716.362, 305.645
717.658, 319.582
718.953, 326.525
720.248, 359.475
721.543, 311.431
722.838, 277.393
724.133, 328.362
725.427, 267.336
726.722, 276.316
728.016, 218.302
729.310, 216.294
730.603, 294.291
731.897, 213.294
733.190, 274.302
734.483, 182.315
735.776, 183.333
737.068, 266.356
738.361, 211.384
739.653, 265.417
740.945, 195.572
742.236, 234.614
743.528, 242.659
744.819, 181.783
746.110, 220.909
747.401, 244.143
748.692, 207.421
749.983, 243.635
751.273, 196.917
752.563, 228.505
753.853, 203.701
755.143, 232.109
756.432, 341.402
757.721, 340.980
759.010, 418.144
760.299, 341.381
761.588, 449.576
762.876, 517.147
764.165, 605.537
765.453, 785.513
766.740, 1009.634
768.028, 1264.621
769.315, 1625.473
770.603, 1905.773
771.890, 2290.962
773.176, 2685.204
774.463, 2875.593
775.749, 2992.847
777.036, 3002.993
778.322, 2896.239
779.607, 2665.026
780.893, 2322.287
782.178, 2065.650
783.463, 1767.600
784.748, 1463.511
786.033, 1301.797
787.318, 1139.214
788.602, 1132.872
789.886, 994.181
791.170, 919.698
792.454, 802.010
793.737, 805.419
795.020, 697.587
796.303, 704.803
797.586, 603.264
798.869, 623.560
800.151, 607.712
801.434, 516.017
802.716, 522.234
803.998, 442.543
805.279, 428.167
806.561, 387.299
807.842, 385.056
809.123, 361.073
810.404, 297.088
811.685, 342.094
812.965, 388.096
814.245, 232.141
815.525, 289.131
816.805, 146.115
818.085, 168.094
819.364, 147.066
820.643, 179.033
821.922, 91.995
823.201, 52.949
824.480, 38.898
825.758, 49.840
827.036, 30.775
828.314, 58.703
829.592, 21.376
830.869, 3.533
832.147, 0.566
833.424, 14.326
834.701, 15.789
835.978, 8.916
837.254, 36.054
838.531, 56.208
839.807, 21.383
841.083, 48.572
842.358, 0.780
843.634, 5.998
844.909, 50.774
846.184, 22.536
847.459, 83.290
848.734, 59.035
850.008, 59.771
851.283, 102.498
852.557, 41.217
853.831, 78.926
855.104, 52.625
856.378, 139.316
857.651, 142.997
858.924, 109.668
860.197, 160.330
861.470, 102.981
862.742, 141.623
864.015, 195.255
865.287, 93.877
866.559, 167.488
867.830, 148.089
869.102, 50.680
870.373, 148.260
871.644, 55.830
872.915, 141.388
874.185, 72.936
875.456, 73.474
876.726, 100.001
877.996, 24.517
879.266, 96.021
880.536, 67.513
881.805, 36.995
883.074, 38.464
884.343, 16.920
885.612, 9.364
886.881, 24.793
888.149, 35.790
889.418, 5.396
890.686, 74.020
891.953, 39.676
893.221, 15.645
894.488, 46.049
895.756, 27.763
897.023, 30.501
898.290, 28.258
899.556, 1.038
900.823, 78.835
902.089, 17.666
903.355, 23.518
904.621, 60.391
905.886, 11.294
907.152, 30.217
908.417, 68.164
909.682, 27.143
910.947, 76.144
912.211, 27.180
913.476, 65.240
914.740, 26.330
916.004, 6.443
917.268, 26.576
918.531, 19.267
919.795, 12.905
921.058, 11.099
922.321, 34.686
923.584, 14.456
924.846, 0.220
926.109, 29.958
927.371, 7.680
928.633, 27.614
929.895, 16.068
931.156, 21.267
932.418, 49.375
933.679, 12.001
934.940, 31.611
936.201, 62.206
937.461, 28.786
938.722, 47.351
939.982, 26.930
941.242, 2.468
942.502, 63.985
943.761, 3.500
945.021, 127.011
946.280, 87.530
947.539, 98.063
948.798, 109.509
950.056, 79.037
951.315, 138.455
952.573, 114.128
953.831, 171.251
955.089, 129.629
956.346, 140.251
957.604, 200.672
958.861, 171.008
960.118, 172.466
961.375, 165.772
962.631, 158.065
963.888, 170.344
965.144, 178.300
966.400, 201.435
967.656, 210.630
968.911, 243.771
970.167, 258.977
971.422, 284.830
972.677, 294.952
973.932, 292.121
975.186, 306.959
976.441, 291.585
977.695, 292.575
978.949, 247.645
980.203, 251.579
981.456, 270.660
982.710, 228.716
983.963, 175.769
985.216, 177.808
986.469, 180.923
987.721, 215.934
988.974, 162.931
990.226, 181.914
991.478, 218.885
992.730, 168.877
993.982, 164.819
995.233, 134.747
996.484, 182.662
997.735, 224.562
998.986, 155.448
1000.237, 207.320
1001.487, 218.178
1002.738, 141.023
1003.988, 226.854
1005.237, 185.670
1006.487, 230.473
1007.737, 248.262
1008.986, 179.036
1010.235, 230.947
1011.484, 182.694
1012.732, 213.532
1013.981, 245.134
1015.229, 141.840
1016.477, 255.534
1017.725, 254.139
1018.973, 222.734
1020.220, 279.271
1021.468, 215.694
1022.715, 259.227
1023.962, 242.696
1025.208, 286.897
1026.455, 276.361
1027.701, 235.850
1028.947, 254.275
1030.193, 263.463
1031.439, 269.948
1032.684, 268.053
1033.930, 237.628
1035.175, 205.692
1036.420, 288.049
1037.665, 233.783
1038.909, 336.451
1040.154, 329.244
1041.398, 250.027
1042.642, 301.553
1043.885, 220.984
1045.129, 274.395
1046.372, 250.798
1047.615, 156.112
1048.858, 178.812
1050.101, 235.284
1051.344, 189.146
1052.586, 204.536
1053.828, 120.674
1055.070, 171.120
1056.312, 194.673
1057.554, 99.823
1058.795, 85.004
1060.036, 111.521
1061.277, 136.555
1062.518, 148.702
1063.759, 153.281
1064.999, 117.982
1066.240, 136.334
1067.480, 131.391
1068.719, 98.553
1069.959, 138.646
1071.199, 157.812
1072.438, 104.068
1073.677, 80.173
1074.916, 85.683
1076.154, 94.135
1077.393, 83.396
1078.631, 80.444
1079.869, 75.901
1081.107, 70.148
1082.345, 130.644
1083.582, 65.891
1084.820, 124.012
1086.057, 96.288
1087.294, 101.436
1088.530, 100.465
1089.767, 30.560
1091.003, 70.572
1092.239, 129.744
1093.475, 56.735
1094.711, 100.716
1095.947, 86.925
1097.182, 110.946
1098.417, 126.910
1099.652, 97.897
1100.887, 123.827
1102.122, 136.768
1103.356, 123.678
1104.590, 102.578
1105.824, 110.536
1107.058, 90.418
1108.292, 96.293
1109.525, 89.433
1110.758, 81.295
1111.991, 67.284
1113.224, 75.171
1114.457, 188.026
1115.689, 92.053
1116.922, 152.898
1118.154, 115.699
1119.385, 66.585
1120.617, 123.363
1121.849, 97.129
1123.080, 156.062
1124.311, 190.050
1125.542, 77.894
1126.773, 92.615
1128.003, 149.325
1129.234, 89.170
1130.464, 163.858
1131.694, 99.615
1132.923, 116.410
1134.153, 149.066
1135.382, 88.900
1136.612, 106.674
1137.841, 126.317
1139.069, 97.050
1140.298, 101.667
1141.526, 149.270
1142.755, 53.111
1143.983, 111.691
1145.210, 62.585
1146.438, 90.242
1147.665, 96.870
1148.893, 101.706
1150.120, 121.240
1151.347, 110.976
1152.573, 71.581
1153.800, 98.087
1155.026, 72.676
1156.252, 69.188
1157.478, 58.672
1158.704, 96.359
1159.929, 30.849
1161.155, 67.326
1162.380, 28.016
1163.605, 77.499
1164.829, 10.669
1166.054, 47.090
1167.278, 73.717
1168.503, 47.561
1169.727, 53.284
1170.950, 33.878
1172.174, 33.486
1173.397, 61.895
1174.621, 18.508
1175.844, 60.146
1177.066, 50.540
1178.289, 17.926
1179.512, 63.990
1180.734, 8.367
1181.956, 27.242
1183.178, 38.753
1184.399, 36.315
1185.621, 65.821
1186.842, 111.237
1188.063, 67.940
1189.284, 71.528
1190.505, 33.851
1191.726, 14.590
1192.946, 82.869
1194.166, 13.234
1195.386, 17.646
1196.606, 69.005
1197.826, 34.245
1199.045, 84.691
1200.264, 11.043
1201.483, 53.404
1202.702, 65.755
1203.921, 12.937
1205.139, 58.323
1206.357, 27.535
1207.575, 24.870
1208.793, 33.413
1210.011, 7.477
1211.228, 13.597
1212.446, 53.026
1213.663, 7.292
1214.880, 50.340
1216.097, 64.582
1217.313, 39.620
1218.529, 64.926
1219.746, 118.110
1220.962, 72.810
1222.177, 100.648
1223.393, 52.660
1224.608, 97.818
1225.824, 91.197
1227.039, 38.172
1228.254, 76.369
1229.468, 86.468
1230.683, 79.445
1231.897, 111.575
1233.111, 85.593
1234.325, 112.430
1235.539, 107.453
1236.752, 75.372
1237.965, 118.370
1239.179, 112.152
1240.392, 31.920
1241.604, 104.679
1242.817, 61.395
1244.029, 81.030
1245.241, 85.835
1246.453, 46.529
1247.665, 83.206
1248.877, 101.869
1250.088, 69.518
1251.300, 106.087
1252.511, 106.706
1253.722, 52.318
1254.932, 38.042
1256.143, 66.614
1257.353, 99.134
1258.563, 97.675
1259.773, 59.202
1260.983, 102.897
1262.192, 73.394
1263.402, 62.875
1264.611, 109.761
1265.820, 50.401
1267.029, 60.835
1268.237, 88.604
1269.446, 67.228
1270.654, 89.829
1271.862, 100.357
1273.070, 38.898
1274.278, 121.314
1275.485, 22.839
1276.692, 71.186
1277.900, 76.221
1279.106, 30.473
1280.313, 112.016
1281.520, 44.077
1282.726, 79.498
1283.932, 123.854
1285.138, 74.771
1286.344, 88.935
1287.550, 123.431
1288.755, 48.754
1289.960, 91.311
1291.165, 146.852
1292.370, 54.241
1293.575, 81.505
1294.779, 18.471
1295.984, 25.845
1297.188, 52.933
1298.392, 14.174
1299.595, 30.290
1300.799, 56.458
1302.002, 53.376
1303.206, 101.263
1304.409, 51.006
1305.611, 43.883
1306.814, 96.742
1308.016, 131.572
1309.219, 2.797
1310.421, 99.200
1311.623, 7.075
1312.824, 64.677
1314.026, 51.316
1315.227, 61.926
1316.428, 78.656
1317.629, 20.506
1318.830, 38.213
1320.031, 92.921
1321.231, 38.186
1322.431, 58.099
1323.631, 75.816
1324.831, 22.777
1326.031, 72.601
1327.230, 98.339
1328.429, 49.778
1329.628, 67.425
1330.827, 62.693
1332.026, 62.165
1333.225, 109.681
1334.423, 48.930
1335.621, 77.366
1336.819, 53.643
1338.017, 16.959
1339.214, 94.217
1340.412, 15.976
1341.609, 19.120
1342.806, 37.388
1344.003, 15.625
1345.200, 31.580
1346.396, 92.829
1347.592, 31.925
1348.788, 55.109
1349.984, 3.617
1351.180, 21.225
1352.376, 67.987
1353.571, 48.999
1354.766, 2.162
1355.961, 82.303
1357.156, 31.181
1358.351, 49.217
1359.545, 72.281
1360.739, 36.293
1361.933, 57.399
1363.127, 105.312
1364.321, 50.302
1365.515, 69.269
1366.708, 49.146
1367.901, 102.070
1369.094, 168.972
1370.287, 90.581
1371.479, 112.439
1372.672, 120.142
1373.864, 59.961
1375.056, 146.735
1376.248, 108.305
1377.440, 92.021
1378.631, 154.750
1379.822, 85.361
1381.014, 91.050
1382.205, 88.719
1383.395, 61.192
1384.586, 102.577
1385.776, 111.075
1386.966, 89.666
1388.157, 101.236
1389.346, 49.641
1390.536, 100.173
1391.725, 109.607
1392.915, 12.975
1394.104, 47.453
1395.293, 90.727
1396.482, 31.965
1397.670, 41.011
1398.858, 42.312
1400.047, 23.479
1401.235, 47.535
1402.422, 39.737
1403.610, 45.738
1404.798, 58.756
1405.985, 5.117
1407.172, 14.846
1408.359, 31.349
1409.546, 7.585
1410.732, 52.662
1411.918, 50.624
1413.105, 2.934
1414.291, 106.573
1415.476, 19.198
1416.662, 33.105
1417.848, 17.689
1419.033, 43.230
1420.218, 24.036
1421.403, 29.306
1422.587, 11.117
1423.772, 89.325
1424.956, 49.950
1426.140, 40.344
1427.324, 35.708
1428.508, 28.470
1429.692, 22.094
1430.875, 61.365
1432.059, 10.079
1433.242, 42.375
1434.425, 164.620
1435.607, 75.517
1436.790, 80.535
1437.972, 43.839
1439.154, 16.875
1440.336, 116.917
1441.518, 162.068
1442.700, 123.429
1443.881, 288.586
1445.062, 70.600
1446.243, 105.891
1447.424, 118.939
1448.605, 6.869
1449.786, 177.618
1450.966, 117.109
1452.146, 71.345
1453.326, 178.817
1454.506, 50.239
1455.685, 76.682
1456.865, 141.898
1458.044, 120.348
1459.223, 114.456
1460.402, 133.896
1461.581, 76.171
1462.759, 221.977
1463.938, 196.493
1465.116, 58.160
1466.294, 188.599
1467.472, 130.043
1468.649, 118.623
1469.827, 138.637
1471.004, 91.747
1472.181, 157.861
1473.358, 213.296
1474.535, 87.529
1475.711, 148.458
1476.887, 109.623
1478.064, 22.049
1479.240, 100.917
1480.415, 66.720
1481.591, 96.401
1482.767, 153.466
1483.942, 82.058
1485.117, 153.176
1486.292, 164.252
1487.467, 96.130
1488.641, 109.850
1489.815, 150.462
1490.990, 68.012
1492.164, 105.053
1493.337, 140.475
1494.511, 89.766
1495.685, 161.947
1496.858, 113.816
1498.031, 83.951
1499.204, 139.107
1500.377, 40.249
1501.549, 146.419
1502.722, 181.695
1503.894, 79.863
1505.066, 126.241
1506.238, 125.595
1507.409, 48.904
1508.581, 143.209
1509.752, 174.531
1510.923, 67.859
1512.094, 142.191
1513.265, 166.571
1514.436, 62.568
1515.606, 200.984
1516.776, 95.536
1517.946, 80.127
1519.116, 224.782
1520.286, 55.521
1521.455, 125.404
1522.625, 104.488
1523.794, 8.215
1524.963, 100.392
1526.132, 21.088
1527.300, 0.000
##END=



