##NAMES=Cassiterite
##RRUFFID=R050502
##IDEAL CHEMISTRY=SnO_2_
##LOCALITY=Redruth, Cornwall, England
##OWNER=RRUFF
##SOURCE=California Institute of Technology
##DESCRIPTION=Black crystals associated with colorless quartz and grey stannite.
##STATUS=The identification of this mineral has been confirmed by X-ray diffraction and chemical analysis
##URL=rruff.info/R050502
##MEASURED CHEMISTRY=SnO_2_
##PIN_ID=M00499
##ORIENTATION=Laser parallel to a* (1 0 0). Fiducial mark perpendicular to laser is parallel to -c [0 0 -1]
185.7910, 0.0000000E+00
187.0220, 196.7090
188.2540, 98.77734
189.4840, 59.02930
190.7150, 55.63477
191.9460, 30.81445
193.1760, 25.21094
194.4060, 304.4863
195.6360, 381.5938
196.8660, 540.2539
198.0960, 826.3906
199.3250, 1215.314
200.5540, 1720.404
201.7830, 1949.434
203.0120, 2426.994
204.2400, 2637.889
205.4690, 3084.197
206.6970, 3338.111
207.9250, 4174.881
209.1530, 4730.883
210.3800, 5683.924
211.6080, 6319.984
212.8350, 7257.680
214.0620, 8053.682
215.2880, 9139.555
216.5150, 10405.09
217.7410, 11594.35
218.9680, 12610.86
220.1940, 13801.49
221.4190, 15009.10
222.6450, 16332.84
223.8700, 17600.61
225.0960, 18958.31
226.3210, 20196.46
227.5450, 21498.73
228.7700, 22682.97
229.9940, 23920.92
231.2190, 25094.19
232.4430, 25811.35
233.6660, 26555.93
234.8900, 27015.69
236.1140, 27181.78
237.3370, 27087.89
238.5600, 27151.02
239.7830, 26544.82
241.0050, 25466.88
242.2280, 24439.56
243.4500, 22725.73
244.6720, 20949.43
245.8940, 19489.96
247.1160, 17746.59
248.3370, 15889.58
249.5580, 14211.14
250.7790, 12526.98
252.0000, 11095.20
253.2210, 9804.969
254.4410, 8476.129
255.6620, 7573.895
256.8820, 6583.629
258.1020, 5897.105
259.3210, 5189.967
260.5410, 4715.656
261.7600, 4185.988
262.9790, 3947.385
264.1980, 3851.662
265.4170, 3361.418
266.6360, 3322.810
267.8540, 3087.315
269.0720, 3118.407
270.2900, 3075.813
271.5080, 3141.934
272.7260, 3269.408
273.9430, 4019.012
275.1600, 4680.242
276.3770, 5848.125
277.5940, 7478.324
278.8100, 8973.313
280.0270, 10762.04
281.2430, 11953.61
282.4590, 12991.51
283.6750, 13576.16
284.8910, 13743.22
286.1060, 13342.79
287.3210, 12945.10
288.5360, 12130.78
289.7510, 11470.96
290.9660, 10742.07
292.1800, 9710.309
293.3950, 9016.332
294.6090, 8318.706
295.8230, 7650.049
297.0360, 7150.825
298.2500, 6574.418
299.4630, 6181.882
300.6760, 5847.613
301.8890, 5382.467
303.1020, 5177.006
304.3150, 4623.205
305.5270, 4668.017
306.7390, 4378.385
307.9510, 4101.261
309.1630, 3781.606
310.3750, 3632.276
311.5860, 3369.590
312.7970, 3348.210
314.0080, 3177.255
315.2190, 3044.732
316.4300, 2805.654
317.6400, 2694.039
318.8510, 2657.895
320.0610, 2417.236
321.2710, 2461.077
322.4800, 2210.429
323.6900, 2093.297
324.8990, 2152.675
326.1080, 1840.562
327.3170, 1664.962
328.5260, 1738.871
329.7340, 1281.292
330.9430, 1288.214
332.1510, 1403.539
333.3590, 1305.058
334.5670, 1292.721
335.7740, 1282.609
336.9820, 1172.836
338.1890, 1225.276
339.3960, 1190.557
340.6030, 1222.104
341.8100, 1300.581
343.0160, 1236.934
344.2220, 1236.104
345.4280, 1283.047
346.6340, 1400.718
347.8400, 1272.084
349.0460, 1470.107
350.2510, 1339.770
351.4560, 1367.042
352.6610, 1324.909
353.8660, 1367.354
355.0700, 1457.362
356.2750, 1405.912
357.4790, 1224.977
358.6830, 1058.520
359.8870, 545.5176
361.0910, 288.9150
362.2940, 99.67090
363.4970, 368.2588
364.7000, 434.9980
365.9030, 764.5654
367.1060, 766.0449
368.3080, 859.4385
369.5110, 831.7705
370.7130, 1087.033
371.9150, 1056.289
373.1170, 1144.524
374.3180, 1006.760
375.5200, 1046.954
376.7210, 1161.146
377.9220, 944.4160
379.1230, 958.7598
380.3230, 946.2227
381.5240, 847.8320
382.7240, 974.5791
383.9240, 758.4951
385.1240, 846.5078
386.3240, 678.6172
387.5230, 691.7539
388.7230, 673.8945
389.9220, 358.0059
391.1210, 348.9795
392.3200, 275.7881
393.5180, 66.38867
394.7170, 94.70215
395.9150, 41.27246
397.1130, 81.57227
398.3110, 114.2148
399.5080, 224.2217
400.7060, 180.6230
401.9030, 351.4062
403.1000, 517.5869
404.2970, 486.1787
405.4940, 732.1885
406.6910, 700.6270
407.8870, 832.5078
409.0830, 1165.854
410.2790, 1228.681
411.4750, 1523.011
412.6710, 1781.864
413.8660, 1862.252
415.0610, 2272.186
416.2560, 2326.687
417.4510, 2533.725
418.6460, 2480.117
419.8410, 2679.496
421.0350, 2906.495
422.2290, 2999.979
423.4230, 3478.873
424.6170, 4042.104
425.8100, 4645.783
427.0040, 5070.935
428.1970, 6012.684
429.3900, 6874.104
430.5830, 7932.322
431.7760, 9351.466
432.9680, 10818.70
434.1610, 12373.21
435.3530, 13876.19
436.5450, 15734.77
437.7360, 17343.04
438.9280, 18705.06
440.1190, 19609.88
441.3110, 20732.56
442.5020, 21525.11
443.6930, 22255.55
444.8830, 22439.92
446.0740, 22626.20
447.2640, 22360.43
448.4540, 21927.59
449.6440, 21023.69
450.8340, 19715.73
452.0240, 18275.72
453.2130, 16839.66
454.4020, 15704.55
455.5910, 14816.41
456.7800, 14364.22
457.9690, 13945.66
459.1570, 13810.64
460.3460, 13841.73
461.5340, 13926.46
462.7220, 14391.15
463.9090, 14389.96
465.0970, 14960.08
466.2840, 15033.28
467.4720, 15698.12
468.6590, 15989.35
469.8460, 16397.42
471.0320, 16661.59
472.2190, 16648.54
473.4050, 16366.07
474.5910, 15877.96
475.7770, 15103.70
476.9630, 14108.52
478.1490, 13073.15
479.3340, 12170.59
480.5190, 11264.99
481.7040, 10637.76
482.8890, 10081.13
484.0740, 9820.657
485.2580, 9818.726
486.4430, 9924.146
487.6270, 9876.450
488.8110, 9769.037
489.9950, 9902.508
491.1780, 10072.80
492.3620, 9829.643
493.5450, 10140.31
494.7280, 9982.108
495.9110, 10042.47
497.0940, 9853.110
498.2760, 9875.427
499.4590, 9949.241
500.6410, 9642.488
501.8230, 9588.306
503.0050, 9535.846
504.1860, 9305.721
505.3680, 9191.191
506.5490, 9167.803
507.7300, 8933.443
508.9110, 8947.630
510.0920, 9058.967
511.2730, 8935.728
512.4530, 8676.516
513.6330, 8656.586
514.8130, 8252.894
515.9930, 8249.989
517.1730, 7975.082
518.3520, 7606.026
519.5320, 7528.197
520.7110, 7359.397
521.8900, 7249.147
523.0690, 7074.941
524.2470, 6715.887
525.4260, 6614.215
526.6040, 6475.703
527.7820, 6060.303
528.9600, 6126.115
530.1380, 5781.832
531.3150, 5863.435
532.4930, 5757.672
533.6700, 5730.307
534.8470, 5566.387
536.0240, 5752.467
537.2000, 5554.633
538.3770, 6015.191
539.5530, 6152.891
540.7290, 6019.906
541.9050, 6286.363
543.0810, 6299.242
544.2570, 6346.469
545.4320, 6170.336
546.6080, 6218.283
547.7830, 6242.686
548.9580, 6667.203
550.1320, 6666.928
551.3070, 6853.334
552.4810, 6857.295
553.6550, 7041.783
554.8300, 7464.654
556.0030, 7649.162
557.1770, 7930.863
558.3510, 8127.754
559.5240, 8425.846
560.6970, 8973.137
561.8700, 9279.637
563.0430, 9465.352
564.2160, 9799.285
565.3880, 9884.457
566.5600, 10027.94
567.7320, 9987.523
568.9040, 10129.44
570.0760, 10136.62
571.2480, 10269.55
572.4190, 10327.70
573.5900, 10533.80
574.7610, 10683.10
575.9320, 10770.25
577.1030, 10909.87
578.2740, 10853.78
579.4440, 10953.28
580.6140, 11034.08
581.7840, 10734.19
582.9540, 10868.62
584.1240, 10479.39
585.2930, 10355.54
586.4630, 9815.066
587.6320, 9798.004
588.8010, 9573.340
589.9700, 9328.072
591.1380, 9214.195
592.3070, 9072.707
593.4750, 8970.604
594.6430, 9182.877
595.8110, 9059.531
596.9790, 9295.543
598.1460, 9665.920
599.3140, 10046.64
600.4810, 10433.69
601.6480, 11134.09
602.8150, 11450.84
603.9820, 12220.94
605.1480, 12619.39
606.3150, 13429.18
607.4810, 13972.33
608.6470, 14402.84
609.8130, 14898.70
610.9790, 15229.92
612.1440, 15745.51
613.3100, 15815.46
614.4750, 15984.80
615.6400, 15972.51
616.8050, 16130.61
617.9690, 16467.08
619.1340, 16700.94
620.2980, 17179.18
621.4620, 17565.81
622.6260, 18314.83
623.7900, 19428.24
624.9540, 20977.05
626.1170, 22902.24
627.2810, 24869.83
628.4440, 29037.82
629.6070, 30439.21
630.7690, 32644.99
631.9320, 34236.21
633.0950, 35153.88
634.2570, 34487.97
635.4190, 33655.54
636.5810, 32051.52
637.7430, 29715.99
638.9040, 27134.07
640.0660, 24926.87
641.2270, 22969.14
642.3880, 21310.99
643.5490, 20242.18
644.7100, 18778.06
645.8700, 18046.76
647.0310, 16898.02
648.1910, 16201.46
649.3510, 15955.69
650.5110, 15370.34
651.6710, 14590.41
652.8300, 13986.03
653.9900, 13079.05
655.1490, 12467.33
656.3080, 11898.95
657.4670, 11052.11
658.6250, 10738.18
659.7840, 10143.20
660.9420, 9302.117
662.1010, 9079.920
663.2590, 8477.664
664.4170, 7910.008
665.5740, 7609.418
666.7320, 7108.770
667.8890, 6494.574
669.0460, 6319.520
670.2030, 5706.906
671.3600, 5682.805
672.5170, 5309.482
673.6740, 5131.016
674.8300, 5151.029
675.9860, 4983.861
677.1420, 5025.576
678.2980, 5302.174
679.4540, 5524.865
680.6090, 5963.182
681.7650, 6266.309
682.9200, 6651.223
684.0750, 7068.814
685.2300, 7470.252
686.3840, 7878.035
687.5390, 8319.207
688.6930, 8670.766
689.8470, 8955.705
691.0010, 9355.010
692.1550, 9427.678
693.3090, 9549.703
694.4620, 9714.076
695.6160, 9409.789
696.7690, 9361.848
697.9220, 8904.248
699.0750, 8670.984
700.2280, 8104.059
701.3800, 7805.473
702.5320, 7482.215
703.6850, 7107.293
704.8370, 6740.703
705.9880, 6667.441
707.1400, 6567.508
708.2920, 6663.900
709.4430, 6470.617
710.5940, 6633.660
711.7450, 6649.025
712.8960, 6675.715
714.0470, 7102.727
715.1970, 6914.057
716.3480, 7218.707
717.4980, 7541.670
718.6480, 7854.953
719.7980, 7565.553
720.9470, 7574.838
722.0970, 7744.980
723.2460, 7601.533
724.3960, 7648.332
725.5450, 7609.598
726.6940, 7441.225
727.8420, 7400.596
728.9910, 7433.381
730.1390, 7289.578
731.2870, 7312.242
732.4350, 7098.123
733.5830, 7010.145
734.7310, 6819.859
735.8790, 6789.723
737.0260, 6619.047
738.1730, 6364.219
739.3200, 6229.930
740.4670, 6040.797
741.6140, 5878.736
742.7610, 5766.928
743.9070, 5354.367
745.0530, 5315.051
746.1990, 5023.977
747.3450, 5109.143
748.4910, 5067.547
749.6370, 4721.188
750.7820, 4503.061
751.9270, 4297.162
753.0720, 4054.492
754.2170, 3740.047
755.3620, 3514.593
756.5070, 3114.819
757.6510, 3030.031
758.7950, 2543.457
759.9400, 2367.094
761.0840, 2025.938
762.2270, 1855.990
763.3710, 1585.242
764.5140, 1344.545
765.6580, 886.3457
766.8010, 925.1270
767.9440, 672.2451
769.0870, 555.0596
770.2290, 517.1172
771.3720, 344.7295
772.5140, 255.7568
773.6560, 213.4219
774.7990, 106.9697
775.9400, 12.63281
777.0820, 117.7334
778.2240, 283.0762
779.3650, 234.3535
780.5060, 395.5449
781.6470, 355.0723
782.7880, 504.2334
783.9290, 492.5742
785.0690, 432.3828
786.2100, 350.8564
787.3500, 506.9873
788.4900, 382.7412
789.6300, 287.2266
790.7700, 53.25684
791.9090, 28.09180
793.0490, 21.62109
794.1880, 138.5137
795.3270, 304.4902
796.4660, 128.5508
797.6050, 39.56348
798.7440, 83.64941
799.8820, 240.0967
801.0200, 226.9805
802.1590, 263.3545
803.2970, 358.6807
804.4340, 458.9131
805.5720, 594.3818
806.7100, 674.8662
807.8470, 757.9932
808.9840, 774.4326
810.1210, 770.9160
811.2580, 716.5039
812.3950, 646.1699
813.5310, 527.9268
814.6680, 353.2979
815.8040, 223.9316
816.9400, 10.38574
818.0760, 143.5625
819.2120, 337.9189
820.3470, 594.9951
821.4830, 978.5967
822.6180, 1386.285
823.7530, 1960.430
824.8880, 2522.523
826.0230, 3221.372
827.1580, 4119.863
828.2920, 4835.874
829.4270, 6013.654
830.5610, 7285.067
831.6950, 8491.277
832.8290, 9618.314
833.9620, 10674.29
835.0960, 11728.19
836.2290, 12399.33
837.3620, 12670.09
838.4950, 12422.77
839.6280, 11908.38
840.7610, 11265.90
841.8940, 9823.338
843.0260, 8525.687
844.1580, 7288.948
845.2910, 5939.115
846.4230, 4606.016
847.5540, 3621.119
848.6860, 2678.089
849.8170, 2050.424
850.9490, 1678.653
852.0800, 1105.350
853.2110, 803.3135
854.3420, 534.1611
855.4730, 244.0898
856.6030, 139.2910
857.7340, 12.45215
858.8640, 149.6064
859.9940, 179.3125
861.1240, 229.0889
862.2540, 221.8770
863.3830, 166.8262
864.5130, 142.5625
865.6420, 118.4258
866.7710, 77.18652
867.9000, 49.91797
869.0290, 21.33301
870.1570, 55.90234
871.2860, 65.77246
872.4140, 208.6514
873.5430, 366.1309
874.6710, 282.5107
875.7980, 245.7471
876.9260, 521.7285
878.0540, 445.5459
879.1810, 524.2012
880.3080, 570.6875
881.4360, 546.0059
882.5630, 556.1543
883.6890, 457.1299
884.8160, 497.9297
885.9420, 559.5527
887.0690, 696.9980
888.1950, 640.2627
889.3210, 754.3447
890.4470, 836.2412
891.5730, 657.9521
892.6980, 803.4756
893.8240, 894.8076
894.9490, 893.9473
896.0740, 909.8926
897.1990, 880.6426
898.3240, 741.1943
899.4480, 678.5469
900.5730, 697.6992
901.6970, 540.1074
902.8210, 607.3740
903.9450, 276.8896
905.0690, 449.0996
906.1930, 265.0488
907.3160, 225.6758
908.4400, 425.9648
909.5630, 219.9736
910.6860, 128.6270
911.8090, 140.7666
912.9320, 112.2734
914.0550, 45.39844
915.1770, 50.02930
916.2990, 75.44141
917.4210, 37.39746
918.5440, 149.5742
919.6650, 45.60254
920.7870, 56.77148
921.9090, 146.5586
923.0300, 6.625000
924.1510, 26.82617
925.2720, 32.16113
926.3930, 15.56055
927.5140, 120.4912
928.6350, 85.56445
929.7550, 154.5566
930.8760, 120.1348
931.9960, 89.27441
933.1160, 152.9727
934.2360, 199.2402
935.3550, 181.0322
936.4750, 261.6533
937.5940, 259.6895
938.7140, 356.1943
939.8330, 273.6924
940.9520, 397.4385
942.0710, 495.1543
943.1890, 397.7715
944.3080, 467.9316
945.4260, 462.5605
946.5440, 519.0137
947.6620, 458.8994
948.7800, 552.1670
949.8980, 547.7773
951.0160, 654.5010
952.1330, 625.8066
953.2500, 608.4785
954.3680, 754.8867
955.4850, 685.1699
956.6010, 735.0967
957.7180, 717.6162
958.8350, 769.0225
959.9510, 791.2822
961.0670, 822.2266
962.1830, 870.7695
963.2990, 902.2031
964.4150, 982.4004
965.5310, 1023.363
966.6460, 1121.095
967.7620, 1070.596
968.8770, 1071.865
969.9920, 998.9053
971.1070, 1180.711
972.2210, 1271.285
973.3360, 1110.630
974.4500, 1266.744
975.5650, 1152.629
976.6790, 1114.283
977.7930, 1112.707
978.9070, 1163.900
980.0200, 941.8652
981.1340, 1088.593
982.2470, 917.0879
983.3610, 991.3438
984.4740, 884.3652
985.5870, 921.1436
986.6990, 1011.683
987.8120, 815.9883
988.9250, 882.0430
990.0370, 852.8545
991.1490, 919.0498
992.2610, 937.4541
993.3730, 865.5205
994.4850, 981.4062
995.5960, 899.8926
996.7080, 1091.082
997.8190, 793.5947
998.9300, 941.7500
1000.041, 929.5576
1001.152, 975.9580
1002.263, 953.1992
1003.373, 968.3594
1004.484, 1160.884
1005.594, 937.3145
1006.704, 1174.338
1007.814, 974.5635
1008.924, 968.3047
1010.034, 1040.933
1011.143, 1053.537
1012.253, 1120.936
1013.362, 1173.131
1014.471, 1268.123
1015.580, 1271.592
1016.689, 1372.499
1017.797, 1294.886
1018.906, 1327.072
1020.014, 1356.059
1021.122, 1368.847
1022.230, 1341.436
1023.338, 1351.828
1024.446, 1443.024
1025.554, 1464.025
1026.661, 1525.831
1027.768, 1585.443
1028.875, 1594.583
1029.983, 1575.091
1031.089, 1589.129
1032.196, 1576.767
1033.303, 1494.636
1034.409, 1599.106
1035.515, 1601.454
1036.622, 1611.505
1037.728, 1389.828
1038.833, 1443.910
1039.939, 1557.438
1041.045, 1489.827
1042.150, 1626.297
1043.255, 1548.877
1044.360, 1549.942
1045.465, 1509.421
1046.570, 1453.854
1047.675, 1466.647
1048.779, 1533.038
1049.884, 1525.587
1050.988, 1570.672
1052.092, 1605.862
1053.196, 1462.598
1054.300, 1545.899
1055.404, 1457.689
1056.507, 1563.346
1057.610, 1426.314
1058.714, 1426.764
1059.817, 1360.782
1060.920, 1414.370
1062.022, 1413.326
1063.125, 1482.222
1064.228, 1483.661
1065.330, 1443.105
1066.432, 1452.043
1067.534, 1362.149
1068.636, 1362.365
1069.738, 1257.622
1070.840, 1309.592
1071.941, 1315.343
1073.042, 1257.184
1074.144, 1286.867
1075.245, 1223.004
1076.346, 1234.832
1077.446, 1149.325
1078.547, 1242.312
1079.647, 1239.141
1080.748, 1232.062
1081.848, 1205.063
1082.948, 1249.376
1084.048, 1242.430
1085.148, 1273.812
1086.247, 1257.670
1087.347, 1210.693
1088.446, 1357.473
1089.545, 1254.896
1090.644, 1352.842
1091.743, 1272.366
1092.842, 1241.011
1093.940, 1172.888
1095.039, 1241.119
1096.137, 1309.452
1097.235, 1198.021
1098.333, 1239.664
1099.431, 1250.346
1100.529, 1232.959
1101.627, 1279.505
1102.724, 1198.676
1103.822, 1154.093
1104.919, 1264.446
1106.016, 1291.738
1107.113, 1142.971
1108.209, 1213.145
1109.306, 1086.261
1110.402, 1171.320
1111.499, 1237.327
1112.595, 1102.451
1113.691, 1122.227
1114.787, 1221.982
1115.883, 1268.223
1116.978, 1310.094
1118.074, 1524.986
1119.169, 1398.135
1120.264, 1539.243
1121.359, 1598.111
1122.454, 1545.551
1123.549, 1403.770
1124.644, 1387.208
1125.738, 1273.975
1126.832, 1201.978
1127.927, 1146.565
1129.021, 994.2236
1130.115, 971.0518
1131.208, 934.3398
1132.302, 873.8105
1133.396, 855.0967
1134.489, 809.8623
1135.582, 774.5781
1136.675, 721.1650
1137.768, 636.1084
1138.861, 650.9961
1139.954, 599.7988
1141.046, 554.5664
1142.138, 561.7842
1143.231, 590.2285
1144.323, 541.0391
1145.415, 488.8379
1146.507, 452.3047
1147.598, 531.4023
1148.690, 443.1719
1149.781, 419.9346
1150.872, 453.6914
1151.964, 386.8232
1153.054, 395.1934
1154.145, 321.9395
1155.236, 306.6865
1156.327, 263.4336
1157.417, 223.1816
1158.507, 302.9346
1159.597, 300.6914
1160.687, 268.4531
1161.777, 119.2227
1162.867, 136.9980
1163.956, 68.78418
1165.046, 176.5801
1166.135, 193.3887
1167.224, 1.782227
1168.313, 95.06348
1169.402, 58.97363
1170.491, 58.92578
1171.580, 78.04980
1172.668, 60.04688
1173.756, 156.1982
1174.845, 91.56055
1175.933, 21.78223
1177.020, 28.23828
1178.108, 122.1826
1179.196, 18.48535
1180.283, 108.6484
1181.371, 74.30566
1182.458, 51.40723
1183.545, 16.36914
1184.632, 13.00000
1185.719, 3.510742
1186.805, 31.84766
1187.892, 25.95996
1188.978, 29.93457
1190.065, 99.07617
1191.151, 44.62305
1192.237, 59.13184
1193.323, 95.50293
1194.408, 71.24219
1195.494, 165.8701
1196.579, 56.13477
1197.664, 85.72070
1198.750, 56.45801
1199.835, 103.0684
1200.919, 50.42578
1202.004, 148.0430
1203.089, 94.76758
1204.173, 155.1709
1205.258, 16.55371
1206.342, 108.5820
1207.426, 40.70410
1208.510, 6.088867
1209.594, 1.198242
1210.677, 114.4404
1211.761, 223.9814
1212.844, 23.52930
1213.927, 191.0273
1215.010, 142.6465
1216.093, 115.3291
1217.176, 153.0781
1218.259, 84.88574
1219.341, 106.7559
1220.424, 108.5762
1221.506, 193.6826
1222.588, 142.7393
1223.670, 141.8564
1224.752, 194.0332
1225.834, 174.2695
1226.915, 211.5635
1227.997, 230.9141
1229.078, 270.3242
1230.159, 285.7900
1231.240, 248.3145
1232.321, 402.8975
1233.402, 209.5410
1234.483, 413.2451
1235.563, 336.0078
1236.644, 329.8330
1237.724, 386.7178
1238.804, 352.6660
1239.884, 381.2070
1240.964, 450.7490
1242.044, 432.8857
1243.123, 452.0908
1244.203, 536.3623
1245.282, 572.7041
1246.361, 499.1152
1247.440, 464.6006
1248.519, 601.1582
1249.598, 680.7852
1250.676, 797.4902
1251.755, 757.2734
1252.833, 905.1348
1253.911, 805.0713
1254.989, 1034.082
1256.067, 847.1719
1257.145, 1110.334
1258.223, 1047.569
1259.300, 1105.876
1260.378, 1284.261
1261.455, 1366.719
1262.532, 1400.248
1263.609, 1478.850
1264.686, 1533.524
1265.763, 1755.270
1266.840, 1822.086
1267.916, 1826.975
1268.992, 1822.936
1270.069, 1948.538
1271.145, 2135.074
1272.221, 2204.252
1273.296, 2294.504
1274.372, 2466.829
1275.448, 2603.229
1276.523, 2742.701
1277.598, 2722.250
1278.673, 2804.546
1279.749, 2783.577
1280.823, 2806.354
1281.898, 2812.209
1282.973, 2743.645
1284.047, 2710.154
1285.122, 2500.244
1286.196, 2278.410
1287.270, 2133.655
1288.344, 1967.979
1289.418, 1814.382
1290.491, 1639.862
1291.565, 1652.425
1292.638, 1597.065
1293.712, 1314.787
1294.785, 1362.588
1295.858, 1053.471
1296.931, 1188.404
1298.003, 1003.453
1299.076, 1131.583
1300.149, 1067.793
1301.221, 1023.808
1302.293, 890.1797
1303.365, 974.6465
1304.437, 854.5117
1305.509, 850.7705
1306.581, 699.5352
1307.652, 867.8574
1308.724, 764.5439
1309.795, 547.4385
1310.866, 741.4639
1311.937, 862.1230
1313.008, 491.2412
1314.079, 611.4561
1315.150, 464.3623
1316.220, 496.5645
1317.291, 457.0342
1318.361, 470.5684
1319.431, 457.1689
1320.501, 513.2812
1321.571, 321.1875
1322.641, 357.3252
1323.710, 477.1885
1324.780, 304.3984
1325.849, 200.3926
1326.918, 173.0439
1327.987, 216.4004
1329.056, 186.7500
1330.125, 128.0029
1331.194, 185.3203
1332.263, 160.7031
1333.331, 265.1484
1334.399, 229.6582
1335.467, 90.23340
1336.535, 267.8711
1337.603, 176.5146
1338.671, 385.2627
1339.739, 141.9883
1340.806, 154.8838
1341.874, 274.6084
1342.941, 252.6328
1344.008, 196.7227
1345.075, 327.8770
1346.142, 249.0957
1347.209, 260.3809
1348.275, 268.7305
1349.342, 208.1455
1350.408, 265.6260
1351.475, 145.1699
1352.541, 322.7812
1353.607, 127.4570
1354.673, 291.1982
