##NAMES=Cassiterite
##RRUFFID=R060563
##IDEAL CHEMISTRY=SnO_2_
##LOCALITY=unknown
##OWNER=RRUFF
##SOURCE=Gemological Institute of America
##DESCRIPTION=Dark brown fragment
##STATUS=The identification of this mineral has been confirmed by X-ray diffraction and chemical analysis
##URL=rruff.info/R060563
##MEASURED CHEMISTRY=Sn_1.00_O_2_
##PIN_ID=L01330
##ORIENTATION=Laser parallel to -a* (-1 0 0). Fiducial mark perpendicular to laser is parallel to c [0 0 1]
114.4400, 0.0000000E+00
115.6710, 17.36090
116.9030, 23.16956
118.1340, 58.86316
119.3650, 139.1995
120.5960, 170.6459
121.8270, 252.7788
123.0580, 227.5516
124.2880, 313.6482
125.5190, 169.2517
126.7490, 81.02087
127.9790, 50.78729
129.2090, 13.58618
130.4390, 10.45355
131.6680, 3.533081
132.8980, 1.325806
134.1270, 5.838989
135.3560, 20.66315
136.5850, 20.59387
137.8140, 38.05914
139.0430, 52.05316
140.2710, 65.01129
141.5000, 41.15417
142.7280, 8.848267
143.9560, 62.62628
145.1840, 17.96399
146.4120, 17.67926
147.6390, 36.80231
148.8670, 15.87354
150.0940, 34.69489
151.3210, 73.64899
152.5490, 73.15466
153.7750, 88.99261
155.0020, 94.02777
156.2290, 83.06476
157.4550, 71.45026
158.6810, 44.20184
159.9080, 78.84137
161.1340, 47.42590
162.3590, 76.99866
163.5850, 46.36377
164.8110, 36.74982
166.0360, 60.15222
167.2610, 45.56671
168.4860, 48.98846
169.7110, 45.41296
170.9360, 58.83545
172.1610, 43.25281
173.3850, 18.66284
174.6100, 43.06396
175.8340, 6.454834
177.0580, 15.84076
178.2820, 2.239258
179.5050, 1.747070
180.7290, 7.620544
181.9520, 12.05133
183.1760, 6.281860
184.3990, 11.36176
185.6220, 7.015869
186.8450, 9.399841
188.0670, 14.76740
189.2900, 3.938049
190.5120, 11.30981
191.7340, 10.54803
192.9560, 11.22198
194.1780, 4.011841
195.4000, 12.85846
196.6220, 7.815796
197.8430, 14.88605
199.0640, 23.26965
200.2860, 24.33301
201.5070, 29.59393
202.7270, 39.83893
203.9480, 14.05640
205.1690, 15.24469
206.3890, 13.40259
207.6090, 16.97565
208.8290, 34.45172
210.0490, 58.77759
211.2690, 81.85535
212.4890, 142.9017
213.7080, 181.9163
214.9280, 223.9010
216.1470, 278.8570
217.3660, 372.7834
218.5850, 367.6782
219.8030, 477.5370
221.0220, 465.3528
222.2400, 455.1271
223.4590, 439.8606
224.6770, 418.5410
225.8950, 425.1768
227.1120, 373.7664
228.3300, 383.3268
229.5480, 420.8597
230.7650, 413.3702
231.9820, 372.8611
233.1990, 365.3285
234.4160, 364.7711
235.6330, 352.1948
236.8490, 360.6024
238.0660, 385.2579
239.2820, 393.6317
240.4980, 411.5728
241.7140, 388.9111
242.9300, 424.6046
244.1460, 442.2389
245.3610, 485.6050
246.5770, 522.7908
247.7920, 533.2419
249.0070, 542.5366
250.2220, 532.7097
251.4370, 523.0853
252.6510, 547.1385
253.8660, 549.7382
255.0800, 512.0109
256.2940, 562.0248
257.5080, 506.5200
258.7220, 562.1203
259.9360, 584.1777
261.1490, 490.7948
262.3630, 534.9494
263.5760, 457.9573
264.7890, 490.8711
266.0020, 512.1322
267.2150, 521.2696
268.4270, 533.5674
269.6400, 513.5504
270.8520, 517.1319
272.0640, 476.6764
273.2760, 369.1328
274.4880, 298.8839
275.7000, 273.0172
276.9120, 226.8834
278.1230, 239.6380
279.3340, 161.3990
280.5450, 210.7637
281.7560, 171.9592
282.9670, 202.7683
284.1780, 171.3076
285.3880, 140.3154
286.5980, 145.9476
287.8090, 118.5586
289.0190, 118.8206
290.2290, 147.3434
291.4380, 118.8849
292.6480, 116.3839
293.8570, 117.8461
295.0670, 160.1802
296.2760, 164.5603
297.4850, 134.8884
298.6930, 168.4008
299.9020, 139.9613
301.1110, 188.1964
302.3190, 185.9894
303.5270, 238.1990
304.7350, 226.2396
305.9430, 176.4287
307.1510, 211.5563
308.3580, 166.7261
309.5660, 146.8481
310.7730, 126.8920
311.9800, 160.0497
313.1870, 186.1708
314.3940, 164.3085
315.6010, 152.4319
316.8070, 176.5737
318.0130, 186.6832
319.2200, 225.5428
320.4260, 214.6555
321.6310, 249.3009
322.8370, 274.1224
324.0430, 267.6531
325.2480, 249.1630
326.4540, 287.0980
327.6590, 241.8525
328.8640, 241.8533
330.0680, 264.5864
331.2730, 269.5261
332.4780, 253.3098
333.6820, 223.7495
334.8860, 248.2832
336.0900, 253.9214
337.2940, 228.5979
338.4980, 246.3036
339.7010, 236.8092
340.9050, 227.5393
342.1080, 211.1416
343.3110, 214.8961
344.5140, 188.7891
345.7170, 215.6882
346.9200, 222.6342
348.1220, 158.6467
349.3240, 161.3142
350.5270, 106.9971
351.7290, 128.6206
352.9310, 81.31860
354.1320, 77.25366
355.3340, 112.2600
356.5350, 71.26257
357.7370, 71.26147
358.9380, 70.25684
360.1390, 40.24915
361.3400, 57.23743
362.5400, 59.22278
363.7410, 34.20605
364.9410, 38.72144
366.1410, 40.16199
367.3410, 18.13599
368.5410, 6.105469
369.7410, 4.931519
370.9400, 11.88147
372.1400, 5.032959
373.3390, 9.096436
374.5380, 7.168457
375.7370, 11.75159
376.9360, 6.668579
378.1350, 28.58167
379.3330, 6.494507
380.5310, 13.59595
381.7300, 50.30603
382.9280, 32.20850
384.1260, 50.11218
385.3230, 27.01514
386.5210, 26.91455
387.7180, 53.80017
388.9160, 37.66919
390.1130, 11.52271
391.3100, 79.36755
392.5060, 47.20996
393.7030, 18.04663
394.9000, 42.88599
396.0960, 50.72803
397.2920, 13.57507
398.4880, 17.42249
399.6840, 13.72717
400.8800, 37.12134
402.0750, 48.97266
403.2710, 17.82239
404.4660, 35.32312
405.6610, 26.49036
406.8560, 5.675293
408.0510, 22.86780
409.2450, 8.924194
410.4400, 11.71533
411.6340, 5.936890
412.8280, 18.29724
414.0220, 1.909668
415.2160, 2.119995
416.4100, 1.333496
417.6030, 45.54919
418.7970, 16.78638
419.9900, 86.03137
421.1830, 67.31592
422.3760, 68.63025
423.5690, 80.97437
424.7610, 42.35339
425.9540, 125.7491
427.1460, 51.20044
428.3380, 42.67114
429.5300, 18.84338
430.7220, 11.36438
431.9140, 11.10754
433.1050, 80.42126
434.2970, 63.95728
435.4880, 67.50122
436.6790, 28.05310
437.8700, 38.61353
439.0610, 31.18323
440.2510, 19.76208
441.4420, 28.64954
442.6320, 8.062988
443.8220, 12.53015
445.0120, 15.86597
446.2020, 4.742310
447.3910, 24.63831
448.5810, 25.98352
449.7700, 27.61682
450.9600, 38.26184
452.1490, 38.91895
453.3370, 41.61841
454.5260, 85.27063
455.7150, 73.96533
456.9030, 93.67285
458.0910, 176.3934
459.2800, 155.1270
460.4670, 261.8740
461.6550, 267.6345
462.8430, 391.4102
464.0300, 435.1996
465.2180, 445.0054
466.4050, 579.8264
467.5920, 662.6648
468.7790, 633.5205
469.9650, 760.4004
471.1520, 779.2994
472.3380, 855.2185
473.5250, 843.1577
474.7110, 805.1179
475.8970, 866.1006
477.0820, 794.1064
478.2680, 823.1311
479.4540, 814.1787
480.6390, 849.2491
481.8240, 868.3379
483.0090, 940.4465
484.1940, 1007.574
485.3780, 1044.721
486.5630, 1113.888
487.7470, 1218.074
488.9320, 1291.279
490.1160, 1320.503
491.3000, 1425.746
492.4830, 1446.011
493.6670, 1490.297
494.8500, 1591.604
496.0340, 1678.933
497.2170, 1746.284
498.4000, 1792.655
499.5820, 1681.047
500.7650, 1602.460
501.9480, 1591.896
503.1300, 1440.129
504.3120, 1403.608
505.4940, 1372.110
506.6760, 1333.326
507.8580, 1262.899
509.0390, 1174.100
510.2210, 1101.970
511.4020, 1045.387
512.5830, 948.2471
513.7640, 876.5901
514.9450, 824.7141
516.1250, 725.4915
517.3060, 612.4368
518.4860, 565.3844
519.6660, 474.1594
520.8460, 394.7476
522.0260, 334.6147
523.2060, 254.4646
524.3850, 274.3629
525.5650, 271.1990
526.7440, 310.1512
527.9230, 276.9786
529.1020, 340.8469
530.2810, 405.8817
531.4590, 506.9445
532.6380, 592.2456
533.8160, 662.6213
534.9940, 802.7697
536.1720, 911.7092
537.3500, 1030.915
538.5270, 1104.151
539.7050, 1123.111
540.8820, 1202.228
542.0590, 1189.955
543.2360, 1018.310
544.4130, 1015.694
545.5900, 1022.018
546.7660, 903.8099
547.9430, 895.1433
549.1190, 837.6713
550.2950, 834.3274
551.4710, 827.6650
552.6470, 707.1506
553.8220, 728.5020
554.9980, 753.1915
556.1730, 645.2991
557.3480, 508.4585
558.5230, 469.7222
559.6980, 441.7062
560.8730, 449.3254
562.0470, 368.2222
563.2220, 332.2358
564.3960, 372.2496
565.5700, 255.6649
566.7440, 302.2552
567.9170, 258.2390
569.0910, 241.5016
570.2640, 233.3066
571.4380, 165.4990
572.6110, 121.7279
573.7840, 153.3525
574.9570, 154.6549
576.1290, 131.9939
577.3020, 122.3701
578.4740, 122.7833
579.6460, 113.5135
580.8180, 120.7212
581.9900, 110.2462
583.1620, 122.5851
584.3330, 119.8789
585.5040, 209.5170
586.6760, 230.6188
587.8470, 298.3328
589.0180, 330.1980
590.1880, 384.3992
591.3590, 423.8081
592.5290, 498.6753
593.7000, 568.7273
594.8700, 651.7035
596.0400, 752.5087
597.2090, 838.5308
598.3790, 972.5913
599.5490, 1066.691
600.7180, 1259.829
601.8870, 1423.007
603.0560, 1656.224
604.2250, 1832.480
605.3940, 1971.775
606.5620, 2268.110
607.7300, 2496.483
608.8990, 2792.896
610.0670, 3089.180
611.2350, 3503.225
612.4020, 4035.756
613.5700, 4474.866
614.7370, 5135.548
615.9050, 5780.319
617.0720, 6939.019
618.2390, 8051.749
619.4060, 9618.520
620.5720, 11416.33
621.7390, 13632.18
622.9050, 16781.08
624.0710, 20792.03
625.2370, 25551.03
626.4030, 31135.07
627.5690, 38108.16
628.7340, 45342.32
629.9000, 52890.54
631.0650, 58932.83
632.2300, 62582.15
633.3950, 62649.54
634.5600, 58917.00
635.7240, 51912.50
636.8890, 43482.08
638.0530, 35284.70
639.2170, 28479.39
640.3810, 22844.14
641.5450, 18447.95
642.7080, 14894.80
643.8720, 12438.72
645.0350, 10478.69
646.1980, 8795.703
647.3610, 7492.773
648.5240, 6751.898
649.6870, 5820.068
650.8490, 5175.287
652.0120, 4473.555
653.1740, 4030.880
654.3360, 3699.258
655.4980, 3270.690
656.6600, 2978.177
657.8210, 2742.719
658.9830, 2482.310
660.1440, 2420.951
661.3050, 2221.634
662.4660, 2035.364
663.6270, 1948.149
664.7870, 1797.973
665.9480, 1637.842
667.1080, 1634.751
668.2680, 1472.703
669.4280, 1469.696
670.5880, 1407.728
671.7480, 1457.798
672.9070, 1377.910
674.0670, 1342.059
675.2260, 1307.246
676.3850, 1302.471
677.5440, 1307.734
678.7030, 1271.034
679.8610, 1260.373
681.0200, 1271.750
682.1780, 1207.171
683.3360, 1331.629
684.4940, 1363.123
685.6520, 1369.655
686.8090, 1524.235
687.9670, 1570.860
689.1240, 1614.643
690.2810, 1614.792
691.4380, 1710.307
692.5950, 1744.969
693.7520, 1842.451
694.9080, 1866.027
696.0650, 1679.760
697.2210, 1552.861
698.3770, 1414.679
699.5330, 1240.243
700.6880, 1014.300
701.8440, 755.4124
702.9990, 606.5757
704.1550, 490.7900
705.3100, 435.0575
706.4650, 353.3694
707.6190, 302.7446
708.7740, 356.1654
709.9290, 296.6293
711.0830, 313.1257
712.2370, 296.6543
713.3910, 315.2180
714.5450, 323.0576
715.6980, 292.4407
716.8520, 339.0994
718.0050, 346.7891
719.1580, 333.5099
720.3110, 357.2615
721.4640, 278.0437
722.6170, 272.8622
723.7700, 299.7126
724.9220, 237.5931
726.0740, 222.5065
727.2260, 183.4495
728.3780, 172.4261
729.5300, 182.4321
730.6810, 125.4669
731.8330, 181.5304
732.9840, 145.6224
734.1350, 95.74268
735.2860, 83.89124
736.4370, 69.06738
737.5880, 102.2712
738.7380, 73.50244
739.8880, 16.76086
741.0390, 52.04614
742.1890, 16.35815
743.3380, 16.69678
744.4880, 46.06152
745.6380, 9.452148
746.7870, 16.86865
747.9360, 55.68921
749.0850, 42.22986
750.2340, 14.24939
751.3830, 41.24695
752.5310, 8.723755
753.6800, 14.17712
754.8280, 1.550171
755.9760, 36.21094
757.1240, 34.83704
758.2720, 66.47681
759.4190, 68.67957
760.5670, 176.9819
761.7140, 211.7214
762.8610, 399.1610
764.0080, 599.8733
765.1550, 757.6240
766.3020, 1056.720
767.4480, 1377.170
768.5950, 1758.914
769.7410, 2119.126
770.8870, 2473.509
772.0330, 2766.742
773.1780, 2981.150
774.3240, 3108.982
775.4690, 3054.596
776.6140, 3041.709
777.7590, 2782.816
778.9040, 2548.967
780.0490, 2173.800
781.1940, 1963.690
782.3380, 1638.822
783.4820, 1422.383
784.6260, 1201.572
785.7700, 1065.761
786.9140, 898.2229
788.0580, 812.4587
789.2010, 694.5667
790.3450, 616.0120
791.4880, 536.9036
792.6310, 480.7778
793.7730, 397.1554
794.9160, 460.5868
796.0590, 377.9119
797.2010, 374.5886
798.3430, 310.1920
799.4850, 299.3611
800.6270, 309.0582
801.7690, 276.6451
802.9100, 281.9470
804.0520, 269.5616
805.1930, 254.7820
806.3340, 226.5690
807.4750, 170.9337
808.6160, 192.3822
809.7560, 134.7756
810.8970, 143.0618
812.0370, 117.3547
813.1770, 119.6541
814.3170, 89.95874
815.4570, 137.2681
816.5960, 92.58191
817.7360, 92.89978
818.8750, 88.22156
820.0140, 29.54675
821.1530, 21.87512
822.2920, 39.20667
823.4310, 15.54053
824.5690, 14.87622
825.7070, 3.786743
826.8460, 15.44995
827.9840, 24.71289
829.1220, 50.79089
830.2590, 45.48193
831.3970, 22.18811
832.5340, 24.90210
833.6710, 32.62476
834.8080, 24.35950
835.9450, 40.10376
837.0820, 27.13586
838.2190, 58.37390
839.3550, 58.60974
840.4910, 125.8434
841.6270, 156.0741
842.7630, 181.3019
843.8990, 169.5264
845.0350, 287.7468
846.1700, 306.9635
847.3060, 307.1758
848.4410, 382.3834
849.5760, 390.5861
850.7100, 373.7839
851.8450, 373.9762
852.9800, 408.1628
854.1140, 396.3438
855.2480, 368.5183
856.3820, 442.6868
857.5160, 435.8486
858.6500, 434.0037
859.7830, 472.1515
860.9170, 461.2920
862.0500, 473.4250
863.1830, 467.5500
864.3160, 457.6671
865.4480, 456.0349
866.5810, 448.8760
867.7130, 433.9673
868.8460, 397.0496
869.9780, 373.1224
871.1100, 351.1859
872.2410, 314.2396
873.3730, 331.2833
874.5050, 309.3169
875.6360, 261.3398
876.7670, 292.3523
877.8980, 287.3539
879.0290, 238.3444
880.1590, 170.3234
881.2900, 145.2909
882.4200, 153.2467
883.5500, 99.19043
884.6800, 130.2909
885.8100, 93.65698
886.9400, 81.56360
888.0690, 60.91797
889.1990, 45.52594
890.3280, 23.47260
891.4570, 29.31573
892.5860, 36.15271
893.7140, 40.97546
894.8430, 16.78387
895.9710, 18.42761
897.1000, 8.322571
898.2280, 16.04773
899.3560, 21.24939
900.4830, 36.58795
901.6110, 24.97638
902.7380, 45.40942
903.8660, 64.89850
904.9930, 23.45447
906.1200, 41.05560
907.2460, 21.71149
908.3730, 39.41241
909.5000, 45.16870
910.6260, 40.75940
911.7520, 31.85376
912.8780, 46.77789
914.0040, 14.76324
915.1290, 24.79297
916.2550, 24.87317
917.3800, 12.00470
918.5050, 15.81897
919.6300, 11.38892
920.7550, 10.64209
921.8800, 21.05933
923.0040, 27.75983
924.1290, 32.45929
925.2530, 4.119568
926.3770, 41.92041
927.5010, 16.59070
928.6250, 29.40942
929.7480, 7.255127
930.8720, 32.97119
931.9950, 24.66779
933.1180, 63.54016
934.2410, 41.16656
935.3640, 26.84149
936.4860, 69.76349
937.6090, 35.41003
938.7310, 82.11768
939.8530, 45.28345
940.9750, 64.81586
942.0970, 97.25757
943.2180, 90.87372
944.3400, 98.56647
945.4610, 121.0756
946.5820, 152.7071
947.7030, 163.1384
948.8240, 152.6004
949.9450, 188.7999
951.0650, 200.0088
952.1860, 194.1970
953.3060, 216.3641
954.4260, 239.5024
955.5460, 232.5989
956.6650, 251.7042
957.7850, 282.7179
958.9040, 298.6313
960.0230, 281.4989
961.1420, 287.2794
962.2610, 342.6923
963.3800, 371.7606
964.4990, 398.7183
965.6170, 414.8344
966.7350, 441.7583
967.8530, 483.7268
968.9710, 484.2502
970.0890, 506.0731
971.2070, 523.1749
972.3240, 519.4074
973.4410, 505.4083
974.5580, 505.9926
975.6750, 493.5551
976.7920, 464.0959
977.9090, 471.6150
979.0250, 456.1124
980.1410, 426.5878
981.2580, 416.1573
982.3740, 392.0609
983.4890, 372.8826
984.6050, 346.2703
985.7200, 328.6359
986.8360, 297.9794
987.9510, 278.3008
989.0660, 283.6002
990.1810, 243.8774
991.2950, 259.1324
992.4100, 238.3652
993.5240, 264.5757
994.6390, 247.7640
995.7530, 239.9301
996.8660, 196.0739
997.9800, 225.1953
999.0940, 254.2944
1000.207, 279.3711
1001.320, 253.4254
1002.433, 280.4574
1003.546, 255.4671
1004.659, 273.4544
1005.772, 276.4193
1006.884, 294.3618
1007.996, 315.2819
1009.108, 290.1794
1010.220, 281.0546
1011.332, 320.9075
1012.444, 310.7377
1013.555, 295.5458
1014.666, 326.3313
1015.777, 291.0944
1016.888, 365.8351
1017.999, 309.5535
1019.110, 309.2535
1020.220, 346.9339
1021.331, 344.5919
1022.441, 332.2302
1023.551, 358.8468
1024.661, 346.2837
1025.770, 354.7886
1026.880, 350.3298
1027.989, 356.8585
1029.098, 361.4247
1030.207, 390.7037
1031.316, 372.1422
1032.425, 392.8738
1033.533, 403.3912
1034.642, 389.9274
1035.750, 410.0663
1036.858, 408.8317
1037.966, 389.3136
1039.073, 399.4305
1040.181, 363.4244
1041.288, 386.6049
1042.396, 347.4954
1043.503, 362.1594
1044.610, 326.9625
1045.716, 307.0579
1046.823, 252.2361
1047.929, 263.4703
1049.036, 234.9547
1050.142, 205.2902
1051.248, 192.4083
1052.353, 176.0770
1053.459, 124.1531
1054.564, 134.1954
1055.670, 100.1600
1056.775, 82.25238
1057.880, 107.3868
1058.985, 59.31506
1060.089, 74.63629
1061.194, 48.14691
1062.298, 41.12219
1063.402, 51.38092
1064.506, 49.26471
1065.610, 28.92700
1066.713, 49.78058
1067.817, 39.97351
1068.920, 18.64386
1070.023, 36.86676
1071.126, 28.89758
1072.229, 4.315063
1073.332, 39.63928
1074.435, 47.09924
1075.537, 27.92181
1076.639, 20.81763
1077.741, 32.54749
1078.843, 22.60425
1079.945, 31.54193
1081.046, 37.26678
1082.148, 60.07831
1083.249, 54.83704
1084.350, 54.52185
1085.451, 54.25946
1086.551, 54.92352
1087.652, 58.59747
1088.752, 53.18469
1089.853, 67.76929
1090.953, 86.35101
1092.053, 91.88733
1093.152, 79.41730
1094.252, 84.93781
1095.351, 83.45404
1096.451, 77.96259
1097.550, 86.50806
1098.649, 98.00970
1099.748, 125.5087
1100.846, 134.9987
1101.945, 110.4837
1103.043, 137.9677
1104.141, 111.4468
1105.239, 134.9131
1106.337, 102.3665
1107.434, 110.8073
1108.532, 120.2353
1109.629, 163.6503
1110.726, 162.0526
1111.823, 176.4419
1112.920, 146.8186
1114.017, 195.1827
1115.113, 198.5342
1116.210, 201.8732
1117.306, 248.1996
1118.402, 253.5138
1119.498, 235.8156
1120.593, 259.1052
1121.689, 240.3826
1122.784, 231.6479
1123.879, 286.9012
1124.974, 271.1426
1126.069, 236.3719
1127.164, 273.5894
1128.259, 227.7953
1129.353, 205.9894
1130.447, 221.1719
1131.541, 222.3429
1132.635, 212.5023
1133.729, 211.6505
1134.822, 211.7872
1135.916, 206.9127
1137.009, 182.0270
1138.102, 179.1301
1139.195, 177.2222
1140.288, 163.9866
1141.380, 169.3737
1142.473, 159.4330
1143.565, 149.4817
1144.657, 166.5196
1145.749, 145.5476
1146.841, 140.5651
1147.932, 107.5720
1149.024, 110.4563
1150.115, 106.5604
1151.206, 106.5417
1152.297, 121.5134
1153.388, 117.4794
1154.479, 116.4404
1155.569, 116.8275
1156.659, 97.33459
1157.750, 107.2682
1158.839, 77.19556
1159.929, 68.11798
1161.019, 80.03363
1162.108, 67.95172
1163.198, 75.86554
1164.287, 54.77368
1165.376, 40.68530
1166.465, 52.60431
1167.553, 56.52826
1168.642, 53.46301
1169.730, 28.41394
1170.818, 20.36932
1171.906, 15.33392
1172.994, 33.30237
1174.082, 5.280579
1175.170, 13.26855
1176.257, 52.26617
1177.344, 33.27295
1178.431, 15.29242
1179.518, 23.31543
1180.605, 44.34546
1181.691, 37.38342
1182.778, 40.96875
1183.864, 31.46649
1184.950, 38.51166
1186.036, 5.561584
1187.122, 16.57837
1188.207, 31.51941
1189.292, 9.556213
1190.378, 35.37012
1191.463, 6.283875
1192.548, 9.013367
1193.632, 23.31775
1194.717, 28.43683
1195.801, 7.244812
1196.886, 2.224670
1197.970, 2.572144
1199.054, 1.236328
1200.137, 10.26245
1201.221, 4.637878
1202.305, 11.52722
1203.388, 6.449219
1204.471, 7.316345
1205.554, 13.09570
1206.637, 1.479797
1207.719, 20.65796
1208.802, 19.42426
1209.884, 4.690308
1210.966, 39.54926
1212.048, 17.93103
1213.130, 26.83215
1214.212, 42.72711
1215.293, 28.82849
1216.374, 44.73389
1217.456, 69.38525
1218.536, 35.91687
1219.617, 55.84821
1220.698, 56.52979
1221.778, 87.14899
1222.859, 81.65814
1223.939, 85.28772
1225.019, 99.74536
1226.099, 71.99384
1227.178, 59.39734
1228.258, 97.39166
1229.337, 88.77338
1230.417, 142.5966
1231.496, 122.8914
1232.574, 107.4949
1233.653, 130.4083
1234.732, 110.1854
1235.810, 92.93213
1236.888, 132.7424
1237.966, 112.4387
1239.044, 102.1275
1240.122, 125.8090
1241.199, 101.4830
1242.277, 99.14978
1243.354, 102.8091
1244.431, 135.4611
1245.508, 152.1058
1246.585, 114.7433
1247.661, 78.37360
1248.738, 116.9966
1249.814, 122.6126
1250.890, 107.2214
1251.966, 151.8233
1253.042, 134.4180
1254.117, 138.0059
1255.193, 138.5866
1256.268, 150.1605
1257.343, 150.7275
1258.418, 112.2875
1259.493, 138.8408
1260.567, 136.3872
1261.642, 161.9269
1262.716, 137.4598
1263.790, 139.9861
1264.864, 115.5057
1265.938, 116.0186
1267.011, 120.5248
1268.085, 136.0246
1269.158, 133.5178
1270.231, 145.0044
1271.304, 149.4847
1272.377, 122.9586
1273.450, 129.4260
1274.522, 102.9857
1275.594, 118.4406
1276.666, 146.8892
1277.738, 128.8137
1278.810, 127.4197
1279.882, 103.2506
1280.953, 113.7938
1282.025, 157.1523
1283.096, 154.6934
1284.167, 130.1843
1285.238, 139.5840
1286.308, 130.9778
1287.379, 123.0801
1288.449, 130.4569
1289.519, 105.8223
1290.589, 122.2109
1291.659, 149.5680
1292.729, 156.9266
1293.798, 129.2208
1294.868, 138.4522
1295.937, 109.7296
1297.006, 130.0195
