##NAMES=Cassiterite
##RRUFFID=R040017
##IDEAL CHEMISTRY=SnO_2_
##LOCALITY=Bolivia
##OWNER=RRUFF
##SOURCE=University of Arizona Mineral Museum
##DESCRIPTION=Dark brown short prismatic single crystals
##STATUS=The identification of this mineral has been confirmed by X-ray diffraction and chemical analysis
##URL=rruff.info/R040017
##MEASURED CHEMISTRY=Sn_1.00_O_2_; trace amounts of Fe
##PIN_ID=L00125
##ORIENTATION=Laser parallel to -a* (-1 0 0). Fiducial mark perpendicular to laser is parallel to c [0 0 1]
97.027, 0.000
98.428, 36.837
99.829, 103.894
101.230, 227.033
102.630, 313.261
104.030, 449.115
105.430, 596.526
106.830, 810.173
108.229, 800.155
109.628, 1052.851
111.027, 1463.787
112.426, 1464.824
113.824, 1631.527
115.222, 1644.729
116.620, 1723.663
118.018, 1704.625
119.416, 1787.507
120.813, 1786.128
122.210, 1692.812
123.607, 1719.981
125.003, 1520.700
126.399, 1303.923
127.795, 1160.621
129.191, 1124.762
130.587, 998.282
131.982, 1086.147
133.377, 1059.373
134.772, 973.931
136.167, 1068.769
137.561, 1019.838
138.955, 1277.101
140.349, 1094.543
141.743, 1228.890
143.136, 1123.683
144.529, 1063.463
145.922, 1112.222
147.315, 1027.952
148.707, 1155.647
150.099, 1016.310
151.491, 1187.994
152.883, 1196.804
154.274, 1301.836
155.666, 1281.202
157.057, 1336.402
158.448, 1285.978
159.838, 1184.695
161.228, 1376.383
162.618, 1265.910
164.008, 1356.370
165.398, 1458.963
166.787, 1205.050
168.176, 1532.471
169.565, 1446.044
170.954, 1567.617
172.342, 1486.045
173.730, 1478.318
175.118, 1621.452
176.506, 1462.462
177.893, 1704.356
179.280, 1505.134
180.667, 1765.801
182.054, 1787.358
183.441, 1668.857
184.827, 1995.198
186.213, 1835.169
187.599, 2129.506
188.984, 1974.972
190.369, 2167.354
191.755, 2114.656
193.139, 2268.877
194.524, 2386.019
195.908, 2338.081
197.292, 2588.063
198.676, 2570.968
200.060, 2634.793
201.443, 2703.539
202.826, 2723.666
204.209, 2982.483
205.592, 2887.936
206.975, 3087.363
208.357, 2960.890
209.739, 3160.883
211.121, 3237.552
212.502, 3016.913
213.883, 3399.926
215.264, 3302.540
216.645, 3675.320
218.026, 3735.857
219.406, 3772.233
220.786, 3941.682
222.166, 3658.429
223.546, 4001.253
224.925, 3683.586
226.304, 3902.102
227.683, 3778.011
229.062, 3739.455
230.440, 3930.306
231.818, 3640.231
233.196, 3917.485
234.574, 3600.955
235.952, 3774.021
237.329, 3752.173
238.706, 3580.677
240.083, 3799.193
241.459, 3375.537
242.836, 3549.515
244.212, 3241.732
245.587, 3138.413
246.963, 2945.569
248.338, 2543.174
249.714, 2587.397
251.089, 2178.645
252.463, 2200.173
253.838, 1905.394
255.212, 1724.454
256.586, 1673.795
257.960, 1370.285
259.333, 1311.613
260.706, 949.882
262.079, 948.423
263.452, 725.713
264.825, 818.784
266.197, 446.704
267.569, 80.622
268.941, 66.530
270.313, 71.578
271.684, 187.716
273.055, 219.899
274.426, 245.136
275.797, 32.432
277.167, 306.233
278.538, 991.866
279.908, 1528.464
281.277, 2077.026
282.647, 2513.548
284.016, 2318.030
285.385, 2415.468
286.754, 2086.864
288.123, 1864.212
289.491, 1552.516
290.859, 1278.768
292.227, 1173.966
293.595, 865.110
294.962, 836.200
296.329, 642.236
297.696, 576.218
299.063, 553.145
300.430, 371.017
301.796, 438.834
303.162, 323.594
304.528, 349.295
305.893, 288.937
307.259, 140.519
308.624, 212.037
309.989, 41.493
311.353, 140.885
312.718, 24.213
314.082, 41.474
315.446, 10.665
316.810, 54.216
318.173, 27.821
319.536, 54.214
320.899, 30.331
322.262, 23.474
323.625, 1.207
324.987, 19.867
326.349, 22.546
327.711, 20.966
329.073, 82.593
330.434, 21.234
331.795, 0.955
333.156, 103.812
334.517, 66.853
335.877, 42.984
337.238, 13.811
338.598, 50.461
339.957, 49.806
341.317, 20.775
342.676, 55.710
344.035, 8.268
345.394, 81.895
346.753, 1.523
348.111, 430.633
349.469, 116.807
350.827, 335.918
352.185, 289.967
353.543, 255.949
354.900, 399.859
356.257, 168.688
357.614, 73.574
358.970, 406.072
360.327, 284.755
361.683, 142.329
363.039, 549.532
364.394, 180.160
365.750, 229.960
367.105, 199.881
368.460, 278.911
369.814, 253.776
371.169, 269.314
372.523, 223.655
373.877, 212.078
375.231, 178.584
376.585, 142.186
377.938, 153.863
379.291, 186.645
380.644, 80.575
381.997, 136.654
383.349, 9.879
384.701, 136.224
386.053, 4.690
387.405, 9.258
388.756, 21.086
390.108, 49.347
391.459, 8.455
392.810, 74.678
394.160, 3.760
395.511, 50.780
396.861, 72.743
398.211, 60.650
399.560, 129.499
400.910, 31.293
402.259, 142.026
403.608, 122.703
404.957, 167.324
406.305, 186.891
407.654, 133.405
409.002, 261.862
410.349, 167.268
411.697, 298.620
413.045, 298.922
414.392, 306.905
415.739, 363.760
417.085, 321.428
418.432, 369.320
419.778, 351.389
421.124, 318.798
422.470, 374.080
423.816, 336.985
425.161, 449.841
426.506, 342.649
427.851, 452.409
429.196, 489.121
430.540, 464.785
431.884, 586.402
433.228, 560.971
434.572, 674.493
435.916, 704.968
437.259, 694.396
438.602, 876.778
439.945, 727.113
441.287, 825.402
442.630, 731.646
443.972, 808.845
445.314, 785.998
446.656, 765.106
447.997, 899.169
449.338, 836.188
450.679, 890.163
452.020, 1014.094
453.361, 993.855
454.701, 1085.066
456.041, 1024.412
457.381, 1191.815
458.721, 1132.454
460.060, 1162.198
461.400, 1306.512
462.739, 1196.268
464.077, 1430.718
465.416, 1425.357
466.754, 1596.494
468.092, 1721.718
469.430, 1578.476
470.768, 1875.542
472.105, 1952.638
473.443, 2170.612
474.780, 2575.206
476.116, 2607.173
477.453, 2703.562
478.789, 2362.508
480.125, 2327.266
481.461, 2363.533
482.797, 2154.051
484.132, 2401.056
485.467, 2242.040
486.802, 2438.558
488.137, 2518.330
489.471, 2460.173
490.806, 2701.267
492.140, 2526.269
493.474, 2795.107
494.807, 2663.238
496.141, 2901.024
497.474, 3128.785
498.807, 2964.474
500.139, 3220.184
501.472, 3039.410
502.804, 3061.399
504.136, 3019.051
505.468, 2683.693
506.800, 3028.713
508.131, 2665.331
509.462, 2725.743
510.793, 2731.977
512.124, 2538.901
513.454, 2620.964
514.784, 2373.601
516.114, 2491.865
517.444, 2362.175
518.774, 2231.748
520.103, 2281.087
521.432, 1966.266
522.761, 2065.161
524.090, 1894.281
525.418, 1884.863
526.747, 1822.133
528.075, 1717.349
529.402, 1810.621
530.730, 1738.942
532.057, 1744.151
533.384, 1888.999
534.711, 1785.190
536.038, 2137.396
537.364, 2028.807
538.691, 2159.285
540.017, 2307.462
541.343, 2262.835
542.668, 2595.090
543.993, 2388.775
545.319, 2465.714
546.643, 2339.442
547.968, 2096.074
549.293, 2263.908
550.617, 1995.828
551.941, 2106.493
553.265, 2051.750
554.588, 2015.563
555.911, 2117.854
557.235, 1819.139
558.557, 1988.418
559.880, 1863.694
561.203, 1816.976
562.525, 1861.278
563.847, 1597.603
565.169, 1761.955
566.490, 1602.311
567.812, 1626.662
569.133, 1643.009
570.454, 1454.352
571.774, 1529.691
573.095, 1442.026
574.415, 1468.358
575.735, 1540.688
577.055, 1365.014
578.374, 1522.337
579.694, 1295.658
581.013, 1401.977
582.332, 1467.294
583.650, 1336.609
584.969, 1562.923
586.287, 1352.235
587.605, 1480.546
588.923, 1404.857
590.241, 1414.167
591.558, 1551.477
592.875, 1465.786
594.192, 1601.096
595.509, 1581.406
596.825, 1668.718
598.142, 1837.031
599.458, 1689.349
600.773, 2024.671
602.089, 2007.999
603.404, 2071.334
604.720, 2277.678
606.034, 2255.038
607.349, 2569.405
608.664, 2693.790
609.978, 2826.188
611.292, 3173.596
612.606, 3260.015
613.920, 3761.443
615.233, 4002.887
616.546, 4361.341
617.859, 5111.816
619.172, 5326.307
620.484, 6689.811
621.797, 7239.338
623.109, 8458.888
624.421, 10288.455
625.732, 11768.394
627.044, 15569.601
628.355, 18730.053
629.666, 24361.068
630.977, 32012.400
632.287, 38513.090
633.598, 49494.492
634.908, 51405.352
636.218, 51805.523
637.527, 47655.809
638.837, 37176.309
640.146, 30986.816
641.455, 23426.602
642.764, 18527.828
644.073, 15248.641
645.381, 11710.261
646.689, 10283.348
647.997, 8144.668
649.305, 7188.227
650.612, 6450.274
651.920, 5304.075
653.227, 5105.914
654.533, 4367.671
655.840, 4014.612
657.146, 3756.315
658.453, 3218.015
659.759, 3204.196
661.064, 2821.112
662.370, 2693.178
663.675, 2680.765
664.980, 2330.128
666.285, 2535.667
667.590, 2159.090
668.894, 2262.801
670.199, 2202.321
671.503, 1999.654
672.806, 2109.448
674.110, 1872.854
675.413, 1918.227
676.717, 1986.825
678.020, 1787.222
679.322, 1869.777
680.625, 1707.196
681.927, 1845.624
683.229, 1778.060
684.531, 1803.505
685.833, 1917.957
687.134, 1735.419
688.435, 1983.887
689.736, 1969.362
691.037, 1850.843
692.337, 2120.329
693.638, 1992.821
694.938, 2289.318
696.238, 2310.819
697.538, 2128.324
698.837, 2198.832
700.136, 1981.344
701.435, 1834.858
702.734, 1621.375
704.033, 1310.896
705.331, 1316.420
706.629, 1032.946
707.927, 1001.474
709.225, 902.005
710.523, 835.539
711.820, 949.075
713.117, 807.614
714.414, 885.155
715.710, 907.699
717.007, 813.245
718.303, 1027.793
719.599, 912.344
720.895, 944.896
722.191, 965.452
723.486, 781.009
724.781, 875.569
726.076, 748.131
727.371, 698.695
728.665, 750.261
729.960, 575.829
731.254, 738.399
732.548, 624.971
733.841, 662.545
735.135, 660.121
736.428, 582.699
737.721, 624.279
739.014, 522.860
740.306, 485.443
741.599, 554.028
742.891, 447.614
744.183, 503.201
745.474, 389.790
746.766, 414.380
748.057, 445.972
749.348, 329.564
750.639, 378.157
751.930, 293.751
753.220, 282.346
754.511, 276.941
755.801, 215.537
757.090, 230.133
758.380, 187.729
759.669, 161.326
760.958, 133.923
762.247, 29.520
763.536, 99.115
764.825, 12.289
766.113, 68.699
767.401, 35.126
768.689, 58.564
769.977, 71.018
771.264, 42.490
772.551, 71.975
773.838, 47.924
775.125, 15.998
776.412, 21.523
777.698, 31.058
778.984, 30.603
780.270, 19.841
781.556, 60.717
782.842, 42.292
784.127, 75.882
785.412, 138.492
786.697, 62.137
787.982, 157.799
789.266, 135.501
790.550, 80.238
791.834, 165.996
793.118, 31.796
794.402, 123.608
795.685, 111.453
796.968, 66.328
798.251, 128.223
799.534, 72.153
800.817, 120.105
802.099, 55.090
803.381, 44.094
804.663, 93.115
805.945, 44.163
807.226, 98.228
808.508, 46.322
809.789, 36.567
811.070, 12.550
812.350, 24.323
813.631, 82.190
814.911, 0.052
816.191, 98.906
817.471, 4.754
818.750, 81.595
820.030, 112.431
821.309, 36.261
822.588, 118.086
823.867, 38.905
825.145, 95.719
826.423, 122.527
827.702, 80.330
828.980, 168.126
830.257, 86.918
831.535, 122.704
832.812, 83.483
834.089, 95.258
835.366, 167.026
836.643, 87.789
837.919, 90.546
839.195, 225.297
840.471, 99.042
841.747, 200.782
843.023, 199.515
844.298, 313.243
845.573, 347.965
846.848, 304.681
848.123, 477.391
849.397, 494.095
850.672, 386.793
851.946, 589.486
853.220, 424.172
854.493, 524.852
855.767, 464.527
857.040, 432.195
858.313, 586.857
859.586, 510.514
860.859, 581.164
862.131, 618.809
863.404, 491.447
864.676, 700.079
865.947, 522.706
867.219, 599.326
868.490, 611.940
869.762, 447.549
871.033, 548.151
872.303, 403.746
873.574, 469.337
874.844, 444.920
876.114, 418.498
877.384, 474.070
878.654, 405.636
879.924, 345.195
881.193, 424.749
882.462, 302.296
883.731, 331.838
884.999, 278.373
886.268, 249.902
887.536, 408.426
888.804, 224.943
890.072, 304.454
891.340, 255.959
892.607, 173.458
893.874, 315.952
895.141, 192.439
896.408, 221.921
897.675, 263.397
898.941, 169.867
900.207, 233.331
901.473, 242.790
902.739, 193.884
904.005, 274.724
905.270, 183.333
906.535, 226.388
907.800, 250.142
909.065, 195.556
910.329, 285.273
911.594, 185.540
912.858, 227.504
914.122, 211.357
915.385, 157.990
916.649, 269.622
917.912, 184.979
919.175, 190.897
920.438, 306.234
921.701, 152.782
922.963, 267.870
924.225, 233.725
925.487, 206.351
926.749, 242.488
928.011, 119.904
929.272, 287.319
930.533, 264.850
931.794, 142.239
933.055, 279.908
934.316, 177.623
935.576, 273.897
936.836, 253.475
938.096, 178.936
939.356, 346.906
940.616, 222.130
941.875, 251.213
943.134, 295.439
944.393, 193.407
945.652, 282.587
946.910, 277.983
948.168, 244.932
949.427, 354.290
950.684, 277.692
951.942, 386.879
953.200, 323.283
954.457, 314.537
955.714, 465.943
956.971, 335.350
958.228, 381.757
959.484, 502.167
960.740, 447.576
961.996, 534.987
963.252, 408.398
964.508, 469.810
965.763, 527.224
967.018, 438.638
968.273, 629.053
969.528, 632.468
970.783, 569.885
972.037, 663.303
973.291, 543.723
974.545, 667.143
975.799, 653.565
977.053, 559.988
978.306, 619.413
979.559, 552.838
980.812, 556.266
982.065, 548.694
983.318, 380.124
984.570, 526.555
985.822, 416.988
987.074, 402.423
988.326, 461.858
989.577, 373.296
990.829, 376.734
992.080, 400.175
993.331, 308.617
994.581, 451.062
995.832, 323.507
997.082, 401.955
998.332, 299.405
999.582, 315.856
1000.832, 426.309
1002.081, 589.764
1003.331, 744.220
1004.580, 708.679
1005.829, 512.139
1007.077, 390.602
1008.326, 424.067
1009.574, 311.534
1010.822, 444.003
1012.070, 367.474
1013.318, 368.947
1014.565, 450.422
1015.812, 299.899
1017.059, 480.379
1018.306, 382.860
1019.553, 424.344
1020.799, 435.831
1022.045, 363.319
1023.291, 373.810
1024.537, 390.304
1025.783, 315.800
1027.028, 477.424
1028.273, 399.925
1029.518, 415.429
1030.763, 474.936
1032.008, 375.446
1033.252, 445.096
1034.496, 452.611
1035.740, 418.130
1036.984, 481.703
1038.228, 381.229
1039.471, 470.966
1040.714, 506.891
1041.957, 290.446
1043.200, 506.684
1044.443, 419.267
1045.685, 370.871
1046.927, 489.567
1048.169, 376.286
1049.411, 394.585
1050.653, 379.207
1051.894, 257.837
1053.135, 330.492
1054.376, 234.139
1055.617, 234.065
1056.857, 295.555
1058.098, 176.271
1059.338, 243.715
1060.578, 201.509
1061.818, 171.249
1063.057, 170.016
1064.296, 117.849
1065.536, 134.160
1066.775, 261.653
1068.013, 132.889
1069.252, 200.308
1070.490, 160.825
1071.728, 130.750
1072.966, 206.897
1074.204, 120.946
1075.442, 197.030
1076.679, 244.369
1077.916, 80.342
1079.153, 168.708
1080.390, 129.838
1081.626, 111.821
1082.862, 179.844
1084.099, 120.833
1085.334, 169.965
1086.570, 158.134
1087.806, 66.140
1089.041, 189.437
1090.276, 56.559
1091.511, 128.589
1092.746, 187.896
1093.980, 113.933
1095.215, 245.972
1096.449, 170.016
1097.683, 193.070
1098.916, 179.128
1100.150, 164.194
1101.383, 203.267
1102.616, 235.342
1103.849, 188.418
1105.082, 250.496
1106.314, 207.599
1107.547, 203.682
1108.779, 236.763
1110.011, 165.845
1111.243, 252.928
1112.474, 217.035
1113.705, 177.116
1114.936, 253.196
1116.167, 151.274
1117.398, 251.353
1118.629, 270.430
1119.859, 149.505
1121.089, 259.579
1122.319, 221.652
1123.549, 230.730
1124.778, 254.801
1126.008, 141.927
1127.237, 211.994
1128.466, 280.080
1129.694, 142.199
1130.923, 298.261
1132.151, 188.321
1133.379, 172.379
1134.607, 315.436
1135.835, 221.490
1137.062, 246.545
1138.290, 199.600
1139.517, 122.837
1140.744, 223.893
1141.971, 141.947
1143.197, 161.001
1144.423, 264.062
1145.650, 121.122
1146.875, 170.181
1148.101, 190.238
1149.327, 80.292
1150.552, 161.353
1151.777, 104.414
1153.002, 67.472
1154.227, 151.531
1155.451, 38.666
1156.676, 131.719
1157.900, 101.781
1159.124, 1.838
1160.348, 90.893
1161.571, 45.953
1162.795, 42.199
1164.018, 72.252
1165.241, 2.440
1166.463, 56.493
1167.686, 57.548
1168.908, 22.626
1170.131, 76.672
1171.353, 2.279
1172.574, 14.230
1173.796, 106.884
1175.017, 69.816
1176.239, 37.422
1177.460, 36.712
1178.680, 20.090
1179.901, 17.201
1181.121, 25.810
1182.341, 44.469
1183.561, 126.437
1184.781, 39.256
1186.001, 53.155
1187.220, 3.782
1188.440, 29.601
1189.659, 41.455
1190.877, 25.642
1192.096, 33.781
1193.314, 62.791
1194.533, 49.226
1195.751, 41.004
1196.969, 55.955
1198.186, 9.154
1199.404, 8.847
1200.621, 15.839
1201.838, 18.143
1203.055, 46.863
1204.271, 3.841
1205.488, 28.140
1206.704, 22.873
1207.920, 49.028
1209.136, 54.630
1210.352, 48.304
1211.567, 30.160
1212.783, 63.065
1213.998, 31.089
1215.213, 95.920
1216.427, 38.794
1217.642, 32.756
1218.856, 95.544
1220.070, 11.778
1221.284, 53.316
1222.498, 99.544
1223.711, 18.571
1224.925, 131.890
1226.138, 107.678
1227.351, 148.205
1228.563, 174.632
1229.776, 99.973
1230.988, 114.949
1232.200, 180.969
1233.412, 135.743
1234.624, 172.494
1235.836, 156.045
1237.047, 83.464
1238.258, 212.010
1239.469, 150.289
1240.680, 124.807
1241.891, 191.338
1243.101, 87.534
1244.311, 164.817
1245.521, 172.973
1246.731, 112.109
1247.941, 169.588
1249.150, 123.692
1250.359, 166.789
1251.568, 173.041
1252.777, 101.145
1253.986, 97.312
1255.194, 186.512
1256.403, 87.480
1257.611, 161.725
1258.819, 96.648
1260.026, 89.549
1261.234, 179.959
1262.441, 102.903
1263.648, 150.973
1264.855, 136.242
1266.062, 121.073
1267.268, 239.566
1268.475, 119.151
1269.681, 67.065
1270.887, 150.254
1272.092, 166.269
1273.298, 179.765
1274.503, 180.793
1275.708, 177.811
1276.913, 205.137
1278.118, 155.341
1279.323, 173.175
1280.527, 164.780
1281.731, 200.650
1282.935, 164.361
1284.139, 190.098
1285.343, 101.808
1286.546, 222.752
1287.749, 153.018
1288.952, 131.781
1290.155, 159.761
1291.358, 156.218
1292.560, 83.820
1293.762, 162.905
1294.965, 99.511
1296.166, 193.137
1297.368, 190.870
1298.570, 123.429
1299.771, 190.279
1300.972, 149.310
1302.173, 130.523
1303.374, 114.551
1304.574, 74.101
1305.774, 81.758
1306.975, 70.537
1308.174, 51.428
1309.374, 107.397
1310.574, 175.837
1311.773, 69.398
1312.972, 157.350
1314.171, 62.792
1315.370, 41.651
1316.569, 109.636
1317.767, 82.304
1318.965, 105.260
1320.163, 139.977
1321.361, 33.953
1322.559, 107.575
1323.756, 0.754
1324.954, 43.879
1326.151, 114.446
1327.347, 59.041
1328.544, 99.402
1329.741, 94.533
1330.937, 37.529
1332.133, 87.301
1333.329, 90.706
1334.525, 33.878
1335.720, 140.125
1336.916, 56.305
1338.111, 3.192
1339.306, 54.418
1340.500, 33.769
1341.695, 79.231
1342.889, 89.338
1344.084, 59.622
1345.278, 74.393
1346.471, 52.207
1347.665, 52.051
1348.858, 19.793
1350.052, 42.701
1351.245, 30.081
1352.438, 34.594
1353.630, 8.953
1354.823, 63.529
1356.015, 2.951
1357.207, 42.475
1358.399, 3.936
1359.591, 24.698
1360.782, 27.375
1361.973, 45.904
1363.165, 46.144
1364.356, 82.343
1365.546, 106.501
1366.737, 11.408
1367.927, 127.662
1369.117, 71.690
1370.307, 64.673
1371.497, 167.613
1372.687, 108.485
1373.876, 147.340
1375.066, 149.154
1376.255, 51.929
1377.443, 127.662
1378.632, 124.357
1379.821, 86.015
1381.009, 112.635
1382.197, 94.219
1383.385, 81.758
1384.573, 183.268
1385.760, 61.684
1386.947, 126.123
1388.135, 126.509
1389.322, 27.829
1390.508, 105.172
1391.695, 72.489
1392.881, 34.780
1394.068, 113.046
1395.254, 10.296
1396.439, 3.530
1397.625, 78.759
1398.810, 25.184
1399.996, 46.097
1401.181, 3.409
1402.366, 63.335
1403.550, 36.882
1404.735, 14.057
1405.919, 19.181
1407.103, 68.178
1408.287, 47.791
1409.471, 16.810
1410.655, 84.909
1411.838, 12.360
1413.021, 78.459
1414.204, 35.201
1415.387, 80.087
1416.570, 56.193
1417.752, 15.250
1418.934, 47.728
1420.116, 78.471
1421.298, 12.579
1422.480, 56.648
1423.661, 38.318
1424.843, 20.925
1426.024, 63.991
1427.205, 17.626
1428.385, 36.764
1429.566, 77.770
1430.746, 74.401
1431.926, 41.856
1433.106, 80.203
1434.286, 12.329
1435.466, 3.733
1436.645, 125.003
1437.824, 29.748
1439.004, 52.258
1440.182, 133.796
1441.361, 31.179
1442.540, 127.899
1443.718, 68.691
1444.896, 69.054
1446.074, 240.528
1447.252, 95.779
1448.429, 148.707
1449.606, 175.593
1450.784, 98.793
1451.961, 163.539
1453.137, 230.824
1454.314, 103.678
1455.490, 201.338
1456.667, 227.091
1457.843, 126.374
1459.019, 317.494
1460.194, 154.431
1461.370, 200.172
1462.545, 337.333
1463.720, 146.814
1464.895, 236.261
1466.070, 295.804
1467.244, 98.699
1468.419, 260.008
1469.593, 212.279
1470.767, 196.973
1471.941, 259.857
1473.114, 144.258
1474.288, 166.615
1475.461, 224.408
1476.634, 128.295
1477.807, 150.980
1478.980, 314.609
1480.152, 116.651
1481.325, 93.936
1482.497, 191.788
1483.669, 91.140
1484.840, 147.587
1486.012, 118.645
1487.183, 122.442
1488.355, 256.081
1489.526, 47.505
1490.696, 216.693
1491.867, 288.641
1493.038, 160.314
1494.208, 145.752
1495.378, 217.008
1496.548, 55.272
1497.718, 226.449
1498.887, 90.593
1500.056, 98.893
1501.226, 278.301
1502.395, 106.973
1503.563, 158.695
1504.732, 194.630
1505.900, 117.738
1507.069, 262.948
1508.237, 299.109
1509.405, 135.271
1510.572, 196.512
1511.740, 197.909
1512.907, 161.522
1514.074, 263.393
1515.241, 173.529
1516.408, 161.948
1517.574, 241.688
1518.741, 112.890
1519.907, 109.706
1521.073, 209.316
1522.239, 73.040
1523.405, 118.466
1524.570, 124.798
