##NAMES=Cassiterite
##RRUFFID=R040017
##IDEAL CHEMISTRY=SnO_2_
##LOCALITY=Bolivia
##OWNER=RRUFF
##SOURCE=University of Arizona Mineral Museum
##DESCRIPTION=Dark brown short prismatic single crystals
##STATUS=The identification of this mineral has been confirmed by X-ray diffraction and chemical analysis
##URL=rruff.info/R040017
##MEASURED CHEMISTRY=Sn_1.00_O_2_; trace amounts of Fe
##PIN_ID=L00125
##ORIENTATION=Laser parallel to -a* (-1 0 0). Fiducial mark perpendicular to laser is parallel to c [0 0 1]
91.420, 0.000
92.822, 21.409
94.224, 50.736
95.626, 219.919
97.027, 242.565
98.428, 408.446
99.829, 723.083
101.230, 655.891
102.630, 839.796
104.030, 870.032
105.430, 1091.021
106.830, 1462.312
108.229, 1427.554
109.628, 1646.486
111.027, 2326.908
112.426, 2187.899
113.824, 2463.488
115.222, 2337.489
116.620, 2580.347
118.018, 2687.009
119.416, 2678.378
120.813, 2710.153
122.210, 2522.943
123.607, 2500.048
125.003, 2230.655
126.399, 1940.763
127.795, 1723.378
129.191, 1851.483
130.587, 1669.020
131.982, 1805.928
133.377, 1693.157
134.772, 1682.665
136.167, 1717.412
137.561, 1662.485
138.955, 1728.773
140.349, 1686.316
141.743, 1824.926
143.136, 1719.640
144.529, 1737.444
145.922, 1744.326
147.315, 1597.280
148.707, 1839.308
150.099, 1606.466
151.491, 1834.792
152.883, 1773.286
154.274, 2025.981
155.666, 2468.826
157.057, 1922.854
158.448, 1969.192
159.838, 1750.929
161.228, 2045.046
162.618, 1953.595
164.008, 1992.515
165.398, 2157.583
166.787, 1885.659
168.176, 2238.588
169.565, 2092.407
170.954, 2208.128
172.342, 2066.736
173.730, 2166.243
175.118, 2282.651
176.506, 2051.965
177.893, 2410.192
179.280, 2136.331
180.667, 2464.387
182.054, 2379.619
183.441, 2325.557
184.827, 2607.291
186.213, 2509.957
187.599, 2746.555
188.984, 2569.088
190.369, 2814.557
191.755, 2821.961
193.139, 2792.302
194.524, 3120.581
195.908, 2877.797
197.292, 3245.952
198.676, 3114.045
200.060, 3400.077
201.443, 3424.047
202.826, 3260.494
204.209, 3681.404
205.592, 3365.663
206.975, 3895.782
208.357, 3674.443
209.739, 3836.998
211.121, 3897.416
212.502, 3673.213
213.883, 4170.921
215.264, 4003.146
216.645, 4550.283
218.026, 4303.763
219.406, 4471.225
220.786, 4672.134
222.166, 4312.855
223.546, 4796.598
224.925, 4187.751
226.304, 4670.891
227.683, 4421.544
229.062, 4421.274
230.440, 4784.012
231.818, 4262.076
233.196, 4669.680
234.574, 4619.504
235.952, 4561.054
237.329, 4383.982
238.706, 4135.806
240.083, 4538.624
241.459, 3911.847
242.836, 4181.915
244.212, 3754.448
245.587, 3634.240
246.963, 3428.858
248.338, 3082.725
249.714, 3182.932
251.089, 2650.125
252.463, 2733.739
253.838, 2326.170
255.212, 2145.650
256.586, 2049.874
257.960, 1650.290
259.333, 1678.747
260.706, 1200.975
262.079, 1323.596
263.452, 1028.333
264.825, 1046.162
266.197, 639.462
267.569, 354.769
268.941, 259.075
270.313, 27.381
271.684, 21.680
273.055, 52.029
274.426, 99.757
275.797, 208.489
277.167, 562.717
278.538, 1388.927
279.908, 2016.114
281.277, 2540.277
282.647, 2911.414
284.016, 2637.523
285.385, 2908.604
286.754, 2306.654
288.123, 2183.670
289.491, 1839.653
290.859, 1505.602
292.227, 1474.515
293.595, 1022.392
294.962, 1089.233
296.329, 836.037
297.696, 745.803
299.063, 725.530
300.430, 524.218
301.796, 642.865
303.162, 400.469
304.528, 483.031
305.893, 390.548
307.259, 236.020
308.624, 319.443
309.989, 130.817
311.353, 270.138
312.718, 39.405
314.082, 122.614
315.446, 125.768
316.810, 66.866
318.173, 122.908
319.536, 27.104
320.899, 89.821
322.262, 65.691
323.625, 45.506
324.987, 148.266
326.349, 55.027
327.711, 57.615
329.073, 68.797
330.434, 23.723
331.795, 2.845
333.156, 50.471
334.517, 63.839
335.877, 75.903
337.238, 3.289
338.598, 14.576
339.957, 15.500
341.317, 84.521
342.676, 54.509
344.035, 79.397
345.394, 92.748
346.753, 5.041
348.111, 40.228
349.469, 100.556
350.827, 5.954
352.185, 125.410
353.543, 62.939
354.900, 181.543
356.257, 106.228
357.614, 141.995
358.970, 231.854
360.327, 43.805
361.683, 163.833
363.039, 160.959
364.394, 216.173
365.750, 247.481
367.105, 140.892
368.460, 279.392
369.814, 174.004
371.169, 243.727
372.523, 203.580
373.877, 169.567
375.231, 299.664
376.585, 124.904
377.938, 179.268
379.291, 105.768
380.644, 98.393
381.997, 143.144
383.349, 23.006
384.701, 157.954
386.053, 33.003
387.405, 37.110
388.756, 2.276
390.108, 59.509
391.459, 44.748
392.810, 139.934
394.160, 29.424
395.511, 88.157
396.861, 118.694
398.211, 65.189
399.560, 109.636
400.910, 115.040
402.259, 183.399
403.608, 152.716
404.957, 152.990
406.305, 230.220
407.654, 130.409
409.002, 343.552
410.349, 225.655
411.697, 270.716
413.045, 369.735
414.392, 286.713
415.739, 435.649
417.085, 326.486
418.432, 472.241
419.778, 396.754
421.124, 317.086
422.470, 453.814
423.816, 302.501
425.161, 472.147
426.506, 528.752
427.851, 509.702
429.196, 537.840
430.540, 491.323
431.884, 680.765
433.228, 551.166
434.572, 742.528
435.916, 742.850
437.259, 681.132
438.602, 870.374
439.945, 773.576
441.287, 952.739
442.630, 763.863
443.972, 821.949
445.314, 965.995
446.656, 808.003
447.997, 1037.973
449.338, 964.905
450.679, 1014.798
452.020, 1122.655
453.361, 1036.474
454.701, 1307.255
456.041, 1102.001
457.381, 1268.709
458.721, 1321.977
460.060, 1278.585
461.400, 1501.160
462.739, 1323.415
464.077, 1658.884
465.416, 1597.741
466.754, 1645.965
468.092, 1947.032
469.430, 1770.961
470.768, 2030.322
472.105, 2065.248
473.443, 2429.103
474.780, 2595.601
476.116, 2592.093
477.453, 2843.020
478.789, 2432.787
480.125, 2523.466
481.461, 2584.541
482.797, 2448.409
484.132, 2689.822
485.467, 2444.874
486.802, 2814.484
488.137, 2869.862
489.471, 2801.391
490.806, 3141.791
492.140, 2876.431
493.474, 3209.975
494.807, 3068.072
496.141, 3241.327
497.474, 3469.766
498.807, 3320.621
500.139, 3665.680
501.472, 3406.463
502.804, 3503.379
504.136, 3448.184
505.468, 3013.348
506.800, 3357.692
508.131, 2988.095
509.462, 3104.188
510.793, 2961.535
512.124, 2839.346
513.454, 2986.915
514.784, 2590.919
516.114, 2800.289
517.444, 2565.577
518.774, 2370.650
520.103, 2556.681
521.432, 2198.768
522.761, 2303.583
524.090, 2068.103
525.418, 2070.796
526.747, 2222.440
528.075, 1998.414
529.402, 2140.174
530.730, 1866.750
532.057, 1962.850
533.384, 2144.753
534.711, 1963.607
536.038, 2406.512
537.364, 2228.823
538.691, 2508.072
540.017, 2653.130
541.343, 2508.323
542.668, 2917.199
543.993, 2544.342
545.319, 2786.503
546.643, 2576.979
547.968, 2311.307
549.293, 2521.633
550.617, 2191.216
551.941, 2389.429
553.265, 2315.005
554.588, 2265.576
555.911, 2325.144
557.235, 2030.708
558.557, 2257.269
559.880, 2075.826
561.203, 2018.382
562.525, 2085.937
563.847, 1790.495
565.169, 1983.064
566.490, 1829.632
567.812, 1795.197
569.133, 1903.762
570.454, 1608.325
571.774, 1801.887
573.095, 1543.448
574.415, 1660.008
575.735, 1747.568
577.055, 1484.128
578.374, 1748.688
579.694, 1465.248
581.013, 1659.809
582.332, 1556.370
583.650, 1443.932
584.969, 1796.495
586.287, 1494.059
587.605, 1671.625
588.923, 1666.192
590.241, 1596.761
591.558, 1779.333
592.875, 1572.906
594.192, 1868.482
595.509, 1843.062
596.825, 1804.643
598.142, 2132.227
599.458, 1938.815
600.773, 2273.406
602.089, 2209.003
603.404, 2299.604
604.720, 2632.209
606.034, 2476.819
607.349, 3009.436
608.664, 3037.064
609.978, 3136.700
611.292, 3602.342
612.606, 3591.991
613.920, 4302.646
615.233, 4332.318
616.546, 4970.998
617.859, 5727.698
619.172, 6136.408
620.484, 7635.130
621.797, 8153.871
623.109, 9722.625
624.421, 11981.396
625.732, 13501.635
627.044, 18223.268
628.355, 21233.271
629.666, 28475.150
630.977, 36994.031
632.287, 43693.398
633.598, 57484.121
634.908, 57743.008
636.218, 58821.984
637.527, 53530.918
638.837, 40760.355
640.146, 34660.098
641.455, 25539.246
642.764, 20360.646
644.073, 16840.137
645.381, 12802.313
646.689, 11536.003
647.997, 8976.396
649.305, 8100.416
650.612, 7310.966
651.920, 5953.079
653.227, 5795.499
654.533, 4731.149
655.840, 4548.902
657.146, 4134.772
658.453, 3587.114
659.759, 3653.763
661.064, 3146.086
662.370, 3161.959
663.675, 3021.479
664.980, 2610.257
666.285, 2754.123
667.590, 2333.796
668.894, 2511.794
670.199, 2452.360
671.503, 2174.105
672.806, 2383.421
674.110, 2102.194
675.413, 2192.993
676.717, 2127.517
678.020, 2015.330
679.322, 2239.223
680.625, 1878.058
681.927, 2058.900
683.229, 2011.053
684.531, 1869.908
685.833, 2242.771
687.134, 1897.640
688.435, 2196.513
689.736, 2203.392
691.037, 2054.276
692.337, 2472.164
693.638, 2187.058
694.938, 2487.955
696.238, 2526.857
697.538, 2453.762
698.837, 2576.671
700.136, 2122.584
701.435, 2065.501
702.734, 1817.421
704.033, 1399.345
705.331, 1392.273
706.629, 1046.204
707.927, 1073.139
709.225, 1071.077
710.523, 921.018
711.820, 1096.963
713.117, 820.911
714.414, 948.862
715.710, 1024.816
717.007, 949.774
718.303, 1184.735
719.599, 946.699
720.895, 984.666
722.191, 1043.636
723.486, 841.609
724.781, 1066.585
726.076, 797.564
727.371, 774.545
728.665, 816.530
729.960, 642.517
731.254, 840.506
732.548, 640.499
733.841, 673.494
735.135, 742.491
736.428, 485.491
737.721, 707.493
739.014, 522.497
740.306, 523.504
741.599, 582.513
742.891, 425.523
744.183, 612.536
745.474, 450.551
746.766, 424.568
748.057, 510.586
749.348, 515.606
750.639, 465.841
751.930, 430.824
753.220, 275.677
754.511, 347.703
755.801, 111.730
757.090, 253.760
758.380, 178.789
759.669, 122.820
760.958, 163.851
762.247, 14.883
763.536, 33.916
764.825, 62.052
766.113, 121.035
767.401, 50.046
768.689, 130.070
769.977, 8.875
771.264, 20.182
772.551, 77.245
773.838, 60.672
775.125, 6.589
776.412, 64.503
777.698, 17.584
778.984, 29.678
780.270, 1.218
781.556, 97.891
782.842, 14.024
784.127, 128.166
785.412, 191.340
786.697, 48.560
787.982, 202.795
789.266, 52.081
790.550, 117.382
791.834, 128.715
793.118, 51.082
794.402, 96.466
795.685, 99.878
796.968, 75.317
798.251, 129.780
799.534, 28.278
800.817, 92.790
802.099, 76.329
803.381, 85.892
804.663, 131.482
805.945, 36.108
807.226, 91.750
808.508, 29.420
809.789, 28.895
811.070, 102.795
812.350, 89.484
813.631, 25.757
814.911, 23.975
816.191, 106.279
817.471, 12.527
818.750, 88.769
820.030, 130.004
821.309, 4.765
822.588, 115.455
823.867, 55.669
825.145, 102.877
826.423, 67.080
827.702, 38.277
828.980, 152.468
830.257, 58.653
831.535, 111.832
832.812, 142.005
834.089, 94.172
835.366, 179.333
836.643, 120.489
837.919, 148.638
839.195, 301.781
840.471, 72.918
841.747, 233.049
843.023, 254.173
844.298, 249.292
845.573, 422.405
846.848, 343.512
848.123, 520.611
849.397, 534.706
850.672, 482.794
851.946, 630.876
853.220, 452.951
854.493, 622.021
855.767, 631.083
857.040, 487.141
858.313, 681.191
859.586, 494.235
860.859, 629.273
862.131, 733.305
863.404, 584.330
864.676, 761.349
865.947, 636.362
867.219, 671.369
868.490, 642.369
869.762, 451.362
871.033, 622.350
872.303, 422.331
873.574, 526.306
874.844, 522.274
876.114, 397.236
877.384, 491.191
878.654, 450.141
879.924, 418.084
881.193, 471.020
882.462, 265.950
883.731, 368.874
884.999, 268.792
886.268, 249.703
887.536, 370.607
888.804, 233.505
890.072, 306.397
891.340, 270.283
892.607, 214.162
893.874, 285.035
895.141, 225.902
896.408, 233.762
897.675, 226.616
898.941, 185.464
900.207, 275.302
901.473, 185.137
902.739, 234.520
904.005, 260.517
905.270, 118.156
906.535, 251.921
907.800, 232.692
909.065, 178.991
910.329, 298.950
911.594, 201.754
912.858, 301.479
914.122, 237.272
915.385, 148.577
916.649, 313.590
917.912, 162.217
919.175, 218.624
920.438, 291.967
921.701, 85.649
922.963, 333.857
924.225, 270.376
925.487, 256.301
926.749, 386.723
928.011, 261.618
929.272, 281.244
930.533, 249.670
931.794, 221.034
933.055, 335.316
934.316, 168.165
935.576, 333.747
936.836, 306.687
938.096, 132.122
939.356, 324.939
940.616, 209.530
941.875, 267.060
943.134, 368.812
944.393, 178.270
945.652, 388.177
946.910, 324.937
948.168, 317.137
949.427, 412.897
950.684, 262.646
951.942, 412.680
953.200, 465.443
954.457, 337.134
955.714, 514.900
956.971, 379.668
958.228, 478.132
959.484, 546.902
960.740, 428.674
961.996, 584.446
963.252, 470.222
964.508, 551.999
965.763, 662.776
967.018, 511.555
968.273, 628.336
969.528, 663.118
970.783, 530.901
972.037, 739.686
973.291, 612.474
974.545, 718.264
975.799, 743.056
977.053, 554.849
978.306, 785.644
979.559, 573.440
980.812, 601.239
982.065, 699.039
983.318, 450.841
984.570, 564.646
985.822, 414.452
987.074, 426.260
988.326, 582.070
989.577, 374.882
990.829, 432.696
992.080, 484.512
993.331, 299.331
994.581, 478.151
995.832, 383.973
997.082, 341.797
998.332, 473.624
999.582, 341.452
1000.832, 502.283
1002.081, 491.116
1003.331, 426.952
1004.580, 541.789
1005.829, 382.629
1007.077, 456.472
1008.326, 464.740
1009.574, 463.163
1010.822, 512.013
1012.070, 432.865
1013.318, 444.721
1014.565, 580.579
1015.812, 331.439
1017.059, 504.302
1018.306, 429.168
1019.553, 384.037
1020.799, 563.908
1022.045, 466.781
1023.291, 473.659
1024.537, 472.540
1025.783, 402.423
1027.028, 503.310
1028.273, 429.200
1029.518, 425.094
1030.763, 556.991
1032.008, 365.891
1033.252, 540.864
1034.496, 498.771
1035.740, 431.682
1036.984, 558.367
1038.228, 445.292
1039.471, 515.653
1040.714, 553.684
1041.957, 414.717
1043.200, 515.889
1044.443, 479.875
1045.685, 399.151
1046.927, 459.297
1048.169, 338.308
1049.411, 395.423
1050.653, 468.523
1051.894, 320.554
1053.135, 422.958
1054.376, 252.013
1055.617, 318.165
1056.857, 237.229
1058.098, 209.337
1059.338, 276.456
1060.578, 247.720
1061.818, 215.877
1063.057, 265.455
1064.296, 168.665
1065.536, 227.887
1066.775, 271.741
1068.013, 102.989
1069.252, 275.462
1070.490, 160.990
1071.728, 219.351
1072.966, 243.034
1074.204, 97.387
1075.442, 219.947
1076.679, 214.975
1077.916, 107.429
1079.153, 259.211
1080.390, 139.823
1081.626, 239.257
1082.862, 219.957
1084.099, 47.451
1085.334, 155.923
1086.570, 143.746
1087.806, 95.241
1089.041, 249.918
1090.276, 66.435
1091.511, 179.955
1092.746, 136.726
1093.980, 93.264
1095.215, 238.803
1096.449, 164.659
1097.683, 154.213
1098.916, 268.768
1100.150, 94.326
1101.383, 237.885
1102.616, 263.446
1103.849, 189.010
1105.082, 263.575
1106.314, 182.542
1107.547, 199.110
1108.779, 278.678
1110.011, 167.295
1111.243, 322.864
1112.474, 221.431
1113.705, 191.998
1114.936, 313.566
1116.167, 167.248
1117.398, 265.813
1118.629, 283.377
1119.859, 216.939
1121.089, 275.501
1122.319, 213.061
1123.549, 184.618
1124.778, 290.174
1126.008, 177.782
1127.237, 183.337
1128.466, 240.889
1129.694, 223.438
1130.923, 356.986
1132.151, 206.532
1133.379, 180.075
1134.607, 290.615
1135.835, 160.199
1137.062, 241.735
1138.290, 264.287
1139.517, 134.821
1140.744, 227.359
1141.971, 160.981
1143.197, 137.514
1144.423, 158.979
1145.650, 116.746
1146.875, 131.279
1148.101, 124.813
1149.327, 70.343
1150.552, 173.870
1151.777, 141.398
1153.002, 53.967
1154.227, 182.499
1155.451, 27.282
1156.676, 138.812
1157.900, 110.364
1159.124, 66.060
1160.348, 119.584
1161.571, 39.386
1162.795, 75.905
1164.018, 80.427
1165.241, 13.066
1166.463, 39.679
1167.686, 113.192
1168.908, 78.950
1170.131, 65.543
1171.353, 18.964
1172.574, 16.711
1173.796, 21.486
1175.017, 1.655
1176.239, 81.104
1177.460, 8.043
1178.680, 7.938
1179.901, 103.559
1181.121, 18.279
1182.341, 24.026
1183.561, 75.610
1184.781, 12.520
1186.001, 68.285
1187.220, 25.038
1188.440, 39.093
1189.659, 65.454
1190.877, 52.024
1192.096, 22.763
1193.314, 80.339
1194.533, 11.698
1195.751, 48.267
1196.969, 48.988
1198.186, 20.305
1199.404, 62.193
1200.621, 44.808
1201.838, 4.341
1203.055, 42.896
1204.271, 6.830
1205.488, 56.221
1206.704, 15.705
1207.920, 60.951
1209.136, 49.643
1210.352, 3.895
1211.567, 30.069
1212.783, 99.669
1213.998, 19.189
1215.213, 68.748
1216.427, 97.247
1217.642, 3.480
1218.856, 125.826
1220.070, 41.345
1221.284, 102.723
1222.498, 107.231
1223.711, 31.804
1224.925, 183.099
1226.138, 113.179
1227.351, 22.025
1228.563, 181.943
1229.776, 112.823
1230.988, 125.279
1232.200, 145.424
1233.412, 116.510
1234.624, 194.939
1235.836, 165.890
1237.047, 12.997
1238.258, 214.091
1239.469, 119.782
1240.680, 88.554
1241.891, 224.645
1243.101, 135.138
1244.311, 170.995
1245.521, 171.843
1246.731, 78.299
1247.941, 247.020
1249.150, 107.390
1250.359, 186.917
1251.568, 160.588
1252.777, 163.957
1253.986, 201.225
1255.194, 198.860
1256.403, 97.178
1257.611, 178.084
1258.819, 127.331
1260.026, 153.580
1261.234, 164.381
1262.441, 140.470
1263.648, 232.641
1264.855, 161.993
1266.062, 104.288
1267.268, 269.872
1268.475, 112.666
1269.681, 159.905
1270.887, 240.577
1272.092, 99.792
1273.298, 186.238
1274.503, 262.506
1275.708, 88.520
1276.913, 201.963
1278.118, 178.768
1279.323, 166.703
1280.527, 188.068
1281.731, 141.170
1282.935, 117.233
1284.139, 170.509
1285.343, 76.779
1286.546, 215.991
1287.749, 128.466
1288.952, 97.247
1290.155, 209.350
1291.358, 75.109
1292.560, 141.892
1293.762, 189.557
1294.965, 113.354
1296.166, 118.000
1297.368, 169.407
1298.570, 65.120
1299.771, 155.735
1300.972, 164.503
1302.173, 100.518
1303.374, 78.019
1304.574, 60.549
1305.774, 80.598
1306.975, 59.123
1308.174, 38.266
1309.374, 105.206
1310.574, 82.508
1311.773, 76.219
1312.972, 109.058
1314.171, 47.560
1315.370, 58.015
1316.569, 66.801
1317.767, 44.465
1318.965, 104.199
1320.163, 96.880
1321.361, 58.532
1322.559, 91.034
1323.756, 27.660
1324.954, 25.812
1326.151, 51.322
1327.347, 15.202
1328.544, 92.627
1329.741, 19.043
1330.937, 7.217
1332.133, 68.320
1333.329, 0.433
1334.525, 34.531
1335.720, 73.674
1336.916, 5.361
1338.111, 17.905
1339.306, 55.905
1340.500, 78.263
1341.695, 38.503
1342.889, 17.611
1344.084, 63.035
1345.278, 43.694
1346.471, 7.608
1347.665, 56.319
1348.858, 35.243
1350.052, 102.429
1351.245, 31.980
1352.438, 23.341
1353.630, 58.606
1354.823, 90.633
1356.015, 1.825
1357.207, 45.353
1358.399, 118.721
1359.591, 21.754
1360.782, 51.741
1361.973, 59.684
1363.165, 18.581
1364.356, 78.430
1365.546, 45.232
1366.737, 43.584
1367.927, 117.288
1369.117, 94.943
1370.307, 35.500
1371.497, 214.056
1372.687, 59.563
1373.876, 56.022
1375.066, 134.433
1376.255, 71.683
1377.443, 155.005
1378.632, 101.284
1379.821, 64.521
1381.009, 123.714
1382.197, 145.866
1383.385, 53.977
1384.573, 116.045
1385.760, 18.019
1386.947, 119.006
1388.135, 111.957
1389.322, 18.872
1390.508, 133.751
1391.695, 109.599
1392.881, 64.418
1394.068, 70.212
1395.254, 23.938
1396.439, 6.695
1397.625, 62.430
1398.810, 34.807
1399.996, 54.996
1401.181, 24.068
1402.366, 62.991
1403.550, 88.063
1404.735, 20.072
1405.919, 2.020
1407.103, 93.601
1408.287, 22.403
1409.471, 17.006
1410.655, 54.406
1411.838, 69.078
1413.021, 26.595
1414.204, 28.552
1415.387, 37.186
1416.570, 92.455
1417.752, 33.026
1418.934, 9.496
1420.116, 76.041
1421.298, 50.511
1422.480, 14.298
1423.661, 73.970
1424.843, 0.250
1426.024, 63.125
1427.205, 44.320
1428.385, 19.575
1429.566, 101.074
1430.746, 61.966
1431.926, 17.251
1433.106, 113.780
1434.286, 39.174
1435.466, 48.836
1436.645, 108.972
1437.824, 47.112
1439.004, 3.491
1440.182, 164.719
1441.361, 5.803
1442.540, 149.033
1443.718, 164.666
1444.896, 169.261
1446.074, 192.416
1447.252, 155.630
1448.429, 140.811
1449.606, 208.593
1450.784, 86.960
1451.961, 170.992
1453.137, 312.291
1454.314, 110.136
1455.490, 243.995
1456.667, 214.048
1457.843, 171.180
1459.019, 299.347
1460.194, 205.949
1461.370, 265.606
1462.545, 314.667
1463.720, 151.692
1464.895, 223.619
1466.070, 305.760
1467.244, 182.962
1468.419, 330.204
1469.593, 232.044
1470.767, 147.240
1471.941, 274.422
1473.114, 185.982
1474.288, 185.581
1475.461, 303.843
1476.634, 126.515
1477.807, 180.334
1478.980, 209.618
1480.152, 124.133
1481.325, 186.432
1482.497, 276.719
1483.669, 65.416
1484.840, 135.652
1486.012, 97.654
1487.183, 73.521
1488.355, 223.205
1489.526, 162.562
1490.696, 206.818
1491.867, 197.844
1493.038, 136.620
1494.208, 178.144
1495.378, 268.507
1496.548, 66.864
1497.718, 280.097
1498.887, 154.462
1500.056, 135.933
1501.226, 256.597
1502.395, 152.522
1503.563, 113.685
1504.732, 325.970
1505.900, 95.388
1507.069, 194.800
1508.237, 286.188
1509.405, 132.604
1510.572, 267.124
1511.740, 272.829
1512.907, 148.786
1514.074, 302.028
1515.241, 199.550
1516.408, 103.358
1517.574, 273.528
1518.741, 118.211
