##NAMES=Cassiterite
##RRUFFID=R040072
##IDEAL CHEMISTRY=SnO_2_
##LOCALITY=Bolivia
##OWNER=RRUFF
##SOURCE=University of Arizona Mineral Museum
##DESCRIPTION=Black fragment
##STATUS=The identification of this mineral has been confirmed by X-ray diffraction and chemical analysis
##URL=rruff.info/R040072
##MEASURED CHEMISTRY=Sn_0.99_O_2_
##PIN_ID=L00343
##ORIENTATION=Laser parallel to c* (0 0 1). Fiducial mark perpendicular to laser is parallel to a [1 0 0]
180.140, 0.000
181.524, 11.332
182.907, 0.246
184.289, 16.288
185.672, 38.859
187.054, 6.476
188.436, 28.639
189.818, 12.095
191.200, 10.206
192.581, 55.320
193.963, 16.280
195.343, 58.303
196.724, 18.654
198.105, 21.049
199.485, 3.451
200.865, 52.827
202.245, 13.157
203.624, 40.440
205.004, 79.701
206.383, 57.032
207.762, 58.515
209.140, 13.877
210.519, 11.795
211.897, 90.397
213.275, 101.019
214.653, 172.753
216.030, 232.377
217.408, 259.864
218.785, 304.226
220.162, 277.474
221.538, 332.619
222.915, 268.673
224.291, 242.691
225.667, 209.660
227.042, 187.626
228.418, 250.735
229.793, 216.049
231.168, 236.010
232.543, 206.616
233.917, 196.062
235.292, 144.082
236.666, 200.610
238.040, 230.810
239.413, 184.874
240.787, 245.847
242.160, 238.293
243.533, 265.012
244.906, 253.366
246.278, 257.459
247.651, 276.210
249.023, 241.813
250.395, 293.775
251.766, 318.691
253.138, 305.563
254.509, 315.406
255.880, 247.248
257.250, 307.088
258.621, 236.923
259.991, 317.753
261.361, 445.575
262.731, 377.390
264.101, 290.238
265.470, 282.055
266.839, 373.942
268.208, 360.469
269.577, 302.539
270.945, 217.934
272.313, 187.937
273.681, 88.352
275.049, 37.975
276.417, 43.436
277.784, 38.884
279.151, 38.881
280.518, 26.836
281.885, 29.296
283.251, 49.289
284.617, 1.626
285.983, 38.322
287.349, 14.130
288.715, 45.908
290.080, 6.397
291.445, 3.099
292.810, 31.160
294.174, 16.239
295.539, 0.648
296.903, 12.976
298.267, 6.675
299.631, 73.418
300.994, 13.627
302.357, 98.249
303.720, 78.041
305.083, 33.549
306.446, 4.158
307.808, 0.040
309.170, 50.067
310.532, 36.839
311.894, 30.930
313.256, 15.071
314.617, 48.874
315.978, 18.179
317.339, 13.774
318.699, 73.264
320.060, 36.289
321.420, 55.304
322.780, 92.308
324.139, 91.310
325.499, 107.312
326.858, 25.316
328.217, 36.427
329.576, 25.440
330.934, 67.354
332.293, 85.308
333.651, 38.232
335.009, 108.110
336.367, 31.990
337.724, 91.825
339.081, 55.628
340.438, 127.448
341.795, 96.247
343.152, 73.013
344.508, 87.750
345.864, 63.487
347.220, 9.071
348.576, 52.798
349.931, 9.461
351.286, 37.169
352.641, 24.133
353.996, 49.553
355.351, 16.772
356.705, 22.321
358.059, 5.114
359.413, 16.474
360.767, 41.153
362.120, 25.230
363.473, 6.628
364.826, 24.963
366.179, 48.454
367.532, 25.885
368.884, 115.327
370.236, 17.790
371.588, 67.261
372.940, 81.747
374.291, 37.248
375.643, 52.760
376.994, 29.287
378.344, 49.829
379.695, 35.390
381.045, 17.972
382.395, 53.568
383.745, 24.816
385.095, 24.821
386.444, 1.527
387.794, 44.870
389.143, 15.791
390.491, 76.536
391.840, 11.144
393.188, 54.159
394.537, 29.557
395.884, 2.284
397.232, 12.012
398.580, 42.742
399.927, 37.525
401.274, 13.208
402.621, 35.058
403.967, 1.325
405.314, 20.407
406.660, 30.859
408.006, 33.873
409.352, 55.393
410.697, 7.659
412.042, 29.927
413.387, 96.190
414.732, 28.452
416.077, 30.713
417.421, 9.027
418.765, 5.227
420.109, 3.476
421.453, 53.301
422.797, 31.090
424.140, 67.913
425.483, 25.756
426.826, 18.723
428.168, 63.681
429.511, 27.478
430.853, 14.880
432.195, 37.264
433.537, 48.567
434.878, 46.738
436.220, 87.491
437.561, 23.065
438.902, 75.189
440.242, 50.512
441.583, 8.183
442.923, 19.120
444.263, 9.033
445.603, 46.171
446.942, 8.172
448.282, 18.383
449.621, 38.593
450.960, 85.803
452.298, 102.465
453.637, 54.244
454.975, 113.478
456.313, 100.447
457.651, 111.694
458.989, 132.818
460.326, 122.563
461.663, 244.776
463.000, 276.386
464.337, 325.678
465.673, 344.980
467.010, 361.293
468.346, 466.615
469.682, 442.947
471.017, 484.290
472.353, 428.643
473.688, 448.000
475.023, 520.364
476.358, 404.733
477.692, 549.109
479.026, 520.491
480.361, 563.879
481.694, 632.275
483.028, 630.677
484.362, 802.088
485.695, 813.505
487.028, 898.931
488.361, 984.365
489.693, 899.807
491.026, 1049.257
492.358, 947.692
493.690, 1150.161
495.021, 1307.626
496.353, 1306.115
497.684, 1459.961
499.015, 1257.468
500.346, 1291.524
501.677, 1229.055
503.007, 1089.388
504.337, 1113.519
505.667, 980.081
506.997, 1031.050
508.327, 965.419
509.656, 892.015
510.985, 924.510
512.314, 771.552
513.643, 813.537
514.971, 642.784
516.300, 609.934
517.628, 599.771
518.956, 474.667
520.283, 484.227
521.611, 345.354
522.938, 320.033
524.265, 309.074
525.591, 243.472
526.918, 287.143
528.244, 244.925
529.570, 317.259
530.896, 421.058
532.222, 426.885
533.547, 596.452
534.873, 538.311
536.198, 729.007
537.523, 802.896
538.847, 890.299
540.171, 957.949
541.496, 953.937
542.820, 977.164
544.143, 887.136
545.467, 787.940
546.790, 805.946
548.113, 652.963
549.436, 779.727
550.759, 656.784
552.081, 680.347
553.404, 725.440
554.726, 585.551
556.047, 637.680
557.369, 494.826
558.690, 508.990
560.011, 514.173
561.332, 432.281
562.653, 496.500
563.974, 355.738
565.294, 427.197
566.614, 380.089
567.934, 343.330
569.254, 391.343
570.573, 255.477
571.892, 316.882
573.211, 340.257
574.530, 252.516
575.849, 305.934
577.167, 243.375
578.485, 330.837
579.803, 277.321
581.121, 264.829
582.438, 328.357
583.756, 248.291
585.073, 397.867
586.390, 286.466
587.706, 375.013
589.023, 425.655
590.339, 400.318
591.655, 517.003
592.971, 489.709
594.287, 583.436
595.602, 757.187
596.917, 703.961
598.232, 907.757
599.547, 895.580
600.861, 1075.425
602.176, 1249.292
603.490, 1309.188
604.804, 1570.106
606.118, 1555.050
607.431, 1840.014
608.744, 2022.001
610.057, 2231.010
611.370, 2719.039
612.683, 2778.092
613.995, 3337.166
615.307, 3845.261
616.619, 4233.379
617.931, 5360.521
619.243, 5777.692
620.554, 7121.893
621.865, 8584.125
623.176, 10313.384
624.487, 13582.667
625.797, 16251.974
627.108, 22291.301
628.418, 28360.664
629.728, 35260.051
631.037, 45409.473
632.347, 46398.922
633.656, 48618.406
634.965, 43137.914
636.274, 34147.465
637.582, 28267.039
638.891, 20666.652
640.199, 16726.297
641.507, 13055.974
642.815, 10165.682
644.122, 8865.425
645.430, 6914.194
646.737, 6166.997
648.044, 5240.825
649.350, 4388.683
650.657, 4078.574
651.963, 3409.493
653.269, 3219.444
654.575, 2746.424
655.881, 2467.443
657.186, 2436.489
658.491, 2027.569
659.796, 2107.684
661.101, 1886.828
662.406, 1682.001
663.710, 1719.201
665.014, 1463.429
666.318, 1541.683
667.622, 1459.962
668.926, 1371.270
670.229, 1377.601
671.532, 1248.957
672.835, 1345.335
674.138, 1271.735
675.440, 1201.159
676.743, 1282.605
678.045, 1137.075
679.347, 1272.566
680.648, 1184.082
681.950, 1195.621
683.251, 1312.181
684.552, 1208.768
685.853, 1354.376
687.153, 1313.007
688.454, 1285.660
689.754, 1520.334
691.054, 1400.032
692.354, 1611.751
693.653, 1674.495
694.953, 1556.259
696.252, 1638.044
697.551, 1309.851
698.849, 1315.678
700.148, 1052.527
701.446, 804.396
702.744, 743.288
704.042, 506.199
705.340, 555.132
706.637, 451.089
707.935, 369.068
709.232, 431.074
710.529, 314.101
711.825, 437.150
713.122, 385.223
714.418, 384.317
715.714, 510.432
717.010, 393.566
718.305, 486.720
719.601, 489.893
720.896, 380.086
722.191, 431.299
723.486, 282.530
724.780, 392.784
726.075, 328.057
727.369, 244.349
728.663, 338.660
729.956, 223.990
731.250, 280.338
732.543, 258.705
733.836, 209.089
735.129, 257.493
736.422, 214.914
737.714, 239.353
739.007, 240.810
740.299, 203.285
741.591, 294.777
742.882, 230.286
744.174, 265.813
745.465, 223.357
746.756, 270.918
748.047, 237.495
749.337, 189.090
750.628, 307.701
751.918, 301.328
753.208, 286.972
754.498, 410.632
755.787, 354.337
757.077, 509.120
758.366, 618.454
759.655, 669.768
760.944, 897.107
762.232, 1021.798
763.520, 1405.901
764.809, 1784.794
766.096, 2185.876
767.384, 3150.343
768.672, 3522.185
769.959, 4520.773
771.246, 5274.317
772.533, 5342.096
773.820, 6311.412
775.106, 5787.289
776.392, 5821.609
777.679, 5507.453
778.964, 4441.150
780.250, 4216.619
781.536, 3403.275
782.821, 2950.306
784.106, 2651.851
785.391, 2125.724
786.675, 2119.204
787.960, 1820.076
789.244, 1687.926
790.528, 1634.888
791.812, 1346.783
793.095, 1353.396
794.379, 1137.129
795.662, 1102.802
796.945, 1185.526
798.228, 1012.319
799.510, 1054.743
800.793, 917.235
802.075, 891.375
803.357, 934.561
804.639, 726.690
805.920, 737.902
807.201, 697.219
808.483, 594.485
809.764, 603.644
811.044, 533.810
812.325, 517.982
813.605, 479.161
814.885, 350.346
816.165, 417.538
817.445, 347.734
818.724, 240.937
820.004, 277.145
821.283, 176.359
822.562, 192.578
823.840, 169.801
825.119, 93.030
826.397, 138.264
827.675, 62.502
828.953, 62.745
830.231, 85.991
831.508, 15.240
832.785, 100.494
834.062, 44.750
835.339, 124.010
836.616, 69.272
837.892, 43.538
839.169, 132.805
840.445, 102.076
841.720, 162.348
842.996, 189.623
844.272, 224.900
845.547, 332.179
846.822, 273.459
848.097, 353.740
849.371, 371.023
850.646, 317.307
851.920, 401.592
853.194, 297.878
854.468, 297.164
855.741, 317.451
857.015, 323.738
858.288, 384.025
859.561, 400.312
860.834, 368.599
862.106, 421.885
863.378, 326.171
864.651, 414.456
865.923, 357.740
867.194, 294.024
868.466, 367.305
869.737, 311.586
871.008, 249.865
872.279, 317.143
873.550, 275.419
874.821, 298.692
876.091, 246.964
877.361, 243.234
878.631, 217.501
879.901, 138.765
881.170, 162.027
882.440, 98.285
883.709, 102.541
884.978, 89.794
886.247, 16.043
887.515, 93.289
888.783, 35.531
890.052, 17.769
891.320, 70.004
892.587, 0.235
893.855, 4.538
895.122, 76.316
896.389, 74.114
897.656, 73.933
898.923, 44.771
900.189, 17.624
901.456, 4.484
902.722, 14.063
903.988, 73.222
905.253, 45.114
906.519, 76.020
907.784, 72.949
909.049, 81.899
910.314, 60.874
911.579, 83.869
912.843, 101.888
914.108, 80.336
915.372, 73.008
916.636, 62.103
917.899, 69.218
919.163, 84.355
920.426, 19.518
921.689, 75.666
922.952, 14.865
924.215, 30.778
925.477, 71.858
926.740, 32.771
928.002, 29.036
929.264, 16.002
930.525, 20.294
931.787, 16.788
933.048, 18.162
934.309, 20.282
935.570, 3.631
936.831, 5.864
938.091, 12.997
939.352, 10.743
940.612, 26.518
941.872, 11.440
943.131, 6.101
944.391, 9.798
945.650, 42.706
946.909, 35.393
948.168, 29.006
949.427, 107.623
950.685, 45.297
951.944, 64.961
953.202, 121.487
954.460, 102.087
955.717, 143.779
956.975, 138.295
958.232, 120.950
959.489, 201.427
960.746, 157.905
962.003, 200.743
963.259, 236.190
964.516, 254.627
965.772, 345.054
967.028, 285.471
968.283, 268.878
969.539, 376.273
970.794, 308.659
972.049, 386.034
973.304, 334.399
974.559, 301.753
975.813, 347.096
977.068, 262.428
978.322, 321.750
979.576, 333.060
980.830, 207.360
982.083, 244.648
983.336, 160.925
984.589, 172.190
985.842, 221.445
987.095, 128.688
988.348, 107.920
989.600, 144.140
990.852, 166.349
992.104, 183.546
993.356, 122.732
994.607, 153.906
995.859, 134.067
997.110, 139.218
998.361, 154.356
999.612, 191.482
1000.862, 165.597
1002.112, 184.699
1003.363, 173.789
1004.613, 183.867
1005.862, 174.933
1007.112, 155.987
1008.361, 217.029
1009.610, 157.058
1010.859, 214.075
1012.108, 196.080
1013.357, 198.072
1014.605, 234.052
1015.853, 206.020
1017.101, 207.975
1018.349, 222.917
1019.597, 202.848
1020.844, 224.766
1022.091, 279.671
1023.338, 244.564
1024.585, 271.444
1025.832, 234.340
1027.078, 262.394
1028.324, 283.315
1029.570, 258.202
1030.816, 314.511
1032.062, 264.785
1033.307, 246.146
1034.552, 303.194
1035.797, 254.857
1037.042, 280.933
1038.287, 268.634
1039.531, 254.389
1040.776, 289.348
1042.020, 288.477
1043.264, 296.654
1044.507, 269.499
1045.751, 209.862
1046.994, 225.813
1048.237, 156.263
1049.480, 134.213
1050.723, 138.359
1051.965, 86.766
1053.207, 102.068
1054.449, 76.942
1055.691, 60.231
1056.933, 97.126
1058.174, 12.342
1059.416, 33.297
1060.657, 8.344
1061.898, 86.370
1063.139, 9.269
1064.379, 66.586
1065.619, 1.501
1066.860, 14.629
1068.100, 18.706
1069.339, 64.781
1070.579, 36.479
1071.818, 16.871
1073.057, 56.576
1074.296, 15.193
1075.535, 8.823
1076.774, 51.323
1078.012, 41.704
1079.250, 8.142
1080.488, 40.615
1081.726, 55.200
1082.964, 52.625
1084.201, 39.132
1085.438, 39.656
1086.675, 78.104
1087.912, 50.417
1089.149, 28.721
1090.385, 65.014
1091.621, 33.299
1092.857, 75.611
1094.093, 67.877
1095.329, 6.133
1096.564, 85.401
1097.800, 82.637
1099.035, 107.863
1100.270, 82.110
1101.504, 96.318
1102.739, 83.516
1103.973, 92.273
1105.207, 162.930
1106.441, 129.104
1107.675, 134.261
1108.908, 182.405
1110.142, 161.538
1111.375, 141.661
1112.608, 190.772
1113.841, 193.872
1115.073, 198.042
1116.305, 208.047
1117.538, 199.099
1118.770, 207.153
1120.001, 191.194
1121.233, 205.223
1122.464, 179.240
1123.696, 168.243
1124.927, 173.236
1126.157, 186.217
1127.388, 202.187
1128.618, 234.148
1129.849, 234.947
1131.079, 181.036
1132.309, 227.964
1133.538, 211.880
1134.768, 166.786
1135.997, 225.680
1137.226, 148.567
1138.455, 183.444
1139.684, 136.312
1140.912, 153.169
1142.140, 147.018
1143.369, 121.858
1144.596, 135.692
1145.824, 110.515
1147.052, 119.333
1148.279, 159.146
1149.506, 113.948
1150.733, 112.745
1151.960, 156.530
1153.187, 115.311
1154.413, 101.082
1155.639, 89.861
1156.865, 98.614
1158.091, 79.487
1159.317, 43.117
1160.542, 62.838
1161.767, 54.552
1162.992, 61.256
1164.217, 73.959
1165.442, 50.660
1166.666, 43.355
1167.891, 38.045
1169.115, 7.723
1170.338, 36.469
1171.562, 5.877
1172.786, 34.020
1174.009, 52.839
1175.232, 52.712
1176.455, 74.351
1177.678, 62.979
1178.900, 31.746
1180.123, 44.519
1181.345, 40.360
1182.567, 29.985
1183.789, 23.810
1185.010, 13.578
1186.232, 19.452
1187.453, 34.194
1188.674, 48.854
1189.895, 64.916
1191.115, 36.426
1192.336, 22.080
1193.556, 11.753
1194.776, 44.596
1195.996, 18.250
1197.216, 76.926
1198.435, 42.382
1199.655, 43.464
1200.874, 29.069
1202.093, 0.827
1203.311, 25.775
1204.530, 34.374
1205.748, 43.172
1206.966, 52.477
1208.184, 62.239
1209.402, 65.209
1210.620, 63.970
1211.837, 78.970
1213.054, 53.263
1214.271, 85.887
1215.488, 66.458
1216.705, 61.078
1217.921, 75.705
1219.138, 112.757
1220.354, 109.684
1221.570, 119.154
1222.785, 134.920
1224.001, 97.488
1225.216, 112.231
1226.431, 111.930
1227.646, 102.295
1228.861, 107.307
1230.075, 142.486
1231.290, 102.141
1232.504, 121.740
1233.718, 121.170
1234.932, 99.584
1236.145, 140.844
1237.359, 109.098
1238.572, 159.160
1239.785, 180.159
1240.998, 139.110
1242.211, 144.231
1243.423, 149.340
1244.635, 173.308
1245.848, 191.107
1247.059, 129.000
1248.271, 132.810
1249.483, 187.849
1250.694, 136.626
1251.905, 163.452
1253.116, 161.132
1254.327, 162.625
1255.538, 177.587
1256.748, 156.480
1257.958, 178.208
1259.168, 159.661
1260.378, 127.237
1261.588, 150.389
1262.797, 171.396
1264.006, 126.098
1265.215, 180.875
1266.424, 147.657
1267.633, 145.407
1268.842, 129.287
1270.050, 134.601
1271.258, 190.487
1272.466, 136.578
1273.674, 169.081
1274.881, 139.626
1276.089, 140.521
1277.296, 184.408
1278.503, 140.458
1279.710, 162.261
1280.916, 136.010
1282.123, 182.481
1283.329, 130.787
1284.535, 144.645
1285.741, 127.568
1286.947, 163.418
1288.152, 126.337
1289.358, 137.330
1290.563, 137.811
1291.768, 144.144
1292.973, 148.241
1294.177, 147.372
1295.382, 155.765
1296.586, 141.938
1297.790, 146.604
1298.994, 139.848
1300.197, 121.224
1301.401, 145.302
1302.604, 85.322
1303.807, 100.247
1305.010, 89.074
1306.213, 139.355
1307.415, 156.456
1308.618, 110.628
1309.820, 108.096
1311.022, 92.477
1312.223, 138.126
1313.425, 93.522
1314.626, 103.957
1315.828, 79.118
1317.029, 106.108
1318.230, 115.450
1319.430, 36.511
1320.631, 84.614
1321.831, 83.591
1323.031, 38.441
1324.231, 69.172
1325.431, 40.070
1326.630, 98.803
1327.830, 37.793
1329.029, 2.588
1330.228, 59.348
1331.427, 69.009
1332.625, 19.371
1333.824, 45.928
1335.022, 41.482
1336.220, 38.023
1337.418, 42.753
1338.616, 14.074
1339.813, 29.554
1341.010, 34.963
1342.208, 18.390
1343.404, 46.640
1344.601, 51.100
1345.798, 32.285
1346.994, 29.393
1348.190, 2.509
1349.386, 3.692
1350.582, 33.815
1351.778, 17.871
1352.973, 20.867
1354.169, 17.778
1355.364, 19.258
1356.559, 13.520
1357.753, 23.294
1358.948, 28.043
1360.142, 15.747
1361.336, 19.373
1362.530, 34.978
1363.724, 34.343
1364.918, 54.398
1366.111, 50.485
1367.305, 86.880
1368.498, 95.368
1369.690, 100.668
1370.883, 59.002
1372.076, 56.199
1373.268, 81.347
1374.460, 112.447
1375.652, 86.586
1376.844, 99.364
1378.035, 44.466
1379.227, 95.377
1380.418, 79.241
1381.609, 105.057
1382.800, 155.820
1383.991, 37.534
1385.181, 42.201
1386.371, 71.821
1387.562, 5.606
1388.751, 92.919
1389.941, 6.400
1391.131, 14.836
1392.320, 48.230
1393.509, 33.586
1394.698, 30.182
1395.887, 26.798
1397.076, 15.078
1398.264, 9.089
1399.453, 12.700
1400.641, 0.562
1401.829, 18.881
1403.016, 21.254
1404.204, 8.321
1405.391, 37.177
1406.578, 44.735
1407.765, 11.687
1408.952, 33.104
1410.139, 42.370
1411.325, 58.360
1412.512, 3.770
1413.698, 0.340
1414.884, 2.298
1416.069, 1.632
1417.255, 6.846
1418.440, 9.736
1419.625, 26.541
1420.810, 5.342
1421.995, 27.378
1423.180, 9.770
1424.364, 31.497
1425.548, 6.633
1426.732, 13.248
1427.916, 6.060
1429.100, 23.049
1430.284, 3.702
1431.467, 32.183
1432.650, 18.896
1433.833, 3.935
1435.016, 23.913
1436.199, 10.096
1437.381, 82.290
1438.563, 106.505
1439.745, 40.621
1440.927, 73.651
1442.109, 51.716
1443.290, 85.866
1444.472, 127.378
1445.653, 61.272
1446.834, 130.580
1448.015, 148.229
1449.195, 123.468
1450.376, 151.626
1451.556, 148.387
1452.736, 167.496
1453.916, 212.497
1455.096, 137.976
1456.275, 145.449
1457.454, 197.400
1458.634, 150.399
1459.813, 180.022
1460.991, 179.984
1462.170, 131.052
1463.348, 166.490
1464.527, 155.046
1465.705, 117.980
1466.883, 162.845
1468.060, 111.056
1469.238, 116.957
1470.415, 152.969
1471.592, 74.991
1472.769, 101.838
1473.946, 146.667
1475.123, 131.878
1476.299, 237.055
1477.476, 402.266
1478.652, 422.171
1479.828, 394.145
1481.003, 634.829
1482.179, 522.211
1483.354, 720.738
1484.529, 297.758
1485.704, 442.616
1486.879, 261.086
1488.054, 97.366
1489.228, 81.322
1490.403, 75.013
1491.577, 55.443
1492.751, 75.681
1493.924, 75.850
1495.098, 28.007
1496.271, 84.222
1497.444, 34.870
1498.618, 88.218
1499.790, 134.645
1500.963, 97.272
1502.135, 70.072
1503.308, 161.880
1504.480, 102.651
1505.652, 146.321
1506.824, 127.947
1507.995, 112.251
1509.167, 196.677
1510.338, 159.509
1511.509, 149.239
1512.680, 168.993
1513.850, 118.729
1515.021, 138.470
1516.191, 202.405
1517.361, 57.744
1518.531, 76.361
1519.701, 136.515
1520.871, 2.543
1522.040, 0.000
##END=



