##NAMES=Cassiterite
##RRUFFID=R050502
##IDEAL CHEMISTRY=SnO_2_
##LOCALITY=Redruth, Cornwall, England
##OWNER=RRUFF
##SOURCE=California Institute of Technology
##DESCRIPTION=Black crystals associated with colorless quartz and grey stannite.
##STATUS=The identification of this mineral has been confirmed by X-ray diffraction and chemical analysis
##URL=rruff.info/R050502
##MEASURED CHEMISTRY=SnO_2_
##PIN_ID=M00499
##ORIENTATION=Laser parallel to a* (1 0 0). Fiducial mark perpendicular to laser is parallel to -c [0 0 -1]
185.7910, 0.0000000E+00
187.0220, 35.47559
188.2540, 4.316406
189.4840, 22.85156
190.7150, 1.626953
191.9460, 38.50391
193.1760, 130.4355
194.4060, 246.9297
195.6360, 375.6729
196.8660, 513.0742
198.0960, 655.2432
199.3250, 810.2471
200.5540, 910.8311
201.7830, 1049.514
203.0120, 1346.782
204.2400, 1473.136
205.4690, 1522.064
206.6970, 1636.045
207.9250, 1989.611
209.1530, 2245.626
210.3800, 2586.489
211.6080, 2839.426
212.8350, 3307.540
214.0620, 3783.785
215.2880, 4276.853
216.5150, 4691.257
217.7410, 5169.773
218.9680, 5632.270
220.1940, 6278.523
221.4190, 6846.293
222.6450, 7297.353
223.8700, 7793.393
225.0960, 8403.128
226.3210, 8970.340
227.5450, 9390.908
228.7700, 9912.838
229.9940, 10412.26
231.2190, 10713.47
232.4430, 11069.92
233.6660, 11130.78
234.8900, 11255.90
236.1140, 11459.75
237.3370, 11144.44
238.5600, 11052.03
239.7830, 10733.25
241.0050, 10177.57
242.2280, 9562.845
243.4500, 8818.314
244.6720, 8028.082
245.8940, 7375.030
247.1160, 6612.075
248.3370, 5752.294
249.5580, 4842.781
250.7790, 4448.874
252.0000, 3764.146
253.2210, 3153.528
254.4410, 2756.706
255.6620, 2282.396
256.8820, 1792.854
258.1020, 1582.578
259.3210, 1563.601
260.5410, 1366.675
261.7600, 1037.425
262.9790, 765.6426
264.1980, 723.6738
265.4170, 664.7197
266.6360, 601.3496
267.8540, 424.5464
269.0720, 419.3232
270.2900, 459.6934
271.5080, 566.6655
272.7260, 685.4604
273.9430, 971.7261
275.1600, 1350.814
276.3770, 1875.066
277.5940, 2365.955
278.8100, 2972.987
280.0270, 3561.824
281.2430, 3954.573
282.4590, 4254.091
283.6750, 4305.859
284.8910, 4221.301
286.1060, 4253.561
287.3210, 3812.615
288.5360, 3604.389
289.7510, 3401.850
290.9660, 3251.785
292.1800, 2917.502
293.3950, 2755.067
294.6090, 2568.146
295.8230, 2362.211
297.0360, 2237.773
298.2500, 1936.644
299.4630, 1964.628
300.6760, 1685.050
301.8890, 1625.718
303.1020, 1492.125
304.3150, 1387.188
305.5270, 1370.880
306.7390, 1315.506
307.9510, 1249.150
309.1630, 1012.511
310.3750, 1018.658
311.5860, 934.5815
312.7970, 826.2720
314.0080, 845.7202
315.2190, 710.9204
316.4300, 754.8721
317.6400, 662.5776
318.8510, 624.0415
320.0610, 672.2681
321.2710, 573.2539
322.4800, 640.9951
323.6900, 596.4912
324.8990, 557.7422
326.1080, 493.7476
327.3170, 530.5127
328.5260, 504.1147
329.7340, 478.3389
330.9430, 508.4048
332.1510, 511.6958
333.3590, 506.8496
334.5670, 577.1172
335.7740, 539.6670
336.9820, 557.9741
338.1890, 729.5054
339.3960, 710.1836
340.6030, 762.9561
341.8100, 747.7822
343.0160, 824.6274
344.2220, 870.4648
345.4280, 997.2695
346.6340, 1035.022
347.8400, 1064.702
349.0460, 1131.875
350.2510, 1161.777
351.4560, 1204.145
352.6610, 1216.384
353.8660, 1241.486
355.0700, 1224.446
356.2750, 1131.251
357.4790, 1016.896
358.6830, 801.3647
359.8870, 692.6479
361.0910, 442.7339
362.2940, 358.6089
363.4970, 114.2656
364.7000, 56.32471
365.9030, 66.20557
367.1060, 116.3828
368.3080, 166.8711
369.5110, 268.6821
370.7130, 247.8438
371.9150, 212.3462
373.1170, 150.1782
374.3180, 251.3198
375.5200, 286.7959
376.7210, 163.6191
377.9220, 215.7705
379.1230, 172.2788
380.3230, 165.1445
381.5240, 166.3735
382.7240, 131.9756
383.9240, 216.9507
385.1240, 229.3257
386.3240, 242.1104
387.5230, 279.3057
388.7230, 286.9189
389.9220, 288.9429
391.1210, 263.3706
392.3200, 277.1855
393.5180, 232.3960
394.7170, 291.9883
395.9150, 297.9766
397.1130, 306.3569
398.3110, 281.1270
399.5080, 300.2739
400.7060, 226.7944
401.9030, 302.6665
403.1000, 251.9014
404.2970, 277.4727
405.4940, 125.3765
406.6910, 92.56543
407.8870, 198.0142
409.0830, 77.74268
410.2790, 61.71045
411.4750, 108.8999
412.6710, 1.320313
413.8660, 27.06104
415.0610, 105.2549
416.2560, 53.27490
417.4510, 82.11279
418.6460, 95.75488
419.8410, 105.1460
421.0350, 122.1230
422.2290, 301.6294
423.4230, 294.5884
424.6170, 355.0762
425.8100, 356.0376
427.0040, 603.5498
428.1970, 630.6455
429.3900, 621.3535
430.5830, 802.6284
431.7760, 795.4565
432.9680, 839.8301
434.1610, 859.7773
435.3530, 984.3169
436.5450, 969.4346
437.7360, 1003.152
438.9280, 954.5020
440.1190, 1032.498
441.3110, 991.2588
442.5020, 1053.776
443.6930, 1047.098
444.8830, 1177.296
446.0740, 1167.411
447.2640, 1201.447
448.4540, 1352.413
449.6440, 1476.325
450.8340, 1683.188
452.0240, 1829.016
453.2130, 2198.113
454.4020, 2351.245
455.5910, 2518.037
456.7800, 2980.388
457.9690, 3291.838
459.1570, 3699.740
460.3460, 3949.848
461.5340, 4309.511
462.7220, 4747.917
463.9090, 5155.754
465.0970, 5415.884
466.2840, 5728.652
467.4720, 5795.134
468.6590, 5924.374
469.8460, 6029.164
471.0320, 5876.351
472.2190, 5636.405
473.4050, 5541.338
474.5910, 5303.616
475.7770, 4951.875
476.9630, 4716.047
478.1490, 4568.651
479.3340, 4426.005
480.5190, 4305.396
481.7040, 4219.269
482.8890, 4231.319
484.0740, 4119.354
485.2580, 4156.250
486.4430, 4198.398
487.6270, 4157.667
488.8110, 4180.299
489.9950, 4292.862
491.1780, 4313.356
492.3620, 4296.784
493.5450, 4376.145
494.7280, 4455.443
495.9110, 4507.676
497.0940, 4543.849
498.2760, 4409.961
499.4590, 4377.014
500.6410, 4365.010
501.8230, 4319.225
503.0050, 4295.932
504.1860, 4212.254
505.3680, 4178.834
506.5490, 3993.477
507.7300, 4092.937
508.9110, 4157.801
510.0920, 3970.552
511.2730, 3834.171
512.4530, 3700.450
513.6330, 3618.092
514.8130, 3670.024
515.9930, 3702.929
517.1730, 3480.564
518.3520, 3438.061
519.5320, 3346.381
520.7110, 3348.530
521.8900, 3346.520
523.0690, 3280.075
524.2470, 3244.682
525.4260, 3293.583
526.6040, 3205.298
527.7820, 3245.388
528.9600, 3176.843
530.1380, 3239.141
531.3150, 3268.146
532.4930, 3325.226
533.6700, 3359.124
534.8470, 3446.379
536.0240, 3424.689
537.2000, 3387.522
538.3770, 3538.240
539.5530, 3614.709
540.7290, 3544.044
541.9050, 3652.485
543.0810, 3605.859
544.2570, 3619.805
545.4320, 3646.268
546.6080, 3556.473
547.7830, 3617.584
548.9580, 3740.125
550.1320, 3709.426
551.3070, 3772.202
552.4810, 3884.291
553.6550, 3842.355
554.8300, 3825.581
556.0030, 3927.793
557.1770, 3988.602
558.3510, 4038.958
559.5240, 4080.936
560.6970, 4042.328
561.8700, 4118.004
563.0430, 4119.035
564.2160, 4122.311
565.3880, 4025.727
566.5600, 4110.544
567.7320, 3990.521
568.9040, 3922.696
570.0760, 3969.035
571.2480, 3748.470
572.4190, 3758.999
573.5900, 3726.629
574.7610, 3662.361
575.9320, 3639.197
577.1030, 3619.141
578.2740, 3629.193
579.4440, 3781.357
580.6140, 3769.635
581.7840, 3809.027
582.9540, 3977.539
584.1240, 3907.168
585.2930, 4013.918
586.4630, 4139.729
587.6320, 4344.923
588.8010, 4491.900
589.9700, 4806.141
591.1380, 5166.506
592.3070, 5175.998
593.4750, 5507.614
594.6430, 5645.363
595.8110, 5941.239
596.9790, 6164.247
598.1460, 6256.393
599.3140, 6658.669
600.4810, 6880.083
601.6480, 7103.635
602.8150, 7519.326
603.9820, 7894.161
605.1480, 8269.130
606.3150, 8659.243
607.4810, 9091.906
608.6470, 9545.893
609.8130, 10030.43
610.9790, 10515.12
612.1440, 11088.95
613.3100, 11714.92
614.4750, 12653.06
615.6400, 13313.34
616.8050, 14384.78
617.9690, 15877.39
619.1340, 17421.18
620.2980, 19530.13
621.4620, 22213.24
622.6260, 25329.53
623.7900, 29318.98
624.9540, 33732.60
626.1170, 38820.38
627.2810, 44204.35
628.4440, 49122.49
629.6070, 53389.81
630.7690, 56366.31
631.9320, 57164.02
633.0950, 56628.88
634.2570, 53399.93
635.4190, 48986.16
636.5810, 43993.59
637.7430, 37905.20
638.9040, 33084.00
640.0660, 27828.97
641.2270, 23652.12
642.3880, 20162.45
643.5490, 17547.96
644.7100, 15034.64
645.8700, 13288.52
647.0310, 11763.62
648.1910, 10600.98
649.3510, 9632.594
650.5110, 8723.488
651.6710, 8016.671
652.8300, 7130.170
653.9900, 6520.976
655.1490, 5860.078
656.3080, 5513.458
657.4670, 5028.139
658.6250, 4580.125
659.7840, 4149.388
660.9420, 3851.942
662.1010, 3473.774
663.2590, 3236.888
664.4170, 3035.274
665.5740, 2753.923
666.7320, 2492.856
667.8890, 2373.075
669.0460, 2083.714
670.2030, 2061.503
671.3600, 1837.344
672.5170, 1739.816
673.6740, 1650.132
674.8300, 1595.711
675.9860, 1452.460
677.1420, 1517.668
678.2980, 1502.096
679.4540, 1497.710
680.6090, 1401.373
681.7650, 1547.336
682.9200, 1577.836
684.0750, 1584.458
685.2300, 1779.642
686.3840, 1652.772
687.5390, 1938.532
688.6930, 2011.390
689.8470, 2023.325
691.0010, 2110.652
692.1550, 2193.774
693.3090, 2206.061
694.4620, 2248.339
695.6160, 2354.024
696.7690, 2267.455
697.9220, 2222.003
699.0750, 2232.408
700.2280, 2065.661
701.3800, 1957.481
702.5320, 1890.775
703.6850, 1890.908
704.8370, 1735.823
705.9880, 1860.490
707.1400, 1886.667
708.2920, 1853.501
709.4430, 2065.432
710.5940, 2102.485
711.7450, 2235.661
712.8960, 2340.958
714.0470, 2433.377
715.1970, 2537.915
716.3480, 2571.574
717.4980, 2550.351
718.6480, 2776.247
719.7980, 2848.258
720.9470, 3048.388
722.0970, 3122.633
723.2460, 3076.993
724.3960, 3271.469
725.5450, 3211.058
726.6940, 3392.761
727.8420, 3408.357
728.9910, 3342.497
730.1390, 3413.530
731.2870, 3436.674
732.4350, 3321.923
733.5830, 3451.281
734.7310, 3361.744
735.8790, 3355.312
737.0260, 3453.983
738.1730, 3421.758
739.3200, 3366.635
740.4670, 3245.612
741.6140, 3439.690
742.7610, 3395.868
743.9070, 3430.142
745.0530, 3475.513
746.1990, 3430.980
747.3450, 3538.542
748.4910, 3494.198
749.6370, 3508.948
750.7820, 3494.195
751.9270, 3519.246
753.0720, 3405.640
754.2170, 3354.007
755.3620, 3311.174
756.5070, 3306.494
757.6510, 3204.756
758.7950, 3097.214
759.9400, 3156.045
761.0840, 2999.340
762.2270, 3018.983
763.3710, 3136.638
764.5140, 3122.581
765.6580, 3273.971
766.8010, 3558.953
767.9440, 3711.212
769.0870, 4067.240
770.2290, 4204.244
771.3720, 4649.194
772.5140, 4841.062
773.6560, 4821.740
774.7990, 4892.981
775.9400, 4577.504
777.0820, 4493.298
778.2240, 4004.572
779.3650, 3725.168
780.5060, 3375.771
781.6470, 2928.299
782.7880, 2426.389
783.9290, 2122.500
785.0690, 1770.093
786.2100, 1642.752
787.3500, 1268.958
788.4900, 1232.950
789.6300, 914.5557
790.7700, 881.3257
791.9090, 835.8750
793.0490, 691.5767
794.1880, 606.0518
795.3270, 514.9810
796.4660, 424.3799
797.6050, 358.2705
798.7440, 278.0522
799.8820, 242.9971
801.0200, 170.9736
802.1590, 139.8979
803.2970, 104.3359
804.4340, 55.91260
805.5720, 4.038574
806.7100, 33.72363
807.8470, 46.71191
808.9840, 61.76611
810.1210, 83.78906
811.2580, 149.2012
812.3950, 199.9453
813.5310, 145.9771
814.6680, 170.1323
815.8040, 164.4375
816.9400, 231.1387
818.0760, 273.6577
819.2120, 275.6572
820.3470, 224.2134
821.4830, 271.0688
822.6180, 282.0908
823.7530, 306.0742
824.8880, 299.5635
826.0230, 312.2046
827.1580, 291.9829
828.2920, 299.8921
829.4270, 332.9395
830.5610, 295.6680
831.6950, 299.4912
832.8290, 236.9861
833.9620, 232.6040
835.0960, 183.3457
836.2290, 271.1926
837.3620, 238.1865
838.4950, 119.3149
839.6280, 192.5298
840.7610, 52.86450
841.8940, 65.26465
843.0260, 93.73657
844.1580, 27.70630
845.2910, 105.1045
846.4230, 104.4600
847.5540, 118.7720
848.6860, 133.0391
849.8170, 128.2610
850.9490, 199.4363
852.0800, 263.5642
853.2110, 152.6433
854.3420, 303.6731
855.4730, 230.6863
856.6030, 326.7556
857.7340, 229.6311
858.8640, 348.6238
859.9940, 287.6970
861.1240, 486.4692
862.2540, 408.2117
863.3830, 446.8860
864.5130, 422.4270
865.6420, 477.0496
866.7710, 407.5725
867.9000, 429.9333
869.0290, 392.2869
870.1570, 459.5232
871.2860, 343.6958
872.4140, 414.8040
873.5430, 314.8469
874.6710, 375.9294
875.7980, 294.8386
876.9260, 317.6802
878.0540, 329.4526
879.1810, 275.1787
880.3080, 256.8105
881.4360, 263.3711
882.5630, 202.8591
883.6890, 253.2742
884.8160, 171.6150
885.9420, 144.9165
887.0690, 125.0994
888.1950, 160.1919
889.3210, 106.2012
890.4470, 17.10840
891.5730, 55.87207
892.6980, 132.5078
893.8240, 28.04297
894.9490, 84.43213
896.0740, 80.69849
897.1990, 125.8376
898.3240, 64.86450
899.4480, 10.75293
900.5730, 127.4744
901.6970, 12.92261
902.8210, 19.49609
903.9450, 64.74854
905.0690, 32.85059
906.1930, 56.78540
907.3160, 44.56274
908.4400, 34.17407
909.5630, 46.61255
910.6860, 27.88232
911.8090, 104.9717
912.9320, 121.9138
914.0550, 143.7122
915.1770, 148.9602
916.2990, 130.8982
917.4210, 122.2771
918.5440, 126.5066
919.6650, 119.5859
920.7870, 122.5115
921.9090, 114.2815
923.0300, 123.1897
924.1510, 113.3433
925.2720, 136.6831
926.3930, 171.9785
927.5140, 172.0803
928.6350, 182.1221
929.7550, 235.0181
930.8760, 208.8557
931.9960, 202.7478
933.1160, 212.5215
934.2360, 188.3696
935.3550, 221.0464
936.4750, 260.8960
937.5940, 247.0759
938.7140, 282.8455
939.8330, 356.7629
940.9520, 325.0305
942.0710, 338.2375
943.1890, 373.6604
944.3080, 322.5532
945.4260, 341.9329
946.5440, 355.9158
947.6620, 436.9846
948.7800, 446.7698
949.8980, 457.5874
951.0160, 396.7668
952.1330, 472.6125
953.2500, 396.3677
954.3680, 431.6948
955.4850, 469.1323
956.6010, 477.0977
957.7180, 433.2759
958.8350, 514.9414
959.9510, 520.7930
961.0670, 595.5283
962.1830, 597.0776
963.2990, 572.8262
964.4150, 608.5386
965.5310, 544.9119
966.6460, 523.7534
967.7620, 554.5039
968.8770, 568.1963
969.9920, 606.0872
971.1070, 577.1853
972.2210, 631.7693
973.3360, 583.9302
974.4500, 585.2976
975.5650, 503.9275
976.6790, 611.8479
977.7930, 524.3005
978.9070, 518.1328
980.0200, 471.9053
981.1340, 468.5894
982.2470, 471.1855
983.3610, 463.2925
984.4740, 457.1226
985.5870, 446.9368
986.6990, 439.6904
987.8120, 415.8474
988.9250, 407.9165
990.0370, 383.3491
991.1490, 427.7910
992.2610, 378.5972
993.3730, 347.3147
994.4850, 406.9426
995.5960, 401.4836
996.7080, 404.9370
997.8190, 427.3037
998.9300, 390.5845
1000.041, 400.7778
1001.152, 466.8848
1002.263, 412.9060
1003.373, 449.8413
1004.484, 434.6919
1005.594, 495.4575
1006.704, 479.1387
1007.814, 401.7354
1008.924, 517.2471
1010.034, 527.6750
1011.143, 481.0195
1012.253, 421.2805
1013.362, 495.4580
1014.471, 524.5532
1015.580, 475.5654
1016.689, 514.4958
1017.797, 550.3442
1018.906, 416.1084
1020.014, 549.3875
1021.122, 476.8718
1022.230, 507.0232
1023.338, 484.2078
1024.446, 449.6001
1025.554, 541.8467
1026.661, 473.1577
1027.768, 533.2761
1028.875, 506.0273
1029.983, 516.3230
1031.089, 554.2693
1032.196, 596.2053
1033.303, 522.9121
1034.409, 566.1160
1035.515, 548.7439
1036.622, 546.6904
1037.728, 509.2532
1038.833, 515.8408
1039.939, 724.5408
1041.045, 587.3604
1042.150, 584.4695
1043.255, 462.5076
1044.360, 431.5544
1045.465, 391.3550
1046.570, 381.6384
1047.675, 300.5933
1048.779, 293.0310
1049.884, 284.7888
1050.988, 246.2219
1052.092, 268.9031
1053.196, 257.9504
1054.300, 236.7805
1055.404, 226.7588
1056.507, 209.5193
1057.610, 188.3599
1058.714, 154.0356
1059.817, 158.8960
1060.920, 131.4573
1062.022, 125.8630
1063.125, 103.4187
1064.228, 76.87695
1065.330, 70.09985
1066.432, 50.41089
1067.534, 46.73291
1068.636, 24.96021
1069.738, 53.20581
1070.840, 45.90430
1071.941, 84.74854
1073.042, 100.7720
1074.144, 115.0457
1075.245, 87.97461
1076.346, 101.5078
1077.446, 56.53442
1078.547, 4.818848
1079.647, 95.53369
1080.748, 98.69287
1081.848, 70.62378
1082.948, 20.17188
1084.048, 91.43750
1085.148, 71.42310
1086.247, 83.79736
1087.347, 59.63525
1088.446, 90.68652
1089.545, 121.8088
1090.644, 68.79126
1091.743, 22.17212
1092.842, 66.59595
1093.940, 33.04419
1095.039, 72.51294
1096.137, 47.00684
1097.235, 215.5337
1098.333, 113.0874
1099.431, 153.6699
1100.529, 85.26904
1101.627, 111.8850
1102.724, 143.5085
1103.822, 158.1604
1104.919, 161.8337
1106.016, 132.5051
1107.113, 189.1909
1108.209, 108.8635
1109.306, 203.5266
1110.402, 172.1863
1111.499, 146.8228
1112.595, 163.4351
1113.691, 109.0229
1114.787, 163.5874
1115.883, 139.1287
1116.978, 222.6472
1118.074, 268.1438
1119.169, 194.6184
1120.264, 198.0720
1121.359, 249.4707
1122.454, 204.7417
1123.549, 318.1340
1124.644, 172.3367
1125.738, 229.3853
1126.832, 271.6609
1127.927, 180.8923
1129.021, 185.1174
1130.115, 178.4009
1131.208, 201.5264
1132.302, 168.6760
1133.396, 138.9109
1134.489, 174.0767
1135.582, 99.28174
1136.675, 149.4724
1137.768, 92.64917
1138.861, 144.8127
1139.954, 104.8577
1141.046, 137.9961
1142.138, 154.1226
1143.231, 60.23779
1144.323, 131.3188
1145.415, 106.4126
1146.507, 127.4966
1147.598, 93.57080
1148.690, 125.6362
1149.781, 113.7041
1150.872, 118.7283
1151.964, 104.7839
1153.054, 82.84082
1154.145, 66.89941
1155.236, 97.97070
1156.327, 116.0703
1157.417, 8.191650
1158.507, 24.31958
1159.597, 52.47510
1160.687, 1.647461
1161.777, 40.83813
1162.867, 32.04565
1163.956, 6.722412
1165.046, 60.55640
1166.135, 1.142578
1167.224, 38.79419
1168.313, 49.59888
1169.402, 49.02222
1170.491, 7.500000
1171.580, 42.02197
1172.668, 12.58252
1173.756, 0.1853030
1174.845, 22.83057
1175.933, 3.477539
1177.020, 45.24365
1178.108, 84.99438
1179.196, 21.23022
1180.283, 19.56885
1181.371, 12.39722
1182.458, 22.74365
1183.545, 13.85474
1184.632, 65.06616
1185.719, 58.02173
1186.805, 70.01416
1187.892, 95.18164
1188.978, 1.555664
1190.065, 97.38257
1191.151, 5.398926
1192.237, 27.64136
1193.323, 13.65283
1194.408, 10.28394
1195.494, 12.94604
1196.579, 9.172852
1197.664, 25.41284
1198.750, 14.05298
1199.835, 87.40649
1200.919, 79.32178
1202.004, 23.77319
1203.089, 64.06519
1204.173, 14.43335
1205.258, 74.25195
1206.342, 42.03247
1207.426, 8.488525
1208.510, 16.84180
1209.594, 14.11377
1210.677, 25.94409
1211.761, 9.368652
1212.844, 35.86060
1213.927, 1.625244
1215.010, 25.98755
1216.093, 57.57300
1217.176, 60.21509
1218.259, 48.82300
1219.341, 66.49268
1220.424, 42.17554
1221.506, 28.87207
1222.588, 40.40820
1223.670, 86.12842
1224.752, 114.7573
1225.834, 79.50146
1226.915, 6.235352
1227.997, 43.00244
1229.078, 78.78101
1230.159, 30.57104
1231.240, 94.37256
1232.321, 108.1855
1233.402, 155.0098
1234.483, 44.84521
1235.563, 121.6924
1236.644, 95.55054
1237.724, 166.4202
1238.804, 73.30054
1239.884, 159.1926
1240.964, 111.0959
1242.044, 49.01099
1243.123, 103.9370
1244.203, 106.8750
1245.282, 158.8245
1246.361, 116.7859
1247.440, 141.8152
1248.519, 82.74512
1249.598, 122.7429
1250.676, 161.7532
1251.755, 100.7766
1252.833, 96.81348
1253.911, 110.8630
1254.989, 117.9268
1256.067, 179.0049
1257.145, 135.0964
1258.223, 136.2024
1259.300, 173.3223
1260.378, 125.4561
1261.455, 118.6042
1262.532, 98.76709
1263.609, 117.9443
1264.686, 114.1357
1265.763, 105.3420
1266.840, 84.56274
1267.916, 93.52905
1268.992, 157.0481
1270.069, 97.31396
1271.145, 140.5947
1272.221, 131.9819
1273.296, 117.2935
1274.372, 115.6204
1275.448, 130.9624
1276.523, 115.3464
1277.598, 70.72021
1278.673, 115.8188
1279.749, 137.2244
1280.823, 68.64575
1281.898, 88.34448
1282.973, 153.1501
1284.047, 55.18555
1285.122, 67.07764
1286.196, 57.36328
1287.270, 31.11670
1288.344, 25.65186
1289.418, 101.3691
1290.491, 119.9312
1291.565, 104.7371
1292.638, 85.33691
1293.712, 63.05688
1294.785, 141.4805
1295.858, 101.1125
1296.931, 123.5776
1298.003, 110.2581
1299.076, 100.5576
1300.149, 82.58228
1301.221, 65.31104
1302.293, 125.0554
1303.365, 114.4421
1304.437, 61.31494
1305.509, 114.0784
1306.581, 87.24341
1307.652, 95.06885
1308.724, 170.9385
1309.795, 148.7976
1310.866, 120.6741
1311.937, 143.2896
1313.008, 108.0647
1314.079, 74.99683
1315.150, 28.94189
1316.220, 9.102051
1317.291, 16.86548
1318.361, 62.82910
1319.431, 10.82300
1320.501, 61.83032
1321.571, 65.46460
1322.641, 61.60229
1323.710, 91.15674
1324.780, 33.32495
1325.849, 115.3069
1326.918, 20.38940
1327.987, 14.48706
1329.056, 37.59717
1330.125, 46.72119
1331.194, 13.45776
1332.263, 51.69141
1333.331, 33.14673
1334.399, 7.978027
1335.467, 72.20117
1336.535, 33.31030
1337.603, 60.51538
1338.671, 26.57568
1339.739, 42.42358
1340.806, 67.57446
1341.874, 26.79688
1342.941, 26.45483
1344.008, 59.73682
1345.075, 54.03174
1346.142, 5.339355
1347.209, 104.6599
1348.275, 29.99292
1349.342, 83.33911
1350.408, 39.69800
1351.475, 34.07104
1352.541, 81.45679
1353.607, 24.85620
1354.673, 109.2688
