##NAMES=Cassiterite
##RRUFFID=R040017
##IDEAL CHEMISTRY=SnO_2_
##LOCALITY=Bolivia
##OWNER=RRUFF
##SOURCE=University of Arizona Mineral Museum
##DESCRIPTION=Dark brown short prismatic single crystals
##STATUS=The identification of this mineral has been confirmed by X-ray diffraction and chemical analysis
##URL=rruff.info/R040017
##MEASURED CHEMISTRY=Sn_1.00_O_2_; trace amounts of Fe
##PIN_ID=M00048
##ORIENTATION=Laser parallel to -c* (0 0 -1). Fiducial mark perpendicular to laser is parallel to a [1 0 0]
198.795, 0.000
200.175, 52.038
201.555, 99.957
202.935, 97.048
204.314, 9.519
205.693, 88.317
207.072, 49.997
208.451, 74.402
209.830, 61.253
211.208, 38.327
212.586, 9.710
213.964, 31.987
215.342, 44.349
216.719, 71.371
218.096, 82.951
219.473, 103.261
220.850, 96.929
222.226, 124.852
223.603, 122.037
224.979, 100.583
226.355, 145.568
227.730, 98.062
229.105, 130.135
230.481, 170.816
231.856, 151.155
233.230, 186.185
234.605, 128.436
235.979, 250.212
237.353, 165.914
238.727, 160.800
240.100, 246.453
241.474, 252.935
242.847, 412.230
244.220, 464.561
245.592, 516.841
246.965, 354.040
248.337, 397.167
249.709, 312.225
251.080, 256.221
252.452, 329.159
253.823, 314.043
255.194, 308.875
256.565, 358.653
257.936, 429.707
259.306, 329.374
260.676, 262.996
262.046, 351.574
263.416, 336.112
264.785, 441.941
266.155, 324.400
267.524, 236.828
268.892, 238.292
270.261, 83.665
271.629, 16.007
272.997, 16.659
274.365, 66.142
275.733, 49.730
277.100, 97.968
278.468, 96.414
279.835, 86.022
281.201, 29.274
282.568, 11.612
283.934, 16.969
285.300, 118.445
286.666, 131.434
288.032, 145.077
289.397, 164.325
290.762, 154.370
292.127, 184.422
293.492, 200.476
294.857, 185.526
296.221, 169.574
297.585, 235.621
298.949, 237.664
300.312, 176.704
301.676, 236.742
303.039, 195.777
304.402, 261.809
305.765, 216.840
307.127, 257.868
308.489, 203.894
309.851, 197.899
311.213, 204.851
312.575, 98.730
313.936, 120.547
315.297, 134.342
316.658, 56.135
318.019, 123.929
319.379, 198.728
320.740, 148.527
322.100, 119.329
323.460, 125.132
324.819, 133.938
326.178, 194.746
327.538, 117.557
328.897, 39.371
330.255, 122.188
331.614, 97.007
332.972, 125.829
334.330, 97.655
335.688, 128.485
337.045, 60.320
338.403, 56.158
339.760, 59.000
341.117, 87.848
342.473, 67.701
343.830, 75.558
345.186, 58.422
346.542, 122.986
347.898, 95.473
349.253, 35.878
350.609, 23.786
351.964, 34.431
353.319, 15.605
354.673, 44.739
356.028, 50.845
357.382, 29.921
358.736, 1.059
360.090, 17.311
361.443, 11.788
362.797, 19.128
364.150, 108.950
365.503, 61.071
366.856, 68.242
368.208, 90.461
369.560, 46.727
370.912, 11.031
372.264, 55.367
373.616, 19.737
374.967, 20.865
376.318, 0.554
377.669, 42.995
379.020, 13.539
380.370, 68.057
381.720, 67.556
383.070, 118.003
384.420, 135.354
385.770, 175.587
387.119, 192.390
388.468, 197.863
389.817, 219.983
391.166, 213.100
392.514, 223.213
393.863, 229.323
395.211, 213.431
396.558, 306.537
397.906, 345.641
399.253, 339.744
400.600, 361.846
401.947, 431.947
403.294, 422.048
404.641, 585.147
405.987, 521.246
407.333, 626.346
408.679, 755.447
410.024, 762.549
411.370, 920.651
412.715, 952.754
414.060, 1130.859
415.405, 1211.967
416.749, 1273.951
418.093, 1385.338
419.437, 1379.053
420.781, 1458.631
422.125, 1423.583
423.468, 1473.427
424.811, 1609.320
426.154, 1717.463
427.497, 1917.928
428.840, 2006.204
430.182, 2186.498
431.524, 2364.523
432.866, 2519.533
434.208, 2704.626
435.549, 2860.633
436.890, 3028.773
438.231, 3138.790
439.572, 3371.813
440.913, 3557.841
442.253, 3700.875
443.593, 3957.915
444.933, 4040.961
446.273, 4262.011
447.612, 4487.070
448.951, 4364.133
450.290, 4556.203
451.629, 4403.279
452.968, 4318.361
454.306, 4321.450
455.644, 4024.545
456.982, 3887.647
458.320, 3646.756
459.657, 3436.873
460.995, 3184.998
462.332, 2987.997
463.668, 2836.138
465.005, 2582.286
466.341, 2475.443
467.678, 2185.608
469.014, 2051.781
470.349, 2001.963
471.685, 1770.152
473.020, 1702.351
474.355, 1560.409
475.690, 1460.624
477.025, 1423.848
478.359, 1326.081
479.693, 1273.323
481.027, 1242.573
482.361, 1230.823
483.695, 1122.069
485.028, 1162.344
486.361, 1287.631
487.694, 1142.927
489.027, 1190.233
490.359, 1022.548
491.692, 1076.865
493.024, 1086.183
494.356, 947.427
495.687, 1111.769
497.019, 935.018
498.350, 1036.170
499.681, 1101.482
501.012, 992.821
502.342, 968.079
503.672, 843.018
505.002, 850.239
506.332, 800.961
507.662, 725.209
508.992, 725.700
510.321, 624.319
511.650, 589.787
512.979, 560.755
514.307, 480.756
515.636, 430.605
516.964, 368.441
518.292, 375.123
519.619, 300.481
520.947, 265.647
522.274, 253.846
523.601, 142.209
524.928, 212.678
526.255, 105.156
527.581, 138.643
528.907, 121.140
530.233, 68.648
531.559, 124.167
532.885, 134.698
534.210, 140.240
535.535, 213.793
536.860, 236.359
538.185, 278.936
539.509, 283.525
540.834, 417.125
542.158, 429.738
543.482, 299.362
544.805, 413.999
546.129, 287.647
547.452, 314.308
548.775, 272.982
550.098, 231.667
551.420, 233.365
552.742, 180.075
554.065, 237.797
555.386, 215.534
556.708, 163.282
558.030, 106.044
559.351, 112.818
560.672, 205.607
561.993, 126.413
563.313, 62.238
564.634, 138.092
565.954, 83.969
567.274, 81.874
568.594, 50.807
569.913, 35.768
571.233, 73.749
572.552, 102.747
573.871, 87.762
575.189, 78.791
576.508, 12.167
577.826, 37.888
579.144, 22.042
580.462, 65.039
581.780, 17.135
583.097, 105.244
584.414, 65.367
585.731, 83.504
587.048, 98.655
588.365, 114.820
589.681, 168.999
590.997, 202.191
592.313, 183.398
593.629, 340.619
594.944, 285.854
596.260, 399.102
597.575, 449.365
598.890, 485.642
600.204, 572.932
601.519, 540.237
602.833, 757.555
604.147, 791.888
605.461, 972.235
606.774, 1092.596
608.088, 1150.972
609.401, 1328.361
610.714, 1444.765
612.026, 1574.183
613.339, 1826.620
614.651, 1871.080
615.963, 2183.560
617.275, 2460.056
618.587, 2762.573
619.898, 3311.107
621.210, 3575.657
622.521, 4400.228
623.832, 5291.816
625.142, 6348.426
626.453, 8170.058
627.763, 10061.705
629.073, 13233.372
630.383, 16105.058
631.692, 19896.764
633.001, 23178.490
634.311, 23350.238
635.619, 22582.008
636.928, 19033.795
638.237, 15355.604
639.545, 12327.437
640.853, 9469.288
642.161, 7791.161
643.469, 6050.054
644.776, 5075.970
646.083, 4320.909
647.390, 3617.867
648.697, 3292.847
650.004, 2862.845
651.310, 2584.871
652.616, 2317.926
653.922, 1950.005
655.228, 1959.111
656.534, 1693.240
657.839, 1526.386
659.144, 1460.562
660.449, 1287.756
661.754, 1228.502
663.058, 1179.190
664.362, 1087.436
665.666, 1062.703
666.970, 968.984
668.274, 999.277
669.577, 940.591
670.881, 913.918
672.184, 874.258
673.487, 744.611
674.789, 824.977
676.092, 742.355
677.394, 835.745
678.696, 831.147
679.997, 683.562
681.299, 719.989
682.600, 638.427
683.901, 745.878
685.202, 775.340
686.503, 784.814
687.804, 816.299
689.104, 830.548
690.404, 855.924
691.704, 859.823
693.004, 901.354
694.303, 910.851
695.602, 920.219
696.901, 884.200
698.200, 873.774
699.499, 815.358
700.797, 713.167
702.095, 575.949
703.393, 432.577
704.691, 394.890
705.989, 338.525
707.286, 393.170
708.583, 271.825
709.880, 292.489
711.177, 299.162
712.473, 255.845
713.770, 369.536
715.066, 346.236
716.362, 323.945
717.658, 293.581
718.953, 311.307
720.248, 311.914
721.543, 323.656
722.838, 253.407
724.133, 270.167
725.427, 195.933
726.722, 256.708
728.016, 185.491
729.310, 195.281
730.603, 258.079
731.897, 132.884
733.190, 255.697
734.483, 227.517
735.776, 203.343
737.068, 243.177
738.361, 206.018
739.653, 238.865
740.945, 218.719
742.236, 231.579
743.528, 318.445
744.819, 264.339
746.110, 287.240
747.401, 250.125
748.692, 314.016
749.983, 342.045
751.273, 305.091
752.563, 364.052
753.853, 392.530
755.143, 437.964
756.432, 535.147
757.721, 506.432
759.010, 724.025
760.299, 705.508
761.588, 858.648
762.876, 1063.609
764.165, 1238.111
765.453, 1530.293
766.740, 2031.151
768.028, 2421.330
769.315, 3266.046
770.603, 3692.815
771.890, 4504.453
773.176, 5021.681
774.463, 5271.033
775.749, 5687.406
777.036, 5424.078
778.322, 5182.478
779.607, 4906.329
780.893, 4134.306
782.178, 3689.408
783.463, 3089.195
784.748, 2782.782
786.033, 2545.728
787.318, 2175.661
788.602, 2037.534
789.886, 1828.785
791.170, 1712.215
792.454, 1658.516
793.737, 1466.831
795.020, 1482.573
796.303, 1318.686
797.586, 1245.472
798.869, 1239.744
800.151, 1113.031
801.434, 1070.537
802.716, 1013.737
803.998, 991.487
805.279, 938.438
806.561, 786.385
807.842, 821.059
809.123, 683.999
810.404, 614.139
811.685, 700.262
812.965, 689.320
814.245, 948.244
815.525, 1239.163
816.805, 850.734
818.085, 445.060
819.364, 206.966
820.643, 285.013
821.922, 200.910
823.201, 152.802
824.480, 175.789
825.758, 130.671
827.036, 119.548
828.314, 95.419
829.592, 62.159
830.869, 84.144
832.147, 42.998
833.424, 11.154
834.701, 62.686
835.978, 36.518
837.254, 46.344
838.531, 10.836
839.807, 8.026
841.083, 10.774
842.358, 31.432
843.634, 56.347
844.909, 55.119
846.184, 55.883
847.459, 109.640
848.734, 49.390
850.008, 137.131
851.283, 120.865
852.557, 86.591
853.831, 152.309
855.104, 114.019
856.378, 142.721
857.651, 151.415
858.924, 116.101
860.197, 192.779
861.470, 156.448
862.742, 127.108
864.015, 209.760
865.287, 97.402
866.559, 190.035
867.830, 143.659
869.102, 100.273
870.373, 155.878
871.644, 91.473
872.915, 164.058
874.185, 124.634
875.456, 155.200
876.726, 177.756
877.996, 69.302
879.266, 94.837
880.536, 97.363
881.805, 43.879
883.074, 44.384
884.343, 56.878
885.612, 63.363
886.881, 23.836
888.149, 22.298
889.418, 30.252
890.686, 51.822
891.953, 49.281
893.221, 5.960
894.488, 41.676
895.756, 11.335
897.023, 6.012
898.290, 33.705
899.556, 25.421
900.823, 48.158
902.089, 33.922
903.355, 19.437
904.621, 32.711
905.886, 12.347
907.152, 14.197
908.417, 94.067
909.682, 32.974
910.947, 37.905
912.211, 5.139
913.476, 50.834
914.740, 38.836
916.004, 14.863
917.268, 62.912
918.531, 24.991
919.795, 54.094
921.058, 45.225
922.321, 17.383
923.584, 16.563
924.846, 13.764
926.109, 21.013
927.371, 37.226
928.633, 16.523
929.895, 15.241
931.156, 7.057
932.418, 50.626
933.679, 51.615
934.940, 21.024
936.201, 19.658
937.461, 4.265
938.722, 72.853
939.982, 57.572
941.242, 87.971
942.502, 92.501
943.761, 45.982
945.021, 93.506
946.280, 43.981
947.539, 47.441
948.798, 60.886
950.056, 109.316
951.315, 125.761
952.573, 75.164
953.831, 118.668
955.089, 123.042
956.346, 60.552
957.604, 153.897
958.861, 152.228
960.118, 71.727
961.375, 177.118
962.631, 192.406
963.888, 151.718
965.144, 259.977
966.400, 110.405
967.656, 267.636
968.911, 201.855
970.167, 215.879
971.422, 204.068
972.677, 188.245
973.932, 294.407
975.186, 254.340
976.441, 182.297
977.695, 255.404
978.949, 199.830
980.203, 195.921
981.456, 214.012
982.710, 180.135
983.963, 244.198
985.216, 136.232
986.469, 216.252
987.721, 209.258
988.974, 155.249
990.226, 171.295
991.478, 180.257
992.730, 212.207
993.982, 240.233
995.233, 165.153
996.484, 147.105
997.735, 115.997
998.986, 148.909
1000.237, 140.772
1001.487, 182.634
1002.738, 161.511
1003.988, 231.330
1005.237, 154.136
1006.487, 202.928
1007.737, 224.707
1008.986, 170.552
1010.235, 227.302
1011.484, 193.037
1012.732, 185.761
1013.981, 235.482
1015.229, 170.312
1016.477, 232.165
1017.725, 202.811
1018.973, 279.482
1020.220, 277.266
1021.468, 220.888
1022.715, 276.556
1023.962, 243.251
1025.208, 212.983
1026.455, 289.107
1027.701, 226.156
1028.947, 222.584
1030.193, 246.153
1031.439, 264.000
1032.684, 271.232
1033.930, 250.692
1035.175, 233.329
1036.420, 290.362
1037.665, 244.613
1038.909, 250.404
1040.154, 243.918
1041.398, 200.645
1042.642, 238.394
1043.885, 196.097
1045.129, 228.400
1046.372, 251.577
1047.615, 148.519
1048.858, 227.342
1050.101, 179.398
1051.344, 179.874
1052.586, 246.342
1053.828, 144.689
1055.070, 226.675
1056.312, 186.696
1057.554, 118.001
1058.795, 236.617
1060.036, 120.086
1061.277, 138.052
1062.518, 86.057
1063.759, 99.921
1064.999, 113.795
1066.240, 205.836
1067.480, 69.925
1068.719, 138.540
1069.959, 85.480
1071.199, 98.326
1072.438, 130.214
1073.677, 97.435
1074.916, 112.700
1076.154, 138.008
1077.393, 134.290
1078.631, 101.899
1079.869, 124.201
1081.107, 111.183
1082.345, 141.175
1083.582, 87.221
1084.820, 79.237
1086.057, 85.390
1087.294, 60.667
1088.530, 131.514
1089.767, 53.489
1091.003, 114.445
1092.239, 127.398
1093.475, 46.340
1094.711, 66.169
1095.947, 109.123
1097.182, 77.029
1098.417, 100.068
1099.652, 46.133
1100.887, 95.005
1102.122, 85.001
1103.356, 82.895
1104.590, 140.876
1105.824, 115.103
1107.058, 140.918
1108.292, 90.794
1109.525, 121.787
1110.758, 122.571
1111.991, 83.456
1113.224, 86.220
1114.457, 81.858
1115.689, 72.119
1116.922, 81.848
1118.154, 126.566
1119.385, 121.381
1120.617, 158.076
1121.849, 105.760
1123.080, 69.606
1124.311, 117.267
1125.542, 86.485
1126.773, 65.123
1128.003, 131.749
1129.234, 74.495
1130.464, 116.107
1131.694, 76.742
1132.923, 148.540
1134.153, 81.131
1135.382, 74.698
1136.612, 107.434
1137.841, 105.045
1139.069, 100.133
1140.298, 91.736
1141.526, 66.311
1142.755, 88.989
1143.983, 105.476
1145.210, 88.757
1146.438, 81.283
1147.665, 54.746
1148.893, 46.463
1150.120, 105.900
1151.347, 74.369
1152.573, 51.907
1153.800, 115.312
1155.026, 41.983
1156.252, 30.450
1157.478, 38.828
1158.704, 56.217
1159.929, 79.670
1161.155, 50.183
1162.380, 6.639
1163.605, 94.977
1164.829, 21.311
1166.054, 43.792
1167.278, 42.111
1168.503, 53.871
1169.727, 73.307
1170.950, 24.806
1172.174, 15.104
1173.397, 64.516
1174.621, 46.170
1175.844, 105.677
1177.066, 38.972
1178.289, 37.908
1179.512, 81.714
1180.734, 40.966
1181.956, 46.549
1183.178, 71.789
1184.399, 44.020
1185.621, 40.390
1186.842, 1.358
1188.063, 9.350
1189.284, 75.646
1190.505, 12.982
1191.726, 52.156
1192.946, 76.333
1194.166, 26.751
1195.386, 87.896
1196.606, 75.517
1197.826, 5.302
1199.045, 69.246
1200.264, 23.418
1201.483, 62.782
1202.702, 77.009
1203.921, 18.276
1205.139, 49.614
1206.357, 52.855
1207.575, 38.065
1208.793, 41.385
1210.011, 26.642
1211.228, 32.331
1212.446, 55.186
1213.663, 53.359
1214.880, 52.531
1216.097, 84.692
1217.313, 52.818
1218.529, 122.026
1219.746, 40.121
1220.962, 117.400
1222.177, 56.551
1223.393, 90.569
1224.608, 132.591
1225.824, 96.542
1227.039, 78.286
1228.254, 105.319
1229.468, 55.086
1230.683, 47.000
1231.897, 132.040
1233.111, 56.801
1234.325, 76.650
1235.539, 55.371
1236.752, 10.096
1237.965, 118.005
1239.179, 70.799
1240.392, 43.529
1241.604, 89.370
1242.817, 62.009
1244.029, 130.627
1245.241, 33.409
1246.453, 52.041
1247.665, 106.559
1248.877, 86.236
1250.088, 62.784
1251.300, 87.352
1252.511, 168.180
1253.722, 48.683
1254.932, 114.355
1256.143, 1.172
1257.353, 111.281
1258.563, 104.629
1259.773, 57.052
1260.983, 83.525
1262.192, 75.917
1263.402, 38.327
1264.611, 81.480
1265.820, 83.868
1267.029, 45.155
1268.237, 70.023
1269.446, 0.678
1270.654, 66.807
1271.862, 72.398
1273.070, 47.806
1274.278, 105.479
1275.485, 10.251
1276.692, 75.075
1277.900, 98.626
1279.106, 30.675
1280.313, 87.865
1281.520, 79.531
1282.726, 61.737
1283.932, 95.832
1285.138, 28.205
1286.344, 69.162
1287.550, 86.958
1288.755, 82.868
1289.960, 67.814
1291.165, 54.186
1292.370, 64.532
1293.575, 109.271
1294.779, 87.922
1295.984, 53.635
1297.188, 96.569
1298.392, 9.526
1299.595, 62.340
1300.799, 48.303
1302.002, 95.697
1303.206, 63.489
1304.409, 17.867
1305.611, 39.666
1306.814, 85.505
1308.016, 2.815
1309.219, 2.782
1310.421, 119.565
1311.623, 21.135
1312.824, 88.711
1314.026, 94.389
1315.227, 57.978
1316.428, 81.480
1317.629, 5.631
1318.830, 67.918
1320.031, 57.536
1321.231, 16.822
1322.431, 87.648
1323.631, 33.218
1324.831, 17.460
1326.031, 7.106
1327.230, 19.383
1328.429, 10.507
1329.628, 53.948
1330.827, 28.837
1332.026, 54.536
1333.225, 45.961
1334.423, 28.432
1335.621, 45.688
1336.819, 51.619
1338.017, 25.085
1339.214, 34.679
1340.412, 34.719
1341.609, 23.341
1342.806, 44.478
1344.003, 41.587
1345.200, 40.666
1346.396, 38.991
1347.592, 30.086
1348.788, 23.072
1349.984, 13.985
1351.180, 10.080
1352.376, 52.009
1353.571, 48.048
1354.766, 23.067
1355.961, 110.067
1357.156, 36.013
1358.351, 89.977
1359.545, 54.779
1360.739, 6.524
1361.933, 117.426
1363.127, 58.172
1364.321, 98.992
1365.515, 77.693
1366.708, 34.117
1367.901, 55.519
1369.094, 65.723
1370.287, 38.181
1371.479, 107.915
1372.672, 77.516
1373.864, 40.209
1375.056, 65.550
1376.248, 111.130
1377.440, 48.763
1378.631, 98.377
1379.822, 72.865
1381.014, 13.442
1382.205, 118.000
1383.395, 21.365
1384.586, 129.884
1385.776, 104.817
1386.966, 103.301
1388.157, 97.768
1389.346, 48.086
1390.536, 84.510
1391.725, 56.885
1392.915, 12.931
1394.104, 58.436
1395.293, 75.801
1396.482, 3.024
1397.670, 70.254
1398.858, 24.038
1400.047, 36.706
1401.235, 18.578
1402.422, 1.713
1403.610, 24.877
1404.798, 41.095
1405.985, 38.724
1407.172, 70.350
1408.359, 25.144
1409.546, 1.736
1410.732, 44.125
1411.918, 43.114
1413.105, 16.619
1414.291, 56.891
1415.476, 20.764
1416.662, 58.093
1417.848, 92.370
1419.033, 7.517
1420.218, 0.204
1421.403, 38.291
1422.587, 8.005
1423.772, 74.211
1424.956, 29.237
1426.140, 31.645
1427.324, 60.568
1428.508, 11.609
1429.692, 29.368
1430.875, 14.230
1432.059, 7.714
1433.242, 33.457
1434.425, 63.366
1435.607, 44.229
1436.790, 80.261
1437.972, 68.228
1439.154, 76.362
1440.336, 121.861
1441.518, 110.867
1442.700, 41.874
1443.881, 97.963
1445.062, 58.486
1446.243, 64.695
1447.424, 138.034
1448.605, 0.872
1449.786, 153.801
1450.966, 62.112
1452.146, 55.040
1453.326, 166.115
1454.506, 131.372
1455.685, 60.058
1456.865, 144.859
1458.044, 63.104
1459.223, 68.139
1460.402, 170.245
1461.581, 0.145
1462.759, 154.973
1463.938, 132.740
1465.116, 47.752
1466.294, 173.797
1467.472, 59.685
1468.649, 95.169
1469.827, 179.687
1471.004, 50.667
1472.181, 163.152
1473.358, 182.702
1474.535, 75.428
1475.711, 171.117
1476.887, 153.758
1478.064, 95.126
1479.240, 176.251
1480.415, 86.312
1481.591, 56.135
1482.767, 156.048
1483.942, 85.096
1485.117, 68.133
1486.292, 115.949
1487.467, 66.875
1488.641, 110.602
1489.815, 151.347
1490.990, 45.008
1492.164, 138.576
1493.337, 100.055
1494.511, 28.420
1495.685, 141.391
1496.858, 82.606
1498.031, 62.919
1499.204, 102.211
1500.377, 21.487
1501.549, 127.737
1502.722, 187.066
1503.894, 90.564
1505.066, 138.167
1506.238, 162.734
1507.409, 123.039
1508.581, 236.767
1509.752, 127.286
1510.923, 81.799
1512.094, 138.383
1513.265, 144.075
1514.436, 77.837
1515.606, 85.690
1516.776, 54.620
1517.946, 137.631
1519.116, 140.768
1520.286, 3.080
1521.455, 124.603
1522.625, 108.393
1523.794, 15.566
1524.963, 106.309
1526.132, 53.004
1527.300, 0.000
##END=



