##NAMES=Cassiterite
##RRUFFID=R040072
##IDEAL CHEMISTRY=SnO_2_
##LOCALITY=Bolivia
##OWNER=RRUFF
##SOURCE=University of Arizona Mineral Museum
##DESCRIPTION=Black fragment
##STATUS=The identification of this mineral has been confirmed by X-ray diffraction and chemical analysis
##URL=rruff.info/R040072
##MEASURED CHEMISTRY=Sn_0.99_O_2_
##PIN_ID=M00007
##ORIENTATION=Laser parallel to a* (1 0 0). Fiducial mark perpendicular to laser is parallel to c [0 0 1]
186.940, 0.000
188.319, 122.092
189.698, 1.878
191.076, 68.478
192.454, 159.943
193.831, 186.983
195.209, 276.956
196.586, 157.191
197.963, 128.088
199.340, 140.322
200.717, 103.616
202.093, 276.971
203.470, 198.705
204.846, 262.857
206.221, 281.141
207.597, 283.543
208.972, 318.775
210.347, 331.781
211.722, 278.442
213.097, 344.252
214.472, 504.818
215.846, 480.076
217.220, 584.321
218.594, 558.829
219.967, 537.888
221.341, 549.611
222.714, 512.930
224.087, 437.798
225.460, 453.144
226.832, 386.095
228.204, 331.483
229.577, 277.916
230.948, 272.010
232.320, 230.531
233.692, 249.672
235.063, 195.590
236.434, 152.396
237.805, 144.777
239.175, 203.115
240.545, 122.296
241.916, 139.651
243.286, 148.782
244.655, 58.740
246.025, 72.122
247.394, 103.448
248.763, 8.603
250.132, 78.646
251.501, 63.176
252.869, 109.438
254.237, 94.538
255.605, 113.191
256.973, 56.432
258.340, 38.938
259.708, 39.174
261.075, 75.506
262.442, 91.982
263.808, 67.594
265.175, 150.916
266.541, 168.380
267.907, 219.419
269.273, 225.501
270.639, 166.200
272.004, 219.757
273.369, 169.335
274.734, 155.467
276.099, 94.174
277.463, 69.502
278.828, 41.785
280.192, 26.767
281.556, 95.104
282.919, 31.360
284.283, 38.371
285.646, 59.604
287.009, 4.829
288.372, 68.717
289.734, 50.377
291.097, 211.683
292.459, 255.993
293.821, 246.995
295.183, 293.577
296.544, 330.750
297.905, 402.799
299.266, 387.142
300.627, 336.120
301.988, 376.042
303.348, 320.904
304.709, 349.820
306.069, 306.495
307.428, 193.302
308.788, 188.436
310.147, 158.828
311.507, 147.753
312.865, 57.387
314.224, 4.977
315.583, 2.810
316.941, 8.987
318.299, 37.283
319.657, 10.976
321.015, 25.765
322.372, 32.057
323.729, 52.201
325.086, 26.732
326.443, 55.335
327.800, 13.007
329.156, 9.750
330.512, 49.572
331.868, 105.479
333.224, 15.500
334.579, 19.625
335.935, 50.872
337.290, 86.235
338.645, 10.744
339.999, 8.369
341.354, 31.138
342.708, 35.028
344.062, 39.046
345.416, 72.162
346.769, 63.365
348.123, 26.671
349.476, 52.086
350.829, 32.396
352.182, 4.785
353.534, 59.918
354.887, 60.325
356.239, 38.032
357.591, 49.967
358.942, 61.695
360.294, 8.972
361.645, 66.971
362.996, 115.580
364.347, 137.642
365.698, 160.621
367.048, 142.261
368.398, 214.568
369.748, 227.547
371.098, 273.185
372.448, 203.470
373.797, 240.396
375.146, 194.956
376.495, 312.153
377.844, 261.997
379.192, 290.495
380.540, 311.665
381.889, 328.496
383.236, 377.030
384.584, 373.281
385.932, 274.220
387.279, 318.849
388.626, 318.185
389.973, 229.052
391.319, 373.427
392.666, 240.313
394.012, 241.908
395.358, 235.022
396.704, 218.855
398.049, 227.167
399.394, 243.005
400.740, 195.322
402.084, 306.878
403.429, 318.713
404.774, 374.569
406.118, 337.394
407.462, 344.259
408.806, 387.190
410.150, 375.659
411.493, 384.943
412.836, 412.635
414.179, 367.924
415.522, 403.538
416.865, 355.785
418.207, 384.965
419.549, 225.143
420.891, 293.797
422.233, 225.834
423.575, 285.483
424.916, 208.011
426.257, 232.008
427.598, 208.001
428.939, 306.934
430.279, 260.136
431.619, 383.292
432.959, 313.846
434.299, 350.749
435.639, 430.152
436.978, 342.411
438.318, 329.838
439.657, 305.758
440.996, 269.836
442.334, 265.334
443.673, 183.843
445.011, 234.670
446.349, 241.842
447.687, 304.736
449.024, 174.828
450.361, 216.992
451.699, 254.768
453.036, 197.432
454.372, 264.297
455.709, 233.106
457.045, 223.095
458.381, 265.229
459.717, 289.655
461.053, 361.011
462.388, 315.148
463.724, 427.448
465.059, 436.514
466.394, 520.693
467.728, 678.685
469.063, 907.196
470.397, 1177.683
471.731, 1565.979
473.065, 2017.198
474.398, 2414.616
475.732, 2406.762
477.065, 2139.870
478.398, 1787.399
479.731, 1339.705
481.063, 1007.213
482.396, 775.881
483.728, 751.248
485.060, 636.469
486.391, 536.379
487.723, 663.605
489.054, 576.595
490.385, 655.891
491.716, 721.785
493.047, 695.279
494.377, 753.516
495.708, 837.606
497.038, 921.838
498.368, 879.940
499.697, 891.878
501.027, 803.069
502.356, 845.926
503.685, 715.646
505.014, 837.213
506.342, 602.809
507.671, 649.057
508.999, 618.721
510.327, 697.895
511.655, 638.111
512.982, 649.050
514.310, 634.708
515.637, 561.332
516.964, 490.434
518.291, 426.702
519.617, 505.918
520.944, 334.354
522.270, 398.545
523.596, 283.911
524.921, 414.329
526.247, 283.820
527.572, 261.197
528.897, 320.840
530.222, 342.504
531.547, 408.328
532.871, 383.827
534.196, 517.452
535.520, 569.857
536.844, 634.727
538.167, 622.362
539.491, 726.093
540.814, 775.893
542.137, 844.743
543.460, 841.778
544.783, 837.782
546.105, 848.356
547.427, 734.104
548.749, 785.838
550.071, 743.189
551.393, 753.139
552.714, 771.526
554.035, 727.917
555.356, 662.277
556.677, 583.571
557.998, 595.784
559.318, 587.308
560.638, 596.521
561.958, 592.208
563.278, 550.957
564.597, 506.950
565.917, 415.798
567.236, 418.693
568.555, 403.783
569.874, 378.538
571.192, 372.691
572.511, 376.172
573.829, 349.259
575.147, 358.480
576.464, 360.553
577.782, 352.538
579.099, 335.467
580.416, 346.239
581.733, 284.885
583.050, 268.811
584.366, 244.444
585.683, 172.212
586.999, 229.909
588.315, 276.047
589.630, 253.017
590.946, 342.387
592.261, 278.644
593.576, 403.045
594.891, 441.460
596.206, 434.915
597.520, 401.342
598.834, 460.737
600.148, 483.037
601.462, 519.371
602.776, 610.400
604.089, 557.702
605.402, 785.079
606.715, 955.712
608.028, 880.915
609.341, 1013.390
610.653, 1105.186
611.965, 1293.587
613.277, 1375.292
614.589, 1489.896
615.901, 1775.482
617.212, 1901.329
618.523, 2255.105
619.834, 2608.903
621.145, 3099.702
622.456, 3625.589
623.766, 4367.411
625.076, 5430.336
626.386, 6923.206
627.696, 8946.318
629.006, 11399.449
630.315, 14742.693
631.624, 17966.871
632.933, 20902.551
634.242, 21587.924
635.551, 20571.592
636.859, 18054.986
638.167, 14621.843
639.475, 11646.010
640.783, 9041.870
642.090, 7312.000
643.398, 5796.188
644.705, 4925.144
646.012, 4173.206
647.318, 3570.119
648.625, 3100.787
649.931, 2794.422
651.237, 2598.535
652.543, 2414.912
653.849, 2237.427
655.155, 2138.083
656.460, 2039.900
657.765, 2009.241
659.070, 1933.792
660.375, 1813.063
661.679, 1820.862
662.984, 1865.431
664.288, 1790.268
665.592, 1753.968
666.895, 1870.395
668.199, 1909.641
669.502, 1921.011
670.805, 2005.593
672.108, 1979.021
673.411, 1997.567
674.713, 2000.564
676.016, 2016.448
677.318, 1995.419
678.620, 1974.949
679.921, 1953.573
681.223, 1902.327
682.524, 1892.899
683.825, 1845.971
685.126, 1831.948
686.427, 1953.918
687.727, 1835.105
689.028, 1849.838
690.328, 1935.576
691.628, 1881.318
692.927, 1906.067
694.227, 1926.820
695.526, 1929.577
696.825, 1806.338
698.124, 1776.104
699.423, 1643.872
700.721, 1507.642
702.020, 1261.415
703.318, 1149.192
704.616, 1013.972
705.913, 924.755
707.211, 888.543
708.508, 846.333
709.805, 789.128
711.102, 784.926
712.399, 718.826
713.695, 782.536
714.992, 656.348
716.288, 669.163
717.584, 734.982
718.879, 795.805
720.175, 772.630
721.470, 806.456
722.765, 680.284
724.060, 725.112
725.355, 684.942
726.649, 654.772
727.944, 656.603
729.238, 615.242
730.532, 598.263
731.825, 573.093
733.119, 533.137
734.412, 539.371
735.705, 476.647
736.998, 448.718
738.291, 506.664
739.584, 480.801
740.876, 484.792
742.168, 428.117
743.460, 405.069
744.752, 349.534
746.043, 363.430
747.334, 330.587
748.626, 319.710
749.916, 301.740
751.207, 269.938
752.498, 257.238
753.788, 228.062
755.078, 220.058
756.368, 189.281
757.658, 192.532
758.947, 203.972
760.237, 137.090
761.526, 182.825
762.815, 118.754
764.104, 43.745
765.392, 15.805
766.680, 73.768
767.969, 61.778
769.257, 85.165
770.544, 75.125
771.832, 46.161
773.119, 99.140
774.406, 65.367
775.693, 108.538
776.980, 51.412
778.267, 87.031
779.553, 50.909
780.839, 67.931
782.125, 15.484
783.411, 15.379
784.697, 0.362
785.982, 22.577
787.267, 50.025
788.552, 43.140
789.837, 8.462
791.122, 0.151
792.406, 65.691
793.690, 16.113
794.974, 46.401
796.258, 114.788
797.542, 13.177
798.825, 93.651
800.108, 78.192
801.391, 58.661
802.674, 36.448
803.957, 84.157
805.239, 24.036
806.522, 93.680
807.804, 46.651
809.085, 25.337
810.367, 14.688
811.649, 40.740
812.930, 69.170
814.211, 37.934
815.492, 20.925
816.772, 24.233
818.053, 25.577
819.333, 41.628
820.613, 0.876
821.893, 15.146
823.173, 1.556
824.452, 1.766
825.732, 1.890
827.011, 34.478
828.290, 26.115
829.568, 58.690
830.847, 22.751
832.125, 38.772
833.403, 37.722
834.681, 46.797
835.959, 46.758
837.236, 28.637
838.514, 53.014
839.791, 56.374
841.068, 16.815
842.345, 141.472
843.621, 183.798
844.898, 120.113
846.174, 324.424
847.450, 199.037
848.726, 206.312
850.001, 306.541
851.277, 298.946
852.552, 321.142
853.827, 220.372
855.102, 182.537
856.376, 304.738
857.651, 242.870
858.925, 253.986
860.199, 272.123
861.473, 250.860
862.746, 260.236
864.020, 259.288
865.293, 254.323
866.566, 269.343
867.839, 200.351
869.112, 255.344
870.384, 199.329
871.656, 233.304
872.928, 272.271
874.200, 176.224
875.472, 221.160
876.744, 180.090
878.015, 175.003
879.286, 172.902
880.557, 183.787
881.828, 173.659
883.098, 145.525
884.369, 138.380
885.639, 84.223
886.909, 39.048
888.178, 35.853
889.448, 79.638
890.717, 110.403
891.987, 65.151
893.256, 100.878
894.524, 35.587
895.793, 111.283
897.061, 29.959
898.330, 17.621
899.598, 39.254
900.865, 15.866
902.133, 93.451
903.401, 53.017
904.668, 39.561
905.935, 67.083
907.202, 3.583
908.468, 46.047
909.735, 43.559
911.001, 7.999
912.267, 70.379
913.533, 24.739
914.799, 114.073
916.064, 99.014
917.330, 81.619
918.595, 103.710
919.860, 91.793
921.124, 37.197
922.389, 101.405
923.653, 82.593
924.918, 94.679
926.182, 44.825
927.445, 48.938
928.709, 116.040
929.972, 29.045
931.236, 112.101
932.499, 76.045
933.761, 31.032
935.024, 102.766
936.286, 79.473
937.549, 113.058
938.811, 119.703
940.073, 84.837
941.334, 125.287
942.596, 49.436
943.857, 90.863
945.118, 128.826
946.379, 91.479
947.640, 104.446
948.900, 82.144
950.161, 96.795
951.421, 93.686
952.681, 59.483
953.940, 158.434
955.200, 93.630
956.459, 116.870
957.719, 51.657
958.978, 138.183
960.236, 142.573
961.495, 145.832
962.753, 144.949
964.012, 164.542
965.270, 191.925
966.527, 214.589
967.785, 248.730
969.043, 211.107
970.300, 272.229
971.557, 219.497
972.814, 200.040
974.071, 189.768
975.327, 243.367
976.583, 289.747
977.840, 231.289
979.095, 188.722
980.351, 235.699
981.607, 181.794
982.862, 181.795
984.117, 201.771
985.372, 75.793
986.627, 137.769
987.882, 201.141
989.136, 121.006
990.390, 96.958
991.644, 62.907
992.898, 6.629
994.152, 81.795
995.405, 80.947
996.659, 78.084
997.912, 2.257
999.165, 79.363
1000.417, 90.566
1001.670, 40.645
1002.922, 120.784
1004.174, 74.921
1005.426, 104.051
1006.678, 74.217
1007.930, 111.225
1009.181, 114.220
1010.432, 122.465
1011.683, 117.468
1012.934, 103.633
1014.185, 124.787
1015.435, 110.304
1016.685, 152.298
1017.935, 98.138
1019.185, 157.721
1020.435, 150.932
1021.684, 141.136
1022.934, 199.530
1024.183, 171.819
1025.432, 184.950
1026.680, 217.535
1027.929, 161.533
1029.177, 203.116
1030.425, 125.641
1031.673, 212.737
1032.921, 232.096
1034.169, 210.583
1035.416, 185.454
1036.663, 206.559
1037.911, 190.190
1039.157, 206.853
1040.404, 172.631
1041.650, 212.558
1042.897, 187.130
1044.143, 196.051
1045.389, 213.298
1046.634, 258.953
1047.880, 227.160
1049.125, 234.776
1050.371, 203.331
1051.615, 178.102
1052.860, 232.014
1054.105, 141.208
1055.349, 208.518
1056.593, 130.775
1057.837, 177.455
1059.081, 82.717
1060.325, 93.907
1061.568, 118.931
1062.812, 143.062
1064.055, 126.771
1065.298, 127.029
1066.540, 142.886
1067.783, 176.200
1069.025, 150.646
1070.267, 174.037
1071.509, 206.967
1072.751, 206.317
1073.993, 153.583
1075.234, 224.864
1076.475, 208.915
1077.716, 185.472
1078.957, 211.065
1080.198, 163.751
1081.438, 221.093
1082.679, 248.003
1083.919, 204.362
1085.159, 299.465
1086.398, 282.353
1087.638, 377.447
1088.877, 354.489
1090.116, 480.403
1091.355, 582.483
1092.594, 703.238
1093.833, 1019.471
1095.071, 1293.604
1096.309, 1809.716
1097.547, 2159.715
1098.785, 2335.664
1100.023, 2115.669
1101.260, 1671.707
1102.498, 1112.708
1103.735, 833.898
1104.972, 627.976
1106.208, 414.178
1107.445, 379.115
1108.681, 315.332
1109.918, 188.584
1111.154, 314.811
1112.389, 203.043
1113.625, 242.280
1114.860, 217.507
1116.096, 224.743
1117.331, 177.969
1118.566, 186.194
1119.800, 196.411
1121.035, 333.638
1122.269, 533.861
1123.503, 639.093
1124.737, 507.326
1125.971, 334.555
1127.205, 350.778
1128.438, 237.008
1129.671, 212.240
1130.904, 156.478
1132.137, 190.717
1133.370, 202.948
1134.602, 101.132
1135.834, 183.366
1137.066, 207.607
1138.298, 160.841
1139.530, 177.065
1140.762, 192.181
1141.993, 173.053
1143.224, 156.303
1144.455, 147.396
1145.686, 89.545
1146.917, 103.370
1148.147, 75.507
1149.377, 123.665
1150.607, 84.620
1151.837, 81.757
1153.067, 80.832
1154.296, 68.946
1155.526, 104.996
1156.755, 119.088
1157.984, 41.170
1159.213, 96.240
1160.441, 54.299
1161.670, 54.347
1162.898, 35.382
1164.126, 15.403
1165.354, 8.589
1166.581, 4.600
1167.809, 30.627
1169.036, 14.686
1170.263, 33.767
1171.490, 2.119
1172.717, 32.991
1173.943, 37.149
1175.170, 58.676
1176.396, 5.511
1177.622, 4.716
1178.848, 13.938
1180.073, 34.183
1181.299, 20.460
1182.524, 10.763
1183.749, 2.088
1184.974, 24.572
1186.199, 6.220
1187.423, 22.855
1188.648, 14.479
1189.872, 50.087
1191.096, 4.684
1192.320, 25.733
1193.543, 65.822
1194.767, 27.635
1195.990, 81.879
1197.213, 5.386
1198.436, 14.880
1199.659, 0.636
1200.881, 95.832
1202.104, 40.349
1203.326, 88.068
1204.548, 91.863
1205.770, 59.107
1206.991, 65.741
1208.213, 57.219
1209.434, 7.201
1210.655, 54.428
1211.876, 111.836
1213.096, 1.392
1214.317, 60.028
1215.537, 47.458
1216.757, 46.086
1217.977, 61.661
1219.197, 58.958
1220.417, 57.279
1221.636, 62.909
1222.855, 54.291
1224.074, 1.430
1225.293, 8.697
1226.512, 34.331
1227.731, 50.532
1228.949, 114.954
1230.167, 177.144
1231.385, 89.311
1232.603, 136.714
1233.820, 96.939
1235.038, 145.071
1236.255, 113.190
1237.472, 116.377
1238.689, 134.473
1239.906, 40.591
1241.122, 106.661
1242.338, 73.719
1243.555, 152.844
1244.771, 140.876
1245.986, 176.896
1247.202, 113.961
1248.417, 94.958
1249.633, 151.944
1250.848, 172.917
1252.063, 197.082
1253.277, 150.275
1254.492, 153.821
1255.706, 116.391
1256.920, 133.249
1258.134, 129.563
1259.348, 180.419
1260.562, 155.719
1261.775, 188.926
1262.988, 238.075
1264.201, 214.177
1265.414, 216.401
1266.627, 197.924
1267.839, 281.292
1269.052, 204.956
1270.264, 225.812
1271.476, 222.095
1272.688, 169.010
1273.899, 290.146
1275.111, 186.488
1276.322, 291.974
1277.533, 292.187
1278.744, 237.382
1279.955, 196.660
1281.165, 255.921
1282.376, 221.826
1283.586, 323.938
1284.796, 251.835
1286.006, 267.517
1287.215, 311.335
1288.425, 288.512
1289.634, 274.443
1290.843, 270.707
1292.052, 272.321
1293.261, 275.043
1294.469, 291.082
1295.678, 302.770
1296.886, 313.272
1298.094, 348.753
1299.302, 258.217
1300.509, 324.838
1301.717, 358.371
1302.924, 280.186
1304.131, 392.448
1305.338, 332.906
1306.545, 369.354
1307.752, 305.610
1308.958, 338.773
1310.164, 334.840
1311.370, 298.336
1312.576, 269.194
1313.782, 293.328
1314.987, 262.385
1316.193, 266.228
1317.398, 218.153
1318.603, 315.291
1319.807, 302.991
1321.012, 297.002
1322.216, 261.678
1323.421, 268.253
1324.625, 219.234
1325.829, 184.923
1327.032, 185.638
1328.236, 209.499
1329.439, 196.083
1330.642, 207.029
1331.845, 205.647
1333.048, 213.405
1334.251, 231.092
1335.453, 237.902
1336.656, 224.470
1337.858, 208.307
1339.060, 178.983
1340.261, 162.624
1341.463, 124.391
1342.664, 127.790
1343.866, 158.216
1345.067, 128.414
1346.267, 109.125
1347.468, 57.585
1348.669, 101.224
1349.869, 102.855
1351.069, 54.331
1352.269, 99.812
1353.469, 80.292
1354.668, 63.164
1355.868, 113.296
1357.067, 30.882
1358.266, 102.766
1359.465, 97.084
1360.664, 46.325
1361.862, 55.533
1363.061, 135.782
1364.259, 30.994
1365.457, 127.174
1366.655, 88.356
1367.852, 109.480
1369.050, 129.115
1370.247, 39.974
1371.444, 183.955
1372.641, 59.984
1373.838, 112.263
1375.035, 148.523
1376.231, 55.656
1377.427, 94.878
1378.623, 148.006
1379.819, 181.195
1381.015, 94.361
1382.211, 158.521
1383.406, 104.670
1384.601, 122.492
1385.796, 123.580
1386.991, 92.522
1388.185, 147.652
1389.380, 122.594
1390.574, 96.943
1391.768, 121.048
1392.962, 121.407
1394.156, 131.523
1395.350, 60.304
1396.543, 51.522
1397.736, 9.688
1398.929, 43.170
1400.122, 76.939
1401.315, 27.981
1402.507, 21.080
1403.700, 26.106
1404.892, 5.920
1406.084, 45.023
1407.276, 53.926
1408.467, 30.762
1409.659, 11.433
1410.850, 15.339
1412.041, 29.911
1413.232, 17.183
1414.423, 19.520
1415.614, 80.181
1416.804, 6.186
1417.994, 25.576
1419.184, 43.983
1420.374, 20.590
1421.564, 21.140
1422.753, 9.329
1423.943, 14.187
1425.132, 26.693
1426.321, 54.129
1427.510, 55.390
1428.698, 104.271
1429.887, 68.820
1431.075, 15.365
1432.263, 38.929
1433.451, 10.482
1434.639, 1.232
1435.827, 38.698
1437.014, 31.281
1438.201, 81.853
1439.388, 145.488
1440.575, 105.113
1441.762, 120.745
1442.949, 52.876
1444.135, 111.240
1445.321, 39.283
1446.507, 101.260
1447.693, 111.193
1448.879, 63.556
1450.064, 226.262
1451.250, 157.244
1452.435, 111.674
1453.620, 182.269
1454.805, 74.392
1455.989, 91.643
1457.174, 112.893
1458.358, 123.442
1459.542, 205.007
1460.726, 87.669
1461.910, 78.413
1463.093, 160.026
1464.277, 264.697
1465.460, 172.494
1466.643, 174.899
1467.826, 123.980
1469.009, 142.908
1470.191, 137.877
1471.373, 161.647
1472.556, 126.936
1473.738, 181.732
1474.919, 184.320
1476.101, 130.562
1477.283, 120.022
1478.464, 98.671
1479.645, 182.909
1480.826, 107.043
1482.007, 239.700
1483.187, 146.254
1484.368, 187.486
1485.548, 152.148
1486.728, 187.095
1487.908, 101.346
1489.088, 109.771
1490.268, 95.427
1491.447, 99.717
1492.626, 69.079
1493.805, 152.134
1494.984, 42.967
1496.163, 24.191
1497.341, 99.488
1498.520, 190.803
1499.698, 174.164
1500.876, 113.998
1502.054, 113.568
1503.232, 187.044
1504.409, 122.674
1505.586, 195.217
1506.763, 174.981
1507.940, 152.064
1509.117, 115.474
1510.294, 186.918
1511.470, 199.433
1512.647, 234.179
1513.823, 231.817
1514.999, 121.631
1516.174, 208.312
1517.350, 133.494
1518.526, 134.301
1519.701, 187.260
1520.876, 116.420
1522.051, 77.816
1523.226, 168.422
1524.400, 73.226
1525.574, 158.232
1526.749, 128.501
1527.923, 133.200
1529.097, 15.354
1530.270, 5.043
1531.444, 73.406
1532.617, 108.675
1533.790, 1.019
1534.963, 140.297
1536.136, 0.000
##END=



