##NAMES=Cassiterite
##RRUFFID=R050502
##IDEAL CHEMISTRY=SnO_2_
##LOCALITY=Redruth, Cornwall, England
##OWNER=RRUFF
##SOURCE=California Institute of Technology
##DESCRIPTION=Black crystals associated with colorless quartz and grey stannite.
##STATUS=The identification of this mineral has been confirmed by X-ray diffraction and chemical analysis
##URL=rruff.info/R050502
##MEASURED CHEMISTRY=SnO_2_
##PIN_ID=M00088
##ORIENTATION=Laser parallel to -c* (0 0 -1). Fiducial mark perpendicular to laser is parallel to b [0 1 0]
201.1900, 0.0000000E+00
202.4130, 36.66699
203.6360, 211.0996
204.8590, 26.09424
206.0820, 106.5508
207.3050, 75.64697
208.5270, 144.0952
209.7490, 269.9482
210.9710, 254.9541
212.1930, 514.8921
213.4150, 679.8877
214.6370, 795.6943
215.8580, 986.7549
217.0790, 1045.442
218.3010, 1058.183
219.5210, 1293.474
220.7420, 1272.908
221.9630, 1545.427
223.1830, 1574.112
224.4040, 1863.636
225.6240, 2020.677
226.8440, 2114.514
228.0640, 2422.525
229.2840, 2431.245
230.5030, 2906.321
231.7230, 3460.490
232.9420, 4324.561
234.1610, 5106.393
235.3800, 5608.842
236.5990, 5176.822
237.8170, 4890.275
239.0360, 4656.183
240.2540, 4319.945
241.4720, 4223.283
242.6900, 3765.236
243.9080, 3448.721
245.1250, 3156.033
246.3430, 2397.065
247.5600, 2087.275
248.7770, 1704.607
249.9940, 1361.912
251.2110, 1217.960
252.4280, 1097.899
253.6450, 972.8784
254.8610, 975.0352
256.0770, 1024.495
257.2930, 1151.368
258.5090, 1079.510
259.7250, 1071.396
260.9400, 982.4404
262.1560, 928.8882
263.3710, 854.1631
264.5860, 789.8057
265.8010, 629.1187
267.0160, 556.2227
268.2310, 688.3823
269.4450, 491.6450
270.6600, 575.0571
271.8740, 517.6621
273.0880, 539.4995
274.3020, 828.7056
275.5150, 948.5859
276.7290, 984.1104
277.9420, 1083.353
279.1550, 1101.334
280.3680, 1123.589
281.5810, 1216.713
282.7940, 1309.096
284.0070, 1451.268
285.2190, 1564.918
286.4310, 1768.987
287.6430, 1786.933
288.8550, 1960.682
290.0670, 1924.482
291.2790, 2033.465
292.4900, 1930.804
293.7020, 1857.442
294.9130, 1938.723
296.1240, 1851.760
297.3350, 1828.534
298.5450, 1763.999
299.7560, 1775.004
300.9660, 1648.078
302.1760, 1643.211
303.3860, 1502.397
304.5960, 1491.630
305.8060, 1451.903
307.0150, 1354.212
308.2250, 1326.554
309.4340, 1143.923
310.6430, 1111.319
311.8520, 1040.738
313.0610, 1134.180
314.2700, 1057.640
315.4780, 1074.103
316.6860, 947.5425
317.8940, 980.9341
319.1020, 889.2588
320.3100, 929.5078
321.5180, 890.6758
322.7250, 947.7661
323.9330, 849.7842
325.1400, 773.7334
326.3470, 789.6191
327.5540, 673.4463
328.7600, 685.2183
329.9670, 836.9399
331.1730, 770.6162
332.3800, 714.2510
333.5860, 887.8477
334.7920, 938.4097
335.9970, 942.9424
337.2030, 876.4482
338.4080, 847.9292
339.6140, 967.3911
340.8190, 1032.838
342.0240, 1005.275
343.2290, 1118.705
344.4330, 1170.130
345.6380, 1118.555
346.8420, 1330.708
348.0460, 1352.269
349.2500, 1377.446
350.4540, 1254.462
351.6580, 1222.141
352.8610, 1037.985
354.0650, 891.9570
355.2680, 837.0239
356.4710, 581.1597
357.6740, 445.3447
358.8760, 222.5596
360.0790, 116.7729
361.2810, 97.04590
362.4840, 261.9619
363.6860, 250.0259
364.8880, 542.2422
366.0900, 411.6929
367.2910, 512.3472
368.4930, 525.2417
369.6940, 600.3906
370.8950, 454.8252
372.0960, 423.5142
373.2970, 424.4541
374.4980, 554.6470
375.6980, 433.1279
376.8980, 387.8657
378.0990, 315.8457
379.2990, 259.0469
380.4980, 258.4531
381.6980, 188.0596
382.8980, 176.8447
384.0970, 122.8018
385.2960, 122.9136
386.4950, 64.17969
387.6940, 58.39307
388.8930, 18.80420
390.0920, 135.0220
391.2900, 91.05322
392.4880, 120.8882
393.6860, 140.5361
394.8840, 303.0088
396.0820, 324.3213
397.2800, 489.4844
398.4770, 702.5068
399.6750, 783.3979
400.8720, 945.1650
402.0690, 1098.817
403.2660, 1189.360
404.4620, 1313.802
405.6590, 1568.147
406.8550, 1739.405
408.0510, 2077.581
409.2480, 2261.676
410.4430, 2605.698
411.6390, 2821.655
412.8350, 2929.551
414.0300, 3135.391
415.2250, 3468.180
416.4200, 3602.921
417.6150, 4030.619
418.8100, 4212.280
420.0050, 4528.902
421.1990, 4619.491
422.3940, 4926.047
423.5880, 5161.573
424.7820, 5268.046
425.9750, 5584.295
427.1690, 5424.091
428.3630, 5574.249
429.5560, 5615.752
430.7490, 5436.621
431.9420, 5631.966
433.1350, 5380.750
434.3280, 5250.115
435.5200, 5124.158
436.7130, 5195.957
437.9050, 5231.574
439.0970, 5441.119
440.2890, 5517.655
441.4810, 5988.212
442.6720, 6071.817
443.8640, 6612.479
445.0550, 6879.199
446.2460, 7427.976
447.4370, 7681.810
448.6280, 8095.705
449.8180, 8314.655
451.0090, 8681.665
452.1990, 8902.736
453.3890, 8870.869
454.5790, 8895.062
455.7690, 8690.318
456.9590, 8749.637
458.1480, 8371.015
459.3380, 8593.458
460.5270, 8466.967
461.7160, 8261.541
462.9050, 8196.182
464.0940, 7862.891
465.2820, 7585.668
466.4700, 7363.516
467.6590, 7072.435
468.8470, 6795.784
470.0350, 6446.488
471.2220, 6196.415
472.4100, 5833.532
473.5970, 5489.821
474.7850, 5260.186
475.9720, 4976.068
477.1590, 4693.150
478.3460, 4620.750
479.5320, 4426.433
480.7190, 4467.196
481.9050, 4309.042
483.0910, 4351.972
484.2770, 4245.986
485.4630, 4276.086
486.6490, 4206.812
487.8340, 4036.546
489.0200, 4047.907
490.2050, 4014.308
491.3900, 3870.750
492.5750, 4022.239
493.7600, 3907.782
494.9440, 3920.369
496.1290, 3716.000
497.3130, 3592.676
498.4970, 3431.396
499.6810, 3520.162
500.8650, 3338.513
502.0480, 3246.604
503.2320, 3146.411
504.4150, 2935.458
505.5980, 2861.338
506.7810, 2633.153
507.9640, 2537.821
509.1460, 2382.884
510.3290, 2094.836
511.5110, 1999.196
512.6930, 1912.062
513.8750, 1682.303
515.0570, 1516.751
516.2390, 1432.395
517.4210, 1220.127
518.6020, 1271.759
519.7830, 1065.512
520.9640, 987.0742
522.1450, 967.5000
523.3260, 819.2656
524.5060, 823.7617
525.6870, 667.2783
526.8670, 769.5107
528.0470, 623.0645
529.2270, 647.6387
530.4070, 746.9131
531.5870, 806.3760
532.7660, 688.1719
533.9450, 757.8779
535.1240, 831.8994
536.3030, 705.6934
537.4820, 811.9619
538.6610, 755.3594
539.8390, 919.8906
541.0180, 778.5684
542.1960, 878.3799
543.3740, 836.3574
544.5520, 844.4951
545.7290, 715.7861
546.9070, 744.9473
548.0840, 753.4717
549.2620, 778.8379
550.4390, 798.8877
551.6160, 899.1211
552.7920, 858.5449
553.9690, 891.6445
555.1450, 930.9854
556.3220, 882.9922
557.4980, 941.2002
558.6740, 926.5938
559.8490, 926.1729
561.0250, 936.9248
562.2000, 822.8633
563.3760, 837.9805
564.5510, 955.2559
565.7260, 788.1289
566.9010, 705.2168
568.0750, 528.8984
569.2500, 577.7168
570.4240, 374.6729
571.5980, 316.7734
572.7720, 497.0176
573.9460, 455.4102
575.1200, 416.9541
576.2930, 450.6523
577.4670, 592.5049
578.6400, 639.5146
579.8130, 887.6826
580.9860, 998.0088
582.1590, 1252.495
583.3310, 1353.142
584.5040, 1632.947
585.6760, 1892.113
586.8480, 2199.780
588.0200, 2513.327
589.1920, 2889.775
590.3630, 3277.383
591.5350, 3546.153
592.7060, 4011.084
593.8770, 4347.176
595.0480, 4729.428
596.2190, 5104.842
597.3900, 5452.418
598.5600, 5995.154
599.7310, 6567.053
600.9010, 7208.113
602.0710, 7560.336
603.2410, 8279.720
604.4100, 8921.264
605.5800, 9262.969
606.7490, 9916.841
607.9190, 10398.87
609.0880, 11114.06
610.2570, 11749.42
611.4250, 12303.95
612.5940, 13302.64
613.7620, 14614.51
614.9310, 15566.54
616.0990, 17403.74
617.2670, 19322.13
618.4340, 21841.70
619.6020, 24707.44
620.7690, 28548.38
621.9370, 33066.51
623.1040, 38355.82
624.2710, 43198.32
625.4380, 47598.01
626.6040, 51571.91
627.7710, 52988.98
628.9370, 53825.27
630.1030, 53472.73
631.2690, 51986.39
632.4350, 50009.26
633.6010, 46174.31
634.7660, 41404.53
635.9320, 36858.95
637.0970, 32218.54
638.2620, 28058.33
639.4270, 23619.30
640.5920, 20499.45
641.7560, 17821.80
642.9210, 15579.36
644.0850, 13927.14
645.2490, 12342.20
646.4130, 11271.56
647.5770, 10116.23
648.7400, 9373.281
649.9040, 8440.676
651.0670, 7700.441
652.2300, 7196.570
653.3930, 6630.088
654.5560, 5960.961
655.7190, 5514.174
656.8810, 5191.719
658.0440, 4491.635
659.2060, 4253.887
660.3680, 3957.459
661.5300, 3617.336
662.6910, 3268.493
663.8530, 2990.928
665.0140, 2753.321
666.1750, 2672.548
667.3360, 2386.719
668.4970, 2342.123
669.6580, 2243.739
670.8190, 2117.541
671.9790, 2085.106
673.1390, 1814.838
674.2990, 1933.944
675.4590, 1885.295
676.6190, 1710.666
677.7790, 1906.158
678.9380, 1870.664
680.0970, 1958.109
681.2570, 1911.363
682.4160, 1960.979
683.5740, 2348.050
684.7330, 2329.339
685.8920, 2424.913
687.0500, 2611.424
688.2080, 2589.764
689.3660, 2624.689
690.5240, 2838.926
691.6820, 2699.187
692.8390, 2628.904
693.9960, 2708.884
695.1540, 2671.735
696.3110, 2773.236
697.4680, 2581.944
698.6240, 2579.035
699.7810, 2366.993
700.9370, 2493.885
702.0940, 2358.004
703.2500, 2406.610
704.4060, 2367.020
705.5610, 2478.555
706.7170, 2712.559
707.8720, 2877.671
709.0280, 3015.892
710.1830, 3013.221
711.3380, 3132.656
712.4920, 3252.197
713.6470, 3563.844
714.8020, 3565.593
715.9560, 3778.445
717.1100, 3799.399
718.2640, 3948.455
719.4180, 4007.610
720.5720, 4143.863
721.7250, 4218.214
722.8780, 4290.662
724.0320, 4380.206
725.1850, 4426.484
726.3380, 4364.576
727.4900, 4472.399
728.6430, 4534.313
729.7950, 4448.319
730.9470, 4566.413
732.1000, 4548.596
733.2510, 4558.865
734.4030, 4673.217
735.5550, 4635.698
736.7060, 4532.180
737.8570, 4653.785
739.0090, 4635.473
740.1600, 4662.909
741.3100, 4678.084
742.4610, 4611.007
743.6110, 4739.008
744.7620, 4685.085
745.9120, 4833.281
747.0620, 4836.555
748.2120, 4724.816
749.3610, 4637.052
750.5110, 4622.782
751.6600, 4499.091
752.8090, 4474.820
753.9580, 4382.326
755.1070, 4324.148
756.2560, 4175.157
757.4050, 4211.095
758.5530, 3996.385
759.7010, 4173.761
760.8490, 4000.293
761.9970, 3955.294
763.1450, 4111.811
764.2920, 4319.961
765.4400, 4485.826
766.5870, 4781.204
767.7340, 4982.409
768.8810, 5269.938
770.0280, 5495.738
771.1740, 5606.048
772.3210, 5645.443
773.4670, 5619.106
774.6130, 5434.979
775.7590, 5199.352
776.9050, 4716.275
778.0510, 4434.333
779.1960, 4029.790
780.3420, 3454.421
781.4870, 3129.026
782.6320, 2744.668
783.7770, 2529.220
784.9210, 2200.044
786.0660, 1851.972
787.2100, 1631.271
788.3540, 1529.044
789.4980, 1291.810
790.6420, 1185.284
791.7860, 1092.529
792.9300, 981.8613
794.0730, 753.0747
795.2160, 794.7290
796.3590, 597.9146
797.5020, 583.4761
798.6450, 518.3218
799.7880, 456.2422
800.9300, 334.4844
802.0720, 280.3203
803.2150, 265.2832
804.3560, 301.1357
805.4980, 195.8770
806.6400, 122.0596
807.7810, 78.74512
808.9230, 1.152344
810.0640, 11.78174
811.2050, 30.12891
812.3460, 31.95947
813.4860, 61.30811
814.6270, 115.8574
815.7670, 135.4312
816.9070, 196.4395
818.0470, 116.4111
819.1870, 268.6519
820.3270, 231.2051
821.4670, 188.7852
822.6060, 406.6782
823.7450, 331.8013
824.8840, 304.1582
826.0230, 271.6807
827.1620, 289.3574
828.3010, 300.2002
829.4390, 317.2158
830.5770, 314.5176
831.7150, 273.8081
832.8530, 309.3691
833.9910, 242.1240
835.1290, 242.0396
836.2660, 182.1187
837.4030, 226.3345
838.5410, 191.7134
839.6780, 104.2412
840.8140, 14.12256
841.9510, 15.42432
843.0870, 50.66309
844.2240, 96.84619
845.3600, 109.9731
846.4960, 161.0439
847.6320, 189.0566
848.7680, 188.0117
849.9030, 188.9062
851.0380, 232.7407
852.1740, 251.5137
853.3090, 340.2241
854.4440, 338.8716
855.5780, 310.4546
856.7130, 437.0581
857.8470, 439.5098
858.9820, 436.9111
860.1160, 392.2563
861.2500, 460.5049
862.3830, 458.7183
863.5170, 398.8262
864.6500, 444.8633
865.7840, 527.9360
866.9170, 455.8281
868.0500, 462.6465
869.1830, 457.4302
870.3150, 446.0986
871.4480, 440.3926
872.5800, 424.2070
873.7120, 415.6445
874.8440, 393.1577
875.9760, 378.4380
877.1080, 342.6387
878.2390, 401.7578
879.3710, 295.7964
880.5020, 300.7524
881.6330, 225.6260
882.7640, 235.4155
883.8940, 155.1187
885.0250, 165.7251
886.1550, 209.2349
887.2850, 142.6548
888.4160, 172.9688
889.5450, 121.1836
890.6750, 119.2812
891.8050, 73.26025
892.9340, 103.1016
894.0630, 77.81323
895.1930, 60.38452
896.3220, 42.80444
897.4500, 125.0642
898.5790, 33.19482
899.7070, 84.15649
900.8360, 34.96948
901.9640, 29.61108
903.0920, 121.0750
904.2200, 34.39868
905.3470, 51.54443
906.4750, 108.5183
907.6020, 136.3413
908.7290, 134.0234
909.8560, 133.1650
910.9830, 124.5310
912.1100, 115.4607
913.2360, 93.27881
914.3630, 88.19727
915.4890, 87.94678
916.6150, 92.00195
917.7410, 94.55835
918.8670, 123.2776
919.9920, 145.6670
921.1180, 175.0132
922.2430, 140.2087
923.3680, 187.1685
924.4930, 191.0791
925.6180, 204.8123
926.7420, 154.5085
927.8670, 184.0918
928.9910, 263.2671
930.1150, 212.4429
931.2390, 231.5605
932.3630, 259.6831
933.4860, 214.8970
934.6100, 294.6069
935.7330, 332.1909
936.8560, 440.4001
937.9790, 355.1396
939.1020, 364.6873
940.2250, 374.0630
941.3470, 419.8291
942.4700, 382.6133
943.5920, 406.5120
944.7140, 482.8821
945.8360, 498.2695
946.9570, 469.0991
948.0790, 479.3931
949.2000, 499.9812
950.3220, 495.2473
951.4430, 560.6511
952.5640, 524.9143
953.6840, 572.3308
954.8050, 607.6196
955.9250, 579.1384
957.0460, 624.8074
958.1660, 613.1589
959.2860, 653.5410
960.4050, 631.1677
961.5250, 704.1414
962.6440, 670.6912
963.7640, 632.6086
964.8830, 685.0610
966.0020, 704.2256
967.1210, 727.4907
968.2390, 705.1187
969.3580, 681.5015
970.4760, 724.6599
971.5940, 688.8345
972.7120, 717.0974
973.8300, 719.8252
974.9480, 736.3462
976.0650, 697.1084
977.1830, 658.8149
978.3000, 694.7224
979.4170, 649.5352
980.5340, 668.3967
981.6500, 524.0198
982.7670, 578.6570
983.8830, 569.1326
985.0000, 652.4722
986.1160, 530.7173
987.2320, 595.8687
988.3470, 535.9255
989.4630, 518.8879
990.5780, 478.7568
991.6940, 590.5312
992.8090, 498.2114
993.9240, 496.7983
995.0380, 575.2915
996.1530, 497.6914
997.2680, 539.9980
998.3820, 561.2117
999.4960, 483.3325
1000.610, 522.3992
1001.724, 550.3340
1002.837, 502.1770
1003.951, 534.0957
1005.064, 542.7544
1006.177, 561.3223
1007.291, 514.8616
1008.403, 478.2466
1009.516, 548.7695
1010.629, 588.0659
1011.741, 574.2229
1012.853, 595.2446
1013.965, 625.4014
1015.077, 631.4119
1016.189, 631.4360
1017.300, 573.9255
1018.412, 635.6008
1019.523, 632.2166
1020.634, 688.5186
1021.745, 664.2043
1022.856, 592.6392
1023.966, 581.9980
1025.077, 579.6794
1026.187, 693.2690
1027.297, 624.0371
1028.407, 661.7915
1029.517, 727.0850
1030.627, 681.4143
1031.736, 668.2239
1032.845, 699.5688
1033.955, 576.0874
1035.064, 624.0815
1036.172, 604.2136
1037.281, 641.6787
1038.390, 554.7563
1039.498, 501.5925
1040.606, 610.8848
1041.714, 589.1401
1042.822, 485.1372
1043.930, 512.0347
1045.037, 484.9880
1046.145, 456.6196
1047.252, 515.8071
1048.359, 389.6956
1049.466, 287.3770
1050.573, 308.0774
1051.679, 245.6230
1052.786, 279.4451
1053.892, 246.6899
1054.998, 241.6550
1056.104, 253.4177
1057.210, 225.1096
1058.315, 228.9094
1059.421, 198.3555
1060.526, 213.8604
1061.631, 210.6333
1062.736, 204.1948
1063.841, 182.8203
1064.946, 150.9580
1066.050, 120.2231
1067.154, 162.6052
1068.258, 156.8794
1069.362, 215.1919
1070.466, 102.4712
1071.570, 107.6899
1072.674, 115.2834
1073.777, 66.56812
1074.880, 162.2556
1075.983, 123.9561
1077.086, 174.1143
1078.189, 167.1562
1079.291, 112.8914
1080.394, 165.9495
1081.496, 194.7668
1082.598, 203.5845
1083.700, 64.26367
1084.802, 175.2065
1085.903, 188.9956
1087.005, 138.0198
1088.106, 218.1533
1089.207, 135.2610
1090.308, 147.5176
1091.409, 159.7996
1092.509, 147.1592
1093.610, 167.5330
1094.710, 198.9404
1095.810, 109.7510
1096.910, 116.1655
1098.010, 125.6033
1099.110, 136.1504
1100.209, 136.6289
1101.309, 149.1653
1102.408, 114.6829
1103.507, 145.2344
1104.606, 143.0381
1105.704, 219.3040
1106.803, 154.8518
1107.901, 146.3850
1108.999, 131.8794
1110.097, 229.3359
1111.195, 212.7527
1112.293, 175.1296
1113.391, 242.4666
1114.488, 179.7644
1115.585, 194.0837
1116.682, 263.3037
1117.779, 268.4863
1118.876, 345.6318
1119.973, 275.7402
1121.069, 260.8125
1122.165, 274.8489
1123.261, 295.7634
1124.357, 344.7288
1125.453, 273.6431
1126.549, 232.5117
1127.644, 236.3745
1128.739, 290.1689
1129.835, 260.9651
1130.930, 205.7285
1132.024, 165.3521
1133.119, 228.0515
1134.214, 276.7190
1135.308, 128.3154
1136.402, 225.9202
1137.496, 189.4949
1138.590, 147.0398
1139.684, 203.5549
1140.777, 102.8875
1141.871, 133.3433
1142.964, 142.7703
1144.057, 180.1689
1145.150, 95.54077
1146.243, 106.8840
1147.335, 98.19946
1148.428, 159.4888
1149.520, 124.7554
1150.612, 195.0017
1151.704, 89.22852
1152.796, 90.43237
1153.887, 43.62036
1154.979, 107.7957
1156.070, 45.29028
1157.161, 59.44580
1158.252, 132.6021
1159.343, 35.02075
1160.433, 116.1792
1161.524, 62.34546
1162.614, 65.52295
1163.704, 44.69653
1164.794, 81.88550
1165.884, 27.08057
1166.974, 101.2927
1168.063, 53.52808
1169.153, 58.77808
1170.242, 42.04883
1171.331, 40.34058
1172.420, 18.63892
1173.508, 5.939453
1174.597, 6.756836
1175.685, 64.54956
1176.774, 0.8642580
1177.862, 62.18823
1178.950, 26.52832
1180.037, 22.88550
1181.125, 12.89014
1182.212, 51.03052
1183.300, 12.03955
1184.387, 32.06982
1185.474, 61.07886
1186.560, 7.097168
1187.647, 11.79565
1188.733, 25.78149
1189.820, 3.734131
1190.906, 43.78906
1191.992, 16.76318
1193.078, 3.721436
1194.163, 55.49585
1195.249, 74.50952
1196.334, 15.86328
1197.419, 54.72925
1198.504, 47.75049
1199.589, 31.41431
1200.674, 34.81958
1201.758, 2.185791
1202.843, 63.88672
1203.927, 1.719727
1205.011, 17.80835
1206.095, 51.24536
1207.179, 55.55176
1208.262, 5.397461
1209.345, 20.67749
1210.429, 13.08691
1211.512, 28.16772
1212.595, 14.86450
1213.677, 28.94092
1214.760, 47.06836
1215.842, 73.04004
1216.925, 23.12744
1218.007, 56.95679
1219.089, 19.53564
1220.171, 28.36401
1221.252, 82.24854
1222.334, 64.18896
1223.415, 37.08081
1224.496, 24.06201
1225.577, 11.82202
1226.658, 32.91919
1227.738, 48.69043
1228.819, 4.504395
1229.899, 38.36426
1230.979, 14.66602
1232.060, 80.14795
1233.139, 13.92480
1234.219, 28.83081
1235.299, 81.72974
1236.378, 110.9495
1237.457, 103.9006
1238.536, 83.81787
1239.615, 19.67603
1240.694, 33.87549
1241.772, 153.0696
1242.851, 58.11523
1243.929, 92.29956
1245.007, 1.629883
1246.085, 48.50244
1247.163, 36.67212
1248.240, 95.83740
1249.318, 31.99927
1250.395, 99.15698
1251.472, 2.311035
1252.549, 73.46191
1253.626, 136.6099
1254.703, 49.75439
1255.779, 94.89624
1256.855, 83.03613
1257.931, 20.17334
1259.007, 149.3081
1260.083, 95.44116
1261.159, 56.57202
1262.234, 64.66284
1263.310, 55.79126
1264.385, 53.45093
1265.460, 95.87598
1266.535, 52.00073
1267.610, 71.12476
1268.684, 44.34399
1269.758, 24.30811
1270.833, 22.20117
1271.907, 57.23071
1272.981, 35.30859
1274.054, 66.43213
1275.128, 99.39941
1276.201, 86.35571
1277.275, 113.8916
1278.348, 108.9673
1279.421, 128.1907
1280.493, 112.0352
1281.566, 102.0664
1282.638, 130.4856
1283.711, 71.98218
1284.783, 7.957520
1285.855, 57.92358
1286.927, 46.07544
1287.998, 5.787109
1289.070, 26.96069
1290.141, 39.11426
1291.212, 28.02588
1292.283, 34.96191
1293.354, 14.82202
1294.425, 73.84863
1295.495, 106.7397
1296.566, 89.14185
1297.636, 78.09863
1298.706, 70.07227
1299.776, 107.7151
1300.845, 50.63281
1301.915, 110.4705
1302.984, 86.26562
1304.054, 26.91748
1305.123, 43.97974
1306.191, 74.77759
1307.260, 97.85327
1308.329, 62.79004
1309.397, 13.93848
1310.465, 101.8425
1311.534, 62.91968
1312.602, 94.58643
1313.669, 139.6118
1314.737, 22.77490
1315.804, 51.72485
1316.872, 82.46313
1317.939, 41.61792
1319.006, 53.51050
1320.073, 20.56396
1321.139, 41.20068
1322.206, 0.8996580
1323.272, 2.427979
1324.338, 18.34863
1325.404, 23.11670
1326.470, 24.66724
1327.536, 20.33301
1328.601, 24.59448
1329.667, 19.48267
1330.732, 6.504150
1331.797, 11.57935
1332.862, 43.13281
1333.926, 41.21289
1334.991, 88.70581
1336.055, 40.94629
1337.120, 72.00635
1338.184, 14.41797
1339.248, 53.18896
1340.311, 87.21729
1341.375, 14.36084
1342.438, 25.57324
1343.502, 21.85669
1344.565, 0.1445310
1345.628, 45.36914
1346.691, 11.33301
1347.753, 43.89429
1348.816, 39.17041
1349.878, 78.48145
1350.940, 128.7981
1352.002, 105.1206
1353.064, 87.42383
1354.126, 124.3035
1355.187, 57.68311
1356.248, 146.0293
1357.310, 81.29785
1358.371, 34.65674
1359.431, 125.9917
1360.492, 55.36060
1361.553, 93.71143
1362.613, 131.0894
1363.673, 190.4612
1364.733, 156.8367
1365.793, 208.2163
1366.853, 196.5952
1367.912, 223.9812
1368.972, 227.3206
