##NAMES=Cassiterite
##RRUFFID=R040072
##IDEAL CHEMISTRY=SnO_2_
##LOCALITY=Bolivia
##OWNER=RRUFF
##SOURCE=University of Arizona Mineral Museum
##DESCRIPTION=Black fragment
##STATUS=The identification of this mineral has been confirmed by X-ray diffraction and chemical analysis
##URL=rruff.info/R040072
##MEASURED CHEMISTRY=Sn_0.99_O_2_
##PIN_ID=L00343
##ORIENTATION=Laser parallel to c* (0 0 1). Fiducial mark perpendicular to laser is parallel to a [1 0 0]
188.436, 0.000
189.818, 7.701
191.200, 0.045
192.581, 5.445
193.963, 11.086
195.343, 21.737
196.724, 26.054
198.105, 32.376
199.485, 40.611
200.865, 7.165
202.245, 38.150
203.624, 42.554
205.004, 20.012
206.383, 29.484
207.762, 54.936
209.140, 58.344
210.519, 9.703
211.897, 77.060
213.275, 149.620
214.653, 269.394
216.030, 299.381
217.408, 384.280
218.785, 432.096
220.162, 377.921
221.538, 446.659
222.915, 373.289
224.291, 412.812
225.667, 228.226
227.042, 302.539
228.418, 314.756
229.793, 259.886
231.168, 343.964
232.543, 238.140
233.917, 288.489
235.292, 284.333
236.666, 322.419
238.040, 332.297
239.413, 309.916
240.787, 373.456
242.160, 344.287
243.533, 402.959
244.906, 406.939
246.278, 400.858
247.651, 460.815
249.023, 385.148
250.395, 491.600
251.766, 425.091
253.138, 482.781
254.509, 468.391
255.880, 418.915
257.250, 434.359
258.621, 349.728
259.991, 434.024
261.361, 538.254
262.731, 471.433
264.101, 390.597
265.470, 339.743
266.839, 423.871
268.208, 353.980
269.577, 397.066
270.945, 293.134
272.313, 250.184
273.681, 158.003
275.049, 43.121
276.417, 89.721
277.784, 46.760
279.151, 46.225
280.518, 56.729
281.885, 28.478
283.251, 39.124
284.617, 7.608
285.983, 60.409
287.349, 22.190
288.715, 35.165
290.080, 40.326
291.445, 54.483
292.810, 81.261
294.174, 15.164
295.539, 47.243
296.903, 21.803
298.267, 50.732
299.631, 122.121
300.994, 57.191
302.357, 157.934
303.720, 85.800
305.083, 67.250
306.446, 45.017
307.808, 31.050
309.170, 93.376
310.532, 1.208
311.894, 79.177
313.256, 31.133
314.617, 23.064
315.978, 72.982
317.339, 86.517
318.699, 115.419
320.060, 46.318
321.420, 109.215
322.780, 164.108
324.139, 105.992
325.499, 157.872
326.858, 89.750
328.217, 124.628
329.576, 67.507
330.934, 98.386
332.293, 132.267
333.651, 100.150
335.009, 160.036
336.367, 81.194
337.724, 137.225
339.081, 126.138
340.438, 82.064
341.795, 201.992
343.152, 136.885
344.508, 190.769
345.864, 98.644
347.220, 86.504
348.576, 81.007
349.931, 36.849
351.286, 60.682
352.641, 20.503
353.996, 38.316
355.351, 22.119
356.705, 41.088
358.059, 20.619
359.413, 51.612
360.767, 17.142
362.120, 66.116
363.473, 52.394
364.826, 10.688
366.179, 93.996
367.532, 3.674
368.884, 95.667
370.236, 31.028
371.588, 74.402
372.940, 61.792
374.291, 27.198
375.643, 41.614
376.994, 52.041
378.344, 71.480
379.695, 17.933
381.045, 15.603
382.395, 42.870
383.745, 25.636
385.095, 66.882
386.444, 31.584
387.794, 31.981
389.143, 26.568
390.491, 61.833
391.840, 29.771
393.188, 28.618
394.537, 37.998
395.884, 15.624
397.232, 14.264
398.580, 74.912
399.927, 19.570
401.274, 68.232
402.621, 10.099
403.967, 13.572
405.314, 90.244
406.660, 26.925
408.006, 53.607
409.352, 17.707
410.697, 40.979
412.042, 0.666
413.387, 15.648
414.732, 32.036
416.077, 37.280
417.421, 39.403
418.765, 10.086
420.109, 59.776
421.453, 110.479
422.797, 70.210
424.140, 129.964
425.483, 67.742
426.826, 51.540
428.168, 78.473
429.511, 1.671
430.853, 52.653
432.195, 78.507
433.537, 62.506
434.878, 91.592
436.220, 108.725
437.561, 7.999
438.902, 106.168
440.242, 5.342
441.583, 16.501
442.923, 68.427
444.263, 48.405
445.603, 75.764
446.942, 41.938
448.282, 89.120
449.621, 107.309
450.960, 79.502
452.298, 152.670
453.637, 97.703
454.975, 181.881
456.313, 144.420
457.651, 234.618
458.989, 298.721
460.326, 256.753
461.663, 462.991
463.000, 481.241
464.337, 552.505
465.673, 741.783
467.010, 673.075
468.346, 881.383
469.682, 750.705
471.017, 909.042
472.353, 850.395
473.688, 781.764
475.023, 891.148
476.358, 720.548
477.692, 827.965
479.026, 796.397
480.361, 831.847
481.694, 949.306
483.028, 908.776
484.362, 1125.258
485.695, 1137.752
487.028, 1221.258
488.361, 1285.777
489.693, 1209.308
491.026, 1400.852
492.358, 1294.409
493.690, 1589.982
495.021, 1689.569
496.353, 1680.169
497.684, 1989.785
499.015, 1609.415
500.346, 1764.060
501.677, 1548.681
503.007, 1401.357
504.337, 1517.793
505.667, 1235.500
506.997, 1432.659
508.327, 1241.168
509.656, 1206.546
510.985, 1213.152
512.314, 987.842
513.643, 1169.476
514.971, 881.576
516.300, 812.773
517.628, 759.298
518.956, 558.551
520.283, 625.564
521.611, 432.411
522.938, 507.856
524.265, 433.396
525.591, 322.390
526.918, 481.525
528.244, 278.562
529.570, 445.307
530.896, 543.388
532.222, 560.851
533.547, 805.447
534.873, 745.598
536.198, 1044.200
537.523, 1106.398
538.847, 1232.914
540.171, 1451.880
541.496, 1234.896
542.820, 1338.829
544.143, 1120.825
545.467, 1034.952
546.790, 1079.324
548.113, 788.498
549.436, 1030.323
550.759, 857.363
552.081, 880.944
553.404, 963.447
554.726, 728.337
556.047, 856.855
557.369, 653.439
558.690, 668.606
560.011, 673.245
561.332, 486.355
562.653, 656.925
563.974, 474.734
565.294, 512.640
566.614, 549.335
567.934, 337.939
569.254, 481.761
570.573, 342.927
571.892, 460.635
573.211, 425.549
574.530, 327.826
575.849, 411.818
577.167, 269.847
578.485, 420.908
579.803, 314.000
581.121, 355.132
582.438, 427.295
583.756, 308.494
585.073, 477.726
586.390, 404.991
587.706, 510.740
589.023, 583.070
590.339, 555.432
591.655, 772.826
592.971, 708.254
594.287, 826.714
595.602, 1038.208
596.917, 963.735
598.232, 1256.296
599.547, 1267.893
600.861, 1482.524
602.176, 1673.190
603.490, 1687.890
604.804, 2199.624
606.118, 2188.392
607.431, 2500.194
608.744, 2824.031
610.057, 2989.901
611.370, 3676.805
612.683, 3799.744
613.995, 4545.718
615.307, 5250.725
616.619, 5854.768
617.931, 7481.846
619.243, 7810.958
620.554, 10000.108
621.865, 11819.293
623.176, 14098.517
624.487, 19027.779
625.797, 22107.080
627.108, 31006.422
628.418, 39045.805
629.728, 48155.223
631.037, 61904.688
632.347, 62224.199
633.656, 62663.758
634.965, 57383.355
636.274, 45052.996
637.582, 37972.695
638.891, 27282.428
640.199, 22412.213
641.507, 17572.045
642.815, 13721.925
644.122, 12061.859
645.430, 9061.837
646.737, 8361.867
648.044, 7085.946
649.350, 5909.075
650.657, 5572.262
651.963, 4498.494
653.269, 4324.784
654.575, 3715.121
655.881, 3305.513
657.186, 3297.955
658.491, 2743.447
659.796, 2817.990
661.101, 2487.579
662.406, 2182.214
663.710, 2368.900
665.014, 1944.636
666.318, 2053.411
667.622, 1912.229
668.926, 1806.088
670.229, 1940.990
671.532, 1632.934
672.835, 1824.913
674.138, 1623.933
675.440, 1607.991
676.743, 1707.084
678.045, 1461.216
679.347, 1628.383
680.648, 1485.589
681.950, 1507.833
683.251, 1675.112
684.552, 1404.434
685.853, 1804.792
687.153, 1700.192
688.454, 1711.626
689.754, 2003.096
691.054, 1836.609
692.354, 2279.159
693.653, 2081.747
694.953, 2103.371
696.252, 2185.032
697.551, 1688.727
698.849, 1740.457
700.148, 1390.223
701.446, 1046.023
702.744, 889.859
704.042, 598.730
705.340, 713.640
706.637, 564.592
707.935, 422.583
709.232, 584.618
710.529, 416.692
711.825, 563.802
713.122, 501.951
714.418, 500.133
715.714, 700.351
717.010, 502.601
718.305, 678.883
719.601, 597.198
720.896, 515.544
722.191, 631.922
723.486, 436.332
724.780, 541.773
726.075, 426.246
727.369, 366.750
728.663, 438.287
729.956, 240.855
731.250, 439.454
732.543, 416.083
733.836, 319.742
735.129, 482.431
736.422, 352.150
737.714, 434.898
739.007, 442.676
740.299, 401.483
741.591, 579.320
742.882, 420.185
744.174, 555.079
745.465, 583.002
746.756, 561.953
748.047, 713.932
749.337, 605.939
750.628, 759.974
751.918, 847.036
753.208, 883.125
754.498, 1172.242
755.787, 1146.546
757.077, 1492.716
758.366, 1800.914
759.655, 2000.594
760.944, 2803.844
762.232, 3040.761
763.520, 4195.935
764.809, 5233.788
766.096, 6210.454
767.384, 8703.981
768.672, 9788.733
769.959, 12414.182
771.246, 14468.883
772.533, 14885.022
773.820, 17319.811
775.106, 16194.899
776.392, 15621.866
777.679, 15216.111
778.964, 12422.816
780.250, 11618.848
781.536, 9534.595
782.821, 8161.409
784.106, 7656.221
785.391, 6151.327
786.675, 6151.199
787.960, 5159.530
789.244, 4755.438
790.528, 4607.616
791.812, 3910.835
793.095, 4073.677
794.379, 3601.251
795.662, 3342.253
796.945, 3384.198
798.228, 2914.641
799.510, 3084.213
800.793, 2909.960
802.075, 2589.018
803.357, 2681.093
804.639, 2228.278
805.920, 2216.677
807.201, 2108.685
808.483, 1779.134
809.764, 1885.157
811.044, 1544.194
812.325, 1536.432
813.605, 1485.498
814.885, 1183.585
816.165, 1235.679
817.445, 950.785
818.724, 853.902
820.004, 858.031
821.283, 542.170
822.562, 588.320
823.840, 516.479
825.119, 466.649
826.397, 431.828
827.675, 303.015
828.953, 325.212
830.231, 287.417
831.508, 242.630
832.785, 295.851
834.062, 196.079
835.339, 301.315
836.616, 282.557
837.892, 194.805
839.169, 323.060
840.445, 239.321
841.720, 330.587
842.996, 405.858
844.272, 315.135
845.547, 509.417
846.822, 458.703
848.097, 544.993
849.371, 589.287
850.646, 493.585
851.920, 605.886
853.194, 472.190
854.468, 497.497
855.741, 612.806
857.015, 513.118
858.288, 650.432
859.561, 615.748
860.834, 628.065
862.106, 691.452
863.378, 518.771
864.651, 667.091
865.923, 562.412
867.194, 467.733
868.466, 635.054
869.737, 511.374
871.008, 553.694
872.279, 560.014
873.550, 461.332
874.821, 539.649
876.091, 411.964
877.361, 435.277
878.631, 378.589
879.901, 293.898
881.170, 360.205
882.440, 244.509
883.709, 217.810
884.978, 255.107
886.247, 93.402
887.515, 184.692
888.783, 130.979
890.052, 84.262
891.320, 125.541
892.587, 11.185
893.855, 96.082
895.122, 41.344
896.389, 29.398
897.656, 40.851
898.923, 37.906
900.189, 49.675
901.456, 30.458
902.722, 67.251
903.988, 7.064
905.253, 66.885
906.519, 94.727
907.784, 60.596
909.049, 120.484
910.314, 60.404
911.579, 71.346
912.843, 150.310
914.108, 31.315
915.372, 135.336
916.636, 104.396
917.899, 90.487
919.163, 134.609
920.426, 46.770
921.689, 100.742
922.952, 88.957
924.215, 64.047
925.477, 130.157
926.740, 54.255
928.002, 97.381
929.264, 79.614
930.525, 66.508
931.787, 83.208
933.048, 36.169
934.309, 56.086
935.570, 60.125
936.831, 23.235
938.091, 77.917
939.352, 34.382
940.612, 5.489
941.872, 45.520
943.131, 20.097
944.391, 44.983
945.650, 39.966
946.909, 43.762
948.168, 12.879
949.427, 49.186
950.685, 30.173
951.944, 43.844
953.202, 131.453
954.460, 121.884
955.717, 151.250
956.975, 136.576
958.232, 144.990
959.489, 192.187
960.746, 174.444
962.003, 240.706
963.259, 282.819
964.516, 251.081
965.772, 335.223
967.028, 362.318
968.283, 375.474
969.539, 401.508
970.794, 346.525
972.049, 420.525
973.304, 380.509
974.559, 369.477
975.813, 412.427
977.068, 338.362
978.322, 305.278
979.576, 299.178
980.830, 219.061
982.083, 273.926
983.336, 145.774
984.589, 198.605
985.842, 181.418
987.095, 117.213
988.348, 176.990
989.600, 134.750
990.852, 81.491
992.104, 102.214
993.356, 130.919
994.607, 121.605
995.859, 108.273
997.110, 71.923
998.361, 175.553
999.612, 189.164
1000.862, 185.757
1002.112, 252.331
1003.363, 162.885
1004.613, 216.421
1005.862, 178.937
1007.112, 177.435
1008.361, 218.913
1009.610, 209.372
1010.859, 226.811
1012.108, 226.231
1013.357, 169.631
1014.605, 292.012
1015.853, 216.374
1017.101, 229.716
1018.349, 288.047
1019.597, 278.350
1020.844, 271.702
1022.091, 276.965
1023.338, 260.244
1024.585, 291.513
1025.832, 310.785
1027.078, 281.069
1028.324, 331.073
1029.570, 291.364
1030.816, 381.835
1032.062, 308.675
1033.307, 351.953
1034.552, 372.770
1035.797, 282.220
1037.042, 425.306
1038.287, 372.205
1039.531, 300.155
1040.776, 400.107
1042.020, 298.291
1043.264, 297.314
1044.507, 329.931
1045.751, 248.746
1046.994, 276.518
1048.237, 234.026
1049.480, 195.336
1050.723, 178.396
1051.965, 145.895
1053.207, 137.781
1054.449, 138.641
1055.691, 63.436
1056.933, 138.910
1058.174, 72.552
1059.416, 70.964
1060.657, 57.872
1061.898, 58.286
1063.139, 72.866
1064.379, 20.662
1065.619, 5.776
1066.860, 19.541
1068.100, 14.442
1069.339, 20.695
1070.579, 24.044
1071.818, 2.962
1073.057, 72.248
1074.296, 18.054
1075.535, 8.695
1076.774, 40.908
1078.012, 10.514
1079.250, 6.671
1080.488, 16.293
1081.726, 2.223
1082.964, 91.932
1084.201, 2.303
1085.438, 23.583
1086.675, 29.102
1087.912, 55.337
1089.149, 66.543
1090.385, 72.804
1091.621, 50.979
1092.857, 95.259
1094.093, 79.402
1095.329, 75.531
1096.564, 118.673
1097.800, 69.806
1099.035, 92.886
1100.270, 99.950
1101.504, 83.999
1102.739, 150.031
1103.973, 112.049
1105.207, 134.052
1106.441, 151.040
1107.675, 153.014
1108.908, 196.971
1110.142, 119.911
1111.375, 190.834
1112.608, 215.741
1113.841, 186.630
1115.073, 175.503
1116.305, 199.358
1117.538, 171.195
1118.770, 224.014
1120.001, 180.814
1121.233, 211.595
1122.464, 216.358
1123.696, 142.103
1124.927, 237.832
1126.157, 204.541
1127.388, 206.233
1128.618, 230.907
1129.849, 207.564
1131.079, 243.134
1132.309, 224.755
1133.538, 185.359
1134.768, 248.948
1135.997, 233.519
1137.226, 160.075
1138.455, 232.615
1139.684, 142.141
1140.912, 180.654
1142.140, 190.160
1143.369, 156.649
1144.596, 169.124
1145.824, 129.586
1147.052, 190.039
1148.279, 135.483
1149.506, 128.912
1150.733, 120.326
1151.960, 165.731
1153.187, 108.120
1154.413, 153.496
1155.639, 115.866
1156.865, 114.220
1158.091, 109.564
1159.317, 102.905
1160.542, 135.221
1161.767, 93.525
1162.992, 50.817
1164.217, 84.089
1165.442, 84.351
1166.666, 41.594
1167.891, 66.824
1169.115, 19.042
1170.338, 82.241
1171.562, 102.429
1172.786, 54.709
1174.009, 71.867
1175.232, 53.016
1176.455, 47.212
1177.678, 81.338
1178.900, 32.453
1180.123, 110.606
1181.345, 94.703
1182.567, 49.782
1183.789, 101.935
1185.010, 80.030
1186.232, 72.382
1187.453, 87.522
1188.674, 93.725
1189.895, 108.930
1191.115, 59.833
1192.336, 44.940
1193.556, 92.907
1194.776, 48.844
1195.996, 84.029
1197.216, 72.833
1198.435, 55.407
1199.655, 38.520
1200.874, 70.246
1202.093, 30.017
1203.311, 60.063
1204.530, 0.435
1205.748, 33.882
1206.966, 41.187
1208.184, 85.991
1209.402, 86.460
1210.620, 87.267
1211.837, 78.082
1213.054, 104.342
1214.271, 130.769
1215.488, 121.217
1216.705, 134.907
1217.921, 82.116
1219.138, 140.376
1220.354, 182.577
1221.570, 128.626
1222.785, 167.882
1224.001, 119.018
1225.216, 203.315
1226.431, 164.600
1227.646, 140.335
1228.861, 139.665
1230.075, 185.317
1231.290, 171.355
1232.504, 224.512
1233.718, 177.356
1234.932, 157.406
1236.145, 186.434
1237.359, 208.356
1238.572, 209.582
1239.785, 211.168
1240.998, 185.533
1242.211, 218.260
1243.423, 200.653
1244.635, 199.156
1245.848, 256.685
1247.059, 202.797
1248.271, 204.023
1249.483, 230.247
1250.694, 167.083
1251.905, 219.125
1253.116, 202.227
1254.327, 194.196
1255.538, 211.627
1256.748, 205.429
1257.958, 224.448
1259.168, 249.708
1260.378, 165.583
1261.588, 204.785
1262.797, 221.755
1264.006, 230.861
1265.215, 226.260
1266.424, 217.254
1267.633, 230.730
1268.842, 247.085
1270.050, 220.658
1271.258, 243.502
1272.466, 179.572
1273.674, 227.706
1274.881, 264.206
1276.089, 185.819
1277.296, 194.685
1278.503, 202.015
1279.710, 193.624
1280.916, 198.571
1282.123, 195.336
1283.329, 175.148
1284.535, 246.023
1285.741, 237.091
1286.947, 219.115
1288.152, 209.384
1289.358, 177.661
1290.563, 192.180
1291.768, 210.646
1292.973, 198.358
1294.177, 219.672
1295.382, 235.492
1296.586, 185.873
1297.790, 212.620
1298.994, 207.709
1300.197, 189.564
1301.401, 210.882
1302.604, 162.388
1303.807, 203.428
1305.010, 218.762
1306.213, 173.608
1307.415, 225.185
1308.618, 193.623
1309.820, 176.100
1311.022, 194.791
1312.223, 204.528
1313.425, 170.619
1314.626, 181.253
1315.828, 123.533
1317.029, 167.563
1318.230, 105.930
1319.430, 147.983
1320.631, 177.071
1321.831, 129.143
1323.031, 145.866
1324.231, 149.782
1325.431, 109.460
1326.630, 109.265
1327.830, 107.983
1329.029, 49.586
1330.228, 103.072
1331.427, 110.665
1332.625, 58.983
1333.824, 101.425
1335.022, 44.320
1336.220, 20.495
1337.418, 55.644
1338.616, 20.944
1339.813, 54.173
1341.010, 45.317
1342.208, 14.431
1343.404, 60.504
1344.601, 33.622
1345.798, 37.615
1346.994, 15.604
1348.190, 13.483
1349.386, 29.349
1350.582, 48.156
1351.778, 26.000
1352.973, 24.673
1354.169, 26.160
1355.364, 18.708
1356.559, 79.199
1357.753, 19.599
1358.948, 77.932
1360.142, 36.243
1361.336, 23.557
1362.530, 45.743
1363.724, 31.865
1364.918, 30.975
1366.111, 38.963
1367.305, 9.884
1368.498, 77.084
1369.690, 117.872
1370.883, 46.600
1372.076, 98.259
1373.268, 67.858
1374.460, 57.407
1375.652, 137.881
1376.844, 106.294
1378.035, 99.647
1379.227, 175.938
1380.418, 124.166
1381.609, 104.335
1382.800, 125.427
1383.991, 38.458
1385.181, 146.427
1386.371, 92.335
1387.562, 45.182
1388.751, 107.967
1389.941, 43.695
1391.131, 72.366
1392.320, 45.985
1393.509, 14.556
1394.698, 50.092
1395.887, 5.922
1397.076, 12.703
1398.264, 0.580
1399.453, 12.922
1400.641, 66.328
1401.829, 24.193
1403.016, 0.347
1404.204, 5.950
1405.391, 60.633
1406.578, 38.398
1407.765, 8.217
1408.952, 31.897
1410.139, 60.052
1411.325, 41.941
1412.512, 26.116
1413.698, 75.354
1414.884, 13.411
1416.069, 44.797
1417.255, 47.115
1418.440, 48.489
1419.625, 11.264
1420.810, 29.249
1421.995, 36.018
1423.180, 38.060
1424.364, 39.718
1425.548, 2.813
1426.732, 13.871
1427.916, 44.169
1429.100, 31.905
1430.284, 19.922
1431.467, 39.841
1432.650, 16.427
1433.833, 51.446
1435.016, 87.774
1436.199, 4.852
1437.381, 71.341
1438.563, 99.418
1439.745, 64.916
1440.927, 150.349
1442.109, 76.304
1443.290, 121.445
1444.472, 215.394
1445.653, 91.291
1446.834, 194.118
1448.015, 217.023
1449.195, 103.112
1450.376, 209.281
1451.556, 212.223
1452.736, 191.577
1453.916, 275.368
1455.096, 198.789
1456.275, 190.303
1457.454, 279.521
1458.634, 205.787
1459.813, 232.798
1460.991, 296.176
1462.170, 134.398
1463.348, 310.411
1464.527, 250.291
1465.705, 181.405
1466.883, 241.606
1468.060, 181.772
1469.238, 98.027
1470.415, 196.552
1471.592, 170.423
1472.769, 115.133
1473.946, 186.572
1475.123, 49.996
1476.299, 160.446
1477.476, 153.605
1478.652, 51.361
1479.828, 159.970
1481.003, 120.576
1482.179, 98.811
1483.354, 172.604
1484.529, 87.667
1485.704, 97.556
1486.879, 143.902
1488.054, 53.824
1489.228, 115.337
1490.403, 124.431
1491.577, 46.226
1492.751, 135.705
1493.924, 143.399
1495.098, 1.834
1496.271, 144.708
1497.444, 52.909
1498.618, 86.096
1499.790, 167.522
1500.963, 30.973
1502.135, 99.436
1503.308, 250.770
1504.480, 70.005
1505.652, 206.629
1506.824, 246.259
1507.995, 85.401
1509.167, 244.087
1510.338, 206.035
1511.509, 102.802
1512.680, 254.673
1513.850, 153.463
1515.021, 86.249
1516.191, 245.673
1517.361, 7.391
1518.531, 71.747
1519.701, 115.199
1520.871, 0.000
##END=



