##NAMES=Cassiterite
##RRUFFID=R040072
##IDEAL CHEMISTRY=SnO_2_
##LOCALITY=Bolivia
##OWNER=RRUFF
##SOURCE=University of Arizona Mineral Museum
##DESCRIPTION=Black fragment
##STATUS=The identification of this mineral has been confirmed by X-ray diffraction and chemical analysis
##URL=rruff.info/R040072
##MEASURED CHEMISTRY=Sn_0.99_O_2_
##PIN_ID=M00007
##ORIENTATION=Laser parallel to a* (1 0 0). Fiducial mark perpendicular to laser is parallel to c [0 0 1]
200.717, 0.000
202.093, 32.665
203.470, 31.103
204.846, 0.497
206.221, 9.228
207.597, 0.032
208.972, 9.938
210.347, 1.082
211.722, 39.942
213.097, 27.927
214.472, 82.688
215.846, 92.004
217.220, 161.819
218.594, 164.626
219.967, 198.038
221.341, 214.192
222.714, 191.739
224.087, 149.811
225.460, 164.367
226.832, 137.219
228.204, 113.619
229.577, 107.277
230.948, 90.840
232.320, 94.505
233.692, 77.528
235.063, 64.540
236.434, 49.724
237.805, 37.796
239.175, 26.529
240.545, 29.061
241.916, 32.571
243.286, 36.159
244.655, 42.690
246.025, 103.927
247.394, 69.063
248.763, 92.371
250.132, 122.682
251.501, 71.058
252.869, 112.328
254.237, 52.787
255.605, 88.138
256.973, 129.800
258.340, 99.790
259.708, 121.522
261.075, 87.542
262.442, 82.036
263.808, 85.935
265.175, 92.186
266.541, 103.304
267.907, 102.843
269.273, 73.299
270.639, 105.563
272.004, 80.066
273.369, 68.893
274.734, 81.501
276.099, 26.010
277.463, 17.252
278.828, 8.158
280.192, 40.233
281.556, 16.805
282.919, 0.209
284.283, 27.172
285.646, 51.455
287.009, 48.263
288.372, 74.554
289.734, 31.685
291.097, 27.424
292.459, 53.052
293.821, 48.000
295.183, 37.049
296.544, 66.662
297.905, 101.095
299.266, 82.485
300.627, 68.839
301.988, 36.105
303.348, 45.202
304.709, 59.190
306.069, 63.176
307.428, 76.158
308.788, 50.133
310.147, 74.098
311.507, 59.142
312.865, 4.846
314.224, 40.408
315.583, 52.489
316.941, 20.446
318.299, 48.327
319.657, 25.191
321.015, 38.031
322.372, 41.840
323.729, 49.611
325.086, 73.312
326.443, 97.984
327.800, 32.616
329.156, 14.214
330.512, 59.779
331.868, 44.325
333.224, 54.848
334.579, 70.345
335.935, 38.823
337.290, 18.284
338.645, 64.718
339.999, 41.124
341.354, 65.509
342.708, 16.875
344.062, 28.229
345.416, 11.575
346.769, 9.908
348.123, 12.770
349.476, 47.547
350.829, 34.857
352.182, 22.161
353.534, 3.460
354.887, 10.753
356.239, 10.969
357.591, 4.301
358.942, 22.433
360.294, 15.177
361.645, 52.937
362.996, 16.732
364.347, 19.871
365.698, 55.082
367.048, 66.384
368.398, 1.209
369.748, 64.262
371.098, 8.847
372.448, 0.516
373.797, 57.238
375.146, 0.957
376.495, 50.927
377.844, 44.901
379.192, 9.037
380.540, 24.098
381.889, 6.317
383.236, 21.379
384.584, 33.987
385.932, 10.503
387.279, 6.940
388.626, 21.305
389.973, 37.597
391.319, 48.813
392.666, 56.300
394.012, 53.653
395.358, 64.082
396.704, 50.051
398.049, 46.908
399.394, 69.642
400.740, 71.264
402.084, 54.732
403.429, 66.123
404.774, 97.391
406.118, 119.461
407.462, 123.514
408.806, 110.755
410.150, 126.777
411.493, 79.829
412.836, 108.967
414.179, 90.833
415.522, 75.824
416.865, 78.480
418.207, 103.299
419.549, 53.214
420.891, 73.970
422.233, 53.777
423.575, 68.407
424.916, 39.990
426.257, 29.575
427.598, 51.154
428.939, 38.764
430.279, 53.359
431.619, 49.812
432.959, 72.390
434.299, 63.848
435.639, 76.246
436.978, 99.658
438.318, 84.605
439.657, 94.849
440.996, 76.851
442.334, 88.903
443.673, 95.359
445.011, 86.704
446.349, 35.247
447.687, 65.918
449.024, 49.535
450.361, 62.378
451.699, 69.247
453.036, 50.931
454.372, 53.351
455.709, 61.700
457.045, 77.815
458.381, 83.495
459.717, 75.457
461.053, 99.342
462.388, 88.059
463.724, 133.334
465.059, 143.832
466.394, 160.546
467.728, 196.313
469.063, 208.204
470.397, 182.871
471.731, 225.780
473.065, 228.584
474.398, 279.404
475.732, 288.050
477.065, 278.861
478.398, 280.139
479.731, 282.963
481.063, 317.474
482.396, 338.247
483.728, 312.101
485.060, 357.049
486.391, 401.168
487.723, 453.411
489.054, 456.276
490.385, 476.817
491.716, 527.959
493.047, 526.019
494.377, 600.191
495.708, 641.444
497.038, 652.541
498.368, 699.446
499.697, 712.727
501.027, 612.907
502.356, 645.222
503.685, 605.229
505.014, 604.369
506.342, 574.358
507.671, 561.350
508.999, 498.164
510.327, 554.487
511.655, 499.771
512.982, 519.980
514.310, 457.000
515.637, 440.153
516.964, 418.383
518.291, 367.511
519.617, 366.122
520.944, 306.241
522.270, 322.041
523.596, 269.163
524.921, 270.101
526.247, 265.841
527.572, 273.885
528.897, 330.067
530.222, 291.271
531.547, 300.968
532.871, 364.132
534.196, 401.823
535.520, 447.000
536.844, 503.121
538.167, 514.638
539.491, 591.895
540.814, 613.756
542.137, 685.705
543.460, 619.020
544.783, 658.388
546.105, 596.660
547.427, 570.919
548.749, 591.241
550.071, 536.634
551.393, 535.076
552.714, 596.554
554.035, 597.025
555.356, 522.543
556.677, 539.008
557.998, 527.465
559.318, 478.022
560.638, 494.593
561.958, 439.102
563.278, 392.666
564.597, 446.300
565.917, 404.939
567.236, 396.582
568.555, 344.229
569.874, 380.882
571.192, 420.540
572.511, 399.202
573.829, 402.423
575.147, 369.544
576.464, 359.224
577.782, 329.910
579.099, 313.541
580.416, 344.239
581.733, 305.896
583.050, 315.608
584.366, 301.233
585.683, 340.826
586.999, 327.527
588.315, 347.189
589.630, 345.925
590.946, 377.665
592.261, 379.443
593.576, 420.228
594.891, 446.022
596.206, 461.824
597.520, 481.636
598.834, 502.465
600.148, 555.310
601.462, 548.169
602.776, 700.041
604.089, 687.938
605.402, 774.860
606.715, 868.801
608.028, 940.753
609.341, 1026.721
610.653, 1156.706
611.965, 1233.707
613.277, 1358.722
614.589, 1493.748
615.901, 1650.790
617.212, 1937.844
618.523, 2210.913
619.834, 2561.994
621.145, 3025.088
622.456, 3651.196
623.766, 4436.315
625.076, 5430.446
626.386, 6971.589
627.696, 8774.744
629.006, 11426.348
630.315, 14738.392
631.624, 17779.781
632.933, 20752.475
634.242, 21385.635
635.551, 20497.771
636.859, 17831.020
638.167, 14404.069
639.475, 11239.166
640.783, 8722.427
642.090, 6963.551
643.398, 5614.479
644.705, 4632.382
646.012, 3901.025
647.318, 3301.592
648.625, 2851.633
649.931, 2597.491
651.237, 2319.154
652.543, 2180.214
653.849, 1948.097
655.155, 1830.460
656.460, 1680.136
657.765, 1620.513
659.070, 1545.752
660.375, 1518.865
661.679, 1463.285
662.984, 1444.691
664.288, 1432.104
665.592, 1448.524
666.895, 1462.958
668.199, 1452.398
669.502, 1419.844
670.805, 1456.304
672.108, 1428.765
673.411, 1471.266
674.713, 1460.744
676.016, 1443.307
677.318, 1419.622
678.620, 1399.004
679.921, 1411.748
681.223, 1353.605
682.524, 1354.160
683.825, 1346.737
685.126, 1275.337
686.427, 1281.945
687.727, 1283.575
689.028, 1264.215
690.328, 1239.861
691.628, 1196.528
692.927, 1250.202
694.227, 1258.896
695.526, 1239.606
696.825, 1158.324
698.124, 1154.053
699.423, 1031.789
700.721, 951.531
702.020, 810.279
703.318, 775.032
704.616, 689.790
705.913, 630.554
707.211, 597.323
708.508, 548.096
709.805, 556.874
711.102, 525.657
712.399, 527.444
713.695, 482.235
714.992, 487.031
716.288, 474.832
717.584, 472.636
718.879, 455.444
720.175, 467.256
721.470, 460.072
722.765, 438.646
724.060, 380.714
725.355, 386.541
726.649, 363.370
727.944, 324.203
729.238, 324.040
730.532, 312.880
731.825, 317.723
733.119, 283.595
734.412, 285.445
735.705, 275.300
736.998, 269.193
738.291, 253.141
739.584, 223.034
740.876, 247.977
742.168, 254.879
743.460, 212.851
744.752, 209.819
746.043, 205.038
747.334, 170.645
748.626, 128.589
749.916, 161.562
751.207, 130.508
752.498, 178.534
753.788, 164.643
755.078, 112.439
756.368, 140.491
757.658, 85.532
758.947, 119.594
760.237, 82.614
761.526, 53.934
762.815, 61.954
764.104, 24.910
765.392, 11.390
766.680, 33.502
767.969, 23.559
769.257, 14.560
770.544, 36.742
771.832, 22.745
773.119, 36.191
774.406, 51.146
775.693, 50.681
776.980, 55.908
778.267, 37.769
779.553, 43.708
780.839, 38.754
782.125, 9.817
783.411, 11.247
784.697, 19.229
785.982, 5.277
787.267, 29.338
788.552, 36.341
789.837, 18.452
791.122, 36.618
792.406, 32.804
793.690, 64.886
794.974, 35.088
796.258, 48.347
797.542, 11.625
798.825, 27.920
800.108, 39.231
801.391, 37.567
802.674, 11.924
803.957, 41.291
805.239, 53.683
806.522, 11.106
807.804, 24.540
809.085, 18.010
810.367, 20.442
811.649, 25.090
812.930, 12.380
814.211, 9.862
815.492, 12.646
816.772, 24.151
818.053, 55.653
819.333, 48.512
820.613, 48.135
821.893, 35.139
823.173, 30.627
824.452, 20.112
825.732, 25.594
827.011, 15.072
828.290, 34.546
829.568, 6.016
830.847, 8.518
832.125, 15.935
833.403, 15.385
834.681, 0.829
835.959, 28.266
837.236, 42.699
838.514, 45.127
839.791, 65.767
841.068, 55.971
842.345, 81.385
843.621, 97.795
844.898, 85.200
846.174, 99.600
847.450, 131.995
848.726, 141.385
850.001, 151.598
851.277, 166.149
852.552, 158.523
853.827, 156.891
855.102, 153.685
856.376, 148.612
857.651, 163.964
858.925, 161.311
860.199, 172.653
861.473, 157.989
862.746, 182.319
864.020, 176.644
865.293, 184.964
866.566, 178.279
867.839, 133.589
869.112, 169.892
870.384, 158.191
871.656, 103.483
872.928, 100.770
874.200, 91.054
875.472, 112.341
876.744, 88.622
878.015, 133.898
879.286, 98.167
880.557, 97.432
881.828, 72.690
883.098, 69.943
884.369, 61.971
885.639, 40.436
886.909, 49.676
888.178, 46.909
889.448, 39.139
890.717, 27.362
891.987, 41.579
893.256, 30.789
894.524, 2.009
895.793, 26.181
897.061, 28.364
898.330, 6.461
899.598, 3.695
900.865, 36.846
902.133, 30.988
903.401, 38.124
904.668, 21.255
905.935, 3.623
907.202, 1.510
908.468, 2.396
909.735, 21.681
911.001, 18.195
912.267, 25.848
913.533, 6.117
914.799, 26.898
916.064, 0.090
917.330, 8.906
918.595, 19.889
919.860, 22.862
921.124, 33.827
922.389, 17.812
923.653, 33.796
924.918, 7.230
926.182, 45.753
927.445, 8.662
928.709, 46.597
929.972, 20.485
931.236, 50.451
932.499, 25.322
933.761, 24.184
935.024, 51.037
936.286, 40.543
937.549, 32.548
938.811, 45.208
940.073, 26.556
941.334, 46.426
942.596, 78.323
943.857, 63.104
945.118, 24.093
946.379, 41.035
947.640, 55.816
948.900, 43.736
950.161, 47.854
951.421, 88.999
952.681, 52.405
953.940, 43.889
955.200, 90.907
956.459, 87.104
957.719, 82.499
958.978, 79.499
960.236, 97.675
961.495, 80.374
962.753, 72.761
964.012, 124.448
965.270, 74.274
966.527, 103.227
967.785, 133.874
969.043, 133.538
970.300, 123.195
971.557, 147.847
972.814, 152.493
974.071, 190.133
975.327, 170.768
976.583, 178.389
977.840, 176.011
979.095, 160.971
980.351, 146.505
981.607, 131.734
982.862, 103.517
984.117, 79.072
985.372, 70.616
986.627, 92.884
987.882, 86.461
989.136, 34.033
990.390, 70.598
991.644, 69.159
992.898, 91.713
994.152, 99.840
995.405, 99.380
996.659, 104.344
997.912, 90.876
999.165, 77.404
1000.417, 56.930
1001.670, 43.447
1002.922, 85.957
1004.174, 85.463
1005.426, 74.984
1006.678, 86.547
1007.930, 66.035
1009.181, 77.562
1010.432, 94.088
1011.683, 85.675
1012.934, 91.240
1014.185, 109.801
1015.435, 104.414
1016.685, 86.956
1017.935, 83.728
1019.185, 89.222
1020.435, 88.703
1021.684, 88.917
1022.934, 94.878
1024.183, 91.965
1025.432, 99.489
1026.680, 105.028
1027.929, 109.674
1029.177, 93.207
1030.425, 112.760
1031.673, 141.317
1032.921, 129.013
1034.169, 128.606
1035.416, 137.899
1036.663, 133.557
1037.911, 112.068
1039.157, 128.100
1040.404, 117.568
1041.650, 107.997
1042.897, 145.462
1044.143, 97.846
1045.389, 126.844
1046.634, 135.299
1047.880, 88.544
1049.125, 128.681
1050.371, 103.995
1051.615, 88.319
1052.860, 111.634
1054.105, 39.015
1055.349, 82.858
1056.593, 33.500
1057.837, 51.461
1059.081, 60.790
1060.325, 24.974
1061.568, 54.198
1062.812, 54.428
1064.055, 62.438
1065.298, 44.773
1066.540, 46.041
1067.783, 42.052
1069.025, 38.986
1070.267, 36.113
1071.509, 28.276
1072.751, 26.275
1073.993, 26.428
1075.234, 18.148
1076.475, 34.359
1077.716, 24.003
1078.957, 67.254
1080.198, 12.333
1081.438, 55.532
1082.679, 42.720
1083.919, 37.762
1085.159, 8.881
1086.398, 23.976
1087.638, 25.019
1088.877, 29.118
1090.116, 32.138
1091.355, 36.326
1092.594, 52.484
1093.833, 52.647
1095.071, 38.691
1096.309, 48.833
1097.547, 39.018
1098.785, 39.421
1100.023, 39.439
1101.260, 37.637
1102.498, 36.842
1103.735, 33.182
1104.972, 49.282
1106.208, 37.501
1107.445, 49.732
1108.681, 46.963
1109.918, 57.198
1111.154, 95.428
1112.389, 85.664
1113.625, 80.895
1114.860, 60.128
1116.096, 54.362
1117.331, 81.592
1118.566, 100.819
1119.800, 102.049
1121.035, 96.276
1122.269, 225.500
1123.503, 277.721
1124.737, 202.938
1125.971, 142.153
1127.205, 101.365
1128.438, 97.578
1129.671, 45.788
1130.904, 90.998
1132.137, 59.213
1133.370, 73.424
1134.602, 65.633
1135.834, 74.840
1137.066, 83.043
1138.298, 70.256
1139.530, 100.472
1140.762, 77.684
1141.993, 71.891
1143.224, 83.095
1144.455, 109.301
1145.686, 41.507
1146.917, 86.709
1148.147, 38.908
1149.377, 40.103
1150.607, 49.293
1151.837, 53.481
1153.067, 35.665
1154.296, 24.844
1155.526, 43.018
1156.755, 31.191
1157.984, 30.361
1159.213, 14.526
1160.441, 18.685
1161.670, 18.839
1162.898, 4.988
1164.126, 21.131
1165.354, 4.731
1166.581, 30.399
1167.809, 32.524
1169.036, 13.644
1170.263, 0.241
1171.490, 10.134
1172.717, 33.036
1173.943, 13.038
1175.170, 1.894
1176.396, 12.168
1177.622, 6.224
1178.848, 4.273
1180.073, 3.684
1181.299, 0.624
1182.524, 13.619
1183.749, 3.604
1184.974, 9.404
1186.199, 9.594
1187.423, 8.397
1188.648, 4.381
1189.872, 8.359
1191.096, 15.331
1192.320, 9.703
1193.543, 0.744
1194.767, 41.208
1195.990, 6.155
1197.213, 25.868
1198.436, 26.061
1199.659, 21.065
1200.881, 10.981
1202.104, 9.113
1203.326, 7.215
1204.548, 7.349
1205.770, 0.554
1206.991, 31.467
1208.213, 16.358
1209.434, 24.271
1210.655, 5.211
1211.876, 16.895
1213.096, 28.072
1214.317, 10.012
1215.537, 21.869
1216.757, 34.883
1217.977, 38.716
1219.197, 33.540
1220.417, 38.563
1221.636, 34.995
1222.855, 34.138
1224.074, 30.033
1225.293, 22.865
1226.512, 19.804
1227.731, 36.571
1228.949, 12.351
1230.167, 42.236
1231.385, 53.098
1232.603, 47.932
1233.820, 55.795
1235.038, 51.530
1236.255, 68.335
1237.472, 36.127
1238.689, 70.896
1239.906, 74.651
1241.122, 55.466
1242.338, 77.297
1243.555, 79.326
1244.771, 47.153
1245.986, 52.699
1247.202, 68.452
1248.417, 72.279
1249.633, 65.474
1250.848, 52.260
1252.063, 75.136
1253.277, 75.498
1254.492, 113.247
1255.706, 73.149
1256.920, 107.918
1258.134, 105.477
1259.348, 69.257
1260.562, 92.372
1261.775, 93.415
1262.988, 91.239
1264.201, 115.067
1265.414, 100.764
1266.627, 98.611
1267.839, 136.433
1269.052, 96.612
1270.264, 132.374
1271.476, 79.360
1272.688, 98.436
1273.899, 90.367
1275.111, 88.103
1276.322, 116.663
1277.533, 118.604
1278.744, 134.360
1279.955, 132.510
1281.165, 135.942
1282.376, 107.846
1283.586, 125.575
1284.796, 89.057
1286.006, 105.664
1287.215, 117.216
1288.425, 144.912
1289.634, 114.860
1290.843, 129.693
1292.052, 148.277
1293.261, 126.965
1294.469, 157.636
1295.678, 155.154
1296.886, 163.087
1298.094, 166.286
1299.302, 143.225
1300.509, 165.584
1301.717, 154.758
1302.924, 167.530
1304.131, 139.036
1305.338, 132.321
1306.545, 165.663
1307.752, 173.991
1308.958, 150.214
1310.164, 191.599
1311.370, 171.639
1312.576, 150.964
1313.782, 154.331
1314.987, 155.551
1316.193, 171.695
1317.398, 136.359
1318.603, 119.577
1319.807, 155.766
1321.012, 122.835
1322.216, 140.998
1323.421, 113.124
1324.625, 130.234
1325.829, 102.187
1327.032, 114.228
1328.236, 127.548
1329.439, 116.458
1330.642, 149.525
1331.845, 112.034
1333.048, 118.054
1334.251, 135.043
1335.453, 113.023
1336.656, 93.011
1337.858, 96.399
1339.060, 91.245
1340.261, 80.255
1341.463, 68.086
1342.664, 78.338
1343.866, 54.195
1345.067, 90.016
1346.267, 84.778
1347.468, 78.976
1348.669, 74.275
1349.869, 67.827
1351.069, 64.632
1352.269, 54.908
1353.469, 63.583
1354.668, 55.276
1355.868, 65.868
1357.067, 43.414
1358.266, 49.071
1359.465, 67.636
1360.664, 28.232
1361.862, 84.863
1363.061, 63.492
1364.259, 55.080
1365.457, 84.670
1366.655, 21.226
1367.852, 47.760
1369.050, 52.258
1370.247, 33.710
1371.444, 52.133
1372.641, 70.611
1373.838, 40.972
1375.035, 44.443
1376.231, 25.943
1377.427, 31.128
1378.623, 60.879
1379.819, 46.330
1381.015, 50.777
1382.211, 55.139
1383.406, 56.564
1384.601, 39.980
1385.796, 34.387
1386.991, 8.788
1388.185, 31.182
1389.380, 4.457
1390.574, 44.921
1391.768, 25.315
1392.962, 0.720
1394.156, 30.196
1395.350, 16.579
1396.543, 2.163
1397.736, 36.083
1398.929, 13.316
1400.122, 29.533
1401.315, 5.265
1402.507, 25.918
1403.700, 2.081
1404.892, 4.228
1406.084, 19.360
1407.276, 18.467
1408.467, 23.451
1409.659, 15.611
1410.850, 17.660
1412.041, 0.656
1413.232, 23.632
1414.423, 5.588
1415.614, 2.512
1416.804, 11.579
1417.994, 24.315
1419.184, 5.807
1420.374, 11.945
1421.564, 19.897
1422.753, 4.729
1423.943, 43.549
1425.132, 7.360
1426.321, 40.838
1427.510, 21.046
1428.698, 37.754
1429.887, 49.557
1431.075, 21.353
1432.263, 12.858
1433.451, 11.070
1434.639, 35.718
1435.827, 19.507
1437.014, 20.290
1438.201, 47.072
1439.388, 3.854
1440.575, 30.599
1441.762, 28.274
1442.949, 63.074
1444.135, 1.139
1445.321, 7.523
1446.507, 29.182
1447.693, 77.797
1448.879, 52.478
1450.064, 54.040
1451.250, 72.745
1452.435, 39.218
1453.620, 77.809
1454.805, 59.307
1455.989, 49.983
1457.174, 69.378
1458.358, 68.949
1459.542, 90.570
1460.726, 95.319
1461.910, 86.792
1463.093, 74.812
1464.277, 76.594
1465.460, 90.424
1466.643, 80.579
1467.826, 92.749
1469.009, 110.726
1470.191, 103.682
1471.373, 84.944
1472.556, 100.660
1473.738, 85.054
1474.919, 71.699
1476.101, 83.787
1477.283, 60.774
1478.464, 75.224
1479.645, 54.488
1480.826, 100.303
1482.007, 89.131
1483.187, 83.513
1484.368, 81.485
1485.548, 52.346
1486.728, 81.773
1487.908, 68.243
1489.088, 48.600
1490.268, 61.213
1491.447, 63.604
1492.626, 37.932
1493.805, 48.332
1494.984, 37.556
1496.163, 91.933
1497.341, 52.039
1498.520, 79.208
1499.698, 88.219
1500.876, 65.104
1502.054, 58.877
1503.232, 92.521
1504.409, 87.075
1505.586, 61.567
1506.763, 96.027
1507.940, 113.519
1509.117, 107.042
1510.294, 122.528
1511.470, 85.949
1512.647, 115.115
1513.823, 109.305
1514.999, 85.637
1516.174, 96.969
1517.350, 69.308
1518.526, 99.676
1519.701, 112.111
1520.876, 63.661
1522.051, 65.379
1523.226, 114.307
1524.400, 32.438
1525.574, 46.767
1526.749, 24.323
1527.923, 72.175
1529.097, 50.423
1530.270, 30.164
1531.444, 37.522
1532.617, 18.730
1533.790, 22.155
1534.963, 0.551
1536.136, 0.000
##END=



