##NAMES=Catapleiite
##RRUFFID=R060198
##IDEAL CHEMISTRY=Na_2_Zr^4+^Si_3_O_9_&#183;2H_2_O
##LOCALITY=Mont Saint-Hilaire, Rouville County, Quebec, Canada
##OWNER=RRUFF
##SOURCE=Royal Ontario Museum
##DESCRIPTION=Tan colored pseudohexagonal tabular crystals
##STATUS=The identification of this mineral has been confirmed by X-ray diffraction and chemical analysis
##URL=rruff.info/R060198
##MEASURED CHEMISTRY=(Na_1.92_Ca_0.04_[box]_0.04_)_Σ=2_Zr_1.00_Si_3.00_O_9_·2H_2_O
##PIN_ID=L00755
##ORIENTATION=Laser parallel to -a* (-1 0 0). Fiducial mark perpendicular to laser is parallel to -b [0 -1 0]
95.94800, 0.0000000E+00
97.18200, 13.14111
98.41600, 4.247559
99.64900, 117.0688
100.8830, 68.20361
102.1160, 6.117188
103.3490, 12.48047
104.5820, 192.6284
105.8150, 316.7559
107.0470, 669.5464
108.2800, 610.8921
109.5120, 913.4897
110.7440, 623.3711
111.9760, 508.2603
113.2080, 637.9575
114.4400, 643.2915
115.6710, 764.1831
116.9030, 583.5908
118.1340, 671.5435
119.3650, 498.2998
120.5960, 346.9170
121.8270, 471.2158
123.0580, 414.0039
124.2880, 421.1362
125.5190, 285.4824
126.7490, 427.9321
127.9790, 372.3994
129.2090, 443.8164
130.4390, 556.1274
131.6680, 488.3188
132.8980, 638.5493
134.1270, 620.9780
135.3560, 740.7324
136.5850, 752.6460
137.8140, 871.5684
139.0430, 1018.106
140.2710, 1079.396
141.5000, 1236.614
142.7280, 1013.949
143.9560, 1251.889
145.1840, 1331.543
146.4120, 1259.622
147.6390, 1403.079
148.8670, 1538.003
150.0940, 1472.484
151.3210, 1522.461
152.5490, 1633.925
153.7750, 1618.830
155.0020, 1543.193
156.2290, 1544.024
157.4550, 1558.369
158.6810, 1615.239
159.9080, 1576.646
161.1340, 1668.606
162.3590, 1689.294
163.5850, 1733.263
164.8110, 1744.995
166.0360, 1770.353
167.2610, 1725.976
168.4860, 1691.274
169.7110, 1891.905
170.9360, 1860.001
172.1610, 1950.631
173.3850, 1923.645
174.6100, 1954.345
175.8340, 2007.734
177.0580, 2156.164
178.2820, 2278.029
179.5050, 2396.651
180.7290, 2499.321
181.9520, 2589.399
183.1760, 2746.208
184.3990, 2960.155
185.6220, 3207.182
186.8450, 3443.931
188.0670, 3751.108
189.2900, 3986.724
190.5120, 4365.758
191.7340, 4507.775
192.9560, 4816.357
194.1780, 5284.333
195.4000, 5539.471
196.6220, 5944.205
197.8430, 6173.448
199.0640, 6474.010
200.2860, 6578.149
201.5070, 6784.159
202.7270, 6916.328
203.9480, 7147.263
205.1690, 7046.521
206.3890, 7053.733
207.6090, 6935.638
208.8290, 6761.064
210.0490, 6746.489
211.2690, 6366.409
212.4890, 6061.887
213.7080, 5536.479
214.9280, 5229.033
216.1470, 4675.478
217.3660, 4183.434
218.5850, 3714.531
219.8030, 3297.010
221.0220, 2864.976
222.2400, 2572.117
223.4590, 2211.943
224.6770, 1922.704
225.8950, 1542.401
227.1120, 1455.036
228.3300, 1184.608
229.5480, 1152.121
230.7650, 896.5723
231.9820, 809.9644
233.1990, 675.2979
234.4160, 550.5747
235.6330, 464.7949
236.8490, 370.9409
238.0660, 267.0723
239.2820, 234.1309
240.4980, 168.5605
241.7140, 213.0723
242.9300, 131.2598
244.1460, 114.2915
245.3610, 170.1997
246.5770, 0.1787110
247.7920, 160.1963
249.0070, 115.9800
250.2220, 131.7168
251.4370, 20.20312
252.6510, 71.85547
253.8660, 118.8994
255.0800, 127.9243
256.2940, 169.9243
257.5080, 125.8936
258.7220, 148.2812
259.9360, 105.6528
261.1490, 126.5645
262.3630, 43.36328
263.5760, 16.89307
264.7890, 16.77930
266.0020, 59.61475
267.2150, 45.09863
268.4270, 157.6733
269.6400, 114.3696
270.8520, 111.1782
272.0640, 136.1001
273.2760, 210.1426
274.4880, 157.3242
275.7000, 85.63184
276.9120, 155.0464
278.1230, 102.5854
279.3340, 63.23584
280.5450, 128.9893
281.7560, 111.8623
282.9670, 163.8530
284.1780, 9.974609
285.3880, 27.81055
286.5980, 18.50391
287.8090, 42.90527
289.0190, 95.56250
290.2290, 30.92822
291.4380, 109.1865
292.6480, 74.34570
293.8570, 155.4077
295.0670, 253.3765
296.2760, 208.2573
297.4850, 209.0503
298.6930, 162.7578
299.9020, 142.3818
301.1110, 177.9233
302.3190, 188.3857
303.5270, 79.77148
304.7350, 94.07910
305.9430, 76.31006
307.1510, 165.4673
308.3580, 12.55371
309.5660, 151.5640
310.7730, 39.50732
311.9800, 103.3799
313.1870, 185.1807
314.3940, 254.9062
315.6010, 150.5547
316.8070, 137.1235
318.0130, 144.5840
319.2200, 252.9644
320.4260, 251.2261
321.6310, 312.4111
322.8370, 361.5254
324.0430, 334.5679
325.2480, 485.5288
326.4540, 311.3735
327.6590, 323.0566
328.8640, 372.5078
330.0680, 426.7437
331.2730, 364.7197
332.4780, 418.4941
333.6820, 411.1045
334.8860, 367.5239
336.0900, 418.7822
337.2940, 247.9717
338.4980, 299.0737
339.7010, 300.1187
340.9050, 367.1157
342.1080, 375.5610
343.3110, 347.9976
344.5140, 386.8794
345.7170, 382.7178
346.9200, 337.5117
348.1220, 410.2559
349.3240, 493.9561
350.5270, 577.6182
351.7290, 705.2476
352.9310, 729.8418
354.1320, 780.4058
355.3340, 865.9443
356.5350, 1014.460
357.7370, 1032.950
358.9380, 1182.419
360.1390, 1190.866
361.3400, 1290.293
362.5400, 1229.696
363.7410, 1230.077
364.9410, 1226.438
366.1410, 1169.778
367.3410, 1100.101
368.5410, 1007.404
369.7410, 956.3379
370.9400, 894.7612
372.1400, 830.2192
373.3390, 800.4590
374.5380, 733.7070
375.7370, 696.9399
376.9360, 637.1597
378.1350, 592.3667
379.3330, 622.5615
380.5310, 651.7441
381.7300, 554.7314
382.9280, 584.2788
384.1260, 466.6836
385.3230, 417.7358
386.5210, 485.0537
387.7180, 486.7720
388.9160, 406.3257
390.1130, 411.3135
391.3100, 422.8398
392.5060, 539.6772
393.7030, 526.1123
394.9000, 482.6489
396.0960, 404.8647
397.2920, 490.6909
398.4880, 597.0376
399.6840, 565.4229
400.8800, 621.1235
402.0750, 540.4165
403.2710, 670.8613
404.4660, 724.9072
405.6610, 617.0928
406.8560, 832.1221
408.0510, 1022.259
409.2450, 1025.360
410.4400, 1162.755
411.6340, 1445.032
412.8280, 1471.214
414.0220, 1670.090
415.2160, 1915.144
416.4100, 2283.614
417.6030, 2520.423
418.7970, 3020.529
419.9900, 3438.133
421.1830, 4062.366
422.3760, 4594.887
423.5690, 5200.872
424.7610, 5728.723
425.9540, 5932.646
427.1460, 6286.307
428.3380, 6289.625
429.5300, 6322.877
430.7220, 5645.817
431.9140, 5292.078
433.1050, 4737.400
434.2970, 4136.718
435.4880, 3623.133
436.6790, 3133.157
437.8700, 2656.932
439.0610, 2322.183
440.2510, 2033.229
441.4420, 1756.265
442.6320, 1593.053
443.8220, 1370.661
445.0120, 1319.523
446.2020, 1042.416
447.3910, 1087.448
448.5810, 813.6167
449.7700, 684.5986
450.9600, 693.3477
452.1490, 606.2480
453.3370, 514.8721
454.5260, 501.3657
455.7150, 424.5747
456.9030, 354.8042
458.0910, 434.8672
459.2800, 341.6245
460.4670, 333.1006
461.6550, 271.6357
462.8430, 239.3276
464.0300, 225.3818
465.2180, 221.9287
466.4050, 176.3887
467.5920, 242.7295
468.7790, 183.4253
469.9650, 212.6606
471.1520, 117.9419
472.3380, 169.4302
473.5250, 202.1001
474.7110, 137.5630
475.8970, 260.2251
477.0820, 156.8926
478.2680, 198.3896
479.4540, 170.0576
480.6390, 67.08887
481.8240, 141.3599
483.0090, 262.6519
484.1940, 203.2505
485.3780, 171.9116
486.5630, 268.5059
487.7470, 166.3003
488.9320, 209.1162
490.1160, 245.7822
491.3000, 279.6665
492.4830, 223.6074
493.6670, 309.5654
494.8500, 267.5571
496.0340, 364.5605
497.2170, 331.5669
498.4000, 437.5981
499.5820, 490.6577
500.7650, 459.7295
501.9480, 583.8086
503.1300, 637.8979
504.3120, 623.0010
505.4940, 827.1196
506.6760, 752.2676
507.8580, 853.4375
509.0390, 1079.624
510.2210, 1101.851
511.4020, 1190.363
512.5830, 1319.647
513.7640, 1475.957
514.9450, 1477.523
516.1250, 1684.194
517.3060, 1825.719
518.4860, 2017.603
519.6660, 2080.400
520.8460, 2155.282
522.0260, 2195.232
523.2060, 2092.143
524.3850, 2019.047
525.5650, 1894.059
526.7440, 1878.222
527.9230, 1801.943
529.1020, 1658.918
530.2810, 1458.246
531.4590, 1439.046
532.6380, 1216.137
533.8160, 1152.300
534.9940, 1047.192
536.1720, 945.3545
537.3500, 854.0542
538.5270, 876.7212
539.7050, 775.2832
540.8820, 769.4141
542.0590, 702.3521
543.2360, 695.2676
544.4130, 645.3140
545.5900, 609.0762
546.7660, 580.6885
547.9430, 578.9219
549.1190, 587.3862
550.2950, 598.1719
551.4710, 665.2227
552.6470, 677.2119
553.8220, 772.3320
554.9980, 883.2993
556.1730, 1019.621
557.3480, 1206.467
558.5230, 1380.622
559.6980, 1594.616
560.8730, 1817.342
562.0470, 2128.436
563.2220, 2406.672
564.3960, 2761.296
565.5700, 3071.901
566.7440, 3504.770
567.9170, 3582.474
569.0910, 3704.085
570.2640, 3926.766
571.4380, 3936.199
572.6110, 3784.805
573.7840, 3394.369
574.9570, 3185.063
576.1290, 2748.573
577.3020, 2427.033
578.4740, 2016.477
579.6460, 1657.921
580.8180, 1304.363
581.9900, 1026.803
583.1620, 858.2422
584.3330, 645.7939
585.5040, 463.2314
586.6760, 488.6987
587.8470, 303.1323
589.0180, 242.5684
590.1880, 206.0054
591.3590, 80.44385
592.5290, 92.88086
593.7000, 5.324219
594.8700, 37.76660
596.0400, 104.2124
597.2090, 44.34277
598.3790, 49.09717
599.5490, 21.46631
600.7180, 36.96484
601.8870, 59.39453
603.0560, 29.82275
604.2250, 63.24658
605.3940, 107.6675
606.5620, 34.08398
607.7300, 233.4932
608.8990, 268.8955
610.0670, 304.2900
611.2350, 301.6772
612.4020, 489.4473
613.5700, 688.3057
614.7370, 825.0493
615.9050, 1076.619
617.0720, 1310.548
618.2390, 1706.097
619.4060, 2040.285
620.5720, 2411.779
621.7390, 3104.048
622.9050, 3734.035
624.0710, 4283.291
625.2370, 4936.811
626.4030, 5700.208
627.5690, 6094.940
628.7340, 6085.022
629.9000, 5899.332
631.0650, 5348.301
632.2300, 4560.789
633.3950, 3784.788
634.5600, 3029.730
635.7240, 2601.395
636.8890, 1856.086
638.0530, 1500.882
639.2170, 1195.307
640.3810, 933.0928
641.5450, 692.4595
642.7080, 549.8931
643.8720, 407.6406
645.0350, 238.2163
646.1980, 419.8809
647.3610, 158.9316
648.5240, 290.3081
649.6870, 140.3555
650.8490, 43.61328
652.0120, 176.5244
653.1740, 192.0327
654.3360, 53.86279
655.4980, 97.24414
656.6600, 72.19971
657.8210, 7.534180
658.9830, 44.30420
660.1440, 31.12207
661.3050, 24.77051
662.4660, 37.46191
663.6270, 57.24072
664.7870, 41.62305
665.9480, 14.23145
667.1080, 19.24609
668.2680, 56.16064
669.4280, 27.46484
670.5880, 100.8545
671.7480, 32.14404
672.9070, 24.46680
674.0670, 85.68799
675.2260, 26.97314
676.3850, 60.87305
677.5440, 148.2061
678.7030, 8.433105
679.8610, 43.56641
681.0200, 90.53125
682.1780, 96.46338
683.3360, 66.36279
684.4940, 135.2280
685.6520, 222.0615
686.8090, 122.8647
687.9670, 111.6357
689.1240, 140.3730
690.2810, 79.07861
691.4380, 101.7495
692.5950, 77.38721
693.7520, 127.9897
694.9080, 54.55811
696.0650, 18.09033
697.2210, 20.58008
698.3770, 97.02783
699.5330, 10.56055
700.6880, 172.7925
701.8440, 18.11230
702.9990, 69.38672
704.1550, 81.62305
705.3100, 40.82275
706.4650, 79.98096
707.6190, 116.1011
708.7740, 103.1841
709.9290, 164.2295
711.0830, 125.2388
712.2370, 141.2109
713.3910, 110.1455
714.5450, 156.0425
715.6980, 167.9033
716.8520, 183.7275
718.0050, 201.5161
719.1580, 206.2681
720.3110, 193.9849
721.4640, 175.6650
722.6170, 143.3096
723.7700, 192.2397
724.9220, 162.4878
726.0740, 271.0220
727.2260, 327.5205
728.3780, 320.9829
729.5300, 410.4087
730.6810, 318.7988
731.8330, 360.1519
732.9840, 384.5557
734.1350, 367.8364
735.2860, 360.0806
736.4370, 307.2168
737.5880, 209.3882
738.7380, 454.3569
739.8880, 362.4561
741.0390, 418.7622
742.1890, 200.7881
743.3380, 261.2095
744.4880, 273.3281
745.6380, 176.2446
746.7870, 278.1255
747.9360, 164.9692
749.0850, 200.7769
750.2340, 62.54883
751.3830, 50.34082
752.5310, 63.03125
753.6800, 101.6826
754.8280, 18.29590
755.9760, 99.85645
757.1240, 35.37988
758.2720, 9.141602
759.4190, 21.72900
760.5670, 15.61133
761.7140, 22.10059
762.8610, 26.63818
764.0080, 104.7427
765.1550, 62.71533
766.3020, 68.78125
767.4480, 72.94287
768.5950, 36.20215
769.7410, 172.5396
770.8870, 22.02588
772.0330, 85.58203
773.1780, 2.241699
774.3240, 37.04004
775.4690, 53.71924
776.6140, 64.56299
777.7590, 7.497559
778.9040, 15.50781
780.0490, 3.682129
781.1940, 9.632813
782.3380, 23.79102
783.4820, 74.01611
784.6260, 49.33398
785.7700, 23.72998
786.9140, 115.1914
788.0580, 103.7642
789.2010, 51.69385
790.3450, 62.45020
791.4880, 90.71045
792.6310, 66.58252
793.7730, 36.68359
794.9160, 147.8516
796.0590, 108.4565
797.2010, 31.04248
798.3430, 61.75781
799.4850, 5.595703
800.6270, 125.4331
801.7690, 62.33008
802.9100, 27.61475
804.0520, 3.618652
805.1930, 68.69727
806.3340, 90.45654
807.4750, 78.97998
808.6160, 136.0093
809.7560, 15.72314
810.8970, 47.35742
812.0370, 7.240234
813.1770, 55.83105
814.3170, 97.86475
815.4570, 22.07129
816.5960, 47.07471
817.7360, 60.63330
818.8750, 53.36475
820.0140, 133.0981
821.1530, 137.6821
822.2920, 182.5327
823.4310, 202.5156
824.5690, 199.2710
825.7070, 339.9580
826.8460, 308.7451
827.9840, 496.2554
829.1220, 547.8413
830.2590, 535.3057
831.3970, 514.9639
832.5340, 639.2964
833.6710, 444.1318
834.8080, 729.0137
835.9450, 650.4707
837.0820, 673.5576
838.2190, 608.2998
839.3550, 511.9395
840.4910, 709.2192
841.6270, 515.5356
842.7630, 600.6240
843.8990, 565.9067
845.0350, 466.3267
846.1700, 453.6812
847.3060, 511.2783
848.4410, 520.7012
849.5760, 497.1787
850.7100, 361.5161
851.8450, 331.0356
852.9800, 362.5942
854.1140, 308.1621
855.2480, 316.7197
856.3820, 277.7954
857.5160, 185.8062
858.6500, 211.3350
859.7830, 166.7412
860.9170, 172.2534
862.0500, 42.72607
863.1830, 91.22266
864.3160, 54.71143
865.4480, 84.19287
866.5810, 51.66748
867.7130, 69.13623
868.8460, 7.400879
869.9780, 76.05469
871.1100, 82.50537
872.2410, 27.04932
873.3730, 71.38916
874.5050, 49.82373
875.6360, 115.2554
876.7670, 20.31641
877.8980, 34.10547
879.0290, 31.47510
880.1590, 15.06348
881.2900, 63.34424
882.4200, 67.75098
883.5500, 100.1558
884.6800, 73.55908
885.8100, 74.96338
886.9400, 5.023438
888.0690, 72.89404
889.1990, 16.91846
890.3280, 75.11035
891.4570, 91.93408
892.5860, 128.1299
893.7140, 140.6812
894.8430, 163.9170
895.9710, 121.3740
897.1000, 263.1094
898.2280, 232.5688
899.3560, 428.7598
900.4830, 537.0674
901.6110, 526.0337
902.7380, 803.6440
903.8660, 1011.021
904.9930, 1126.733
906.1200, 1433.922
907.2460, 1490.596
908.3730, 1929.320
909.5000, 2057.318
910.6260, 2205.284
911.7520, 2355.142
912.8780, 2287.366
914.0040, 2494.225
915.1290, 2443.500
916.2550, 2822.705
917.3800, 3079.594
918.5050, 3499.651
919.6300, 3953.624
920.7550, 4530.206
921.8800, 5328.461
923.0040, 6069.044
924.1290, 6800.415
925.2530, 7850.129
926.3770, 8865.255
927.5010, 9793.055
928.6250, 10488.80
929.7480, 11079.99
930.8720, 11503.29
931.9950, 11681.18
933.1180, 11578.05
934.2410, 11008.11
935.3640, 10418.82
936.4860, 9569.131
937.6090, 8804.498
938.7310, 7965.650
939.8530, 7331.895
940.9750, 6702.297
942.0970, 6450.748
943.2180, 6124.250
944.3400, 5826.816
945.4610, 5445.352
946.5820, 5051.963
947.7030, 4764.620
948.8240, 4138.375
949.9450, 3656.192
951.0650, 3065.739
952.1860, 2658.641
953.3060, 2270.575
954.4260, 1926.560
955.5460, 1665.577
956.6650, 1470.483
957.7850, 1379.749
958.9040, 1255.928
960.0230, 1276.172
961.1420, 1282.451
962.2610, 1284.765
963.3800, 1175.117
964.4990, 1154.505
965.6170, 1246.947
966.7350, 1155.450
967.8530, 1235.990
968.9710, 1393.572
970.0890, 1380.194
971.2070, 1461.855
972.3240, 1668.565
973.4410, 1799.321
974.5580, 1941.117
975.6750, 2089.953
976.7920, 2320.826
977.9090, 2741.739
979.0250, 3025.693
980.1410, 3395.685
981.2580, 3843.715
982.3740, 4265.783
983.4890, 4854.889
984.6050, 5572.034
985.7200, 6659.217
986.8360, 7384.440
987.9510, 8925.698
989.0660, 10243.00
990.1810, 12285.33
991.2950, 14597.71
992.4100, 16989.12
993.5240, 20138.57
994.6390, 23190.07
995.7530, 26435.60
996.8660, 29871.17
997.9800, 33026.78
999.0940, 36406.43
1000.207, 38654.12
1001.320, 40689.85
1002.433, 42097.61
1003.546, 42697.34
1004.659, 42496.19
1005.772, 42029.07
1006.884, 40895.61
1007.996, 39210.59
1009.108, 37515.60
1010.220, 35163.66
1011.332, 32777.51
1012.444, 30139.64
1013.555, 27640.40
1014.666, 25256.46
1015.777, 22940.20
1016.888, 21118.18
1017.999, 18703.39
1019.110, 17403.78
1020.220, 15729.22
1021.331, 13146.63
1022.441, 11570.39
1023.551, 10078.96
1024.661, 8431.562
1025.770, 7583.219
1026.880, 6880.918
1027.989, 6432.664
1029.098, 5738.466
1030.207, 5093.330
1031.316, 4744.244
1032.425, 4579.217
1033.533, 4423.254
1034.642, 4221.371
1035.750, 4179.562
1036.858, 3964.822
1037.966, 3862.157
1039.073, 3829.558
1040.181, 3624.058
1041.288, 3487.617
1042.396, 3322.253
1043.503, 3030.943
1044.610, 2816.680
1045.716, 2431.484
1046.823, 2282.489
1047.929, 2108.420
1049.036, 1894.398
1050.142, 1901.646
1051.248, 1621.733
1052.353, 1530.013
1053.459, 1293.230
1054.564, 1411.621
1055.670, 1290.962
1056.775, 1274.538
1057.880, 1130.039
1058.985, 1105.535
1060.089, 994.1670
1061.194, 949.2744
1062.298, 1095.120
1063.402, 919.8730
1064.506, 1077.176
1065.610, 924.4199
1066.713, 1056.092
1067.817, 1083.702
1068.920, 1004.891
1070.023, 1238.063
1071.126, 1343.284
1072.229, 1352.088
1073.332, 1553.958
1074.435, 1561.605
1075.537, 1705.334
1076.639, 1993.113
1077.741, 2288.412
1078.843, 2445.179
1079.945, 2850.510
1081.046, 3172.026
1082.148, 3689.900
1083.249, 4238.922
1084.350, 4838.586
1085.451, 5183.279
1086.551, 5647.371
1087.652, 5912.129
1088.752, 6062.909
1089.853, 6083.508
1090.953, 5792.822
1092.053, 5578.572
1093.152, 4966.551
1094.252, 4434.487
1095.351, 3956.833
1096.451, 3269.826
1097.550, 2987.104
1098.649, 2438.709
1099.748, 2235.785
1100.846, 1831.174
1101.945, 1534.305
1103.043, 1503.834
1104.141, 1211.018
1105.239, 1097.359
1106.337, 974.5938
1107.434, 956.8535
1108.532, 796.1377
1109.629, 700.4473
1110.726, 583.2812
1111.823, 622.6396
1112.920, 432.0215
1114.017, 544.4277
1115.113, 389.9219
1116.210, 323.3750
1117.306, 395.8506
1118.402, 375.3486
1119.498, 527.8691
1120.593, 394.4121
1121.689, 375.9775
1122.784, 459.5645
1123.879, 414.1729
1124.974, 340.8955
1126.069, 380.5459
1127.164, 376.2178
1128.259, 333.9092
1129.353, 400.6211
1130.447, 371.6553
1131.541, 192.1045
1132.635, 339.8750
1133.729, 239.6650
1134.822, 145.4746
1135.916, 259.3027
1137.009, 172.1494
1138.102, 163.0146
1139.195, 266.9004
1140.288, 263.8027
1141.380, 219.3760
1142.473, 187.3135
1143.565, 133.3408
1144.657, 202.6436
1145.749, 84.98145
1146.841, 270.9893
1147.932, 174.0117
1149.024, 16.05078
1150.115, 154.1064
1151.206, 167.1797
1152.297, 152.2725
1153.388, 17.60840
1154.479, 158.5264
1155.569, 209.6963
1156.659, 110.8906
1157.750, 205.1025
1158.839, 298.3350
1159.929, 163.5996
1161.019, 178.8809
1162.108, 100.1924
1163.198, 168.5371
1164.287, 49.91602
1165.376, 85.31250
1166.465, 135.7178
1167.553, 77.13477
1168.642, 94.56543
1169.730, 46.00488
1170.818, 81.45605
1171.906, 76.62695
1172.994, 68.38379
1174.082, 69.86035
1175.170, 107.3408
1176.257, 49.82910
1177.344, 5.677734
1178.431, 118.8203
1179.518, 116.3242
1180.605, 8.166992
1181.691, 77.34375
1182.778, 32.14160
1183.864, 23.36328
1184.950, 2.127930
1186.036, 15.38184
1187.122, 3.016602
1188.207, 32.49316
1189.292, 41.99609
1190.378, 59.63477
1191.463, 48.87305
1192.548, 60.40430
1193.632, 37.96484
1194.717, 80.54590
1195.801, 125.1699
1196.886, 129.5664
1197.970, 78.32617
1199.054, 69.13086
1200.137, 11.02246
1201.221, 29.82715
1202.305, 38.70020
1203.388, 182.6016
1204.471, 65.60742
1205.554, 13.65625
1206.637, 111.7246
1207.719, 20.86426
1208.802, 60.02539
1209.884, 35.23340
1210.966, 52.47266
1212.048, 6.753906
1213.130, 25.05664
1214.212, 64.61230
1215.293, 42.99609
1216.374, 37.07031
1217.456, 34.54688
1218.536, 12.84473
1219.617, 24.26270
1220.698, 113.7148
1221.778, 87.25000
1222.859, 34.14746
1223.939, 106.5342
1225.019, 24.91211
1226.099, 117.2764
1227.178, 40.36816
1228.258, 60.06055
1229.337, 76.18750
1230.417, 34.42676
1231.496, 62.65332
1232.574, 33.86816
1233.653, 101.0693
1234.732, 0.2597660
1235.810, 133.4199
1236.888, 105.5674
1237.966, 212.7051
1239.044, 171.8691
1240.122, 39.94629
1241.199, 105.0420
1242.277, 103.1270
1243.354, 128.1992
1244.431, 64.25879
1245.508, 147.3027
1246.585, 193.3340
1247.661, 98.35156
1248.738, 163.3545
1249.814, 136.3428
1250.890, 172.3174
1251.966, 140.2783
1253.042, 144.2256
1254.117, 77.15820
1255.193, 171.0742
1256.268, 123.9756
1257.343, 162.8623
1258.418, 109.7363
1259.493, 192.5938
1260.567, 203.4346
1261.642, 310.2607
1262.716, 167.0703
1263.790, 258.8633
1264.864, 249.6553
1265.938, 186.4326
1267.011, 202.1982
1268.085, 113.9502
1269.158, 226.6865
1270.231, 75.40723
1271.304, 227.1035
1272.377, 35.78320
