##NAMES=Catapleiite
##RRUFFID=R060198
##IDEAL CHEMISTRY=Na_2_Zr^4+^Si_3_O_9_&#183;2H_2_O
##LOCALITY=Mont Saint-Hilaire, Rouville County, Quebec, Canada
##OWNER=RRUFF
##SOURCE=Royal Ontario Museum
##DESCRIPTION=Tan colored pseudohexagonal tabular crystals
##STATUS=The identification of this mineral has been confirmed by X-ray diffraction and chemical analysis
##URL=rruff.info/R060198
##MEASURED CHEMISTRY=(Na_1.92_Ca_0.04_[box]_0.04_)_Σ=2_Zr_1.00_Si_3.00_O_9_·2H_2_O
##PIN_ID=L01747
##ORIENTATION=Laser parallel to c* (0 0 1). Fiducial mark perpendicular to laser is parallel to a [1 0 0]
95.94800, 0.0000000E+00
97.18200, 156.6816
98.41600, 14.61621
99.64900, 126.3975
100.8830, 127.6436
102.1160, 214.7168
103.3490, 103.1670
104.5820, 282.5684
105.8150, 450.0781
107.0470, 1126.403
108.2800, 2490.763
109.5120, 3316.492
110.7440, 1977.904
111.9760, 1233.396
113.2080, 1142.446
114.4400, 1230.627
115.6710, 1574.635
116.9030, 1775.522
118.1340, 1624.462
119.3650, 1475.505
120.5960, 1190.375
121.8270, 932.6572
123.0580, 1264.025
124.2880, 1360.227
125.5190, 1184.066
126.7490, 1285.395
127.9790, 1442.104
129.2090, 1345.096
130.4390, 1671.288
131.6680, 1864.610
132.8980, 1820.011
134.1270, 2041.604
135.3560, 2219.316
136.5850, 2433.945
137.8140, 2570.938
139.0430, 2806.817
140.2710, 3180.422
141.5000, 3131.895
142.7280, 3273.107
143.9560, 3218.586
145.1840, 3403.161
146.4120, 3387.890
147.6390, 3728.832
148.8670, 3811.051
150.0940, 3824.591
151.3210, 4049.504
152.5490, 4110.828
153.7750, 4117.608
155.0020, 4071.884
156.2290, 4028.726
157.4550, 4244.232
158.6810, 4160.391
159.9080, 3973.185
161.1340, 3977.588
162.3590, 3717.600
163.5850, 3744.232
164.8110, 3697.505
166.0360, 3670.434
167.2610, 3297.031
168.4860, 3045.313
169.7110, 2811.441
170.9360, 2638.529
172.1610, 2368.043
173.3850, 2203.623
174.6100, 1961.709
175.8340, 1955.722
177.0580, 1921.861
178.2820, 1765.039
179.5050, 1818.640
180.7290, 1851.222
181.9520, 1799.021
183.1760, 1755.028
184.3990, 1736.953
185.6220, 1871.694
186.8450, 2041.563
188.0670, 2088.218
189.2900, 2192.533
190.5120, 2224.461
191.7340, 2361.802
192.9560, 2539.843
194.1780, 2608.934
195.4000, 2776.066
196.6220, 3011.237
197.8430, 3178.442
199.0640, 3305.676
200.2860, 3490.933
201.5070, 3663.210
202.7270, 4007.503
203.9480, 3982.811
205.1690, 3680.128
206.3890, 3183.453
207.6090, 3263.783
208.8290, 3212.111
210.0490, 3306.434
211.2690, 3088.284
212.4890, 2856.557
213.7080, 2770.623
214.9280, 2756.104
216.1470, 2436.999
217.3660, 2260.082
218.5850, 2035.544
219.8030, 1798.273
221.0220, 1734.186
222.2400, 1406.788
223.4590, 1252.899
224.6770, 1173.179
225.8950, 1175.844
227.1120, 902.6387
228.3300, 796.2393
229.5480, 845.7939
230.7650, 682.3057
231.9820, 571.7734
233.1990, 468.1992
234.4160, 462.5820
235.6330, 443.9229
236.8490, 318.2227
238.0660, 483.4824
239.2820, 379.7041
240.4980, 401.8867
241.7140, 303.0322
242.9300, 233.6445
244.1460, 166.9902
245.3610, 49.03906
246.5770, 172.4580
247.7920, 103.2480
249.0070, 127.5684
250.2220, 12.44141
251.4370, 47.60156
252.6510, 55.51660
253.8660, 145.3701
255.0800, 76.41309
256.2940, 115.5186
257.5080, 159.0361
258.7220, 52.04102
259.9360, 222.3950
261.1490, 117.8086
262.3630, 123.0254
263.5760, 78.03320
264.7890, 141.8594
266.0020, 172.1494
267.2150, 93.70410
268.4270, 75.56641
269.6400, 152.1953
270.8520, 82.55176
272.0640, 199.2686
273.2760, 152.0977
274.4880, 185.0283
275.7000, 167.0693
276.9120, 151.2168
278.1230, 64.47656
279.3340, 99.81641
280.5450, 1.750000
281.7560, 84.24316
282.9670, 92.66895
284.1780, 220.0176
285.3880, 147.2891
286.5980, 373.4697
287.8090, 408.5547
289.0190, 602.5439
290.2290, 589.4385
291.4380, 795.2422
292.6480, 867.9580
293.8570, 962.5908
295.0670, 1108.144
296.2760, 1002.617
297.4850, 1171.016
298.6930, 1225.342
299.9020, 1097.597
301.1110, 918.7832
302.3190, 924.9033
303.5270, 907.9570
304.7350, 656.9482
305.9430, 639.8750
307.1510, 672.7422
308.3580, 567.5498
309.5660, 590.3008
310.7730, 613.9941
311.9800, 506.6328
313.1870, 540.2188
314.3940, 519.7100
315.6010, 386.2324
316.8070, 505.6465
318.0130, 469.0039
319.2200, 433.1758
320.4260, 455.2754
321.6310, 501.1562
322.8370, 444.7979
324.0430, 428.2012
325.2480, 255.2441
326.4540, 360.3193
327.6590, 409.9277
328.8640, 407.0381
330.0680, 195.0244
331.2730, 252.5273
332.4780, 201.6846
333.6820, 146.4492
334.8860, 244.8242
336.0900, 62.50293
337.2940, 155.0732
338.4980, 137.8604
339.7010, 138.6650
340.9050, 137.1836
342.1080, 104.8711
343.3110, 168.9590
344.5140, 135.3936
345.7170, 192.0576
346.9200, 144.4531
348.1220, 179.0918
349.3240, 214.8174
350.5270, 247.5195
351.7290, 299.8408
352.9310, 382.1455
354.1320, 430.3857
355.3340, 294.4619
356.5350, 464.7197
357.7370, 490.4590
358.9380, 458.6846
360.1390, 634.8916
361.3400, 698.0781
362.5400, 748.0596
363.7410, 847.2646
364.9410, 805.4707
366.1410, 912.5576
367.3410, 804.6260
368.5410, 700.6787
369.7410, 744.7178
370.9400, 605.7471
372.1400, 597.2168
373.3390, 736.7812
374.5380, 558.7891
375.7370, 616.7871
376.9360, 666.7822
378.1350, 715.7764
379.3330, 592.7646
380.5310, 541.7500
381.7300, 556.7275
382.9280, 606.7012
384.1260, 543.6689
385.3230, 540.6328
386.5210, 565.5928
387.7180, 508.4727
388.9160, 557.0625
390.1130, 524.6221
391.3100, 608.2002
392.5060, 581.2979
393.7030, 491.6416
394.9000, 531.0605
396.0960, 538.3867
397.2920, 489.8350
398.4880, 618.6865
399.6840, 503.7832
400.8800, 602.3398
402.0750, 593.0781
403.2710, 749.4414
404.4660, 805.0234
405.6610, 864.0811
406.8560, 1018.723
408.0510, 1156.271
409.2450, 1340.383
410.4400, 1570.680
411.6340, 1847.813
412.8280, 2199.006
414.0220, 2581.309
415.2160, 3088.909
416.4100, 3659.106
417.6030, 4409.191
418.7970, 5119.139
419.9900, 5836.146
421.1830, 6867.080
422.3760, 7767.399
423.5690, 8935.445
424.7610, 10040.81
425.9540, 11334.56
427.1460, 12494.42
428.3380, 12985.29
429.5300, 13333.71
430.7220, 13304.99
431.9140, 12543.26
433.1050, 11229.52
434.2970, 10387.77
435.4880, 9000.003
436.6790, 7732.222
437.8700, 6706.428
439.0610, 5669.621
440.2510, 4910.804
441.4420, 4160.971
442.6320, 3616.128
443.8220, 3122.273
445.0120, 2908.405
446.2020, 2600.527
447.3910, 2377.636
448.5810, 1925.734
449.7700, 1716.821
450.9600, 1556.898
452.1490, 1126.964
453.3370, 1160.020
454.5260, 1109.065
455.7150, 871.1006
456.9030, 916.1250
458.0910, 681.1406
459.2800, 749.1455
460.4670, 519.1416
461.6550, 527.1279
462.8430, 477.1074
464.0300, 426.0762
465.2180, 410.0381
466.4050, 414.9941
467.5920, 358.9443
468.7790, 327.8311
469.9650, 301.9980
471.1520, 237.3359
472.3380, 193.2715
473.5250, 171.5361
474.7110, 26.04590
475.8970, 15.65039
477.0820, 135.3008
478.2680, 1.588867
479.4540, 74.90137
480.6390, 100.6162
481.8240, 82.69238
483.0090, 3.811523
484.1940, 17.74902
485.3780, 44.04199
486.5630, 80.85254
487.7470, 71.80469
488.9320, 50.97461
490.1160, 63.75000
491.3000, 127.0957
492.4830, 81.87891
493.6670, 70.49414
494.8500, 15.18262
496.0340, 92.08398
497.2170, 22.65820
498.4000, 28.31836
499.5820, 82.81445
500.7650, 26.07129
501.9480, 16.01562
503.1300, 20.99609
504.3120, 52.02246
505.4940, 70.08008
506.6760, 161.1924
507.8580, 243.3730
509.0390, 302.5801
510.2210, 390.8291
511.4020, 434.1230
512.5830, 477.4658
513.7640, 629.8535
514.9450, 760.7852
516.1250, 722.7900
517.3060, 1077.510
518.4860, 1075.614
519.6660, 1169.757
520.8460, 1437.953
522.0260, 1394.996
523.2060, 1540.784
524.3850, 1519.857
525.5650, 1506.789
526.7440, 1434.803
527.9230, 1428.427
529.1020, 1341.922
530.2810, 1408.292
531.4590, 1321.212
532.6380, 1368.364
533.8160, 1412.540
534.9940, 1452.674
536.1720, 1385.328
537.3500, 1435.062
538.5270, 1357.090
539.7050, 1362.748
540.8820, 1408.924
542.0590, 1457.900
543.2360, 1345.883
544.4130, 1527.741
545.5900, 1388.610
546.7660, 1671.727
547.9430, 1679.965
549.1190, 1700.994
550.2950, 2055.230
551.4710, 1997.346
552.6470, 2395.844
553.8220, 2700.499
554.9980, 3079.517
556.1730, 3407.139
557.3480, 4012.858
558.5230, 4718.953
559.6980, 5455.715
560.8730, 6462.683
562.0470, 7423.932
563.2220, 8499.225
564.3960, 9770.762
565.5700, 11113.48
566.7440, 11980.86
567.9170, 13139.93
569.0910, 14017.14
570.2640, 14766.46
571.4380, 15153.50
572.6110, 14886.24
573.7840, 14696.46
574.9570, 13870.10
576.1290, 12542.91
577.3020, 11162.53
578.4740, 9698.364
579.6460, 8302.959
580.8180, 6857.541
581.9900, 5526.107
583.1620, 4533.660
584.3330, 3701.198
585.5040, 3014.723
586.6760, 2476.231
587.8470, 2067.727
589.0180, 1548.205
590.1880, 1307.669
591.3590, 1067.117
592.5290, 852.5488
593.7000, 655.9648
594.8700, 661.3643
596.0400, 290.1230
597.2090, 415.7109
598.3790, 486.0195
599.5490, 504.0137
600.7180, 313.0723
601.8870, 391.8906
603.0560, 362.5742
604.2250, 328.8057
605.3940, 445.5381
606.5620, 284.8896
607.7300, 399.1953
608.8990, 429.7969
610.0670, 689.9639
611.2350, 790.1123
612.4020, 987.2393
613.5700, 1285.347
614.7370, 1530.437
615.9050, 2053.954
617.0720, 2330.545
618.2390, 2975.958
619.4060, 3637.125
620.5720, 4470.669
621.7390, 6082.620
622.9050, 7012.822
624.0710, 8061.638
625.2370, 9884.488
626.4030, 12577.38
627.5690, 13250.60
628.7340, 14471.24
629.9000, 15352.12
631.0650, 14711.35
632.2300, 13455.08
633.3950, 11776.09
634.5600, 9724.314
635.7240, 7846.376
636.8890, 6027.683
638.0530, 4738.452
639.2170, 3733.383
640.3810, 2983.105
641.5450, 2354.090
642.7080, 2010.559
643.8720, 1462.981
645.0350, 1351.839
646.1980, 1009.549
647.3610, 764.6064
648.5240, 835.0215
649.6870, 654.2969
650.8490, 442.5498
652.0120, 389.5967
653.1740, 414.6230
654.3360, 182.1387
655.4980, 183.5244
656.6600, 272.7080
657.8210, 195.4521
658.9830, 107.8496
660.1440, 193.4521
661.3050, 239.9160
662.4660, 303.4141
663.6270, 234.9629
664.7870, 268.7754
665.9480, 249.0342
667.1080, 222.2666
668.2680, 252.5850
669.4280, 181.8438
670.5880, 270.0430
671.7480, 215.1836
672.9070, 88.26465
674.0670, 219.2656
675.2260, 159.2061
676.3850, 330.0820
677.5440, 259.9014
678.7030, 161.6602
679.8610, 237.3545
681.0200, 292.9873
682.1780, 301.5615
683.3360, 344.0762
684.4940, 364.5332
685.6520, 305.9326
686.8090, 287.2725
687.9670, 357.5498
689.1240, 305.5156
690.2810, 347.9277
691.4380, 269.0254
692.5950, 240.0615
693.7520, 185.0342
694.9080, 141.9385
696.0650, 252.7695
697.2210, 193.5352
698.3770, 270.2344
699.5330, 234.8691
700.6880, 194.4375
701.8440, 195.3213
702.9990, 116.3682
704.1550, 159.7188
705.3100, 192.9961
706.4650, 249.2051
707.6190, 218.3467
708.7740, 195.4209
709.9290, 250.4258
711.0830, 318.3643
712.2370, 202.2393
713.3910, 395.0449
714.5450, 290.7871
715.6980, 383.4658
716.8520, 274.0811
718.0050, 410.6299
719.1580, 514.1172
720.3110, 561.5400
721.4640, 509.9004
722.6170, 668.1973
723.7700, 584.4316
724.9220, 705.6025
726.0740, 755.7119
727.2260, 773.7578
728.3780, 892.7412
729.5300, 954.6611
730.6810, 944.5195
731.8330, 1043.315
732.9840, 1326.050
734.1350, 1219.720
735.2860, 1400.330
736.4370, 1318.878
737.5880, 1096.362
738.7380, 1163.786
739.8880, 1052.147
741.0390, 1073.448
742.1890, 878.6865
743.3380, 888.8633
744.4880, 732.9795
745.6380, 650.0342
746.7870, 664.0293
747.9360, 582.9629
749.0850, 506.8350
750.2340, 374.6465
751.3830, 272.3984
752.5310, 269.0898
753.6800, 157.7217
754.8280, 82.28906
755.9760, 124.7793
757.1240, 98.21875
758.2720, 33.58496
759.4190, 6.857422
760.5670, 54.97559
761.7140, 89.58398
762.8610, 0.9384770
764.0080, 151.2881
765.1550, 227.6982
766.3020, 240.0693
767.4480, 114.1973
768.5950, 249.2227
769.7410, 195.4844
770.8870, 201.9512
772.0330, 207.6270
773.1780, 175.5107
774.3240, 18.58496
775.4690, 175.7588
776.6140, 133.1221
777.7590, 60.65039
778.9040, 139.2969
780.0490, 70.10938
781.1940, 104.0488
782.3380, 50.13379
783.4820, 146.3320
784.6260, 202.6924
785.7700, 36.24414
786.9140, 100.8994
788.0580, 119.6885
789.2010, 135.6201
790.3450, 122.7012
791.4880, 133.9229
792.6310, 119.4854
793.7730, 135.8164
794.9160, 84.65820
796.0590, 66.96484
797.2010, 42.38477
798.3430, 59.92676
799.4850, 0.3876950
800.6270, 90.35156
801.7690, 51.75781
802.9100, 64.25977
804.0520, 74.63477
805.1930, 26.85352
806.3340, 47.15527
807.4750, 170.0391
808.6160, 98.33008
809.7560, 236.3525
810.8970, 72.30957
812.0370, 192.2715
813.1770, 191.7207
814.3170, 273.0713
815.4570, 345.0938
816.5960, 544.4531
817.7360, 392.3125
818.8750, 320.3730
820.0140, 521.4375
821.1530, 344.6494
822.2920, 455.8467
823.4310, 621.8398
824.5690, 678.7275
825.7070, 866.8408
826.8460, 999.8398
827.9840, 1159.810
829.1220, 1276.519
830.2590, 1380.442
831.3970, 1393.293
832.5340, 1548.931
833.6710, 1620.483
834.8080, 1681.703
835.9450, 1612.291
837.0820, 1557.711
838.2190, 1390.887
839.3550, 1409.055
840.4910, 1251.990
841.6270, 1348.770
842.7630, 1167.878
843.8990, 1249.270
845.0350, 963.5205
846.1700, 1173.621
847.3060, 1051.985
848.4410, 1000.625
849.5760, 1001.762
850.7100, 999.4443
851.8450, 940.9473
852.9800, 799.6084
854.1140, 897.0312
855.2480, 675.6729
856.3820, 664.3066
857.5160, 538.9316
858.6500, 401.5488
859.7830, 554.1602
860.9170, 622.7656
862.0500, 435.3662
863.1830, 511.9609
864.3160, 447.5518
865.4480, 375.1406
866.5810, 413.7266
867.7130, 460.3105
868.8460, 430.8926
869.9780, 489.4736
871.1100, 430.0566
872.2410, 397.6396
873.3730, 400.2236
874.5050, 550.8096
875.6360, 403.3994
876.7670, 583.9912
877.8980, 535.5889
879.0290, 591.1914
880.1590, 510.7979
881.2900, 593.4121
882.4200, 520.0322
883.5500, 410.6602
884.6800, 511.2969
885.8100, 399.9424
886.9400, 535.5977
888.0690, 522.2627
889.1990, 476.9395
890.3280, 540.1807
891.4570, 669.1533
892.5860, 673.1396
893.7140, 796.6279
894.8430, 785.8730
895.9710, 1007.666
897.1000, 1035.661
898.2280, 1172.568
899.3560, 1464.247
900.4830, 1959.467
901.6110, 2237.985
902.7380, 2645.835
903.8660, 3453.698
904.9930, 4250.205
906.1200, 4898.208
907.2460, 5479.940
908.3730, 6201.457
909.5000, 6810.130
910.6260, 7480.809
911.7520, 7767.774
912.8780, 8142.576
914.0040, 8184.095
915.1290, 8747.845
916.2550, 9437.114
917.3800, 10444.42
918.5050, 11637.31
919.6300, 13094.34
920.7550, 14885.03
921.8800, 17156.36
923.0040, 19751.83
924.1290, 22209.34
925.2530, 25088.05
926.3770, 28413.80
927.5010, 31845.07
928.6250, 35109.48
929.7480, 38411.15
930.8720, 40797.25
931.9950, 42915.75
933.1180, 44117.04
934.2410, 43432.48
935.3640, 42641.91
936.4860, 40634.32
937.6090, 37776.84
938.7310, 34474.45
939.8530, 31327.20
940.9750, 28610.06
942.0970, 25932.00
943.2180, 23607.05
944.3400, 21722.21
945.4610, 19952.46
946.5820, 18569.83
947.7030, 16845.31
948.8240, 15098.89
949.9450, 13202.58
951.0650, 11179.35
952.1860, 9281.258
953.3060, 7594.266
954.4260, 6402.381
955.5460, 5334.620
956.6650, 4654.956
957.7850, 3920.394
958.9040, 3306.918
960.0230, 3121.569
961.1420, 2595.325
962.2610, 2327.187
963.3800, 2119.122
964.4990, 1959.158
965.6170, 1973.269
966.7350, 1406.461
967.8530, 1498.738
968.9710, 1303.096
970.0890, 1431.543
971.2070, 1365.068
972.3240, 1345.673
973.4410, 1309.359
974.5580, 1509.126
975.6750, 1711.994
976.7920, 1896.946
977.9090, 2091.979
979.0250, 2152.091
980.1410, 2192.290
981.2580, 2361.571
982.3740, 2434.933
983.4890, 2626.373
984.6050, 2917.618
985.7200, 3149.501
986.8360, 3705.188
987.9510, 4275.952
989.0660, 4960.801
990.1810, 5880.729
991.2950, 6961.598
992.4100, 8173.832
993.5240, 9664.006
994.6390, 11329.26
995.7530, 13122.60
996.8660, 15022.02
997.9800, 16958.52
999.0940, 18859.11
1000.207, 20654.77
1001.320, 21992.54
1002.433, 23256.36
1003.546, 24152.29
1004.659, 24654.29
1005.772, 24357.38
1006.884, 24122.55
1007.996, 23186.81
1009.108, 22181.15
1010.220, 21269.57
1011.332, 19849.09
1012.444, 18473.68
1013.555, 17134.36
1014.666, 15739.12
1015.777, 14077.98
1016.888, 12823.91
1017.999, 11604.93
1019.110, 10236.04
1020.220, 9363.237
1021.331, 8261.515
1022.441, 7038.881
1023.551, 6309.331
1024.661, 5685.872
1025.770, 5141.508
1026.880, 4771.232
1027.989, 4198.053
1029.098, 3903.976
1030.207, 3501.010
1031.316, 3054.172
1032.425, 2928.470
1033.533, 2810.881
1034.642, 2615.443
1035.750, 2664.178
1036.858, 2513.089
1037.966, 2321.142
1039.073, 2275.369
1040.181, 2134.762
1041.288, 2171.315
1042.396, 2037.805
1043.503, 1962.430
1044.610, 1808.898
1045.716, 1749.043
1046.823, 1570.328
1047.929, 1399.736
1049.036, 1339.288
1050.142, 1201.965
1051.248, 1151.773
1052.353, 1099.359
1053.459, 908.7666
1054.564, 1027.991
1055.670, 1005.327
1056.775, 967.8750
1057.880, 807.4697
1058.985, 730.5430
1060.089, 600.2773
1061.194, 698.8467
1062.298, 687.6465
1063.402, 545.9121
1064.506, 674.2148
1065.610, 670.6924
1066.713, 550.0312
1067.817, 663.3594
1068.920, 671.9160
1070.023, 605.9482
1071.126, 809.5029
1072.229, 732.3037
1073.332, 754.5283
1074.435, 858.4395
1075.537, 884.3213
1076.639, 1026.679
1077.741, 1104.649
1078.843, 1255.717
1079.945, 1433.013
1081.046, 1511.011
1082.148, 1846.526
1083.249, 2177.573
1084.350, 2321.742
1085.451, 2715.187
1086.551, 3073.812
1087.652, 3155.158
1088.752, 3141.147
1089.853, 3439.900
1090.953, 3027.733
1092.053, 2954.287
1093.152, 2828.279
1094.252, 2495.835
1095.351, 2271.297
1096.451, 2021.716
1097.550, 1654.456
1098.649, 1464.309
1099.748, 1254.521
1100.846, 944.8174
1101.945, 789.8877
1103.043, 627.7559
1104.141, 721.6797
1105.239, 448.8516
1106.337, 482.8848
1107.434, 284.2344
1108.532, 428.3779
1109.629, 313.5742
1110.726, 455.8232
1111.823, 313.9883
1112.920, 316.3408
1114.017, 254.7461
1115.113, 377.2012
1116.210, 469.7070
1117.306, 590.2617
1118.402, 607.8662
1119.498, 819.5205
1120.593, 797.2217
1121.689, 996.9707
1122.784, 1131.768
1123.879, 1169.612
1124.974, 1168.502
1126.069, 998.4375
1127.164, 881.4180
1128.259, 826.8545
1129.353, 731.8223
1130.447, 630.6270
1131.541, 616.7832
1132.635, 431.9814
1133.729, 337.2236
1134.822, 454.5059
1135.916, 343.8281
1137.009, 255.1924
1138.102, 286.5967
1139.195, 229.7393
1140.288, 443.5205
1141.380, 293.0400
1142.473, 396.5977
1143.565, 577.1914
1144.657, 394.8232
1145.749, 604.4893
1146.841, 487.1924
1147.932, 479.2100
1149.024, 509.7012
1150.115, 536.5078
1151.206, 402.3506
1152.297, 655.2266
1153.388, 405.1475
1154.479, 365.1123
1155.569, 433.1279
1156.659, 353.1982
1157.750, 315.3115
1158.839, 355.4912
1159.929, 211.7266
1161.019, 428.0293
1162.108, 372.3994
1163.198, 326.8564
1164.287, 382.3877
1165.376, 345.0029
1166.465, 184.6631
1167.553, 283.3623
1168.642, 215.0879
1169.730, 235.8359
1170.818, 182.6074
1171.906, 174.3984
1172.994, 227.2090
1174.082, 216.0371
1175.170, 52.88086
1176.257, 174.7471
1177.344, 14.63965
1178.431, 214.5537
1179.518, 205.4834
1180.605, 25.42480
1181.691, 161.3779
1182.778, 42.34277
1183.864, 80.31543
1184.950, 66.24805
1186.036, 117.2871
1187.122, 0.7158200
1188.207, 11.28320
1189.292, 43.71191
1190.378, 54.71777
1191.463, 88.74121
1192.548, 144.7969
1193.632, 7.086914
1194.717, 162.0293
1195.801, 22.78223
1196.886, 98.40820
1197.970, 11.64453
1199.054, 89.89062
1200.137, 197.1855
1201.221, 129.5801
1202.305, 238.0439
1203.388, 175.6348
1204.471, 116.3203
1205.554, 79.07422
1206.637, 143.8809
1207.719, 86.92285
1208.802, 200.7246
1209.884, 84.79492
1210.966, 75.92578
1212.048, 132.1162
1213.130, 69.39648
1214.212, 150.7373
1215.293, 103.1787
1216.374, 102.7002
1217.456, 174.3027
1218.536, 51.02539
1219.617, 77.80566
1220.698, 7.659180
1221.778, 163.5537
1222.859, 71.56934
1223.939, 77.25879
1225.019, 109.1709
1226.099, 39.01270
1227.178, 85.74219
1228.258, 67.48047
1229.337, 58.19922
1230.417, 59.89551
1231.496, 19.56836
1232.574, 108.2012
1233.653, 163.8174
1234.732, 87.41602
1235.810, 109.9941
1236.888, 11.55371
1237.966, 156.0625
1239.044, 135.5518
1240.122, 250.0215
1241.199, 77.47168
1242.277, 327.8896
1243.354, 223.2852
1244.431, 237.6582
1245.508, 388.0068
1246.585, 334.3330
1247.661, 392.6348
1248.738, 371.9131
1249.814, 491.1650
1250.890, 411.3965
1251.966, 556.5996
1253.042, 344.7803
1254.117, 338.9336
1255.193, 275.0576
1256.268, 333.0957
1257.343, 489.2266
1258.418, 487.2676
1259.493, 589.2812
1260.567, 510.2656
1261.642, 495.2217
1262.716, 456.1465
1263.790, 554.0410
1264.864, 650.9062
1265.938, 610.7383
1267.011, 583.5400
1268.085, 656.3105
1269.158, 537.0488
1270.231, 562.7559
1271.304, 518.4297
1272.377, 517.0693
1273.450, 550.6758
