##NAMES=Catapleiite
##RRUFFID=R060198
##IDEAL CHEMISTRY=Na_2_Zr^4+^Si_3_O_9_&#183;2H_2_O
##LOCALITY=Mont Saint-Hilaire, Rouville County, Quebec, Canada
##OWNER=RRUFF
##SOURCE=Royal Ontario Museum
##DESCRIPTION=Tan colored pseudohexagonal tabular crystals
##STATUS=The identification of this mineral has been confirmed by X-ray diffraction and chemical analysis
##URL=rruff.info/R060198
##MEASURED CHEMISTRY=(Na_1.92_Ca_0.04_[box]_0.04_)_Σ=2_Zr_1.00_Si_3.00_O_9_·2H_2_O
##PIN_ID=L00848
##ORIENTATION=Laser parallel to (1 0 1). Fiducial mark perpendicular to laser is parallel to b [0 1 0]
95.94800, 0.0000000E+00
97.18200, 55.20410
98.41600, 95.83496
99.64900, 114.6348
100.8830, 4.400391
102.1160, 23.59766
103.3490, 64.60156
104.5820, 267.9277
105.8150, 626.3486
107.0470, 1204.359
108.2800, 1871.605
109.5120, 1798.624
110.7440, 1020.884
111.9760, 831.8926
113.2080, 1028.245
114.4400, 1221.757
115.6710, 1336.838
116.9030, 1356.715
118.1340, 1283.196
119.3650, 1213.195
120.5960, 1101.321
121.8270, 1273.156
123.0580, 1286.388
124.2880, 1419.784
125.5190, 1272.176
126.7490, 1628.432
127.9790, 1560.464
129.2090, 1654.220
130.4390, 1860.879
131.6680, 1917.731
132.8980, 1965.308
134.1270, 2155.516
135.3560, 2503.757
136.5850, 2776.384
137.8140, 2730.424
139.0430, 2850.205
140.2710, 2807.146
141.5000, 2902.807
142.7280, 2766.753
143.9560, 2843.324
145.1840, 2976.471
146.4120, 3068.292
147.6390, 3261.883
148.8670, 3380.330
150.0940, 3706.711
151.3210, 3778.096
152.5490, 3860.546
153.7750, 4037.117
155.0020, 3975.858
156.2290, 3996.816
157.4550, 3925.057
158.6810, 4165.672
159.9080, 3966.675
161.1340, 4086.047
162.3590, 3959.585
163.5850, 3703.255
164.8110, 3537.938
166.0360, 3350.009
167.2610, 3164.403
168.4860, 3008.562
169.7110, 2824.220
170.9360, 2752.148
172.1610, 2585.852
173.3850, 2436.515
174.6100, 2394.818
175.8340, 2291.814
177.0580, 2258.711
178.2820, 2134.104
179.5050, 2174.630
180.7290, 1974.394
181.9520, 2102.208
183.1760, 2083.931
184.3990, 2314.097
185.6220, 2238.164
186.8450, 2430.473
188.0670, 2374.212
189.2900, 2522.948
190.5120, 2650.211
191.7340, 2796.151
192.9560, 3031.552
194.1780, 3153.983
195.4000, 3311.438
196.6220, 3419.910
197.8430, 3630.392
199.0640, 3893.881
200.2860, 4014.370
201.5070, 4238.857
202.7270, 4255.425
203.9480, 4447.806
205.1690, 4206.260
206.3890, 4183.693
207.6090, 4077.089
208.8290, 4021.437
210.0490, 3933.726
211.2690, 3670.952
212.4890, 3647.109
213.7080, 3214.193
214.9280, 3036.194
216.1470, 2747.367
217.3660, 2391.724
218.5850, 2165.690
219.8030, 1932.616
221.0220, 1730.816
222.2400, 1462.778
223.4590, 1082.194
224.6770, 1144.017
225.8950, 799.2476
227.1120, 691.4102
228.3300, 564.5078
229.5480, 505.5396
230.7650, 315.5078
231.9820, 420.4155
233.1990, 378.2622
234.4160, 229.0508
235.6330, 211.7783
236.8490, 157.4370
238.0660, 149.0215
239.2820, 134.5200
240.4980, 27.08154
241.7140, 170.8149
242.9300, 120.7988
244.1460, 66.82617
245.3610, 183.9463
246.5770, 181.1289
247.7920, 229.6738
249.0070, 96.54346
250.2220, 161.6328
251.4370, 193.7476
252.6510, 113.9185
253.8660, 133.1411
255.0800, 42.43604
256.2940, 5.205566
257.5080, 105.7861
258.7220, 117.7310
259.9360, 110.7563
261.1490, 132.1841
262.3630, 18.51416
263.5760, 8.251465
264.7890, 98.12744
266.0020, 226.1450
267.2150, 89.34180
268.4270, 71.68799
269.6400, 136.1787
270.8520, 9.832031
272.0640, 119.6172
273.2760, 179.5605
274.4880, 58.67773
275.7000, 78.93457
276.9120, 37.33740
278.1230, 30.12500
279.3340, 131.4609
280.5450, 155.6675
281.7560, 236.7324
282.9670, 320.6523
284.1780, 424.4307
285.3880, 506.0684
286.5980, 679.5591
287.8090, 849.9033
289.0190, 1028.103
290.2290, 1132.944
291.4380, 1271.091
292.6480, 1313.893
293.8570, 1425.572
295.0670, 1483.136
296.2760, 1506.587
297.4850, 1463.931
298.6930, 1400.171
299.9020, 1258.311
301.1110, 1080.355
302.3190, 1280.307
303.5270, 1017.168
304.7350, 1048.942
305.9430, 959.6323
307.1510, 946.2412
308.3580, 796.7671
309.5660, 830.1978
310.7730, 819.5361
311.9800, 772.7642
313.1870, 821.8706
314.3940, 771.7979
315.6010, 713.3755
316.8070, 624.6338
318.0130, 641.5039
319.2200, 728.0742
320.4260, 644.3296
321.6310, 673.3433
322.8370, 682.2397
324.0430, 836.0547
325.2480, 797.7681
326.4540, 710.2910
327.6590, 560.5361
328.8640, 676.5576
330.0680, 573.3975
331.2730, 615.0137
332.4780, 514.4639
333.6820, 572.8428
334.8860, 419.1787
336.0900, 397.4863
337.2940, 422.2344
338.4980, 376.5078
339.7010, 282.8691
340.9050, 190.1094
342.1080, 233.3770
343.3110, 218.5801
344.5140, 104.2705
345.7170, 220.5342
346.9200, 313.6787
348.1220, 225.8535
349.3240, 380.9668
350.5270, 294.0645
351.7290, 429.1484
352.9310, 502.2197
354.1320, 411.2793
355.3340, 498.3271
356.5350, 606.3623
357.7370, 685.3877
358.9380, 746.2256
360.1390, 892.4072
361.3400, 851.4014
362.5400, 892.3848
363.7410, 950.3545
364.9410, 1040.307
366.1410, 934.2412
367.3410, 826.1621
368.5410, 876.0742
369.7410, 811.8125
370.9400, 816.8750
372.1400, 823.7705
373.3390, 744.3057
374.5380, 772.6074
375.7370, 841.9805
376.9360, 677.9570
378.1350, 722.7734
379.3330, 733.5254
380.5310, 677.1250
381.7300, 605.0674
382.9280, 657.9385
384.1260, 574.6367
385.3230, 607.9121
386.5210, 590.2979
387.7180, 631.8320
388.9160, 509.7637
390.1130, 469.3594
391.3100, 497.1504
392.5060, 501.9307
393.7030, 560.1162
394.9000, 462.2275
396.0960, 427.3311
397.2920, 535.4668
398.4880, 548.4189
399.6840, 601.0723
400.8800, 606.7227
402.0750, 729.5977
403.2710, 825.4932
404.4660, 975.8564
405.6610, 1106.557
406.8560, 1224.040
408.0510, 1495.913
409.2450, 1702.154
410.4400, 1992.373
411.6340, 2514.192
412.8280, 2908.138
414.0220, 3593.057
415.2160, 4065.936
416.4100, 4954.982
417.6030, 5875.322
418.7970, 6941.318
419.9900, 8185.113
421.1830, 9240.578
422.3760, 10538.13
423.5690, 12071.01
424.7610, 13072.20
425.9540, 13834.10
427.1460, 14098.54
428.3380, 14014.42
429.5300, 13429.63
430.7220, 12614.22
431.9140, 11454.80
433.1050, 10200.39
434.2970, 9172.971
435.4880, 7959.553
436.6790, 6805.137
437.8700, 5883.719
439.0610, 5384.305
440.2510, 4565.891
441.4420, 3894.479
442.6320, 3212.072
443.8220, 2907.668
445.0120, 2552.268
446.2020, 2319.871
447.3910, 2071.479
448.5810, 1685.092
449.7700, 1469.711
450.9600, 1384.336
452.1490, 1328.968
453.3370, 1215.605
454.5260, 1071.251
455.7150, 1050.903
456.9030, 883.5654
458.0910, 853.2363
459.2800, 587.9170
460.4670, 552.6113
461.6550, 572.3184
462.8430, 330.0410
464.0300, 402.7803
465.2180, 321.5371
466.4050, 259.3125
467.5920, 248.1074
468.7790, 224.9199
469.9650, 275.7539
471.1520, 276.6084
472.3380, 179.4854
473.5250, 169.3857
474.7110, 82.30957
475.8970, 182.2598
477.0820, 150.2344
478.2680, 142.0244
479.4540, 54.22754
480.6390, 152.6641
481.8240, 15.58398
483.0090, 72.82227
484.1940, 2.087891
485.3780, 99.25000
486.5630, 58.41895
487.7470, 14.51855
488.9320, 149.9365
490.1160, 1.149414
491.3000, 68.45605
492.4830, 65.79297
493.6670, 101.5752
494.8500, 87.42969
496.0340, 218.0605
497.2170, 210.7412
498.4000, 174.4707
499.5820, 290.2363
500.7650, 187.0420
501.9480, 434.8818
503.1300, 424.7715
504.3120, 464.7041
505.4940, 539.6836
506.6760, 620.7080
507.8580, 556.7891
509.0390, 760.9082
510.2210, 931.0811
511.4020, 1158.357
512.5830, 1080.685
513.7640, 1269.039
514.9450, 1370.494
516.1250, 1643.005
517.3060, 1793.558
518.4860, 1915.237
519.6660, 1887.868
520.8460, 2115.652
522.0260, 2135.518
523.2060, 2166.457
524.3850, 2328.452
525.5650, 2297.536
526.7440, 2316.678
527.9230, 2268.919
529.1020, 2278.027
530.2810, 2283.761
531.4590, 2272.251
532.6380, 2284.892
533.8160, 2272.449
534.9940, 2225.977
536.1720, 2170.972
537.3500, 2161.244
538.5270, 2192.471
539.7050, 2152.047
540.8820, 1991.639
542.0590, 2117.120
543.2360, 1990.396
544.4130, 2188.055
545.5900, 2171.823
546.7660, 2420.656
547.9430, 2491.592
549.1190, 2628.510
550.2950, 2783.439
551.4710, 3103.690
552.6470, 3421.323
553.8220, 3839.788
554.9980, 4359.447
556.1730, 4894.180
557.3480, 5652.726
558.5230, 6385.330
559.6980, 7303.474
560.8730, 8314.168
562.0470, 9714.454
563.2220, 10661.64
564.3960, 12072.75
565.5700, 13568.87
566.7440, 14316.16
567.9170, 15427.95
569.0910, 15964.23
570.2640, 16456.09
571.4380, 16238.97
572.6110, 15675.87
573.7840, 14879.78
574.9570, 13587.71
576.1290, 12219.66
577.3020, 10560.63
578.4740, 9060.607
579.6460, 7801.605
580.8180, 6572.619
581.9900, 5520.489
583.1620, 4534.695
584.3330, 3828.754
585.5040, 3183.830
586.6760, 2741.919
587.8470, 2192.024
589.0180, 1941.144
590.1880, 1644.278
591.3590, 1394.425
592.5290, 1267.585
593.7000, 1182.760
594.8700, 879.9463
596.0400, 894.1465
597.2090, 775.3604
598.3790, 807.5859
599.5490, 793.8232
600.7180, 697.0723
601.8870, 731.3330
603.0560, 745.6064
604.2250, 852.8887
605.3940, 806.1826
606.5620, 918.4883
607.7300, 1049.804
608.8990, 1203.518
610.0670, 1584.463
611.2350, 1702.806
612.4020, 1951.158
613.5700, 2334.519
614.7370, 2858.887
615.9050, 3463.496
617.0720, 4130.881
618.2390, 4981.273
619.4060, 6145.828
620.5720, 7561.910
621.7390, 9279.873
622.9050, 11030.64
624.0710, 12976.10
625.2370, 14525.96
626.4030, 15811.81
627.5690, 16320.38
628.7340, 16129.31
629.9000, 14981.44
631.0650, 13474.51
632.2300, 11805.64
633.3950, 10122.81
634.5600, 8307.147
635.7240, 6672.256
636.8890, 5559.689
638.0530, 4287.205
639.2170, 3627.482
640.3810, 2945.575
641.5450, 2201.779
642.7080, 1980.075
643.8720, 1640.177
645.0350, 1462.533
646.1980, 1145.272
647.3610, 966.1543
648.5240, 839.9873
649.6870, 626.3330
650.8490, 517.4961
652.0120, 355.3203
653.1740, 404.9258
654.3360, 448.2314
655.4980, 412.5293
656.6600, 225.9795
657.8210, 271.9912
658.9830, 240.0547
660.1440, 200.9434
661.3050, 270.8838
662.4660, 346.8623
663.6270, 274.6270
664.7870, 277.1855
665.9480, 317.3926
667.1080, 143.4219
668.2680, 149.8506
669.4280, 70.19824
670.5880, 78.82520
671.7480, 125.0010
672.9070, 15.57031
674.0670, 7.674805
675.2260, 99.14844
676.3850, 34.63672
677.5440, 60.28516
678.7030, 63.87695
679.8610, 42.16309
681.0200, 115.4668
682.1780, 50.30762
683.3360, 74.85156
684.4940, 36.45703
685.6520, 57.19434
686.8090, 43.79785
687.9670, 63.36621
689.1240, 76.90039
690.2810, 22.40039
691.4380, 164.8643
692.5950, 56.29199
693.7520, 51.68262
694.9080, 13.96387
696.0650, 107.6631
697.2210, 90.03320
698.3770, 127.6602
699.5330, 119.3643
700.6880, 60.48438
701.8440, 121.6836
702.9990, 45.00195
704.1550, 4.355469
705.3100, 21.23242
706.4650, 61.22461
707.6190, 38.23242
708.7740, 167.6455
709.9290, 167.0176
711.0830, 197.3486
712.2370, 183.6387
713.3910, 281.8877
714.5450, 318.0957
715.6980, 261.2617
716.8520, 425.3857
718.0050, 422.4678
719.1580, 544.5078
720.3110, 499.5059
721.4640, 590.4619
722.6170, 676.3730
723.7700, 791.2422
724.9220, 793.0684
726.0740, 868.8506
727.2260, 907.5908
728.3780, 1032.285
729.5300, 1208.938
730.6810, 1320.545
731.8330, 1266.109
732.9840, 1353.628
734.1350, 1374.104
735.2860, 1475.534
736.4370, 1444.170
737.5880, 1495.260
738.7380, 1311.556
739.8880, 1241.807
741.0390, 1018.012
742.1890, 905.1709
743.3380, 869.2852
744.4880, 808.3535
745.6380, 745.3770
746.7870, 667.3535
747.9360, 500.2852
749.0850, 423.1689
750.2340, 457.0068
751.3830, 292.7998
752.5310, 340.5449
753.6800, 145.2441
754.8280, 254.8945
755.9760, 230.4980
757.1240, 166.0547
758.2720, 172.0322
759.4190, 73.02539
760.5670, 97.43555
761.7140, 28.20410
762.8610, 18.93750
764.0080, 37.24121
765.1550, 32.35742
766.3020, 19.58594
767.4480, 20.61914
768.5950, 12.25781
769.7410, 67.93945
770.8870, 84.25195
772.0330, 70.68848
773.1780, 35.24219
774.3240, 24.36426
775.4690, 25.63965
776.6140, 30.52051
777.7590, 13.61621
778.9040, 32.18750
780.0490, 22.40625
781.1940, 3.541016
782.3380, 7.757813
783.4820, 14.05859
784.6260, 48.44824
785.7700, 17.05957
786.9140, 40.50586
788.0580, 229.1719
789.2010, 33.03711
790.3450, 151.0010
791.4880, 217.0088
792.6310, 42.21094
793.7730, 2.485352
794.9160, 70.89258
796.0590, 88.38672
797.2010, 182.0029
798.3430, 116.7910
799.4850, 92.71680
800.6270, 7.766602
801.7690, 131.8955
802.9100, 20.16699
804.0520, 60.52441
805.1930, 120.0137
806.3340, 9.505859
807.4750, 57.92969
808.6160, 157.3037
809.7560, 88.63477
810.8970, 68.89258
812.0370, 10.65918
813.1770, 15.77637
814.3170, 23.66309
815.4570, 41.51953
816.5960, 14.34863
817.7360, 36.06836
818.8750, 38.92090
820.0140, 35.77344
821.1530, 181.6777
822.2920, 130.2529
823.4310, 134.7598
824.5690, 259.1602
825.7070, 167.5938
826.8460, 132.0322
827.9840, 184.1943
829.1220, 194.6826
830.2590, 163.8887
831.3970, 229.0264
832.5340, 362.9150
833.6710, 342.0107
834.8080, 302.0977
835.9450, 298.7090
837.0820, 264.7334
838.2190, 358.3457
839.3550, 275.0156
840.4910, 178.7695
841.6270, 359.5137
842.7630, 318.0879
843.8990, 128.1611
845.0350, 380.7295
846.1700, 239.7119
847.3060, 293.6650
848.4410, 179.5889
849.5760, 230.4844
850.7100, 155.3516
851.8450, 325.1904
852.9800, 322.0020
854.1140, 279.7861
855.2480, 280.5430
856.3820, 333.2744
857.5160, 251.9785
858.6500, 155.6572
859.7830, 338.3115
860.9170, 180.9404
862.0500, 213.5439
863.1830, 325.1230
864.3160, 312.6787
865.4480, 233.2100
866.5810, 171.7197
867.7130, 237.2080
868.8460, 226.6709
869.9780, 222.1123
871.1100, 217.5322
872.2410, 235.9316
873.3730, 229.3096
874.5050, 290.6680
875.6360, 222.0049
876.7670, 274.5127
877.8980, 354.6221
879.0290, 321.9014
880.1590, 335.1631
881.2900, 348.1660
882.4200, 290.6309
883.5500, 456.8389
884.6800, 468.0303
885.8100, 582.2041
886.9400, 566.3633
888.0690, 595.5059
889.1990, 602.6328
890.3280, 619.8828
891.4570, 641.6104
892.5860, 674.7031
893.7140, 739.6260
894.8430, 789.9521
895.9710, 947.0703
897.1000, 1019.669
898.2280, 1152.681
899.3560, 1384.240
900.4830, 1282.855
901.6110, 1516.247
902.7380, 1807.674
903.8660, 1933.008
904.9930, 2277.350
906.1200, 2759.678
907.2460, 3335.962
908.3730, 3292.086
909.5000, 3794.422
910.6260, 4337.432
911.7520, 4844.355
912.8780, 5386.506
914.0040, 5960.840
915.1290, 6909.057
916.2550, 8069.175
917.3800, 9097.482
918.5050, 10623.53
919.6300, 12503.19
920.7550, 14637.71
921.8800, 17311.27
923.0040, 20082.36
924.1290, 23752.61
925.2530, 27353.20
926.3770, 31809.02
927.5010, 35154.14
928.6250, 39292.27
929.7480, 41987.25
930.8720, 43852.67
931.9950, 44276.03
933.1180, 43715.57
934.2410, 41842.25
935.3640, 38941.51
936.4860, 35172.17
937.6090, 31429.08
938.7310, 27610.07
939.8530, 23850.61
940.9750, 20633.59
942.0970, 18022.65
943.2180, 15657.43
944.3400, 13694.69
945.4610, 12165.70
946.5820, 10891.24
947.7030, 9597.837
948.8240, 8267.802
949.9450, 7364.188
951.0650, 6200.219
952.1860, 5420.605
953.3060, 4494.719
954.4260, 3772.903
955.5460, 3337.156
956.6650, 2850.875
957.7850, 2479.613
958.9040, 2221.389
960.0230, 2071.193
961.1420, 1913.021
962.2610, 1782.903
963.3800, 1533.813
964.4990, 1399.749
965.6170, 1257.710
966.7350, 1250.713
967.8530, 1243.748
968.9710, 1301.842
970.0890, 1387.991
971.2070, 1308.203
972.3240, 1389.479
973.4410, 1377.810
974.5580, 1575.227
975.6750, 1535.674
976.7920, 1654.201
977.9090, 1875.760
979.0250, 1947.372
980.1410, 2346.022
981.2580, 2647.701
982.3740, 2916.408
983.4890, 3191.155
984.6050, 3787.933
985.7200, 4213.738
986.8360, 4954.576
987.9510, 5799.440
989.0660, 6802.336
990.1810, 8100.272
991.2950, 9575.272
992.4100, 11217.31
993.5240, 13250.39
994.6390, 15102.49
995.7530, 17494.63
996.8660, 19857.80
997.9800, 22362.00
999.0940, 24291.23
1000.207, 26001.49
1001.320, 27494.83
1002.433, 28311.16
1003.546, 29193.53
1004.659, 29383.94
1005.772, 28859.38
1006.884, 27905.87
1007.996, 27146.39
1009.108, 25911.95
1010.220, 24591.57
1011.332, 22694.23
1012.444, 20920.92
1013.555, 18983.65
1014.666, 17485.41
1015.777, 15824.21
1016.888, 14188.04
1017.999, 12653.91
1019.110, 11154.81
1020.220, 9909.790
1021.331, 8545.799
1022.441, 7260.846
1023.551, 6629.926
1024.661, 5854.041
1025.770, 5044.021
1026.880, 4685.211
1027.989, 4188.392
1029.098, 3801.657
1030.207, 3430.040
1031.316, 3101.662
1032.425, 2871.062
1033.533, 2640.529
1034.642, 2522.032
1035.750, 2470.578
1036.858, 2381.184
1037.966, 2356.056
1039.073, 2249.533
1040.181, 2239.387
1041.288, 2092.872
1042.396, 1825.802
1043.503, 1823.792
1044.610, 1580.992
1045.716, 1390.953
1046.823, 1236.110
1047.929, 1071.317
1049.036, 939.6885
1050.142, 836.0049
1051.248, 785.4053
1052.353, 745.8311
1053.459, 628.3662
1054.564, 642.9180
1055.670, 551.8105
1056.775, 539.4746
1057.880, 421.2539
1058.985, 447.8359
1060.089, 429.3037
1061.194, 500.2881
1062.298, 398.6807
1063.402, 454.6074
1064.506, 405.7773
1065.610, 373.3604
1066.713, 399.7002
1067.817, 626.9463
1068.920, 489.0576
1070.023, 617.6025
1071.126, 739.2314
1072.229, 583.8115
1073.332, 709.5576
1074.435, 635.5039
1075.537, 833.3291
1076.639, 1049.552
1077.741, 1115.102
1078.843, 1326.030
1079.945, 1538.021
1081.046, 1858.015
1082.148, 2058.908
1083.249, 2393.016
1084.350, 2630.633
1085.451, 2821.672
1086.551, 2976.479
1087.652, 3126.880
1088.752, 3226.113
1089.853, 3232.418
1090.953, 2945.753
1092.053, 2572.736
1093.152, 2456.128
1094.252, 2105.332
1095.351, 1854.781
1096.451, 1531.439
1097.550, 1348.941
1098.649, 1072.653
1099.748, 881.5312
1100.846, 725.2539
1101.945, 580.4023
1103.043, 441.0381
1104.141, 424.6973
1105.239, 286.5469
1106.337, 156.9580
1107.434, 216.0176
1108.532, 116.4697
1109.629, 238.1611
1110.726, 54.24609
1111.823, 168.8467
1112.920, 161.6943
1114.017, 33.56445
1115.113, 89.57324
1116.210, 221.4883
1117.306, 88.42188
1118.402, 70.37793
1119.498, 100.3555
1120.593, 398.3965
1121.689, 380.2832
1122.784, 433.4746
1123.879, 433.9248
1124.974, 382.8701
1126.069, 164.0469
1127.164, 233.1611
1128.259, 176.2939
1129.353, 36.44434
1130.447, 57.61426
1131.541, 57.42383
1132.635, 1.373047
1133.729, 96.84570
1134.822, 94.12891
1135.916, 16.70898
1137.009, 116.9766
1138.102, 260.1377
1139.195, 170.4355
1140.288, 276.8750
1141.380, 200.2188
1142.473, 51.75879
1143.565, 125.1133
1144.657, 71.48145
1145.749, 8.906250
1146.841, 103.3008
1147.932, 196.7109
1149.024, 26.71680
1150.115, 14.54297
1151.206, 78.09570
1152.297, 132.6514
1153.388, 74.12793
1154.479, 76.61719
1155.569, 187.1191
1156.659, 73.25586
1157.750, 35.14746
1158.839, 46.60254
1159.929, 62.11328
1161.019, 49.31250
1162.108, 18.73926
1163.198, 3.071289
1164.287, 156.7109
1165.376, 44.30469
1166.465, 142.9043
1167.553, 116.8008
1168.642, 60.43359
1169.730, 67.96582
1170.818, 24.63770
1171.906, 28.75293
1172.994, 98.85547
1174.082, 57.57617
1175.170, 15.36230
1176.257, 115.9824
1177.344, 27.85645
1178.431, 20.75391
1179.518, 5.250000
1180.605, 116.1924
1181.691, 0.8964840
1182.778, 42.72656
1183.864, 54.66211
1184.950, 63.94922
1186.036, 159.2637
1187.122, 14.27344
1188.207, 128.7402
1189.292, 62.72656
1190.378, 16.21875
1191.463, 101.3154
1192.548, 103.1230
1193.632, 19.60645
1194.717, 51.42090
1195.801, 6.039063
1196.886, 35.37695
1197.970, 36.21191
1199.054, 10.41406
1200.137, 15.54883
1201.221, 29.91699
1202.305, 13.72266
1203.388, 23.62012
1204.471, 17.04395
1205.554, 99.27148
1206.637, 148.4209
1207.719, 40.20312
1208.802, 64.97949
1209.884, 111.1543
1210.966, 152.6279
1212.048, 37.56055
1213.130, 23.47266
1214.212, 29.50684
1215.293, 56.48145
1216.374, 7.511719
1217.456, 68.52930
1218.536, 0.3720700
1219.617, 120.2520
1220.698, 58.11914
1221.778, 9.973633
1222.859, 40.81055
1223.939, 87.36719
1225.019, 107.3838
1226.099, 26.12012
1227.178, 170.8408
1228.258, 25.45117
1229.337, 75.21387
1230.417, 94.86426
1231.496, 240.5020
1232.574, 133.1240
1233.653, 159.7314
1234.732, 14.32520
1235.810, 42.10840
1236.888, 37.40332
1237.966, 134.1055
1239.044, 75.27734
1240.122, 43.64551
1241.199, 9.993164
1242.277, 82.31445
1243.354, 240.6230
1244.431, 7.152344
1245.508, 160.4082
1246.585, 105.6475
1247.661, 141.8701
1248.738, 163.3154
1249.814, 79.78125
1250.890, 17.95117
1251.966, 82.91406
1253.042, 30.13281
1254.117, 42.46191
1255.193, 147.4492
1256.268, 280.4180
1257.343, 122.4697
1258.418, 193.4004
1259.493, 144.4648
1260.567, 60.35742
1261.642, 164.2246
1262.716, 287.0400
1263.790, 108.8672
1264.864, 21.67285
1265.938, 124.4375
1267.011, 3.818359
1268.085, 158.8711
1269.158, 100.5410
1270.231, 19.81152
1271.304, 29.76953
1272.377, 139.3115
1273.450, 166.8301
