##NAMES=Catapleiite
##RRUFFID=R060208
##IDEAL CHEMISTRY=Na_2_Zr^4+^Si_3_O_9_&#183;2H_2_O
##LOCALITY=Mont Saint-Hilaire, Rouville County, Quebec, Canada
##OWNER=RRUFF
##SOURCE=Royal Ontario Museum
##DESCRIPTION=Colorless transparent thin tabular pseudohexagonal crystal
##STATUS=The identification of this mineral is confirmed by single-crystal X-ray diffraction and chemical analysis.
##URL=rruff.info/R060208
##MEASURED CHEMISTRY=Na_2.00_Zr_1.00_Si_3.00_O_9_Â·2H_2_O
##PIN_ID=M01569
##ORIENTATION=Laser parallel to -c* (0 0 -1). Fiducial mark perpendicular to laser is parallel to a [1 0 0]
120.9140, 0.0000000E+00
122.1480, 56.26367
123.3810, 0.1640630
124.6150, 11.37305
125.8480, 85.79297
127.0810, 203.6104
128.3130, 307.5122
129.5460, 268.7998
130.7790, 520.6675
132.0110, 533.3779
133.2430, 497.0459
134.4750, 666.8462
135.7070, 768.2710
136.9380, 799.4106
138.1700, 842.7407
139.4010, 897.1831
140.6330, 1143.381
141.8640, 1078.812
143.0950, 1282.853
144.3250, 1485.043
145.5560, 1464.066
146.7860, 1772.708
148.0160, 1716.935
149.2470, 2025.248
150.4760, 2005.513
151.7060, 2247.438
152.9360, 2192.613
154.1650, 2418.985
155.3950, 2427.262
156.6240, 2409.796
157.8530, 2608.509
159.0820, 2640.253
160.3100, 2596.434
161.5390, 2597.184
162.7670, 2583.957
163.9950, 2585.754
165.2230, 2472.744
166.4510, 2362.083
167.6790, 2089.912
168.9060, 1892.348
170.1340, 1734.501
171.3610, 1557.468
172.5880, 1464.332
173.8150, 1262.479
175.0420, 1194.453
176.2690, 1068.219
177.4950, 1089.598
178.7210, 954.9531
179.9470, 958.4014
181.1730, 822.5869
182.3990, 882.8960
183.6250, 875.0947
184.8500, 904.8550
186.0760, 1043.953
187.3010, 1103.556
188.5260, 1117.725
189.7510, 1320.196
190.9750, 1338.612
192.2000, 1414.473
193.4240, 1577.690
194.6490, 1768.622
195.8730, 1849.189
197.0970, 1932.360
198.3200, 2116.653
199.5440, 2239.061
200.7670, 2196.152
201.9910, 2379.230
203.2140, 2412.622
204.4370, 2360.552
205.6590, 2382.937
206.8820, 2503.457
208.1050, 2539.101
209.3270, 2586.856
210.5490, 2570.710
211.7710, 2729.652
212.9930, 2616.668
214.2150, 2557.747
215.4360, 2281.877
216.6570, 2138.049
217.8790, 1914.253
219.1000, 1759.482
220.3210, 1563.730
221.5410, 1264.991
222.7620, 1186.259
223.9820, 951.5249
225.2030, 867.7798
226.4230, 665.0100
227.6430, 553.2009
228.8620, 454.4512
230.0820, 407.4980
231.3010, 301.0156
232.5210, 241.4856
233.7400, 189.5444
234.9590, 160.1067
236.1780, 58.92993
237.3960, 111.4563
238.6150, 55.06982
239.8330, 104.7163
241.0510, 10.01514
242.2690, 1.189453
243.4870, 61.66821
244.7050, 18.58594
245.9230, 113.5630
247.1400, 173.5977
248.3570, 149.6997
249.5740, 113.8804
250.7910, 73.15918
252.0080, 167.5610
253.2240, 122.1035
254.4410, 127.7971
255.6570, 91.70239
256.8730, 60.84961
258.0890, 21.33765
259.3050, 38.08594
260.5210, 34.17480
261.7360, 61.50366
262.9510, 74.02075
264.1670, 43.68921
265.3820, 85.52539
266.5960, 43.52246
267.8110, 70.80273
269.0260, 69.81763
270.2400, 94.43555
271.4540, 77.95972
272.6680, 54.22437
273.8820, 45.46729
275.0960, 30.55347
276.3090, 46.00732
277.5230, 13.35327
278.7360, 24.23169
279.9490, 26.74170
281.1620, 138.1665
282.3750, 231.5049
283.5880, 258.7512
284.8000, 386.8962
286.0120, 448.9316
287.2240, 624.8508
288.4360, 735.6492
289.6480, 822.3228
290.8600, 996.8711
292.0710, 1188.295
293.2830, 1408.594
294.4940, 1355.772
295.7050, 1448.826
296.9160, 1526.752
298.1260, 1495.544
299.3370, 1463.187
300.5470, 1454.666
301.7580, 1369.973
302.9680, 1258.106
304.1770, 1272.066
305.3870, 1133.850
306.5970, 1083.462
307.8060, 1054.907
309.0150, 983.1938
310.2250, 1091.331
311.4340, 1114.327
312.6420, 1041.188
313.8510, 1040.920
315.0590, 1032.531
316.2680, 1040.026
317.4760, 938.4087
318.6840, 942.6853
319.8920, 872.8582
321.0990, 947.9155
322.3070, 862.8457
323.5140, 914.6287
324.7210, 860.2285
325.9280, 822.6450
327.1350, 777.8523
328.3420, 746.7896
329.5490, 737.4277
330.7550, 661.6689
331.9610, 594.6118
333.1670, 571.2136
334.3730, 455.5303
335.5790, 486.6521
336.7840, 427.5979
337.9900, 328.3433
339.1950, 313.9026
340.4000, 323.2942
341.6050, 222.4985
342.8100, 202.5369
344.0150, 215.4424
345.2190, 242.2280
346.4230, 164.9453
347.6280, 155.6265
348.8320, 204.2820
350.0350, 210.9243
351.2390, 203.5557
352.4430, 226.1753
353.6460, 218.7834
354.8490, 346.3799
356.0520, 348.9663
357.2550, 367.5430
358.4580, 564.1096
359.6600, 541.6670
360.8630, 633.2148
362.0650, 622.7534
363.2670, 593.2822
364.4690, 719.8010
365.6710, 864.3110
366.8720, 790.8115
368.0740, 830.3027
369.2750, 778.7856
370.4760, 707.2590
371.6770, 843.6118
372.8780, 752.5044
374.0780, 761.9922
375.2790, 735.2881
376.4790, 799.8694
377.6790, 719.9688
378.8790, 704.4670
380.0790, 639.5862
381.2790, 647.3340
382.4780, 607.8845
383.6780, 572.4717
384.8770, 564.8035
386.0760, 562.5417
387.2750, 557.1096
388.4730, 537.8596
389.6720, 503.4414
390.8700, 586.1956
392.0690, 420.3137
393.2670, 510.0620
394.4650, 451.1951
395.6620, 451.0183
396.8600, 454.0610
398.0570, 453.0928
399.2550, 485.9041
400.4520, 414.1262
401.6490, 550.4294
402.8450, 530.3647
404.0420, 615.4104
405.2390, 712.8674
406.4350, 714.7915
407.6310, 954.1174
408.8270, 1008.529
410.0230, 1201.493
411.2190, 1375.275
412.4140, 1660.408
413.6090, 1967.659
414.8050, 2421.412
416.0000, 2770.271
417.1940, 3298.661
418.3890, 3878.629
419.5840, 4617.575
420.7780, 5403.590
421.9720, 6393.697
423.1660, 7570.669
424.3600, 8734.722
425.5540, 9975.245
426.7480, 11370.51
427.9410, 12304.88
429.1340, 13145.79
430.3270, 13401.94
431.5200, 13019.47
432.7130, 12368.99
433.9060, 11030.50
435.0980, 9550.994
436.2900, 8393.479
437.4830, 7089.948
438.6750, 6050.408
439.8660, 5279.854
441.0580, 4569.290
442.2500, 3966.716
443.4410, 3445.132
444.6320, 2918.539
445.8230, 2625.938
447.0140, 2284.330
448.2050, 1975.716
449.3950, 1822.096
450.5860, 1685.471
451.7760, 1449.842
452.9660, 1279.209
454.1560, 1262.574
455.3450, 1067.937
456.5350, 987.2979
457.7240, 827.6587
458.9140, 749.2102
460.1030, 715.3799
461.2920, 619.7417
462.4810, 587.1045
463.6690, 545.4690
464.8580, 574.8364
466.0460, 444.2063
467.2340, 479.5801
468.4220, 458.8523
469.6100, 392.1587
470.7970, 464.7314
471.9850, 328.1284
473.1720, 326.5342
474.3590, 353.9504
475.5460, 204.3787
476.7330, 209.8201
477.9200, 218.1938
479.1060, 183.6655
480.2930, 270.9890
481.4790, 205.9329
482.6650, 150.8523
483.8510, 244.8496
485.0370, 141.4639
486.2220, 214.0356
487.4080, 87.70312
488.5930, 206.5261
489.7780, 121.0691
490.9630, 217.6169
492.1480, 126.4116
493.3320, 130.2788
494.5170, 56.15942
495.7010, 68.31299
496.8850, 158.2288
498.0690, 127.8560
499.2530, 166.5525
500.4360, 256.3782
501.6200, 261.3196
502.8030, 305.2996
503.9860, 378.3101
505.1690, 339.3508
506.3520, 368.4346
507.5350, 533.5728
508.7170, 582.7461
509.9000, 575.9712
511.0820, 631.2573
512.2640, 800.5828
513.4460, 904.9624
514.6270, 1160.392
515.8090, 1260.589
516.9900, 1301.398
518.1710, 1501.961
519.3530, 1524.565
520.5330, 1579.209
521.7140, 1692.904
522.8950, 1686.961
524.0750, 1729.593
525.2550, 1717.383
526.4350, 1745.333
527.6150, 1745.356
528.7950, 1747.455
529.9750, 1747.636
531.1540, 1720.902
532.3340, 1645.190
533.5130, 1675.132
534.6920, 1610.682
535.8700, 1612.578
537.0490, 1671.974
538.2280, 1626.368
539.4060, 1638.644
540.5840, 1608.067
541.7620, 1542.425
542.9400, 1563.919
544.1180, 1577.313
545.2950, 1582.457
546.4720, 1632.224
547.6500, 1625.396
548.8270, 1662.107
550.0040, 1755.129
551.1800, 1813.805
552.3570, 1913.716
553.5330, 2123.173
554.7090, 2243.228
555.8850, 2529.103
557.0610, 2759.579
558.2370, 3071.652
559.4130, 3465.634
560.5880, 3970.859
561.7630, 4459.878
562.9380, 5112.254
564.1130, 5969.799
565.2880, 6730.118
566.4630, 7815.471
567.6370, 8877.569
568.8120, 9926.729
569.9860, 11115.48
571.1600, 12088.98
572.3330, 13021.35
573.5070, 13179.83
574.6810, 13189.34
575.8540, 12732.76
577.0270, 11757.19
578.2000, 10382.64
579.3730, 9117.100
580.5460, 7859.576
581.7180, 6477.066
582.8910, 5212.570
584.0630, 4328.088
585.2350, 3586.619
586.4070, 3151.163
587.5780, 2540.722
588.7500, 2145.294
589.9210, 1757.879
591.0930, 1536.478
592.2640, 1313.089
593.4350, 1095.713
594.6050, 945.3508
595.7760, 876.0005
596.9460, 818.6631
598.1170, 770.3379
599.2870, 710.0254
600.4570, 626.7246
601.6260, 632.6836
602.7960, 679.1587
603.9650, 636.8936
605.1350, 609.6396
606.3040, 610.3970
607.4730, 618.1658
608.6420, 827.9453
609.8100, 896.7358
610.9790, 987.5366
612.1470, 1120.349
613.3150, 1458.170
614.4830, 1664.002
615.6510, 2051.843
616.8190, 2333.695
617.9860, 2925.556
619.1540, 3421.426
620.3210, 4297.305
621.4880, 5088.196
622.6550, 6110.097
623.8220, 7562.007
624.9880, 9018.934
626.1550, 10522.92
627.3210, 12089.00
628.4870, 13531.23
629.6530, 14343.42
630.8190, 14241.67
631.9840, 13193.88
633.1500, 11476.19
634.3150, 9435.482
635.4800, 7685.155
636.6450, 6242.425
637.8100, 4851.856
638.9740, 3905.429
640.1390, 3103.155
641.3030, 2540.722
642.4670, 2044.069
643.6310, 1715.729
644.7950, 1434.324
645.9590, 1099.968
647.1220, 949.1628
648.2850, 786.8809
649.4490, 649.4080
650.6120, 630.3044
651.7740, 522.9790
652.9370, 431.0325
654.1000, 347.2627
655.2620, 384.3584
656.4240, 243.7661
657.5860, 197.0505
658.7480, 230.3853
659.9100, 162.7095
661.0710, 113.9949
662.2330, 176.3677
663.3940, 98.29834
664.5550, 67.24219
665.7160, 45.57300
666.8770, 71.87451
668.0370, 59.30444
669.1980, 16.01514
670.3580, 15.23560
671.5180, 32.80176
672.6780, 18.00708
673.8380, 5.778809
674.9970, 36.31079
676.1570, 20.07300
677.3160, 62.87036
678.4750, 9.582275
679.6340, 10.85425
680.7930, 32.00244
681.9520, 5.645508
683.1100, 1.562500
684.2680, 19.31372
685.4270, 6.626221
686.5850, 56.90942
687.7420, 64.26465
688.9000, 30.44434
690.0580, 26.26538
691.2150, 1.781006
692.3720, 83.63770
693.5290, 59.20923
694.6860, 16.83203
695.8430, 109.4873
696.9990, 53.22266
698.1560, 12.99170
699.3120, 67.81128
700.4680, 78.69141
701.6240, 66.63916
702.7800, 83.64868
703.9350, 46.72949
705.0900, 45.86328
706.2460, 24.05029
707.4010, 40.27979
708.5560, 32.56055
709.7110, 41.11011
710.8650, 135.7551
712.0200, 7.625488
713.1740, 7.042969
714.3280, 85.50244
715.4820, 90.02222
716.6360, 138.5161
717.7890, 222.9841
718.9430, 240.4265
720.0960, 270.8423
721.2490, 371.2317
722.4020, 407.5952
723.5550, 473.9319
724.7080, 530.2417
725.8600, 566.5249
727.0130, 646.7808
728.1650, 679.0098
729.3170, 803.2117
730.4690, 909.3860
731.6200, 962.5327
732.7720, 1064.073
733.9230, 1161.744
735.0740, 1171.808
736.2250, 1223.843
737.3760, 1183.851
738.5270, 1133.830
739.6780, 1182.781
740.8280, 1053.703
741.9780, 993.5972
743.1280, 844.4624
744.2780, 768.2991
745.4280, 745.1064
746.5770, 707.8850
747.7270, 577.6345
748.8760, 522.3550
750.0250, 457.0461
751.1740, 397.7078
752.3230, 325.3398
753.4720, 272.9426
754.6200, 283.5156
755.7680, 229.0591
756.9160, 200.2083
758.0640, 192.9583
759.2120, 125.5098
760.3600, 166.9333
761.5070, 134.3269
762.6550, 121.6902
763.8020, 111.0232
764.9490, 90.13696
766.0960, 61.59521
767.2420, 71.83252
768.3890, 60.03735
769.5350, 74.20947
770.6810, 50.98730
771.8270, 60.45337
772.9730, 12.52515
774.1190, 21.54980
775.2640, 18.53125
776.4100, 17.53223
777.5550, 13.34106
778.7000, 16.83276
779.8450, 13.07007
780.9900, 15.63159
782.1340, 17.28638
783.2790, 33.10474
784.4230, 73.56787
785.5670, 2.124023
786.7110, 62.73633
787.8550, 100.4360
788.9980, 17.24316
790.1420, 71.11450
791.2850, 58.07788
792.4280, 40.12622
793.5710, 45.25049
794.7140, 24.54712
795.8560, 3.301514
796.9990, 23.00366
798.1410, 12.33740
799.2830, 77.73901
800.4250, 23.23486
801.5670, 23.79688
802.7090, 14.42432
803.8500, 78.11230
804.9920, 16.89429
806.1330, 53.73755
807.2740, 1.338623
808.4150, 26.36401
809.5550, 41.60693
810.6960, 27.80225
811.8360, 2.672119
812.9760, 13.24951
814.1160, 43.37549
815.2560, 34.54541
816.3960, 18.89795
817.5350, 3.844971
818.6750, 12.52319
819.8140, 96.79761
820.9530, 4.208496
822.0920, 112.8899
823.2310, 79.97827
824.3690, 82.69141
825.5080, 29.90015
826.6460, 40.13403
827.7840, 130.1467
828.9220, 57.26147
830.0600, 113.8601
831.1970, 140.8945
832.3350, 130.1443
833.4720, 77.83472
834.6090, 49.96558
835.7460, 97.21875
836.8830, 134.2563
838.0190, 158.5242
839.1560, 87.46460
840.2920, 95.25562
841.4280, 153.2844
842.5640, 107.2896
843.7000, 183.5520
844.8360, 162.7571
845.9710, 261.3738
847.1070, 216.2385
848.2420, 177.2244
849.3770, 133.0952
850.5120, 138.9456
851.6460, 119.8909
852.7810, 136.7773
853.9150, 151.9810
855.0490, 202.6206
856.1830, 189.4956
857.3170, 252.3538
858.4510, 251.1951
859.5840, 264.0200
860.7180, 213.8284
861.8510, 236.6213
862.9840, 282.3977
864.1170, 298.1589
865.2500, 196.9045
866.3820, 290.6348
867.5150, 194.3503
868.6470, 282.0508
869.7790, 298.7366
870.9110, 219.4080
872.0430, 311.0654
873.1740, 352.7090
874.3060, 328.3386
875.4370, 302.9551
876.5680, 339.5581
877.6990, 332.1479
878.8300, 374.7253
879.9600, 331.2903
881.0910, 346.8428
882.2210, 368.3833
883.3510, 392.9119
884.4810, 416.4290
885.6110, 455.9351
886.7410, 479.4294
887.8700, 543.9146
888.9990, 567.3884
890.1290, 603.8523
891.2580, 628.3064
892.3860, 683.5288
893.5150, 723.1863
894.6440, 795.6125
895.7720, 836.0303
896.9000, 884.4409
898.0280, 927.8445
899.1560, 1046.235
900.2840, 1107.571
901.4110, 1291.813
902.5390, 1369.926
903.6660, 1444.073
904.7930, 1636.166
905.9200, 1725.309
907.0470, 1937.346
908.1730, 2099.421
909.3000, 2393.121
910.4260, 2770.225
911.5520, 2907.171
912.6780, 3313.977
913.8030, 3860.631
914.9290, 4407.443
916.0540, 4947.476
917.1800, 5684.195
918.3050, 6909.000
919.4300, 7900.766
920.5550, 9587.980
921.6790, 11143.67
922.8040, 13210.56
923.9280, 15785.07
925.0520, 18846.80
926.1760, 22231.17
927.3000, 26294.35
928.4230, 29913.67
929.5470, 33995.68
930.6700, 37560.82
931.7930, 40602.90
932.9160, 41787.01
934.0390, 41837.16
935.1620, 39698.23
936.2840, 36690.74
937.4070, 32327.25
938.5290, 27830.38
939.6510, 23433.53
940.7730, 19120.58
941.8940, 15886.36
943.0160, 13070.63
944.1370, 11097.17
945.2580, 9760.859
946.3800, 8501.558
947.5000, 7641.134
948.6210, 6859.373
949.7420, 6122.655
950.8620, 5413.847
951.9820, 4660.600
953.1020, 4040.229
954.2220, 3328.879
955.3420, 2890.613
956.4620, 2567.956
957.5810, 2037.726
958.7000, 1883.459
959.8190, 1627.247
960.9380, 1499.839
962.0570, 1229.538
963.1760, 1192.426
964.2940, 1121.248
965.4120, 956.2021
966.5300, 959.1890
967.6480, 940.1992
968.7660, 912.2607
969.8840, 913.6245
971.0010, 867.4468
972.1190, 901.5938
973.2360, 898.7788
974.3530, 895.9990
975.4690, 958.0298
976.5860, 996.5522
977.7030, 1080.876
978.8190, 1174.225
979.9350, 1253.605
981.0510, 1280.026
982.1670, 1549.464
983.2830, 1725.923
984.3980, 1930.879
985.5130, 2263.976
986.6290, 2434.499
987.7440, 2899.041
988.8590, 3346.600
989.9730, 3940.179
991.0880, 4810.774
992.2020, 5687.388
993.3160, 6724.022
994.4300, 7906.672
995.5440, 9221.402
996.6580, 10695.09
997.7720, 12387.80
998.8850, 13853.53
999.9980, 15140.28
1001.111, 16255.04
1002.224, 17015.82
1003.337, 17735.63
1004.450, 17985.46
1005.562, 18065.29
1006.674, 17564.16
1007.786, 17308.05
1008.898, 16804.95
1010.010, 15951.88
1011.122, 15097.83
1012.233, 14128.80
1013.344, 13220.62
1014.455, 12290.82
1015.566, 11241.85
1016.677, 10180.91
1017.788, 9047.986
1018.898, 8061.088
1020.009, 7062.209
1021.119, 6065.459
1022.229, 5144.628
1023.339, 4474.821
1024.448, 3919.034
1025.558, 3339.280
1026.667, 2947.815
1027.776, 2584.107
1028.885, 2318.428
1029.994, 2133.143
1031.103, 1962.629
1032.211, 1807.481
1033.320, 1699.702
1034.428, 1627.746
1035.536, 1563.224
1036.644, 1600.721
1037.751, 1631.246
1038.859, 1593.793
1039.966, 1540.687
1041.074, 1505.998
1042.181, 1427.515
1043.288, 1252.167
1044.394, 1064.849
1045.501, 1019.559
1046.607, 924.3076
1047.713, 854.0889
1048.820, 650.9810
1049.925, 550.8384
1051.031, 482.9570
1052.137, 454.4712
1053.242, 394.4331
1054.348, 260.4473
1055.453, 389.5186
1056.558, 350.6177
1057.662, 200.7783
1058.767, 227.4341
1059.871, 316.6865
1060.976, 248.0352
1062.080, 215.3833
1063.184, 203.3408
1064.288, 265.7622
1065.391, 233.5449
1066.495, 282.6489
1067.598, 319.1914
1068.701, 299.8169
1069.804, 277.4814
1070.907, 328.1362
1072.010, 375.8267
1073.112, 361.7505
1074.214, 443.8320
1075.317, 516.6567
1076.419, 699.9697
1077.521, 744.8647
1078.622, 877.8018
1079.724, 1042.449
1080.825, 1184.441
1081.926, 1378.491
1083.027, 1629.979
1084.128, 2005.487
1085.229, 2191.844
1086.329, 2461.469
1087.430, 2795.607
1088.530, 2865.921
1089.630, 2860.105
1090.730, 2842.308
1091.830, 2669.527
1092.929, 2425.767
1094.029, 2222.212
1095.128, 1853.488
1096.227, 1539.165
1097.326, 1403.110
1098.425, 1181.859
1099.523, 1022.837
1100.622, 839.5825
1101.720, 721.9595
1102.818, 573.3525
1103.916, 434.7617
1105.014, 342.1860
1106.111, 249.0903
1107.209, 234.0811
1108.306, 140.7778
1109.403, 161.2622
1110.500, 168.7603
1111.597, 152.2727
1112.694, 121.4556
1113.790, 7.055908
1114.887, 50.02417
1115.983, 32.40991
1117.079, 94.60205
1118.174, 77.96094
1119.270, 37.53687
1120.366, 20.12500
1121.461, 6.725586
1122.556, 4.134521
1123.651, 20.96338
1124.746, 5.600098
1125.841, 25.25049
1126.935, 6.086914
1128.030, 57.58618
1129.124, 2.270508
1130.218, 48.96606
1131.312, 16.67627
1132.405, 59.40527
1133.499, 70.14526
1134.592, 62.95630
1135.686, 46.71729
1136.779, 197.4900
1137.871, 104.2729
1138.964, 148.0659
1140.057, 124.1128
1141.149, 109.7983
1142.241, 146.9553
1143.334, 84.12939
1144.425, 36.96973
1145.517, 41.91919
1146.609, 10.33716
1147.700, 31.57349
1148.791, 5.020752
1149.883, 35.92627
1150.974, 44.82422
1152.064, 7.242920
1153.155, 26.67480
1154.245, 91.86182
1155.336, 9.944336
1156.426, 44.26514
1157.516, 14.20874
1158.606, 62.74756
1159.695, 3.259277
1160.785, 17.08862
1161.874, 6.240967
1162.963, 22.73438
1164.052, 5.701660
1165.141, 29.31055
1166.230, 1.687500
1167.318, 13.96484
1168.406, 31.88208
1169.495, 71.74512
1170.583, 12.67310
1171.670, 23.32764
1172.758, 27.28955
1173.846, 29.77808
1174.933, 32.83911
1176.020, 39.88770
1177.107, 56.91992
1178.194, 41.57959
1179.281, 1.417480
1180.367, 40.58862
1181.454, 85.40601
1182.540, 55.96509
1183.626, 65.98267
1184.712, 63.93188
1185.798, 1.983154
1186.883, 33.93311
1187.969, 71.98193
1189.054, 30.73755
1190.139, 30.19971
1191.224, 2.202881
1192.309, 34.80908
1193.393, 10.18677
1194.478, 43.73950
1195.562, 43.05127
1196.646, 29.33936
1197.730, 17.42236
1198.814, 17.46973
1199.897, 35.40381
1200.981, 10.43457
1202.064, 94.27002
1203.147, 83.89819
1204.230, 85.10767
1205.313, 81.62524
1206.396, 2.031738
1207.478, 44.62988
1208.560, 34.34473
1209.642, 4.413818
1210.724, 40.28394
1211.806, 42.89795
1212.888, 32.91577
1213.969, 16.21313
1215.051, 12.60059
1216.132, 16.00659
1217.213, 37.63623
1218.294, 11.20386
1219.374, 45.00659
1220.455, 49.55859
1221.535, 38.16113
1222.616, 42.18848
1223.696, 22.46924
1224.775, 22.03442
1225.855, 8.469971
1226.935, 11.89575
1228.014, 9.556152
1229.093, 5.529053
1230.172, 6.168457
1231.251, 42.32349
1232.330, 41.75977
1233.408, 78.96387
1234.487, 38.63818
1235.565, 99.18115
1236.643, 58.54077
1237.721, 19.89111
1238.799, 75.36792
1239.876, 50.69678
1240.954, 40.11182
1242.031, 20.57886
1243.108, 29.69751
1244.185, 19.34863
1245.262, 159.2134
1246.338, 24.97876
1247.415, 120.6172
1248.491, 55.83423
1249.567, 52.04126
1250.643, 89.23779
1251.719, 96.42383
1252.795, 53.59937
1253.870, 85.78198
1254.945, 93.37866
1256.021, 118.6348
1257.096, 87.70972
1258.170, 122.3533
1259.245, 66.94116
1260.320, 126.9094
1261.394, 158.8435
1262.468, 78.92188
1263.542, 43.99072
1264.616, 120.0493
1265.690, 95.43970
1266.763, 108.4739
1267.836, 80.49609
1268.910, 39.50586
1269.983, 21.50073
1271.055, 37.47510
1272.128, 37.89624
1273.201, 135.4136
1274.273, 60.34253
1275.345, 110.0486
1276.417, 72.95215
1277.489, 33.84399
1278.561, 67.35645
1279.632, 111.2166
1280.704, 23.19141
1281.775, 118.0669
1282.846, 49.41211
1283.917, 56.20654
1284.988, 1.014404
1286.058, 38.73022
1287.129, 81.95410
1288.199, 14.76758
1289.269, 12.45068
1290.339, 8.739990
1291.409, 152.2563
1292.478, 28.92334
1293.548, 164.8958
1294.617, 83.75391
1295.686, 54.30664
