##NAMES=Catapleiite
##RRUFFID=R060208
##IDEAL CHEMISTRY=Na_2_Zr^4+^Si_3_O_9_&#183;2H_2_O
##LOCALITY=Mont Saint-Hilaire, Rouville County, Quebec, Canada
##OWNER=RRUFF
##SOURCE=Royal Ontario Museum
##DESCRIPTION=Colorless transparent thin tabular pseudohexagonal crystal
##STATUS=The identification of this mineral is confirmed by single-crystal X-ray diffraction and chemical analysis.
##URL=rruff.info/R060208
##MEASURED CHEMISTRY=Na_2.00_Zr_1.00_Si_3.00_O_9_Â·2H_2_O
##PIN_ID=M00973
##ORIENTATION=Laser parallel to (-1 0 -1). Fiducial mark perpendicular to laser is parallel to -b [0 -1 0]
112.9490, 0.0000000E+00
114.1850, 3.485840
115.4200, 135.5063
116.6560, 78.38721
117.8910, 159.0493
119.1260, 13.44189
120.3610, 30.83838
121.5960, 115.0962
122.8300, 208.3379
124.0640, 239.0034
125.2990, 306.3120
126.5330, 340.4946
127.7670, 377.1050
129.0000, 479.4766
130.2340, 587.0898
131.4670, 726.6777
132.7000, 747.0498
133.9330, 779.5317
135.1660, 849.4048
136.3990, 853.2822
137.6310, 934.6157
138.8640, 1041.995
140.0960, 1023.104
141.3280, 1087.700
142.5600, 1086.601
143.7910, 1189.663
145.0230, 1245.776
146.2540, 1370.923
147.4850, 1403.552
148.7160, 1525.991
149.9470, 1638.622
151.1780, 1776.597
152.4080, 1919.847
153.6380, 2066.480
154.8690, 2135.781
156.0980, 2153.518
157.3280, 2255.787
158.5580, 2271.838
159.7870, 2205.548
161.0170, 2307.997
162.2460, 2395.338
163.4750, 2377.665
164.7030, 2478.003
165.9320, 2436.414
167.1600, 2478.937
168.3890, 2549.629
169.6170, 2643.553
170.8450, 2812.784
172.0730, 2968.352
173.3000, 2877.271
174.5280, 3136.571
175.7550, 3148.282
176.9820, 3160.436
178.2090, 3336.482
179.4350, 3599.306
180.6620, 3596.199
181.8880, 3768.857
183.1150, 3859.274
184.3410, 4020.508
185.5670, 4189.747
186.7920, 4409.702
188.0180, 4593.612
189.2430, 4888.183
190.4690, 5264.614
191.6940, 5602.833
192.9180, 5975.331
194.1430, 6470.791
195.3680, 6867.060
196.5920, 7565.114
197.8160, 7924.387
199.0400, 8349.891
200.2640, 8683.332
201.4880, 8934.829
202.7110, 9146.273
203.9350, 9293.045
205.1580, 9486.710
206.3810, 9755.651
207.6040, 9643.248
208.8270, 9956.646
210.0490, 9769.971
211.2710, 9860.638
212.4940, 9700.979
213.7160, 9460.362
214.9370, 8895.128
216.1590, 8420.128
217.3810, 7767.681
218.6020, 6996.800
219.8230, 6189.858
221.0440, 5443.927
222.2650, 4905.999
223.4860, 4199.070
224.7060, 3706.137
225.9260, 3208.754
227.1470, 2782.778
228.3670, 2364.471
229.5860, 2072.049
230.8060, 1702.284
232.0260, 1575.059
233.2450, 1340.774
234.4640, 1114.430
235.6830, 1014.030
236.9020, 889.5732
238.1200, 690.0625
239.3390, 548.4976
240.5570, 419.8804
241.7750, 379.2119
242.9930, 299.4937
244.2110, 236.7261
245.4290, 178.9111
246.6460, 130.0483
247.8630, 108.1406
249.0810, 49.18750
250.2980, 50.19141
251.5140, 50.15137
252.7310, 107.0615
253.9470, 9.2772998E-02
255.1640, 37.65527
256.3800, 210.3115
257.5960, 94.85400
258.8120, 176.3359
260.0270, 195.6240
261.2430, 96.60742
262.4580, 39.27490
263.6730, 1.667480
264.8880, 5.688477
266.1030, 90.83643
267.3170, 142.1118
268.5320, 198.3008
269.7460, 63.45215
270.9600, 223.5581
272.1740, 174.6851
273.3880, 280.8394
274.6010, 239.0669
275.8150, 281.3701
277.0280, 255.7700
278.2410, 210.2705
279.4540, 261.8687
280.6670, 195.5889
281.8790, 221.4233
283.0920, 173.3892
284.3040, 129.4805
285.5160, 135.6914
286.7280, 26.02686
287.9400, 14.53955
289.1510, 105.0166
290.3630, 155.9917
291.5740, 159.7485
292.7850, 255.0068
293.9960, 339.1934
295.2070, 399.3054
296.4170, 415.3430
297.6280, 440.3042
298.8380, 363.1785
300.0480, 331.9507
301.2580, 336.6042
302.4680, 283.1284
303.6770, 271.5205
304.8870, 295.7847
306.0960, 278.9275
307.3050, 242.9534
308.5140, 281.8672
309.7230, 236.6733
310.9310, 205.3765
312.1400, 339.9785
313.3480, 400.4856
314.5560, 304.9036
315.7640, 376.9790
316.9720, 295.4802
318.1790, 349.6440
319.3870, 376.7290
320.5940, 345.7388
321.8010, 440.6750
323.0080, 393.5417
324.2150, 510.3381
325.4210, 465.0566
326.6280, 472.6816
327.8340, 471.1768
329.0400, 452.9575
330.2460, 463.8093
331.4510, 461.9812
332.6570, 420.0918
333.8620, 472.1079
335.0680, 444.9800
336.2730, 353.5925
337.4780, 347.9375
338.6820, 330.7183
339.8870, 282.5950
341.0910, 332.8579
342.2950, 323.7832
343.5000, 318.4041
344.7030, 337.7776
345.9070, 343.9080
347.1110, 353.1006
348.3140, 390.2002
349.5170, 462.2849
350.7200, 511.3594
351.9230, 602.4224
353.1260, 632.4712
354.3290, 819.5027
355.5310, 967.5173
356.7330, 1043.513
357.9350, 1111.488
359.1370, 1360.450
360.3390, 1539.397
361.5400, 1518.329
362.7420, 1597.249
363.9430, 1610.156
365.1440, 1629.053
366.3450, 1600.939
367.5460, 1534.815
368.7460, 1455.680
369.9470, 1326.536
371.1470, 1168.378
372.3470, 1100.206
373.5470, 1067.021
374.7460, 954.8247
375.9460, 981.6177
377.1450, 859.4019
378.3450, 767.1787
379.5440, 796.9478
380.7430, 748.7100
381.9410, 747.4658
383.1400, 748.2163
384.3380, 679.9619
385.5370, 683.7017
386.7350, 610.4380
387.9320, 617.9810
389.1300, 682.2676
390.3280, 611.2073
391.5250, 551.6509
392.7220, 598.7390
393.9190, 578.9580
395.1160, 607.2891
396.3130, 616.1931
397.5100, 564.9111
398.7060, 627.7971
399.9020, 633.8706
401.0980, 632.1584
402.2940, 678.3345
403.4900, 733.8503
404.6860, 807.3953
405.8810, 906.0049
407.0760, 1017.387
408.2710, 1141.490
409.4660, 1292.027
410.6610, 1437.469
411.8550, 1603.645
413.0500, 1872.234
414.2440, 2121.237
415.4380, 2435.139
416.6320, 2928.062
417.8260, 3295.261
419.0190, 3777.022
420.2130, 4403.079
421.4060, 5140.713
422.5990, 5847.167
423.7920, 6872.347
424.9850, 7644.647
426.1770, 8334.287
427.3700, 9332.908
428.5620, 9933.250
429.7540, 10173.18
430.9460, 10189.97
432.1380, 9870.259
433.3290, 9037.843
434.5210, 8117.160
435.7120, 7301.497
436.9030, 6494.463
438.0940, 5513.763
439.2850, 4685.246
440.4750, 4117.717
441.6660, 3632.177
442.8560, 3045.503
444.0460, 2768.681
445.2360, 2444.862
446.4260, 2249.805
447.6160, 1874.685
448.8050, 1611.652
449.9940, 1463.537
451.1830, 1279.260
452.3720, 1164.133
453.5610, 1012.809
454.7500, 922.2427
455.9380, 885.3320
457.1260, 728.6670
458.3150, 681.5942
459.5020, 670.8174
460.6900, 656.6924
461.8780, 596.7886
463.0650, 572.4629
464.2530, 494.0640
465.4400, 499.3833
466.6270, 492.6460
467.8130, 489.9595
469.0000, 383.2705
470.1870, 407.5796
471.3730, 367.8872
472.5590, 384.1938
473.7450, 405.5005
474.9310, 438.8076
476.1160, 425.1167
477.3020, 380.4263
478.4870, 345.7388
479.6720, 333.8457
480.8570, 332.9409
482.0420, 311.9746
483.2270, 393.8223
484.4110, 337.8965
485.5960, 371.9658
486.7800, 370.0430
487.9640, 364.2261
489.1480, 466.4761
490.3310, 489.8027
491.5150, 460.2896
492.6980, 511.7983
493.8810, 481.3276
495.0640, 467.8809
496.2470, 643.4536
497.4300, 565.0571
498.6120, 670.6904
499.7950, 725.3564
500.9770, 662.0371
502.1590, 839.7451
503.3410, 987.4692
504.5220, 1019.214
505.7040, 1125.982
506.8850, 1256.790
508.0660, 1362.616
509.2470, 1500.457
510.4280, 1547.350
511.6090, 1765.270
512.7890, 1943.225
513.9700, 2057.206
515.1500, 2292.236
516.3300, 2617.291
517.5100, 2859.377
518.6900, 2940.487
519.8690, 3198.628
521.0490, 3234.801
522.2280, 3312.999
523.4070, 3310.217
524.5860, 3313.867
525.7640, 3265.175
526.9430, 3189.558
528.1210, 2968.338
529.3000, 2869.872
530.4780, 2690.102
531.6560, 2471.438
532.8330, 2294.184
534.0110, 2174.371
535.1880, 1949.913
536.3650, 1945.587
537.5430, 1866.760
538.7190, 1672.766
539.8960, 1578.725
541.0730, 1528.548
542.2490, 1522.626
543.4250, 1470.956
544.6020, 1453.953
545.7780, 1428.832
546.9530, 1283.747
548.1290, 1378.908
549.3040, 1290.131
550.4800, 1261.574
551.6550, 1329.768
552.8300, 1296.186
554.0040, 1498.426
555.1790, 1548.596
556.3540, 1607.050
557.5280, 1884.593
558.7020, 2141.307
559.8760, 2183.274
561.0500, 2627.301
562.2230, 2996.137
563.3970, 3415.631
564.5700, 3998.152
565.7430, 4580.963
566.9160, 5002.806
568.0890, 5664.064
569.2620, 6288.790
570.4340, 6768.656
571.6070, 7400.189
572.7790, 7719.833
573.9510, 7824.647
575.1230, 7704.384
576.2940, 7168.203
577.4660, 6804.958
578.6370, 5967.691
579.8080, 5232.280
580.9790, 4355.875
582.1500, 3722.346
583.3210, 2960.817
584.4910, 2440.291
585.6620, 2048.769
586.8320, 1707.249
588.0020, 1462.732
589.1720, 1208.220
590.3410, 862.7100
591.5110, 850.2041
592.6800, 671.7021
593.8500, 599.2031
595.0190, 640.7075
596.1880, 557.2163
597.3560, 505.7271
598.5250, 384.2378
599.6930, 331.7500
600.8620, 420.2632
602.0300, 364.7778
603.1970, 482.2925
604.3650, 439.8076
605.5330, 489.3228
606.7000, 536.8369
607.8680, 562.3501
609.0350, 675.8608
610.2020, 720.3711
611.3680, 831.8789
612.5350, 962.3848
613.7010, 1210.888
614.8680, 1408.652
616.0340, 1722.360
617.2000, 2131.932
618.3660, 2442.722
619.5310, 3109.389
620.6970, 3622.673
621.8620, 4503.427
623.0270, 5329.265
624.1920, 6222.029
625.3570, 7320.495
626.5220, 8508.188
627.6860, 9393.969
628.8500, 10010.45
630.0140, 10112.31
631.1780, 10020.91
632.3420, 9304.174
633.5060, 8193.284
634.6700, 6835.927
635.8330, 5475.745
636.9960, 4400.102
638.1590, 3504.083
639.3220, 2670.010
640.4850, 2226.818
641.6470, 1843.064
642.8100, 1554.107
643.9720, 1185.882
645.1340, 964.6631
646.2960, 879.9753
647.4570, 645.1868
648.6190, 556.8413
649.7800, 430.0181
650.9420, 389.3589
652.1030, 292.7876
653.2640, 345.0530
654.4240, 225.3108
655.5850, 214.9585
656.7450, 51.65503
657.9060, 142.3240
659.0660, 119.1050
660.2260, 55.93823
661.3850, 62.75098
662.5450, 48.31055
663.7040, 19.18921
664.8640, 17.79712
666.0230, 13.41382
667.1820, 16.58911
668.3410, 7.004395
669.4990, 27.69385
670.6580, 28.45264
671.8160, 0.4885250
672.9740, 45.54077
674.1320, 29.56323
675.2900, 30.37598
676.4480, 12.20801
677.6050, 2.140625
678.7630, 9.352051
679.9200, 90.41431
681.0770, 60.61279
682.2340, 30.06958
683.3900, 71.16260
684.5470, 4.540527
685.7030, 9.306152
686.8590, 18.21729
688.0150, 10.59985
689.1710, 69.56323
690.3270, 32.29004
691.4830, 34.00977
692.6380, 64.15430
693.7930, 41.71265
694.9480, 28.60229
696.1030, 59.57837
697.2580, 32.59912
698.4130, 6.520020
699.5670, 27.58862
700.7210, 85.76001
701.8750, 62.01855
703.0290, 44.35229
704.1830, 14.75317
705.3370, 13.20654
706.4900, 17.56372
707.6430, 7.125244
708.7970, 7.676758
709.9490, 48.40210
711.1020, 0.9609380
712.2550, 2.622559
713.4070, 0.5891110
714.5600, 41.52075
715.7120, 58.58984
716.8640, 66.61841
718.0160, 102.4661
719.1670, 101.5566
720.3190, 135.4673
721.4700, 189.3398
722.6210, 165.1746
723.7720, 220.9709
724.9230, 196.7288
726.0740, 258.4487
727.2250, 278.1304
728.3750, 262.7732
729.5250, 296.3774
730.6750, 331.9429
731.8250, 461.4697
732.9750, 495.9578
734.1240, 542.4072
735.2740, 476.8174
736.4230, 501.1887
737.5720, 462.5208
738.7210, 507.8140
739.8700, 414.0676
741.0190, 358.2820
742.1670, 397.4834
743.3150, 388.6191
744.4630, 433.7158
745.6110, 359.7727
746.7590, 262.7903
747.9070, 295.7681
749.0540, 197.7068
750.2020, 187.6060
751.3490, 145.4651
752.4960, 76.28491
753.6430, 89.06299
754.7890, 120.7993
755.9360, 67.49512
757.0820, 96.14893
758.2280, 28.76147
759.3740, 73.32617
760.5200, 52.84863
761.6660, 69.32812
762.8120, 12.23413
763.9570, 0.1364750
765.1020, 61.44629
766.2470, 28.28638
767.3920, 11.09399
768.5370, 5.968262
769.6810, 7.093506
770.8260, 9.595703
771.9700, 0.5000000
773.1140, 14.93750
774.2580, 27.22607
775.4020, 21.46436
776.5460, 36.77393
777.6890, 42.83740
778.8320, 10.59521
779.9750, 31.90747
781.1180, 13.36353
782.2610, 4.232910
783.4040, 60.89062
784.5460, 24.36035
785.6890, 19.43628
786.8310, 12.30151
787.9730, 63.23169
789.1150, 49.25317
790.2560, 15.35840
791.3980, 95.52930
792.5390, 6.807373
793.6810, 40.14575
794.8220, 8.561523
795.9630, 27.03809
797.1030, 44.58423
798.2440, 13.20874
799.3840, 6.104492
800.5240, 29.36694
801.6650, 18.82886
802.8040, 45.71997
803.9440, 52.73071
805.0840, 63.47070
806.2230, 59.86108
807.3630, 42.43823
808.5020, 27.58203
809.6410, 4.828369
810.7790, 49.77588
811.9180, 34.64746
813.0570, 36.22363
814.1950, 14.67822
815.3330, 28.26147
816.4710, 6.816162
817.6090, 6.968506
818.7470, 38.01855
819.8840, 2.644287
821.0220, 5.624512
822.1590, 24.72095
823.2960, 7.713379
824.4330, 31.46460
825.5690, 38.85181
826.7060, 24.60620
827.8420, 6.315918
828.9790, 29.83105
830.1150, 42.56641
831.2510, 2.430176
832.3860, 89.03418
833.5220, 31.38672
834.6570, 51.06836
835.7930, 2.352539
836.9280, 95.64795
838.0630, 93.21729
839.1980, 110.2041
840.3320, 25.22900
841.4670, 129.0435
842.6010, 11.11279
843.7350, 52.38232
844.8690, 95.46826
846.0030, 7.456055
847.1370, 14.17334
848.2700, 67.10303
849.4040, 93.21680
850.5370, 53.40137
851.6700, 86.49463
852.8030, 95.63721
853.9360, 35.79346
855.0680, 85.07861
856.2000, 35.33984
857.3330, 64.71338
858.4650, 17.06982
859.5970, 85.41016
860.7290, 29.73340
861.8600, 56.04150
862.9920, 20.33398
864.1230, 47.61084
865.2540, 119.8735
866.3850, 95.12061
867.5160, 109.3545
868.6460, 64.57422
869.7770, 116.7803
870.9070, 44.97363
872.0370, 159.1538
873.1670, 68.32178
874.2970, 87.47754
875.4270, 52.62158
876.5570, 177.7544
877.6860, 1.124023
878.8150, 61.98633
879.9440, 126.0869
881.0730, 75.17676
882.2020, 51.25781
883.3300, 104.3291
884.4590, 69.39209
885.5870, 190.4463
886.7150, 143.4927
887.8430, 175.5308
888.9710, 190.2983
890.0990, 242.1123
891.2260, 221.0537
892.3530, 240.7671
893.4810, 242.5957
894.6080, 278.7988
895.7340, 368.5229
896.8610, 285.1592
897.9880, 327.8628
899.1140, 369.8618
900.2400, 475.6279
901.3660, 529.3047
902.4920, 471.2788
903.6180, 516.3276
904.7430, 560.6968
905.8690, 634.8701
906.9940, 783.1924
908.1190, 862.9839
909.2440, 900.5972
910.3690, 949.6655
911.4930, 1164.102
912.6180, 1221.586
913.7420, 1481.183
914.8660, 1660.333
915.9900, 1959.680
917.1140, 2355.288
918.2380, 2729.884
919.3610, 3126.942
920.4850, 3657.101
921.6080, 4416.809
922.7310, 5248.988
923.8540, 6276.015
924.9760, 7390.945
926.0990, 8707.037
927.2210, 10168.13
928.3440, 11397.83
929.4660, 12918.49
930.5880, 14192.16
931.7090, 15073.73
932.8310, 15341.24
933.9520, 15381.79
935.0740, 14512.57
936.1950, 13288.42
937.3160, 11839.77
938.4360, 10358.48
939.5570, 8661.826
940.6780, 7265.562
941.7980, 6209.591
942.9180, 5292.806
944.0380, 4392.045
945.1580, 3897.383
946.2780, 3506.708
947.3970, 3260.819
948.5170, 2890.949
949.6360, 2582.182
950.7550, 2464.987
951.8740, 2237.047
952.9930, 2016.513
954.1110, 1857.610
955.2300, 1675.975
956.3480, 1516.178
957.4660, 1412.182
958.5840, 1295.890
959.7020, 1250.763
960.8190, 1317.192
961.9370, 1305.166
963.0540, 1255.118
964.1710, 1359.172
965.2880, 1295.250
966.4050, 1418.354
967.5220, 1515.536
968.6380, 1612.561
969.7550, 1675.837
970.8710, 1911.154
971.9870, 1983.519
973.1030, 2156.938
974.2190, 2336.405
975.3340, 2641.922
976.4500, 2881.476
977.5650, 3094.925
978.6800, 3542.562
979.7950, 3877.232
980.9100, 4428.941
982.0250, 5088.518
983.1390, 5613.319
984.2530, 6565.178
985.3680, 7487.076
986.4820, 8532.002
987.5950, 9909.962
988.7090, 11787.96
989.8230, 13758.98
990.9360, 16113.04
992.0490, 19315.13
993.1620, 22581.26
994.2750, 26391.41
995.3880, 30449.61
996.5010, 34915.85
997.6130, 39056.09
998.7250, 43544.38
999.8370, 47597.70
1000.949, 50975.07
1002.061, 53334.45
1003.173, 55014.88
1004.284, 55521.34
1005.396, 55564.84
1006.507, 54985.36
1007.618, 53636.93
1008.729, 51899.52
1009.839, 49697.16
1010.950, 47068.84
1012.060, 43945.53
1013.171, 40949.27
1014.281, 37581.05
1015.391, 34453.86
1016.500, 31282.72
1017.610, 27526.62
1018.719, 24445.55
1019.829, 21344.51
1020.938, 18181.52
1022.047, 15773.56
1023.156, 13727.64
1024.264, 11846.75
1025.373, 10430.98
1026.481, 9095.179
1027.589, 8119.434
1028.697, 7255.733
1029.805, 6699.437
1030.913, 6188.809
1032.020, 5705.326
1033.128, 5480.783
1034.235, 5195.494
1035.342, 5232.101
1036.449, 5167.715
1037.556, 5069.593
1038.663, 4898.706
1039.769, 4754.764
1040.875, 4526.099
1041.981, 4381.219
1043.087, 3991.378
1044.193, 3549.297
1045.299, 3193.270
1046.404, 2883.217
1047.510, 2713.362
1048.615, 2376.476
1049.720, 2163.626
1050.825, 2024.819
1051.930, 1833.057
1053.034, 1714.378
1054.139, 1579.121
1055.243, 1496.165
1056.347, 1376.103
1057.451, 1279.609
1058.555, 1246.175
1059.658, 1203.052
1060.762, 1124.745
1061.865, 1043.168
1062.968, 1079.542
1064.071, 1090.830
1065.174, 1127.720
1066.277, 1141.342
1067.380, 1193.333
1068.482, 1286.766
1069.584, 1284.832
1070.686, 1274.944
1071.788, 1461.186
1072.890, 1519.409
1073.992, 1822.784
1075.093, 1990.121
1076.194, 2080.508
1077.295, 2484.150
1078.396, 2768.658
1079.497, 3145.503
1080.598, 3636.769
1081.698, 4072.231
1082.799, 4849.786
1083.899, 5335.540
1084.999, 5976.249
1086.099, 6427.286
1087.199, 6989.188
1088.298, 7302.055
1089.398, 7490.304
1090.497, 7337.195
1091.596, 6821.924
1092.695, 6523.558
1093.794, 5769.319
1094.892, 5132.333
1095.991, 4417.433
1097.089, 3904.505
1098.187, 3249.806
1099.285, 2952.726
1100.383, 2492.474
1101.481, 2017.668
1102.579, 1825.378
1103.676, 1543.846
1104.773, 1425.116
1105.870, 1233.411
1106.967, 1068.046
1108.064, 931.3892
1109.161, 801.4395
1110.257, 698.2583
1111.353, 600.9849
1112.449, 533.4229
1113.545, 467.4868
1114.641, 427.1152
1115.737, 396.2241
1116.832, 390.7510
1117.928, 394.2993
1119.023, 409.8682
1120.118, 372.2339
1121.213, 205.8428
1122.308, 230.6426
1123.402, 209.3477
1124.497, 294.0161
1125.591, 283.2993
1126.685, 201.7998
1127.779, 212.5249
1128.873, 223.2681
1129.967, 203.0303
1131.060, 220.8101
1132.153, 217.0874
1133.247, 303.9019
1134.340, 354.7964
1135.433, 305.6450
1136.525, 193.5747
1137.618, 222.4575
1138.710, 96.66895
1139.802, 81.58643
1140.895, 132.1367
1141.987, 228.8750
1143.078, 155.8379
1144.170, 154.0317
1145.261, 76.02441
1146.353, 53.09033
1147.444, 191.5298
1148.535, 60.56494
1149.626, 40.34619
1150.716, 178.4106
1151.807, 14.62061
1152.897, 108.5757
1153.988, 71.70654
1155.078, 53.10742
1156.168, 6.766602
1157.257, 51.93311
1158.347, 54.58984
1159.436, 95.68164
1160.526, 22.64307
1161.615, 53.53271
1162.704, 47.26318
1163.793, 19.92139
1164.881, 48.88574
1165.970, 4.679688
1167.058, 0.3549800
1168.147, 14.44092
1169.235, 22.11865
1170.323, 72.15771
1171.410, 21.96045
1172.498, 49.76123
1173.585, 15.56885
1174.673, 18.63184
1175.760, 66.43848
1176.847, 94.84619
1177.934, 54.05566
1179.020, 90.27051
1180.107, 73.48926
1181.193, 27.71240
1182.279, 24.93896
1183.365, 34.83057
1184.451, 30.39111
1185.537, 11.63379
1186.623, 81.86768
1187.708, 46.27979
1188.793, 44.34570
1189.878, 34.37109
1190.963, 93.83838
1192.048, 19.78027
1193.133, 16.59912
1194.217, 55.09717
1195.302, 21.29688
1196.386, 57.34766
1197.470, 57.77686
1198.554, 9.100586
1199.638, 40.01562
1200.721, 34.12842
1201.805, 41.54053
1202.888, 18.93652
1203.971, 20.93457
1205.054, 23.25000
1206.137, 26.31641
1207.219, 0.3789060
1208.302, 16.56738
1209.384, 21.62500
1210.466, 27.61768
1211.548, 29.48096
1212.630, 11.20264
1213.712, 7.756348
1214.794, 39.74414
1215.875, 33.31201
1216.956, 11.39600
1218.037, 12.50098
1219.118, 48.53613
1220.199, 18.37305
1221.280, 100.7856
1222.360, 50.01221
1223.441, 0.2797850
1224.521, 52.47021
1225.601, 19.23438
1226.681, 48.38867
1227.760, 53.15283
1228.840, 13.71680
1229.919, 57.29297
1230.999, 70.30225
1232.078, 53.91748
1233.157, 20.68164
1234.236, 40.16846
1235.314, 55.69678
1236.393, 0.1611330
1237.471, 76.74316
1238.549, 0.1713870
1239.627, 144.5742
1240.705, 54.37061
1241.783, 51.84375
1242.860, 83.34033
1243.938, 5.262695
1245.015, 56.93311
1246.092, 55.34473
1247.169, 87.62793
1248.246, 66.89355
1249.323, 22.13867
1250.399, 105.3652
1251.475, 15.56348
1252.552, 49.72461
1253.628, 61.87061
1254.703, 10.00146
1255.779, 28.10400
1256.855, 96.19238
1257.930, 70.27246
1259.005, 89.33691
1260.080, 76.38672
1261.155, 17.42090
1262.230, 151.4258
1263.305, 62.41504
1264.379, 92.38770
1265.454, 9.422852
1266.528, 82.34473
1267.602, 56.25000
1268.676, 113.7554
1269.750, 47.62451
1270.823, 0.4711910
1271.897, 201.2764
1272.970, 67.15430
1274.043, 84.92578
1275.116, 78.67920
1276.189, 6.540527
1277.261, 190.1475
1278.334, 52.40088
1279.406, 135.3271
1280.478, 80.95557
1281.550, 24.67529
1282.622, 91.25098
1283.694, 75.80762
1284.766, 108.3438
1285.837, 13.02100
1286.908, 34.50146
