##NAMES=Catapleiite
##RRUFFID=R060208
##IDEAL CHEMISTRY=Na_2_Zr^4+^Si_3_O_9_&#183;2H_2_O
##LOCALITY=Mont Saint-Hilaire, Rouville County, Quebec, Canada
##OWNER=RRUFF
##SOURCE=Royal Ontario Museum
##DESCRIPTION=Colorless transparent thin tabular pseudohexagonal crystal
##STATUS=The identification of this mineral is confirmed by single-crystal X-ray diffraction and chemical analysis.
##URL=rruff.info/R060208
##MEASURED CHEMISTRY=Na_2.00_Zr_1.00_Si_3.00_O_9_Â·2H_2_O
##PIN_ID=M01568
##ORIENTATION=Laser parallel to b* (0 1 0). Fiducial mark perpendicular to laser is parallel to c [0 0 1]
92.49800, 0.0000000E+00
93.73600, 15.70801
94.97300, 26.91919
96.21000, 153.0984
97.44600, 283.7119
98.68300, 431.0518
99.91900, 634.0981
101.1560, 730.7534
102.3920, 837.9790
103.6280, 981.7656
104.8630, 1126.934
106.0990, 1224.972
107.3350, 1347.590
108.5700, 1430.987
109.8050, 1550.744
111.0400, 1614.494
112.2750, 1716.467
113.5100, 1890.113
114.7440, 1871.990
115.9780, 2009.002
117.2130, 2058.242
118.4470, 2013.484
119.6810, 2043.342
120.9140, 1996.485
122.1480, 1892.593
123.3810, 2129.400
124.6150, 2137.692
125.8480, 2060.300
127.0810, 2231.064
128.3130, 2258.845
129.5460, 2283.527
130.7790, 2343.988
132.0110, 2315.132
133.2430, 2330.885
134.4750, 2299.193
135.7070, 2297.011
136.9380, 2347.933
138.1700, 2210.368
139.4010, 2270.795
140.6330, 2481.871
141.8640, 2274.567
143.0950, 2338.643
144.3250, 2450.727
145.5560, 2421.655
146.7860, 2481.743
148.0160, 2634.718
149.2470, 2706.436
150.4760, 2815.892
151.7060, 2962.113
152.9360, 2966.118
154.1650, 3054.924
155.3950, 3083.605
156.6240, 2915.298
157.8530, 3010.903
159.0820, 2929.342
160.3100, 2855.622
161.5390, 2983.756
162.7670, 2915.752
163.9950, 2902.617
165.2230, 3070.361
166.4510, 3043.916
167.6790, 3137.129
168.9060, 3126.125
170.1340, 3201.977
171.3610, 3575.733
172.5880, 3550.430
173.8150, 3541.095
175.0420, 3780.747
176.2690, 3779.400
177.4950, 3858.070
178.7210, 3865.763
179.9470, 4103.553
181.1730, 4289.304
182.3990, 4430.644
183.6250, 4635.229
184.8500, 4820.267
186.0760, 5094.654
187.3010, 5376.377
188.5260, 5762.959
189.7510, 6066.618
190.9750, 6365.049
192.2000, 6809.575
193.4240, 7278.658
194.6490, 7758.651
195.8730, 8057.933
197.0970, 8237.816
198.3200, 8646.828
199.5440, 8889.077
200.7670, 9233.590
201.9910, 9227.585
203.2140, 9290.854
204.4370, 9435.783
205.6590, 9479.781
206.8820, 9657.860
208.1050, 9733.021
209.3270, 9811.258
210.5490, 9842.562
211.7710, 9688.932
212.9930, 9592.352
214.2150, 9090.812
215.4360, 8584.307
216.6570, 7779.825
217.8790, 7067.542
219.1000, 6482.416
220.3210, 5824.903
221.5410, 5197.604
222.7620, 4566.261
223.9820, 4002.775
225.2030, 3460.311
226.4230, 2957.866
227.6430, 2516.442
228.8620, 2160.787
230.0820, 1872.653
231.3010, 1600.285
232.5210, 1372.078
233.7400, 1181.610
234.9590, 1027.285
236.1780, 881.9854
237.3960, 798.7026
238.6150, 692.4360
239.8330, 612.5029
241.0510, 463.9722
242.2690, 363.4121
243.4870, 251.0259
244.7050, 188.6611
245.9230, 164.8911
247.1400, 114.8540
248.3570, 56.37012
249.5740, 59.43555
250.7910, 129.7773
252.0080, 111.5596
253.2240, 205.6689
254.4410, 230.0688
255.6570, 109.7280
256.8730, 171.6191
258.0890, 259.7197
259.3050, 307.0093
260.5210, 198.4707
261.7360, 165.0889
262.9510, 87.84814
264.1670, 90.73389
265.3820, 30.26855
266.5960, 43.17969
267.8110, 142.0132
269.0260, 191.7998
270.2400, 194.5596
271.4540, 234.3003
272.6680, 283.0386
273.8820, 274.8218
275.0960, 360.5625
276.3090, 271.3770
277.5230, 272.2188
278.7360, 257.0908
279.9490, 311.9937
281.1620, 262.9438
282.3750, 298.9316
283.5880, 300.9736
284.8000, 197.0801
286.0120, 153.2412
287.2240, 125.4590
288.4360, 85.73438
289.6480, 44.06152
290.8600, 0.5693360
292.0710, 47.83350
293.2830, 10.28076
294.4940, 0.9516600
295.7050, 15.55615
296.9160, 27.17139
298.1260, 82.59814
299.3370, 71.00586
300.5470, 113.3936
301.7580, 68.76514
302.9680, 64.88379
304.1770, 62.42090
305.3870, 88.29395
306.5970, 19.93896
307.8060, 64.14648
309.0150, 3.334961
310.2250, 110.4937
311.4340, 55.63867
312.6420, 140.7651
313.8510, 196.8809
315.0590, 119.9858
316.2680, 217.0815
317.4760, 147.1689
318.6840, 194.2471
319.8920, 286.3164
321.0990, 257.3779
322.3070, 331.4312
323.5140, 257.4756
324.7210, 275.5117
325.9280, 377.5049
327.1350, 372.3628
328.3420, 354.0488
329.5490, 346.5166
330.7550, 383.7378
331.9610, 344.7539
333.1670, 311.5493
334.3730, 206.1147
335.5790, 345.5425
336.7840, 183.8799
337.9900, 178.1821
339.1950, 202.4424
340.4000, 72.68262
341.6050, 47.91260
342.8100, 70.13818
344.0150, 102.3193
345.2190, 18.45117
346.4230, 134.5527
347.6280, 96.63965
348.8320, 181.7217
350.0350, 168.8120
351.2390, 354.9111
352.4430, 342.0176
353.6460, 443.1328
354.8490, 547.2559
356.0520, 679.3857
357.2550, 692.5229
358.4580, 793.6675
359.6600, 1086.819
360.8630, 1164.977
362.0650, 1144.142
363.2670, 1217.287
364.4690, 1152.423
365.6710, 1087.542
366.8720, 1128.661
368.0740, 1067.787
369.2750, 996.9194
370.4760, 933.0596
371.6770, 824.2061
372.8780, 795.3599
374.0780, 719.5771
375.2790, 632.6890
376.4790, 630.8633
377.6790, 520.0449
378.8790, 525.2334
380.0790, 505.4297
381.2790, 403.6328
382.4780, 366.8433
383.6780, 428.0601
384.8770, 453.3242
386.0760, 387.6260
387.2750, 421.9590
388.4730, 364.3184
389.6720, 312.6958
390.8700, 328.0928
392.0690, 295.5020
393.2670, 260.9224
394.4650, 336.3706
395.6620, 331.8511
396.8600, 398.3379
398.0570, 390.8325
399.2550, 478.3325
400.4520, 545.8345
401.6490, 556.3530
402.8450, 554.8774
404.0420, 733.4004
405.2390, 808.9556
406.4350, 870.5171
407.6310, 1036.081
408.8270, 1199.660
410.0230, 1262.770
411.2190, 1577.217
412.4140, 1715.713
413.6090, 2009.388
414.8050, 2298.771
416.0000, 2713.307
417.1940, 3146.134
418.3890, 3759.729
419.5840, 4475.268
420.7780, 5209.536
421.9720, 5892.166
423.1660, 6912.220
424.3600, 7801.027
425.5540, 8840.548
426.7480, 9585.839
427.9410, 10503.86
429.1340, 10659.64
430.3270, 10658.68
431.5200, 10200.14
432.7130, 9467.643
433.9060, 8474.329
435.0980, 7395.185
436.2900, 6516.459
437.4830, 5589.606
438.6750, 4715.233
439.8660, 4029.491
441.0580, 3511.147
442.2500, 3005.996
443.4410, 2595.702
444.6320, 2286.553
445.8230, 1899.128
447.0140, 1810.578
448.2050, 1601.892
449.3950, 1395.886
450.5860, 1138.628
451.7760, 1041.809
452.9660, 860.5259
454.1560, 822.3828
455.3450, 761.1631
456.5350, 613.0278
457.7240, 607.8936
458.9140, 485.7495
460.1030, 510.6191
461.2920, 362.4907
462.4810, 375.3643
463.6690, 273.2402
464.8580, 318.1172
466.0460, 395.9966
467.2340, 392.8779
468.4220, 318.7603
469.6100, 309.6460
470.7970, 297.5337
471.9850, 308.4248
473.1720, 296.3198
474.3590, 332.2202
475.5460, 281.1274
476.7330, 314.0415
477.9200, 269.9722
479.1060, 210.9136
480.2930, 200.8721
481.4790, 282.8403
482.6650, 220.8203
483.8510, 289.0386
485.0370, 278.3979
486.2220, 304.5337
487.4080, 311.5664
488.5930, 322.7900
489.7780, 293.3398
490.9630, 376.2290
492.1480, 333.3301
493.3320, 395.4302
494.5170, 385.5630
495.7010, 341.7339
496.8850, 506.9160
498.0690, 629.1084
499.2530, 584.3101
500.4360, 560.5229
501.6200, 604.7471
502.8030, 760.9800
503.9860, 924.2212
505.1690, 911.4712
506.3520, 995.7295
507.5350, 1118.018
508.7170, 1162.325
509.9000, 1392.641
511.0820, 1459.968
512.2640, 1682.301
513.4460, 1857.644
514.6270, 1938.032
515.8090, 2111.428
516.9900, 2378.833
518.1710, 2646.275
519.3530, 2606.725
520.5330, 2784.205
521.7140, 2817.726
522.8950, 2837.254
524.0750, 2673.790
525.2550, 2700.333
526.4350, 2596.296
527.6150, 2417.857
528.7950, 2311.025
529.9750, 2154.142
531.1540, 1983.773
532.3340, 1796.275
533.5130, 1777.936
534.6920, 1595.195
535.8700, 1393.229
537.0490, 1422.100
538.2280, 1253.196
539.4060, 1303.233
540.5840, 1175.028
541.7620, 1087.293
542.9400, 1000.907
544.1180, 967.5020
545.2950, 968.7422
546.4720, 1001.659
547.6500, 974.9395
548.8270, 876.3467
550.0040, 917.8843
551.1800, 959.7734
552.3570, 1045.772
553.5330, 1110.289
554.7090, 1177.807
555.8850, 1318.960
557.0610, 1380.969
558.2370, 1514.111
559.4130, 1758.876
560.5880, 1989.456
561.7630, 2254.952
562.9380, 2564.000
564.1130, 2913.435
565.2880, 3292.910
566.4630, 3800.667
567.6370, 4339.244
568.8120, 4970.456
569.9860, 5113.350
571.1600, 5643.623
572.3330, 5904.720
573.5070, 6061.128
574.6810, 5922.053
575.8540, 5648.051
577.0270, 5208.777
578.2000, 4501.858
579.3730, 4015.757
580.5460, 3504.562
581.7180, 2791.571
582.8910, 2267.562
584.0630, 1997.454
585.2350, 1666.338
586.4070, 1359.231
587.5780, 1206.098
588.7500, 888.9849
589.9210, 752.8657
591.0930, 756.7710
592.2640, 605.6777
593.4350, 583.5781
594.6050, 513.4834
595.7760, 390.3779
596.9460, 284.2671
598.1170, 463.1450
599.2870, 399.0137
600.4570, 460.8711
601.6260, 420.7163
602.7960, 483.5508
603.9650, 515.3770
605.1350, 523.1899
606.3040, 549.9907
607.4730, 629.7783
608.6420, 691.5552
609.8100, 790.2231
610.9790, 955.0703
612.1470, 1075.811
613.3150, 1250.537
614.4830, 1530.302
615.6510, 1787.059
616.8190, 2025.834
617.9860, 2485.411
619.1540, 3057.237
620.3210, 3679.820
621.4880, 4394.690
622.6550, 5312.840
623.8220, 6250.819
624.9880, 7343.235
626.1550, 8336.941
627.3210, 9289.518
628.4870, 10149.08
629.6530, 10328.14
630.8190, 10058.08
631.9840, 9061.488
633.1500, 7969.639
634.3150, 6741.149
635.4800, 5449.306
636.6450, 4393.149
637.8100, 3517.938
638.9740, 2689.360
640.1390, 2227.130
641.3030, 1766.179
642.4670, 1518.541
643.6310, 1304.880
644.7950, 1076.343
645.9590, 940.2559
647.1220, 757.6738
648.2850, 704.2627
649.4490, 503.4941
650.6120, 371.1255
651.7740, 437.3105
652.9370, 269.4727
654.1000, 276.6558
655.2620, 234.8481
656.4240, 190.9614
657.5860, 165.1953
658.7480, 132.2456
659.9100, 95.47852
661.0710, 128.1675
662.2330, 164.2910
663.3940, 115.5977
664.5550, 98.50732
665.7160, 26.88867
666.8770, 97.51416
668.0370, 19.06250
669.1980, 25.96240
670.3580, 75.75049
671.5180, 12.28809
672.6780, 100.4463
673.8380, 53.23340
674.9970, 51.85645
676.1570, 75.51709
677.3160, 68.21289
678.4750, 11.08643
679.6340, 23.91455
680.7930, 64.20361
681.9520, 33.45557
683.1100, 0.1059570
684.2680, 76.73633
685.4270, 97.86328
686.5850, 7.280273
687.7420, 12.82080
688.9000, 42.22168
690.0580, 47.33887
691.2150, 34.81494
692.3720, 23.42432
693.5290, 18.51855
694.6860, 13.43652
695.8430, 7.144043
696.9990, 9.890137
698.1560, 2.427246
699.3120, 14.02441
700.4680, 74.56982
701.6240, 2.333008
702.7800, 7.159180
703.9350, 118.0498
705.0900, 6.935547
706.2460, 69.13818
707.4010, 28.93555
708.5560, 55.29102
709.7110, 93.38965
710.8650, 8.973145
712.0200, 3.192383
713.1740, 52.30469
714.3280, 51.10547
715.4820, 20.46533
716.6360, 130.7681
717.7890, 178.0288
718.9430, 64.24854
720.0960, 142.4199
721.2490, 146.5493
722.4020, 176.6372
723.5550, 177.6841
724.7080, 164.6909
725.8600, 311.6558
727.0130, 260.5806
728.1650, 327.4639
729.3170, 288.3066
730.4690, 344.1084
731.6200, 381.8691
732.7720, 311.5884
733.9230, 442.2666
735.0740, 448.9033
736.2250, 404.4995
737.3760, 442.4019
738.5270, 529.9155
739.6780, 376.3877
740.8280, 449.0122
741.9780, 486.0972
743.1280, 280.4463
744.2780, 417.7544
745.4280, 316.0210
746.5770, 291.6465
747.7270, 242.8960
748.8760, 208.1636
750.0250, 189.9883
751.1740, 176.7314
752.3230, 158.7222
753.4720, 156.7012
754.6200, 148.6392
755.7680, 18.53613
756.9160, 128.3740
758.0640, 17.16943
759.2120, 116.9062
760.3600, 81.60010
761.5070, 98.24854
762.6550, 31.81396
763.8020, 135.2031
764.9490, 227.5010
766.0960, 249.0942
767.2420, 11.65967
768.3890, 92.05811
769.5350, 49.63770
770.6810, 1.180664
771.8270, 156.0488
772.9730, 63.91064
774.1190, 87.59424
775.2640, 90.73438
776.4100, 161.7168
777.5550, 85.66455
778.7000, 54.97266
779.8450, 171.2754
780.9900, 206.1230
782.1340, 112.9849
783.2790, 188.0366
784.4230, 37.52441
785.5670, 0.5932620
786.7110, 152.4512
787.8550, 66.44727
788.9980, 143.9287
790.1420, 159.0928
791.2850, 108.8179
792.4280, 115.3867
793.5710, 126.6797
794.7140, 80.63965
795.8560, 126.5254
796.9990, 50.79736
798.1410, 90.97754
799.2830, 84.75488
800.4250, 53.82080
801.5670, 120.3613
802.7090, 36.10986
803.8500, 18.40674
804.9920, 15.92773
806.1330, 6.911133
807.2740, 10.11914
808.4150, 67.40186
809.5550, 46.84570
810.6960, 58.14355
811.8360, 29.63574
812.9760, 55.92139
814.1160, 2.929199
815.2560, 11.80176
816.3960, 10.56348
817.5350, 48.46484
818.6750, 3.010254
819.8140, 42.06250
820.9530, 63.87305
822.0920, 11.49658
823.2310, 0.8388670
824.3690, 21.43262
825.5080, 111.5479
826.6460, 74.50684
827.7840, 23.91260
828.9220, 24.53369
830.0600, 57.55225
831.1970, 6.647949
832.3350, 69.63623
833.4720, 31.91504
834.6090, 33.42334
835.7460, 45.18066
836.8830, 1.837402
838.0190, 21.81689
839.1560, 42.90967
840.2920, 22.18311
841.4280, 8.456055
842.5640, 50.50146
843.7000, 11.23047
844.8360, 57.45312
845.9710, 64.50781
847.1070, 11.21436
848.2420, 25.88428
849.3770, 154.7178
850.5120, 71.80859
851.6460, 159.8242
852.7810, 108.0977
853.9150, 172.0186
855.0490, 48.10986
856.1830, 33.28564
857.3170, 143.2437
858.4510, 189.2046
859.5840, 131.2432
860.7180, 63.26904
861.8510, 107.2651
862.9840, 97.26709
864.1170, 137.2573
865.2500, 30.23730
866.3820, 80.20605
867.5150, 161.1655
868.6470, 56.11426
869.7790, 30.05322
870.9110, 5.983887
872.0430, 32.90479
873.1740, 22.18262
874.3060, 49.71777
875.4370, 65.61035
876.5680, 14.50439
877.6990, 37.62842
878.8300, 28.23340
879.9600, 44.08887
881.0910, 7.937500
882.2210, 26.21875
883.3510, 5.384766
884.4810, 27.44238
885.6110, 32.73486
886.7410, 76.07861
887.8700, 50.10986
888.9990, 83.64014
890.1290, 13.38037
891.2580, 194.0864
892.3860, 179.9731
893.5150, 71.59473
894.6440, 112.4414
895.7720, 209.9863
896.9000, 176.2373
898.0280, 240.6421
899.1560, 198.6050
900.2840, 206.2778
901.4110, 264.0732
902.5390, 383.8706
903.6660, 233.1748
904.7930, 346.5859
905.9200, 425.5244
907.0470, 411.7070
908.1730, 518.5161
909.3000, 585.6641
910.4260, 551.1089
911.5520, 826.5977
912.6780, 760.4395
913.8030, 978.9248
914.9290, 1180.123
916.0540, 1276.995
917.1800, 1565.874
918.3050, 1807.617
919.4300, 2085.511
920.5550, 2501.659
921.6790, 2946.235
922.8040, 3578.160
923.9280, 4277.670
925.0520, 5087.752
926.1760, 6070.567
927.3000, 7013.486
928.4230, 8139.397
929.5470, 9329.384
930.6700, 10188.25
931.7930, 10776.29
932.9160, 11018.38
934.0390, 10943.13
935.1620, 10596.50
936.2840, 9907.265
937.4070, 8938.417
938.5290, 7734.086
939.6510, 6575.501
940.7730, 5557.992
941.8940, 4724.311
943.0160, 4043.371
944.1370, 3423.878
945.2580, 3018.780
946.3800, 2716.047
947.5000, 2577.181
948.6210, 2369.865
949.7420, 2162.122
950.8620, 2001.237
951.9820, 1662.383
953.1020, 1516.054
954.2220, 1342.660
955.3420, 1217.231
956.4620, 1231.305
957.5810, 1146.807
958.7000, 1104.094
959.8190, 1062.858
960.9380, 1063.710
962.0570, 951.6875
963.1760, 1140.347
964.2940, 1135.402
965.4120, 1247.251
966.5300, 1203.981
967.6480, 1362.153
968.7660, 1451.922
969.8840, 1531.172
971.0010, 1636.460
972.1190, 1891.673
973.2360, 1964.063
974.3530, 2168.494
975.4690, 2534.967
976.5860, 2869.511
977.7030, 3144.379
978.8190, 3417.489
979.9350, 3840.167
981.0510, 4341.904
982.1670, 4888.674
983.2830, 5508.890
984.3980, 6424.742
985.5130, 7315.654
986.6290, 8605.600
987.7440, 9820.589
988.8590, 11612.60
989.9730, 13827.66
991.0880, 16179.75
992.2020, 19184.87
993.3160, 22860.02
994.4300, 26503.21
995.5440, 30874.44
996.6580, 35021.70
997.7720, 39454.98
998.8850, 43393.33
999.9980, 47332.71
1001.111, 49808.13
1002.224, 51782.57
1003.337, 52911.05
1004.450, 53061.57
1005.562, 52547.12
1006.674, 51711.72
1007.786, 50372.98
1008.898, 48375.64
1010.010, 45857.32
1011.122, 43361.86
1012.233, 40560.93
1013.344, 37795.73
1014.455, 34635.55
1015.566, 31905.41
1016.677, 28718.90
1017.788, 25575.77
1018.898, 22729.73
1020.009, 19767.21
1021.119, 17239.58
1022.229, 14818.70
1023.339, 12868.84
1024.448, 11020.02
1025.558, 9848.234
1026.667, 8504.499
1027.776, 7755.796
1028.885, 7112.142
1029.994, 6408.180
1031.103, 6070.601
1032.211, 5694.192
1033.320, 5260.300
1034.428, 5359.854
1035.536, 5134.439
1036.644, 5118.060
1037.751, 5078.732
1038.859, 5059.492
1039.966, 5006.294
1041.074, 4902.091
1042.181, 4615.922
1043.288, 4147.817
1044.394, 3931.275
1045.501, 3534.615
1046.607, 3209.490
1047.713, 2773.803
1048.820, 2401.882
1049.925, 2191.993
1051.031, 2025.137
1052.137, 1899.317
1053.242, 1740.009
1054.348, 1615.277
1055.453, 1428.653
1056.558, 1405.001
1057.662, 1310.386
1058.767, 1385.804
1059.871, 1201.256
1060.976, 1281.602
1062.080, 1298.259
1063.184, 1319.481
1064.288, 1354.578
1065.391, 1300.128
1066.495, 1393.875
1067.598, 1371.858
1068.701, 1413.108
1069.804, 1630.159
1070.907, 1789.073
1072.010, 1821.765
1073.112, 2098.766
1074.214, 2315.946
1075.317, 2617.022
1076.419, 2985.847
1077.521, 3277.160
1078.622, 3791.733
1079.724, 4273.888
1080.825, 5035.016
1081.926, 5822.398
1083.027, 6643.273
1084.128, 7565.727
1085.229, 8450.212
1086.329, 9376.744
1087.430, 10114.31
1088.530, 10436.59
1089.630, 10785.24
1090.730, 10538.16
1091.830, 10169.29
1092.929, 9397.108
1094.029, 8402.874
1095.128, 7521.078
1096.227, 6442.763
1097.326, 5718.621
1098.425, 4811.521
1099.523, 4248.461
1100.622, 3654.429
1101.720, 3100.429
1102.818, 2791.456
1103.916, 2369.533
1105.014, 2133.638
1106.111, 1862.768
1107.209, 1646.921
1108.306, 1389.098
1109.403, 1185.297
1110.500, 997.5215
1111.597, 1002.770
1112.694, 885.7891
1113.790, 706.0859
1114.887, 591.4102
1115.983, 502.7583
1117.079, 623.1274
1118.174, 539.6753
1119.270, 567.1094
1120.366, 474.5410
1121.461, 385.5845
1122.556, 379.0972
1123.651, 309.5464
1124.746, 336.0557
1125.841, 325.8555
1126.935, 365.8262
1128.030, 358.7598
1129.124, 358.3711
1130.218, 356.0122
1131.312, 368.6318
1132.405, 356.2686
1133.499, 325.9951
1134.592, 311.0723
1135.686, 279.4580
1136.779, 241.1631
1137.871, 237.4380
1138.964, 287.6191
1140.057, 202.6289
1141.149, 232.3979
1142.241, 174.0293
1143.334, 172.8291
1144.425, 251.7427
1145.517, 123.5767
1146.609, 138.4268
1147.700, 79.29443
1148.791, 35.49951
1149.883, 80.04297
1150.974, 9.166504
1152.064, 19.38184
1153.155, 110.0015
1154.245, 96.81885
1155.336, 22.05029
1156.426, 162.0269
1157.516, 15.58740
1158.606, 72.58691
1159.695, 39.04883
1160.785, 28.92920
1161.874, 70.09521
1162.963, 7.688477
1164.052, 25.64697
1165.141, 82.39746
1166.230, 53.45020
1167.318, 36.51123
1168.406, 20.57959
1169.495, 1.777832
1170.583, 35.69482
1171.670, 34.48779
1172.758, 53.57373
1173.846, 45.66602
1174.933, 19.23584
1176.020, 14.13721
1177.107, 27.76221
1178.194, 36.93945
1179.281, 3.148926
1180.367, 79.54346
1181.454, 168.6401
1182.540, 40.74170
1183.626, 14.15283
1184.712, 89.94971
1185.798, 5.6641001E-02
1186.883, 86.16504
1187.969, 39.27588
1189.054, 40.38965
1190.139, 8.666504
1191.224, 60.21533
1192.309, 45.12207
1193.393, 35.00586
1194.478, 79.94482
1195.562, 2.880859
1196.646, 10.14062
1197.730, 42.74561
1198.814, 26.74414
1199.897, 1.307617
1200.981, 30.29102
1202.064, 10.85156
1203.147, 35.87842
1204.230, 55.92578
1205.313, 26.04590
1206.396, 112.8818
1207.478, 118.7188
1208.560, 1.074219
1209.642, 9.172852
1210.724, 26.40088
1211.806, 35.81445
1212.888, 54.22168
1213.969, 43.04150
1215.051, 47.77344
1216.132, 94.58057
1217.213, 24.27441
1218.294, 37.03760
1219.374, 39.69189
1220.455, 27.65723
1221.535, 46.73779
1222.616, 17.84766
1223.696, 43.89893
1224.775, 75.54053
1225.855, 50.02686
1226.935, 35.44531
1228.014, 43.90869
1229.093, 103.8887
1230.172, 73.33496
1231.251, 61.11865
1232.330, 53.68701
1233.408, 33.31445
1234.487, 66.43701
1235.565, 71.29053
1236.643, 50.52441
1237.721, 117.9023
1238.799, 124.2695
1239.876, 148.9741
1240.954, 76.31885
1242.031, 16.73682
1243.108, 117.3257
1244.185, 88.65283
1245.262, 93.94287
1246.338, 62.22119
1247.415, 39.69873
1248.491, 48.95020
1249.567, 65.18799
1250.643, 7.413086
1251.719, 106.6104
1252.795, 61.79443
1253.870, 123.9648
1254.945, 43.12939
1256.021, 2.723145
1257.096, 41.38916
1258.170, 75.48291
1259.245, 42.43701
1260.320, 144.5854
1261.394, 112.6289
1262.468, 27.62256
1263.542, 25.60742
1264.616, 33.59814
1265.690, 122.6978
1266.763, 93.60107
1267.836, 101.4956
1268.910, 28.36865
1269.983, 84.29297
