##NAMES=Catapleiite
##RRUFFID=R060208
##IDEAL CHEMISTRY=Na_2_Zr^4+^Si_3_O_9_&#183;2H_2_O
##LOCALITY=Mont Saint-Hilaire, Rouville County, Quebec, Canada
##OWNER=RRUFF
##SOURCE=Royal Ontario Museum
##DESCRIPTION=Colorless transparent thin tabular pseudohexagonal crystal
##STATUS=The identification of this mineral is confirmed by single-crystal X-ray diffraction and chemical analysis.
##URL=rruff.info/R060208
##MEASURED CHEMISTRY=Na_2.00_Zr_1.00_Si_3.00_O_9_Â·2H_2_O
##PIN_ID=M01568
##ORIENTATION=Laser parallel to b* (0 1 0). Fiducial mark perpendicular to laser is parallel to c [0 0 1]
113.5100, 0.0000000E+00
114.7440, 53.70068
115.9780, 154.1860
117.2130, 24.66895
118.4470, 31.15527
119.6810, 104.3423
120.9140, 147.7783
122.1480, 295.7642
123.3810, 301.1636
124.6150, 470.6357
125.8480, 487.8979
127.0810, 603.6787
128.3130, 643.8979
129.5460, 787.8857
130.7790, 924.7285
132.0110, 985.7051
133.2430, 1045.656
134.4750, 1175.341
135.7070, 1132.110
136.9380, 1246.176
138.1700, 1306.961
139.4010, 1463.048
140.6330, 1462.139
141.8640, 1591.022
143.0950, 1571.656
144.3250, 1708.607
145.5560, 1878.296
146.7860, 2017.729
148.0160, 2152.452
149.2470, 2244.916
150.4760, 2393.491
151.7060, 2576.250
152.9360, 2657.583
154.1650, 2730.557
155.3950, 2743.095
156.6240, 2750.318
157.8530, 2833.220
159.0820, 2753.951
160.3100, 2686.695
161.5390, 2623.616
162.7670, 2733.854
163.9950, 2679.536
165.2230, 2485.777
166.4510, 2367.677
167.6790, 2216.327
168.9060, 1986.809
170.1340, 1900.246
171.3610, 1761.418
172.5880, 1705.406
173.8150, 1665.390
175.0420, 1523.671
176.2690, 1452.831
177.4950, 1357.140
178.7210, 1327.021
179.9470, 1437.785
181.1730, 1494.085
182.3990, 1583.473
183.6250, 1598.620
184.8500, 1668.788
186.0760, 1780.375
187.3010, 1919.547
188.5260, 2044.661
189.7510, 2262.427
190.9750, 2378.814
192.2000, 2552.301
193.4240, 2698.799
194.6490, 2982.434
195.8730, 3199.922
197.0970, 3056.306
198.3200, 3342.362
199.5440, 3439.813
200.7670, 3554.083
201.9910, 3706.147
203.2140, 3600.353
204.4370, 3475.685
205.6590, 3477.130
206.8820, 3534.675
208.1050, 3583.303
209.3270, 3454.002
210.5490, 3294.760
211.7710, 3249.565
212.9930, 3126.410
214.2150, 3036.286
215.4360, 2720.185
216.6570, 2547.099
217.8790, 2364.024
219.1000, 2166.949
220.3210, 1807.859
221.5410, 1631.741
222.7620, 1348.576
223.9820, 1177.608
225.2030, 986.6499
226.4230, 818.0737
227.6430, 703.4072
228.8620, 560.5195
230.0820, 492.4370
231.3010, 416.2979
232.5210, 302.0728
233.7400, 296.7808
234.9590, 149.7666
236.1780, 86.53760
237.3960, 69.23047
238.6150, 28.84717
239.8330, 25.38867
241.0510, 12.14111
242.2690, 17.74121
243.4870, 70.40967
244.7050, 68.14697
245.9230, 60.96045
247.1400, 169.8623
248.3570, 116.8901
249.5740, 85.08936
250.7910, 212.4937
252.0080, 179.1445
253.2240, 103.0688
254.4410, 214.3232
255.6570, 130.8892
256.8730, 65.79932
258.0890, 126.0361
259.3050, 5.512207
260.5210, 55.44727
261.7360, 155.2817
262.9510, 108.5088
264.1670, 158.3438
265.3820, 169.9375
266.5960, 157.3882
267.8110, 161.7598
269.0260, 139.1035
270.2400, 204.4536
271.4540, 161.8613
272.6680, 118.3433
273.8820, 198.9097
275.0960, 77.59766
276.3090, 101.3896
277.5230, 51.30469
278.7360, 73.34521
279.9490, 36.46924
281.1620, 196.1553
282.3750, 200.7153
283.5880, 333.1431
284.8000, 339.4395
286.0120, 474.6021
287.2240, 612.6333
288.4360, 758.5342
289.6480, 833.3057
290.8600, 974.2212
292.0710, 992.4473
293.2830, 1195.796
294.4940, 1253.978
295.7050, 1334.978
296.9160, 1352.789
298.1260, 1235.408
299.3370, 1277.825
300.5470, 1266.039
301.7580, 1040.046
302.9680, 1140.859
304.1770, 1063.485
305.3870, 1053.936
306.5970, 1115.218
307.8060, 999.3403
309.0150, 913.3115
310.2250, 955.1367
311.4340, 1005.822
312.6420, 951.3750
313.8510, 937.8003
315.0590, 963.1025
316.2680, 901.7632
317.4760, 881.3540
318.6840, 826.2964
319.8920, 792.1016
321.0990, 761.7153
322.3070, 730.0986
323.5140, 695.2202
324.7210, 646.0352
325.9280, 766.5376
327.1350, 704.6523
328.3420, 632.3940
329.5490, 642.7891
330.7550, 498.8198
331.9610, 423.5859
333.1670, 535.1689
334.3730, 383.4717
335.5790, 288.4683
336.7840, 339.1714
337.9900, 221.5767
339.1950, 310.7202
340.4000, 225.6118
341.6050, 173.3149
342.8100, 157.8848
344.0150, 151.4185
345.2190, 168.9287
346.4230, 257.4253
347.6280, 214.9121
348.8320, 149.3867
350.0350, 291.8486
351.2390, 292.2993
352.4430, 311.7393
353.6460, 342.1689
354.8490, 362.5884
356.0520, 420.9985
357.2550, 484.8721
358.4580, 542.3945
359.6600, 645.1738
360.8630, 689.5483
362.0650, 766.9141
363.2670, 847.2710
364.4690, 865.6201
365.6710, 840.9614
366.8720, 878.2959
368.0740, 809.6235
369.2750, 822.9438
370.4760, 785.2524
371.6770, 867.5479
372.8780, 791.8320
374.0780, 776.8276
375.2790, 716.5420
376.4790, 690.0356
377.6790, 736.6665
378.8790, 688.3750
380.0790, 679.2788
381.2790, 779.5298
382.4780, 583.2368
383.6780, 754.1738
384.8770, 688.0654
386.0760, 713.8477
387.2750, 666.4253
388.4730, 630.8433
389.6720, 670.5513
390.8700, 720.8628
392.0690, 701.4897
393.2670, 609.5947
394.4650, 730.8501
395.6620, 677.2744
396.8600, 733.9561
398.0570, 728.5835
399.2550, 829.4077
400.4520, 884.6562
401.6490, 1035.185
402.8450, 1171.136
404.0420, 1206.859
405.2390, 1372.504
406.4350, 1626.911
407.6310, 1959.260
408.8270, 2030.503
410.0230, 2492.028
411.2190, 2972.330
412.4140, 3477.365
413.6090, 4204.829
414.8050, 4877.171
416.0000, 5691.191
417.1940, 6818.935
418.3890, 8046.613
419.5840, 9393.922
420.7780, 11136.72
421.9720, 12470.68
423.1660, 14111.24
424.3600, 15638.39
425.5540, 17277.26
426.7480, 18487.17
427.9410, 19251.83
429.1340, 19535.50
430.3270, 19374.73
431.5200, 18460.17
432.7130, 17239.59
433.9060, 15735.01
435.0980, 13912.42
436.2900, 11965.82
437.4830, 10389.22
438.6750, 8901.613
439.8660, 7640.001
441.0580, 6606.386
442.2500, 5585.768
443.4410, 4865.149
444.6320, 4332.529
445.8230, 4013.910
447.0140, 3480.293
448.2050, 2973.679
449.3950, 2633.067
450.5860, 2328.460
451.7760, 2187.858
452.9660, 1991.261
454.1560, 1704.671
455.3450, 1557.087
456.5350, 1367.512
457.7240, 1210.945
458.9140, 1039.388
460.1030, 1093.839
461.2920, 994.3008
462.4810, 940.7739
463.6690, 773.2583
464.8580, 751.7554
466.0460, 716.2656
467.2340, 720.7900
468.4220, 565.3320
469.6100, 550.8911
470.7970, 437.4692
471.9850, 506.0693
473.1720, 520.6919
474.3590, 464.3389
475.5460, 470.2827
476.7330, 436.3945
477.9200, 377.9224
479.1060, 397.9800
480.2930, 327.3032
481.4790, 359.5645
482.6650, 232.5068
483.8510, 293.5562
485.0370, 254.4497
486.2220, 147.3442
487.4080, 272.2793
488.5930, 244.3813
489.7780, 271.9189
490.9630, 217.3535
492.1480, 226.6157
493.3320, 360.5371
494.5170, 327.5269
495.7010, 297.6748
496.8850, 433.0513
498.0690, 382.5947
499.2530, 418.2178
500.4360, 466.9028
501.6200, 573.6528
502.8030, 635.4668
503.9860, 707.3491
505.1690, 673.3027
506.3520, 848.3423
507.5350, 858.4526
508.7170, 1040.628
509.9000, 1276.872
511.0820, 1256.179
512.2640, 1579.556
513.4460, 1611.008
514.6270, 1921.544
515.8090, 2131.161
516.9900, 2171.859
518.1710, 2396.622
519.3530, 2470.435
520.5330, 2700.315
521.7140, 2759.255
522.8950, 2771.269
524.0750, 2868.396
525.2550, 2801.614
526.4350, 2861.921
527.6150, 2922.301
528.7950, 2845.792
529.9750, 2892.383
531.1540, 2870.354
532.3340, 2754.265
533.5130, 2805.172
534.6920, 2756.203
535.8700, 2645.362
537.0490, 2723.865
538.2280, 2791.250
539.4060, 2595.160
540.5840, 2701.759
541.7620, 2676.820
542.9400, 2736.680
544.1180, 2636.588
545.2950, 2738.595
546.4720, 2791.667
547.6500, 2886.215
548.8270, 3127.542
550.0040, 3266.114
551.1800, 3512.789
552.3570, 3766.871
553.5330, 4135.302
554.7090, 4598.434
555.8850, 5044.606
557.0610, 5593.255
558.2370, 6200.978
559.4130, 7080.963
560.5880, 8067.697
561.7630, 9301.628
562.9380, 10680.75
564.1130, 11927.65
565.2880, 13392.59
566.4630, 15232.66
567.6370, 16817.51
568.8120, 18547.46
569.9860, 19638.17
571.1600, 20433.30
572.3330, 21158.20
573.5070, 21044.02
574.6810, 20386.88
575.8540, 19356.75
577.0270, 17786.66
578.2000, 15872.60
579.3730, 13948.55
580.5460, 11790.54
581.7180, 9942.542
582.8910, 8417.574
584.0630, 6945.632
585.2350, 5703.712
586.4070, 4759.818
587.5780, 4036.948
588.7500, 3454.102
589.9210, 2855.279
591.0930, 2403.480
592.2640, 2052.704
593.4350, 1867.950
594.6050, 1703.220
595.7760, 1560.511
596.9460, 1448.826
598.1170, 1283.162
599.2870, 1164.521
600.4570, 1124.899
601.6260, 1174.301
602.7960, 1259.723
603.9650, 1230.164
605.1350, 1208.627
606.3040, 1293.110
607.4730, 1581.612
608.6420, 1590.134
609.8100, 1743.675
610.9790, 2185.236
612.1470, 2544.814
613.3150, 2842.412
614.4830, 3313.027
615.6510, 4179.659
616.8190, 5139.471
617.9860, 6024.154
619.1540, 7154.842
620.3210, 8983.861
621.4880, 10634.83
622.6550, 12633.76
623.8220, 14437.14
624.9880, 16171.40
626.1550, 17782.16
627.3210, 18966.19
628.4870, 20017.11
629.6530, 19955.88
630.8190, 19499.49
631.9840, 17893.50
633.1500, 15753.73
634.3150, 13196.68
635.4800, 11101.63
636.6450, 8619.739
637.8100, 6979.972
638.9740, 5820.559
640.1390, 4436.901
641.3030, 3706.149
642.4670, 3058.801
643.6310, 2512.991
644.7950, 2092.658
645.9590, 1726.631
647.1220, 1490.198
648.2850, 1311.370
649.4490, 1085.268
650.6120, 1033.985
651.7740, 792.0811
652.9370, 737.9980
654.1000, 708.6660
655.2620, 556.1006
656.4240, 395.9888
657.5860, 388.5020
658.7480, 345.2686
659.9100, 270.1377
661.0710, 240.4023
662.2330, 195.0776
663.3940, 327.2544
664.5550, 177.5703
665.7160, 87.41748
666.8770, 258.8760
668.0370, 126.9512
669.1980, 158.8120
670.3580, 24.97217
671.5180, 21.99756
672.6780, 45.25049
673.8380, 27.32617
674.9970, 73.53857
676.1570, 47.39014
677.3160, 58.37207
678.4750, 19.77783
679.6340, 62.00830
680.7930, 15.25293
681.9520, 1.369629
683.1100, 40.25732
684.2680, 47.86621
685.4270, 33.69434
686.5850, 12.31445
687.7420, 3.125000
688.9000, 125.4639
690.0580, 107.6226
691.2150, 38.37402
692.3720, 133.1719
693.5290, 132.0640
694.6860, 30.05029
695.8430, 122.0830
696.9990, 72.20801
698.1560, 56.40137
699.3120, 145.6558
700.4680, 30.02002
701.6240, 98.43555
702.7800, 23.93750
703.9350, 41.49121
705.0900, 58.10449
706.2460, 35.78760
707.4010, 35.99854
708.5560, 10.20264
709.7110, 5.817871
710.8650, 53.92383
712.0200, 95.99121
713.1740, 134.0205
714.3280, 153.1191
715.4820, 142.9634
716.6360, 164.8770
717.7890, 190.7520
718.9430, 168.5874
720.0960, 213.3828
721.2490, 278.1382
722.4020, 375.8545
723.5550, 454.5303
724.7080, 482.1655
725.8600, 668.7603
727.0130, 665.3145
728.1650, 786.8262
729.3170, 723.2974
730.4690, 838.7280
731.6200, 949.1157
732.7720, 993.4619
733.9230, 1106.766
735.0740, 1054.027
736.2250, 1069.246
737.3760, 955.4219
738.5270, 969.5547
739.6780, 1016.645
740.8280, 908.6914
741.9780, 868.6938
743.1280, 759.6533
744.2780, 734.5684
745.4280, 608.4395
746.5770, 547.2666
747.7270, 481.0488
748.8760, 410.9497
750.0250, 362.4795
751.1740, 305.1279
752.3230, 262.7305
753.4720, 204.2881
754.6200, 121.8003
755.7680, 158.2651
756.9160, 193.6841
758.0640, 90.05713
759.2120, 108.3809
760.3600, 122.6567
761.5070, 57.11572
762.6550, 63.00537
763.8020, 45.07471
764.9490, 39.08594
766.0960, 61.96191
767.2420, 49.87939
768.3890, 8.664063
769.5350, 92.62598
770.6810, 95.95752
771.8270, 49.48926
772.9730, 5.963379
774.1190, 91.64014
775.2640, 13.37207
776.4100, 98.19141
777.5550, 30.14404
778.7000, 44.19238
779.8450, 34.34570
780.9900, 58.59766
782.1340, 65.96289
783.2790, 118.4448
784.4230, 64.06982
785.5670, 41.81104
786.7110, 53.35742
787.8550, 34.60938
788.9980, 56.66309
790.1420, 85.82812
791.2850, 113.9209
792.4280, 94.55371
793.5710, 102.1177
794.7140, 32.81641
795.8560, 31.38574
796.9990, 23.47656
798.1410, 1.568359
799.2830, 21.46582
800.4250, 141.5918
801.5670, 48.87109
802.7090, 10.25439
803.8500, 66.27832
804.9920, 63.24268
806.1330, 12.87402
807.2740, 2.590332
808.4150, 17.38379
809.5550, 31.36426
810.6960, 34.42383
811.8360, 39.57520
812.9760, 71.33057
814.1160, 36.93701
815.2560, 105.7368
816.3960, 112.0840
817.5350, 115.7930
818.6750, 134.2378
819.8140, 62.70117
820.9530, 121.2749
822.0920, 74.80469
823.2310, 43.28955
824.3690, 200.3311
825.5080, 295.6558
826.6460, 35.78516
827.7840, 193.8721
828.9220, 162.6172
830.0600, 258.7979
831.1970, 210.9004
832.3350, 117.7422
833.4720, 176.1846
834.6090, 289.6187
835.7460, 268.8438
836.8830, 194.3965
838.0190, 213.7969
839.1560, 136.0527
840.2920, 183.5723
841.4280, 212.0894
842.5640, 229.5015
843.7000, 205.1338
844.8360, 218.6602
845.9710, 209.4253
847.1070, 156.7783
848.2420, 202.3540
849.3770, 291.9971
850.5120, 253.6104
851.6460, 299.1938
852.7810, 241.7476
853.9150, 278.2720
855.0490, 268.7690
856.1830, 267.2407
857.3170, 294.6870
858.4510, 317.1133
859.5840, 336.5122
860.7180, 461.8843
861.8510, 362.2295
862.9840, 417.5479
864.1170, 285.8408
865.2500, 339.1079
866.3820, 349.3496
867.5150, 241.5669
868.6470, 203.7598
869.7790, 404.9277
870.9110, 317.0723
872.0430, 348.1934
873.1740, 282.2920
874.3060, 350.3672
875.4370, 311.4199
876.5680, 377.4512
877.6990, 361.4609
878.8300, 476.4487
879.9600, 306.4155
881.0910, 412.3623
882.2210, 347.2886
883.3510, 321.1953
884.4810, 471.0820
885.6110, 440.9497
886.7410, 489.7988
887.8700, 464.6299
888.9990, 570.4434
890.1290, 537.2388
891.2580, 556.8555
892.3860, 651.6025
893.5150, 702.3477
894.6440, 786.7627
895.7720, 841.4380
896.9000, 892.5874
898.0280, 936.8003
899.1560, 980.9985
900.2840, 1020.701
901.4110, 1068.150
902.5390, 1195.695
903.6660, 1277.415
904.7930, 1436.117
905.9200, 1595.801
907.0470, 1799.075
908.1730, 1998.646
909.3000, 2235.214
910.4260, 2399.628
911.5520, 2768.921
912.6780, 3213.861
913.8030, 3596.049
914.9290, 4153.331
916.0540, 4892.219
917.1800, 5585.692
918.3050, 6594.449
919.4300, 7623.021
920.5550, 9065.997
921.6790, 10928.37
922.8040, 12814.02
923.9280, 15189.84
925.0520, 17935.29
926.1760, 20702.92
927.3000, 23859.79
928.4230, 26674.90
929.5470, 29608.56
930.6700, 31788.59
931.7930, 32929.40
932.9160, 33012.10
934.0390, 32359.41
935.1620, 30434.30
936.2840, 27629.70
937.4070, 24582.95
938.5290, 21239.68
939.6510, 17857.78
940.7730, 15021.28
941.8940, 12637.98
943.0160, 10522.39
944.1370, 8990.921
945.2580, 7876.250
946.3800, 6821.751
947.5000, 6251.112
948.6210, 5635.626
949.7420, 4876.467
950.8620, 4230.244
951.9820, 3663.108
953.1020, 3246.038
954.2220, 2804.085
955.3420, 2418.881
956.4620, 2098.956
957.5810, 1787.888
958.7000, 1598.551
959.8190, 1490.835
960.9380, 1390.144
962.0570, 1298.013
963.1760, 1231.446
964.2940, 1175.913
965.4120, 1187.471
966.5300, 1163.097
967.6480, 1207.753
968.7660, 1252.464
969.8840, 1228.216
971.0010, 1310.006
972.1190, 1355.859
973.2360, 1511.745
974.3530, 1673.683
975.4690, 1796.653
976.5860, 1912.668
977.7030, 2249.727
978.8190, 2446.821
979.9350, 2742.955
981.0510, 3080.128
982.1670, 3487.335
983.2830, 3910.578
984.3980, 4681.856
985.5130, 5264.170
986.6290, 6207.519
987.7440, 7207.902
988.8590, 8643.467
989.9730, 10327.44
991.0880, 12316.43
992.2020, 14399.57
993.3160, 16725.12
994.4300, 19282.68
995.5440, 21939.27
996.6580, 24896.88
997.7720, 27491.54
998.8850, 29850.26
999.9980, 32147.03
1001.111, 33689.83
1002.224, 34798.66
1003.337, 35566.52
1004.450, 35400.41
1005.562, 34889.33
1006.674, 34091.29
1007.786, 32903.28
1008.898, 31330.30
1010.010, 29575.36
1011.122, 28097.45
1012.233, 26089.57
1013.344, 24033.72
1014.455, 22162.91
1015.566, 20043.12
1016.677, 18128.37
1017.788, 16280.67
1018.898, 14392.98
1020.009, 12442.34
1021.119, 10788.73
1022.229, 9457.155
1023.339, 8189.619
1024.448, 7145.115
1025.558, 6345.674
1026.667, 5556.240
1027.776, 4867.842
1028.885, 4581.479
1029.994, 4311.199
1031.103, 3903.906
1032.211, 3682.885
1033.320, 3451.699
1034.428, 3514.554
1035.536, 3431.454
1036.644, 3338.880
1037.751, 3243.536
1038.859, 3197.191
1039.966, 3133.459
1041.074, 2941.787
1042.181, 2791.644
1043.288, 2520.651
1044.394, 2352.996
1045.501, 2093.396
1046.607, 1842.496
1047.713, 1592.033
1048.820, 1315.386
1049.925, 1268.995
1051.031, 1063.726
1052.137, 971.5259
1053.242, 801.4087
1054.348, 799.3608
1055.453, 894.3760
1056.558, 697.4575
1057.662, 479.6006
1058.767, 568.9180
1059.871, 626.9795
1060.976, 650.3081
1062.080, 640.8013
1063.184, 500.5239
1064.288, 534.6182
1065.391, 495.5532
1066.495, 453.7373
1067.598, 506.7695
1068.701, 522.9985
1069.804, 526.5771
1070.907, 684.5195
1072.010, 746.5151
1073.112, 860.5518
1074.214, 989.6543
1075.317, 1168.812
1076.419, 1216.021
1077.521, 1529.216
1078.622, 1579.528
1079.724, 2030.879
1080.825, 2153.459
1081.926, 2748.111
1083.027, 2956.084
1084.128, 3229.784
1085.229, 3585.391
1086.329, 3815.184
1087.430, 4021.508
1088.530, 4162.860
1089.630, 4058.011
1090.730, 4013.518
1091.830, 3789.536
1092.929, 3402.687
1094.029, 3051.296
1095.128, 2660.217
1096.227, 2121.668
1097.326, 1947.123
1098.425, 1681.502
1099.523, 1426.437
1100.622, 1293.397
1101.720, 846.3838
1102.818, 797.3945
1103.916, 639.4302
1105.014, 534.4907
1106.111, 490.5757
1107.209, 331.6846
1108.306, 334.2319
1109.403, 221.3960
1110.500, 200.5830
1111.597, 72.79297
1112.694, 59.61377
1113.790, 31.48047
1114.887, 16.46924
1115.983, 80.47852
1117.079, 139.4087
1118.174, 90.02539
1119.270, 55.95068
1120.366, 16.64795
1121.461, 42.22803
1122.556, 41.50781
1123.651, 84.34229
1124.746, 6.887207
1125.841, 50.58594
1126.935, 81.07812
1128.030, 15.59473
1129.124, 137.0161
1130.218, 58.80078
1131.312, 151.1289
1132.405, 101.7192
1133.499, 86.32715
1134.592, 168.9517
1135.686, 146.5918
1136.779, 38.02100
1137.871, 216.7153
1138.964, 127.4106
1140.057, 165.1143
1141.149, 233.1025
1142.241, 139.8364
1143.334, 182.5850
1144.425, 147.3477
1145.517, 140.1245
1146.609, 207.9155
1147.700, 101.7739
1148.791, 63.22656
1149.883, 173.5059
1150.974, 185.3521
1152.064, 68.48291
1153.155, 60.35693
1154.245, 83.78711
1155.336, 48.91309
1156.426, 0.1650390
1157.516, 18.22803
1158.606, 80.71338
1159.695, 35.89453
1160.785, 2.137695
1161.874, 37.88525
1162.963, 74.10352
1164.052, 49.50098
1165.141, 83.48535
1166.230, 8.047363
1167.318, 52.59521
1168.406, 56.46533
1169.495, 54.31543
1170.583, 6.803711
1171.670, 90.20752
1172.758, 70.27930
1173.846, 49.41504
1174.933, 87.57227
1176.020, 59.58545
1177.107, 23.26562
1178.194, 67.73047
1179.281, 50.26953
1180.367, 30.28223
1181.454, 16.83838
1182.540, 93.82178
1183.626, 75.80762
1184.712, 80.79590
1185.798, 82.84473
1186.883, 31.77783
1187.969, 65.76953
1189.054, 18.76221
1190.139, 50.75488
1191.224, 72.75537
1192.309, 72.74756
1193.393, 15.26221
1194.478, 98.08838
1195.562, 86.86279
1196.646, 85.99951
1197.730, 149.9258
1198.814, 171.1914
1199.897, 157.0054
1200.981, 96.69678
1202.064, 146.6367
1203.147, 15.32520
1204.230, 56.22559
1205.313, 125.6572
1206.396, 22.63965
1207.478, 62.11670
1208.560, 46.56982
1209.642, 64.49219
1210.724, 45.68213
1211.806, 92.75781
1212.888, 95.97607
1213.969, 89.85791
1215.051, 70.71924
1216.132, 24.16357
1217.213, 46.92334
1218.294, 4.816895
1219.374, 72.73145
1220.455, 44.86719
1221.535, 51.41553
1222.616, 16.02197
1223.696, 73.69531
1224.775, 27.70898
1225.855, 14.04443
1226.935, 114.5503
1228.014, 16.33301
1229.093, 44.73975
1230.172, 42.79688
1231.251, 109.8506
1232.330, 79.91748
1233.408, 98.89404
1234.487, 97.94385
1235.565, 82.08154
1236.643, 55.06201
1237.721, 10.02197
1238.799, 98.96094
1239.876, 153.8857
1240.954, 121.7964
1242.031, 12.62842
1243.108, 34.49512
1244.185, 12.34033
1245.262, 13.37305
1246.338, 16.20264
1247.415, 23.98535
1248.491, 19.25879
1249.567, 83.95312
1250.643, 96.48389
1251.719, 103.9316
1252.795, 140.3574
1253.870, 146.4033
1254.945, 121.9536
1256.021, 119.5576
1257.096, 115.4092
1258.170, 31.02100
1259.245, 3.834961
1260.320, 43.36865
1261.394, 126.0322
1262.468, 93.41553
1263.542, 171.7817
1264.616, 97.13086
1265.690, 52.46094
1266.763, 90.76562
1267.836, 96.05176
1268.910, 163.3325
1269.983, 75.58105
1271.055, 267.8086
1272.128, 156.0166
1273.201, 135.2061
1274.273, 210.3760
1275.345, 234.5264
1276.417, 99.65771
1277.489, 68.79102
1278.561, 77.42383
1279.632, 213.4854
1280.704, 88.12646
1281.775, 226.1450
1282.846, 80.17236
1283.917, 97.14551
1284.988, 210.0947
1286.058, 225.3423
1287.129, 136.2505
1288.199, 101.4297
1289.269, 162.4546
