##NAMES=Catapleiite
##RRUFFID=R040005
##IDEAL CHEMISTRY=Na_2_Zr^4+^Si_3_O_9_&#183;2H_2_O
##LOCALITY=Langesundsfjord Eikaholmen Vestfold, Norway
##OWNER=RRUFF
##SOURCE=University of Arizona Mineral Museum
##DESCRIPTION=Brown thin tabular crystal
##STATUS=The identification of this mineral has been confirmed by X-ray diffraction and chemical analysis
##URL=rruff.info/R040005
##MEASURED CHEMISTRY=(Na_1.28_Ca_0.36_[box]_0.36_)_Σ=2_Zr_1.00_Si_3.00_O_9_·2H_2_O
##PIN_ID=L01206
##ORIENTATION=Laser parallel to c* (0 0 1). Fiducial mark perpendicular to laser is parallel to a [1 0 0]
120.5960, 0.0000000E+00
121.8270, 7.187500
123.0580, 222.4688
124.2880, 88.79492
125.5190, 199.0664
126.7490, 185.7871
127.9790, 73.58984
129.2090, 294.1934
130.4390, 364.0176
131.6680, 636.9883
132.8980, 712.3008
134.1270, 864.2598
135.3560, 1117.295
136.5850, 1267.945
137.8140, 1915.844
139.0430, 2266.758
140.2710, 3157.580
141.5000, 3381.273
142.7280, 3449.621
143.9560, 3032.365
145.1840, 2863.293
146.4120, 2263.240
147.6390, 2036.068
148.8670, 1733.670
150.0940, 1802.961
151.3210, 1680.863
152.5490, 1607.322
153.7750, 1568.281
155.0020, 1370.842
156.2290, 1336.051
157.4550, 1349.490
158.6810, 1184.430
159.9080, 1304.424
161.1340, 1212.049
162.3590, 1206.340
163.5850, 1293.707
164.8110, 1030.053
166.0360, 1151.324
167.2610, 971.5391
168.4860, 919.7207
169.7110, 1023.873
170.9360, 1077.014
172.1610, 972.1484
173.3850, 853.2852
174.6100, 1017.438
175.8340, 871.6094
177.0580, 748.8125
178.2820, 1049.051
179.5050, 840.3281
180.7290, 598.6504
181.9520, 673.0176
183.1760, 807.4512
184.3990, 887.9336
185.6220, 775.4648
186.8450, 706.0488
188.0670, 676.5547
189.2900, 620.6680
190.5120, 706.3184
191.7340, 825.5371
192.9560, 1111.273
194.1780, 837.0156
195.4000, 741.0703
196.6220, 1142.182
197.8430, 1009.494
199.0640, 1041.166
200.2860, 1268.666
201.5070, 1125.021
202.7270, 1193.088
203.9480, 1372.324
205.1690, 912.3086
206.3890, 1238.875
207.6090, 1065.693
208.8290, 1133.840
210.0490, 1161.088
211.2690, 1245.438
212.4890, 1225.887
213.7080, 1222.434
214.9280, 1186.078
216.1470, 1058.816
217.3660, 915.6465
218.5850, 990.5664
219.8030, 954.5742
221.0220, 964.6699
222.2400, 906.8516
223.4590, 707.1172
224.6770, 666.4629
225.8950, 527.8828
227.1120, 567.3887
228.3300, 664.9922
229.5480, 389.6895
230.7650, 616.4863
231.9820, 348.4238
233.1990, 395.4512
234.4160, 315.5352
235.6330, 561.6719
236.8490, 375.8652
238.0660, 420.1699
239.2820, 515.5527
240.4980, 326.9980
241.7140, 364.5039
242.9300, 223.0742
244.1460, 265.3105
245.3610, 22.96875
246.5770, 34.67383
247.7920, 67.42578
249.0070, 275.2266
250.2220, 83.07617
251.4370, 95.96680
252.6510, 108.9082
253.8660, 10.10352
255.0800, 272.9258
256.2940, 35.99609
257.5080, 21.87109
258.7220, 240.2988
259.9360, 245.5156
261.1490, 131.7734
262.3630, 103.9414
263.5760, 140.6133
264.7890, 92.25391
266.0020, 45.93945
267.2150, 62.58203
268.4270, 97.34375
269.6400, 25.48438
270.8520, 73.17969
272.0640, 102.7480
273.2760, 330.3555
274.4880, 232.7363
275.7000, 110.9043
276.9120, 38.86719
278.1230, 11.42188
279.3340, 144.2285
280.5450, 43.31641
281.7560, 70.98828
282.9670, 131.1719
284.1780, 79.10352
285.3880, 0.2343750
286.5980, 103.1113
287.8090, 28.09180
289.0190, 8.386719
290.2290, 119.7637
291.4380, 16.78125
292.6480, 31.74414
293.8570, 2.662109
295.0670, 438.9980
296.2760, 236.7188
297.4850, 251.5000
298.6930, 438.3398
299.9020, 96.23242
301.1110, 359.1816
302.3190, 299.1777
303.5270, 307.2168
304.7350, 374.2988
305.9430, 348.4141
307.1510, 215.5566
308.3580, 426.7285
309.5660, 385.9238
310.7730, 241.1465
311.9800, 284.3965
313.1870, 347.6719
314.3940, 498.9746
315.6010, 368.3047
316.8070, 490.6641
318.0130, 200.0508
319.2200, 297.4609
320.4260, 331.9004
321.6310, 200.3672
322.8370, 428.8633
324.0430, 313.3828
325.2480, 349.9336
326.4540, 488.5078
327.6590, 191.1094
328.8640, 408.7363
330.0680, 366.3906
331.2730, 422.0703
332.4780, 292.7773
333.6820, 287.2109
334.8860, 397.9668
336.0900, 366.0273
337.2940, 421.7676
338.4980, 420.0879
339.7010, 333.4453
340.9050, 414.0117
342.1080, 297.9434
343.3110, 308.4590
344.5140, 259.9570
345.7170, 350.4336
346.9200, 372.9219
348.1220, 392.3691
349.3240, 327.8516
350.5270, 463.3262
351.7290, 330.8262
352.9310, 197.0859
354.1320, 491.3086
355.3340, 305.3203
356.5350, 294.9453
357.7370, 184.5996
358.9380, 158.3984
360.1390, 243.1777
361.3400, 253.9219
362.5400, 81.76562
363.7410, 358.5723
364.9410, 29.40430
366.1410, 144.2637
367.3410, 583.1543
368.5410, 546.0684
369.7410, 297.0137
370.9400, 262.9824
372.1400, 403.9805
373.3390, 358.0020
374.5380, 448.0527
375.7370, 359.1289
376.9360, 405.2305
378.1350, 402.3555
379.3330, 394.2559
380.5310, 169.6836
381.7300, 410.8848
382.9280, 345.1250
384.1260, 331.3926
385.3230, 484.6797
386.5210, 121.9980
387.7180, 343.3379
388.9160, 166.7344
390.1130, 271.1523
391.3100, 393.5977
392.5060, 142.0703
393.7030, 392.5645
394.9000, 422.0977
396.0960, 157.7031
397.2920, 212.3789
398.4880, 391.6699
399.6840, 202.4004
400.8800, 260.8496
402.0750, 210.8223
403.2710, 383.6289
404.4660, 241.4570
405.6610, 354.3125
406.8560, 242.0234
408.0510, 131.0586
409.2450, 206.4844
410.4400, 521.5723
411.6340, 301.5781
412.8280, 425.6680
414.0220, 558.8574
415.2160, 382.0527
416.4100, 574.1250
417.6030, 526.7227
418.7970, 393.5195
419.9900, 785.2520
421.1830, 916.0820
422.3760, 865.4844
423.5690, 991.6875
424.7610, 1224.145
425.9540, 1160.686
427.1460, 1387.496
428.3380, 1424.723
429.5300, 1785.053
430.7220, 1634.176
431.9140, 1652.826
433.1050, 2088.434
434.2970, 1901.137
435.4880, 2037.920
436.6790, 2324.660
437.8700, 2252.969
439.0610, 2368.752
440.2510, 2263.553
441.4420, 2250.377
442.6320, 2088.219
443.8220, 2280.082
445.0120, 2237.963
446.2020, 2075.859
447.3910, 1852.781
448.5810, 1655.717
449.7700, 1620.672
450.9600, 1352.645
452.1490, 1337.637
453.3370, 999.6426
454.5260, 986.6660
455.7150, 751.7070
456.9030, 737.7656
458.0910, 622.8379
459.2800, 643.9297
460.4670, 544.0352
461.6550, 455.1602
462.8430, 446.2969
464.0300, 294.4512
465.2180, 76.62109
466.4050, 78.80664
467.5920, 226.0078
468.7790, 106.2227
469.9650, 203.4531
471.1520, 208.6953
472.3380, 145.9570
473.5250, 77.23438
474.7110, 120.5234
475.8970, 9.175781
477.0820, 37.86328
478.2680, 0.4414060
479.4540, 29.75391
480.6390, 198.0820
481.8240, 103.5781
483.0090, 12.26953
484.1940, 101.9531
485.3780, 193.3281
486.5630, 207.6250
487.7470, 40.93750
488.9320, 97.26562
490.1160, 306.6289
491.3000, 8.007813
492.4830, 129.4023
493.6670, 107.8164
494.8500, 71.75781
496.0340, 70.34766
497.2170, 2.945313
498.4000, 100.4648
499.5820, 90.89453
500.7650, 40.66797
501.9480, 286.7656
503.1300, 241.2070
504.3120, 17.33203
505.4940, 96.12891
506.6760, 240.6016
507.8580, 298.5586
509.0390, 328.8477
510.2210, 366.5781
511.4020, 282.1094
512.5830, 251.6562
513.7640, 150.2070
514.9450, 339.7734
516.1250, 210.3516
517.3060, 501.9375
518.4860, 446.5312
519.6660, 321.1367
520.8460, 423.7812
522.0260, 285.8672
523.2060, 236.5547
524.3850, 479.0000
525.5650, 384.7070
526.7440, 258.4258
527.9230, 448.5312
529.1020, 549.3125
530.2810, 318.0586
531.4590, 568.0508
532.6380, 578.7344
533.8160, 443.6641
534.9940, 479.4727
536.1720, 426.1172
537.3500, 460.2148
538.5270, 457.1367
539.7050, 497.4297
540.8820, 453.6211
542.0590, 524.6914
543.2360, 562.0273
544.4130, 595.4297
545.5900, 314.6172
546.7660, 313.3203
547.9430, 377.9219
549.1190, 501.6094
550.2950, 463.1289
551.4710, 685.4180
552.6470, 392.9883
553.8220, 446.3359
554.9980, 785.0312
556.1730, 715.0000
557.3480, 1233.328
558.5230, 1080.184
559.6980, 1107.941
560.8730, 1174.195
562.0470, 1382.387
563.2220, 1513.746
564.3960, 1708.941
565.5700, 2230.348
566.7440, 2349.879
567.9170, 2761.781
569.0910, 2978.684
570.2640, 3164.223
571.4380, 3257.277
572.6110, 3609.547
573.7840, 3658.242
574.9570, 3978.562
576.1290, 3856.824
577.3020, 3821.086
578.4740, 3862.340
579.6460, 3490.586
580.8180, 3165.828
581.9900, 2979.477
583.1620, 2860.699
584.3330, 2328.922
585.5040, 2231.129
586.6760, 2148.340
587.8470, 1627.160
589.0180, 1479.352
590.1880, 1420.531
591.3590, 1261.734
592.5290, 1084.926
593.7000, 1008.105
594.8700, 657.2891
596.0400, 837.4570
597.2090, 548.6172
598.3790, 896.7695
599.5490, 716.9062
600.7180, 628.0352
601.8870, 523.1484
603.0560, 400.2539
604.2250, 529.3477
605.3940, 569.4258
606.5620, 431.4922
607.7300, 387.5469
608.8990, 580.6055
610.0670, 591.6484
611.2350, 806.6758
612.4020, 915.7070
613.5700, 696.9180
614.7370, 894.9609
615.9050, 776.9883
617.0720, 853.2969
618.2390, 899.2695
619.4060, 1090.035
620.5720, 1180.008
621.7390, 1558.965
622.9050, 1787.602
624.0710, 2010.668
625.2370, 2309.352
626.4030, 2670.250
627.5690, 2887.750
628.7340, 3390.617
629.9000, 3899.684
631.0650, 4152.520
632.2300, 4315.961
633.3950, 4288.758
634.5600, 4283.012
635.7240, 4151.586
636.8890, 3928.105
638.0530, 3605.520
639.2170, 3209.375
640.3810, 2903.078
641.5450, 2388.590
642.7080, 2146.262
643.8720, 1593.719
645.0350, 1338.289
646.1980, 1092.902
647.3610, 956.5000
648.5240, 800.7852
649.6870, 552.0391
650.8490, 565.4883
652.0120, 460.0195
653.1740, 421.5273
654.3360, 233.0156
655.4980, 309.4844
656.6600, 298.9336
657.8210, 443.3672
658.9830, 111.7734
660.1440, 380.9609
661.3050, 55.33203
662.4660, 416.2188
663.6270, 20.27344
664.7870, 118.9922
665.9480, 125.2422
667.1080, 30.91016
668.2680, 98.97656
669.4280, 83.73438
670.5880, 87.12891
671.7480, 53.17188
672.9070, 44.19141
674.0670, 245.1719
675.2260, 14.86719
676.3850, 133.1875
677.5440, 137.4062
678.7030, 258.2539
679.8610, 10.89062
681.0200, 93.48047
682.1780, 86.24609
683.3360, 11.78516
684.4940, 108.1797
685.6520, 38.63672
686.8090, 84.07422
687.9670, 81.46484
689.1240, 92.81641
690.2810, 3.289063
691.4380, 17.94922
692.5950, 75.85156
693.7520, 31.51172
694.9080, 39.53125
696.0650, 25.47266
697.2210, 85.44922
698.3770, 95.34375
699.5330, 72.27734
700.6880, 262.0938
701.8440, 128.9492
702.9990, 152.9492
704.1550, 67.44141
705.3100, 28.13672
706.4650, 93.78516
707.6190, 31.60547
708.7740, 28.93359
709.9290, 86.41406
711.0830, 177.9883
712.2370, 159.4062
713.3910, 55.79688
714.5450, 265.7305
715.6980, 396.0469
716.8520, 178.3359
718.0050, 332.5977
719.1580, 316.8242
720.3110, 115.0273
721.4640, 195.2695
722.6170, 241.4336
723.7700, 299.5430
724.9220, 312.2500
726.0740, 101.3008
727.2260, 466.3164
728.3780, 387.3086
729.5300, 232.9922
730.6810, 500.0312
731.8330, 472.9297
732.9840, 295.6602
734.1350, 246.5000
735.2860, 380.3086
736.4370, 434.0898
737.5880, 557.8359
738.7380, 453.5547
739.8880, 342.2461
741.0390, 386.9102
742.1890, 432.5391
743.3380, 496.1406
744.4880, 527.5508
745.6380, 536.2539
746.7870, 585.6055
747.9360, 330.0898
749.0850, 294.5430
750.2340, 404.2695
751.3830, 144.6641
752.5310, 356.7812
753.6800, 209.1133
754.8280, 285.4180
755.9760, 281.6914
757.1240, 168.9492
758.2720, 267.1758
759.4190, 253.7891
760.5670, 190.5430
761.7140, 338.7070
762.8610, 356.8398
764.0080, 403.9727
765.1550, 109.0742
766.3020, 317.1406
767.4480, 19.82422
768.5950, 323.1367
769.7410, 103.0703
770.8870, 81.96875
772.0330, 346.8320
773.1780, 234.6641
774.3240, 6.484375
775.4690, 157.2617
776.6140, 149.0156
777.7590, 277.7305
778.9040, 308.4258
780.0490, 185.0977
781.1940, 85.74609
782.3380, 258.3555
783.4820, 318.9453
784.6260, 235.5078
785.7700, 88.03906
786.9140, 40.53516
788.0580, 73.99609
789.2010, 260.4141
790.3450, 197.8086
791.4880, 212.1758
792.6310, 340.5156
793.7730, 243.8320
794.9160, 295.1133
796.0590, 173.3750
797.2010, 56.39062
798.3430, 356.7539
799.4850, 37.55469
800.6270, 48.48828
801.7690, 363.7578
802.9100, 236.7461
804.0520, 55.29688
805.1930, 265.2227
806.3340, 149.0625
807.4750, 18.08984
808.6160, 197.4766
809.7560, 266.3398
810.8970, 226.9375
812.0370, 284.6328
813.1770, 42.47656
814.3170, 241.8516
815.4570, 192.9219
816.5960, 145.5234
817.7360, 285.7539
818.8750, 89.91797
820.0140, 178.1094
821.1530, 134.9531
822.2920, 212.1445
823.4310, 80.71094
824.5690, 224.3555
825.7070, 165.9180
826.8460, 48.65625
827.9840, 223.6211
829.1220, 21.70703
830.2590, 54.83594
831.3970, 204.6445
832.5340, 291.8398
833.6710, 144.6602
834.8080, 94.94922
835.9450, 21.38672
837.0820, 162.3555
838.2190, 19.39062
839.3550, 327.2500
840.4910, 57.25781
841.6270, 333.0586
842.7630, 95.71484
843.8990, 166.9961
845.0350, 282.2852
846.1700, 146.9336
847.3060, 23.94922
848.4410, 14.95312
849.5760, 118.8359
850.7100, 49.78906
851.8450, 44.05469
852.9800, 70.88281
854.1140, 83.69531
855.2480, 12.50000
856.3820, 133.2930
857.5160, 2.339844
858.6500, 1.437500
859.7830, 117.1992
860.9170, 42.05078
862.0500, 260.6758
863.1830, 64.76562
864.3160, 332.4766
865.4480, 126.8242
866.5810, 5.195313
867.7130, 237.4258
868.8460, 51.95703
869.9780, 395.6328
871.1100, 134.2148
872.2410, 75.78906
873.3730, 18.35547
874.5050, 465.9141
875.6360, 249.4688
876.7670, 278.0195
877.8980, 188.5625
879.0290, 141.0977
880.1590, 63.63281
881.2900, 156.1641
882.4200, 78.31641
883.5500, 101.1719
884.6800, 217.6602
885.8100, 71.85547
886.9400, 214.5977
888.0690, 193.1328
889.1990, 362.2422
890.3280, 129.6211
891.4570, 123.9883
892.5860, 417.3594
893.7140, 155.6406
894.8430, 315.0039
895.9710, 401.3672
897.1000, 563.7227
898.2280, 271.0859
899.3560, 246.4453
900.4830, 457.8008
901.6110, 605.5586
902.7380, 774.9297
903.8660, 922.1602
904.9930, 1023.461
906.1200, 1157.180
907.2460, 1324.562
908.3730, 1350.938
909.5000, 1810.336
910.6260, 1454.316
911.7520, 1566.625
912.8780, 1882.902
914.0040, 1834.320
915.1290, 1975.730
916.2550, 1976.148
917.3800, 2193.762
918.5050, 2402.211
919.6300, 2492.656
920.7550, 2811.109
921.8800, 2809.859
923.0040, 3462.629
924.1290, 3518.184
925.2530, 4075.652
926.3770, 4321.133
927.5010, 4317.613
928.6250, 5027.098
929.7480, 5186.590
930.8720, 5407.086
931.9950, 5509.590
933.1180, 6071.305
934.2410, 5908.824
935.3640, 6223.812
936.4860, 6264.160
937.6090, 5991.727
938.7310, 5910.293
939.8530, 5876.430
940.9750, 5515.023
942.0970, 5388.629
943.2180, 4731.504
944.3400, 4402.176
945.4610, 4073.863
946.5820, 3430.566
947.7030, 2957.285
948.8240, 2838.254
949.9450, 2621.062
951.0650, 2190.930
952.1860, 1919.816
953.3060, 1708.719
954.4260, 1585.430
955.5460, 1622.359
956.6650, 1224.406
957.7850, 894.3789
958.9040, 1028.348
960.0230, 969.3516
961.1420, 719.3789
962.2610, 714.2734
963.3800, 749.3516
964.4990, 722.0703
965.6170, 596.9961
966.7350, 793.1875
967.8530, 481.3984
968.9710, 781.6562
970.0890, 857.9297
971.2070, 928.1406
972.3240, 776.4531
973.4410, 872.0625
974.5580, 1275.406
975.6750, 857.7969
976.7920, 1080.211
977.9090, 1506.652
979.0250, 1730.113
980.1410, 1580.617
981.2580, 1784.145
982.3740, 1611.816
983.4890, 2296.383
984.6050, 2501.973
985.7200, 2662.547
986.8360, 2690.195
987.9510, 3233.844
989.0660, 3544.512
990.1810, 3660.250
991.2950, 4094.016
992.4100, 4457.719
993.5240, 4682.508
994.6390, 5031.637
995.7530, 5241.625
996.8660, 5522.598
997.9800, 5715.590
999.0940, 5842.605
1000.207, 6043.500
1001.320, 5998.168
1002.433, 5926.512
1003.546, 5879.746
1004.659, 5579.898
1005.772, 5506.078
1006.884, 5177.273
1007.996, 4748.527
1009.108, 4487.820
1010.220, 4292.129
1011.332, 4001.461
1012.444, 3496.816
1013.555, 3571.188
1014.666, 3308.586
1015.777, 3002.008
1016.888, 3047.609
1017.999, 2424.090
1019.110, 2402.594
1020.220, 1965.820
1021.331, 2120.000
1022.441, 1878.840
1023.551, 1758.457
1024.661, 1509.094
1025.770, 1611.758
1026.880, 1220.445
1027.989, 1456.160
1029.098, 1111.898
1030.207, 1151.672
1031.316, 899.4570
1032.425, 991.2695
1033.533, 827.1055
1034.642, 1061.316
1035.750, 881.1992
1036.858, 834.1055
1037.966, 648.0586
1039.073, 737.0469
1040.181, 596.0742
1041.288, 556.1250
1042.396, 677.3711
1043.503, 858.4727
1044.610, 753.6094
1045.716, 974.7695
1046.823, 519.9531
1047.929, 370.1602
1049.036, 866.4297
1050.142, 482.7188
1051.248, 679.5977
1052.353, 556.9336
1053.459, 261.2969
1054.564, 674.6797
1055.670, 448.0898
1056.775, 504.5273
1057.880, 770.9961
1058.985, 203.4844
1060.089, 377.9922
1061.194, 420.5234
1062.298, 216.1133
1063.402, 345.7305
1064.506, 418.3633
1065.610, 143.0234
1066.713, 357.7305
1067.817, 108.4648
1068.920, 338.2383
1070.023, 188.0469
1071.126, 226.8750
1072.229, 120.7227
1073.332, 108.6211
1074.435, 224.5430
1075.537, 70.91016
1076.639, 365.8867
1077.741, 441.8867
1078.843, 219.9102
1079.945, 257.7969
1081.046, 358.8672
1082.148, 449.9570
1083.249, 660.0625
1084.350, 684.7969
1085.451, 633.3438
1086.551, 837.5156
1087.652, 612.7344
1088.752, 747.9766
1089.853, 471.2773
1090.953, 786.5977
1092.053, 852.9414
1093.152, 719.3086
1094.252, 693.6875
1095.351, 540.0938
1096.451, 611.5078
1097.550, 288.9570
1098.649, 509.4453
1099.748, 475.9570
1100.846, 306.4844
1101.945, 481.0273
1103.043, 187.5898
1104.141, 325.1680
1105.239, 71.22656
1106.337, 121.3750
1107.434, 118.1016
1108.532, 136.7422
1109.629, 188.6367
1110.726, 328.0742
1111.823, 137.7656
1112.920, 125.4766
1114.017, 21.80469
1115.113, 145.9414
1116.210, 123.7031
1117.306, 37.52344
1118.402, 0.2773440
1119.498, 427.0898
1120.593, 429.9180
1121.689, 408.2422
1122.784, 505.0977
1123.879, 172.7891
1124.974, 239.6797
1126.069, 296.7500
1127.164, 540.6719
1128.259, 324.8828
1129.353, 215.8359
1130.447, 62.80469
1131.541, 31.21875
1132.635, 90.79297
1133.729, 149.8203
1134.822, 187.8555
1135.916, 286.4883
1137.009, 286.4180
1138.102, 407.1367
1139.195, 284.2539
1140.288, 312.7188
1141.380, 253.8281
1142.473, 143.9570
1143.565, 194.0859
1144.657, 169.2305
1145.749, 135.3828
1146.841, 149.5469
1147.932, 441.7109
1149.024, 178.7656
1150.115, 149.9648
1151.206, 284.1719
1152.297, 73.59375
1153.388, 294.1094
1154.479, 212.3945
1155.569, 260.6914
1156.659, 19.44141
1157.750, 116.7500
1158.839, 19.96875
1159.929, 334.2930
1161.019, 163.9258
1162.108, 367.2617
1163.198, 354.6016
1164.287, 55.95312
1165.376, 79.69141
1166.465, 203.6367
1167.553, 352.9688
1168.642, 232.3047
1169.730, 335.4609
1170.818, 227.6250
1171.906, 413.9805
1172.994, 123.6602
1174.082, 144.6484
1175.170, 248.9609
1176.257, 173.2812
1177.344, 577.6641
1178.431, 347.6250
1179.518, 74.93750
1180.605, 181.2695
1181.691, 88.39453
1182.778, 175.9023
1183.864, 257.2031
1184.950, 56.50781
1186.036, 199.8125
1187.122, 394.1211
1188.207, 238.4297
1189.292, 55.74219
1190.378, 302.0547
1191.463, 102.3672
1192.548, 242.4961
1193.632, 156.8125
1194.717, 226.1289
1195.801, 113.4453
1196.886, 507.7617
1197.970, 266.0781
1199.054, 193.4023
1200.137, 35.72266
1201.221, 342.0430
1202.305, 354.3594
1203.388, 329.6797
1204.471, 127.0000
1205.554, 33.68359
1206.637, 136.6055
1207.719, 37.89062
1208.802, 457.1758
1209.884, 1.539063
1210.966, 429.7344
1212.048, 41.00781
1213.130, 70.27734
1214.212, 278.5430
1215.293, 43.80859
1216.374, 212.0703
1217.456, 205.3281
1218.536, 151.5859
1219.617, 63.83984
1220.698, 324.0938
1221.778, 184.3398
1222.859, 303.7383
1223.939, 433.9805
1225.019, 143.2148
1226.099, 271.5078
1227.178, 122.8477
1228.258, 231.0703
1229.337, 375.2852
1230.417, 248.5000
1231.496, 476.7070
1232.574, 220.9102
1233.653, 400.3047
1234.732, 307.4961
1235.810, 277.3398
1236.888, 74.48047
1237.966, 131.6445
1239.044, 47.76172
1240.122, 437.8711
1241.199, 213.9766
1242.277, 197.0742
1243.354, 49.16016
1244.431, 196.9961
1245.508, 448.0781
1246.585, 339.1484
1247.661, 68.66406
1248.738, 153.6953
1249.814, 468.7500
1250.890, 185.2070
1251.966, 225.7148
1253.042, 19.62891
1254.117, 155.5312
1255.193, 114.5781
1256.268, 230.2266
1257.343, 226.9766
1258.418, 57.67188
1259.493, 308.3125
1260.567, 205.9453
1261.642, 254.9883
1262.716, 101.6133
1263.790, 334.2227
1264.864, 110.1758
1265.938, 381.3398
1267.011, 360.8438
1268.085, 108.4297
1269.158, 18.01562
1270.231, 269.3594
1271.304, 211.7227
1272.377, 88.07812
1273.450, 142.6055
1274.522, 181.9414
1275.594, 350.2734
1276.666, 274.5938
1277.738, 40.08984
1278.810, 253.1680
1279.882, 144.4219
1280.953, 367.6641
1282.025, 48.17969
1283.096, 196.0000
1284.167, 219.1719
1285.238, 42.32812
1286.308, 252.4727
1287.379, 30.61328
1288.449, 133.7305
1289.519, 21.83594
1290.589, 208.9219
1291.659, 182.0000
1292.729, 109.0703
1293.798, 132.1250
1294.868, 155.8242
