##NAMES=Catapleiite
##RRUFFID=R060198
##IDEAL CHEMISTRY=Na_2_Zr^4+^Si_3_O_9_&#183;2H_2_O
##LOCALITY=Mont Saint-Hilaire, Rouville County, Quebec, Canada
##OWNER=RRUFF
##SOURCE=Royal Ontario Museum
##DESCRIPTION=Tan colored pseudohexagonal tabular crystals
##STATUS=The identification of this mineral has been confirmed by X-ray diffraction and chemical analysis
##URL=rruff.info/R060198
##MEASURED CHEMISTRY=(Na_1.92_Ca_0.04_[box]_0.04_)_Σ=2_Zr_1.00_Si_3.00_O_9_·2H_2_O
##PIN_ID=L01747
##ORIENTATION=Laser parallel to c* (0 0 1). Fiducial mark perpendicular to laser is parallel to a [1 0 0]
95.94800, 0.0000000E+00
97.18200, 6.326172
98.41600, 19.84863
99.64900, 3.765625
100.8830, 244.8525
102.1160, 224.9385
103.3490, 171.4033
104.5820, 89.47461
105.8150, 645.1162
107.0470, 1185.936
108.2800, 2616.021
109.5120, 3279.659
110.7440, 2067.128
111.9760, 1256.783
113.2080, 1419.085
114.4400, 1573.582
115.6710, 1839.106
116.9030, 1760.686
118.1340, 1565.145
119.3650, 1458.663
120.5960, 1256.070
121.8270, 1004.948
123.0580, 1051.948
124.2880, 1276.805
125.5190, 1058.040
126.7490, 1087.299
127.9790, 949.6592
129.2090, 1313.299
130.4390, 1440.132
131.6680, 1395.094
132.8980, 1717.177
134.1270, 1841.460
135.3560, 1720.160
136.5850, 1858.144
137.8140, 2080.800
139.0430, 2183.205
140.2710, 2652.268
141.5000, 2705.830
142.7280, 2890.654
143.9560, 2927.338
145.1840, 3012.057
146.4120, 3166.856
147.6390, 3463.809
148.8670, 3590.971
150.0940, 3790.404
151.3210, 3832.150
152.5490, 3982.262
153.7750, 4007.771
155.0020, 4131.717
156.2290, 4169.139
157.4550, 3920.119
158.6810, 4128.789
159.9080, 4042.108
161.1340, 3850.083
162.3590, 3872.623
163.5850, 3878.743
164.8110, 3774.467
166.0360, 3397.807
167.2610, 3278.389
168.4860, 3037.336
169.7110, 2821.564
170.9360, 2665.245
172.1610, 2520.660
173.3850, 2395.759
174.6100, 2244.757
175.8340, 2062.650
177.0580, 1915.523
178.2820, 1769.312
179.5050, 1797.151
180.7290, 1737.604
181.9520, 1776.073
183.1760, 1871.636
184.3990, 1766.806
185.6220, 1858.946
186.8450, 2048.762
188.0670, 2128.169
189.2900, 2337.829
190.5120, 2476.242
191.7340, 2538.033
192.9560, 2676.312
194.1780, 2858.133
195.4000, 3009.995
196.6220, 3242.892
197.8430, 3446.818
199.0640, 3422.769
200.2860, 3696.740
201.5070, 3824.728
202.7270, 3907.729
203.9480, 4097.739
205.1690, 3824.754
206.3890, 3528.774
207.6090, 3569.793
208.8290, 3450.800
210.0490, 3418.788
211.2690, 3350.754
212.4890, 3286.694
213.7080, 3172.602
214.9280, 3001.539
216.1470, 2615.931
217.3660, 2346.292
218.5850, 2183.110
219.8030, 1923.086
221.0220, 1736.448
222.2400, 1494.738
223.4590, 1346.060
224.6770, 1049.818
225.8950, 1087.334
227.1120, 965.4717
228.3300, 783.5610
229.5480, 571.6025
230.7650, 445.5977
231.9820, 519.5449
233.1990, 267.4458
234.4160, 375.3008
235.6330, 280.1113
236.8490, 174.8760
238.0660, 220.5977
239.2820, 268.2773
240.4980, 191.9126
241.7140, 115.5049
242.9300, 113.4478
244.1460, 12.03076
245.3610, 21.14014
246.5770, 34.85938
247.7920, 135.1963
249.0070, 96.28125
250.2220, 113.1626
251.4370, 129.8921
252.6510, 121.5112
253.8660, 43.04785
255.0800, 50.50732
256.2940, 4.085938
257.5080, 131.7285
258.7220, 593.4194
259.9360, 380.2231
261.1490, 489.9067
262.3630, 131.6826
263.5760, 107.4639
264.7890, 77.76025
266.0020, 95.03857
267.2150, 169.3843
268.4270, 127.8228
269.6400, 269.3516
270.8520, 194.0107
272.0640, 278.7832
273.2760, 239.6963
274.4880, 197.7402
275.7000, 122.9072
276.9120, 195.1787
278.1230, 186.5737
279.3340, 117.0903
280.5450, 16.71826
281.7560, 13.44189
282.9670, 10.73535
284.1780, 61.18164
285.3880, 164.7871
286.5980, 344.6650
287.8090, 244.4463
289.0190, 453.1240
290.2290, 599.6987
291.4380, 646.1743
292.6480, 837.5571
293.8570, 1013.847
295.0670, 1031.051
296.2760, 1230.171
297.4850, 1203.208
298.6930, 1134.167
299.9020, 1176.050
301.1110, 1122.858
302.3190, 1052.596
303.5270, 909.2617
304.7350, 802.8604
305.9430, 840.3916
307.1510, 802.8560
308.3580, 729.2578
309.5660, 794.5972
310.7730, 698.8745
311.9800, 752.0933
313.1870, 684.2510
314.3940, 601.3525
315.6010, 543.3896
316.8070, 592.2969
318.0130, 536.9980
319.2200, 595.4766
320.4260, 572.7168
321.6310, 449.8003
322.8370, 527.8042
324.0430, 508.7700
325.2480, 470.6914
326.4540, 469.4941
327.6590, 463.0669
328.8640, 430.3545
330.0680, 368.3286
331.2730, 356.4321
332.4780, 325.7383
333.6820, 293.6826
334.8860, 266.7964
336.0900, 224.7925
337.2940, 143.7642
338.4980, 106.7129
339.7010, 185.4233
340.9050, 71.88672
342.1080, 34.85254
343.3110, 136.7002
344.5140, 72.52637
345.7170, 100.1240
346.9200, 85.10596
348.1220, 94.86084
349.3240, 72.59326
350.5270, 43.30176
351.7290, 105.1299
352.9310, 240.8076
354.1320, 344.4517
355.3340, 356.0801
356.5350, 427.6929
357.7370, 332.2905
358.9380, 552.8745
360.1390, 484.4434
361.3400, 550.9961
362.5400, 738.5283
363.7410, 800.0381
364.9410, 725.5103
366.1410, 659.9580
367.3410, 788.3823
368.5410, 780.7822
369.7410, 569.1562
370.9400, 700.5195
372.1400, 713.8740
373.3390, 575.2202
374.5380, 583.5591
375.7370, 629.8892
376.9360, 558.2134
378.1350, 563.5322
379.3330, 628.8452
380.5310, 611.1528
381.7300, 503.2085
382.9280, 471.4536
384.1260, 400.7476
385.3230, 417.8730
386.5210, 477.6792
387.7180, 470.4600
388.9160, 389.7324
390.1130, 498.9219
391.3100, 502.2344
392.5060, 435.1982
393.7030, 488.5488
394.9000, 369.7754
396.0960, 455.8877
397.2920, 482.4570
398.4880, 458.8770
399.6840, 505.0332
400.8800, 610.9678
402.0750, 574.5225
403.2710, 636.5811
404.4660, 771.6162
405.6610, 893.6289
406.8560, 1042.555
408.0510, 1265.120
409.2450, 1410.588
410.4400, 1646.882
411.6340, 1905.422
412.8280, 2181.481
414.0220, 2508.576
415.2160, 3060.320
416.4100, 3420.670
417.6030, 4044.412
418.7970, 4620.725
419.9900, 5559.680
421.1830, 6425.045
422.3760, 7453.910
423.5690, 8704.105
424.7610, 10054.55
425.9540, 11371.15
427.1460, 12534.20
428.3380, 13319.71
429.5300, 13641.75
430.7220, 13733.45
431.9140, 13153.83
433.1050, 11998.52
434.2970, 10631.20
435.4880, 9356.869
436.6790, 8172.533
437.8700, 6924.183
439.0610, 5957.822
440.2510, 5021.450
441.4420, 4332.070
442.6320, 3861.676
443.8220, 3429.274
445.0120, 2960.862
446.2020, 2612.441
447.3910, 2170.013
448.5810, 1914.573
449.7700, 1828.126
450.9600, 1588.671
452.1490, 1313.206
453.3370, 1442.734
454.5260, 1186.255
455.7150, 959.7686
456.9030, 942.2734
458.0910, 788.7725
459.2800, 687.2637
460.4670, 564.7480
461.6550, 496.2275
462.8430, 533.7031
464.0300, 480.1748
465.2180, 363.6426
466.4050, 427.1064
467.5920, 233.5693
468.7790, 252.0303
469.9650, 230.9834
471.1520, 228.9443
472.3380, 223.4004
473.5250, 109.8584
474.7110, 108.3184
475.8970, 53.71973
477.0820, 95.00195
478.2680, 43.18359
479.4540, 43.20996
480.6390, 90.82715
481.8240, 68.85840
483.0090, 108.9531
484.1940, 11.10742
485.3780, 8.604492
486.5630, 62.35059
487.7470, 95.61621
488.9320, 40.01270
490.1160, 128.4736
491.3000, 59.12402
492.4830, 46.59668
493.6670, 18.47852
494.8500, 4.537109
496.0340, 53.36230
497.2170, 82.53711
498.4000, 30.76562
499.5820, 71.05371
500.7650, 30.39355
501.9480, 231.7822
503.1300, 220.2520
504.3120, 171.7676
505.4940, 244.3506
506.6760, 170.9990
507.8580, 423.7070
509.0390, 417.4971
510.2210, 585.3438
511.4020, 533.2334
512.5830, 648.1494
513.7640, 853.1104
514.9450, 907.0928
516.1250, 916.1191
517.3060, 1128.172
518.4860, 1311.360
519.6660, 1279.733
520.8460, 1505.194
522.0260, 1644.496
523.2060, 1742.728
524.3850, 1609.996
525.5650, 1766.770
526.7440, 1630.419
527.9230, 1715.257
529.1020, 1635.818
530.2810, 1529.479
531.4590, 1553.569
532.6380, 1497.217
533.8160, 1436.729
534.9940, 1463.799
536.1720, 1439.817
537.3500, 1418.759
538.5270, 1400.625
539.7050, 1403.951
540.8820, 1376.586
542.0590, 1428.940
543.2360, 1371.237
544.4130, 1368.252
545.5900, 1438.501
546.7660, 1504.651
547.9430, 1619.585
549.1190, 1747.421
550.2950, 1863.451
551.4710, 2105.283
552.6470, 2164.416
553.8220, 2342.267
554.9980, 2766.515
556.1730, 3127.893
557.3480, 3529.838
558.5230, 4043.871
559.6980, 4870.609
560.8730, 5610.568
562.0470, 6552.742
563.2220, 7449.922
564.3960, 8603.885
565.5700, 9699.979
566.7440, 10940.44
567.9170, 11831.40
569.0910, 12959.37
570.2640, 13736.79
571.4380, 14448.91
572.6110, 14734.48
573.7840, 14602.44
574.9570, 13914.93
576.1290, 13955.05
577.3020, 11438.80
578.4740, 10022.40
579.6460, 8456.985
580.8180, 7183.563
581.9900, 5834.133
583.1620, 4876.691
584.3330, 3944.242
585.5040, 3309.782
586.6760, 2828.312
587.8470, 2202.831
589.0180, 1878.340
590.1880, 1535.838
591.3590, 1311.324
592.5290, 1078.800
593.7000, 925.2637
594.8700, 717.7148
596.0400, 644.1543
597.2090, 559.5811
598.3790, 451.9951
599.5490, 400.3965
600.7180, 731.7852
601.8870, 471.1602
603.0560, 568.5215
604.2250, 387.8691
605.3940, 421.2012
606.5620, 504.5195
607.7300, 458.8242
608.8990, 669.1133
610.0670, 599.3857
611.2350, 988.6445
612.4020, 1054.887
613.5700, 1287.113
614.7370, 1586.334
615.9050, 1943.529
617.0720, 2343.367
618.2390, 2934.529
619.4060, 3534.094
620.5720, 4364.174
621.7390, 5353.693
622.9050, 6546.472
624.0710, 7679.001
625.2370, 9467.373
626.4030, 11508.43
627.5690, 12976.41
628.7340, 14135.07
629.9000, 14450.67
631.0650, 14907.26
632.2300, 13508.32
633.3950, 11760.76
634.5600, 9724.622
635.7240, 7686.713
636.8890, 6202.449
638.0530, 4897.334
639.2170, 3952.222
640.3810, 3164.737
641.5450, 2471.168
642.7080, 2008.988
643.8720, 1690.768
645.0350, 1321.688
646.1980, 1163.173
647.3610, 917.6562
648.5240, 708.4277
649.6870, 767.5654
650.8490, 538.2129
652.0120, 532.1250
653.1740, 442.3975
654.3360, 447.1221
655.4980, 287.9053
656.6600, 259.2021
657.8210, 216.2559
658.9830, 181.1318
660.1440, 163.8105
661.3050, 223.8252
662.4660, 287.5332
663.6270, 275.5410
664.7870, 154.3398
665.9480, 190.6816
667.1080, 147.4863
668.2680, 72.23535
669.4280, 193.9219
670.5880, 115.5557
671.7480, 9.869141
672.9070, 183.6084
674.0670, 134.0303
675.2260, 152.3945
676.3850, 71.70117
677.5440, 78.94238
678.7030, 130.1172
679.8610, 173.2334
681.0200, 243.2900
682.1780, 145.2930
683.3360, 213.2344
684.4940, 157.1191
685.6520, 180.9453
686.8090, 232.7119
687.9670, 256.4209
689.1240, 211.0752
690.2810, 267.6699
691.4380, 207.2090
692.5950, 304.6895
693.7520, 208.1133
694.9080, 198.4775
696.0650, 118.7822
697.2210, 41.02051
698.3770, 82.17480
699.5330, 47.25488
700.6880, 71.25098
701.8440, 7.171875
702.9990, 4.012695
704.1550, 160.6934
705.3100, 120.1045
706.4650, 202.9053
707.6190, 202.4141
708.7740, 129.8574
709.9290, 173.2344
711.0830, 116.5449
712.2370, 205.7881
713.3910, 120.9658
714.5450, 163.0732
715.6980, 251.1172
716.8520, 391.0986
718.0050, 366.0195
719.1580, 366.8789
720.3110, 459.6768
721.4640, 545.4150
722.6170, 470.0918
723.7700, 574.7090
724.9220, 591.2646
726.0740, 767.7598
727.2260, 729.1943
728.3780, 852.5693
729.5300, 968.8818
730.6810, 1008.135
731.8330, 1157.327
732.9840, 1247.460
734.1350, 1292.531
735.2860, 1339.642
736.4370, 1266.492
737.5880, 1309.383
738.7380, 1272.213
739.8880, 1165.983
741.0390, 1243.693
742.1890, 1050.344
743.3380, 920.6348
744.4880, 856.4668
745.6380, 607.9375
746.7870, 595.3496
747.9360, 619.7021
749.0850, 457.9961
750.2340, 401.2285
751.3830, 410.4043
752.5310, 236.5215
753.6800, 249.5791
754.8280, 104.5781
755.9760, 264.5117
757.1240, 66.38574
758.2720, 50.18652
759.4190, 128.9092
760.5670, 116.5703
761.7140, 24.82715
762.8610, 95.33105
764.0080, 73.98438
765.1550, 57.77637
766.3020, 85.69824
767.4480, 144.7627
768.5950, 60.00195
769.7410, 207.3691
770.8870, 198.9434
772.0330, 145.7178
773.1780, 196.6611
774.3240, 128.8037
775.4690, 117.0908
776.6140, 135.0137
777.7590, 115.1797
778.9040, 99.94922
780.0490, 219.8594
781.1940, 93.97266
782.3380, 178.2227
783.4820, 173.6523
784.6260, 144.2559
785.7700, 247.0176
786.9140, 143.9932
788.0580, 91.12305
789.2010, 34.37891
790.3450, 106.7314
791.4880, 21.21289
792.6310, 104.7812
793.7730, 50.47656
794.9160, 136.2686
796.0590, 32.28613
797.2010, 12.44727
798.3430, 139.9561
799.4850, 154.2881
800.6270, 98.64258
801.7690, 2.109375
802.9100, 31.12891
804.0520, 109.9189
805.1930, 88.73730
806.3340, 185.7959
807.4750, 99.71387
808.6160, 157.1777
809.7560, 168.8955
810.8970, 130.0820
812.0370, 229.5557
813.1770, 153.0850
814.3170, 213.6992
815.4570, 114.4082
816.5960, 183.6719
817.7360, 328.1318
818.8750, 251.8477
820.0140, 237.1162
821.1530, 341.6348
822.2920, 394.8838
823.4310, 366.1992
824.5690, 498.6992
825.7070, 491.2656
826.8460, 642.6113
827.9840, 593.1631
829.1220, 829.4326
830.2590, 810.0205
831.3970, 1058.238
832.5340, 1123.388
833.6710, 1238.018
834.8080, 1303.626
835.9450, 1267.588
837.0820, 1264.380
838.2190, 1378.984
839.3550, 1128.634
840.4910, 1062.545
841.6270, 1112.357
842.7630, 1129.808
843.8990, 1025.094
845.0350, 913.7012
846.1700, 879.2080
847.3060, 821.2461
848.4410, 789.6523
849.5760, 781.2188
850.7100, 784.5742
851.8450, 788.2725
852.9800, 836.3281
854.1140, 679.5107
855.2480, 653.6816
856.3820, 707.8428
857.5160, 529.9932
858.6500, 496.1338
859.7830, 426.2656
860.9170, 478.3896
862.0500, 516.5049
863.1830, 466.6152
864.3160, 557.7178
865.4480, 504.8135
866.5810, 573.9062
867.7130, 482.9932
868.8460, 435.0771
869.9780, 493.1572
871.1100, 426.2354
872.2410, 445.3115
873.3730, 443.3857
874.5050, 449.4502
875.6360, 466.5352
876.7670, 463.6094
877.8980, 493.6855
879.0290, 423.0732
880.1590, 456.8447
881.2900, 448.9287
882.4200, 386.0166
883.5500, 555.1094
884.6800, 487.2070
885.8100, 626.3105
886.9400, 511.4209
888.0690, 544.5391
889.1990, 513.6543
890.3280, 708.7881
891.4570, 683.2705
892.5860, 713.4219
893.7140, 727.1670
894.8430, 740.3906
895.9710, 900.1719
897.1000, 907.9121
898.2280, 1154.122
899.3560, 1315.968
900.4830, 1418.215
901.6110, 1575.549
902.7380, 1949.202
903.8660, 2326.226
904.9930, 2964.651
906.1200, 3543.912
907.2460, 4258.796
908.3730, 4901.119
909.5000, 5597.349
910.6260, 6518.949
911.7520, 7038.399
912.8780, 7437.848
914.0040, 7475.666
915.1290, 7781.569
916.2550, 8197.084
917.3800, 9120.641
918.5050, 10168.06
919.6300, 11460.91
920.7550, 13191.77
921.8800, 15576.35
923.0040, 17594.55
924.1290, 20261.25
925.2530, 23427.71
926.3770, 27488.81
927.5010, 31019.48
928.6250, 34882.12
929.7480, 38495.36
930.8720, 41992.41
931.9950, 43707.20
933.1180, 44813.01
934.2410, 45074.52
935.3640, 43290.36
936.4860, 40045.94
937.6090, 36557.77
938.7310, 32513.06
939.8530, 29645.93
940.9750, 25626.88
942.0970, 22481.91
943.2180, 20484.05
944.3400, 18936.29
945.4610, 17351.66
946.5820, 16418.12
947.7030, 15213.66
948.8240, 13758.29
949.9450, 12151.03
951.0650, 10178.89
952.1860, 8512.848
953.3060, 6991.877
954.4260, 5684.984
955.5460, 4830.160
956.6650, 4157.453
957.7850, 3256.838
958.9040, 3125.294
960.0230, 2618.826
961.1420, 2283.445
962.2610, 1931.147
963.3800, 1975.934
964.4990, 1706.836
965.6170, 1619.816
966.7350, 1452.899
967.8530, 1174.073
968.9710, 1377.324
970.0890, 1342.696
971.2070, 1373.172
972.3240, 1604.749
973.4410, 1606.667
974.5580, 1694.480
975.6750, 1791.041
976.7920, 1879.998
977.9090, 1962.031
979.0250, 2233.138
980.1410, 2291.320
981.2580, 2521.583
982.3740, 2572.919
983.4890, 2869.332
984.6050, 3071.822
985.7200, 3454.392
986.8360, 4078.036
987.9510, 4528.756
989.0660, 5364.552
990.1810, 6402.422
991.2950, 7623.367
992.4100, 8861.388
993.5240, 10480.49
994.6390, 12218.66
995.7530, 14294.91
996.8660, 16339.24
997.9800, 18424.64
999.0940, 20546.12
1000.207, 22298.68
1001.320, 23981.31
1002.433, 25010.02
1003.546, 25795.13
1004.659, 26130.68
1005.772, 26145.62
1006.884, 25699.65
1007.996, 24813.75
1009.108, 23956.93
1010.220, 22664.20
1011.332, 21029.53
1012.444, 19639.95
1013.555, 18012.45
1014.666, 16755.01
1015.777, 15296.67
1016.888, 13825.41
1017.999, 12376.22
1019.110, 11074.60
1020.220, 9793.346
1021.331, 8670.140
1022.441, 7599.273
1023.551, 6731.486
1024.661, 6094.779
1025.770, 5268.158
1026.880, 4727.617
1027.989, 4459.164
1029.098, 3963.803
1030.207, 3761.524
1031.316, 3491.330
1032.425, 3043.245
1033.533, 2776.288
1034.642, 2712.454
1035.750, 2618.738
1036.858, 2536.147
1037.966, 2509.697
1039.073, 2475.365
1040.181, 2316.188
1041.288, 2333.166
1042.396, 2105.283
1043.503, 2071.553
1044.610, 1917.958
1045.716, 1741.494
1046.823, 1677.165
1047.929, 1375.965
1049.036, 1335.889
1050.142, 1139.970
1051.248, 1212.174
1052.353, 1123.521
1053.459, 891.0117
1054.564, 914.1084
1055.670, 967.8926
1056.775, 777.8076
1057.880, 766.8223
1058.985, 609.9570
1060.089, 745.0703
1061.194, 802.1318
1062.298, 676.1113
1063.402, 516.6816
1064.506, 610.3770
1065.610, 520.0967
1066.713, 461.2324
1067.817, 614.6621
1068.920, 500.3203
1070.023, 566.2480
1071.126, 618.5605
1072.229, 735.7949
1073.332, 800.1855
1074.435, 851.9258
1075.537, 884.7207
1076.639, 915.8086
1077.741, 1085.452
1078.843, 1204.529
1079.945, 1304.666
1081.046, 1666.178
1082.148, 1836.085
1083.249, 2093.899
1084.350, 2322.649
1085.451, 2575.948
1086.551, 2930.548
1087.652, 3112.262
1088.752, 3249.994
1089.853, 3295.595
1090.953, 3208.342
1092.053, 3073.520
1093.152, 2974.178
1094.252, 2612.414
1095.351, 2190.747
1096.451, 1949.896
1097.550, 1648.604
1098.649, 1310.932
1099.748, 1238.752
1100.846, 942.2695
1101.945, 787.9277
1103.043, 686.5186
1104.141, 650.7373
1105.239, 451.9980
1106.337, 434.3496
1107.434, 316.0469
1108.532, 413.4600
1109.629, 342.9209
1110.726, 358.4307
1111.823, 370.7891
1112.920, 345.3848
1114.017, 393.6484
1115.113, 355.3486
1116.210, 420.0947
1117.306, 465.8877
1118.402, 645.7256
1119.498, 785.6084
1120.593, 1068.535
1121.689, 1088.507
1122.784, 1228.521
1123.879, 1141.580
1124.974, 836.6797
1126.069, 886.8223
1127.164, 733.5156
1128.259, 638.4307
1129.353, 560.4951
1130.447, 538.7998
1131.541, 409.1445
1132.635, 442.5283
1133.729, 296.9502
1134.822, 371.4111
1135.916, 269.9092
1137.009, 343.4453
1138.102, 311.0166
1139.195, 218.6250
1140.288, 411.2686
1141.380, 291.9463
1142.473, 241.6592
1143.565, 242.4062
1144.657, 332.1875
1145.749, 273.0010
1146.841, 412.8477
1147.932, 192.7256
1149.024, 333.6357
1150.115, 389.5762
1151.206, 238.5508
1152.297, 302.5928
1153.388, 281.6709
1154.479, 430.7822
1155.569, 243.9326
1156.659, 149.1416
1157.750, 324.4219
1158.839, 187.7754
1159.929, 266.1777
1161.019, 306.6289
1162.108, 234.1240
1163.198, 215.6592
1164.287, 234.2344
1165.376, 159.8457
1166.465, 179.5029
1167.553, 117.1904
1168.642, 104.8848
1169.730, 244.6455
1170.818, 149.4092
1171.906, 152.1973
1172.994, 337.0059
1174.082, 159.8311
1175.170, 256.6768
1176.257, 255.6357
1177.344, 183.5996
1178.431, 248.2988
1179.518, 130.2061
1180.605, 92.12988
1181.691, 115.0732
1182.778, 63.02734
1183.864, 17.99023
1184.950, 24.03613
1186.036, 30.93457
1187.122, 98.91211
1188.207, 85.10547
1189.292, 142.8506
1190.378, 78.18945
1191.463, 112.2568
1192.548, 44.36719
1193.632, 13.50684
1194.717, 11.38086
1195.801, 210.7461
1196.886, 90.97266
1197.970, 73.24121
1199.054, 178.5459
1200.137, 109.9385
1201.221, 38.38965
1202.305, 70.86523
1203.388, 88.38379
1204.471, 90.95508
1205.554, 172.5820
1206.637, 89.30469
1207.719, 194.0869
1208.802, 132.9824
1209.884, 14.04004
1210.966, 64.95215
1212.048, 198.9971
1213.130, 114.1660
1214.212, 141.4131
1215.293, 83.24023
1216.374, 16.11523
1217.456, 27.49121
1218.536, 158.9189
1219.617, 50.44141
1220.698, 28.97754
1221.778, 8.376953
1222.859, 31.25586
1223.939, 3.941406
1225.019, 19.66699
1226.099, 126.4414
1227.178, 14.67578
1228.258, 75.24121
1229.337, 16.24121
1230.417, 57.70605
1231.496, 87.37109
1232.574, 35.54199
1233.653, 10.78125
1234.732, 153.9248
1235.810, 95.61035
1236.888, 57.72168
1237.966, 111.8604
1239.044, 188.4238
1240.122, 245.9668
1241.199, 88.48926
1242.277, 358.9824
1243.354, 305.4561
1244.431, 164.9062
1245.508, 256.3320
1246.585, 278.7334
1247.661, 225.1113
1248.738, 269.4639
1249.814, 315.7920
1250.890, 220.0947
1251.966, 393.3701
1253.042, 212.6191
1254.117, 335.8408
1255.193, 283.0352
1256.268, 440.2002
1257.343, 280.3467
1258.418, 360.4629
1259.493, 452.5518
1260.567, 461.6182
1261.642, 515.6562
1262.716, 578.6660
1263.790, 524.7441
1264.864, 539.6338
1265.938, 487.5781
1267.011, 502.6943
1268.085, 501.5889
1269.158, 527.2324
1270.231, 517.0527
1271.304, 522.8516
1272.377, 529.7266
1273.450, 524.2900
