##NAMES=Catapleiite
##RRUFFID=R060208
##IDEAL CHEMISTRY=Na_2_Zr^4+^Si_3_O_9_&#183;2H_2_O
##LOCALITY=Mont Saint-Hilaire, Rouville County, Quebec, Canada
##OWNER=RRUFF
##SOURCE=Royal Ontario Museum
##DESCRIPTION=Colorless transparent thin tabular pseudohexagonal crystal
##STATUS=The identification of this mineral is confirmed by single-crystal X-ray diffraction and chemical analysis.
##URL=rruff.info/R060208
##MEASURED CHEMISTRY=Na_2.00_Zr_1.00_Si_3.00_O_9_Â·2H_2_O
##PIN_ID=M01569
##ORIENTATION=Laser parallel to -c* (0 0 -1). Fiducial mark perpendicular to laser is parallel to a [1 0 0]
120.9140, 0.0000000E+00
122.1480, 86.53613
123.3810, 16.90576
124.6150, 64.85205
125.8480, 35.29004
127.0810, 166.9536
128.3130, 170.7642
129.5460, 392.7427
130.7790, 461.2212
132.0110, 516.6924
133.2430, 511.6802
134.4750, 647.9746
135.7070, 869.1152
136.9380, 873.3770
138.1700, 1102.989
139.4010, 1091.409
140.6330, 1261.992
141.8640, 1461.991
143.0950, 1617.666
144.3250, 1613.496
145.5560, 1838.129
146.7860, 1981.394
148.0160, 2245.740
149.2470, 2248.504
150.4760, 2484.358
151.7060, 2513.102
152.9360, 2774.385
154.1650, 2804.795
155.3950, 2927.503
156.6240, 2952.891
157.8530, 3208.763
159.0820, 3127.364
160.3100, 3370.802
161.5390, 3237.959
162.7670, 3001.717
163.9950, 2928.242
165.2230, 2736.737
166.4510, 2589.379
167.6790, 2381.325
168.9060, 2142.713
170.1340, 1811.665
171.3610, 1658.288
172.5880, 1325.521
173.8150, 1274.399
175.0420, 1145.241
176.2690, 1013.989
177.4950, 877.6973
178.7210, 803.7603
179.9470, 754.1758
181.1730, 682.6821
182.3990, 707.6948
183.6250, 632.4883
184.8500, 722.0435
186.0760, 662.2300
187.3010, 819.5576
188.5260, 830.1372
189.7510, 825.0347
190.9750, 899.7930
192.2000, 951.9634
193.4240, 1029.572
194.6490, 1112.350
195.8730, 1214.865
197.0970, 1308.336
198.3200, 1361.172
199.5440, 1414.203
200.7670, 1550.595
201.9910, 1556.328
203.2140, 1567.155
204.4370, 1574.848
205.6590, 1516.729
206.8820, 1679.784
208.1050, 1767.996
209.3270, 1645.352
210.5490, 1769.834
211.7710, 1704.428
212.9930, 1599.119
214.2150, 1541.891
215.4360, 1449.731
216.6570, 1312.626
217.8790, 1120.569
219.1000, 1003.548
220.3210, 889.5566
221.5410, 732.3638
222.7620, 629.1416
223.9820, 468.6631
225.2030, 408.6812
226.4230, 301.6631
227.6430, 220.5933
228.8620, 262.4595
230.0820, 136.2554
231.3010, 41.97656
232.5210, 82.23145
233.7400, 9.788574
234.9590, 17.72607
236.1780, 24.05371
237.3960, 81.09473
238.6150, 89.58740
239.8330, 42.23096
241.0510, 28.24902
242.2690, 33.33691
243.4870, 110.4922
244.7050, 129.7148
245.9230, 121.0073
247.1400, 222.3872
248.3570, 160.8696
249.5740, 122.4888
250.7910, 177.2876
252.0080, 153.3228
253.2240, 118.6455
254.4410, 217.2227
255.6570, 77.04395
256.8730, 10.17969
258.0890, 9.316895
259.3050, 2.499023
260.5210, 19.37451
261.7360, 1.674805
262.9510, 18.37842
264.1670, 48.29297
265.3820, 82.05664
266.5960, 108.9546
267.8110, 62.67285
269.0260, 105.4604
270.2400, 65.75146
271.4540, 32.73828
272.6680, 89.53418
273.8820, 32.23633
275.0960, 40.88867
276.3090, 12.46289
277.5230, 119.7959
278.7360, 238.0933
279.9490, 184.3364
281.1620, 247.5078
282.3750, 374.5952
283.5880, 511.5869
284.8000, 524.4688
286.0120, 765.2275
287.2240, 842.8535
288.4360, 1085.340
289.6480, 1173.684
290.8600, 1389.883
292.0710, 1573.938
293.2830, 1725.850
294.4940, 1905.618
295.7050, 2000.235
296.9160, 2040.688
298.1260, 1870.963
299.3370, 2017.046
300.5470, 1833.922
301.7580, 1845.586
302.9680, 1635.042
304.1770, 1659.293
305.3870, 1688.339
306.5970, 1554.185
307.8060, 1434.842
309.0150, 1423.318
310.2250, 1369.625
311.4340, 1493.771
312.6420, 1331.764
313.8510, 1437.611
315.0590, 1244.319
316.2680, 1287.896
317.4760, 1246.344
318.6840, 1157.658
319.8920, 1147.824
321.0990, 1130.826
322.3070, 1188.608
323.5140, 1122.134
324.7210, 1113.354
325.9280, 1068.203
327.1350, 918.7607
328.3420, 978.9985
329.5490, 998.8672
330.7550, 819.3047
331.9610, 870.3804
333.1670, 859.1279
334.3730, 722.5508
335.5790, 617.8271
336.7840, 572.9805
337.9900, 558.0161
339.1950, 496.8682
340.4000, 524.5244
341.6050, 321.9907
342.8100, 347.2954
344.0150, 216.4668
345.2190, 277.5737
346.4230, 262.6479
347.6280, 358.6982
348.8320, 249.7373
350.0350, 404.7651
351.2390, 304.7832
352.4430, 255.7900
353.6460, 249.7832
354.8490, 357.7627
356.0520, 369.7300
357.2550, 423.6855
358.4580, 515.6304
359.6600, 554.5630
360.8630, 700.4849
362.0650, 756.3940
363.2670, 771.2925
364.4690, 918.1792
365.6710, 796.0547
366.8720, 806.9189
368.0740, 937.5952
369.2750, 878.6025
370.4760, 842.3618
371.6770, 860.4512
372.8780, 867.8311
374.0780, 926.6284
375.2790, 863.8726
376.4790, 902.2778
377.6790, 948.3164
378.8790, 842.0020
380.0790, 802.2798
381.2790, 740.2539
382.4780, 661.7412
383.6780, 657.7920
384.8770, 680.9160
386.0760, 651.0225
387.2750, 628.5181
388.4730, 602.0713
389.6720, 534.1294
390.8700, 588.8418
392.0690, 537.3018
393.2670, 423.7334
394.4650, 573.6870
395.6620, 543.3159
396.8600, 434.5869
398.0570, 389.1592
399.2550, 482.6748
400.4520, 510.1240
401.6490, 623.9150
402.8450, 694.2334
404.0420, 666.0112
405.2390, 862.0859
406.4350, 916.1157
407.6310, 1012.515
408.8270, 1182.016
410.0230, 1474.595
411.2190, 1624.687
412.4140, 1916.739
413.6090, 2256.139
414.8050, 2799.044
416.0000, 3308.021
417.1940, 4080.429
418.3890, 4556.424
419.5840, 5533.864
420.7780, 6370.603
421.9720, 7374.465
423.1660, 8700.220
424.3600, 10066.57
425.5540, 11262.33
426.7480, 12649.61
427.9410, 13461.44
429.1340, 13974.32
430.3270, 14257.24
431.5200, 13647.15
432.7130, 12716.03
433.9060, 11497.90
435.0980, 10173.75
436.2900, 8732.572
437.4830, 7585.383
438.6750, 6490.177
439.8660, 5618.956
441.0580, 4807.718
442.2500, 4194.466
443.4410, 3543.201
444.6320, 3243.923
445.8230, 2803.633
447.0140, 2410.333
448.2050, 2117.023
449.3950, 1898.704
450.5860, 1807.376
451.7760, 1487.042
452.9660, 1393.701
454.1560, 1293.355
455.3450, 1012.005
456.5350, 993.6509
457.7240, 905.2935
458.9140, 734.9336
460.1030, 720.5713
461.2920, 631.7666
462.4810, 681.8428
463.6690, 566.4780
464.8580, 449.1138
466.0460, 476.7515
467.2340, 391.3916
468.4220, 446.0361
469.6100, 495.6860
470.7970, 292.3438
471.9850, 384.0103
473.1720, 277.6865
474.3590, 355.3755
475.5460, 238.0776
476.7330, 226.7959
477.9200, 169.5303
479.1060, 220.2817
480.2930, 137.0508
481.4790, 109.8394
482.6650, 194.6465
483.8510, 188.4751
485.0370, 74.64502
486.2220, 108.9624
487.4080, 151.7744
488.5930, 65.88574
489.7780, 59.97852
490.9630, 50.51709
492.1480, 63.64404
493.3320, 114.4644
494.5170, 91.91260
495.7010, 133.2012
496.8850, 92.52002
498.0690, 143.3408
499.2530, 193.2798
500.4360, 171.5044
501.6200, 244.7783
502.8030, 266.1108
503.9860, 291.4902
505.1690, 336.9077
506.3520, 343.3745
507.5350, 472.8779
508.7170, 502.4292
509.9000, 615.0366
511.0820, 661.6904
512.2640, 748.4106
513.4460, 894.1763
514.6270, 883.0078
515.8090, 1081.903
516.9900, 1200.845
518.1710, 1396.862
519.3530, 1480.834
520.5330, 1563.093
521.7140, 1622.307
522.8950, 1719.591
524.0750, 1745.958
525.2550, 1867.417
526.4350, 1784.977
527.6150, 1844.630
528.7950, 1678.373
529.9750, 1861.328
531.1540, 1663.251
532.3340, 1763.275
533.5130, 1834.396
534.6920, 1829.733
535.8700, 1728.179
537.0490, 1639.689
538.2280, 1682.205
539.4060, 1643.326
540.5840, 1852.552
541.7620, 1679.475
542.9400, 1773.859
544.1180, 1798.002
545.2950, 1720.220
546.4720, 1827.031
547.6500, 1992.782
548.8270, 2018.348
550.0040, 2045.812
551.1800, 2190.715
552.3570, 2524.509
553.5330, 2529.700
554.7090, 2868.028
555.8850, 3004.940
557.0610, 3478.063
558.2370, 3723.254
559.4130, 4284.284
560.5880, 4988.018
561.7630, 5653.644
562.9380, 6443.364
564.1130, 7507.476
565.2880, 8318.426
566.4630, 9517.743
567.6370, 10805.99
568.8120, 11989.14
569.9860, 13262.81
571.1600, 14496.04
572.3330, 15249.23
573.5070, 15549.25
574.6810, 15598.26
575.8540, 14528.28
577.0270, 13511.33
578.2000, 12008.38
579.3730, 10476.45
580.5460, 8825.534
581.7180, 7447.637
582.8910, 6305.752
584.0630, 5078.881
585.2350, 4334.025
586.4070, 3606.183
587.5780, 3028.355
588.7500, 2541.662
589.9210, 2143.742
591.0930, 1836.956
592.2640, 1608.185
593.4350, 1452.426
594.6050, 1192.682
595.7760, 1057.951
596.9460, 933.2334
598.1170, 830.6963
599.2870, 805.8374
600.4570, 751.1587
601.6260, 758.4932
602.7960, 780.8403
603.9650, 780.1992
605.1350, 879.5708
606.3040, 823.9541
607.4730, 789.3496
608.6420, 977.7568
609.8100, 1128.176
610.9790, 1204.606
612.1470, 1458.048
613.3150, 1740.500
614.4830, 2189.965
615.6510, 2404.439
616.8190, 2901.923
617.9860, 3580.418
619.1540, 4252.922
620.3210, 5122.437
621.4880, 6218.961
622.6550, 7628.495
623.8220, 8854.128
624.9880, 10521.95
626.1550, 12399.55
627.3210, 13837.12
628.4870, 15269.90
629.6530, 15861.66
630.8190, 15395.52
631.9840, 14044.47
633.1500, 12395.49
634.3150, 10191.78
635.4800, 8305.871
636.6450, 6807.112
637.8100, 5296.135
638.9740, 4243.531
640.1390, 3381.057
641.3030, 2727.351
642.4670, 2216.921
643.6310, 1935.937
644.7950, 1552.526
645.9590, 1322.963
647.1220, 1134.415
648.2850, 992.4688
649.4490, 795.6250
650.6120, 757.9917
651.7740, 480.7275
652.9370, 555.9180
654.1000, 548.5459
655.2620, 336.7144
656.4240, 379.4185
657.5860, 260.2583
658.7480, 316.6973
659.9100, 112.8320
661.0710, 134.6406
662.2330, 193.3872
663.3940, 56.31641
664.5550, 84.22266
665.7160, 78.66113
666.8770, 40.04736
668.0370, 64.32129
669.1980, 0.8994140
670.3580, 46.83691
671.5180, 64.66748
672.6780, 63.74316
673.8380, 5.410645
674.9970, 6.295410
676.1570, 15.99023
677.3160, 83.38721
678.4750, 50.12891
679.6340, 118.0239
680.7930, 23.44092
681.9520, 7.023438
683.1100, 63.49072
684.2680, 78.97607
685.4270, 70.43457
686.5850, 8.964355
687.7420, 110.2808
688.9000, 58.96875
690.0580, 79.78174
691.2150, 75.81152
692.3720, 47.90430
693.5290, 64.04639
694.6860, 55.24756
695.8430, 40.50342
696.9990, 55.80762
698.1560, 51.16895
699.3120, 60.58643
700.4680, 57.06543
701.6240, 24.60449
702.7800, 12.18750
703.9350, 7.842285
705.0900, 78.46924
706.2460, 11.20361
707.4010, 25.52979
708.5560, 48.80078
709.7110, 35.31592
710.8650, 47.40283
712.0200, 96.46191
713.1740, 273.4937
714.3280, 128.4985
715.4820, 183.4761
716.6360, 320.4268
717.7890, 280.3501
718.9430, 370.2456
720.0960, 466.1138
721.2490, 441.9531
722.4020, 573.7656
723.5550, 569.5493
724.7080, 662.3052
725.8600, 602.0327
727.0130, 782.7310
728.1650, 914.4009
729.3170, 1105.042
730.4690, 1129.655
731.6200, 1166.238
732.7720, 1261.792
733.9230, 1348.317
735.0740, 1426.813
736.2250, 1502.279
737.3760, 1473.715
738.5270, 1309.122
739.6780, 1417.498
740.8280, 1325.843
741.9780, 1141.160
743.1280, 1140.445
744.2780, 991.7002
745.4280, 887.9248
746.5770, 808.1182
747.7270, 734.2812
748.8760, 738.4131
750.0250, 594.5137
751.1740, 595.5835
752.3230, 485.6221
753.4720, 302.6294
754.6200, 347.6045
755.7680, 259.5483
756.9160, 193.4609
758.0640, 219.3413
759.2120, 151.9917
760.3600, 156.0063
761.5070, 130.7910
762.6550, 89.54199
763.8020, 144.2588
764.9490, 191.9429
766.0960, 110.5942
767.2420, 117.2114
768.3890, 97.12305
769.5350, 77.34326
770.6810, 63.85547
771.8270, 49.33154
772.9730, 59.76758
774.1190, 4.165527
775.2640, 29.50635
776.4100, 45.19971
777.5550, 14.98975
778.7000, 42.84717
779.8450, 78.78857
780.9900, 37.83154
782.1340, 1.044922
783.2790, 44.13965
784.4230, 3.591797
785.5670, 37.73584
786.7110, 71.14502
787.8550, 26.65137
788.9980, 96.23193
790.1420, 7.924805
791.2850, 78.68066
792.4280, 55.54004
793.5710, 0.4897460
794.7140, 82.50049
795.8560, 12.61475
796.9990, 8.203125
798.1410, 37.96436
799.2830, 39.34766
800.4250, 5.645020
801.5670, 10.96484
802.7090, 14.47949
803.8500, 29.99121
804.9920, 44.57812
806.1330, 21.24854
807.2740, 34.88477
808.4150, 9.100098
809.5550, 24.26123
810.6960, 118.3760
811.8360, 64.35449
812.9760, 31.29053
814.1160, 114.2109
815.2560, 30.19434
816.3960, 51.12109
817.5350, 135.0117
818.6750, 100.7749
819.8140, 94.11621
820.9530, 82.72217
822.0920, 57.36230
823.2310, 56.52832
824.3690, 34.28662
825.5080, 60.53223
826.6460, 73.89111
827.7840, 104.8398
828.9220, 140.9360
830.0600, 218.6777
831.1970, 123.3164
832.3350, 180.4116
833.4720, 120.3291
834.6090, 235.2031
835.7460, 249.2783
836.8830, 230.6743
838.0190, 137.2041
839.1560, 231.6533
840.2920, 147.7109
841.4280, 245.9292
842.5640, 230.7842
843.7000, 205.7026
844.8360, 171.7236
845.9710, 197.2075
847.1070, 198.1367
848.2420, 193.5269
849.3770, 190.0771
850.5120, 189.3613
851.6460, 175.4780
852.7810, 157.5947
853.9150, 184.8760
855.0490, 271.7720
856.1830, 287.8330
857.3170, 331.8745
858.4510, 381.8975
859.5840, 318.9033
860.7180, 395.9038
861.8510, 339.8853
862.9840, 261.8491
864.1170, 332.7939
865.2500, 387.7275
866.3820, 416.6436
867.5150, 317.5415
868.6470, 244.4219
869.7790, 269.2861
870.9110, 325.1328
872.0430, 394.9619
873.1740, 402.7754
874.3060, 460.5806
875.4370, 416.3687
876.5680, 417.1411
877.6990, 443.7959
878.8300, 474.6392
879.9600, 488.3657
881.0910, 521.0767
882.2210, 561.7734
883.3510, 462.4551
884.4810, 521.1230
885.6110, 551.1162
886.7410, 562.4165
887.8700, 634.0430
888.9990, 699.6562
890.1290, 670.2563
891.2580, 745.8438
892.3860, 783.4185
893.5150, 906.9814
894.6440, 1080.532
895.7720, 1016.071
896.9000, 964.5981
898.0280, 1203.023
899.1560, 1254.262
900.2840, 1509.715
901.4110, 1597.199
902.5390, 1655.484
903.6660, 1756.783
904.7930, 1981.986
905.9200, 2233.093
907.0470, 2497.137
908.1730, 2641.908
909.3000, 3094.897
910.4260, 3472.731
911.5520, 3822.785
912.6780, 4415.471
913.8030, 4811.027
914.9290, 5520.810
916.0540, 6446.316
917.1800, 7593.375
918.3050, 8542.858
919.4300, 10232.49
920.5550, 12039.11
921.6790, 14234.12
922.8040, 17284.44
923.9280, 20296.13
925.0520, 24226.45
926.1760, 28339.65
927.3000, 33273.07
928.4230, 38010.95
929.5470, 42711.29
930.6700, 46669.66
931.7930, 49608.28
932.9160, 51023.20
934.0390, 50465.44
935.1620, 48231.74
936.2840, 44185.85
937.4070, 39159.99
938.5290, 33686.59
939.6510, 27852.24
940.7730, 23246.99
941.8940, 19193.24
943.0160, 16028.51
944.1370, 13607.69
945.2580, 11618.64
946.3800, 10498.99
947.5000, 9357.120
948.6210, 8189.430
949.7420, 7382.805
950.8620, 6502.260
951.9820, 5499.331
953.1020, 4736.873
954.2220, 4044.289
955.3420, 3343.723
956.4620, 2945.152
957.5810, 2466.540
958.7000, 2075.979
959.8190, 1915.192
960.9380, 1615.740
962.0570, 1379.391
963.1760, 1336.225
964.2940, 1287.097
965.4120, 1133.998
966.5300, 972.9492
967.6480, 1012.930
968.7660, 861.9375
969.8840, 812.0039
971.0010, 785.0996
972.1190, 787.2256
973.2360, 784.2324
974.3530, 761.5645
975.4690, 811.7646
976.5860, 800.9844
977.7030, 792.2432
978.8190, 788.5234
979.9350, 1018.828
981.0510, 1032.301
982.1670, 1145.652
983.2830, 1196.623
984.3980, 1418.226
985.5130, 1404.066
986.6290, 1970.090
987.7440, 2246.524
988.8590, 2341.601
989.9730, 2969.076
991.0880, 3413.558
992.2020, 4103.165
993.3160, 4848.187
994.4300, 5651.547
995.5440, 6372.086
996.6580, 7374.660
997.7720, 8258.233
998.8850, 9232.251
999.9980, 9981.854
1001.111, 10651.47
1002.224, 11299.11
1003.337, 11776.76
1004.450, 11883.43
1005.562, 11821.13
1006.674, 11356.84
1007.786, 11209.19
1008.898, 10952.93
1010.010, 10389.70
1011.122, 10123.48
1012.233, 9190.284
1013.344, 8457.100
1014.455, 7948.938
1015.566, 7247.791
1016.677, 6425.661
1017.788, 5798.563
1018.898, 5034.481
1020.009, 4293.419
1021.119, 3868.396
1022.229, 3241.394
1023.339, 2807.411
1024.448, 2390.455
1025.558, 2043.518
1026.667, 1765.600
1027.776, 1615.698
1028.885, 1368.816
1029.994, 1318.952
1031.103, 1172.106
1032.211, 1218.282
1033.320, 1065.479
1034.428, 891.6934
1035.536, 910.9277
1036.644, 936.1826
1037.751, 993.4580
1038.859, 943.5762
1039.966, 943.9912
1041.074, 873.0098
1042.181, 833.6885
1043.288, 841.0898
1044.394, 703.1934
1045.501, 556.4199
1046.607, 377.9229
1047.713, 399.4648
1048.820, 276.2754
1049.925, 273.9131
1051.031, 319.5947
1052.137, 192.3066
1053.242, 221.0645
1054.348, 169.8545
1055.453, 35.00586
1056.558, 88.87402
1057.662, 119.7949
1058.767, 30.22559
1059.871, 112.7861
1060.976, 141.8506
1062.080, 72.96289
1063.184, 17.02539
1064.288, 28.48730
1065.391, 71.62305
1066.495, 97.92578
1067.598, 132.2549
1068.701, 234.6094
1069.804, 191.9971
1070.907, 310.4346
1072.010, 338.9150
1073.112, 436.4346
1074.214, 453.9980
1075.317, 478.5996
1076.419, 629.2246
1077.521, 579.5459
1078.622, 781.2246
1079.724, 970.9229
1080.825, 1105.640
1081.926, 1444.382
1083.027, 1599.141
1084.128, 1865.872
1085.229, 2196.674
1086.329, 2180.494
1087.430, 2684.123
1088.530, 2684.979
1089.630, 2749.054
1090.730, 2646.443
1091.830, 2410.354
1092.929, 2351.691
1094.029, 2020.638
1095.128, 1690.622
1096.227, 1370.734
1097.326, 1203.468
1098.425, 970.0156
1099.523, 797.4072
1100.622, 679.6846
1101.720, 541.5879
1102.818, 493.6494
1103.916, 440.7236
1105.014, 384.8135
1106.111, 259.9170
1107.209, 81.03125
1108.306, 72.15918
1109.403, 56.29980
1110.500, 93.45215
1111.597, 67.61621
1112.694, 10.20898
1113.790, 26.97656
1114.887, 60.82617
1115.983, 14.63379
1117.079, 24.33203
1118.174, 125.0664
1119.270, 2.174805
1120.366, 30.37793
1121.461, 0.8154300
1122.556, 3.103516
1123.651, 7.682617
1124.746, 25.46094
1125.841, 85.23340
1126.935, 57.97656
1128.030, 0.3554690
1129.124, 87.59570
1130.218, 51.15430
1131.312, 19.09082
1132.405, 86.58691
1133.499, 76.85645
1134.592, 47.28125
1135.686, 31.56836
1136.779, 141.7158
1137.871, 21.02148
1138.964, 52.66406
1140.057, 125.6455
1141.149, 200.1387
1142.241, 189.8086
1143.334, 206.1416
1144.425, 172.4834
1145.517, 181.9814
1146.609, 172.9199
1147.700, 185.5518
1148.791, 149.1094
1149.883, 157.4873
1150.974, 116.1162
1152.064, 60.30859
1153.155, 133.2861
1154.245, 97.16016
1155.336, 68.60840
1156.426, 27.13770
1157.516, 92.55859
1158.606, 147.9834
1159.695, 100.5059
1160.785, 5.941406
1161.874, 22.43359
1162.963, 60.29297
1164.052, 137.7441
1165.141, 25.51367
1166.230, 89.37988
1167.318, 44.49316
1168.406, 70.53125
1169.495, 60.00586
1170.583, 14.51660
1171.670, 120.8369
1172.758, 48.68555
1173.846, 44.77344
1174.933, 181.2363
1176.020, 30.29980
1177.107, 143.1533
1178.194, 59.72559
1179.281, 1.816406
1180.367, 37.63867
1181.454, 8.094727
1182.540, 175.5527
1183.626, 149.0107
1184.712, 84.63281
1185.798, 1.908203
1186.883, 131.1338
1187.969, 204.5879
1189.054, 49.11914
1190.139, 59.23633
1191.224, 33.68848
1192.309, 12.13867
1193.393, 30.41309
1194.478, 2.000977
1195.562, 21.73145
1196.646, 52.53906
1197.730, 18.75977
1198.814, 79.15527
1199.897, 192.5488
1200.981, 21.95605
1202.064, 131.7676
1203.147, 94.14746
1204.230, 123.5225
1205.313, 28.91406
1206.396, 126.2793
1207.478, 61.36035
1208.560, 103.0078
1209.642, 128.3164
1210.724, 111.6182
1211.806, 67.01074
1212.888, 133.3105
1213.969, 1.741211
1215.051, 124.0088
1216.132, 53.27051
1217.213, 89.47656
1218.294, 92.71289
1219.374, 31.10547
1220.455, 3.350586
1221.535, 135.9219
1222.616, 18.03809
1223.696, 108.1426
1224.775, 34.31348
1225.855, 5.405273
1226.935, 13.47266
1228.014, 47.47363
1229.093, 110.6689
1230.172, 17.66406
1231.251, 83.27441
1232.330, 121.6387
1233.408, 113.5439
1234.487, 57.65918
1235.565, 126.7334
1236.643, 93.61133
1237.721, 115.0791
1238.799, 86.45801
1239.876, 154.3066
1240.954, 122.1465
1242.031, 138.9785
1243.108, 160.8516
1244.185, 144.4736
1245.262, 139.6709
1246.338, 153.2422
1247.415, 42.57910
1248.491, 49.73828
1249.567, 9.601563
1250.643, 131.7666
1251.719, 48.50586
1252.795, 132.2539
1253.870, 130.8789
1254.945, 211.0957
1256.021, 77.97754
1257.096, 42.68750
1258.170, 107.5723
1259.245, 101.2607
1260.320, 91.50586
1261.394, 42.11914
1262.468, 116.7725
1263.542, 49.41504
1264.616, 160.0449
1265.690, 2.076172
1266.763, 182.6680
1267.836, 151.3828
1268.910, 162.3252
1269.983, 51.88379
1271.055, 12.42969
1272.128, 97.98828
1273.201, 154.5820
1274.273, 115.0830
1275.345, 187.5723
1276.417, 163.6084
1277.489, 16.48535
1278.561, 107.9414
1279.632, 55.35547
1280.704, 41.24219
1281.775, 40.10547
1282.846, 45.43652
1283.917, 3.750000
1284.988, 76.03223
1286.058, 149.3008
1287.129, 124.5566
1288.199, 84.80078
1289.269, 111.0303
1290.339, 96.24707
1291.409, 53.45020
1292.478, 236.6367
1293.548, 60.81055
1294.617, 99.31445
1295.686, 207.7715
