##NAMES=Catapleiite
##RRUFFID=R060208
##IDEAL CHEMISTRY=Na_2_Zr^4+^Si_3_O_9_&#183;2H_2_O
##LOCALITY=Mont Saint-Hilaire, Rouville County, Quebec, Canada
##OWNER=RRUFF
##SOURCE=Royal Ontario Museum
##DESCRIPTION=Colorless transparent thin tabular pseudohexagonal crystal
##STATUS=The identification of this mineral is confirmed by single-crystal X-ray diffraction and chemical analysis.
##URL=rruff.info/R060208
##MEASURED CHEMISTRY=Na_2.00_Zr_1.00_Si_3.00_O_9_Â·2H_2_O
##PIN_ID=M00973
##ORIENTATION=Laser parallel to (-1 0 -1). Fiducial mark perpendicular to laser is parallel to -b [0 -1 0]
112.9490, 0.0000000E+00
114.1850, 21.04980
115.4200, 0.5991210
116.6560, 98.88623
117.8910, 37.52295
119.1260, 91.39404
120.3610, 155.7920
121.5960, 299.5034
122.8300, 362.5635
124.0640, 554.7988
125.2990, 518.1553
126.5330, 540.5928
127.7670, 713.2148
129.0000, 749.3354
130.2340, 870.7339
131.4670, 943.7393
132.7000, 966.2852
133.9330, 1083.239
135.1660, 1130.162
136.3990, 1131.423
137.6310, 1181.543
138.8640, 1209.174
140.0960, 1232.059
141.3280, 1304.012
142.5600, 1297.900
143.7910, 1375.766
145.0230, 1436.806
146.2540, 1466.189
147.4850, 1609.585
148.7160, 1725.545
149.9470, 1859.906
151.1780, 1856.323
152.4080, 2054.222
153.6380, 2066.409
154.8690, 2174.083
156.0980, 2233.754
157.3280, 2316.729
158.5580, 2327.121
159.7870, 2383.063
161.0170, 2439.678
162.2460, 2295.068
163.4750, 2395.329
164.7030, 2307.543
165.9320, 2367.786
167.1600, 2078.125
168.3890, 1964.620
169.6170, 1787.326
170.8450, 1778.314
172.0730, 1573.784
173.3000, 1460.129
174.5280, 1366.349
175.7550, 1368.487
176.9820, 1248.923
178.2090, 1282.499
179.4350, 1244.226
180.6620, 1256.442
181.8880, 1211.400
183.1150, 1283.627
184.3410, 1426.361
185.5670, 1395.894
186.7920, 1420.173
188.0180, 1457.382
189.2430, 1588.980
190.4690, 1697.104
191.6940, 1820.041
192.9180, 1974.787
194.1430, 2070.521
195.3680, 2173.175
196.5920, 2447.104
197.8160, 2621.953
199.0400, 2665.115
200.2640, 2620.808
201.4880, 2865.628
202.7110, 2914.567
203.9350, 3081.616
205.1580, 2948.761
206.3810, 3073.995
207.6040, 3139.307
208.8270, 3053.685
210.0490, 3238.121
211.2710, 3182.606
212.4940, 3001.135
213.7160, 2988.699
214.9370, 2833.294
216.1590, 2652.915
217.3810, 2382.556
218.6020, 2195.213
219.8230, 1864.880
221.0440, 1667.542
222.2650, 1406.188
223.4860, 1210.778
224.7060, 1076.587
225.9260, 876.1230
227.1470, 766.3525
228.3670, 635.7808
229.5860, 528.3408
230.8060, 364.4849
232.0260, 324.0972
233.2450, 258.4907
234.4640, 242.0415
235.6830, 201.0723
236.9020, 175.0518
238.1200, 136.9819
239.3390, 106.8638
240.5570, 112.6997
241.7750, 87.49023
242.9930, 61.23730
244.2110, 87.05811
245.4290, 58.39551
246.6460, 33.22119
247.8630, 142.2119
249.0810, 115.7036
250.2980, 218.2686
251.5140, 137.9160
252.7310, 179.7651
253.9470, 86.79541
255.1640, 199.1206
256.3800, 57.75146
257.5960, 77.64453
258.8120, 5.253906
260.0270, 36.35449
261.2430, 58.90234
262.4580, 127.3931
263.6730, 114.5068
264.8880, 94.36133
266.1030, 110.0361
267.3170, 147.5933
268.5320, 102.0874
269.7460, 156.5425
270.9600, 121.0020
272.1740, 120.4805
273.3880, 142.9985
274.6010, 152.5767
275.8150, 73.22949
277.0280, 25.94824
278.2410, 89.73145
279.4540, 108.6089
280.6670, 60.40283
281.8790, 102.3374
283.0920, 152.1919
284.3040, 174.9661
285.5160, 378.6572
286.7280, 419.2676
287.9400, 500.7966
289.1510, 581.2437
290.3630, 625.6089
291.5740, 738.8914
292.7850, 802.5015
293.9960, 864.1990
295.2070, 949.1472
296.4170, 979.9949
297.6280, 1022.713
298.8380, 1071.295
300.0480, 969.7344
301.2580, 1036.030
302.4680, 903.1855
303.6770, 894.2090
304.8870, 808.1067
306.0960, 799.8848
307.3050, 684.5498
308.5140, 612.1067
309.7230, 666.5605
310.9310, 681.9165
312.1400, 557.1777
313.3480, 598.3486
314.5560, 659.4336
315.7640, 558.4353
316.9720, 592.3579
318.1790, 540.2021
319.3870, 504.9644
320.5940, 486.6414
321.8010, 464.2234
323.0080, 466.7405
324.2150, 550.0522
325.4210, 501.1379
326.6280, 478.9890
327.8340, 527.4915
329.0400, 481.6716
330.2460, 480.5601
331.4510, 379.2502
332.6570, 370.8064
333.8620, 355.1545
335.0680, 264.2881
336.2730, 326.1887
337.4780, 336.8625
338.6820, 272.3225
339.8870, 164.5476
341.0910, 230.6338
342.2950, 138.5393
343.5000, 173.4106
344.7030, 138.2671
345.9070, 141.1196
347.1110, 217.9680
348.3140, 260.8127
349.5170, 219.6558
350.7200, 159.4954
351.9230, 188.3296
353.1260, 201.1514
354.3290, 278.9868
355.5310, 311.8101
356.7330, 430.6306
357.9350, 520.4478
359.1370, 489.2625
360.3390, 567.0747
361.5400, 713.8843
362.7420, 790.6914
363.9430, 768.4961
365.1440, 870.2998
366.3450, 770.1006
367.5460, 877.9004
368.7460, 814.6987
369.9470, 808.4946
371.1470, 753.2905
372.3470, 764.0825
373.5470, 675.8701
374.7460, 671.6543
375.9460, 647.3774
377.1450, 635.9453
378.3450, 701.2495
379.5440, 564.4980
380.7430, 582.4658
381.9410, 523.2437
383.1400, 618.5576
384.3380, 526.3374
385.5370, 544.3115
386.7350, 500.7153
387.9320, 545.2944
389.1300, 432.3394
390.3280, 476.2861
391.5250, 545.8877
392.7220, 502.7832
393.9190, 408.4468
395.1160, 425.7803
396.3130, 474.2646
397.5100, 568.2363
398.7060, 466.1616
399.9020, 501.1641
401.0980, 630.1743
402.2940, 577.0815
403.4900, 681.3486
404.6860, 797.0547
405.8810, 980.3638
407.0760, 1033.377
408.2710, 1247.188
409.4660, 1469.242
410.6610, 1642.311
411.8550, 2086.007
413.0500, 2418.551
414.2440, 2750.652
415.4380, 3412.967
416.6320, 3970.285
417.8260, 4786.181
419.0190, 5587.445
420.2130, 6679.660
421.4060, 7716.822
422.5990, 9076.954
423.7920, 10450.90
424.9850, 11667.59
426.1770, 13158.21
427.3700, 14593.36
428.5620, 15517.68
429.7540, 15984.69
430.9460, 15809.69
432.1380, 15221.69
433.3290, 14057.68
434.5210, 12462.68
435.7120, 11130.67
436.9030, 9593.654
438.0940, 8213.645
439.2850, 7115.632
440.4750, 6167.620
441.6660, 5264.609
442.8560, 4566.599
444.0460, 3926.591
445.2360, 3447.587
446.4260, 3120.587
447.6160, 2675.589
448.8050, 2318.598
449.9940, 2192.612
451.1830, 1835.631
452.3720, 1699.657
453.5610, 1479.691
454.7500, 1320.732
455.9380, 1158.781
457.1260, 1081.839
458.3150, 936.9058
459.5020, 797.9814
460.6900, 846.0674
461.8780, 717.1636
463.0650, 663.2710
464.2530, 623.3887
465.4400, 556.5186
466.6270, 477.6602
467.8130, 539.8145
469.0000, 486.9829
470.1870, 420.1665
471.3730, 345.3667
472.5590, 366.5850
473.7450, 316.8223
474.9310, 323.0801
476.1160, 300.3599
477.3020, 176.6602
478.4870, 276.8340
479.6720, 158.1870
480.8570, 142.5767
482.0420, 175.9229
483.2270, 116.8755
484.4110, 148.1602
485.5960, 147.1084
486.7800, 202.2563
487.9640, 110.3086
489.1480, 140.4272
490.3310, 43.93164
491.5150, 144.6685
492.6980, 196.3086
493.8810, 264.7534
495.0640, 201.3843
496.2470, 243.1396
497.4300, 244.1279
498.6120, 251.1875
499.7950, 316.3247
500.9770, 290.5312
502.1590, 411.8145
503.3410, 388.1484
504.5220, 418.5342
505.7040, 508.9771
506.8850, 542.8394
508.0660, 634.9932
509.2470, 728.5620
510.4280, 854.1699
511.6090, 1029.820
512.7890, 1087.516
513.9700, 1263.263
515.1500, 1349.063
516.3300, 1614.929
517.5100, 1787.844
518.6900, 1902.797
519.8690, 1971.805
521.0490, 2114.865
522.2280, 2181.409
523.4070, 2274.998
524.5860, 2331.355
525.7640, 2417.617
526.9430, 2478.936
528.1210, 2495.299
529.3000, 2388.714
530.4780, 2484.179
531.6560, 2354.738
532.8330, 2430.377
534.0110, 2386.129
535.1880, 2444.867
536.3650, 2331.755
537.5430, 2398.770
538.7190, 2402.878
539.8960, 2348.430
541.0730, 2400.717
542.2490, 2458.222
543.4250, 2507.496
544.6020, 2442.800
545.7780, 2420.876
546.9530, 2371.980
548.1290, 2485.391
549.3040, 2638.213
550.4800, 2652.100
551.6550, 2947.270
552.8300, 3036.691
554.0040, 3336.639
555.1790, 3581.511
556.3540, 3996.497
557.5280, 4533.599
558.7020, 4960.138
559.8760, 5618.262
561.0500, 6280.884
562.2230, 7281.795
563.3970, 8290.261
564.5700, 9356.028
565.7430, 10890.92
566.9160, 11988.91
568.0890, 13491.74
569.2620, 15145.72
570.4340, 16334.71
571.6070, 17413.74
572.7790, 18230.92
573.9510, 18403.99
575.1230, 17890.09
576.2940, 16939.20
577.4660, 15571.32
578.6370, 13776.47
579.8080, 11868.64
580.9790, 10258.83
582.1500, 8442.034
583.3210, 7067.263
584.4910, 5787.510
585.6620, 4872.777
586.8320, 4118.063
588.0020, 3429.368
589.1720, 2799.692
590.3410, 2367.035
591.5110, 2101.396
592.6800, 1698.776
593.8500, 1524.175
595.0190, 1399.590
596.1880, 1308.024
597.3560, 1138.475
598.5250, 1039.943
599.6930, 1006.429
600.8620, 907.9312
602.0300, 872.4507
603.1970, 884.9858
604.3650, 937.5386
605.5330, 1011.106
606.7000, 987.6904
607.8680, 1118.289
609.0350, 1231.904
610.2020, 1383.534
611.3680, 1537.178
612.5350, 1849.837
613.7010, 2056.511
614.8680, 2493.198
616.0340, 2863.900
617.2000, 3507.615
618.3660, 4257.689
619.5310, 5199.830
620.6970, 6326.227
621.8620, 7732.792
623.0270, 9017.831
624.1920, 10717.72
625.3570, 12775.13
626.5220, 14610.38
627.6860, 16302.35
628.8500, 17456.70
630.0140, 18075.54
631.1780, 17300.81
632.3420, 15860.12
633.5060, 13839.12
634.6700, 11429.28
635.8330, 9371.736
636.9960, 7605.643
638.1590, 6043.315
639.3220, 4980.528
640.4850, 3877.605
641.6470, 3181.517
642.8100, 2628.111
643.9720, 2218.110
645.1340, 1718.143
646.2960, 1578.319
647.4570, 1263.217
648.6190, 1122.110
649.7800, 1003.104
650.9420, 780.6450
652.1030, 803.0161
653.2640, 666.0024
654.4240, 527.5391
655.5850, 561.5132
656.7450, 475.7129
657.9060, 374.7158
659.0660, 204.8491
660.2260, 306.4805
661.3850, 243.0513
662.5450, 263.8105
663.7040, 116.3906
664.8640, 96.59912
666.0230, 134.0176
667.1820, 58.94971
668.3410, 106.3911
669.4990, 31.36133
670.6580, 98.28076
671.8160, 6.681641
672.9740, 56.04297
674.1320, 10.71387
675.2900, 103.2915
676.4480, 41.21631
677.6050, 75.59521
678.7630, 17.55811
679.9200, 7.296875
681.0770, 5.898926
682.2340, 30.24854
683.3900, 51.83008
684.5470, 44.82324
685.7030, 17.39844
686.8590, 23.55518
688.0150, 2.013184
689.1710, 21.77100
690.3270, 103.8052
691.4830, 73.41504
692.6380, 95.03662
693.7930, 40.80469
694.9480, 74.61328
696.1030, 18.48047
697.2580, 94.38135
698.4130, 13.35400
699.5670, 62.64062
700.7210, 26.39111
701.8750, 14.46240
703.0290, 70.56982
704.1830, 40.25830
705.3370, 19.94092
706.4900, 50.18115
707.6430, 45.52246
708.7970, 49.80322
709.9490, 47.81396
711.1020, 15.40088
712.2550, 88.95703
713.4070, 52.48340
714.5600, 102.9790
715.7120, 171.4443
716.8640, 136.8799
718.0160, 125.2842
719.1670, 246.6572
720.3190, 283.9990
721.4700, 220.3101
722.6210, 275.5898
723.7720, 356.8374
724.9230, 380.0532
726.0740, 446.7876
727.2250, 559.3882
728.3750, 590.5073
729.5250, 553.5938
730.6750, 702.6479
731.8250, 703.6685
732.9750, 795.6562
734.1240, 767.6104
735.2740, 860.5312
736.4230, 801.4185
737.5720, 821.2720
738.7210, 742.0913
739.8700, 639.8765
741.0190, 646.6279
742.1670, 631.3442
743.3150, 591.0264
744.4630, 585.6733
745.6110, 477.2861
746.7590, 427.8633
747.9070, 396.4058
749.0540, 311.9126
750.2020, 234.3838
751.3490, 149.8198
752.4960, 172.2202
753.6430, 166.5840
754.7890, 146.9121
755.9360, 41.20459
757.0820, 38.45703
758.2280, 9.331543
759.3740, 25.81836
760.5200, 18.07715
761.6660, 0.9609380
762.8120, 34.94141
763.9570, 13.94238
765.1020, 20.76416
766.2470, 13.60107
767.3920, 26.61426
768.5370, 32.90234
769.6810, 17.26855
770.8260, 4.296387
771.9700, 29.54688
773.1140, 49.76562
774.2580, 88.42188
775.4020, 116.1855
776.5460, 140.4302
777.6890, 106.1924
778.8320, 135.2305
779.9750, 34.50098
781.1180, 40.85156
782.2610, 57.28467
783.4040, 11.81006
784.5460, 7.402832
785.6890, 8.938965
786.8310, 7.010742
787.9730, 1.996582
789.1150, 15.38477
790.2560, 41.29004
791.3980, 50.27832
792.5390, 89.35400
793.6810, 29.53711
794.8220, 5.202637
795.9630, 45.11523
797.1030, 37.51660
798.2440, 36.99854
799.3840, 24.55908
800.5240, 22.19287
801.6650, 0.8979490
802.8040, 36.66211
803.9440, 22.49609
805.0840, 6.394043
806.2230, 19.65479
807.3630, 15.34473
808.5020, 8.590332
809.6410, 8.472656
810.7790, 23.30420
811.9180, 3.089844
813.0570, 19.17920
814.1950, 28.48682
815.3330, 76.11084
816.4710, 67.35693
817.6090, 73.62012
818.7470, 14.30859
819.8840, 17.96777
821.0220, 61.62988
822.1590, 5.533203
823.2960, 29.42871
824.4330, 74.04688
825.5690, 28.30176
826.7060, 127.5381
827.8420, 79.53174
828.9790, 64.31836
830.1150, 79.63525
831.2510, 153.0723
832.3860, 106.4526
833.5220, 135.7671
834.6570, 111.6953
835.7930, 107.0928
836.9280, 69.05176
838.0630, 182.7593
839.1980, 152.9404
840.3320, 82.85986
841.4670, 230.7070
842.6010, 242.4570
843.7350, 240.3696
844.8690, 251.1362
846.0030, 195.8887
847.1370, 151.6001
848.2700, 242.1411
849.4040, 172.8042
850.5370, 239.4321
851.6700, 201.0459
852.8030, 164.6353
853.9360, 246.2007
855.0680, 188.7427
856.2000, 248.2622
857.3330, 203.7588
858.4650, 253.2324
859.5970, 281.6831
860.7290, 226.1118
861.8600, 277.5186
862.9920, 292.9023
864.1230, 280.2651
865.2540, 334.6055
866.3850, 218.9258
867.5160, 232.2241
868.6460, 320.5020
869.7770, 237.7593
870.9070, 291.9966
872.0370, 279.2139
873.1670, 240.4116
874.2970, 240.5898
875.4270, 279.7495
876.5570, 294.8901
877.6860, 327.0122
878.8150, 299.1177
879.9440, 293.2012
881.0730, 247.2695
882.2020, 281.3208
883.3300, 300.3550
884.4590, 382.3716
885.5870, 318.3726
886.7150, 369.3569
887.8430, 334.3257
888.9710, 374.2827
890.0990, 446.2246
891.2260, 437.1519
892.3530, 544.7188
893.4810, 487.2192
894.6080, 528.4648
895.7340, 727.5405
896.8610, 648.1421
897.9880, 724.8989
899.1140, 744.1426
900.2400, 803.5479
901.3660, 833.2227
902.4920, 961.5283
903.6180, 994.3457
904.7430, 1188.730
905.8690, 1208.062
906.9940, 1409.712
908.1190, 1536.214
909.2440, 1712.418
910.3690, 1832.169
911.4930, 2131.154
912.6180, 2462.608
913.7420, 2704.196
914.8660, 3099.948
915.9900, 3653.017
917.1140, 4407.679
918.2380, 4968.306
919.3610, 5870.790
920.4850, 6754.550
921.6080, 8129.312
922.7310, 9751.971
923.8540, 11443.09
924.9760, 13569.37
926.0990, 15884.03
927.2210, 18690.15
928.3440, 21258.82
929.4660, 23794.27
930.5880, 26013.92
931.7090, 27698.43
932.8310, 28204.46
933.9520, 28283.54
935.0740, 26724.45
936.1950, 24261.53
937.3160, 21752.98
938.4360, 18573.24
939.5570, 15538.98
940.6780, 12958.22
941.7980, 10910.95
942.9180, 9313.728
944.0380, 7873.022
945.1580, 6810.351
946.2780, 6095.371
947.3970, 5449.479
948.5170, 4754.241
949.6360, 4395.570
950.7550, 3773.435
951.8740, 3294.287
952.9930, 2756.194
954.1110, 2407.250
955.2300, 2097.540
956.3480, 1917.503
957.4660, 1662.098
958.5840, 1396.342
959.7020, 1307.449
960.8190, 1189.369
961.9370, 1058.632
963.0540, 1044.915
964.1710, 1047.206
965.2880, 983.6279
966.4050, 915.0762
967.5220, 900.5688
968.6380, 960.0869
969.7550, 1060.659
970.8710, 1052.273
971.9870, 1081.925
973.1030, 1172.602
974.2190, 1253.305
975.3340, 1289.046
976.4500, 1505.805
977.5650, 1530.590
978.6800, 1822.408
979.7950, 1934.249
980.9100, 2274.124
982.0250, 2417.021
983.1390, 2871.960
984.2530, 3219.921
985.3680, 3601.901
986.4820, 4291.929
987.5950, 4933.964
988.7090, 5932.021
989.8230, 6960.457
990.9360, 8014.560
992.0490, 9761.687
993.1620, 11377.87
994.2750, 13135.14
995.3880, 15359.34
996.5010, 17615.56
997.6130, 20168.81
998.7250, 22411.08
999.8370, 24626.37
1000.949, 26368.69
1002.061, 27918.02
1003.173, 29054.39
1004.284, 29400.78
1005.396, 29509.18
1006.507, 29499.62
1007.618, 28788.09
1008.729, 27793.57
1009.839, 26467.08
1010.950, 25302.63
1012.060, 23696.20
1013.171, 21940.80
1014.281, 20174.43
1015.391, 18475.07
1016.500, 16813.75
1017.610, 15008.45
1018.719, 13027.19
1019.829, 11476.95
1020.938, 9791.730
1022.047, 8356.383
1023.156, 7179.222
1024.264, 6519.088
1025.373, 5588.990
1026.481, 4815.191
1027.589, 4299.397
1028.697, 3793.523
1029.805, 3427.691
1030.913, 3106.092
1032.020, 2995.364
1033.128, 2624.521
1034.235, 2707.709
1035.342, 2513.946
1036.449, 2445.217
1037.556, 2421.533
1038.663, 2397.896
1039.769, 2211.302
1040.875, 2086.193
1041.981, 2060.691
1043.087, 1801.241
1044.193, 1760.863
1045.299, 1483.846
1046.404, 1375.616
1047.510, 1151.453
1048.615, 1069.365
1049.720, 945.9961
1050.825, 764.3340
1051.930, 733.3999
1053.034, 667.5068
1054.139, 522.6553
1055.243, 575.8403
1056.347, 422.0630
1057.451, 460.3247
1058.555, 424.6304
1059.658, 529.2197
1060.762, 339.6279
1061.865, 393.5239
1062.968, 372.0420
1064.071, 350.5972
1065.174, 316.2246
1066.277, 364.0190
1067.380, 424.2241
1068.482, 421.9785
1069.584, 435.9204
1070.686, 517.6724
1071.788, 520.1226
1072.890, 643.2773
1073.992, 702.1045
1075.093, 764.0894
1076.194, 865.1147
1077.295, 989.1729
1078.396, 1233.265
1079.497, 1279.496
1080.598, 1476.654
1081.698, 1773.580
1082.799, 2090.525
1083.899, 2418.108
1084.999, 2658.004
1086.099, 2830.306
1087.199, 3025.286
1088.298, 3237.153
1089.398, 3220.536
1090.497, 2934.209
1091.596, 3012.647
1092.695, 2703.765
1093.794, 2400.718
1094.892, 2161.748
1095.991, 1728.549
1097.089, 1567.168
1098.187, 1311.740
1099.285, 952.6953
1100.383, 901.7417
1101.481, 765.4238
1102.579, 606.5684
1103.676, 474.7959
1104.773, 470.4946
1105.870, 372.8594
1106.967, 345.5957
1108.064, 274.3501
1109.161, 226.1226
1110.257, 163.9141
1111.353, 91.23193
1112.449, 121.0576
1113.545, 57.90137
1114.641, 63.11084
1115.737, 25.98877
1116.832, 153.8828
1117.928, 1.206543
1119.023, 41.27832
1120.118, 90.22119
1121.213, 29.81982
1122.308, 53.09668
1123.402, 52.08203
1124.497, 3.073730
1125.591, 11.05859
1126.685, 42.97070
1127.779, 53.03467
1128.873, 124.7773
1129.967, 66.85254
1131.060, 16.94287
1132.153, 155.0483
1133.247, 143.1675
1134.340, 195.9551
1135.433, 162.1006
1136.525, 152.2603
1137.618, 77.47021
1138.710, 101.6558
1139.802, 69.85400
1140.895, 61.06445
1141.987, 90.11572
1143.078, 90.64941
1144.170, 135.2656
1145.261, 60.52490
1146.353, 98.82617
1147.444, 69.10742
1148.535, 54.54883
1149.626, 145.7651
1150.716, 86.07959
1151.807, 126.4058
1152.897, 41.25830
1153.988, 38.29004
1155.078, 13.63672
1156.168, 21.41357
1157.257, 17.77930
1158.347, 16.16553
1159.436, 9.320801
1160.526, 9.844727
1161.615, 51.07959
1162.704, 10.63574
1163.793, 64.19678
1164.881, 9.674316
1165.970, 21.49561
1167.058, 55.91016
1168.147, 28.33154
1169.235, 48.75830
1170.323, 14.19336
1171.410, 48.30762
1172.498, 37.80957
1173.585, 40.31396
1174.673, 48.96973
1175.760, 63.94531
1176.847, 34.47852
1177.934, 13.95557
1179.020, 57.38525
1180.107, 69.81738
1181.193, 10.44385
1182.279, 12.97607
1183.365, 54.41211
1184.451, 51.91260
1185.537, 68.35107
1186.623, 11.79004
1187.708, 9.229004
1188.793, 25.66797
1189.878, 6.974121
1190.963, 82.76465
1192.048, 11.63867
1193.133, 8.921875
1194.217, 48.45215
1195.302, 44.12451
1196.386, 1.584961
1197.470, 32.31201
1198.554, 65.87256
1199.638, 23.75049
1200.721, 18.38867
1201.805, 49.03662
1202.888, 42.19336
1203.971, 52.22803
1205.054, 16.20654
1206.137, 59.46680
1207.219, 105.7217
1208.302, 49.01123
1209.384, 4.720703
1210.466, 71.95605
1211.548, 90.73730
1212.630, 25.56396
1213.712, 1.585449
1214.794, 22.27539
1215.875, 38.84082
1216.956, 37.05078
1218.037, 17.97314
1219.118, 27.08203
1220.199, 7.128418
1221.280, 54.16455
1222.360, 16.80811
1223.441, 44.80518
1224.521, 44.84180
1225.601, 55.91846
1226.681, 35.95557
1227.760, 63.94873
1228.840, 23.12354
1229.919, 9.675781
1230.999, 32.54004
1232.078, 54.77686
1233.157, 55.07959
1234.236, 38.93311
1235.314, 9.570313
1236.393, 116.1904
1237.471, 112.7998
1238.549, 64.39844
1239.627, 94.07520
1240.705, 16.65186
1241.783, 78.21143
1242.860, 100.7607
1243.938, 60.70264
1245.015, 49.82764
1246.092, 103.2979
1247.169, 76.78271
1248.246, 13.79590
1249.323, 45.61426
1250.399, 89.01221
1251.475, 15.03955
1252.552, 118.4028
1253.628, 18.75391
1254.703, 124.0522
1255.779, 200.3970
1256.855, 48.70068
1257.930, 25.48633
1259.005, 79.78906
1260.080, 133.2935
1261.155, 80.79102
1262.230, 164.0229
1263.305, 30.26611
1264.379, 115.4634
1265.454, 74.72070
1266.528, 58.89014
1267.602, 149.0796
1268.676, 99.33740
1269.750, 75.46387
1270.823, 7.268066
1271.897, 48.80469
1272.970, 46.85938
1274.043, 93.90283
1275.116, 71.92480
1276.189, 119.9316
1277.261, 60.92383
1278.334, 11.35010
1279.406, 101.2930
1280.478, 129.4307
1281.550, 106.3423
1282.622, 61.39844
1283.694, 126.3062
1284.766, 4.215332
1285.837, 53.08789
1286.908, 43.70264
1287.979, 106.2671
