##NAMES=Catapleiite
##RRUFFID=R040005
##IDEAL CHEMISTRY=Na_2_Zr^4+^Si_3_O_9_&#183;2H_2_O
##LOCALITY=Langesundsfjord Eikaholmen Vestfold, Norway
##OWNER=RRUFF
##SOURCE=University of Arizona Mineral Museum
##DESCRIPTION=Brown thin tabular crystal
##STATUS=The identification of this mineral has been confirmed by X-ray diffraction and chemical analysis
##URL=rruff.info/R040005
##MEASURED CHEMISTRY=(Na_1.28_Ca_0.36_[box]_0.36_)_Σ=2_Zr_1.00_Si_3.00_O_9_·2H_2_O
##PIN_ID=L00558
##ORIENTATION=Laser parallel to a* (1 0 0). Fiducial mark perpendicular to laser is parallel to -b [0 -1 0]
168.4860, 0.0000000E+00
169.7110, 2.167969
170.9360, 183.0195
172.1610, 251.9922
173.3850, 3.730469
174.6100, 251.1836
175.8340, 277.9648
177.0580, 103.6992
178.2820, 292.6211
179.5050, 213.0117
180.7290, 456.2148
181.9520, 592.9805
183.1760, 582.4258
184.3990, 516.7148
185.6220, 796.4375
186.8450, 957.9648
188.0670, 1027.215
189.2900, 984.9219
190.5120, 1157.719
191.7340, 1090.402
192.9560, 1411.074
194.1780, 1351.770
195.4000, 1577.180
196.6220, 1736.250
197.8430, 1792.578
199.0640, 1550.699
200.2860, 1852.504
201.5070, 2021.527
202.7270, 1870.086
203.9480, 2318.852
205.1690, 2393.086
206.3890, 2096.270
207.6090, 2036.305
208.8290, 2373.707
210.0490, 2384.727
211.2690, 2557.730
212.4890, 2234.379
213.7080, 2205.066
214.9280, 2141.684
216.1470, 2125.852
217.3660, 1859.555
218.5850, 1791.910
219.8030, 1657.172
221.0220, 1467.828
222.2400, 1485.910
223.4590, 1200.902
224.6770, 1265.496
225.8950, 1177.707
227.1120, 1035.906
228.3300, 1011.078
229.5480, 1100.578
230.7650, 897.8281
231.9820, 1022.703
233.1990, 935.6406
234.4160, 1002.426
235.6330, 1029.469
236.8490, 657.3789
238.0660, 665.4609
239.2820, 727.1523
240.4980, 596.8906
241.7140, 671.8359
242.9300, 388.6406
244.1460, 638.8164
245.3610, 361.5430
246.5770, 531.6562
247.7920, 399.0508
249.0070, 462.6641
250.2220, 344.5547
251.4370, 481.8711
252.6510, 522.7891
253.8660, 394.6562
255.0800, 349.6289
256.2940, 259.0820
257.5080, 443.6094
258.7220, 331.2578
259.9360, 313.9609
261.1490, 371.7461
262.3630, 187.6016
263.5760, 391.4688
264.7890, 190.3750
266.0020, 165.3047
267.2150, 75.23438
268.4270, 22.83984
269.6400, 61.05469
270.8520, 322.8906
272.0640, 87.66797
273.2760, 58.62500
274.4880, 226.0039
275.7000, 189.4492
276.9120, 246.0156
278.1230, 131.3984
279.3340, 53.68359
280.5450, 59.11328
281.7560, 74.94531
282.9670, 310.8711
284.1780, 98.85938
285.3880, 120.0820
286.5980, 31.02344
287.8090, 20.98047
289.0190, 265.0508
290.2290, 85.93359
291.4380, 73.08984
292.6480, 105.9336
293.8570, 45.87500
295.0670, 141.2695
296.2760, 134.4883
297.4850, 15.13281
298.6930, 32.53516
299.9020, 286.4766
301.1110, 231.3008
302.3190, 263.8164
303.5270, 284.1367
304.7350, 307.2773
305.9430, 141.2422
307.1510, 125.0469
308.3580, 304.7656
309.5660, 111.4023
310.7730, 389.9375
311.9800, 170.3867
313.1870, 251.7500
314.3940, 308.2305
315.6010, 196.9805
316.8070, 313.7852
318.0130, 539.6289
319.2200, 630.4570
320.4260, 469.2891
321.6310, 534.0664
322.8370, 561.7734
324.0430, 543.3984
325.2480, 379.9219
326.4540, 583.3320
327.6590, 609.6289
328.8640, 609.8008
330.0680, 529.8398
331.2730, 407.7383
332.4780, 348.4922
333.6820, 563.1094
334.8860, 416.5508
336.0900, 543.9492
337.2940, 608.1367
338.4980, 654.1211
339.7010, 681.9609
340.9050, 591.8281
342.1080, 703.3242
343.3110, 707.4570
344.5140, 836.5898
345.7170, 798.5273
346.9200, 883.0742
348.1220, 705.7773
349.3240, 738.3555
350.5270, 903.5781
351.7290, 962.6250
352.9310, 1016.723
354.1320, 953.5625
355.3340, 1031.145
356.5350, 828.5117
357.7370, 918.7109
358.9380, 876.2422
360.1390, 1350.133
361.3400, 1234.641
362.5400, 1200.320
363.7410, 1199.363
364.9410, 1094.520
366.1410, 1076.625
367.3410, 971.2070
368.5410, 787.9336
369.7410, 1546.148
370.9400, 1114.906
372.1400, 1129.434
373.3390, 868.7695
374.5380, 936.7852
375.7370, 1102.613
376.9360, 1103.207
378.1350, 933.6758
379.3330, 1014.012
380.5310, 908.2734
381.7300, 924.3906
382.9280, 1158.434
384.1260, 1072.457
385.3230, 1043.066
386.5210, 939.9375
387.7180, 1217.555
388.9160, 1206.219
390.1130, 1194.652
391.3100, 1004.582
392.5060, 1165.969
393.7030, 900.3242
394.9000, 1226.539
396.0960, 1230.367
397.2920, 1012.367
398.4880, 1763.727
399.6840, 1042.738
400.8800, 1455.121
402.0750, 1626.785
403.2710, 1225.551
404.4660, 1413.316
405.6610, 1511.824
406.8560, 1597.449
408.0510, 1523.191
409.2450, 1713.246
410.4400, 1604.422
411.6340, 1902.059
412.8280, 1917.988
414.0220, 1864.773
415.2160, 1816.223
416.4100, 2148.746
417.6030, 2136.750
418.7970, 2175.324
419.9900, 2389.113
421.1830, 2632.852
422.3760, 2706.023
423.5690, 3095.352
424.7610, 3262.055
425.9540, 3318.750
427.1460, 3758.004
428.3380, 3856.348
429.5300, 4414.449
430.7220, 4441.004
431.9140, 4663.312
433.1050, 5278.156
434.2970, 5507.664
435.4880, 5893.473
436.6790, 6102.156
437.8700, 6072.805
439.0610, 6578.191
440.2510, 6458.078
441.4420, 6155.871
442.6320, 6135.977
443.8220, 5997.211
445.0120, 5535.938
446.2020, 5320.895
447.3910, 5073.980
448.5810, 4295.219
449.7700, 4204.855
450.9600, 3802.254
452.1490, 3132.160
453.3370, 2873.316
454.5260, 2628.852
455.7150, 2628.676
456.9030, 2154.203
458.0910, 1936.113
459.2800, 1713.012
460.4670, 1696.801
461.6550, 1550.562
462.8430, 1441.621
464.0300, 1366.914
465.2180, 1137.402
466.4050, 1061.918
467.5920, 884.2656
468.7790, 950.8438
469.9650, 979.1914
471.1520, 658.5586
472.3380, 853.8438
473.5250, 528.7070
474.7110, 528.9805
475.8970, 484.8477
477.0820, 924.6055
478.2680, 457.6641
479.4540, 466.1758
480.6390, 511.8867
481.8240, 305.7148
483.0090, 419.5586
484.1940, 557.9688
485.3780, 321.6719
486.5630, 467.2930
487.7470, 457.8477
488.9320, 92.32812
490.1160, 274.7148
491.3000, 398.0234
492.4830, 476.2617
493.6670, 436.4336
494.8500, 20.45703
496.0340, 390.5312
497.2170, 406.4609
498.4000, 425.3242
499.5820, 426.1289
500.7650, 154.8633
501.9480, 471.5195
503.1300, 135.1133
504.3120, 367.6250
505.4940, 287.0703
506.6760, 487.4531
507.8580, 162.7734
509.0390, 747.0195
510.2210, 328.2109
511.4020, 557.3438
512.5830, 363.4258
513.7640, 573.4453
514.9450, 543.4180
516.1250, 552.3398
517.3060, 625.2148
518.4860, 456.0352
519.6660, 734.8086
520.8460, 422.5391
522.0260, 678.2227
523.2060, 474.8555
524.3850, 713.4414
525.5650, 440.9570
526.7440, 543.4570
527.9230, 497.4102
529.1020, 532.8203
530.2810, 314.1914
531.4590, 328.5156
532.6380, 96.79688
533.8160, 50.01562
534.9940, 236.1016
536.1720, 499.2031
537.3500, 197.2930
538.5270, 130.3008
539.7050, 345.5312
540.8820, 217.4375
542.0590, 24.12500
543.2360, 192.2344
544.4130, 104.7656
545.5900, 157.7422
546.7660, 6.250000
547.9430, 352.1484
549.1190, 21.53906
550.2950, 46.71094
551.4710, 66.19922
552.6470, 25.44141
553.8220, 44.57812
554.9980, 130.9688
556.1730, 115.7891
557.3480, 57.58984
558.5230, 3.812500
559.6980, 69.27734
560.8730, 203.1250
562.0470, 99.94531
563.2220, 114.1953
564.3960, 307.8398
565.5700, 162.4414
566.7440, 158.7734
567.9170, 282.9492
569.0910, 354.1836
570.2640, 566.2305
571.4380, 718.7109
572.6110, 862.9180
573.7840, 747.9258
574.9570, 463.1680
576.1290, 835.3867
577.3020, 806.6055
578.4740, 730.8008
579.6460, 589.9727
580.8180, 695.1680
581.9900, 809.0000
583.1620, 506.5000
584.3330, 536.6445
585.5040, 321.7656
586.6760, 688.8477
587.8470, 340.8984
589.0180, 457.9219
590.1880, 462.9023
591.3590, 468.8633
592.5290, 198.7969
593.7000, 374.6953
594.8700, 510.5664
596.0400, 724.4062
597.2090, 535.2227
598.3790, 614.6680
599.5490, 389.4180
600.7180, 777.1523
601.8870, 533.8711
603.0560, 801.5547
604.2250, 953.2070
605.3940, 525.8242
606.5620, 655.4062
607.7300, 1150.961
608.8990, 1286.484
610.0670, 1006.977
611.2350, 1003.438
612.4020, 1108.867
613.5700, 1394.270
614.7370, 1465.648
615.9050, 1718.000
617.0720, 2037.312
618.2390, 2352.625
619.4060, 2598.809
620.5720, 2881.992
621.7390, 3574.227
622.9050, 3664.414
624.0710, 4266.438
625.2370, 4955.656
626.4030, 5585.039
627.5690, 5810.207
628.7340, 6951.355
629.9000, 7565.688
631.0650, 7642.660
632.2300, 8212.555
633.3950, 7814.617
634.5600, 7808.652
635.7240, 7044.715
636.8890, 6403.562
638.0530, 5538.469
639.2170, 4862.418
640.3810, 4158.344
641.5450, 3362.770
642.7080, 2840.660
643.8720, 2219.766
645.0350, 1893.500
646.1980, 1876.609
647.3610, 1083.426
648.5240, 1259.023
649.6870, 1107.812
650.8490, 529.3047
652.0120, 790.0625
653.1740, 710.8008
654.3360, 704.5312
655.4980, 567.2461
656.6600, 330.9492
657.8210, 511.6406
658.9830, 345.3164
660.1440, 305.9844
661.3050, 446.6367
662.4660, 446.2891
663.6270, 181.9219
664.7870, 98.77734
665.9480, 252.3828
667.1080, 75.98047
668.2680, 164.5586
669.4280, 209.1250
670.5880, 193.6602
671.7480, 175.2109
672.9070, 196.9297
674.0670, 12.41016
675.2260, 196.4766
676.3850, 2.968750
677.5440, 257.3398
678.7030, 181.3438
679.8610, 313.8047
681.0200, 89.23828
682.1780, 37.55859
683.3360, 50.63281
684.4940, 14.85938
685.6520, 324.3711
686.8090, 143.1367
687.9670, 116.6445
689.1240, 274.8398
690.2810, 192.4688
691.4380, 4.933594
692.5950, 152.5117
693.7520, 29.97656
694.9080, 100.9766
696.0650, 90.06641
697.2210, 195.6484
698.3770, 110.7344
699.5330, 182.7617
700.6880, 27.81250
701.8440, 58.76562
702.9990, 68.90625
704.1550, 98.80469
705.3100, 69.36328
706.4650, 215.4453
707.6190, 106.2266
708.7740, 39.20703
709.9290, 19.80469
711.0830, 231.1680
712.2370, 221.7852
713.3910, 222.1094
714.5450, 162.0195
715.6980, 228.9453
716.8520, 105.8945
718.0050, 300.8633
719.1580, 240.8516
720.3110, 36.15625
721.4640, 48.82031
722.6170, 159.4609
723.7700, 78.48828
724.9220, 108.5352
726.0740, 281.6094
727.2260, 527.7031
728.3780, 110.8242
729.5300, 130.9688
730.6810, 253.1406
731.8330, 256.5391
732.9840, 440.7656
734.1350, 328.7656
735.2860, 82.04688
736.4370, 24.35547
737.5880, 145.6836
738.7380, 296.8398
739.8880, 294.5469
741.0390, 408.9844
742.1890, 281.4336
743.3380, 148.9180
744.4880, 464.4297
745.6380, 303.9766
746.7870, 562.5586
747.9360, 435.1758
749.0850, 419.8281
750.2340, 424.5156
751.3830, 258.9727
752.5310, 382.7344
753.6800, 329.5352
754.8280, 267.6484
755.9760, 434.5234
757.1240, 255.4375
758.2720, 41.71094
759.4190, 190.2578
760.5670, 36.69141
761.7140, 127.3359
762.8610, 362.5234
764.0080, 350.6641
765.1550, 214.8242
766.3020, 272.9297
767.4480, 201.7617
768.5950, 534.0703
769.7410, 239.4297
770.8870, 178.8320
772.0330, 79.28906
773.1780, 48.21484
774.3240, 497.3320
775.4690, 113.9297
776.6140, 316.5820
777.7590, 302.2773
778.9040, 311.0273
780.0490, 201.8398
781.1940, 157.7031
782.3380, 432.6250
783.4820, 341.6016
784.6260, 336.6406
785.7700, 494.7305
786.9140, 261.8867
788.0580, 352.0977
789.2010, 154.3633
790.3450, 249.6914
791.4880, 209.0742
792.6310, 174.5195
793.7730, 395.0195
794.9160, 302.5742
796.0590, 428.1914
797.2010, 136.8711
798.3430, 447.6133
799.4850, 500.4141
800.6270, 225.2773
801.7690, 15.79297
802.9100, 439.2148
804.0520, 342.2578
805.1930, 230.8750
806.3340, 62.04688
807.4750, 102.2891
808.6160, 330.5977
809.7560, 387.9727
810.8970, 147.4258
812.0370, 193.0273
813.1770, 330.6406
814.3170, 436.2930
815.4570, 344.0586
816.5960, 45.38281
817.7360, 77.51953
818.8750, 386.6719
820.0140, 389.4219
821.1530, 25.22266
822.2920, 313.1914
823.4310, 317.5742
824.5690, 94.06641
825.7070, 191.6875
826.8460, 87.37109
827.9840, 42.75781
829.1220, 133.5547
830.2590, 33.56250
831.3970, 335.9648
832.5340, 93.21875
833.6710, 243.4570
834.8080, 112.9336
835.9450, 291.5352
837.0820, 207.2656
838.2190, 239.6914
839.3550, 125.1211
840.4910, 43.63281
841.6270, 441.1094
842.7630, 102.8008
843.8990, 287.5156
845.0350, 304.9297
846.1700, 64.62891
847.3060, 122.9609
848.4410, 45.34766
849.5760, 102.6133
850.7100, 131.4805
851.8450, 260.4453
852.9800, 28.50000
854.1140, 37.66016
855.2480, 192.9062
856.3820, 60.74219
857.5160, 144.0312
858.6500, 16.77734
859.7830, 190.8555
860.9170, 113.5859
862.0500, 321.4141
863.1830, 78.34766
864.3160, 493.3867
865.4480, 61.52344
866.5810, 159.7656
867.7130, 79.10938
868.8460, 30.56250
869.9780, 43.87500
871.1100, 166.7812
872.2410, 20.54297
873.3730, 15.75391
874.5050, 47.26953
875.6360, 139.1953
876.7670, 2.957031
877.8980, 226.2188
879.0290, 234.5938
880.1590, 223.0703
881.2900, 108.6602
882.4200, 93.35938
883.5500, 117.1680
884.6800, 315.0898
885.8100, 242.1172
886.9400, 47.73828
888.0690, 276.5117
889.1990, 38.87109
890.3280, 111.6523
891.4570, 30.91797
892.5860, 452.6016
893.7140, 57.59766
894.8430, 196.3320
895.9710, 340.6484
897.1000, 28.45312
898.2280, 208.3789
899.3560, 0.8554690
900.4830, 248.2070
901.6110, 61.32422
902.7380, 91.74609
903.8660, 288.9375
904.9930, 434.7383
906.1200, 182.6641
907.2460, 257.7031
908.3730, 140.8672
909.5000, 395.8633
910.6260, 311.2656
911.7520, 425.7930
912.8780, 348.4414
914.0040, 294.2070
915.1290, 320.1016
916.2550, 243.1133
917.3800, 561.2461
918.5050, 614.5078
919.6300, 569.8906
920.7550, 332.3984
921.8800, 385.0273
923.0040, 624.7812
924.1290, 709.6641
925.2530, 774.6680
926.3770, 891.8008
927.5010, 976.0508
928.6250, 732.4297
929.7480, 1140.938
930.8720, 1006.574
931.9950, 1040.332
933.1180, 906.2109
934.2410, 975.2266
935.3640, 911.3711
936.4860, 1285.641
937.6090, 1251.805
938.7310, 1253.332
939.8530, 1141.988
940.9750, 729.8438
942.0970, 900.8359
943.2180, 940.9531
944.3400, 838.1992
945.4610, 864.5703
946.5820, 810.0742
947.7030, 892.7266
948.8240, 994.5078
949.9450, 472.4570
951.0650, 879.5391
952.1860, 876.0039
953.3060, 522.4258
954.4260, 612.9844
955.5460, 582.6836
956.6650, 557.4727
957.7850, 424.4766
958.9040, 609.6055
960.0230, 715.9102
961.1420, 914.3828
962.2610, 1099.984
963.3800, 1042.434
964.4990, 903.3711
965.6170, 878.4336
966.7350, 886.6523
967.8530, 1259.016
968.9710, 1153.504
970.0890, 1478.125
971.2070, 1651.875
972.3240, 2202.770
973.4410, 2244.805
974.5580, 2549.969
975.6750, 2519.145
976.7920, 2986.652
977.9090, 3653.359
979.0250, 3929.121
980.1410, 4407.016
981.2580, 4881.074
982.3740, 5499.273
983.4890, 6098.551
984.6050, 7239.059
985.7200, 7538.770
986.8360, 8528.602
987.9510, 9593.562
989.0660, 10465.65
990.1810, 11156.89
991.2950, 12613.96
992.4100, 13428.46
993.5240, 14249.87
994.6390, 15364.70
995.7530, 16293.64
996.8660, 16651.73
997.9800, 17295.03
999.0940, 17516.55
1000.207, 17696.21
1001.320, 17392.05
1002.433, 17201.02
1003.546, 16830.11
1004.659, 16064.57
1005.772, 15419.91
1006.884, 14706.39
1007.996, 13972.00
1009.108, 13122.94
1010.220, 12302.52
1011.332, 11932.53
1012.444, 10748.69
1013.555, 10027.97
1014.666, 9133.379
1015.777, 8512.969
1016.888, 7688.676
1017.999, 7428.516
1019.110, 6629.488
1020.220, 6060.594
1021.331, 5650.090
1022.441, 5274.441
1023.551, 4688.914
1024.661, 4410.238
1025.770, 4378.961
1026.880, 3781.805
1027.989, 3526.883
1029.098, 3030.988
1030.207, 3068.184
1031.316, 2934.555
1032.425, 2549.926
1033.533, 2542.523
1034.642, 2341.320
1035.750, 2266.363
1036.858, 2033.844
1037.966, 2254.031
1039.073, 2350.355
1040.181, 1900.809
1041.288, 1993.391
1042.396, 2168.121
1043.503, 1930.992
1044.610, 1908.988
1045.716, 2147.098
1046.823, 1987.312
1047.929, 1926.637
1049.036, 1904.078
1050.142, 1775.648
1051.248, 1741.324
1052.353, 1657.109
1053.459, 1684.008
1054.564, 1682.016
1055.670, 1529.156
1056.775, 1442.402
1057.880, 1489.820
1058.985, 1413.301
1060.089, 1484.883
1061.194, 1121.570
1062.298, 1334.363
1063.402, 1536.258
1064.506, 1420.258
1065.610, 1352.375
1066.713, 1769.199
1067.817, 1683.520
1068.920, 1584.941
1070.023, 1743.449
1071.126, 2395.070
1072.229, 1999.805
1073.332, 2276.062
1074.435, 2656.336
1075.537, 3267.355
1076.639, 3401.469
1077.741, 4161.676
1078.843, 4543.973
1079.945, 5320.367
1081.046, 5762.852
1082.148, 6930.953
1083.249, 7301.625
1084.350, 7829.277
1085.451, 8800.129
1086.551, 9105.066
1087.652, 9467.094
1088.752, 9929.734
1089.853, 9793.938
1090.953, 9533.219
1092.053, 9548.867
1093.152, 9066.320
1094.252, 8460.852
1095.351, 8024.465
1096.451, 7269.160
1097.550, 6733.938
1098.649, 6285.789
1099.748, 5878.055
1100.846, 4952.055
1101.945, 4570.129
1103.043, 3980.418
1104.141, 3542.480
1105.239, 3439.773
1106.337, 2821.367
1107.434, 2555.816
1108.532, 2266.633
1109.629, 2184.227
1110.726, 1682.297
1111.823, 1539.547
1112.920, 1686.863
1114.017, 1113.758
1115.113, 1145.898
1116.210, 952.9297
1117.306, 1088.352
1118.402, 415.5000
1119.498, 627.7070
1120.593, 829.9805
1121.689, 893.2891
1122.784, 658.6719
1123.879, 369.1133
1124.974, 518.1484
1126.069, 571.7305
1127.164, 839.3281
1128.259, 479.6094
1129.353, 443.9727
1130.447, 160.7930
1131.541, 323.1289
1132.635, 332.0703
1133.729, 212.9453
1134.822, 484.8789
1135.916, 368.8594
1137.009, 112.0352
1138.102, 305.7617
1139.195, 529.1094
1140.288, 383.4297
1141.380, 508.1484
1142.473, 536.3828
1143.565, 306.5117
1144.657, 332.8047
1145.749, 280.3359
1146.841, 256.9102
1147.932, 437.8789
1149.024, 493.4844
1150.115, 345.2461
1151.206, 558.3359
1152.297, 308.8359
1153.388, 498.3672
1154.479, 455.9961
1155.569, 536.0703
1156.659, 405.8750
1157.750, 339.2812
1158.839, 153.3438
1159.929, 232.2891
1161.019, 708.8320
1162.108, 307.3359
1163.198, 528.2656
1164.287, 464.2891
1165.376, 869.3242
1166.465, 654.3633
1167.553, 720.4648
1168.642, 598.3867
1169.730, 656.0234
1170.818, 848.5977
1171.906, 358.6094
1172.994, 289.5234
1174.082, 626.6445
1175.170, 685.0273
1176.257, 389.4492
1177.344, 477.4141
1178.431, 467.3945
1179.518, 270.5703
1180.605, 360.7734
1181.691, 400.7383
1182.778, 369.8242
1183.864, 440.3203
1184.950, 543.7578
1186.036, 51.66406
1187.122, 275.0352
1188.207, 0.6093750
1189.292, 167.5195
1190.378, 180.1562
1191.463, 384.4648
1192.548, 172.4414
1193.632, 111.1445
1194.717, 484.7422
1195.801, 70.72656
1196.886, 19.44922
1197.970, 143.0547
1199.054, 24.96484
1200.137, 446.7188
1201.221, 112.8906
1202.305, 172.2461
1203.388, 295.9062
1204.471, 6.195313
1205.554, 84.18359
1206.637, 290.6094
1207.719, 114.8789
1208.802, 237.4648
1209.884, 266.3359
1210.966, 77.73047
1212.048, 83.94141
1213.130, 139.3125
1214.212, 105.5117
1215.293, 68.60938
1216.374, 74.64844
1217.456, 116.1562
1218.536, 54.63281
1219.617, 75.42578
1220.698, 86.90625
1221.778, 151.7578
1222.859, 331.5078
1223.939, 153.9805
1225.019, 402.9883
1226.099, 1534.453
1227.178, 696.2695
1228.258, 56.11328
1229.337, 52.34375
1230.417, 215.2539
1231.496, 160.9883
1232.574, 44.64062
1233.653, 52.82422
1234.732, 164.4062
1235.810, 49.08203
1236.888, 121.9414
1237.966, 69.35156
1239.044, 261.6172
1240.122, 53.53516
1241.199, 51.32422
1242.277, 81.91406
1243.354, 116.0664
1244.431, 78.28516
1245.508, 156.7227
1246.585, 216.5430
1247.661, 288.1055
1248.738, 252.0898
1249.814, 312.1914
1250.890, 58.22266
1251.966, 328.8477
1253.042, 161.3164
1254.117, 107.9414
1255.193, 40.23828
1256.268, 167.8984
1257.343, 7.386719
1258.418, 244.7188
1259.493, 249.2539
1260.567, 9.7655997E-02
1261.642, 150.2070
1262.716, 230.5156
1263.790, 397.0234
1264.864, 289.0000
1265.938, 63.07422
1267.011, 28.83984
1268.085, 161.1875
1269.158, 171.1055
1270.231, 78.70312
1271.304, 252.1055
1272.377, 36.05859
1273.450, 254.1016
1274.522, 123.3359
1275.594, 112.9023
1276.666, 163.8125
1277.738, 96.23438
1278.810, 64.20703
1279.882, 34.80469
1280.953, 325.7188
1282.025, 260.4805
1283.096, 116.0781
1284.167, 144.2031
1285.238, 161.9688
1286.308, 138.5781
1287.379, 81.81641
1288.449, 238.5977
1289.519, 105.5430
1290.589, 153.8281
1291.659, 264.3633
1292.729, 44.91406
1293.798, 72.36328
1294.868, 22.55859
1295.937, 207.6016
1297.006, 222.6641
1298.075, 25.20703
1299.143, 191.5312
1300.212, 65.36719
1301.280, 9.371094
1302.348, 94.53516
1303.416, 218.0352
1304.484, 295.7227
1305.552, 518.3125
1306.620, 379.4375
1307.687, 140.1758
1308.754, 141.3516
1309.821, 391.5430
1310.888, 262.6445
1311.955, 317.9102
1313.021, 240.8242
1314.088, 38.94531
1315.154, 342.3750
1316.220, 72.94922
1317.286, 519.3359
1318.352, 317.4062
1319.417, 358.6562
1320.483, 415.0586
1321.548, 318.3320
1322.613, 332.6484
1323.678, 97.43359
1324.743, 505.2031
1325.807, 347.2812
1326.872, 439.0195
1327.936, 687.5234
1329.000, 287.9336
1330.064, 209.2617
1331.128, 314.4805
1332.191, 432.1797
1333.255, 331.8711
1334.318, 326.8125
1335.381, 344.6680
1336.444, 448.4375
