##NAMES=Catapleiite
##RRUFFID=R060208
##IDEAL CHEMISTRY=Na_2_Zr^4+^Si_3_O_9_&#183;2H_2_O
##LOCALITY=Mont Saint-Hilaire, Rouville County, Quebec, Canada
##OWNER=RRUFF
##SOURCE=Royal Ontario Museum
##DESCRIPTION=Colorless transparent thin tabular pseudohexagonal crystal
##STATUS=The identification of this mineral is confirmed by single-crystal X-ray diffraction and chemical analysis.
##URL=rruff.info/R060208
##MEASURED CHEMISTRY=Na_2.00_Zr_1.00_Si_3.00_O_9_Â·2H_2_O
##PIN_ID=M01568
##ORIENTATION=Laser parallel to b* (0 1 0). Fiducial mark perpendicular to laser is parallel to c [0 0 1]
101.1560, 0.0000000E+00
102.3920, 13.70361
103.6280, 172.3286
104.8630, 350.5645
106.0990, 669.6035
107.3350, 1083.438
108.5700, 1165.979
109.8050, 1390.031
111.0400, 1537.956
112.2750, 1641.196
113.5100, 1885.019
114.7440, 1945.141
115.9780, 1934.429
117.2130, 2021.884
118.4470, 1992.667
119.6810, 2068.115
120.9140, 2064.785
122.1480, 2139.319
123.3810, 2185.653
124.6150, 2147.803
125.8480, 2203.598
127.0810, 2266.681
128.3130, 2365.625
129.5460, 2361.063
130.7790, 2340.700
132.0110, 2076.301
133.2430, 2189.678
134.4750, 1999.674
135.7070, 1911.163
136.9380, 1835.210
138.1700, 1646.900
139.4010, 1616.423
140.6330, 1547.658
141.8640, 1328.293
143.0950, 1118.341
144.3250, 1093.758
145.5560, 1142.313
146.7860, 1056.037
148.0160, 922.1011
149.2470, 961.1885
150.4760, 874.4917
151.7060, 844.5146
152.9360, 814.9106
154.1650, 835.5293
155.3950, 906.3916
156.6240, 875.5444
157.8530, 859.0576
159.0820, 771.9038
160.3100, 777.1880
161.5390, 744.9224
162.7670, 737.1426
163.9950, 834.8770
165.2230, 826.1367
166.4510, 838.9434
167.6790, 857.3159
168.9060, 743.2744
170.1340, 1056.837
171.3610, 954.0186
172.5880, 871.3047
173.8150, 1077.188
175.0420, 1022.002
176.2690, 1074.798
177.4950, 1140.014
178.7210, 1224.375
179.9470, 1213.169
181.1730, 1175.900
182.3990, 1284.334
183.6250, 1370.406
184.8500, 1559.634
186.0760, 1607.302
187.3010, 1715.363
188.5260, 1827.434
189.7510, 2077.857
190.9750, 2206.077
192.2000, 2325.311
193.4240, 2433.032
194.6490, 2630.370
195.8730, 2824.738
197.0970, 3040.029
198.3200, 3109.386
199.5440, 3172.280
200.7670, 3447.118
201.9910, 3397.467
203.2140, 3497.615
204.4370, 3416.923
205.6590, 3543.951
206.8820, 3494.580
208.1050, 3484.896
209.3270, 3412.229
210.5490, 3300.577
211.7710, 3333.934
212.9930, 3179.293
214.2150, 3008.650
215.4360, 2796.002
216.6570, 2545.340
217.8790, 2217.656
219.1000, 2031.939
220.3210, 1836.180
221.5410, 1561.371
222.7620, 1406.689
223.9820, 1182.278
225.2030, 1057.558
226.4230, 840.4927
227.6430, 769.3638
228.8620, 709.1719
230.0820, 582.9175
231.3010, 500.6006
232.5210, 511.2231
233.7400, 436.7847
234.9590, 257.2852
236.1780, 288.7266
237.3960, 130.1084
238.6150, 110.4321
239.8330, 155.6963
241.0510, 87.90332
242.2690, 11.94678
243.4870, 37.85254
244.7050, 24.18506
245.9230, 5.860840
247.1400, 12.98047
248.3570, 4.393555
249.5740, 27.57031
250.7910, 24.11670
252.0080, 43.92432
253.2240, 26.01270
254.4410, 25.57520
255.6570, 16.71777
256.8730, 26.51709
258.0890, 53.96094
259.3050, 101.6812
260.5210, 3.397461
261.7360, 24.67871
262.9510, 51.11279
264.1670, 35.81787
265.3820, 65.45410
266.5960, 180.0474
267.8110, 145.6440
269.0260, 168.2510
270.2400, 162.8877
271.4540, 114.5669
272.6680, 137.2900
273.8820, 141.7058
275.0960, 166.9292
276.3090, 181.8713
277.5230, 179.9104
278.7360, 185.0515
279.9490, 207.3008
281.1620, 71.66748
282.3750, 176.1191
283.5880, 100.6877
284.8000, 102.3567
286.0120, 157.1326
287.2240, 103.0344
288.4360, 100.0491
289.6480, 69.18506
290.8600, 84.44434
292.0710, 62.84033
293.2830, 7.620605
294.4940, 14.95264
295.7050, 49.84912
296.9160, 30.19775
298.1260, 36.11304
299.3370, 121.9016
300.5470, 50.57886
301.7580, 95.13696
302.9680, 166.5859
304.1770, 116.9360
305.3870, 234.1846
306.5970, 202.3420
307.8060, 211.4084
309.0150, 286.3875
310.2250, 250.2827
311.4340, 359.0952
312.6420, 408.8281
313.8510, 401.4827
315.0590, 443.0615
316.2680, 523.5657
317.4760, 520.9971
318.6840, 616.3145
319.8920, 702.5513
321.0990, 755.6931
322.3070, 854.7241
323.5140, 938.6348
324.7210, 897.4365
325.9280, 882.1504
327.1350, 995.7847
328.3420, 941.3081
329.5490, 975.6843
330.7550, 802.8069
331.9610, 804.6753
333.1670, 788.3252
334.3730, 610.7317
335.5790, 535.8733
336.7840, 554.7385
337.9900, 497.3899
339.1950, 410.8462
340.4000, 476.0850
341.6050, 392.1438
342.8100, 347.0310
344.0150, 335.8137
345.2190, 329.4727
346.4230, 335.6675
347.6280, 379.5754
348.8320, 390.0413
350.0350, 411.4727
351.2390, 462.8699
352.4430, 489.2361
353.6460, 568.5718
354.8490, 582.8779
356.0520, 728.1536
357.2550, 655.3994
358.4580, 666.6147
359.6600, 824.8003
360.8630, 932.9558
362.0650, 941.0811
363.2670, 930.1763
364.4690, 965.2419
365.6710, 859.2776
366.8720, 959.2847
368.0740, 881.2612
369.2750, 949.2065
370.4760, 887.1228
371.6770, 703.0110
372.8780, 746.8718
374.0780, 644.7058
375.2790, 588.5137
376.4790, 665.2944
377.6790, 565.0493
378.8790, 689.7788
380.0790, 553.4822
381.2790, 583.1604
382.4780, 670.8137
383.6780, 611.4429
384.8770, 660.0469
386.0760, 659.6272
387.2750, 702.1753
388.4730, 710.0645
389.6720, 685.5774
390.8700, 840.2998
392.0690, 682.5503
393.2670, 858.2734
394.4650, 931.5205
395.6620, 965.8823
396.8600, 1118.874
398.0570, 1012.844
399.2550, 1175.681
400.4520, 1270.901
401.6490, 1324.325
402.8450, 1500.521
404.0420, 1693.675
405.2390, 1885.967
406.4350, 2009.529
407.6310, 2202.408
408.8270, 2522.032
410.0230, 2692.585
411.2190, 3052.729
412.4140, 3385.830
413.6090, 3928.297
414.8050, 4430.897
416.0000, 5132.316
417.1940, 5912.601
418.3890, 6811.404
419.5840, 7803.922
420.7780, 8948.298
421.9720, 10225.60
423.1660, 11536.37
424.3600, 12803.57
425.5540, 14214.09
426.7480, 15245.86
427.9410, 15799.18
429.1340, 16098.21
430.3270, 15777.63
431.5200, 14849.27
432.7130, 13534.93
433.9060, 12092.36
435.0980, 10582.67
436.2900, 8983.174
437.4830, 7752.939
438.6750, 6566.981
439.8660, 5641.841
441.0580, 4794.397
442.2500, 4228.104
443.4410, 3415.636
444.6320, 2989.720
445.8230, 2736.303
447.0140, 2448.399
448.2050, 2144.382
449.3950, 1899.007
450.5860, 1637.334
451.7760, 1464.681
452.9660, 1350.399
454.1560, 1175.207
455.3450, 1056.668
456.5350, 924.3887
457.7240, 875.0869
458.9140, 750.7627
460.1030, 796.4165
461.2920, 575.0498
462.4810, 624.6616
463.6690, 614.2529
464.8580, 458.8242
466.0460, 464.3774
467.2340, 428.9121
468.4220, 306.4287
469.6100, 413.9287
470.7970, 361.4136
471.9850, 468.8823
473.1720, 310.3350
474.3590, 386.7734
475.5460, 260.1997
476.7330, 221.6162
477.9200, 276.0293
479.1060, 240.4321
480.2930, 240.8286
481.4790, 231.5034
482.6650, 176.6104
483.8510, 194.9956
485.0370, 168.3784
486.2220, 168.6016
487.4080, 161.7725
488.5930, 214.9116
489.7780, 113.0850
490.9630, 132.4404
492.1480, 117.8442
493.3320, 213.2666
494.5170, 124.6875
495.7010, 174.1055
496.8850, 190.5259
498.0690, 180.9438
499.2530, 203.3613
500.4360, 201.5059
501.6200, 213.1479
502.8030, 218.6650
503.9860, 256.1040
505.1690, 294.5420
506.3520, 358.9805
507.5350, 361.4248
508.7170, 388.8970
509.9000, 499.3950
511.0820, 459.9106
512.2640, 598.4604
513.4460, 588.0327
514.6270, 643.6309
515.8090, 708.2417
516.9900, 793.8750
518.1710, 819.5142
519.3530, 805.1631
520.5330, 913.8198
521.7140, 858.4805
522.8950, 890.1416
524.0750, 822.8037
525.2550, 858.4736
526.4350, 834.1445
527.6150, 772.8291
528.7950, 729.5801
529.9750, 689.9033
531.1540, 514.6455
532.3340, 474.3906
533.5130, 461.1421
534.6920, 412.9062
535.8700, 423.6875
537.0490, 415.4829
538.2280, 299.3179
539.4060, 302.1836
540.5840, 281.0903
541.7620, 271.0010
542.9400, 200.0093
544.1180, 121.6748
545.2950, 160.6279
546.4720, 111.6177
547.6500, 144.5840
548.8270, 95.74609
550.0040, 202.7690
551.1800, 153.6040
552.3570, 150.6562
553.5330, 109.5259
554.7090, 183.7534
555.8850, 138.4526
557.0610, 219.8267
558.2370, 295.2378
559.4130, 236.7939
560.5880, 283.3843
561.7630, 349.7090
562.9380, 423.5801
564.1130, 384.3921
565.2880, 424.3062
566.4630, 513.3281
567.6370, 591.4067
568.8120, 649.5752
569.9860, 719.7563
571.1600, 669.0225
572.3330, 739.8862
573.5070, 663.0278
574.6810, 709.9556
575.8540, 635.1396
577.0270, 441.4316
578.2000, 333.8491
579.3730, 303.5024
580.5460, 301.0259
581.7180, 134.9985
582.8910, 109.9434
584.0630, 95.84912
585.2350, 59.33984
586.4070, 33.85156
587.5780, 146.5469
588.7500, 87.32861
589.9210, 211.1333
591.0930, 161.9854
592.2640, 213.7959
593.4350, 110.5049
594.6050, 187.1543
595.7760, 241.7202
596.9460, 302.2881
598.1170, 356.8711
599.2870, 382.4443
600.4570, 394.0205
601.6260, 551.5991
602.7960, 512.1807
603.9650, 612.7646
605.1350, 744.3511
606.3040, 851.0566
607.4730, 971.3164
608.6420, 1051.558
609.8100, 1235.289
610.9790, 1397.062
612.1470, 1584.226
613.3150, 1866.831
614.4830, 2266.724
615.6510, 2625.753
616.8190, 3206.912
617.9860, 3756.469
619.1540, 4493.190
620.3210, 5313.469
621.4880, 6265.552
622.6550, 7440.213
623.8220, 8537.773
624.9880, 9968.057
626.1550, 11359.89
627.3210, 12304.83
628.4870, 12974.74
629.6530, 13069.77
630.8190, 12594.14
631.9840, 11186.45
633.1500, 10257.98
634.3150, 7996.901
635.4800, 6414.718
636.6450, 5127.238
637.8100, 4008.116
638.9740, 3204.023
640.1390, 2513.823
641.3030, 2087.542
642.4670, 1657.566
643.6310, 1368.391
644.7950, 1128.344
645.9590, 895.3516
647.1220, 762.6426
648.2850, 660.0132
649.4490, 582.9600
650.6120, 507.8506
651.7740, 444.6392
652.9370, 331.7378
654.1000, 314.5386
655.2620, 359.2163
656.4240, 243.9180
657.5860, 277.7695
658.7480, 227.7759
659.9100, 240.2822
661.0710, 189.6797
662.2330, 171.9453
663.3940, 113.2627
664.5550, 135.4556
665.7160, 131.3613
666.8770, 135.9019
668.0370, 8.595703
669.1980, 27.23438
670.3580, 46.35889
671.5180, 76.52295
672.6780, 87.08936
673.8380, 49.43506
674.9970, 95.30566
676.1570, 64.68701
677.3160, 56.10254
678.4750, 78.29248
679.6340, 45.27881
680.7930, 125.1387
681.9520, 33.24707
683.1100, 41.27979
684.2680, 68.14258
685.4270, 48.57568
686.5850, 101.0859
687.7420, 13.49463
688.9000, 53.88916
690.0580, 20.72900
691.2150, 81.63135
692.3720, 68.02100
693.5290, 49.37646
694.6860, 46.33691
695.8430, 44.91211
696.9990, 48.14697
698.1560, 55.63477
699.3120, 33.54053
700.4680, 16.30127
701.6240, 3.832520
702.7800, 30.94678
703.9350, 20.89551
705.0900, 20.82764
706.2460, 17.20947
707.4010, 13.22803
708.5560, 23.22559
709.7110, 16.20215
710.8650, 10.84180
712.0200, 81.08643
713.1740, 9.004883
714.3280, 28.12402
715.4820, 79.71875
716.6360, 59.54053
717.7890, 15.34180
718.9430, 48.11865
720.0960, 35.12646
721.2490, 0.5830080
722.4020, 4.266113
723.5550, 81.92383
724.7080, 89.55908
725.8600, 42.17236
727.0130, 24.76221
728.1650, 23.91699
729.3170, 19.25488
730.4690, 25.38281
731.6200, 48.87256
732.7720, 64.33887
733.9230, 86.78076
735.0740, 100.2002
736.2250, 83.59717
737.3760, 109.9707
738.5270, 97.32031
739.6780, 131.6484
740.8280, 135.9526
741.9780, 100.2334
743.1280, 105.4912
744.2780, 60.72461
745.4280, 57.13379
746.5770, 45.11914
747.7270, 57.27881
748.8760, 9.413574
750.0250, 47.51953
751.1740, 99.59961
752.3230, 30.57373
753.4720, 19.60400
754.6200, 15.07275
755.7680, 11.70312
756.9160, 70.01953
758.0640, 11.92480
759.2120, 2.807129
760.3600, 92.94043
761.5070, 11.19629
762.6550, 22.31787
763.8020, 68.16992
764.9490, 52.83643
766.0960, 60.04492
767.2420, 20.89062
768.3890, 29.71924
769.5350, 56.70264
770.6810, 44.19922
771.8270, 61.35059
772.9730, 85.75928
774.1190, 27.19385
775.2640, 70.54199
776.4100, 62.86328
777.5550, 30.84375
778.7000, 114.3887
779.8450, 2.405762
780.9900, 79.75342
782.1340, 53.88525
783.2790, 48.98926
784.4230, 13.06445
785.5670, 73.89990
786.7110, 64.76465
787.8550, 32.07715
788.9980, 94.26807
790.1420, 51.55469
791.2850, 62.91357
792.4280, 13.35156
793.5710, 45.84180
794.7140, 10.59863
795.8560, 1.999023
796.9990, 4.355957
798.1410, 27.08740
799.2830, 55.95117
800.4250, 56.20508
801.5670, 8.433105
802.7090, 41.63574
803.8500, 14.21875
804.9920, 1.109863
806.1330, 9.101074
807.2740, 16.69434
808.4150, 27.27051
809.5550, 81.20508
810.6960, 21.11475
811.8360, 7.008301
812.9760, 34.82373
814.1160, 73.37207
815.2560, 13.64795
816.3960, 10.97119
817.5350, 6.641602
818.6750, 21.23389
819.8140, 73.71582
820.9530, 5.468750
822.0920, 93.02881
823.2310, 39.46729
824.3690, 132.9180
825.5080, 86.15576
826.6460, 144.5361
827.7840, 78.10400
828.9220, 60.46436
830.0600, 26.04736
831.1970, 71.30371
832.3350, 89.12695
833.4720, 104.3154
834.6090, 79.49268
835.7460, 112.5581
836.8830, 56.62598
838.0190, 87.00293
839.1560, 120.8818
840.2920, 4.131836
841.4280, 159.7979
842.5640, 83.67773
843.7000, 83.52393
844.8360, 39.33203
845.9710, 109.1592
847.1070, 145.9360
848.2420, 175.1626
849.3770, 83.14795
850.5120, 192.3823
851.6460, 157.3882
852.7810, 43.31934
853.9150, 114.1528
855.0490, 192.7617
856.1830, 141.5088
857.3170, 114.8340
858.4510, 151.1943
859.5840, 130.5996
860.7180, 69.41406
861.8510, 93.21289
862.9840, 114.8257
864.1170, 125.3442
865.2500, 163.8364
866.3820, 84.27002
867.5150, 46.73633
868.6470, 134.2944
869.7790, 129.9014
870.9110, 188.5830
872.0430, 95.24951
873.1740, 79.89209
874.3060, 85.53271
875.4370, 15.16064
876.5680, 29.77588
877.6990, 49.37842
878.8300, 91.96875
879.9600, 18.54639
881.0910, 26.99707
882.2210, 29.77393
883.3510, 30.54053
884.4810, 43.18018
885.6110, 40.14062
886.7410, 57.47607
887.8700, 24.02295
888.9990, 21.17627
890.1290, 36.76807
891.2580, 36.14404
892.3860, 0.3486330
893.5150, 3.985352
894.6440, 13.24414
895.7720, 68.28516
896.9000, 59.92383
898.0280, 58.48096
899.1560, 73.76074
900.2840, 51.70166
901.4110, 63.62305
902.5390, 15.59766
903.6660, 9.305664
904.7930, 35.86133
905.9200, 26.84375
907.0470, 39.13330
908.1730, 12.85449
909.3000, 3.058105
910.4260, 34.32275
911.5520, 78.34229
912.6780, 31.32764
913.8030, 10.41699
914.9290, 136.5854
916.0540, 211.4443
917.1800, 123.5005
918.3050, 306.4238
919.4300, 247.2915
920.5550, 291.0234
921.6790, 420.3716
922.8040, 469.2920
923.9280, 668.2661
925.0520, 759.3408
926.1760, 823.1030
927.3000, 1024.162
928.4230, 1160.344
929.5470, 1387.499
930.6700, 1518.163
931.7930, 1646.352
932.9160, 1544.699
934.0390, 1711.155
935.1620, 1692.210
936.2840, 1426.276
937.4070, 1297.938
938.5290, 1251.889
939.6510, 947.2100
940.7730, 870.3770
941.8940, 709.0693
943.0160, 711.3354
944.1370, 646.0303
945.2580, 546.3267
946.3800, 493.8442
947.5000, 569.8384
948.6210, 428.8789
949.7420, 474.7720
950.8620, 422.4502
951.9820, 379.3394
953.1020, 422.3569
954.2220, 377.1274
955.3420, 358.9697
956.4620, 268.9897
957.5810, 311.4375
958.7000, 310.8135
959.8190, 324.2930
960.9380, 364.7871
962.0570, 412.2954
963.1760, 447.8296
964.2940, 502.3892
965.4120, 520.8843
966.5300, 498.4927
967.6480, 583.1279
968.7660, 640.7793
969.8840, 733.4463
971.0010, 787.1440
972.1190, 949.8584
973.2360, 996.5938
974.3530, 1116.346
975.4690, 1377.056
976.5860, 1452.850
977.7030, 1619.667
978.8190, 1868.510
979.9350, 2188.372
981.0510, 2377.254
982.1670, 2811.154
983.2830, 3247.077
984.3980, 3705.019
985.5130, 4336.983
986.6290, 5109.975
987.7440, 5959.987
988.8590, 7094.019
989.9730, 8444.071
991.0880, 9999.755
992.2020, 11823.58
993.3160, 13814.40
994.4300, 16147.57
995.5440, 18630.76
996.6580, 21387.96
997.7720, 23887.20
998.8850, 26177.45
999.9980, 28146.72
1001.111, 30291.01
1002.224, 31023.34
1003.337, 31683.70
1004.450, 31695.08
1005.562, 31261.49
1006.674, 30369.93
1007.786, 29411.39
1008.898, 28275.88
1010.010, 26789.38
1011.122, 25361.91
1012.233, 23703.46
1013.344, 21729.05
1014.455, 20167.66
1015.566, 18359.32
1016.677, 16600.98
1017.788, 14948.68
1018.898, 12998.40
1020.009, 11313.14
1021.119, 9918.922
1022.229, 8592.828
1023.339, 7474.713
1024.448, 6485.150
1025.558, 5756.080
1026.667, 4966.007
1027.776, 4621.004
1028.885, 4062.662
1029.994, 3843.851
1031.103, 3638.697
1032.211, 3421.523
1033.320, 3278.619
1034.428, 3221.899
1035.536, 3343.645
1036.644, 3062.536
1037.751, 3303.882
1038.859, 3042.275
1039.966, 3204.724
1041.074, 3145.134
1042.181, 3032.701
1043.288, 2710.243
1044.394, 2641.882
1045.501, 2272.550
1046.607, 2061.248
1047.713, 1914.993
1048.820, 1735.766
1049.925, 1620.581
1051.031, 1569.425
1052.137, 1458.309
1053.242, 1541.223
1054.348, 1425.171
1055.453, 1526.178
1056.558, 1486.239
1057.662, 1527.347
1058.767, 1363.519
1059.871, 1626.943
1060.976, 1591.233
1062.080, 1625.565
1063.184, 1777.958
1064.288, 1872.387
1065.391, 2112.853
1066.495, 2231.356
1067.598, 2521.893
1068.701, 2849.457
1069.804, 3056.812
1070.907, 3424.751
1072.010, 3725.399
1073.112, 4383.100
1074.214, 5010.024
1075.317, 5518.805
1076.419, 6310.635
1077.521, 7284.167
1078.622, 8540.060
1079.724, 9886.990
1080.825, 11475.96
1081.926, 13115.97
1083.027, 15061.14
1084.128, 17249.91
1085.229, 19111.05
1086.329, 20612.45
1087.430, 22274.66
1088.530, 23219.92
1089.630, 23387.59
1090.730, 22951.56
1091.830, 21714.94
1092.929, 19958.29
1094.029, 17768.67
1095.128, 15792.61
1096.227, 13880.50
1097.326, 11847.96
1098.425, 10356.73
1099.523, 8640.245
1100.622, 7565.789
1101.720, 6528.358
1102.818, 5607.953
1103.916, 4944.575
1105.014, 4352.222
1106.111, 3833.896
1107.209, 3238.602
1108.306, 2839.339
1109.403, 2717.103
1110.500, 2334.503
1111.597, 2166.317
1112.694, 1722.156
1113.790, 1739.021
1114.887, 1543.910
1115.983, 1347.823
1117.079, 1098.761
1118.174, 1113.724
1119.270, 983.7095
1120.366, 914.7197
1121.461, 769.7549
1122.556, 779.8135
1123.651, 715.9458
1124.746, 671.0508
1125.841, 587.7070
1126.935, 680.8579
1128.030, 567.0322
1129.124, 515.2295
1130.218, 407.4487
1131.312, 452.6909
1132.405, 408.9556
1133.499, 366.6675
1134.592, 414.2856
1135.686, 402.3467
1136.779, 281.7051
1137.871, 281.0874
1138.964, 285.6396
1140.057, 229.0640
1141.149, 225.5103
1142.241, 214.9766
1143.334, 194.7271
1144.425, 258.0479
1145.517, 202.8750
1146.609, 114.8311
1147.700, 206.3994
1148.791, 121.9873
1149.883, 37.59473
1150.974, 180.2207
1152.064, 155.1030
1153.155, 138.0161
1154.245, 0.5073240
1155.336, 155.1509
1156.426, 65.88086
1157.516, 83.19531
1158.606, 22.96436
1159.695, 61.97266
1160.785, 111.9067
1161.874, 15.91748
1162.963, 80.79785
1164.052, 21.07373
1165.141, 47.99316
1166.230, 88.88232
1167.318, 25.25000
1168.406, 99.30811
1169.495, 86.94385
1170.583, 97.91064
1171.670, 12.10938
1172.758, 145.5176
1173.846, 3.579102
1174.933, 47.29443
1176.020, 198.5967
1177.107, 98.97949
1178.194, 113.0859
1179.281, 176.2026
1180.367, 81.20215
1181.454, 148.3408
1182.540, 35.89893
1183.626, 122.0581
1184.712, 95.23242
1185.798, 181.4102
1186.883, 67.59766
1187.969, 102.7930
1189.054, 102.0317
1190.139, 13.75244
1191.224, 85.90234
1192.309, 25.21875
1193.393, 88.82373
1194.478, 51.06543
1195.562, 66.31152
1196.646, 8.563965
1197.730, 43.83398
1198.814, 28.09814
1199.897, 31.63232
1200.981, 16.36475
1202.064, 37.09570
1203.147, 61.20215
1204.230, 10.52881
1205.313, 81.00098
1206.396, 40.94824
1207.478, 26.44141
1208.560, 15.60645
1209.642, 65.56641
1210.724, 84.58545
1211.806, 37.39648
1212.888, 5.960938
1213.969, 47.59326
1215.051, 31.68066
1216.132, 9.904785
1217.213, 17.38770
1218.294, 31.33643
1219.374, 14.61719
1220.455, 21.80762
1221.535, 1.551270
1222.616, 16.73682
1223.696, 8.108398
1224.775, 39.27100
1225.855, 57.03125
1226.935, 11.34521
1228.014, 8.437988
1229.093, 89.77393
1230.172, 24.06348
1231.251, 36.27246
1232.330, 50.47998
1233.408, 95.68604
1234.487, 100.9775
1235.565, 69.73389
1236.643, 21.89697
1237.721, 93.43701
1238.799, 93.82080
1239.876, 32.83789
1240.954, 17.33350
1242.031, 107.5347
1243.108, 41.69873
1244.185, 56.85791
1245.262, 84.01367
1246.338, 44.16455
1247.415, 16.31104
1248.491, 24.45264
1249.567, 52.61719
1250.643, 54.77490
1251.719, 18.90137
1252.795, 49.97803
1253.870, 55.10986
1254.945, 3.808594
1256.021, 88.26123
1257.096, 43.32520
1258.170, 79.47363
1259.245, 131.5239
1260.320, 61.99316
1261.394, 31.60547
1262.468, 16.34180
1263.542, 29.94189
1264.616, 19.96143
1265.690, 28.03906
1266.763, 71.85742
1267.836, 8.201660
1268.910, 55.71973
1269.983, 34.63770
1271.055, 54.54297
1272.128, 11.52539
1273.201, 15.43066
1274.273, 6.529785
1275.345, 7.567871
1276.417, 62.24561
1277.489, 33.19092
1278.561, 68.98584
