##NAMES=Catapleiite
##RRUFFID=R060198
##IDEAL CHEMISTRY=Na_2_Zr^4+^Si_3_O_9_&#183;2H_2_O
##LOCALITY=Mont Saint-Hilaire, Rouville County, Quebec, Canada
##OWNER=RRUFF
##SOURCE=Royal Ontario Museum
##DESCRIPTION=Tan colored pseudohexagonal tabular crystals
##STATUS=The identification of this mineral has been confirmed by X-ray diffraction and chemical analysis
##URL=rruff.info/R060198
##MEASURED CHEMISTRY=(Na_1.92_Ca_0.04_[box]_0.04_)_Σ=2_Zr_1.00_Si_3.00_O_9_·2H_2_O
##PIN_ID=L01561
##ORIENTATION=Laser parallel to b* (0 1 0). Fiducial mark perpendicular to laser is parallel to c [0 0 1]
95.94800, 0.0000000E+00
97.18200, 111.3911
98.41600, 11.60791
99.64900, 54.48145
100.8830, 20.57324
102.1160, 151.4971
103.3490, 124.5479
104.5820, 196.6279
105.8150, 438.2891
107.0470, 824.8018
108.2800, 1364.504
109.5120, 1738.654
110.7440, 1240.528
111.9760, 896.4971
113.2080, 861.1299
114.4400, 1198.566
115.6710, 1371.221
116.9030, 1407.166
118.1340, 1419.937
119.3650, 1446.204
120.5960, 1411.494
121.8270, 1484.145
123.0580, 1411.577
124.2880, 1572.836
125.5190, 1509.997
126.7490, 1477.933
127.9790, 1825.566
129.2090, 1857.127
130.4390, 1920.498
131.6680, 1912.480
132.8980, 2095.369
134.1270, 2028.208
135.3560, 2301.953
136.5850, 2416.141
137.8140, 2656.300
139.0430, 2758.709
140.2710, 2831.307
141.5000, 3039.606
142.7280, 3018.615
143.9560, 3226.102
145.1840, 3453.090
146.4120, 3499.696
147.6390, 3660.019
148.8670, 3605.148
150.0940, 3981.164
151.3210, 4026.138
152.5490, 4218.135
153.7750, 4177.212
155.0020, 4192.418
156.2290, 4263.801
157.4550, 4304.411
158.6810, 4056.342
159.9080, 3956.066
161.1340, 3834.875
162.3590, 3793.266
163.5850, 3679.764
164.8110, 3417.421
166.0360, 3293.960
167.2610, 3063.691
168.4860, 2953.622
169.7110, 2649.334
170.9360, 2519.928
172.1610, 2388.045
173.3850, 2229.847
174.6100, 2130.314
175.8340, 1994.094
177.0580, 1790.204
178.2820, 1661.159
179.5050, 1462.814
180.7290, 1543.789
181.9520, 1500.278
183.1760, 1302.007
184.3990, 1411.659
185.6220, 1359.037
186.8450, 1361.526
188.0670, 1368.314
189.2900, 1413.348
190.5120, 1462.546
191.7340, 1466.419
192.9560, 1541.335
194.1780, 1748.286
195.4000, 1773.262
196.6220, 1914.257
197.8430, 1975.264
199.0640, 2096.278
200.2860, 2202.292
201.5070, 2447.305
202.7270, 2460.309
203.9480, 2444.298
205.1690, 2458.265
206.3890, 2274.193
207.6090, 2218.068
208.8290, 2185.881
210.0490, 2026.617
211.2690, 1965.274
212.4890, 1765.851
213.7080, 1805.344
214.9280, 1702.748
216.1470, 1383.062
217.3660, 1296.290
218.5850, 1046.394
219.8030, 930.0938
221.0220, 879.0239
222.2400, 733.4287
223.4590, 637.4629
224.6770, 480.2646
225.8950, 424.0425
227.1120, 362.5859
228.3300, 250.0576
229.5480, 90.46143
230.7650, 130.7964
231.9820, 37.06543
233.1990, 37.26855
234.4160, 96.60547
235.6330, 47.56641
236.8490, 76.65381
238.0660, 78.90137
239.2820, 14.40527
240.4980, 128.4790
241.7140, 127.2798
242.9300, 270.3643
244.1460, 168.6162
245.3610, 138.6865
246.5770, 61.32275
247.7920, 112.7983
249.0070, 255.1846
250.2220, 235.5645
251.4370, 195.9668
252.6510, 126.4106
253.8660, 146.8999
255.0800, 108.4614
256.2940, 51.10205
257.5080, 44.81982
258.7220, 266.3760
259.9360, 528.5142
261.1490, 320.5908
262.3630, 6.408691
263.5760, 87.47656
264.7890, 69.25586
266.0020, 71.07959
267.2150, 0.5688480
268.4270, 26.19580
269.6400, 84.96875
270.8520, 22.90430
272.0640, 77.98584
273.2760, 84.22656
274.4880, 16.37207
275.7000, 48.83643
276.9120, 112.1709
278.1230, 134.3706
279.3340, 158.4229
280.5450, 284.3159
281.7560, 301.0430
282.9670, 487.5962
284.1780, 525.9844
285.3880, 667.2104
286.5980, 756.2749
287.8090, 1016.179
289.0190, 1066.928
290.2290, 1233.528
291.4380, 1410.987
292.6480, 1509.310
293.8570, 1582.502
295.0670, 1552.569
296.2760, 1612.516
297.4850, 1776.347
298.6930, 1625.066
299.9020, 1536.679
301.1110, 1627.187
302.3190, 1455.594
303.5270, 1284.904
304.7350, 1303.121
305.9430, 1204.244
307.1510, 1123.262
308.3580, 1068.161
309.5660, 1085.901
310.7730, 1056.446
311.9800, 985.6875
313.1870, 1118.634
314.3940, 1043.307
315.6010, 1011.586
316.8070, 950.5293
318.0130, 930.2168
319.2200, 903.4971
320.4260, 901.4648
321.6310, 925.1621
322.8370, 961.6699
324.0430, 932.1367
325.2480, 879.5088
326.4540, 869.5391
327.6590, 828.9248
328.8640, 796.8730
330.0680, 725.6523
331.2730, 694.2812
332.4780, 627.7808
333.6820, 528.3452
334.8860, 518.8154
336.0900, 509.2617
337.2940, 500.6899
338.4980, 405.1001
339.7010, 312.5874
340.9050, 247.9580
342.1080, 306.3076
343.3110, 284.8892
344.5140, 179.6128
345.7170, 203.0947
346.9200, 119.6440
348.1220, 153.3169
349.3240, 437.7769
350.5270, 382.6250
351.7290, 425.6914
352.9310, 537.5503
354.1320, 355.7100
355.3340, 463.8550
356.5350, 416.9858
357.7370, 507.1040
358.9380, 641.2104
360.1390, 736.3057
361.3400, 705.3896
362.5400, 891.4634
363.7410, 1763.524
364.9410, 1900.568
366.1410, 1643.621
367.3410, 1341.604
368.5410, 949.4150
369.7410, 862.5786
370.9400, 956.5186
372.1400, 881.2139
373.3390, 760.0605
374.5380, 734.5034
375.7370, 832.9492
376.9360, 717.6162
378.1350, 778.4062
379.3330, 719.1968
380.5310, 659.1841
381.7300, 661.2793
382.9280, 610.7285
384.1260, 605.1660
385.3230, 586.1440
386.5210, 549.7241
387.7180, 539.8550
388.9160, 494.9238
390.1130, 465.9199
391.3100, 476.7808
392.5060, 520.4106
393.7030, 461.1001
394.9000, 326.0142
396.0960, 435.4048
397.2920, 432.1519
398.4880, 523.6040
399.6840, 545.4604
400.8800, 564.9092
402.0750, 660.7471
403.2710, 743.8647
404.4660, 913.1221
405.6610, 1069.486
406.8560, 1335.701
408.0510, 1549.833
409.2450, 1826.557
410.4400, 2260.694
411.6340, 2616.256
412.8280, 3172.211
414.0220, 3881.494
415.2160, 4519.688
416.4100, 5501.466
417.6030, 6384.875
418.7970, 7622.590
419.9900, 8794.835
421.1830, 10225.41
422.3760, 11584.27
423.5690, 12904.40
424.7610, 14398.53
425.9540, 14901.71
427.1460, 15482.68
428.3380, 15599.82
429.5300, 15313.30
430.7220, 14541.78
431.9140, 13392.25
433.1050, 12198.73
434.2970, 10945.20
435.4880, 9487.667
436.6790, 8410.135
437.8700, 7367.604
439.0610, 6106.073
440.2510, 5427.543
441.4420, 4695.016
442.6320, 4119.489
443.8220, 3390.966
445.0120, 3212.446
446.2020, 2661.930
447.3910, 2447.417
448.5810, 2151.909
449.7700, 1868.407
450.9600, 1637.911
452.1490, 1557.420
453.3370, 1367.936
454.5260, 1192.460
455.7150, 957.9941
456.9030, 959.5381
458.0910, 817.0947
459.2800, 657.6646
460.4670, 645.2495
461.6550, 600.8506
462.8430, 503.4702
464.0300, 575.1089
465.2180, 310.7686
466.4050, 418.4497
467.5920, 286.1523
468.7790, 301.8779
469.9650, 286.6265
471.1520, 260.3975
472.3380, 129.1934
473.5250, 84.01465
474.7110, 80.86133
475.8970, 187.7344
477.0820, 98.63477
478.2680, 177.5640
479.4540, 11.52197
480.6390, 99.50977
481.8240, 13.68555
483.0090, 89.78076
484.1940, 154.0317
485.3780, 32.40381
486.5630, 47.84961
487.7470, 25.67480
488.9320, 36.31641
490.1160, 49.24512
491.3000, 30.93604
492.4830, 18.49316
493.6670, 8.513672
494.8500, 129.5210
496.0340, 8.196289
497.2170, 98.78467
498.4000, 77.61279
499.5820, 216.4878
500.7650, 150.4434
501.9480, 234.4580
503.1300, 358.5435
504.3120, 265.7056
505.4940, 273.9346
506.6760, 417.2344
507.8580, 515.6060
509.0390, 521.0391
510.2210, 669.5552
511.4020, 837.1514
512.5830, 907.8267
513.7640, 1078.568
514.9450, 1137.395
516.1250, 1267.309
517.3060, 1437.324
518.4860, 1599.439
519.6660, 1757.625
520.8460, 1919.912
522.0260, 1796.324
523.2060, 1964.834
524.3850, 2017.468
525.5650, 2200.209
526.7440, 2077.039
527.9230, 2104.968
529.1020, 2187.992
530.2810, 2207.147
531.4590, 2176.485
532.6380, 2260.009
533.8160, 2116.447
534.9940, 2178.974
536.1720, 2166.627
537.3500, 2208.403
538.5270, 2177.291
539.7050, 2227.298
540.8820, 2175.667
542.0590, 2218.133
543.2360, 2267.933
544.4130, 2325.751
545.5900, 2414.256
546.7660, 2569.164
547.9430, 2625.581
549.1190, 2865.036
550.2950, 3011.532
551.4710, 3354.429
552.6470, 3718.254
553.8220, 4038.265
554.9980, 4632.993
556.1730, 5192.930
557.3480, 5759.559
558.5230, 6751.502
559.6980, 7617.588
560.8730, 8734.213
562.0470, 10072.74
563.2220, 11543.23
564.3960, 13219.61
565.5700, 14693.23
566.7440, 16225.59
567.9170, 17559.29
569.0910, 18584.76
570.2640, 19495.08
571.4380, 19635.41
572.6110, 19295.98
573.7840, 18262.37
574.9570, 17176.76
576.1290, 15502.18
577.3020, 13996.62
578.4740, 12065.09
579.6460, 10278.57
580.8180, 8643.064
581.9900, 7165.582
583.1620, 5925.118
584.3330, 4902.672
585.5040, 4118.244
586.6760, 3303.835
587.8470, 2829.443
589.0180, 2287.069
590.1880, 2208.712
591.3590, 1786.372
592.5290, 1509.048
593.7000, 1277.741
594.8700, 1074.450
596.0400, 949.7217
597.2090, 904.9160
598.3790, 801.6724
599.5490, 805.4443
600.7180, 788.2300
601.8870, 807.0308
603.0560, 815.8467
604.2250, 784.6753
605.3940, 907.5176
606.5620, 1037.373
607.7300, 1133.242
608.8990, 1345.124
610.0670, 1497.018
611.2350, 1747.922
612.4020, 2105.840
613.5700, 2485.769
614.7370, 3061.708
615.9050, 3779.659
617.0720, 4527.860
618.2390, 5552.322
619.4060, 7003.662
620.5720, 8474.295
621.7390, 10227.40
622.9050, 11987.59
624.0710, 14095.42
625.2370, 15844.58
626.4030, 17204.81
627.5690, 17962.84
628.7340, 17975.60
629.9000, 17343.41
631.0650, 16141.31
632.2300, 14285.66
633.3950, 12256.91
634.5600, 10290.56
635.7240, 8502.845
636.8890, 6794.372
638.0530, 5492.146
639.2170, 4369.270
640.3810, 3566.082
641.5450, 2908.842
642.7080, 2290.777
643.8720, 1898.571
645.0350, 1588.500
646.1980, 1436.885
647.3610, 1142.825
648.5240, 973.1909
649.6870, 860.7046
650.8490, 787.4077
652.0120, 617.9302
653.1740, 581.3936
654.3360, 437.0186
655.4980, 380.4180
656.6600, 260.6626
657.8210, 283.2197
658.9830, 233.0073
660.1440, 328.4238
661.3050, 256.0005
662.4660, 154.6777
663.6270, 117.5513
664.7870, 54.52832
665.9480, 122.2529
667.1080, 143.8242
668.2680, 74.80615
669.4280, 166.8438
670.5880, 46.80176
671.7480, 28.62207
672.9070, 126.8862
674.0670, 74.59424
675.2260, 141.3804
676.3850, 94.29834
677.5440, 98.84033
678.7030, 79.37500
679.8610, 18.88770
681.0200, 19.31396
682.1780, 5.651855
683.3360, 43.99707
684.4940, 160.2559
685.6520, 143.4790
686.8090, 100.6660
687.9670, 172.8164
689.1240, 122.0435
690.2810, 28.00732
691.4380, 66.04395
692.5950, 38.04053
693.7520, 34.00439
694.9080, 18.10010
696.0650, 107.2925
697.2210, 13.57666
698.3770, 61.92236
699.5330, 19.64453
700.6880, 39.16309
701.8440, 57.63721
702.9990, 6.065918
704.1550, 29.56104
705.3100, 117.7368
706.4650, 44.99023
707.6190, 110.1982
708.7740, 156.3613
709.9290, 205.4805
711.0830, 106.5566
712.2370, 253.5879
713.3910, 231.5747
714.5450, 272.5181
715.6980, 346.4170
716.8520, 383.2705
718.0050, 464.0796
719.1580, 525.8442
720.3110, 663.5640
721.4640, 694.2378
722.6170, 740.8672
723.7700, 749.4502
724.9220, 867.9868
726.0740, 879.4785
727.2260, 1104.924
728.3780, 1176.323
729.5300, 1218.675
730.6810, 1251.980
731.8330, 1314.858
732.9840, 1365.451
734.1350, 1414.615
735.2860, 1445.733
736.4370, 1482.802
737.5880, 1414.825
738.7380, 1302.798
739.8880, 1307.725
741.0390, 1068.604
742.1890, 1048.434
743.3380, 913.2153
744.4880, 877.9487
745.6380, 767.6338
746.7870, 603.2695
747.9360, 525.8569
749.0850, 550.3945
750.2340, 437.8843
751.3830, 405.3242
752.5310, 315.7148
753.6800, 211.0562
754.8280, 154.3481
755.9760, 95.63818
757.1240, 127.7734
758.2720, 74.90625
759.4190, 31.98193
760.5670, 148.9858
761.7140, 69.93848
762.8610, 3.168457
764.0080, 55.36475
765.1550, 9.323730
766.3020, 78.06982
767.4480, 16.40820
768.5950, 131.1919
769.7410, 51.05176
770.8870, 99.76904
772.0330, 136.7305
773.1780, 113.8521
774.3240, 38.12354
775.4690, 185.5039
776.6140, 7.0800997E-02
777.7590, 122.7266
778.9040, 42.53613
780.0490, 93.45703
781.1940, 107.5156
782.3380, 78.29297
783.4820, 86.05176
784.6260, 95.51758
785.7700, 55.12109
786.9140, 137.8408
788.0580, 125.7197
789.2010, 107.7515
790.3450, 59.92529
791.4880, 127.2168
792.6310, 124.6592
793.7730, 139.2520
794.9160, 145.4263
796.0590, 9.090332
797.2010, 113.8950
798.3430, 70.02246
799.4850, 25.26709
800.6270, 93.60449
801.7690, 33.07080
802.9100, 30.63232
804.0520, 46.71338
805.1930, 107.0020
806.3340, 84.24219
807.4750, 93.43311
808.6160, 116.3188
809.7560, 42.43115
810.8970, 122.4741
812.0370, 93.47119
813.1770, 51.42236
814.3170, 130.3252
815.4570, 121.1841
816.5960, 114.9722
817.7360, 123.4521
818.8750, 152.8789
820.0140, 117.0034
821.1530, 193.4268
822.2920, 340.0332
823.4310, 362.5986
824.5690, 418.1030
825.7070, 389.5894
826.8460, 425.0356
827.9840, 401.0840
829.1220, 577.2422
830.2590, 561.2344
831.3970, 640.5347
832.5340, 740.6670
833.6710, 772.1328
834.8080, 850.3262
835.9450, 812.4160
837.0820, 656.9834
838.2190, 731.6592
839.3550, 671.3706
840.4910, 621.1992
841.6270, 659.7930
842.7630, 544.6318
843.8990, 544.1260
845.0350, 582.8550
846.1700, 651.7197
847.3060, 616.5542
848.4410, 648.1519
849.5760, 477.9287
850.7100, 534.6772
851.8450, 555.3979
852.9800, 489.0908
854.1140, 516.7563
855.2480, 405.3945
856.3820, 523.0068
857.5160, 450.5928
858.6500, 470.1533
859.7830, 460.6885
860.9170, 407.1987
862.0500, 464.6846
863.1830, 454.1460
864.3160, 454.5845
865.4480, 575.9995
866.5810, 373.3916
867.7130, 534.7617
868.8460, 501.1099
869.9780, 547.4360
871.1100, 521.7412
872.2410, 534.0264
873.3730, 510.2900
874.5050, 596.5347
875.6360, 491.7598
876.7670, 509.9658
877.8980, 644.1533
879.0290, 567.3223
880.1590, 687.4741
881.2900, 628.6084
882.4200, 676.7266
883.5500, 761.8276
884.6800, 683.9131
885.8100, 748.9824
886.9400, 793.0371
888.0690, 903.0771
889.1990, 928.9297
890.3280, 929.1143
891.4570, 1017.871
892.5860, 1068.365
893.7140, 1128.979
894.8430, 1173.295
895.9710, 1345.138
897.1000, 1312.796
898.2280, 1494.911
899.3560, 1676.276
900.4830, 1858.681
901.6110, 2175.669
902.7380, 2440.668
903.8660, 2830.521
904.9930, 3271.146
906.1200, 3749.525
907.2460, 4268.933
908.3730, 4838.333
909.5000, 5408.004
910.6260, 5994.429
911.7520, 6613.607
912.8780, 7237.434
914.0040, 7699.574
915.1290, 8439.763
916.2550, 9612.776
917.3800, 10881.93
918.5050, 12679.95
919.6300, 14638.51
920.7550, 17115.52
921.8800, 20108.10
923.0040, 23953.53
924.1290, 27919.77
925.2530, 32345.20
926.3770, 37304.69
927.5010, 41571.01
928.6250, 46096.60
929.7480, 49606.35
930.8720, 51277.80
931.9950, 52011.02
933.1180, 51228.63
934.2410, 49097.08
935.3640, 45694.44
936.4860, 42277.62
937.6090, 37596.70
938.7310, 33006.03
939.8530, 28905.51
940.9750, 25251.59
942.0970, 21917.64
943.2180, 19416.80
944.3400, 17107.12
945.4610, 15522.02
946.5820, 14041.48
947.7030, 12746.89
948.8240, 11120.19
949.9450, 9716.907
951.0650, 8239.632
952.1860, 6902.439
953.3060, 5851.335
954.4260, 4982.317
955.5460, 4145.283
956.6650, 3633.331
957.7850, 3069.410
958.9040, 2646.521
960.0230, 2304.736
961.1420, 2134.881
962.2610, 1822.166
963.3800, 1651.493
964.4990, 1579.876
965.6170, 1342.296
966.7350, 1271.124
967.8530, 1069.346
968.9710, 1076.992
970.0890, 1042.687
971.2070, 961.4658
972.3240, 1023.304
973.4410, 976.2192
974.5580, 1014.183
975.6750, 1165.191
976.7920, 1192.261
977.9090, 1303.771
979.0250, 1329.517
980.1410, 1471.703
981.2580, 1531.927
982.3740, 1551.189
983.4890, 1786.492
984.6050, 1883.833
985.7200, 2146.218
986.8360, 2450.642
987.9510, 2873.706
989.0660, 3412.492
990.1810, 4025.157
991.2950, 4793.741
992.4100, 5655.367
993.5240, 6641.033
994.6390, 7709.740
995.7530, 8941.490
996.8660, 10202.28
997.9800, 11482.11
999.0940, 12696.99
1000.207, 13669.90
1001.320, 14716.86
1002.433, 15498.86
1003.546, 15734.90
1004.659, 16035.98
1005.772, 16048.11
1006.884, 15746.28
1007.996, 15088.49
1009.108, 14707.75
1010.220, 13809.05
1011.332, 12880.38
1012.444, 12018.77
1013.555, 11103.92
1014.666, 10152.68
1015.777, 9343.198
1016.888, 8353.763
1017.999, 7542.375
1019.110, 6607.028
1020.220, 5791.727
1021.331, 5104.474
1022.441, 4486.263
1023.551, 3930.097
1024.661, 3487.979
1025.770, 2947.912
1026.880, 2708.891
1027.989, 2470.918
1029.098, 2168.995
1030.207, 1994.129
1031.316, 1774.311
1032.425, 1700.544
1033.533, 1574.845
1034.642, 1529.225
1035.750, 1359.669
1036.858, 1266.199
1037.966, 1368.792
1039.073, 1162.486
1040.181, 1173.234
1041.288, 1136.076
1042.396, 918.0205
1043.503, 877.0625
1044.610, 823.1821
1045.716, 667.4180
1046.823, 697.7227
1047.929, 533.1294
1049.036, 527.6138
1050.142, 449.1895
1051.248, 420.8618
1052.353, 471.6211
1053.459, 317.4697
1054.564, 340.4102
1055.670, 284.4321
1056.775, 369.8838
1057.880, 261.2197
1058.985, 165.0767
1060.089, 205.5732
1061.194, 173.9536
1062.298, 270.4551
1063.402, 301.1533
1064.506, 304.0156
1065.610, 244.8745
1066.713, 267.9492
1067.817, 245.9800
1068.920, 270.8994
1070.023, 411.2583
1071.126, 350.5103
1072.229, 511.1763
1073.332, 595.5444
1074.435, 553.1226
1075.537, 799.5576
1076.639, 746.4482
1077.741, 1063.771
1078.843, 1301.254
1079.945, 1375.660
1081.046, 1683.573
1082.148, 1930.518
1083.249, 2281.652
1084.350, 2508.135
1085.451, 2766.148
1086.551, 2858.127
1087.652, 3035.038
1088.752, 3125.985
1089.853, 3024.970
1090.953, 2960.992
1092.053, 2592.543
1093.152, 2437.178
1094.252, 2186.552
1095.351, 1736.639
1096.451, 1646.156
1097.550, 1289.389
1098.649, 1138.704
1099.748, 803.6050
1100.846, 730.0308
1101.945, 664.7480
1103.043, 636.9253
1104.141, 475.7524
1105.239, 454.9565
1106.337, 243.9526
1107.434, 305.4678
1108.532, 192.8965
1109.629, 76.46875
1110.726, 52.12109
1111.823, 22.31250
1112.920, 24.97168
1114.017, 73.15674
1115.113, 92.86621
1116.210, 165.6021
1117.306, 200.6968
1118.402, 129.4854
1119.498, 267.3433
1120.593, 162.4028
1121.689, 477.2671
1122.784, 478.1567
1123.879, 401.0703
1124.974, 416.0234
1126.069, 396.0181
1127.164, 243.4019
1128.259, 135.4102
1129.353, 135.4419
1130.447, 181.4961
1131.541, 246.5723
1132.635, 246.6704
1133.729, 194.7910
1134.822, 78.93164
1135.916, 267.0942
1137.009, 154.2778
1138.102, 227.4814
1139.195, 250.7056
1140.288, 309.0386
1141.380, 304.1475
1142.473, 300.9165
1143.565, 274.8862
1144.657, 246.2061
1145.749, 219.9434
1146.841, 172.2993
1147.932, 166.6729
1149.024, 150.2729
1150.115, 139.6807
1151.206, 192.1694
1152.297, 175.5884
1153.388, 239.0767
1154.479, 169.5771
1155.569, 163.0063
1156.659, 111.5405
1157.750, 144.0933
1158.839, 165.9170
1159.929, 246.5366
1161.019, 180.1899
1162.108, 73.08154
1163.198, 169.7886
1164.287, 165.5127
1165.376, 81.30762
1166.465, 195.0815
1167.553, 55.87793
1168.642, 94.69238
1169.730, 95.52588
1170.818, 105.3701
1171.906, 89.22607
1172.994, 106.3081
1174.082, 137.1841
1175.170, 102.3442
1176.257, 158.2358
1177.344, 18.67627
1178.431, 40.22168
1179.518, 66.13086
1180.605, 79.06055
1181.691, 89.25244
1182.778, 56.47021
1183.864, 33.15820
1184.950, 22.48340
1186.036, 8.612793
1187.122, 14.03076
1188.207, 3.784668
1189.292, 19.70996
1190.378, 33.74854
1191.463, 88.80664
1192.548, 105.8379
1193.632, 18.97559
1194.717, 87.21484
1195.801, 42.55371
1196.886, 66.68262
1197.970, 73.04590
1199.054, 79.23145
1200.137, 110.4473
1201.221, 43.11914
1202.305, 25.21631
1203.388, 34.42676
1204.471, 151.9380
1205.554, 67.39258
1206.637, 119.8926
1207.719, 76.46777
1208.802, 27.09570
1209.884, 88.75293
1210.966, 78.47266
1212.048, 156.2495
1213.130, 12.12695
1214.212, 208.0303
1215.293, 23.06299
1216.374, 18.87109
1217.456, 79.79004
1218.536, 94.61230
1219.617, 81.54443
1220.698, 42.47266
1221.778, 18.65869
1222.859, 33.82764
1223.939, 155.0430
1225.019, 11.62988
1226.099, 57.72266
1227.178, 57.86279
1228.258, 50.56592
1229.337, 42.05566
1230.417, 32.60205
1231.496, 35.79883
1232.574, 56.82129
1233.653, 33.50879
1234.732, 104.2529
1235.810, 1.909668
1236.888, 70.03320
1237.966, 12.14014
1239.044, 118.2109
1240.122, 65.26416
1241.199, 66.29736
1242.277, 120.3120
1243.354, 161.3081
1244.431, 144.2842
1245.508, 110.2417
1246.585, 35.17871
1247.661, 109.0815
1248.738, 89.96582
1249.814, 74.83008
1250.890, 136.6699
1251.966, 144.4888
1253.042, 215.2871
1254.117, 112.0630
1255.193, 110.8164
1256.268, 79.54736
1257.343, 174.2520
1258.418, 170.9351
1259.493, 195.5981
1260.567, 232.2388
1261.642, 253.8584
1262.716, 264.4551
1263.790, 154.0278
1264.864, 275.5776
1265.938, 307.1030
1267.011, 152.6045
1268.085, 155.0820
1269.158, 134.5352
1270.231, 195.9634
1271.304, 285.3667
1272.377, 287.7446
