##NAMES=Catapleiite
##RRUFFID=R060208
##IDEAL CHEMISTRY=Na_2_Zr^4+^Si_3_O_9_&#183;2H_2_O
##LOCALITY=Mont Saint-Hilaire, Rouville County, Quebec, Canada
##OWNER=RRUFF
##SOURCE=Royal Ontario Museum
##DESCRIPTION=Colorless transparent thin tabular pseudohexagonal crystal
##STATUS=The identification of this mineral is confirmed by single-crystal X-ray diffraction and chemical analysis.
##URL=rruff.info/R060208
##MEASURED CHEMISTRY=Na_2.00_Zr_1.00_Si_3.00_O_9_Â·2H_2_O
##PIN_ID=M01705
##ORIENTATION=Laser parallel to a* (1 0 0). Fiducial mark perpendicular to laser is parallel to -b [0 -1 0]
97.44600, 0.0000000E+00
98.68300, 15.99512
99.91900, 9.306152
101.1560, 302.7075
102.3920, 451.8389
103.6280, 813.2021
104.8630, 1060.299
106.0990, 1505.182
107.3350, 1938.357
108.5700, 2191.850
109.8050, 2354.812
111.0400, 2652.217
112.2750, 2940.411
113.5100, 3119.985
114.7440, 3397.747
115.9780, 3341.704
117.2130, 3394.029
118.4470, 3185.033
119.6810, 3314.250
120.9140, 3345.554
122.1480, 3436.830
123.3810, 3578.779
124.6150, 3373.987
125.8480, 3422.993
127.0810, 3348.411
128.3130, 3469.916
129.5460, 3479.265
130.7790, 3435.234
132.0110, 3490.635
133.2430, 3169.295
134.4750, 3125.072
135.7070, 2984.850
136.9380, 2829.537
138.1700, 2684.008
139.4010, 2521.332
140.6330, 2411.581
141.8640, 2250.799
143.0950, 2234.416
144.3250, 2145.462
145.5560, 2136.819
146.7860, 2143.621
148.0160, 2015.291
149.2470, 2030.632
150.4760, 1818.035
151.7060, 1946.148
152.9360, 2078.953
154.1650, 1902.453
155.3950, 1954.677
156.6240, 1860.648
157.8530, 1882.390
159.0820, 1937.949
160.3100, 1697.551
161.5390, 1743.088
162.7670, 1822.436
163.9950, 1758.599
165.2230, 1919.589
166.4510, 1962.416
167.6790, 1950.089
168.9060, 1948.613
170.1340, 2003.016
171.3610, 2035.191
172.5880, 2183.946
173.8150, 2053.612
175.0420, 2243.911
176.2690, 2170.468
177.4950, 2176.571
178.7210, 2286.643
179.9470, 2443.706
181.1730, 2583.390
182.3990, 2665.177
183.6250, 2707.025
184.8500, 2779.809
186.0760, 2784.307
187.3010, 3050.887
188.5260, 3356.219
189.7510, 3454.904
190.9750, 3698.864
192.2000, 3829.462
193.4240, 4142.557
194.6490, 4418.955
195.8730, 4659.766
197.0970, 4873.452
198.3200, 4939.941
199.5440, 5137.673
200.7670, 5143.850
201.9910, 5061.600
203.2140, 5194.750
204.4370, 5209.635
205.6590, 5153.633
206.8820, 5149.213
208.1050, 5174.896
209.3270, 5035.676
210.5490, 5054.549
211.7710, 4906.510
212.9930, 4753.553
214.2150, 4529.216
215.4360, 4218.518
216.6570, 3883.116
217.8790, 3469.426
219.1000, 3000.953
220.3210, 2551.426
221.5410, 2478.681
222.7620, 2027.395
223.9820, 1752.559
225.2030, 1661.281
226.4230, 1364.575
227.6430, 1454.883
228.8620, 1184.204
230.0820, 909.5371
231.3010, 952.8828
232.5210, 767.2383
233.7400, 696.6045
234.9590, 495.9785
236.1780, 596.3594
237.3960, 508.7451
238.6150, 459.1377
239.8330, 361.5361
241.0510, 324.6172
242.2690, 127.0186
243.4870, 146.7734
244.7050, 331.7803
245.9230, 253.3662
247.1400, 86.23145
248.3570, 17.38086
249.5740, 224.2021
250.7910, 89.76660
252.0080, 115.1494
253.2240, 56.22852
254.4410, 16.09375
255.6570, 181.1016
256.8730, 25.75391
258.0890, 203.8076
259.3050, 83.21973
260.5210, 88.94629
261.7360, 63.95410
262.9510, 31.77148
264.1670, 72.27930
265.3820, 62.60156
266.5960, 42.24219
267.8110, 166.7109
269.0260, 69.55859
270.2400, 183.2988
271.4540, 102.9707
272.6680, 117.5723
273.8820, 271.1182
275.0960, 308.6553
276.3090, 191.2012
277.5230, 213.7373
278.7360, 213.2773
279.9490, 146.8271
281.1620, 223.3789
282.3750, 194.2539
283.5880, 312.5527
284.8000, 195.2080
286.0120, 227.8965
287.2240, 204.6318
288.4360, 162.4219
289.6480, 107.2686
290.8600, 65.17090
292.0710, 206.1309
293.2830, 112.1885
294.4940, 111.3262
295.7050, 20.54980
296.9160, 135.1621
298.1260, 14.16504
299.3370, 48.55469
300.5470, 140.0156
301.7580, 28.43457
302.9680, 35.16797
304.1770, 248.1641
305.3870, 12.53613
306.5970, 134.7021
307.8060, 121.9033
309.0150, 247.0684
310.2250, 154.2002
311.4340, 147.2988
312.6420, 152.3633
313.8510, 322.3945
315.0590, 406.3965
316.2680, 422.3691
317.4760, 368.3145
318.6840, 418.2324
319.8920, 471.1582
321.0990, 620.9795
322.3070, 623.8076
323.5140, 765.6133
324.7210, 824.3945
325.9280, 741.1523
327.1350, 905.8389
328.3420, 585.4717
329.5490, 728.9805
330.7550, 683.3428
331.9610, 651.5195
333.1670, 537.4668
334.3730, 470.2119
335.5790, 410.7734
336.7840, 394.1016
337.9900, 263.4912
339.1950, 343.4326
340.4000, 192.2559
341.6050, 258.9062
342.8100, 91.44336
344.0150, 180.9180
345.2190, 183.2695
346.4230, 188.1621
347.6280, 199.3643
348.8320, 195.5430
350.0350, 266.7080
351.2390, 316.8545
352.4430, 370.2920
353.6460, 476.4316
354.8490, 594.5645
356.0520, 665.6914
357.2550, 679.8105
358.4580, 804.9238
359.6600, 729.0312
360.8630, 812.1299
362.0650, 926.2207
363.2670, 944.3037
364.4690, 1012.375
365.6710, 947.4297
366.8720, 834.4385
368.0740, 803.4180
369.2750, 728.0625
370.4760, 668.8555
371.6770, 623.2490
372.8780, 567.1768
374.0780, 531.2666
375.2790, 486.0068
376.4790, 442.9111
377.6790, 414.8066
378.8790, 394.6934
380.0790, 378.5713
381.2790, 467.4434
382.4780, 294.3057
383.6780, 563.1582
384.8770, 406.0020
386.0760, 323.8340
387.2750, 367.6592
388.4730, 477.4756
389.6720, 598.3340
390.8700, 607.2217
392.0690, 684.2705
393.2670, 835.4395
394.4650, 768.3711
395.6620, 715.3057
396.8600, 787.2383
398.0570, 929.1660
399.2550, 1005.353
400.4520, 1076.265
401.6490, 1113.168
402.8450, 1277.057
404.0420, 1436.205
405.2390, 1616.816
406.4350, 1853.675
407.6310, 2188.715
408.8270, 2389.846
410.0230, 2572.273
411.2190, 2915.818
412.4140, 3416.769
413.6090, 3875.426
414.8050, 4540.062
416.0000, 5233.727
417.1940, 6064.658
418.3890, 6906.449
419.5840, 8051.336
420.7780, 9154.386
421.9720, 10471.98
423.1660, 11892.39
424.3600, 13542.21
425.5540, 14745.64
426.7480, 15809.46
427.9410, 16415.44
429.1340, 16445.81
430.3270, 15865.22
431.5200, 14627.70
432.7130, 13253.28
433.9060, 11565.72
435.0980, 9982.260
436.2900, 8402.892
437.4830, 7268.487
438.6750, 5972.941
439.8660, 5066.146
441.0580, 4385.611
442.2500, 3687.811
443.4410, 3204.960
444.6320, 2616.941
445.8230, 2377.837
447.0140, 2064.210
448.2050, 1997.572
449.3950, 1578.849
450.5860, 1527.687
451.7760, 1170.143
452.9660, 1161.438
454.1560, 1149.352
455.3450, 734.0439
456.5350, 800.7432
457.7240, 584.9814
458.9140, 563.2031
460.1030, 565.4082
461.2920, 493.5996
462.4810, 395.7744
463.6690, 396.9336
464.8580, 444.0771
466.0460, 251.2051
467.2340, 386.3184
468.4220, 196.4141
469.6100, 269.4980
470.7970, 386.5703
471.9850, 339.6270
473.1720, 373.1553
474.3590, 176.7139
475.5460, 273.7402
476.7330, 188.7598
477.9200, 19.76855
479.1060, 223.7637
480.2930, 62.75098
481.4790, 286.5850
482.6650, 116.5615
483.8510, 89.02637
485.0370, 93.73145
486.2220, 161.9512
487.4080, 77.99121
488.5930, 24.04395
489.7780, 86.16406
490.9630, 177.5215
492.1480, 94.74023
493.3320, 178.0400
494.5170, 39.26758
495.7010, 211.2227
496.8850, 219.1787
498.0690, 186.1426
499.2530, 234.1084
500.4360, 182.0693
501.6200, 277.0273
502.8030, 281.9854
503.9860, 360.9385
505.1690, 241.9053
506.3520, 538.8682
507.5350, 398.8398
508.7170, 499.8086
509.9000, 641.7812
511.0820, 767.7637
512.2640, 933.7432
513.4460, 764.7217
514.6270, 912.7090
515.8090, 1046.743
516.9900, 1143.777
518.1710, 1265.848
519.3530, 1314.917
520.5330, 1168.993
521.7140, 1379.067
522.8950, 1225.138
524.0750, 1320.208
525.2550, 1127.640
526.4350, 1197.773
527.6150, 868.8691
528.7950, 657.0293
529.9750, 863.4131
531.1540, 699.6182
532.3340, 570.7119
533.5130, 603.9375
534.6920, 546.6719
535.8700, 488.2266
537.0490, 495.3438
538.2280, 378.5928
539.4060, 230.8389
540.5840, 331.9219
541.7620, 182.0684
542.9400, 286.8770
544.1180, 186.0098
545.2950, 163.8555
546.4720, 146.8555
547.6500, 64.93262
548.8270, 186.3066
550.0040, 324.9609
551.1800, 115.7764
552.3570, 165.8145
553.5330, 100.2490
554.7090, 11.91797
555.8850, 287.6836
557.0610, 46.12109
558.2370, 142.1719
559.4130, 240.3096
560.5880, 492.4854
561.7630, 481.8809
562.9380, 601.7617
564.1130, 677.8027
565.2880, 891.0859
566.4630, 685.5195
567.6370, 1045.341
568.8120, 999.1943
569.9860, 989.4551
571.1600, 1151.564
572.3330, 1271.456
573.5070, 1070.529
574.6810, 909.0498
575.8540, 886.7939
577.0270, 936.3789
578.2000, 709.2891
579.3730, 512.2285
580.5460, 494.2002
581.7180, 268.9658
582.8910, 444.9346
584.0630, 338.1387
585.2350, 160.9648
586.4070, 90.50781
587.5780, 172.7939
588.7500, 294.0273
589.9210, 132.0713
591.0930, 163.2041
592.2640, 268.2500
593.4350, 298.6484
594.6050, 281.6680
595.7760, 326.6758
596.9460, 347.6719
598.1170, 449.5850
599.2870, 533.5537
600.4570, 499.5732
601.6260, 694.9785
602.7960, 630.8984
603.9650, 707.0381
605.1350, 903.9268
606.3040, 916.8115
607.4730, 1091.905
608.6420, 1061.771
609.8100, 1404.302
610.9790, 1440.961
612.1470, 1739.809
613.3150, 2075.198
614.4830, 2485.843
615.6510, 2832.985
616.8190, 3377.073
617.9860, 4022.191
619.1540, 4837.486
620.3210, 5763.913
621.4880, 6922.436
622.6550, 7998.571
623.8220, 9298.819
624.9880, 10683.60
626.1550, 12141.18
627.3210, 12977.73
628.4870, 13746.30
629.6530, 13317.85
630.8190, 12370.06
631.9840, 11096.14
633.1500, 9235.368
634.3150, 7384.682
635.4800, 5829.028
636.6450, 4547.690
637.8100, 3685.543
638.9740, 3014.504
640.1390, 2374.221
641.3030, 1886.905
642.4670, 1553.981
643.6310, 1334.620
644.7950, 1137.092
645.9590, 1033.135
647.1220, 788.2646
648.2850, 743.6602
649.4490, 647.0908
650.6120, 476.5967
651.7740, 553.5107
652.9370, 460.8730
654.1000, 292.5312
655.2620, 518.4131
656.4240, 270.1943
657.5860, 298.1318
658.7480, 186.1064
659.9100, 297.4121
661.0710, 172.0967
662.2330, 114.8047
663.3940, 161.2100
664.5550, 146.0352
665.7160, 114.0791
666.8770, 246.4102
668.0370, 67.19336
669.1980, 83.53809
670.3580, 106.0947
671.5180, 210.2900
672.6780, 105.7119
673.8380, 55.37012
674.9970, 80.74902
676.1570, 209.5908
677.3160, 140.4238
678.4750, 141.9551
679.6340, 51.69531
680.7930, 172.1309
681.9520, 74.84766
683.1100, 171.6396
684.2680, 11.22949
685.4270, 46.93555
686.5850, 153.0596
687.7420, 40.60449
688.9000, 18.39160
690.0580, 11.72461
691.2150, 118.3125
692.3720, 162.8057
693.5290, 76.21484
694.6860, 15.23730
695.8430, 109.8779
696.9990, 0.2968750
698.1560, 209.4473
699.3120, 51.42480
700.4680, 41.35840
701.6240, 87.54297
702.7800, 28.61426
703.9350, 15.20801
705.0900, 54.54492
706.2460, 53.68457
707.4010, 69.11328
708.5560, 26.38477
709.7110, 22.98145
710.8650, 66.20020
712.0200, 128.0371
713.1740, 217.7695
714.3280, 6.247070
715.4820, 79.20508
716.6360, 263.1152
717.7890, 277.9824
718.9430, 296.2490
720.0960, 11.62988
721.2490, 220.3516
722.4020, 155.0303
723.5550, 72.66504
724.7080, 108.2471
725.8600, 152.7812
727.0130, 170.2686
728.1650, 222.7100
729.3170, 195.1074
730.4690, 253.9297
731.6200, 127.8174
732.7720, 314.0762
733.9230, 267.5176
735.0740, 240.7793
736.2250, 6.072266
737.3760, 292.1592
738.5270, 202.1748
739.6780, 115.1465
740.8280, 266.0684
741.9780, 162.9453
743.1280, 335.7734
744.2780, 304.4209
745.4280, 169.2090
746.5770, 226.5400
747.7270, 95.28223
748.8760, 78.23828
750.0250, 230.9570
751.1740, 29.55859
752.3230, 92.16016
753.4720, 164.6074
754.6200, 52.08203
755.7680, 162.3555
756.9160, 43.51172
758.0640, 190.0273
759.2120, 50.14453
760.3600, 177.2402
761.5070, 146.3262
762.6550, 267.9707
763.8020, 3.916016
764.9490, 49.96289
766.0960, 117.7246
767.2420, 188.3887
768.3890, 178.4551
769.5350, 211.6992
770.6810, 186.2246
771.8270, 73.32031
772.9730, 123.6367
774.1190, 118.0195
775.2640, 21.34375
776.4100, 88.58984
777.5550, 278.7754
778.7000, 366.9121
779.8450, 74.99805
780.9900, 338.0215
782.1340, 5.996094
783.2790, 170.8867
784.4230, 30.72266
785.5670, 115.4883
786.7110, 48.19531
787.8550, 19.83594
788.9980, 169.4023
790.1420, 103.9141
791.2850, 14.36719
792.4280, 118.2559
793.5710, 64.97266
794.7140, 88.85938
795.8560, 129.1758
796.9990, 16.15820
798.1410, 165.0645
799.2830, 151.9180
800.4250, 70.71875
801.5670, 60.53711
802.7090, 62.09180
803.8500, 102.6270
804.9920, 114.1406
806.1330, 26.18750
807.2740, 130.2930
808.4150, 61.52344
809.5550, 142.8047
810.6960, 36.90039
811.8360, 78.57812
812.9760, 256.0449
814.1160, 119.9551
815.2560, 93.81641
816.3960, 259.5312
817.5350, 92.35547
818.6750, 230.0664
819.8140, 200.0625
820.9530, 273.6797
822.0920, 165.5312
823.2310, 103.1738
824.3690, 42.55273
825.5080, 128.8340
826.6460, 313.6523
827.7840, 147.2773
828.9220, 300.2715
830.0600, 168.5234
831.1970, 116.1582
832.3350, 208.6621
833.4720, 124.4883
834.6090, 172.6816
835.7460, 300.7676
836.8830, 256.8301
838.0190, 126.7031
839.1560, 252.0918
840.2920, 15.32617
841.4280, 114.3223
842.5640, 158.1602
843.7000, 230.6230
844.8360, 111.0625
845.9710, 336.1309
847.1070, 54.35938
848.2420, 233.8203
849.3770, 269.1133
850.5120, 378.9648
851.6460, 193.5879
852.7810, 236.3516
853.9150, 134.8125
855.0490, 116.2383
856.1830, 197.6309
857.3170, 268.2070
858.4510, 220.9648
859.5840, 299.6055
860.7180, 192.0410
861.8510, 183.7656
862.9840, 255.7246
864.1170, 130.7188
865.2500, 143.8574
866.3820, 89.89062
867.5150, 175.9688
868.6470, 250.6543
869.7790, 40.67188
870.9110, 70.65820
872.0430, 49.61523
873.1740, 80.61523
874.3060, 188.5156
875.4370, 159.3203
876.5680, 151.8730
877.6990, 83.50781
878.8300, 121.0625
879.9600, 53.17578
881.0910, 57.53125
882.2210, 51.01172
883.3510, 19.38281
884.4810, 0.5332030
885.6110, 94.72266
886.7410, 30.76953
887.8700, 144.3223
888.9990, 34.25195
890.1290, 13.28906
891.2580, 66.33789
892.3860, 112.6855
893.5150, 52.94922
894.6440, 46.99805
895.7720, 181.2422
896.9000, 11.48438
898.0280, 62.94531
899.1560, 73.95508
900.2840, 138.8105
901.4110, 37.31250
902.5390, 139.6328
903.6660, 8.771484
904.7930, 75.88477
905.9200, 127.4551
907.0470, 20.22656
908.1730, 29.12305
909.3000, 131.6113
910.4260, 63.28906
911.5520, 286.7402
912.6780, 279.0430
913.8030, 314.5508
914.9290, 260.0586
916.0540, 249.1406
917.1800, 340.6211
918.3050, 337.5234
919.4300, 648.2383
920.5550, 487.1211
921.6790, 842.7012
922.8040, 1036.211
923.9280, 1100.613
925.0520, 1486.570
926.1760, 1487.043
927.3000, 1897.186
928.4230, 2171.072
929.5470, 2323.023
930.6700, 2329.783
931.7930, 2479.473
932.9160, 2682.797
934.0390, 2424.707
935.1620, 2434.566
936.2840, 2000.691
937.4070, 1984.361
938.5290, 1579.373
939.6510, 1485.887
940.7730, 1174.506
941.8940, 1348.527
943.0160, 947.3066
944.1370, 736.4102
945.2580, 926.2578
946.3800, 888.8398
947.5000, 815.6895
948.6210, 747.0430
949.7420, 663.4023
950.8620, 608.1953
951.9820, 561.4277
953.1020, 484.1016
954.2220, 520.4629
955.3420, 439.7305
956.4620, 618.1738
957.5810, 472.3340
958.7000, 171.3105
959.8190, 465.7324
960.9380, 322.9141
962.0570, 512.5371
963.1760, 574.8672
964.2940, 669.5117
965.4120, 690.9609
966.5300, 799.9883
967.6480, 889.6797
968.7660, 999.2188
969.8840, 1121.791
971.0010, 1244.506
972.1190, 1404.232
973.2360, 1454.674
974.3530, 1526.426
975.4690, 1793.826
976.5860, 2082.320
977.7030, 2368.029
978.8190, 2674.883
979.9350, 2902.523
981.0510, 3349.441
982.1670, 3825.957
983.2830, 4380.971
984.3980, 5167.992
985.5130, 5665.094
986.6290, 6805.217
987.7440, 8010.352
988.8590, 9458.535
989.9730, 11342.69
991.0880, 13362.90
992.2020, 15688.13
993.3160, 18407.38
994.4300, 21413.63
995.5440, 24218.91
996.6580, 27706.20
997.7720, 30680.51
998.8850, 33165.83
999.9980, 35619.16
1001.111, 37354.46
1002.224, 38246.84
1003.337, 38749.22
1004.450, 38556.39
1005.562, 37992.73
1006.674, 37061.00
1007.786, 35511.46
1008.898, 34280.93
1010.010, 32075.44
1011.122, 30348.96
1012.233, 28063.50
1013.344, 26315.07
1014.455, 24217.82
1015.566, 21808.41
1016.677, 19893.48
1017.788, 17406.16
1018.898, 15172.59
1020.009, 13287.27
1021.119, 11581.07
1022.229, 9772.842
1023.339, 8779.744
1024.448, 7472.607
1025.558, 6626.652
1026.667, 6254.797
1027.776, 5313.574
1028.885, 4665.756
1029.994, 4491.967
1031.103, 4147.170
1032.211, 4080.783
1033.320, 4032.912
1034.428, 4056.225
1035.536, 4011.959
1036.644, 3901.088
1037.751, 3989.537
1038.859, 3929.961
1039.966, 3922.492
1041.074, 3496.420
1042.181, 3381.096
1043.288, 3109.682
1044.394, 2765.295
1045.501, 2754.949
1046.607, 2358.635
1047.713, 2152.344
1048.820, 1964.078
1049.925, 1827.844
1051.031, 1645.645
1052.137, 1630.447
1053.242, 1539.803
1054.348, 1637.258
1055.453, 1483.189
1056.558, 1486.156
1057.662, 1479.164
1058.767, 1688.197
1059.871, 1715.258
1060.976, 1753.359
1062.080, 1860.535
1063.184, 1821.742
1064.288, 2193.016
1065.391, 2153.318
1066.495, 2334.658
1067.598, 2671.025
1068.701, 3138.424
1069.804, 3254.852
1070.907, 3781.336
1072.010, 4270.855
1073.112, 4791.400
1074.214, 5217.973
1075.317, 5823.582
1076.419, 7006.219
1077.521, 8004.887
1078.622, 9258.020
1079.724, 10570.12
1080.825, 12351.91
1081.926, 14481.61
1083.027, 16202.49
1084.128, 18739.52
1085.229, 20506.88
1086.329, 22236.84
1087.430, 23662.57
1088.530, 24264.71
1089.630, 24245.74
1090.730, 23150.93
1091.830, 21862.84
1092.929, 19545.29
1094.029, 17652.15
1095.128, 15212.30
1096.227, 13143.48
1097.326, 11530.67
1098.425, 10025.90
1099.523, 8533.145
1100.622, 7243.266
1101.720, 6260.217
1102.818, 5406.949
1103.916, 4703.281
1105.014, 4206.643
1106.111, 3720.027
1107.209, 3409.523
1108.306, 3006.963
1109.403, 2474.889
1110.500, 2413.363
1111.597, 1982.928
1112.694, 1684.477
1113.790, 1706.736
1114.887, 1573.621
1115.983, 1110.193
1117.079, 1190.785
1118.174, 1104.389
1119.270, 1084.014
1120.366, 948.9512
1121.461, 749.6055
1122.556, 952.5664
1123.651, 735.2539
1124.746, 653.9551
1125.841, 811.6758
1126.935, 644.4121
1128.030, 665.1602
1129.124, 532.2480
1130.218, 593.2832
1131.312, 470.4434
1132.405, 413.3379
1133.499, 530.4512
1134.592, 636.4238
1135.686, 500.6367
1136.779, 417.5098
1137.871, 211.4453
1138.964, 472.7285
1140.057, 380.6973
1141.149, 273.6230
1142.241, 188.5566
1143.334, 275.2363
1144.425, 406.7266
1145.517, 484.0234
1146.609, 198.2695
1147.700, 255.5156
1148.791, 90.47266
1149.883, 182.8691
1150.974, 157.4746
1152.064, 174.9805
1153.155, 106.7168
1154.245, 198.2344
1155.336, 114.8984
1156.426, 78.35547
1157.516, 14.22070
1158.606, 108.9707
1159.695, 91.73828
1160.785, 219.5117
1161.874, 197.5176
1162.963, 223.1875
1164.052, 154.3496
1165.141, 201.6699
1166.230, 125.3594
1167.318, 24.71680
1168.406, 217.1250
1169.495, 196.8125
1170.583, 244.2383
1171.670, 35.94336
1172.758, 244.5840
1173.846, 34.04883
1174.933, 153.5156
1176.020, 189.6797
1177.107, 73.28516
1178.194, 194.7480
1179.281, 181.5898
1180.367, 283.1621
1181.454, 280.1816
1182.540, 282.6406
1183.626, 362.0977
1184.712, 154.5527
1185.798, 329.0078
1186.883, 112.4668
1187.969, 258.1562
1189.054, 7.601563
1190.139, 293.0430
1191.224, 301.4824
1192.309, 242.9141
1193.393, 243.4531
1194.478, 196.8242
1195.562, 240.2969
1196.646, 126.7109
1197.730, 97.05859
1198.814, 108.9141
1199.897, 20.30859
1200.981, 51.69727
1202.064, 71.32422
1203.147, 36.05664
1204.230, 91.70508
1205.313, 42.42383
1206.396, 89.77539
1207.478, 146.1191
1208.560, 11.54688
1209.642, 100.2285
1210.724, 73.02930
1211.806, 121.7188
1212.888, 29.55664
1213.969, 3.724609
1215.051, 47.12109
1216.132, 202.0000
1217.213, 65.89062
1218.294, 10.17383
1219.374, 109.5020
1220.455, 116.4609
1221.535, 62.50000
1222.616, 149.5703
1223.696, 90.75391
1224.775, 65.12891
1225.855, 201.8691
1226.935, 146.2812
1228.014, 154.9648
1229.093, 92.72656
1230.172, 5.416016
1231.251, 53.24414
1232.330, 173.9492
1233.408, 203.6895
1234.487, 137.8867
1235.565, 173.2617
1236.643, 63.38281
1237.721, 164.1582
1238.799, 8.291016
1239.876, 211.2246
1240.954, 79.72656
1242.031, 90.21094
1243.108, 56.32422
1244.185, 1.175781
1245.262, 186.1973
1246.338, 114.5527
1247.415, 115.8906
1248.491, 226.2090
1249.567, 107.4922
1250.643, 161.7168
1251.719, 49.90625
1252.795, 165.0723
1253.870, 258.3398
1254.945, 213.2207
1256.021, 130.4141
1257.096, 132.4922
1258.170, 55.80273
1259.245, 73.84766
1260.320, 50.71680
1261.394, 119.7148
1262.468, 72.89648
1263.542, 111.8574
1264.616, 59.79688
1265.690, 146.7109
1266.763, 9.896484
1267.836, 59.94727
1268.910, 140.1289
1269.983, 158.9219
1271.055, 217.6973
1272.128, 43.44727
1273.201, 54.16992
1274.273, 104.1367
1275.345, 106.4551
