##NAMES=Catapleiite
##RRUFFID=R060198
##IDEAL CHEMISTRY=Na_2_Zr^4+^Si_3_O_9_&#183;2H_2_O
##LOCALITY=Mont Saint-Hilaire, Rouville County, Quebec, Canada
##OWNER=RRUFF
##SOURCE=Royal Ontario Museum
##DESCRIPTION=Tan colored pseudohexagonal tabular crystals
##STATUS=The identification of this mineral has been confirmed by X-ray diffraction and chemical analysis
##URL=rruff.info/R060198
##MEASURED CHEMISTRY=(Na_1.92_Ca_0.04_[box]_0.04_)_Σ=2_Zr_1.00_Si_3.00_O_9_·2H_2_O
##PIN_ID=L00755
##ORIENTATION=Laser parallel to -a* (-1 0 0). Fiducial mark perpendicular to laser is parallel to -b [0 -1 0]
95.94800, 0.0000000E+00
97.18200, 70.25879
98.41600, 3.166992
99.64900, 16.50977
100.8830, 125.9746
102.1160, 24.26758
103.3490, 114.6006
104.5820, 222.8281
105.8150, 473.0732
107.0470, 1016.644
108.2800, 976.0352
109.5120, 1132.037
110.7440, 1190.207
111.9760, 1138.610
113.2080, 1360.574
114.4400, 1450.976
115.6710, 1493.117
116.9030, 1468.290
118.1340, 1513.348
119.3650, 1301.227
120.5960, 1187.445
121.8270, 1242.469
123.0580, 1339.900
124.2880, 1478.443
125.5190, 1389.880
126.7490, 1380.052
127.9790, 1358.852
129.2090, 1627.430
130.4390, 1734.315
131.6680, 1839.938
132.8980, 1890.341
134.1270, 2032.111
135.3560, 2218.830
136.5850, 2325.608
137.8140, 2579.922
139.0430, 2816.397
140.2710, 2905.714
141.5000, 3087.789
142.7280, 3224.042
143.9560, 3374.555
145.1840, 3543.177
146.4120, 3720.967
147.6390, 4056.233
148.8670, 4104.908
150.0940, 4363.152
151.3210, 4557.061
152.5490, 4647.713
153.7750, 4828.184
155.0020, 4887.540
156.2290, 4937.880
157.4550, 5191.312
158.6810, 4932.906
159.9080, 4747.676
161.1340, 4814.156
162.3590, 4574.630
163.5850, 4436.387
164.8110, 4257.299
166.0360, 3860.817
167.2610, 3699.652
168.4860, 3355.737
169.7110, 3273.021
170.9360, 3035.145
172.1610, 2832.682
173.3850, 2495.237
174.6100, 2530.199
175.8340, 2462.076
177.0580, 2200.170
178.2820, 2360.254
179.5050, 2128.225
180.7290, 2012.204
181.9520, 1963.775
183.1760, 2141.044
184.3990, 2146.237
185.6220, 2180.924
186.8450, 2418.940
188.0670, 2347.648
189.2900, 2412.268
190.5120, 2576.172
191.7340, 2682.473
192.9560, 3012.375
194.1780, 3034.299
195.4000, 3212.234
196.6220, 3373.174
197.8430, 3390.111
199.0640, 3743.037
200.2860, 3886.947
201.5070, 3934.837
202.7270, 4050.700
203.9480, 4024.531
205.1690, 3713.322
206.3890, 3666.064
207.6090, 3668.745
208.8290, 3509.371
210.0490, 3411.886
211.2690, 3292.329
212.4890, 3027.758
213.7080, 2832.006
214.9280, 2608.200
216.1470, 2387.766
217.3660, 2107.806
218.5850, 1870.999
219.8030, 1558.062
221.0220, 1360.185
222.2400, 1178.828
223.4590, 953.2598
224.6770, 788.0215
225.8950, 632.8623
227.1120, 498.8828
228.3300, 401.2441
229.5480, 317.7900
230.7650, 291.2402
231.9820, 269.5967
233.1990, 135.8633
234.4160, 153.0332
235.6330, 112.0918
236.8490, 94.02051
238.0660, 98.80664
239.2820, 76.57129
240.4980, 74.87598
241.7140, 34.07617
242.9300, 123.8477
244.1460, 100.0098
245.3610, 51.44141
246.5770, 59.35938
247.7920, 190.1826
249.0070, 248.3887
250.2220, 184.2451
251.4370, 263.1602
252.6510, 70.18066
253.8660, 171.2744
255.0800, 122.4902
256.2940, 155.8291
257.5080, 27.31348
258.7220, 351.0801
259.9360, 405.3818
261.1490, 151.5869
262.3630, 68.32227
263.5760, 73.39941
264.7890, 232.6523
266.0020, 128.1299
267.2150, 80.81445
268.4270, 239.6943
269.6400, 211.8154
270.8520, 171.1709
272.0640, 196.7490
273.2760, 156.8154
274.4880, 60.58008
275.7000, 114.7959
276.9120, 43.21582
278.1230, 11.82715
279.3340, 83.37207
280.5450, 63.38965
281.7560, 223.2061
282.9670, 326.8242
284.1780, 410.2490
285.3880, 618.4756
286.5980, 662.5000
287.8090, 762.3203
289.0190, 910.9404
290.2290, 1049.368
291.4380, 1332.612
292.6480, 1322.680
293.8570, 1582.579
295.0670, 1661.315
296.2760, 1526.896
297.4850, 1626.325
298.6930, 1612.608
299.9020, 1452.752
301.1110, 1478.762
302.3190, 1199.640
303.5270, 1265.391
304.7350, 1122.020
305.9430, 1174.528
307.1510, 1158.909
308.3580, 948.1465
309.5660, 863.2266
310.7730, 1031.129
311.9800, 934.8408
313.1870, 948.3574
314.3940, 939.6035
315.6010, 774.5518
316.8070, 789.1807
318.0130, 834.4521
319.2200, 788.2881
320.4260, 646.7471
321.6310, 780.8604
322.8370, 705.6914
324.0430, 628.4463
325.2480, 646.0225
326.4540, 599.2793
327.6590, 735.2676
328.8640, 656.8906
330.0680, 592.1934
331.2730, 472.2490
332.4780, 491.0898
333.6820, 477.8076
334.8860, 354.4453
336.0900, 351.0303
337.2940, 271.1787
338.4980, 244.0967
339.7010, 151.5820
340.9050, 203.9756
342.1080, 183.4570
343.3110, 249.8477
344.5140, 220.2070
345.7170, 276.5361
346.9200, 229.8369
348.1220, 161.1094
349.3240, 328.3496
350.5270, 242.5664
351.7290, 327.7559
352.9310, 501.9209
354.1320, 489.0645
355.3340, 577.1875
356.5350, 749.2920
357.7370, 791.3770
358.9380, 764.4434
360.1390, 876.4883
361.3400, 863.5107
362.5400, 970.5078
363.7410, 874.4766
364.9410, 1017.419
366.1410, 1072.338
367.3410, 1009.236
368.5410, 1073.115
369.7410, 941.7217
370.9400, 997.9043
372.1400, 1006.122
373.3390, 1007.994
374.5380, 951.2119
375.7370, 864.2510
376.9360, 795.1191
378.1350, 864.9688
379.3330, 916.2930
380.5310, 696.7930
381.7300, 771.9043
382.9280, 736.2959
384.1260, 849.5801
385.3230, 729.5127
386.5210, 804.9092
387.7180, 823.6143
388.9160, 731.8379
390.1130, 691.1445
391.3100, 858.9707
392.5060, 938.5957
393.7030, 837.5977
394.9000, 919.6309
396.0960, 815.7178
397.2920, 823.9395
398.4880, 1149.822
399.6840, 1177.775
400.8800, 1254.646
402.0750, 1286.592
403.2710, 1625.170
404.4660, 1870.965
405.6610, 2119.588
406.8560, 2342.008
408.0510, 2810.121
409.2450, 3125.258
410.4400, 3792.979
411.6340, 4171.690
412.8280, 5060.463
414.0220, 5913.019
415.2160, 6938.168
416.4100, 8234.766
417.6030, 9606.940
418.7970, 11124.22
419.9900, 12954.15
421.1830, 15040.64
422.3760, 17358.16
423.5690, 19634.84
424.7610, 21741.14
425.9540, 23261.59
427.1460, 24215.90
428.3380, 23853.56
429.5300, 23012.09
430.7220, 21335.81
431.9140, 19298.89
433.1050, 17186.97
434.2970, 15170.05
435.4880, 13161.13
436.6790, 11223.20
437.8700, 9635.281
439.0610, 8390.357
440.2510, 7198.436
441.4420, 6283.515
442.6320, 5502.598
443.8220, 4977.683
445.0120, 4092.772
446.2020, 3756.868
447.3910, 3532.967
448.5810, 3139.072
449.7700, 2676.185
450.9600, 2537.303
452.1490, 2178.431
453.3370, 2018.564
454.5260, 1815.710
455.7150, 1600.863
456.9030, 1468.029
458.0910, 1303.556
459.2800, 1229.398
460.4670, 1053.605
461.6550, 930.8301
462.8430, 835.5410
464.0300, 823.3174
465.2180, 708.6025
466.4050, 722.9092
467.5920, 577.2207
468.7790, 540.5762
469.9650, 564.8662
471.1520, 422.2754
472.3380, 399.7129
473.5250, 407.1436
474.7110, 388.1338
475.8970, 184.2656
477.0820, 279.4180
478.2680, 174.1182
479.4540, 333.8936
480.6390, 248.4326
481.8240, 67.92676
483.0090, 114.1357
484.1940, 110.6367
485.3780, 14.12402
486.5630, 167.9961
487.7470, 115.8125
488.9320, 155.9395
490.1160, 152.9551
491.3000, 68.82227
492.4830, 65.51270
493.6670, 30.98438
494.8500, 168.9297
496.0340, 49.56543
497.2170, 104.2715
498.4000, 188.0869
499.5820, 174.0078
500.7650, 293.0498
501.9480, 285.2139
503.1300, 362.4922
504.3120, 290.8857
505.4940, 448.3652
506.6760, 508.9277
507.8580, 702.5781
509.0390, 741.3379
510.2210, 812.2051
511.4020, 1012.122
512.5830, 1211.114
513.7640, 1357.168
514.9450, 1562.278
516.1250, 1706.486
517.3060, 1888.261
518.4860, 2046.202
519.6660, 2212.714
520.8460, 2370.327
522.0260, 2472.045
523.2060, 2541.864
524.3850, 2522.789
525.5650, 2666.817
526.7440, 2591.979
527.9230, 2657.516
529.1020, 2759.869
530.2810, 2727.938
531.4590, 2684.043
532.6380, 2769.734
533.8160, 2693.808
534.9940, 2726.716
536.1720, 2616.767
537.3500, 2665.275
538.5270, 2692.139
539.7050, 2624.902
540.8820, 2765.843
542.0590, 2796.854
543.2360, 2971.844
544.4130, 3106.073
545.5900, 3212.176
546.7660, 3517.226
547.9430, 3649.394
549.1190, 3870.441
550.2950, 4376.812
551.4710, 4898.298
552.6470, 5345.902
553.8220, 6264.805
554.9980, 6991.809
556.1730, 8135.239
557.3480, 9671.772
558.5230, 11052.01
559.6980, 13075.27
560.8730, 15417.32
562.0470, 17767.05
563.2220, 20120.89
564.3960, 22606.07
565.5700, 24582.48
566.7440, 26513.61
567.9170, 27869.65
569.0910, 28329.55
570.2640, 28423.49
571.4380, 27662.12
572.6110, 25968.92
573.7840, 24158.92
574.9570, 21838.62
576.1290, 18834.31
577.3020, 16280.19
578.4740, 13960.90
579.6460, 11727.63
580.8180, 9587.383
581.9900, 8011.156
583.1620, 6620.955
584.3330, 5419.771
585.5040, 4659.607
586.6760, 3783.467
587.8470, 3130.345
589.0180, 2711.241
590.1880, 2197.158
591.3590, 2067.094
592.5290, 1710.047
593.7000, 1663.020
594.8700, 1511.010
596.0400, 1423.016
597.2090, 1110.040
598.3790, 1230.080
599.5490, 1058.137
600.7180, 1030.209
601.8870, 1015.298
603.0560, 983.4014
604.2250, 1274.519
605.3940, 1347.650
606.5620, 1414.796
607.7300, 1479.955
608.8990, 1714.126
610.0670, 1906.312
611.2350, 2347.507
612.4020, 2747.716
613.5700, 3405.110
614.7370, 3962.341
615.9050, 4841.967
617.0720, 5793.312
618.2390, 7083.155
619.4060, 8564.257
620.5720, 10278.27
621.7390, 12780.41
622.9050, 15358.87
624.0710, 18565.89
625.2370, 21728.61
626.4030, 24613.26
627.5690, 26521.40
628.7340, 26767.77
629.9000, 25572.03
631.0650, 22830.63
632.2300, 19521.65
633.3950, 16047.58
634.5600, 12913.63
635.7240, 10005.21
636.8890, 8163.920
638.0530, 6325.141
639.2170, 5206.709
640.3810, 4171.525
641.5450, 3358.812
642.7080, 2572.741
643.8720, 2156.988
645.0350, 1712.283
646.1980, 1620.409
647.3610, 1380.442
648.5240, 999.2139
649.6870, 853.9004
650.8490, 714.1367
652.0120, 625.6357
653.1740, 506.4229
654.3360, 439.2461
655.4980, 351.8145
656.6600, 305.8838
657.8210, 303.7891
658.9830, 155.3301
660.1440, 287.3252
661.3050, 269.5879
662.4660, 166.1377
663.6270, 139.9248
664.7870, 76.00977
665.9480, 202.1416
667.1080, 5.885742
668.2680, 129.1328
669.4280, 103.3984
670.5880, 67.39258
671.7480, 153.0840
672.9070, 30.25098
674.0670, 122.2324
675.2260, 116.0557
676.3850, 30.75977
677.5440, 77.87891
678.7030, 33.44141
679.8610, 22.66992
681.0200, 34.84570
682.1780, 70.24902
683.3360, 36.03809
684.4940, 79.05371
685.6520, 105.0156
686.8090, 90.92383
687.9670, 144.7773
689.1240, 92.57812
690.2810, 99.61230
691.4380, 100.0107
692.5950, 52.64160
693.7520, 64.21289
694.9080, 8.723633
696.0650, 36.83301
697.2210, 61.47559
698.3770, 24.21875
699.5330, 17.04590
700.6880, 62.04590
701.8440, 58.07227
702.9990, 10.96582
704.1550, 78.08789
705.3100, 55.32910
706.4650, 1.676758
707.6190, 113.8926
708.7740, 114.3955
709.9290, 195.8320
711.0830, 166.2031
712.2370, 125.5088
713.3910, 208.7471
714.5450, 214.9199
715.6980, 181.0264
716.8520, 394.0664
718.0050, 346.0420
719.1580, 455.9512
720.3110, 533.7939
721.4640, 502.5713
722.6170, 649.2812
723.7700, 832.9248
724.9220, 908.5010
726.0740, 919.0107
727.2260, 1059.453
728.3780, 1067.827
729.5300, 1213.134
730.6810, 1434.373
731.8330, 1439.542
732.9840, 1464.644
734.1350, 1452.676
735.2860, 1415.369
736.4370, 1382.474
737.5880, 1321.357
738.7380, 1235.113
739.8880, 1207.799
741.0390, 1066.415
742.1890, 943.9600
743.3380, 815.4355
744.4880, 851.8408
745.6380, 762.1768
746.7870, 601.4404
747.9360, 367.6348
749.0850, 374.7578
750.2340, 414.8086
751.3830, 245.7891
752.5310, 321.6973
753.6800, 198.5322
754.8280, 44.29395
755.9760, 153.9609
757.1240, 4.450195
758.2720, 49.97949
759.4190, 96.34863
760.5670, 55.40430
761.7140, 60.69629
762.8610, 71.69531
764.0080, 72.37402
765.1550, 110.3906
766.3020, 55.07617
767.4480, 15.66699
768.5950, 196.8545
769.7410, 123.5986
770.8870, 201.5273
772.0330, 107.6816
773.1780, 116.0137
774.3240, 38.52734
775.4690, 190.1816
776.6140, 180.0557
777.7590, 232.1455
778.9040, 240.1064
780.0490, 219.0537
781.1940, 208.8662
782.3380, 98.90723
783.4820, 97.11914
784.6260, 112.5000
785.7700, 189.0576
786.9140, 188.8320
788.0580, 26.17773
789.2010, 60.91406
790.3450, 3.154297
791.4880, 29.49023
792.6310, 129.9648
793.7730, 107.6006
794.9160, 154.4043
796.0590, 118.4004
797.2010, 95.56738
798.3430, 117.5947
799.4850, 92.23047
800.6270, 98.04199
801.7690, 104.8496
802.9100, 75.84668
804.0520, 71.92383
805.1930, 34.44922
806.3340, 10.81543
807.4750, 2.303711
808.6160, 39.34961
809.7560, 64.40625
810.8970, 93.40527
812.0370, 115.6270
813.1770, 128.7822
814.3170, 365.5371
815.4570, 177.0195
816.5960, 323.6318
817.7360, 211.1230
818.8750, 403.5918
820.0140, 303.1338
821.1530, 491.4590
822.2920, 322.8916
823.4310, 490.3613
824.5690, 590.7012
825.7070, 720.1953
826.8460, 704.4014
827.9840, 807.5674
829.1220, 737.6670
830.2590, 764.5010
831.3970, 1096.314
832.5340, 1088.771
833.6710, 1123.189
834.8080, 1442.970
835.9450, 1224.783
837.0820, 1243.840
838.2190, 1187.259
839.3550, 1291.603
840.4910, 1059.619
841.6270, 1154.410
842.7630, 1096.480
843.8990, 954.6367
845.0350, 1036.924
846.1700, 1054.156
847.3060, 966.6758
848.4410, 903.0176
849.5760, 1006.136
850.7100, 1007.550
851.8450, 803.9395
852.9800, 945.1367
854.1140, 915.4834
855.2480, 800.7930
856.3820, 632.0635
857.5160, 607.2988
858.6500, 585.4951
859.7830, 582.6582
860.9170, 492.7842
862.0500, 520.8760
863.1830, 526.9326
864.3160, 606.9551
865.4480, 576.9473
866.5810, 545.9053
867.7130, 479.8320
868.8460, 458.4062
869.9780, 379.5918
871.1100, 438.4268
872.2410, 405.2324
873.3730, 496.0088
874.5050, 435.7568
875.6360, 536.4785
876.7670, 409.1719
877.8980, 593.8389
879.0290, 495.4814
880.1590, 547.0986
881.2900, 704.4990
882.4200, 604.6084
883.5500, 978.8047
884.6800, 636.3271
885.8100, 672.8271
886.9400, 890.3066
888.0690, 868.5908
889.1990, 789.0293
890.3280, 815.0654
891.4570, 886.3750
892.5860, 1019.179
893.7140, 1018.578
894.8430, 1008.832
895.9710, 1113.836
897.1000, 1291.012
898.2280, 1433.617
899.3560, 1593.565
900.4830, 1799.948
901.6110, 2002.984
902.7380, 2344.235
903.8660, 2736.594
904.9930, 3248.611
906.1200, 3883.200
907.2460, 4290.879
908.3730, 4798.436
909.5000, 5512.461
910.6260, 6037.348
911.7520, 6629.719
912.8780, 7337.732
914.0040, 7866.494
915.1290, 8380.780
916.2550, 9333.414
917.3800, 10526.75
918.5050, 11889.03
919.6300, 13766.48
920.7550, 16047.01
921.8800, 18728.80
923.0040, 21674.68
924.1290, 24730.02
925.2530, 28896.09
926.3770, 32755.86
927.5010, 36768.61
928.6250, 40318.61
929.7480, 43713.14
930.8720, 45390.85
931.9950, 46673.99
933.1180, 46252.72
934.2410, 44428.22
935.3640, 42134.51
936.4860, 38793.56
937.6090, 34807.31
938.7310, 30662.05
939.8530, 27489.19
940.9750, 24314.87
942.0970, 21485.17
943.2180, 19386.46
944.3400, 17364.71
945.4610, 15934.49
946.5820, 14235.49
947.7030, 12980.68
948.8240, 11362.97
949.9450, 9713.659
951.0650, 8071.383
952.1860, 6889.229
953.3060, 5754.152
954.4260, 4767.146
955.5460, 4029.243
956.6650, 3437.394
957.7850, 3236.588
958.9040, 2674.873
960.0230, 2536.207
961.1420, 2227.608
962.2610, 2136.079
963.3800, 1869.598
964.4990, 1513.166
965.6170, 1645.786
966.7350, 1448.474
967.8530, 1539.219
968.9710, 1616.025
970.0890, 1631.904
971.2070, 1615.847
972.3240, 1741.851
973.4410, 1743.908
974.5580, 1767.018
975.6750, 2014.479
976.7920, 2138.488
977.9090, 2517.861
979.0250, 2875.301
980.1410, 3164.795
981.2580, 3632.347
982.3740, 3959.958
983.4890, 4507.626
984.6050, 5191.351
985.7200, 6073.127
986.8360, 6893.963
987.9510, 8098.854
989.0660, 9628.799
990.1810, 11121.80
991.2950, 13186.86
992.4100, 15642.98
993.5240, 18571.15
994.6390, 21405.39
995.7530, 25018.68
996.8660, 28067.02
997.9800, 31819.43
999.0940, 34352.89
1000.207, 37349.42
1001.320, 39354.00
1002.433, 41277.64
1003.546, 42095.35
1004.659, 42058.11
1005.772, 42003.93
1006.884, 41173.81
1007.996, 39715.77
1009.108, 37560.77
1010.220, 35243.84
1011.332, 33122.96
1012.444, 30463.16
1013.555, 28243.41
1014.666, 25778.73
1015.777, 23290.10
1016.888, 20874.54
1017.999, 18899.05
1019.110, 16737.62
1020.220, 14627.25
1021.331, 13004.95
1022.441, 11567.71
1023.551, 10254.54
1024.661, 9032.429
1025.770, 8047.397
1026.880, 7318.434
1027.989, 6525.555
1029.098, 5946.780
1030.207, 5360.074
1031.316, 4883.582
1032.425, 4706.945
1033.533, 4199.649
1034.642, 4189.305
1035.750, 4107.029
1036.858, 3721.832
1037.966, 3799.723
1039.073, 3574.754
1040.181, 3376.910
1041.288, 3197.209
1042.396, 2955.629
1043.503, 2921.169
1044.610, 2856.812
1045.716, 2704.596
1046.823, 2189.672
1047.929, 2146.748
1049.036, 1943.978
1050.142, 1463.580
1051.248, 1680.816
1052.353, 1320.072
1053.459, 1323.830
1054.564, 1225.707
1055.670, 1196.153
1056.775, 1063.173
1057.880, 970.4121
1058.985, 875.7559
1060.089, 902.4043
1061.194, 865.9746
1062.298, 854.9043
1063.402, 816.0742
1064.506, 944.2559
1065.610, 753.6055
1066.713, 663.6680
1067.817, 706.9766
1068.920, 845.3047
1070.023, 968.9609
1071.126, 816.3027
1072.229, 861.3828
1073.332, 994.2441
1074.435, 1135.250
1075.537, 1222.895
1076.639, 1334.145
1077.741, 1558.434
1078.843, 1829.758
1079.945, 2172.885
1081.046, 2330.729
1082.148, 2795.371
1083.249, 3318.047
1084.350, 3620.174
1085.451, 3952.742
1086.551, 4282.576
1087.652, 4628.086
1088.752, 4572.691
1089.853, 4688.311
1090.953, 4280.301
1092.053, 3868.049
1093.152, 3848.537
1094.252, 3158.662
1095.351, 2911.521
1096.451, 2528.680
1097.550, 2215.633
1098.649, 2022.754
1099.748, 1455.049
1100.846, 1305.137
1101.945, 934.2676
1103.043, 1036.701
1104.141, 734.9199
1105.239, 669.1816
1106.337, 572.4883
1107.434, 270.8359
1108.532, 278.4570
1109.629, 262.8848
1110.726, 78.26758
1111.823, 155.7773
1112.920, 178.3281
1114.017, 97.39453
1115.113, 233.0215
1116.210, 183.6875
1117.306, 204.3906
1118.402, 472.1309
1119.498, 425.9102
1120.593, 623.7246
1121.689, 721.5742
1122.784, 753.4609
1123.879, 645.3828
1124.974, 647.3398
1126.069, 482.3340
1127.164, 304.3594
1128.259, 321.4180
1129.353, 321.5117
1130.447, 174.6367
1131.541, 273.7949
1132.635, 198.9863
1133.729, 302.2090
1134.822, 308.4609
1135.916, 402.7461
1137.009, 74.05859
1138.102, 222.4043
1139.195, 180.7793
1140.288, 101.1816
1141.380, 175.6133
1142.473, 215.0723
1143.565, 330.5605
1144.657, 117.0742
1145.749, 342.6191
1146.841, 79.18555
1147.932, 339.7812
1149.024, 365.4004
1150.115, 296.5781
1151.206, 260.2480
1152.297, 218.4590
1153.388, 68.67578
1154.479, 152.4375
1155.569, 130.2285
1156.659, 206.2168
1157.750, 286.0723
1158.839, 78.97266
1159.929, 176.9336
1161.019, 42.94336
1162.108, 210.0020
1163.198, 21.09375
1164.287, 11.78906
1165.376, 144.4023
1166.465, 187.6504
1167.553, 222.9375
1168.642, 250.5645
1169.730, 241.1094
1170.818, 195.9102
1171.906, 189.2676
1172.994, 109.6348
1174.082, 56.03125
1175.170, 44.94922
1176.257, 129.8574
1177.344, 7.714844
1178.431, 85.72461
1179.518, 29.17383
1180.605, 92.36719
1181.691, 28.71289
1182.778, 24.25000
1183.864, 39.18945
1184.950, 110.7559
1186.036, 14.79688
1187.122, 72.35547
1188.207, 110.0586
1189.292, 49.47266
1190.378, 53.11328
1191.463, 25.72266
1192.548, 124.3477
1193.632, 137.0332
1194.717, 232.7891
1195.801, 180.6680
1196.886, 171.6426
1197.970, 266.7129
1199.054, 12.92773
1200.137, 72.16406
1201.221, 25.44727
1202.305, 118.7598
1203.388, 143.1445
1204.471, 13.37695
1205.554, 35.11523
1206.637, 42.64844
1207.719, 22.22266
1208.802, 116.8301
1209.884, 78.52734
1210.966, 13.71094
1212.048, 160.0762
1213.130, 45.97461
1214.212, 97.92773
1215.293, 101.9668
1216.374, 53.09180
1217.456, 177.2793
1218.536, 19.40430
1219.617, 187.0586
1220.698, 126.3047
1221.778, 59.22656
1222.859, 33.25977
1223.939, 24.80859
1225.019, 101.5859
1226.099, 57.96289
1227.178, 82.31836
1228.258, 14.34570
1229.337, 66.93359
1230.417, 123.1875
1231.496, 92.42578
1232.574, 75.64062
1233.653, 112.8340
1234.732, 165.0078
1235.810, 231.1582
1236.888, 201.2910
1237.966, 95.59766
1239.044, 145.4004
1240.122, 73.37695
1241.199, 237.3223
1242.277, 336.2422
1243.354, 65.14062
1244.431, 287.9980
1245.508, 252.8320
1246.585, 196.6406
1247.661, 175.4219
1248.738, 292.1777
1249.814, 359.9082
1250.890, 319.6113
1251.966, 185.2871
1253.042, 345.9355
1254.117, 232.5566
1255.193, 306.1465
1256.268, 266.7129
1257.343, 296.2480
1258.418, 334.7578
1259.493, 297.2363
1260.567, 324.6836
1261.642, 411.1074
1262.716, 365.5020
1263.790, 425.8613
1264.864, 411.1230
1265.938, 428.4941
1267.011, 383.7656
1268.085, 292.0059
1269.158, 280.2129
1270.231, 601.3887
1271.304, 323.5332
1272.377, 488.6660
1273.450, 314.7656
