##NAMES=Catapleiite
##RRUFFID=R040005
##IDEAL CHEMISTRY=Na_2_Zr^4+^Si_3_O_9_&#183;2H_2_O
##LOCALITY=Langesundsfjord Eikaholmen Vestfold, Norway
##OWNER=RRUFF
##SOURCE=University of Arizona Mineral Museum
##DESCRIPTION=Brown thin tabular crystal
##STATUS=The identification of this mineral has been confirmed by X-ray diffraction and chemical analysis
##URL=rruff.info/R040005
##MEASURED CHEMISTRY=(Na_1.28_Ca_0.36_[box]_0.36_)_Σ=2_Zr_1.00_Si_3.00_O_9_·2H_2_O
##PIN_ID=L01206
##ORIENTATION=Laser parallel to c* (0 0 1). Fiducial mark perpendicular to laser is parallel to a [1 0 0]
120.5960, 0.0000000E+00
121.8270, 53.34961
123.0580, 7.662109
124.2880, 160.6250
125.5190, 49.24023
126.7490, 25.73828
127.9790, 209.3965
129.2090, 363.3789
130.4390, 337.4121
131.6680, 658.6445
132.8980, 605.4082
134.1270, 739.1426
135.3560, 974.3730
136.5850, 1234.730
137.8140, 1658.947
139.0430, 2201.855
140.2710, 2585.336
141.5000, 3053.336
142.7280, 2898.697
143.9560, 2400.207
145.1840, 2382.676
146.4120, 2054.975
147.6390, 1854.980
148.8670, 1726.609
150.0940, 1345.785
151.3210, 1712.447
152.5490, 1484.551
153.7750, 1428.207
155.0020, 1270.891
156.2290, 1330.895
157.4550, 1177.625
158.6810, 1217.000
159.9080, 1108.570
161.1340, 934.9512
162.3590, 810.7109
163.5850, 1166.824
164.8110, 1158.824
166.0360, 935.7285
167.2610, 923.5547
168.4860, 875.3164
169.7110, 877.0312
170.9360, 836.7051
172.1610, 876.3555
173.3850, 729.9883
174.6100, 663.6094
175.8340, 646.2246
177.0580, 635.8477
178.2820, 638.6367
179.5050, 792.1445
180.7290, 689.8281
181.9520, 732.5586
183.1760, 765.3223
184.3990, 625.1152
185.6220, 717.9453
186.8450, 746.5996
188.0670, 898.5020
189.2900, 900.4805
190.5120, 727.2090
191.7340, 912.5332
192.9560, 832.4434
194.1780, 768.8965
195.4000, 998.3770
196.6220, 877.4668
197.8430, 1009.312
199.0640, 1074.664
200.2860, 951.3594
201.5070, 1001.408
202.7270, 1057.988
203.9480, 914.0000
205.1690, 889.4961
206.3890, 868.7344
207.6090, 1161.064
208.8290, 903.4805
210.0490, 1041.986
211.2690, 978.5781
212.4890, 942.2578
213.7080, 1148.023
214.9280, 934.8711
216.1470, 1064.799
217.3660, 799.8047
218.5850, 901.8926
219.8030, 862.0508
221.0220, 691.2871
222.2400, 668.5957
223.4590, 734.9746
224.6770, 771.4238
225.8950, 678.9434
227.1120, 451.5312
228.3300, 575.1816
229.5480, 704.9102
230.7650, 346.7090
231.9820, 368.6191
233.1990, 144.5879
234.4160, 431.6113
235.6330, 298.7578
236.8490, 445.0703
238.0660, 344.4805
239.2820, 316.9316
240.4980, 347.4375
241.7140, 348.4570
242.9300, 319.0449
244.1460, 84.67578
245.3610, 270.3398
246.5770, 384.0488
247.7920, 27.79492
249.0070, 213.5820
250.2220, 16.40430
251.4370, 77.73047
252.6510, 258.1699
253.8660, 47.10938
255.0800, 138.9121
256.2940, 0.8925780
257.5080, 157.1641
258.7220, 245.2598
259.9360, 154.3633
261.1490, 23.47461
262.3630, 27.41211
263.5760, 139.2539
264.7890, 145.9355
266.0020, 35.10156
267.2150, 42.94727
268.4270, 131.8262
269.6400, 158.6113
270.8520, 56.27539
272.0640, 26.15625
273.2760, 272.1348
274.4880, 29.75391
275.7000, 77.15039
276.9120, 69.88477
278.1230, 111.4707
279.3340, 87.92969
280.5450, 158.7227
281.7560, 54.50000
282.9670, 211.3770
284.1780, 36.64258
285.3880, 2.576172
286.5980, 194.4238
287.8090, 147.7656
289.0190, 74.96875
290.2290, 102.3477
291.4380, 242.7285
292.6480, 40.17188
293.8570, 187.6738
295.0670, 96.22852
296.2760, 192.8359
297.4850, 326.4922
298.6930, 232.1992
299.9020, 139.9492
301.1110, 310.7402
302.3190, 349.5723
303.5270, 392.4395
304.7350, 265.3398
305.9430, 385.2676
307.1510, 547.2188
308.3580, 252.1953
309.5660, 315.1895
310.7730, 432.2070
311.9800, 274.2461
313.1870, 333.3066
314.3940, 414.3906
315.6010, 406.4980
316.8070, 443.6270
318.0130, 466.9297
319.2200, 409.9551
320.4260, 495.1523
321.6310, 483.3770
322.8370, 494.6191
324.0430, 360.8906
325.2480, 493.1816
326.4540, 303.4961
327.6590, 200.8340
328.8640, 128.1953
330.0680, 417.5781
331.2730, 365.9863
332.4780, 345.3789
333.6820, 583.7324
334.8860, 468.1074
336.0900, 214.5059
337.2940, 286.8770
338.4980, 104.2480
339.7010, 299.6445
340.9050, 326.4590
342.1080, 594.8301
343.3110, 302.1152
344.5140, 310.1875
345.7170, 371.3945
346.9200, 209.6094
348.1220, 381.6758
349.3240, 236.8730
350.5270, 333.1152
351.7290, 304.1133
352.9310, 362.3535
354.1320, 363.7207
355.3340, 371.9180
356.5350, 349.2441
357.7370, 131.6797
358.9380, 82.05859
360.1390, 100.1504
361.3400, 26.56445
362.5400, 196.0195
363.7410, 312.5020
364.9410, 381.0078
366.1410, 229.5391
367.3410, 246.0957
368.5410, 201.6777
369.7410, 97.28320
370.9400, 370.9141
372.1400, 166.5684
373.3390, 420.2441
374.5380, 185.9473
375.7370, 432.6719
376.9360, 350.4180
378.1350, 444.1875
379.3330, 386.9824
380.5310, 333.8086
381.7300, 217.6543
382.9280, 220.8770
384.1260, 274.4375
385.3230, 217.3613
386.5210, 272.3477
387.7180, 318.3516
388.9160, 355.3770
390.1130, 404.3242
391.3100, 386.3379
392.5060, 466.6309
393.7030, 389.7871
394.9000, 359.9648
396.0960, 465.6133
397.2920, 431.8301
398.4880, 294.0684
399.6840, 189.7559
400.8800, 383.7676
402.0750, 376.0664
403.2710, 359.3848
404.4660, 507.7227
405.6610, 427.0801
406.8560, 372.1465
408.0510, 419.0781
409.2450, 412.0742
410.4400, 415.7949
411.6340, 517.2949
412.8280, 492.6211
414.0220, 561.1973
415.2160, 569.2852
416.4100, 504.9902
417.6030, 818.0469
418.7970, 947.8047
419.9900, 837.0664
421.1830, 940.7246
422.3760, 799.3828
423.5690, 990.2539
424.7610, 1112.256
425.9540, 1276.686
427.1460, 1329.734
428.3380, 1547.000
429.5300, 1615.684
430.7220, 1711.125
431.9140, 1829.264
433.1050, 1792.781
434.2970, 1988.004
435.4880, 2186.242
436.6790, 2188.498
437.8700, 2327.783
439.0610, 2472.084
440.2510, 2280.404
441.4420, 2281.742
442.6320, 2169.104
443.8220, 2223.484
445.0120, 2124.070
446.2020, 1866.291
447.3910, 1903.719
448.5810, 1888.164
449.7700, 1627.623
450.9600, 1390.100
452.1490, 1137.590
453.3370, 1134.094
454.5260, 1021.613
455.7150, 976.1523
456.9030, 754.7031
458.0910, 693.2715
459.2800, 475.8555
460.4670, 440.2207
461.6550, 507.0605
462.8430, 378.6855
464.0300, 292.3242
465.2180, 282.9746
466.4050, 379.6426
467.5920, 272.3223
468.7790, 272.4043
469.9650, 327.7188
471.1520, 189.4395
472.3380, 220.1719
473.5250, 231.9160
474.7110, 170.6738
475.8970, 305.4414
477.0820, 225.2246
478.2680, 442.0195
479.4540, 41.17383
480.6390, 169.6250
481.8240, 61.43945
483.0090, 88.73633
484.1940, 106.0605
485.3780, 53.87109
486.5630, 17.31055
487.7470, 29.51172
488.9320, 82.34961
490.1160, 57.80078
491.3000, 134.9648
492.4830, 62.17969
493.6670, 183.4102
494.8500, 98.28711
496.0340, 138.9980
497.2170, 25.71875
498.4000, 126.4531
499.5820, 22.80078
500.7650, 136.9473
501.9480, 14.29102
503.1300, 28.47266
504.3120, 300.8750
505.4940, 127.6719
506.6760, 336.4824
507.8580, 373.3105
509.0390, 337.1465
510.2210, 351.9941
511.4020, 341.8496
512.5830, 356.7285
513.7640, 424.6172
514.9450, 497.5156
516.1250, 524.4219
517.3060, 448.3398
518.4860, 480.2676
519.6660, 375.2031
520.8460, 453.2402
522.0260, 452.6660
523.2060, 458.6270
524.3850, 458.4590
525.5650, 561.9336
526.7440, 351.9355
527.9230, 530.7168
529.1020, 381.7383
530.2810, 594.8125
531.4590, 493.0234
532.6380, 522.0664
533.8160, 297.7715
534.9940, 482.6035
536.1720, 476.2832
537.3500, 528.4180
538.5270, 357.4961
539.7050, 490.5742
540.8820, 352.6602
542.0590, 520.7812
543.2360, 325.0156
544.4130, 458.7930
545.5900, 595.9238
546.7660, 304.5098
547.9430, 492.8164
549.1190, 452.9766
550.2950, 262.2734
551.4710, 668.7891
552.6470, 427.0000
553.8220, 543.9375
554.9980, 480.4414
556.1730, 976.0625
557.3480, 1086.117
558.5230, 1059.523
559.6980, 1044.855
560.8730, 1169.617
562.0470, 1361.145
563.2220, 1607.734
564.3960, 1769.199
565.5700, 1995.664
566.7440, 2168.953
567.9170, 2554.168
569.0910, 2629.645
570.2640, 2849.129
571.4380, 3368.652
572.6110, 3315.180
573.7840, 3693.758
574.9570, 3818.273
576.1290, 3900.812
577.3020, 3855.352
578.4740, 3633.355
579.6460, 3802.879
580.8180, 3226.398
581.9900, 2900.914
583.1620, 2792.332
584.3330, 2765.832
585.5040, 2246.316
586.6760, 2289.793
587.8470, 1857.258
589.0180, 1643.715
590.1880, 1330.160
591.3590, 1269.594
592.5290, 989.0195
593.7000, 986.4336
594.8700, 715.8594
596.0400, 850.8164
597.2090, 827.1953
598.3790, 778.6133
599.5490, 593.0195
600.7180, 641.4180
601.8870, 553.7969
603.0560, 589.1641
604.2250, 787.5234
605.3940, 709.8750
606.5620, 817.2109
607.7300, 602.5352
608.8990, 656.8477
610.0670, 792.1445
611.2350, 871.4375
612.4020, 985.7148
613.5700, 956.9805
614.7370, 859.2305
615.9050, 1022.227
617.0720, 1015.688
618.2390, 1287.891
619.4060, 1224.082
620.5720, 1420.289
621.7390, 1592.445
622.9050, 1880.594
624.0710, 2143.473
625.2370, 2307.387
626.4030, 2741.480
627.5690, 3123.746
628.7340, 3366.027
629.9000, 3756.910
631.0650, 3780.105
632.2300, 4057.102
633.3950, 4240.039
634.5600, 3989.234
635.7240, 4387.488
636.8890, 4004.438
638.0530, 3547.508
639.2170, 2874.426
640.3810, 2486.289
641.5450, 2385.172
642.7080, 1952.484
643.8720, 1738.199
645.0350, 1175.199
646.1980, 1160.242
647.3610, 844.5664
648.5240, 891.3477
649.6870, 863.1094
650.8490, 715.8555
652.0120, 599.5703
653.1740, 591.2773
654.3360, 395.2695
655.4980, 517.9336
656.6600, 337.2578
657.8210, 231.9531
658.9830, 175.8164
660.1440, 38.53125
661.3050, 25.26953
662.4660, 423.6133
663.6270, 11.74609
664.7870, 129.7031
665.9480, 141.8789
667.1080, 126.9023
668.2680, 153.3984
669.4280, 110.6758
670.5880, 12.55859
671.7480, 218.7695
672.9070, 60.03906
674.0670, 2.070313
675.2260, 30.13672
676.3850, 114.1641
677.5440, 178.1602
678.7030, 269.1406
679.8610, 195.7188
681.0200, 130.1289
682.1780, 53.03906
683.3360, 77.35547
684.4940, 146.2031
685.6520, 93.26172
686.8090, 117.1172
687.9670, 151.3125
689.1240, 58.10156
690.2810, 56.30469
691.4380, 41.01953
692.5950, 12.58203
693.7520, 120.1289
694.9080, 126.3438
696.0650, 36.11719
697.2210, 137.2031
698.3770, 164.6680
699.5330, 110.0625
700.6880, 131.3906
701.8440, 75.63672
702.9990, 34.37500
704.1550, 298.6562
705.3100, 98.53516
706.4650, 103.5234
707.6190, 336.8945
708.7740, 245.6758
709.9290, 49.29297
711.0830, 203.0000
712.2370, 175.6836
713.3910, 89.87109
714.5450, 246.6641
715.6980, 228.1680
716.8520, 37.64844
718.0050, 464.0781
719.1580, 259.3047
720.3110, 446.6758
721.4640, 57.01562
722.6170, 463.3125
723.7700, 247.5781
724.9220, 510.8203
726.0740, 348.0273
727.2260, 512.2109
728.3780, 565.3633
729.5300, 478.1133
730.6810, 414.5781
731.8330, 373.6445
732.9840, 190.6836
734.1350, 122.6914
735.2860, 606.6641
736.4370, 596.8086
737.5880, 587.7188
738.7380, 483.6055
739.8880, 655.4609
741.0390, 376.3516
742.1890, 570.1523
743.3380, 720.1211
744.4880, 382.8594
745.6380, 340.5742
746.7870, 473.2539
747.9360, 383.9102
749.0850, 357.7266
750.2340, 429.3242
751.3830, 459.8906
752.5310, 323.4258
753.6800, 405.9375
754.8280, 410.4141
755.9760, 403.8633
757.1240, 435.2812
758.2720, 279.6758
759.4190, 364.0430
760.5670, 362.3906
761.7140, 207.7070
762.8610, 341.0117
764.0080, 518.2891
765.1550, 310.5391
766.3020, 186.7656
767.4480, 532.9688
768.5950, 345.1367
769.7410, 291.2930
770.8870, 224.4531
772.0330, 217.5977
773.1780, 139.7539
774.3240, 209.8867
775.4690, 160.9883
776.6140, 398.0625
777.7590, 77.11328
778.9040, 232.1289
780.0490, 163.1133
781.1940, 17.08203
782.3380, 148.9961
783.4820, 138.8789
784.6260, 50.73047
785.7700, 242.5430
786.9140, 240.3320
788.0580, 293.0938
789.2010, 10.82812
790.3450, 427.5078
791.4880, 122.1641
792.6310, 189.7969
793.7730, 86.40625
794.9160, 160.9844
796.0590, 123.5352
797.2010, 146.0586
798.3430, 196.4648
799.4850, 250.4609
800.6270, 137.9023
801.7690, 266.9609
802.9100, 24.64844
804.0520, 25.68359
805.1930, 299.2070
806.3340, 541.4648
807.4750, 62.66016
808.6160, 377.6953
809.7560, 152.8828
810.8970, 323.3828
812.0370, 363.7500
813.1770, 142.2461
814.3170, 268.2695
815.4570, 267.3438
816.5960, 44.40234
817.7360, 52.43750
818.8750, 365.4414
820.0140, 52.31641
821.1530, 134.6250
822.2920, 18.43359
823.4310, 44.01172
824.5690, 226.7227
825.7070, 102.5664
826.8460, 104.7148
827.9840, 288.7266
829.1220, 159.4570
830.2590, 215.4453
831.3970, 253.8711
832.5340, 24.83594
833.6710, 218.9961
834.8080, 36.46875
835.9450, 153.0469
837.0820, 187.8242
838.2190, 323.4844
839.3550, 340.7305
840.4910, 78.90234
841.6270, 119.4492
842.7630, 3.949219
843.8990, 56.47656
845.0350, 30.79297
846.1700, 46.94531
847.3060, 153.2656
848.4410, 38.49609
849.5760, 80.34766
850.7100, 95.85156
851.8450, 198.0000
852.9800, 128.1406
854.1140, 32.78906
855.2480, 57.09766
856.3820, 92.98047
857.5160, 251.0508
858.6500, 236.1992
859.7830, 199.2500
860.9170, 159.2930
862.0500, 85.32422
863.1830, 186.3477
864.3160, 60.36328
865.4480, 190.3711
866.5810, 334.3672
867.7130, 185.3633
868.8460, 419.3477
869.9780, 26.29688
871.1100, 116.6953
872.2410, 219.3438
873.3730, 275.5039
874.5050, 268.3477
875.6360, 157.1836
876.7670, 1.984375
877.8980, 142.8398
879.0290, 42.33984
880.1590, 384.4648
881.2900, 346.2578
882.4200, 317.0508
883.5500, 85.84375
884.6800, 67.37109
885.8100, 139.3906
886.9400, 119.1484
888.0690, 253.9023
889.1990, 166.6562
890.3280, 255.4023
891.4570, 51.15234
892.5860, 287.8984
893.7140, 221.6445
894.8430, 306.3828
895.9710, 87.12891
897.1000, 496.8711
898.2280, 348.6133
899.3560, 452.3672
900.4830, 479.1523
901.6110, 941.9375
902.7380, 785.6641
903.8660, 1017.449
904.9930, 856.2344
906.1200, 1017.020
907.2460, 1135.125
908.3730, 1511.594
909.5000, 1392.094
910.6260, 1567.887
911.7520, 1643.539
912.8780, 1961.336
914.0040, 2066.082
915.1290, 2156.883
916.2550, 2150.570
917.3800, 2132.512
918.5050, 2318.152
919.6300, 2346.398
920.7550, 2573.688
921.8800, 2633.844
923.0040, 3093.668
924.1290, 3435.500
925.2530, 3773.344
926.3770, 4097.184
927.5010, 4361.727
928.6250, 4536.340
929.7480, 4833.531
930.8720, 5023.324
931.9950, 5209.941
933.1180, 5621.691
934.2410, 5475.582
935.3640, 5506.484
936.4860, 5878.262
937.6090, 5768.195
938.7310, 5627.402
939.8530, 5173.543
940.9750, 5176.547
942.0970, 4850.562
943.2180, 4285.957
944.3400, 3722.000
945.4610, 3696.055
946.5820, 3254.543
947.7030, 2920.656
948.8240, 2629.789
949.9450, 2289.941
951.0650, 2029.105
952.1860, 1738.660
953.3060, 1540.367
954.4260, 1307.566
955.5460, 1104.344
956.6650, 1091.570
957.7850, 827.5703
958.9040, 1145.344
960.0230, 958.6133
961.1420, 846.8477
962.2610, 1043.664
963.3800, 942.9805
964.4990, 953.3398
965.6170, 602.7227
966.7350, 931.1211
967.8530, 573.7500
968.9710, 632.2539
970.0890, 593.6094
971.2070, 844.1406
972.3240, 784.2109
973.4410, 812.8672
974.5580, 1015.551
975.6750, 1061.148
976.7920, 1022.883
977.9090, 1265.500
979.0250, 1160.715
980.1410, 1437.703
981.2580, 1573.109
982.3740, 2028.090
983.4890, 1949.984
984.6050, 2238.102
985.7200, 2431.078
986.8360, 2970.066
987.9510, 2828.074
989.0660, 3266.113
990.1810, 3523.340
991.2950, 3717.414
992.4100, 3808.508
993.5240, 4420.633
994.6390, 4787.773
995.7530, 4841.930
996.8660, 5325.117
997.9800, 5291.320
999.0940, 5141.539
1000.207, 5823.781
1001.320, 5707.043
1002.433, 5447.320
1003.546, 5528.617
1004.659, 5216.934
1005.772, 4825.273
1006.884, 4840.441
1007.996, 4436.832
1009.108, 4331.242
1010.220, 3974.039
1011.332, 3735.566
1012.444, 3491.062
1013.555, 3064.402
1014.666, 3035.035
1015.777, 2884.625
1016.888, 2299.609
1017.999, 2174.359
1019.110, 2262.930
1020.220, 1910.746
1021.331, 1933.586
1022.441, 1624.453
1023.551, 1450.340
1024.661, 1668.254
1025.770, 1620.184
1026.880, 1462.148
1027.989, 1128.164
1029.098, 1022.227
1030.207, 837.3516
1031.316, 788.4922
1032.425, 744.4141
1033.533, 769.5234
1034.642, 747.7422
1035.750, 787.9883
1036.858, 813.2500
1037.966, 660.5312
1039.073, 780.8359
1040.181, 711.1680
1041.288, 492.5156
1042.396, 653.8867
1043.503, 458.3242
1044.610, 569.7812
1045.716, 660.2617
1046.823, 426.7695
1047.929, 507.2930
1049.036, 566.8477
1050.142, 519.4180
1051.248, 449.0352
1052.353, 218.6680
1053.459, 448.3242
1054.564, 607.0430
1055.670, 507.7852
1056.775, 325.5508
1057.880, 181.3359
1058.985, 292.1602
1060.089, 89.00000
1061.194, 434.8438
1062.298, 62.71484
1063.402, 262.6016
1064.506, 123.5156
1065.610, 157.4492
1066.713, 328.4102
1067.817, 52.44531
1068.920, 245.5039
1070.023, 67.58984
1071.126, 154.6953
1072.229, 192.8438
1073.332, 90.02344
1074.435, 315.2227
1075.537, 254.4414
1076.639, 255.6797
1077.741, 358.9375
1078.843, 31.78125
1079.945, 153.5195
1081.046, 60.83594
1082.148, 492.1406
1083.249, 516.4961
1084.350, 593.8711
1085.451, 786.2617
1086.551, 603.7109
1087.652, 675.1445
1088.752, 830.6016
1089.853, 714.0742
1090.953, 771.5781
1092.053, 660.1094
1093.152, 663.1211
1094.252, 608.9883
1095.351, 550.0625
1096.451, 495.9375
1097.550, 437.5898
1098.649, 400.2617
1099.748, 316.9492
1100.846, 289.2500
1101.945, 194.4062
1103.043, 192.1641
1104.141, 238.9336
1105.239, 145.7773
1106.337, 338.6367
1107.434, 18.50781
1108.532, 317.4180
1109.629, 334.3438
1110.726, 5.410156
1111.823, 61.61719
1112.920, 128.6406
1114.017, 43.51953
1115.113, 190.7891
1116.210, 283.7930
1117.306, 369.8281
1118.402, 426.8906
1119.498, 452.9727
1120.593, 412.0625
1121.689, 353.1680
1122.784, 332.8828
1123.879, 422.7383
1124.974, 294.2266
1126.069, 277.6758
1127.164, 378.1289
1128.259, 91.38281
1129.353, 200.6016
1130.447, 187.8281
1131.541, 279.0664
1132.635, 236.3242
1133.729, 156.5859
1134.822, 344.8594
1135.916, 229.1484
1137.009, 152.4453
1138.102, 41.75000
1139.195, 163.0508
1140.288, 160.4297
1141.380, 21.80469
1142.473, 8.406250
1143.565, 232.0000
1144.657, 269.0898
1145.749, 4.472656
1146.841, 325.9688
1147.932, 12.83594
1149.024, 391.6172
1150.115, 66.10547
1151.206, 419.9297
1152.297, 297.6289
1153.388, 247.4766
1154.479, 149.3242
1155.569, 96.72266
1156.659, 77.71094
1157.750, 53.14844
1158.839, 46.42578
1159.929, 133.1055
1161.019, 74.82031
1162.108, 76.35156
1163.198, 90.75391
1164.287, 125.1328
1165.376, 223.3242
1166.465, 153.7773
1167.553, 468.2383
1168.642, 481.9297
1169.730, 256.3906
1170.818, 287.8555
1171.906, 177.3242
1172.994, 272.1406
1174.082, 192.7031
1175.170, 395.1719
1176.257, 479.6367
1177.344, 153.3633
1178.431, 51.83203
1179.518, 305.3320
1180.605, 134.1094
1181.691, 176.5078
1182.778, 50.97266
1183.864, 465.4375
1184.950, 83.27734
1186.036, 603.7344
1187.122, 455.2539
1188.207, 203.7070
1189.292, 400.1602
1190.378, 405.6055
1191.463, 215.2891
1192.548, 152.7344
1193.632, 49.21094
1194.717, 251.6445
1195.801, 63.07812
1196.886, 123.6289
1197.970, 246.8164
1199.054, 29.23438
1200.137, 28.17188
1201.221, 308.6328
1202.305, 137.0352
1203.388, 98.78125
1204.471, 316.1719
1205.554, 178.5586
1206.637, 107.9375
1207.719, 217.3086
1208.802, 262.6758
1209.884, 312.6406
1210.966, 310.9922
1212.048, 16.66406
1213.130, 211.6523
1214.212, 133.9609
1215.293, 399.2617
1216.374, 41.55469
1217.456, 184.8398
1218.536, 211.1211
1219.617, 362.3906
1220.698, 243.6523
1221.778, 262.9023
1222.859, 19.14062
1223.939, 150.3750
1225.019, 167.5898
1226.099, 267.9219
1227.178, 323.1211
1228.258, 389.3086
1229.337, 380.2656
1230.417, 332.6523
1231.496, 302.2617
1232.574, 296.9570
1233.653, 213.0938
1234.732, 388.2148
1235.810, 237.3242
1236.888, 291.4336
1237.966, 224.5195
1239.044, 158.5977
1240.122, 67.66016
1241.199, 384.7109
1242.277, 330.5586
1243.354, 53.98828
1244.431, 99.00000
1245.508, 240.9219
1246.585, 351.8359
1247.661, 255.7148
1248.738, 334.0117
1249.814, 328.8828
1250.890, 235.1328
1251.966, 66.37109
1253.042, 104.1992
1254.117, 49.01562
1255.193, 58.81250
1256.268, 62.58984
1257.343, 114.7305
1258.418, 214.4727
1259.493, 212.4141
1260.567, 272.6680
1261.642, 240.8359
1262.716, 292.5195
1263.790, 264.1953
1264.864, 167.8516
1265.938, 413.4922
1267.011, 290.1172
1268.085, 18.09375
1269.158, 179.0703
1270.231, 37.37109
1271.304, 287.7812
1272.377, 313.1484
1273.450, 56.88672
1274.522, 212.9609
1275.594, 520.2695
1276.666, 391.2695
1277.738, 269.5820
1278.810, 157.4727
1279.882, 33.45312
1280.953, 114.5586
1282.025, 38.55078
1283.096, 84.51172
1284.167, 194.4492
1285.238, 165.3750
1286.308, 19.35547
1287.379, 53.69141
1288.449, 43.89453
1289.519, 76.01172
1290.589, 232.6328
1291.659, 19.32812
1292.729, 146.0977
1293.798, 280.0938
1294.868, 209.6406
