##NAMES=Catapleiite
##RRUFFID=R040005
##IDEAL CHEMISTRY=Na_2_Zr^4+^Si_3_O_9_&#183;2H_2_O
##LOCALITY=Langesundsfjord Eikaholmen Vestfold, Norway
##OWNER=RRUFF
##SOURCE=University of Arizona Mineral Museum
##DESCRIPTION=Brown thin tabular crystal
##STATUS=The identification of this mineral has been confirmed by X-ray diffraction and chemical analysis
##URL=rruff.info/R040005
##MEASURED CHEMISTRY=(Na_1.28_Ca_0.36_[box]_0.36_)_Σ=2_Zr_1.00_Si_3.00_O_9_·2H_2_O
##PIN_ID=L01591
##ORIENTATION=Laser parallel to b* (0 1 0). Fiducial mark perpendicular to laser is parallel to -c [0 0 -1]
120.5960, 0.0000000E+00
121.8270, 37.28320
123.0580, 105.3320
124.2880, 22.34570
125.5190, 21.49805
126.7490, 181.5488
127.9790, 30.23242
129.2090, 260.2461
130.4390, 200.8652
131.6680, 635.0137
132.8980, 342.2656
134.1270, 401.8477
135.3560, 765.0488
136.5850, 752.3945
137.8140, 1088.875
139.0430, 1365.959
140.2710, 1517.352
141.5000, 1735.322
142.7280, 1832.096
143.9560, 1999.734
145.1840, 2005.562
146.4120, 2323.109
147.6390, 2111.109
148.8670, 2653.586
150.0940, 2611.438
151.3210, 2770.871
152.5490, 3039.457
153.7750, 2929.391
155.0020, 2788.189
156.2290, 2870.816
157.4550, 2820.621
158.6810, 2589.115
159.9080, 2600.436
161.1340, 2625.441
162.3590, 2502.484
163.5850, 2439.590
164.8110, 2359.412
166.0360, 2253.826
167.2610, 2112.102
168.4860, 2045.012
169.7110, 1913.416
170.9360, 1775.168
172.1610, 1730.873
173.3850, 1564.676
174.6100, 1421.146
175.8340, 1584.570
177.0580, 1343.201
178.2820, 1505.361
179.5050, 1529.445
180.7290, 1256.383
181.9520, 1455.578
183.1760, 1399.078
184.3990, 1415.824
185.6220, 1518.225
186.8450, 1703.381
188.0670, 1729.453
189.2900, 1533.256
190.5120, 2045.510
191.7340, 1960.291
192.9560, 2222.014
194.1780, 2454.537
195.4000, 2580.277
196.6220, 2691.619
197.8430, 3076.260
199.0640, 3073.838
200.2860, 3306.166
201.5070, 3379.656
202.7270, 3686.102
203.9480, 3505.223
205.1690, 3437.383
206.3890, 3577.500
207.6090, 3491.748
208.8290, 3389.180
210.0490, 3660.783
211.2690, 3468.539
212.4890, 3379.434
213.7080, 3293.445
214.9280, 3108.559
216.1470, 2935.758
217.3660, 2747.027
218.5850, 2648.354
219.8030, 2365.725
221.0220, 2025.137
222.2400, 1975.574
223.4590, 1751.031
224.6770, 1638.500
225.8950, 1489.973
227.1120, 1229.438
228.3300, 1315.883
229.5480, 1348.293
230.7650, 1092.646
231.9820, 1032.930
233.1990, 1100.115
234.4160, 962.1914
235.6330, 1204.150
236.8490, 1221.996
238.0660, 1049.725
239.2820, 883.3477
240.4980, 824.8652
241.7140, 719.2871
242.9300, 388.6094
244.1460, 540.8398
245.3610, 480.9863
246.5770, 225.0488
247.7920, 462.0156
249.0070, 199.8984
250.2220, 106.6895
251.4370, 9.617188
252.6510, 117.9980
253.8660, 119.5195
255.0800, 35.92773
256.2940, 141.7949
257.5080, 124.3340
258.7220, 38.64844
259.9360, 63.99414
261.1490, 104.5195
262.3630, 184.3320
263.5760, 241.4043
264.7890, 244.8223
266.0020, 167.6914
267.2150, 252.5391
268.4270, 367.2852
269.6400, 153.1250
270.8520, 374.5039
272.0640, 129.2344
273.2760, 529.0430
274.4880, 384.3340
275.7000, 415.5762
276.9120, 328.0527
278.1230, 206.7539
279.3340, 128.6680
280.5450, 91.32031
281.7560, 298.0898
282.9670, 54.65430
284.1780, 28.41992
285.3880, 25.38281
286.5980, 347.4492
287.8090, 298.0957
289.0190, 574.5449
290.2290, 568.8047
291.4380, 732.8652
292.6480, 998.7402
293.8570, 1048.432
295.0670, 1118.943
296.2760, 1282.273
297.4850, 1391.432
298.6930, 1433.408
299.9020, 1503.205
301.1110, 1842.811
302.3190, 1607.209
303.5270, 1811.387
304.7350, 1862.324
305.9430, 1703.004
307.1510, 1903.418
308.3580, 1682.566
309.5660, 1813.463
310.7730, 1733.127
311.9800, 1777.566
313.1870, 1739.797
314.3940, 1757.338
315.6010, 1987.668
316.8070, 1827.334
318.0130, 1887.828
319.2200, 1967.160
320.4260, 1775.330
321.6310, 1845.342
322.8370, 1608.189
324.0430, 1741.883
325.2480, 1833.438
326.4540, 1747.838
327.6590, 1744.990
328.8640, 1649.084
330.0680, 1582.908
331.2730, 1609.480
332.4780, 1595.738
333.6820, 1608.734
334.8860, 1426.387
336.0900, 1596.688
337.2940, 1601.566
338.4980, 1662.939
339.7010, 1488.867
340.9050, 1502.316
342.1080, 1489.312
343.3110, 1397.674
344.5140, 1312.504
345.7170, 1180.018
346.9200, 1392.203
348.1220, 1411.215
349.3240, 1488.135
350.5270, 1220.027
351.7290, 1366.910
352.9310, 1372.807
354.1320, 1503.715
355.3340, 1380.633
356.5350, 1486.562
357.7370, 1468.506
358.9380, 1539.459
360.1390, 1398.422
361.3400, 1697.398
362.5400, 1570.383
363.7410, 1784.377
364.9410, 1903.387
366.1410, 1901.402
367.3410, 1985.760
368.5410, 1905.471
369.7410, 1926.521
370.9400, 1796.584
372.1400, 1613.004
373.3390, 1649.838
374.5380, 1824.863
375.7370, 1967.871
376.9360, 1820.686
378.1350, 1760.838
379.3330, 1726.467
380.5310, 1652.168
381.7300, 1940.004
382.9280, 2005.176
384.1260, 2096.715
385.3230, 1843.070
386.5210, 1747.047
387.7180, 1780.320
388.9160, 1770.201
390.1130, 1842.691
391.3100, 1834.355
392.5060, 1727.762
393.7030, 1856.141
394.9000, 1783.342
396.0960, 1784.109
397.2920, 1962.252
398.4880, 2120.750
399.6840, 2144.271
400.8800, 2130.182
402.0750, 2033.607
403.2710, 2019.691
404.4660, 2315.572
405.6610, 2142.287
406.8560, 2402.379
408.0510, 2458.246
409.2450, 2775.260
410.4400, 2848.547
411.6340, 3094.619
412.8280, 3292.662
414.0220, 3525.145
415.2160, 3687.197
416.4100, 4159.650
417.6030, 4506.195
418.7970, 5033.975
419.9900, 5312.984
421.1830, 5761.680
422.3760, 6360.176
423.5690, 6952.730
424.7610, 7566.811
425.9540, 8070.055
427.1460, 8849.779
428.3380, 9507.320
429.5300, 9894.191
430.7220, 10351.04
431.9140, 10828.51
433.1050, 10787.66
434.2970, 11063.80
435.4880, 11032.66
436.6790, 11288.65
437.8700, 11232.66
439.0610, 10924.67
440.2510, 10539.70
441.4420, 10203.95
442.6320, 9685.398
443.8220, 9200.838
445.0120, 8571.914
446.2020, 7842.000
447.3910, 7210.105
448.5810, 6751.229
449.7700, 6076.367
450.9600, 5503.529
452.1490, 5197.711
453.3370, 4357.914
454.5260, 4297.141
455.7150, 3759.391
456.9030, 3344.668
458.0910, 3186.973
459.2800, 2922.301
460.4670, 2517.656
461.6550, 2524.041
462.8430, 2313.457
464.0300, 1965.902
465.2180, 2014.379
466.4050, 1716.889
467.5920, 1467.428
468.7790, 1592.004
469.9650, 1546.609
471.1520, 1498.254
472.3380, 1230.930
473.5250, 1269.645
474.7110, 1108.398
475.8970, 1071.188
477.0820, 1072.020
478.2680, 1131.893
479.4540, 1043.238
480.6390, 953.7695
481.8240, 918.7793
483.0090, 848.8379
484.1940, 799.9473
485.3780, 641.1094
486.5630, 755.3301
487.7470, 617.6074
488.9320, 599.9453
490.1160, 671.3438
491.3000, 638.8047
492.4830, 658.3320
493.6670, 687.9180
494.8500, 722.5859
496.0340, 720.3125
497.2170, 708.1133
498.4000, 860.0137
499.5820, 924.0039
500.7650, 842.0742
501.9480, 917.2051
503.1300, 877.4004
504.3120, 1087.660
505.4940, 900.9824
506.6760, 1100.369
507.8580, 1281.814
509.0390, 1332.328
510.2210, 1513.908
511.4020, 1659.420
512.5830, 1631.297
513.7640, 1960.150
514.9450, 2187.074
516.1250, 2291.061
517.3060, 2217.137
518.4860, 2307.314
519.6660, 2325.570
520.8460, 2399.246
522.0260, 2473.336
523.2060, 2636.830
524.3850, 2571.424
525.5650, 2758.086
526.7440, 2840.816
527.9230, 2706.619
529.1020, 2644.529
530.2810, 2873.199
531.4590, 2765.238
532.6380, 2941.115
533.8160, 2908.416
534.9940, 2836.711
536.1720, 2600.604
537.3500, 2412.680
538.5270, 2627.742
539.7050, 2561.588
540.8820, 2728.549
542.0590, 2611.346
543.2360, 2699.248
544.4130, 2711.293
545.5900, 2863.736
546.7660, 2862.146
547.9430, 3054.203
549.1190, 3245.871
550.2950, 3496.566
551.4710, 3711.371
552.6470, 3678.705
553.8220, 4185.340
554.9980, 4508.422
556.1730, 4765.434
557.3480, 5521.725
558.5230, 5944.145
559.6980, 6733.631
560.8730, 7762.727
562.0470, 8622.842
563.2220, 9505.629
564.3960, 10791.11
565.5700, 11721.46
566.7440, 13030.66
567.9170, 14188.99
569.0910, 15681.09
570.2640, 16780.18
571.4380, 17777.48
572.6110, 18418.60
573.7840, 18758.58
574.9570, 18541.65
576.1290, 18323.71
577.3020, 17631.85
578.4740, 16468.62
579.6460, 15246.76
580.8180, 14123.94
581.9900, 12710.15
583.1620, 11376.39
584.3330, 9826.650
585.5040, 8739.949
586.6760, 7643.271
587.8470, 6606.621
589.0180, 6198.998
590.1880, 5352.412
591.3590, 4710.852
592.5290, 4196.318
593.7000, 3653.811
594.8700, 3508.328
596.0400, 3103.873
597.2090, 2856.439
598.3790, 3092.031
599.5490, 2900.648
600.7180, 2644.289
601.8870, 2669.951
603.0560, 2513.637
604.2250, 2639.344
605.3940, 2603.070
606.5620, 2543.822
607.7300, 2518.594
608.8990, 2568.385
610.0670, 2603.195
611.2350, 2735.025
612.4020, 3026.875
613.5700, 3314.633
614.7370, 3838.629
615.9050, 4184.531
617.0720, 4551.451
618.2390, 5137.387
619.4060, 5965.342
620.5720, 6632.311
621.7390, 7681.295
622.9050, 8978.293
624.0710, 10284.30
625.2370, 11859.33
626.4030, 13408.37
627.5690, 15149.42
628.7340, 17042.48
629.9000, 18259.55
631.0650, 18952.63
632.2300, 18972.72
633.3950, 18401.83
634.5600, 17134.09
635.7240, 15528.21
636.8890, 13546.44
638.0530, 11955.63
639.2170, 10207.55
640.3810, 8671.262
641.5450, 7125.406
642.7080, 6120.639
643.8720, 4752.791
645.0350, 3985.988
646.1980, 3326.477
647.3610, 2733.629
648.5240, 2406.408
649.6870, 1981.543
650.8490, 1762.891
652.0120, 1440.789
653.1740, 1283.646
654.3360, 932.5430
655.4980, 843.0156
656.6600, 892.0996
657.8210, 680.2793
658.9830, 522.3281
660.1440, 373.7031
661.3050, 306.9141
662.4660, 221.8340
663.6270, 290.0879
664.7870, 147.5254
665.9480, 237.5820
667.1080, 221.1113
668.2680, 49.31055
669.4280, 205.0020
670.5880, 43.60938
671.7480, 226.8203
672.9070, 26.94922
674.0670, 88.29688
675.2260, 96.59375
676.3850, 143.3633
677.5440, 11.42383
678.7030, 220.3789
679.8610, 40.02539
681.0200, 218.9512
682.1780, 36.78320
683.3360, 93.50195
684.4940, 178.4316
685.6520, 157.4473
686.8090, 138.8672
687.9670, 15.11914
689.1240, 8.437500
690.2810, 250.7949
691.4380, 35.99805
692.5950, 232.6094
693.7520, 89.17773
694.9080, 51.70312
696.0650, 87.34375
697.2210, 223.6797
698.3770, 75.30273
699.5330, 221.0957
700.6880, 200.5938
701.8440, 173.8164
702.9990, 53.65820
704.1550, 127.6016
705.3100, 22.30664
706.4650, 183.8516
707.6190, 32.64844
708.7740, 72.91797
709.9290, 1.427734
711.0830, 101.8555
712.2370, 145.5430
713.3910, 136.3965
714.5450, 224.6719
715.6980, 137.8965
716.8520, 69.14453
718.0050, 237.2578
719.1580, 316.3184
720.3110, 194.3281
721.4640, 235.2891
722.6170, 340.1953
723.7700, 653.0508
724.9220, 436.8535
726.0740, 669.6055
727.2260, 631.3027
728.3780, 811.4844
729.5300, 954.0762
730.6810, 745.6152
731.8330, 769.0996
732.9840, 1011.533
734.1350, 1087.910
735.2860, 1043.234
736.4370, 1021.504
737.5880, 1035.490
738.7380, 969.8848
739.8880, 997.9902
741.0390, 1015.043
742.1890, 963.0410
743.3380, 1015.984
744.4880, 1021.871
745.6380, 1109.703
746.7870, 996.4805
747.9360, 966.6406
749.0850, 803.8691
750.2340, 743.4785
751.3830, 673.0293
752.5310, 478.5273
753.6800, 859.9688
754.8280, 699.3555
755.9760, 541.6836
757.1240, 570.9551
758.2720, 337.1738
759.4190, 311.3340
760.5670, 271.4375
761.7140, 291.4844
762.8610, 339.4746
764.0080, 280.4121
765.1550, 553.2891
766.3020, 429.1113
767.4480, 469.6465
768.5950, 281.5859
769.7410, 395.2344
770.8870, 161.8320
772.0330, 55.37109
773.1780, 201.8203
774.3240, 79.21680
775.4690, 29.46875
776.6140, 6.716797
777.7590, 46.79297
778.9040, 203.7754
780.0490, 148.1836
781.1940, 166.5742
782.3380, 149.3887
783.4820, 133.1426
784.6260, 235.8379
785.7700, 119.4766
786.9140, 107.0508
788.0580, 137.5586
789.2010, 42.99414
790.3450, 74.68164
791.4880, 111.4844
792.6310, 127.5840
793.7730, 0.3789060
794.9160, 34.44922
796.0590, 75.34961
797.2010, 45.07812
798.3430, 6.281250
799.4850, 209.2500
800.6270, 52.27344
801.7690, 118.0703
802.9100, 191.3535
804.0520, 78.58594
805.1930, 43.25195
806.3340, 48.78516
807.4750, 54.92383
808.6160, 34.98242
809.7560, 45.06250
810.8970, 192.7402
812.0370, 278.4473
813.1770, 104.4023
814.3170, 76.56445
815.4570, 125.3828
816.5960, 118.8809
817.7360, 199.9316
818.8750, 84.58789
820.0140, 64.41797
821.1530, 12.07812
822.2920, 67.78125
823.4310, 228.2461
824.5690, 259.0996
825.7070, 49.05664
826.8460, 70.86328
827.9840, 10.54492
829.1220, 83.28711
830.2590, 55.39453
831.3970, 3.392578
832.5340, 20.22461
833.6710, 64.81055
834.8080, 17.19531
835.9450, 81.07812
837.0820, 32.56836
838.2190, 51.64062
839.3550, 239.6074
840.4910, 138.2637
841.6270, 74.15234
842.7630, 65.25781
843.8990, 69.63086
845.0350, 168.7656
846.1700, 43.23438
847.3060, 101.5449
848.4410, 49.91797
849.5760, 126.7598
850.7100, 185.3750
851.8450, 131.0293
852.9800, 4.396484
854.1140, 106.5742
855.2480, 22.17383
856.3820, 116.7539
857.5160, 135.3203
858.6500, 207.8711
859.7830, 293.4082
860.9170, 383.9316
862.0500, 74.43945
863.1830, 246.9336
864.3160, 84.58398
865.4480, 91.87109
866.5810, 98.31641
867.7130, 157.7480
868.8460, 149.1719
869.9780, 171.5859
871.1100, 121.9922
872.2410, 197.3887
873.3730, 298.7832
874.5050, 403.1680
875.6360, 354.5488
876.7670, 399.9238
877.8980, 419.2930
879.0290, 465.6602
880.1590, 294.0215
881.2900, 474.3770
882.4200, 579.7324
883.5500, 460.6836
884.6800, 616.4375
885.8100, 386.7871
886.9400, 486.1406
888.0690, 593.4902
889.1990, 635.8438
890.3280, 802.1992
891.4570, 840.5566
892.5860, 799.9180
893.7140, 935.2832
894.8430, 1038.654
895.9710, 1266.027
897.1000, 1411.408
898.2280, 1660.797
899.3560, 1867.729
900.4830, 2125.332
901.6110, 2366.029
902.7380, 2730.459
903.8660, 3090.896
904.9930, 3507.344
906.1200, 3848.803
907.2460, 4505.268
908.3730, 4896.604
909.5000, 5399.100
910.6260, 5629.498
911.7520, 6152.961
912.8780, 6659.711
914.0040, 6578.703
915.1290, 7450.275
916.2550, 7732.785
917.3800, 8136.398
918.5050, 8896.979
919.6300, 9665.297
920.7550, 10383.96
921.8800, 11668.03
923.0040, 12733.77
924.1290, 14045.33
925.2530, 15220.36
926.3770, 16803.47
927.5010, 18000.56
928.6250, 19513.10
929.7480, 20464.05
930.8720, 21405.92
931.9950, 21957.01
933.1180, 22663.79
934.2410, 22519.72
935.3640, 22411.87
936.4860, 22065.10
937.6090, 21221.94
938.7310, 20408.20
939.8530, 18875.01
940.9750, 17790.17
942.0970, 16682.86
943.2180, 15448.82
944.3400, 14059.40
945.4610, 12391.01
946.5820, 11174.65
947.7030, 9910.355
948.8240, 8856.531
949.9450, 7868.133
951.0650, 6965.357
952.1860, 6161.330
953.3060, 5380.703
954.4260, 4704.947
955.5460, 4396.090
956.6650, 4119.434
957.7850, 3855.832
958.9040, 3545.637
960.0230, 3165.193
961.1420, 3006.852
962.2610, 2726.557
963.3800, 2519.049
964.4990, 2860.949
965.6170, 2941.764
966.7350, 2704.516
967.8530, 2814.688
968.9710, 2841.947
970.0890, 3310.754
971.2070, 3346.707
972.3240, 3748.307
973.4410, 3783.584
974.5580, 4387.463
975.6750, 4843.428
976.7920, 5132.506
977.9090, 5542.648
979.0250, 6174.381
980.1410, 6828.893
981.2580, 7888.146
982.3740, 8593.633
983.4890, 9652.344
984.6050, 10872.95
985.7200, 11802.62
986.8360, 13348.35
987.9510, 14610.06
989.0660, 16188.91
990.1810, 17765.82
991.2950, 19130.80
992.4100, 21049.86
993.5240, 22182.98
994.6390, 24066.18
995.7530, 25531.45
996.8660, 26881.79
997.9800, 27774.25
999.0940, 28477.25
1000.207, 28720.89
1001.320, 28900.59
1002.433, 28607.37
1003.546, 28335.21
1004.659, 27546.12
1005.772, 26465.08
1006.884, 25347.08
1007.996, 24298.19
1009.108, 22848.35
1010.220, 21431.64
1011.332, 19995.99
1012.444, 18882.42
1013.555, 17359.94
1014.666, 16279.54
1015.777, 14804.20
1016.888, 13851.95
1017.999, 12758.80
1019.110, 11512.71
1020.220, 10728.71
1021.331, 9891.777
1022.441, 9006.934
1023.551, 7947.164
1024.661, 7472.461
1025.770, 6614.850
1026.880, 6608.463
1027.989, 6098.994
1029.098, 5635.615
1030.207, 5212.312
1031.316, 4758.078
1032.425, 4588.920
1033.533, 4322.051
1034.642, 4316.020
1035.750, 4139.061
1036.858, 4004.193
1037.966, 3605.408
1039.073, 3927.688
1040.181, 3566.037
1041.288, 3485.479
1042.396, 3668.002
1043.503, 3456.594
1044.610, 3248.264
1045.716, 3067.205
1046.823, 3050.287
1047.929, 2925.252
1049.036, 2844.631
1050.142, 2845.756
1051.248, 2498.949
1052.353, 2373.207
1053.459, 2293.758
1054.564, 2196.980
1055.670, 2065.836
1056.775, 1800.674
1057.880, 1525.934
1058.985, 1565.801
1060.089, 1508.850
1061.194, 1226.818
1062.298, 1187.480
1063.402, 1142.594
1064.506, 1030.508
1065.610, 1001.816
1066.713, 1032.346
1067.817, 1057.707
1068.920, 1047.250
1070.023, 1089.895
1071.126, 890.0508
1072.229, 941.0332
1073.332, 825.8828
1074.435, 880.8320
1075.537, 1090.855
1076.639, 1265.979
1077.741, 1461.318
1078.843, 1506.590
1079.945, 1661.922
1081.046, 1772.602
1082.148, 1889.236
1083.249, 1952.672
1084.350, 2211.348
1085.451, 2480.078
1086.551, 2789.543
1087.652, 2768.105
1088.752, 2899.117
1089.853, 2863.199
1090.953, 2742.404
1092.053, 2599.668
1093.152, 2392.982
1094.252, 2300.371
1095.351, 2034.816
1096.451, 1991.576
1097.550, 1792.941
1098.649, 1570.564
1099.748, 1196.242
1100.846, 1116.303
1101.945, 831.0840
1103.043, 732.3320
1104.141, 721.8652
1105.239, 577.3633
1106.337, 601.6855
1107.434, 533.7344
1108.532, 351.4297
1109.629, 326.5684
1110.726, 128.7578
1111.823, 308.2168
1112.920, 114.5078
1114.017, 172.8457
1115.113, 164.2266
1116.210, 552.6562
1117.306, 600.1270
1118.402, 789.6367
1119.498, 1017.188
1120.593, 1180.822
1121.689, 1313.455
1122.784, 1227.178
1123.879, 1057.953
1124.974, 834.7188
1126.069, 592.5820
1127.164, 510.0312
1128.259, 507.1055
1129.353, 319.9453
1130.447, 213.8379
1131.541, 62.11523
1132.635, 109.2402
1133.729, 56.46484
1134.822, 274.5508
1135.916, 30.80078
1137.009, 167.9492
1138.102, 72.54883
1139.195, 42.92578
1140.288, 252.1582
1141.380, 24.76172
1142.473, 205.1465
1143.565, 102.7051
1144.657, 197.5938
1145.749, 177.1250
1146.841, 389.0312
1147.932, 325.1152
1149.024, 720.2461
1150.115, 200.0762
1151.206, 324.7227
1152.297, 98.53906
1153.388, 485.4082
1154.479, 73.07812
1155.569, 143.7754
1156.659, 57.64648
1157.750, 15.42383
1158.839, 219.9277
1159.929, 254.3203
1161.019, 85.98828
1162.108, 40.67578
1163.198, 102.5430
1164.287, 217.5879
1165.376, 206.3320
1166.465, 228.3086
1167.553, 199.9688
1168.642, 197.6426
1169.730, 187.1699
1170.818, 131.7012
1171.906, 192.2305
1172.994, 122.0586
1174.082, 179.1152
1175.170, 100.5254
1176.257, 12.22266
1177.344, 14.48633
1178.431, 47.70898
1179.518, 21.08789
1180.605, 9.134766
1181.691, 56.60742
1182.778, 19.62109
1183.864, 6.132813
1184.950, 50.68945
1186.036, 19.21289
1187.122, 104.4219
1188.207, 87.57031
1189.292, 45.74609
1190.378, 8.935547
1191.463, 2.029297
1192.548, 28.17188
1193.632, 69.90820
1194.717, 302.0469
1195.801, 137.3691
1196.886, 66.96875
1197.970, 145.3535
1199.054, 44.19727
1200.137, 7.738281
1201.221, 69.70508
1202.305, 6.208984
1203.388, 53.29492
1204.471, 53.76953
1205.554, 180.2305
1206.637, 114.6836
1207.719, 153.5000
1208.802, 167.4141
1209.884, 107.7598
1210.966, 4.843750
1212.048, 149.4688
1213.130, 94.76367
1214.212, 10.04102
1215.293, 37.50977
1216.374, 207.9961
1217.456, 9.628906
1218.536, 218.7500
1219.617, 160.3555
1220.698, 8.423828
1221.778, 64.74023
1222.859, 100.7520
1223.939, 119.0352
1225.019, 70.83008
1226.099, 6.441406
1227.178, 45.54883
1228.258, 46.31055
1229.337, 62.14648
1230.417, 13.04102
1231.496, 117.7285
1232.574, 20.78711
1233.653, 302.2344
1234.732, 12.04688
1235.810, 103.3711
1236.888, 37.21094
1237.966, 7.746094
1239.044, 122.9375
1240.122, 94.13867
1241.199, 25.37109
1242.277, 51.48633
1243.354, 119.1699
1244.431, 226.5410
1245.508, 209.8750
1246.585, 187.0879
1247.661, 209.1660
1248.738, 165.7109
1249.814, 59.83984
1250.890, 81.98242
1251.966, 41.55078
1253.042, 47.38281
1254.117, 103.0039
1255.193, 34.01367
1256.268, 146.1836
1257.343, 46.59570
1258.418, 186.2207
1259.493, 6.382813
1260.567, 93.17578
1261.642, 106.2422
1262.716, 26.07812
1263.790, 259.7012
1264.864, 113.9766
1265.938, 254.7988
1267.011, 91.95703
1268.085, 98.60938
1269.158, 163.7129
1270.231, 145.2207
1271.304, 42.77734
1272.377, 124.3867
1273.450, 48.40234
1274.522, 152.2832
1275.594, 40.94336
1276.666, 0.1699220
1277.738, 27.66602
1278.810, 130.7559
1279.882, 14.08789
1280.953, 144.7305
1282.025, 19.02539
1283.096, 97.11328
1284.167, 199.1562
1285.238, 1.146484
1286.308, 160.6387
1287.379, 54.36328
1288.449, 32.65430
1289.519, 28.82031
1290.589, 266.8730
1291.659, 246.8379
1292.729, 171.1152
1293.798, 299.9727
1294.868, 119.6875
