##NAMES=Catapleiite
##RRUFFID=R060198
##IDEAL CHEMISTRY=Na_2_Zr^4+^Si_3_O_9_&#183;2H_2_O
##LOCALITY=Mont Saint-Hilaire, Rouville County, Quebec, Canada
##OWNER=RRUFF
##SOURCE=Royal Ontario Museum
##DESCRIPTION=Tan colored pseudohexagonal tabular crystals
##STATUS=The identification of this mineral has been confirmed by X-ray diffraction and chemical analysis
##URL=rruff.info/R060198
##MEASURED CHEMISTRY=(Na_1.92_Ca_0.04_[box]_0.04_)_Σ=2_Zr_1.00_Si_3.00_O_9_·2H_2_O
##PIN_ID=L00755
##ORIENTATION=Laser parallel to -a* (-1 0 0). Fiducial mark perpendicular to laser is parallel to -b [0 -1 0]
95.94800, 0.0000000E+00
97.18200, 141.2061
98.41600, 13.34277
99.64900, 1.250977
100.8830, 167.6123
102.1160, 290.5264
103.3490, 202.6318
104.5820, 510.9873
105.8150, 965.4023
107.0470, 1667.373
108.2800, 1696.066
109.5120, 2752.309
110.7440, 1949.815
111.9760, 1730.729
113.2080, 1886.423
114.4400, 2288.391
115.6710, 2422.510
116.9030, 2456.733
118.1340, 2212.855
119.3650, 1938.085
120.5960, 1732.414
121.8270, 1694.461
123.0580, 1601.822
124.2880, 1553.466
125.5190, 1503.167
126.7490, 1552.611
127.9790, 1628.303
129.2090, 1696.093
130.4390, 1790.858
131.6680, 1667.621
132.8980, 1824.798
134.1270, 1571.758
135.3560, 1708.549
136.5850, 2041.286
137.8140, 1923.859
139.0430, 2102.969
140.2710, 2285.447
141.5000, 2037.919
142.7280, 1919.433
143.9560, 1903.900
145.1840, 1972.044
146.4120, 1766.250
147.6390, 1850.451
148.8670, 1742.717
150.0940, 1787.023
151.3210, 1700.290
152.5490, 1779.523
153.7750, 1735.668
155.0020, 1708.761
156.2290, 1602.869
157.4550, 1642.062
158.6810, 1584.402
159.9080, 1567.912
161.1340, 1545.603
162.3590, 1565.240
163.5850, 1647.643
164.8110, 1666.060
166.0360, 1681.729
167.2610, 1797.360
168.4860, 1789.065
169.7110, 1774.277
170.9360, 2042.520
172.1610, 2042.492
173.3850, 2080.070
174.6100, 2141.095
175.8340, 2392.196
177.0580, 2566.534
178.2820, 2620.391
179.5050, 2598.955
180.7290, 2863.762
181.9520, 2936.396
183.1760, 3099.740
184.3990, 3434.918
185.6220, 3654.228
186.8450, 3910.266
188.0670, 4291.570
189.2900, 4617.802
190.5120, 4834.770
191.7340, 5276.342
192.9560, 5487.557
194.1780, 5961.519
195.4000, 6053.907
196.6220, 6634.129
197.8430, 6795.386
199.0640, 6935.960
200.2860, 7315.320
201.5070, 7774.342
202.7270, 7898.500
203.9480, 8002.235
205.1690, 7789.705
206.3890, 7596.127
207.6090, 7562.554
208.8290, 7516.788
210.0490, 7188.833
211.2690, 7016.751
212.4890, 6657.591
213.7080, 6478.339
214.9280, 5681.981
216.1470, 5363.337
217.3660, 4752.214
218.5850, 4073.748
219.8030, 3711.070
221.0220, 3180.323
222.2400, 2843.098
223.4590, 2755.377
224.6770, 2259.142
225.8950, 1999.564
227.1120, 1584.581
228.3300, 1377.771
229.5480, 1146.837
230.7650, 1008.783
231.9820, 952.6104
233.1990, 680.3203
234.4160, 502.9126
235.6330, 696.3911
236.8490, 433.7559
238.0660, 250.0098
239.2820, 304.1499
240.4980, 141.1680
241.7140, 177.0527
242.9300, 2.896484
244.1460, 41.54736
245.3610, 28.12158
246.5770, 71.75049
247.7920, 89.08301
249.0070, 43.20898
250.2220, 57.54346
251.4370, 41.05713
252.6510, 19.86768
253.8660, 34.64111
255.0800, 15.40820
256.2940, 23.81055
257.5080, 152.0059
258.7220, 178.7881
259.9360, 162.0513
261.1490, 267.3721
262.3630, 76.38428
263.5760, 11.31592
264.7890, 32.85449
266.0020, 28.14844
267.2150, 14.42432
268.4270, 191.1333
269.6400, 147.8828
270.8520, 286.8179
272.0640, 275.9790
273.2760, 266.3657
274.4880, 208.9780
275.7000, 177.8018
276.9120, 261.8296
278.1230, 204.0840
279.3340, 193.5518
280.5450, 152.2397
281.7560, 147.1460
282.9670, 127.2734
284.1780, 88.61719
285.3880, 31.17041
286.5980, 127.9277
287.8090, 20.07129
289.0190, 50.85693
290.2290, 23.42969
291.4380, 131.7871
292.6480, 153.9443
293.8570, 229.9087
295.0670, 123.6870
296.2760, 141.2769
297.4850, 273.6846
298.6930, 167.9199
299.9020, 258.9834
301.1110, 213.8818
302.3190, 199.6191
303.5270, 135.1973
304.7350, 148.6172
305.9430, 190.8828
307.1510, 208.0479
308.3580, 252.6470
309.5660, 320.8052
310.7730, 341.5054
311.9800, 404.0703
313.1870, 446.4878
314.3940, 349.7490
315.6010, 487.8135
316.8070, 440.6147
318.0130, 554.1118
319.2200, 512.3428
320.4260, 679.3296
321.6310, 826.0835
322.8370, 784.6772
324.0430, 949.1382
325.2480, 867.4624
326.4540, 801.5732
327.6590, 908.4771
328.8640, 965.0337
330.0680, 860.1504
331.2730, 892.8735
332.4780, 811.2256
333.6820, 689.2300
334.8860, 715.9316
336.0900, 765.3711
337.2940, 697.5747
338.4980, 691.6333
339.7010, 601.5625
340.9050, 733.3916
342.1080, 561.1152
343.3110, 633.7422
344.5140, 632.8169
345.7170, 613.9561
346.9200, 709.0513
348.1220, 656.3008
349.3240, 809.4722
350.5270, 829.5713
351.7290, 1010.600
352.9310, 1092.562
354.1320, 1163.463
355.3340, 1362.312
356.5350, 1365.108
357.7370, 1426.854
358.9380, 1614.551
360.1390, 1777.196
361.3400, 1807.791
362.5400, 1843.627
363.7410, 1843.218
364.9410, 1738.263
366.1410, 1728.649
367.3410, 1612.988
368.5410, 1503.279
369.7410, 1363.527
370.9400, 1212.731
372.1400, 1234.892
373.3390, 1284.011
374.5380, 1116.089
375.7370, 1182.126
376.9360, 1004.125
378.1350, 1022.084
379.3330, 1009.552
380.5310, 889.4365
381.7300, 1036.544
382.9280, 958.8496
384.1260, 880.3491
385.3230, 961.6963
386.5210, 899.3179
387.7180, 980.6650
388.9160, 1042.530
390.1130, 1125.188
391.3100, 1132.605
392.5060, 1096.658
393.7030, 1103.069
394.9000, 1173.464
396.0960, 1090.772
397.2920, 1214.286
398.4880, 1150.743
399.6840, 1325.273
400.8800, 1318.972
402.0750, 1429.178
403.2710, 1591.505
404.4660, 1762.589
405.6610, 1925.495
406.8560, 2182.100
408.0510, 2329.328
409.2450, 2544.658
410.4400, 2839.144
411.6340, 3268.129
412.8280, 3659.110
414.0220, 4158.674
415.2160, 4610.385
416.4100, 5370.660
417.6030, 6039.421
418.7970, 7193.665
419.9900, 8219.799
421.1830, 9465.551
422.3760, 10998.82
423.5690, 12101.66
424.7610, 13586.99
425.9540, 14874.55
427.1460, 15476.29
428.3380, 15437.36
429.5300, 15184.95
430.7220, 14329.40
431.9140, 12816.99
433.1050, 11321.80
434.2970, 9909.417
435.4880, 8521.887
436.6790, 7389.580
437.8700, 6263.010
439.0610, 5443.168
440.2510, 4801.535
441.4420, 4124.170
442.6320, 3547.767
443.8220, 3128.179
445.0120, 2783.165
446.2020, 2250.984
447.3910, 2202.979
448.5810, 1817.099
449.7700, 1650.706
450.9600, 1545.550
452.1490, 1206.688
453.3370, 1035.543
454.5260, 1066.326
455.7150, 882.2305
456.9030, 783.2764
458.0910, 786.8809
459.2800, 648.0288
460.4670, 592.9468
461.6550, 505.3076
462.8430, 558.4658
464.0300, 474.2944
465.2180, 400.5771
466.4050, 393.3267
467.5920, 329.2549
468.7790, 319.2368
469.9650, 264.4229
471.1520, 238.1455
472.3380, 217.1704
473.5250, 262.9219
474.7110, 249.0537
475.8970, 274.1714
477.0820, 306.8745
478.2680, 220.6934
479.4540, 173.7305
480.6390, 56.50244
481.8240, 190.2715
483.0090, 281.6924
484.1940, 184.6841
485.3780, 152.9697
486.5630, 213.5698
487.7470, 309.1890
488.9320, 286.7573
490.1160, 240.7866
491.3000, 186.6113
492.4830, 268.8931
493.6670, 273.1733
494.8500, 231.4971
496.0340, 298.8335
497.2170, 213.1953
498.4000, 452.6138
499.5820, 435.0601
500.7650, 433.5566
501.9480, 599.1040
503.1300, 572.6748
504.3120, 714.3213
505.4940, 749.0156
506.6760, 690.7339
507.8580, 886.5146
509.0390, 1095.312
510.2210, 1028.110
511.4020, 1315.906
512.5830, 1412.716
513.7640, 1541.539
514.9450, 1645.374
516.1250, 1891.293
517.3060, 1875.198
518.4860, 2090.693
519.6660, 2124.688
520.8460, 2209.112
522.0260, 2225.410
523.2060, 2196.801
524.3850, 2076.149
525.5650, 1906.753
526.7440, 1742.429
527.9230, 1648.890
529.1020, 1565.278
530.2810, 1358.807
531.4590, 1235.361
532.6380, 1186.891
533.8160, 1057.461
534.9940, 901.0298
536.1720, 795.6812
537.3500, 793.4331
538.5270, 577.1646
539.7050, 549.9019
540.8820, 635.6040
542.0590, 508.2676
543.2360, 438.2812
544.4130, 436.2642
545.5900, 509.1650
546.7660, 292.3696
547.9430, 375.2935
549.1190, 391.3779
550.2950, 322.6670
551.4710, 334.5151
552.6470, 473.4717
553.8220, 428.7178
554.9980, 522.1313
556.1730, 592.1670
557.3480, 730.1938
558.5230, 861.1118
559.6980, 890.7168
560.8730, 1180.498
562.0470, 1406.529
563.2220, 1566.414
564.3960, 1894.463
565.5700, 1974.877
566.7440, 2287.831
567.9170, 2492.682
569.0910, 2637.063
570.2640, 2671.441
571.4380, 2848.721
572.6110, 2747.950
573.7840, 2524.911
574.9570, 2401.881
576.1290, 2044.873
577.3020, 1807.903
578.4740, 1376.919
579.6460, 1125.944
580.8180, 826.2549
581.9900, 602.5781
583.1620, 512.4019
584.3330, 327.5142
585.5040, 264.5879
586.6760, 167.1738
587.8470, 136.7612
589.0180, 47.86426
590.1880, 20.65967
591.3590, 18.93506
592.5290, 13.76465
593.7000, 36.62793
594.8700, 15.48975
596.0400, 70.65039
597.2090, 67.79248
598.3790, 122.1040
599.5490, 209.0840
600.7180, 199.2539
601.8870, 268.4038
603.0560, 307.5527
604.2250, 434.7036
605.3940, 466.8516
606.5620, 518.0000
607.7300, 752.2896
608.8990, 742.4292
610.0670, 1036.920
611.2350, 1208.749
612.4020, 1581.406
613.5700, 1799.967
614.7370, 2178.287
615.9050, 2538.798
617.0720, 3149.332
618.2390, 3675.138
619.4060, 4499.023
620.5720, 5630.407
621.7390, 6649.265
622.9050, 8080.599
624.0710, 9450.587
625.2370, 11083.46
626.4030, 12589.98
627.5690, 13456.54
628.7340, 13909.09
629.9000, 13279.86
631.0650, 11768.47
632.2300, 10171.35
633.3950, 8218.465
634.5600, 6588.721
635.7240, 5365.083
636.8890, 4158.156
638.0530, 3240.527
639.2170, 2575.141
640.3810, 1994.990
641.5450, 1759.931
642.7080, 1294.318
643.8720, 1147.172
645.0350, 909.0415
646.1980, 700.5020
647.3610, 631.1162
648.5240, 466.3052
649.6870, 380.7485
650.8490, 393.2168
652.0120, 266.1611
653.1740, 271.4854
654.3360, 285.5679
655.4980, 130.9199
656.6600, 140.9536
657.8210, 13.72949
658.9830, 139.4800
660.1440, 41.00586
661.3050, 86.29639
662.4660, 71.36963
663.6270, 83.34814
664.7870, 34.16553
665.9480, 20.59912
667.1080, 77.55273
668.2680, 98.89355
669.4280, 72.10596
670.5880, 79.69727
671.7480, 93.83789
672.9070, 104.7666
674.0670, 119.0112
675.2260, 110.6416
676.3850, 104.2163
677.5440, 118.1729
678.7030, 124.4863
679.8610, 141.9712
681.0200, 158.8140
682.1780, 80.61914
683.3360, 90.38330
684.4940, 112.1074
685.6520, 41.79150
686.8090, 110.4326
687.9670, 76.03467
689.1240, 33.59375
690.2810, 148.1089
691.4380, 131.5850
692.5950, 69.02002
693.7520, 48.41113
694.9080, 155.7588
696.0650, 7.934570
697.2210, 14.31006
698.3770, 112.5054
699.5330, 140.3452
700.6880, 37.67090
701.8440, 91.63867
702.9990, 72.56055
704.1550, 27.43457
705.3100, 11.25732
706.4650, 16.02100
707.6190, 62.72852
708.7740, 76.67529
709.9290, 109.9946
711.0830, 137.5542
712.2370, 208.0654
713.3910, 210.5312
714.5450, 220.8779
715.6980, 205.3252
716.8520, 217.6528
718.0050, 215.7754
719.1580, 145.1689
720.3110, 200.3555
721.4640, 242.4951
722.6170, 198.5879
723.7700, 257.6343
724.9220, 262.1279
726.0740, 230.5845
727.2260, 268.4893
728.3780, 298.3472
729.5300, 230.1582
730.6810, 335.7920
731.8330, 270.4189
732.9840, 377.8105
734.1350, 332.3301
735.2860, 333.9043
736.4370, 238.4307
737.5880, 398.9097
738.7380, 195.3408
739.8880, 246.7246
741.0390, 360.0605
742.1890, 237.5098
743.3380, 211.8525
744.4880, 289.1963
745.6380, 162.5938
746.7870, 209.6885
747.9360, 109.7373
749.0850, 24.82617
750.2340, 66.19043
751.3830, 91.07129
752.5310, 145.8721
753.6800, 97.72266
754.8280, 89.42188
755.9760, 29.10254
757.1240, 8.413086
758.2720, 15.74414
759.4190, 23.38672
760.5670, 47.05859
761.7140, 9.834961
762.8610, 7.838867
764.0080, 34.37012
765.1550, 19.62793
766.3020, 35.71582
767.4480, 166.9004
768.5950, 10.74902
769.7410, 137.6748
770.8870, 40.75098
772.0330, 128.8828
773.1780, 19.66113
774.3240, 63.52734
775.4690, 180.5039
776.6140, 73.65234
777.7590, 157.9141
778.9040, 160.3350
780.0490, 56.91602
781.1940, 256.6016
782.3380, 146.4941
783.4820, 61.53809
784.6260, 208.6875
785.7700, 28.01758
786.9140, 28.56641
788.0580, 45.09277
789.2010, 28.43164
790.3450, 20.03809
791.4880, 17.72363
792.6310, 55.44141
793.7730, 20.11523
794.9160, 81.37695
796.0590, 19.01855
797.2010, 1.221680
798.3430, 94.91016
799.4850, 29.55371
800.6270, 21.64844
801.7690, 61.15430
802.9100, 7.810547
804.0520, 3.119141
805.1930, 5.417969
806.3340, 56.38281
807.4750, 19.80762
808.6160, 86.96094
809.7560, 61.25195
810.8970, 3.476563
812.0370, 0.2128910
813.1770, 46.13965
814.3170, 51.39551
815.4570, 124.9502
816.5960, 53.49609
817.7360, 83.07910
818.8750, 50.69629
820.0140, 195.9521
821.1530, 130.2158
822.2920, 218.4287
823.4310, 455.5283
824.5690, 275.7764
825.7070, 436.8467
826.8460, 330.7100
827.9840, 398.0205
829.1220, 492.2324
830.2590, 671.1523
831.3970, 642.9580
832.5340, 702.1826
833.6710, 877.4971
834.8080, 920.9238
835.9450, 980.8877
837.0820, 723.6611
838.2190, 811.4521
839.3550, 752.7471
840.4910, 800.7393
841.6270, 717.1338
842.7630, 754.0381
843.8990, 721.0938
845.0350, 646.6641
846.1700, 685.2734
847.3060, 510.0020
848.4410, 570.8281
849.5760, 522.9316
850.7100, 524.0273
851.8450, 612.1094
852.9800, 445.1494
854.1140, 296.2002
855.2480, 306.2324
856.3820, 341.9756
857.5160, 195.9365
858.6500, 230.9238
859.7830, 151.8506
860.9170, 156.8096
862.0500, 153.7559
863.1830, 182.6885
864.3160, 38.61035
865.4480, 211.5176
866.5810, 51.41602
867.7130, 71.30371
868.8460, 95.18164
869.9780, 145.0518
871.1100, 146.9121
872.2410, 203.7646
873.3730, 19.60938
874.5050, 57.44434
875.6360, 40.25195
876.7670, 89.07422
877.8980, 13.11133
879.0290, 8.305664
880.1590, 61.50488
881.2900, 20.72266
882.4200, 12.90918
883.5500, 102.6787
884.6800, 32.90918
885.8100, 9.847656
886.9400, 94.62402
888.0690, 12.67969
889.1990, 8.784180
890.3280, 56.55371
891.4570, 0.8623050
892.5860, 17.89160
893.7140, 140.8398
894.8430, 125.2822
895.9710, 68.24805
897.1000, 35.73242
898.2280, 205.5615
899.3560, 240.4990
900.4830, 425.8008
901.6110, 582.6221
902.7380, 650.3105
903.8660, 944.3535
904.9930, 1145.549
906.1200, 1341.480
907.2460, 1864.176
908.3730, 2040.725
909.5000, 2201.165
910.6260, 2633.895
911.7520, 2554.326
912.8780, 2772.515
914.0040, 2694.467
915.1290, 2668.328
916.2550, 2760.742
917.3800, 3018.690
918.5050, 3360.624
919.6300, 3780.969
920.7550, 4480.162
921.8800, 5239.781
923.0040, 5953.814
924.1290, 6718.498
925.2530, 7775.384
926.3770, 8590.897
927.5010, 9801.656
928.6250, 10587.15
929.7480, 11144.97
930.8720, 11565.47
931.9950, 11714.18
933.1180, 11591.54
934.2410, 11280.14
935.3640, 10653.97
936.4860, 9835.938
937.6090, 8995.071
938.7310, 8151.611
939.8530, 7606.664
940.9750, 7039.416
942.0970, 6663.239
943.2180, 6333.742
944.3400, 6203.723
945.4610, 6176.973
946.5820, 5999.270
947.7030, 5302.514
948.8240, 4978.209
949.9450, 4321.571
951.0650, 3661.996
952.1860, 3031.500
953.3060, 2575.075
954.4260, 2112.705
955.5460, 1805.188
956.6650, 1570.232
957.7850, 1434.099
958.9040, 1415.015
960.0230, 1449.979
961.1420, 1372.998
962.2610, 1303.066
963.3800, 1292.233
964.4990, 1208.459
965.6170, 1435.748
966.7350, 1512.088
967.8530, 1490.479
968.9710, 1579.928
970.0890, 1600.432
971.2070, 1876.988
972.3240, 2013.641
973.4410, 2255.351
974.5580, 2379.118
975.6750, 2612.938
976.7920, 2923.645
977.9090, 3291.916
979.0250, 3707.771
980.1410, 4257.872
981.2580, 4909.028
982.3740, 5548.239
983.4890, 6159.507
984.6050, 7122.834
985.7200, 8161.217
986.8360, 9550.651
987.9510, 11110.14
989.0660, 13113.68
990.1810, 15687.29
991.2950, 18402.94
992.4100, 21689.65
993.5240, 25130.42
994.6390, 29741.25
995.7530, 34067.13
996.8660, 38462.06
997.9800, 42540.06
999.0940, 46410.10
1000.207, 49889.21
1001.320, 52041.37
1002.433, 53691.58
1003.546, 54158.86
1004.659, 54627.19
1005.772, 53727.58
1006.884, 52801.04
1007.996, 51271.53
1009.108, 49184.10
1010.220, 46161.72
1011.332, 43717.40
1012.444, 40665.99
1013.555, 37471.68
1014.666, 33814.39
1015.777, 30533.07
1016.888, 27558.05
1017.999, 24410.09
1019.110, 21300.76
1020.220, 18878.84
1021.331, 16411.06
1022.441, 14261.38
1023.551, 12730.65
1024.661, 11223.09
1025.770, 9780.568
1026.880, 8834.149
1027.989, 7994.804
1029.098, 7353.540
1030.207, 6831.359
1031.316, 6318.271
1032.425, 6091.260
1033.533, 5876.328
1034.642, 5644.463
1035.750, 5437.684
1036.858, 5372.992
1037.966, 5401.420
1039.073, 5271.926
1040.181, 5003.547
1041.288, 4798.234
1042.396, 4527.037
1043.503, 4069.920
1044.610, 3812.900
1045.716, 3501.004
1046.823, 3165.207
1047.929, 3072.526
1049.036, 2826.970
1050.142, 2729.506
1051.248, 2547.186
1052.353, 2350.980
1053.459, 2160.870
1054.564, 2166.891
1055.670, 2006.999
1056.775, 1974.177
1057.880, 2092.317
1058.985, 1897.040
1060.089, 2024.442
1061.194, 1903.924
1062.298, 2135.045
1063.402, 2235.548
1064.506, 2269.293
1065.610, 2514.674
1066.713, 2577.566
1067.817, 2781.115
1068.920, 2907.730
1070.023, 3264.863
1071.126, 3429.830
1072.229, 3859.539
1073.332, 4142.703
1074.435, 4787.061
1075.537, 5463.678
1076.639, 6291.604
1077.741, 7028.273
1078.843, 7945.719
1079.945, 9237.894
1081.046, 10771.33
1082.148, 13022.97
1083.249, 14435.25
1084.350, 16888.41
1085.451, 17744.16
1086.551, 19220.77
1087.652, 20472.58
1088.752, 20704.97
1089.853, 20642.61
1090.953, 19846.88
1092.053, 18576.36
1093.152, 16638.32
1094.252, 15048.74
1095.351, 13285.80
1096.451, 11419.67
1097.550, 9922.059
1098.649, 8574.653
1099.748, 7507.294
1100.846, 6379.979
1101.945, 5574.709
1103.043, 4881.481
1104.141, 4377.582
1105.239, 3905.730
1106.337, 3225.395
1107.434, 3023.339
1108.532, 2659.326
1109.629, 2235.663
1110.726, 2055.912
1111.823, 1877.272
1112.920, 1793.422
1114.017, 1483.611
1115.113, 1399.842
1116.210, 1331.910
1117.306, 1313.215
1118.402, 1378.560
1119.498, 1340.941
1120.593, 1257.360
1121.689, 1325.834
1122.784, 1285.810
1123.879, 1155.339
1124.974, 1099.903
1126.069, 954.5117
1127.164, 716.1914
1128.259, 653.9316
1129.353, 642.6357
1130.447, 655.3750
1131.541, 561.1475
1132.635, 447.9541
1133.729, 501.7920
1134.822, 460.6631
1135.916, 500.5664
1137.009, 389.5781
1138.102, 520.5439
1139.195, 367.5410
1140.288, 368.5703
1141.380, 357.6270
1142.473, 346.0186
1143.565, 236.1357
1144.657, 372.2832
1145.749, 273.8193
1146.841, 181.3887
1147.932, 351.6299
1149.024, 260.8975
1150.115, 206.1914
1151.206, 193.7734
1152.297, 161.5518
1153.388, 244.5732
1154.479, 169.0273
1155.569, 203.5107
1156.659, 236.2695
1157.750, 183.8682
1158.839, 34.53320
1159.929, 119.2373
1161.019, 110.9912
1162.108, 231.7715
1163.198, 115.6035
1164.287, 92.46289
1165.376, 92.35059
1166.465, 170.2988
1167.553, 233.2686
1168.642, 167.2998
1169.730, 35.36523
1170.818, 147.4492
1171.906, 78.55371
1172.994, 153.6748
1174.082, 189.8105
1175.170, 17.96094
1176.257, 133.1270
1177.344, 57.30469
1178.431, 173.4961
1179.518, 22.22266
1180.605, 118.4385
1181.691, 161.6641
1182.778, 72.90039
1183.864, 28.71680
1184.950, 123.9736
1186.036, 62.98926
1187.122, 31.28613
1188.207, 76.43652
1189.292, 14.18359
1190.378, 51.06836
1191.463, 10.32422
1192.548, 16.41406
1193.632, 46.59766
1194.717, 33.78125
1195.801, 57.97656
1196.886, 89.33105
1197.970, 11.44824
1199.054, 176.6094
1200.137, 73.83301
1201.221, 71.83887
1202.305, 117.7461
1203.388, 171.7139
1204.471, 51.77051
1205.554, 53.85742
1206.637, 74.97754
1207.719, 183.1416
1208.802, 60.40625
1209.884, 15.71191
1210.966, 170.0371
1212.048, 154.4619
1213.130, 53.97754
1214.212, 118.5332
1215.293, 84.16699
1216.374, 8.860352
1217.456, 159.5752
1218.536, 102.3926
1219.617, 38.28027
1220.698, 89.79004
1221.778, 28.85352
1222.859, 17.90332
1223.939, 50.93750
1225.019, 162.0371
1226.099, 5.876953
1227.178, 18.23340
1228.258, 166.6172
1229.337, 164.4580
1230.417, 109.2871
1231.496, 62.10645
1232.574, 91.91211
1233.653, 45.58594
1234.732, 47.48438
1235.810, 33.24609
1236.888, 98.98535
1237.966, 137.7119
1239.044, 25.42578
1240.122, 5.888672
1241.199, 69.24902
1242.277, 137.3096
1243.354, 163.8555
1244.431, 147.3838
1245.508, 25.89648
1246.585, 194.3721
1247.661, 99.83008
1248.738, 277.2715
1249.814, 119.6963
1250.890, 98.10059
1251.966, 72.48438
1253.042, 115.8438
1254.117, 123.1807
1255.193, 108.7979
1256.268, 106.7939
1257.343, 106.0674
1258.418, 200.3174
1259.493, 253.5469
1260.567, 152.7539
1261.642, 196.9404
1262.716, 142.1045
1263.790, 194.2461
1264.864, 269.3633
1265.938, 124.4580
1267.011, 194.5264
1268.085, 209.5752
1269.158, 194.6016
1270.231, 234.6025
1271.304, 124.5791
1272.377, 282.5283
