##NAMES=Catapleiite
##RRUFFID=R060208
##IDEAL CHEMISTRY=Na_2_Zr^4+^Si_3_O_9_&#183;2H_2_O
##LOCALITY=Mont Saint-Hilaire, Rouville County, Quebec, Canada
##OWNER=RRUFF
##SOURCE=Royal Ontario Museum
##DESCRIPTION=Colorless transparent thin tabular pseudohexagonal crystal
##STATUS=The identification of this mineral is confirmed by single-crystal X-ray diffraction and chemical analysis.
##URL=rruff.info/R060208
##MEASURED CHEMISTRY=Na_2.00_Zr_1.00_Si_3.00_O_9_Â·2H_2_O
##PIN_ID=M01705
##ORIENTATION=Laser parallel to a* (1 0 0). Fiducial mark perpendicular to laser is parallel to -b [0 -1 0]
122.1480, 0.0000000E+00
123.3810, 30.60645
124.6150, 8.798828
125.8480, 116.8906
127.0810, 65.65234
128.3130, 149.0234
129.5460, 316.3145
130.7790, 243.6416
132.0110, 267.6973
133.2430, 363.7520
134.4750, 307.2090
135.7070, 385.2900
136.9380, 344.9316
138.1700, 482.2363
139.4010, 468.1045
140.6330, 538.2803
141.8640, 462.9932
143.0950, 553.4775
144.3250, 580.4463
145.5560, 738.4902
146.7860, 699.3018
148.0160, 683.6387
149.2470, 877.3135
150.4760, 981.1875
151.7060, 960.1582
152.9360, 1005.367
154.1650, 1122.217
155.3950, 1078.252
156.6240, 1110.174
157.8530, 1229.037
159.0820, 1123.307
160.3100, 1084.133
161.5390, 1235.737
162.7670, 1197.143
163.9950, 1311.903
165.2230, 1274.921
166.4510, 1294.994
167.6790, 1406.193
168.9060, 1397.646
170.1340, 1690.397
171.3610, 1560.414
172.5880, 1676.711
173.8150, 1861.336
175.0420, 1845.339
176.2690, 1980.779
177.4950, 2095.740
178.7210, 2059.219
179.9470, 2104.215
181.1730, 2161.757
182.3990, 2290.176
183.6250, 2411.639
184.8500, 2835.444
186.0760, 2699.886
187.3010, 3105.105
188.5260, 3215.012
189.7510, 3469.064
190.9750, 3614.707
192.2000, 3872.038
193.4240, 4150.062
194.6490, 4398.795
195.8730, 4659.893
197.0970, 5002.204
198.3200, 5009.166
199.5440, 5272.230
200.7670, 5615.492
201.9910, 5544.621
203.2140, 5626.961
204.4370, 5689.131
205.6590, 5689.115
206.8820, 5954.613
208.1050, 5748.343
209.3270, 5661.066
210.5490, 5844.584
211.7710, 5576.775
212.9930, 5258.400
214.2150, 4833.250
215.4360, 4523.547
216.6570, 4147.566
217.8790, 3857.179
219.1000, 3450.752
220.3210, 2895.969
221.5410, 2643.236
222.7620, 2276.533
223.9820, 1859.852
225.2030, 1784.190
226.4230, 1490.547
227.6430, 1201.915
228.8620, 1133.773
230.0820, 898.6953
231.3010, 779.0352
232.5210, 672.1826
233.7400, 629.3809
234.9590, 495.7725
236.1780, 350.0410
237.3960, 473.2725
238.6150, 350.4678
239.8330, 327.6260
241.0510, 180.7480
242.2690, 213.8350
243.4870, 59.88672
244.7050, 60.90332
245.9230, 107.8867
247.1400, 1.163086
248.3570, 87.75586
249.5740, 111.6426
250.7910, 31.49805
252.0080, 167.3232
253.2240, 112.1191
254.4410, 98.88574
255.6570, 140.6191
256.8730, 169.3008
258.0890, 168.9189
259.3050, 143.4805
260.5210, 166.9912
261.7360, 138.6279
262.9510, 14.91992
264.1670, 60.34473
265.3820, 17.74512
266.5960, 109.9033
267.8110, 59.63867
269.0260, 178.3984
270.2400, 190.9756
271.4540, 82.50781
272.6680, 193.4941
273.8820, 140.3271
275.0960, 102.0469
276.3090, 212.6807
277.5230, 288.2861
278.7360, 229.9072
279.9490, 134.5488
281.1620, 95.20117
282.3750, 138.8662
283.5880, 48.56836
284.8000, 0.7060550
286.0120, 131.0342
287.2240, 35.83301
288.4360, 47.32715
289.6480, 11.45801
290.8600, 232.5439
292.0710, 19.59473
293.2830, 252.5947
294.4940, 267.5518
295.7050, 72.46582
296.9160, 260.3281
298.1260, 194.1455
299.3370, 116.9141
300.5470, 120.6279
301.7580, 254.2891
302.9680, 46.89844
304.1770, 124.4482
305.3870, 162.9375
306.5970, 72.35645
307.8060, 23.68945
309.0150, 201.9229
310.2250, 94.06445
311.4340, 142.1143
312.6420, 185.0781
313.8510, 156.9609
315.0590, 239.7637
316.2680, 286.4922
317.4760, 220.1504
318.6840, 297.7393
319.8920, 392.2627
321.0990, 392.7256
322.3070, 408.1260
323.5140, 397.4707
324.7210, 374.7588
325.9280, 402.9941
327.1350, 382.1768
328.3420, 411.3037
329.5490, 392.3477
330.7550, 369.2910
331.9610, 377.1738
333.1670, 311.9873
334.3730, 194.7480
335.5790, 440.4600
336.7840, 182.1289
337.9900, 62.75391
339.1950, 218.3037
340.4000, 231.7100
341.6050, 179.9014
342.8100, 186.8662
344.0150, 207.5811
345.2190, 258.0645
346.4230, 295.2246
347.6280, 282.2080
348.8320, 298.0381
350.0350, 287.7471
351.2390, 466.3965
352.4430, 441.0166
353.6460, 522.6133
354.8490, 595.1973
356.0520, 569.7725
357.2550, 751.3330
358.4580, 722.0459
359.6600, 777.4043
360.8630, 748.9043
362.0650, 859.3896
363.2670, 877.8633
364.4690, 1007.325
365.6710, 907.7803
366.8720, 756.2275
368.0740, 756.6689
369.2750, 780.1035
370.4760, 636.5322
371.6770, 494.9541
372.8780, 462.3691
374.0780, 497.7764
375.2790, 375.1738
376.4790, 581.5576
377.6790, 564.9316
378.8790, 448.2969
380.0790, 429.6562
381.2790, 413.0107
382.4780, 419.3604
383.6780, 462.7061
384.8770, 502.0469
386.0760, 399.0420
387.2750, 321.1953
388.4730, 289.8779
389.6720, 290.6592
390.8700, 306.2715
392.0690, 375.4102
393.2670, 307.8066
394.4650, 470.4766
395.6620, 467.4990
396.8600, 474.7168
398.0570, 388.2295
399.2550, 484.8682
400.4520, 526.8311
401.6490, 543.9463
402.8450, 616.4287
404.0420, 659.1074
405.2390, 723.2510
406.4350, 826.2871
407.6310, 902.1982
408.8270, 1045.223
410.0230, 1100.803
411.2190, 1335.182
412.4140, 1506.795
413.6090, 1637.975
414.8050, 1971.414
416.0000, 2429.674
417.1940, 2642.969
418.3890, 3158.589
419.5840, 3734.594
420.7780, 4218.635
421.9720, 4747.907
423.1660, 5400.824
424.3600, 5871.705
425.5540, 6555.033
426.7480, 6864.629
427.9410, 7196.869
429.1340, 7232.187
430.3270, 7152.209
431.5200, 6528.186
432.7130, 5989.253
433.9060, 5349.133
435.0980, 4728.466
436.2900, 4110.690
437.4830, 3392.087
438.6750, 2773.502
439.8660, 2341.856
441.0580, 2145.242
442.2500, 1894.334
443.4410, 1551.049
444.6320, 1404.777
445.8230, 1218.076
447.0140, 1061.914
448.2050, 851.6250
449.3950, 817.5020
450.5860, 666.6973
451.7760, 692.8516
452.9660, 620.8506
454.1560, 431.2373
455.3450, 484.9629
456.5350, 452.8564
457.7240, 391.6240
458.9140, 386.7266
460.1030, 257.9756
461.2920, 285.9785
462.4810, 172.2139
463.6690, 230.4404
464.8580, 241.6631
466.0460, 126.8789
467.2340, 90.08887
468.4220, 267.2939
469.6100, 217.4932
470.7970, 122.6875
471.9850, 331.8779
473.1720, 177.0635
474.3590, 249.2461
475.5460, 218.4258
476.7330, 159.6025
477.9200, 260.4229
479.1060, 13.59473
480.2930, 189.3594
481.4790, 173.3066
482.6650, 263.2207
483.8510, 300.1934
485.0370, 225.9590
486.2220, 317.7588
487.4080, 283.4922
488.5930, 221.7627
489.7780, 291.9492
490.9630, 268.1396
492.1480, 308.3369
493.3320, 221.5420
494.5170, 284.7549
495.7010, 250.9775
496.8850, 166.2188
498.0690, 279.4736
499.2530, 385.7412
500.4360, 461.0166
501.6200, 458.3066
502.8030, 594.6016
503.9860, 604.9043
505.1690, 727.2119
506.3520, 847.5342
507.5350, 824.8682
508.7170, 1006.212
509.9000, 1122.573
511.0820, 1166.954
512.2640, 1312.375
513.4460, 1405.803
514.6270, 1556.235
515.8090, 1639.763
516.9900, 1668.158
518.1710, 1862.716
519.3530, 1751.418
520.5330, 1955.010
521.7140, 1865.656
522.8950, 1858.510
524.0750, 1934.211
525.2550, 1992.861
526.4350, 1708.771
527.6150, 1473.730
528.7950, 1504.680
529.9750, 1347.735
531.1540, 1308.072
532.3340, 1223.994
533.5130, 1181.104
534.6920, 1110.126
535.8700, 943.1377
537.0490, 951.3916
538.2280, 842.5527
539.4060, 690.3369
540.5840, 780.6260
541.7620, 687.8994
542.9400, 711.9014
544.1180, 786.5283
545.2950, 682.6094
546.4720, 858.8320
547.6500, 628.0469
548.8270, 532.7998
550.0040, 732.7979
551.1800, 858.9766
552.3570, 775.1562
553.5330, 794.6064
554.7090, 924.6963
555.8850, 1122.859
557.0610, 1014.027
558.2370, 1430.413
559.4130, 1428.895
560.5880, 1714.655
561.7630, 1921.142
562.9380, 2197.732
564.1130, 2444.712
565.2880, 2860.635
566.4630, 3246.613
567.6370, 3391.422
568.8120, 3848.263
569.9860, 4059.943
571.1600, 4225.730
572.3330, 4357.630
573.5070, 4248.623
574.6810, 3960.853
575.8540, 3648.664
577.0270, 3359.047
578.2000, 2955.949
579.3730, 2540.694
580.5460, 2120.720
581.7180, 1867.457
582.8910, 1531.279
584.0630, 1255.343
585.2350, 1027.377
586.4070, 803.0947
587.5780, 609.8057
588.7500, 518.8799
589.9210, 548.0908
591.0930, 416.7910
592.2640, 285.4883
593.4350, 311.1885
594.6050, 213.8818
595.7760, 224.5713
596.9460, 156.2549
598.1170, 292.9326
599.2870, 385.6211
600.4570, 309.3008
601.6260, 241.9727
602.7960, 268.6387
603.9650, 347.2939
605.1350, 441.9414
606.3040, 331.5791
607.4730, 589.2129
608.6420, 568.8662
609.8100, 713.5225
610.9790, 683.1680
612.1470, 928.8057
613.3150, 1001.629
614.4830, 1185.483
615.6510, 1371.162
616.8190, 1728.021
617.9860, 2122.693
619.1540, 2489.584
620.3210, 3134.533
621.4880, 3607.141
622.6550, 4392.197
623.8220, 4998.080
624.9880, 5478.934
626.1550, 6059.881
627.3210, 6597.893
628.4870, 6938.604
629.6530, 6913.304
630.8190, 6304.963
631.9840, 5813.957
633.1500, 4728.881
634.3150, 4115.302
635.4800, 3237.367
636.6450, 2369.949
637.8100, 1923.964
638.9740, 1649.145
640.1390, 1283.855
641.3030, 996.6191
642.4670, 910.9580
643.6310, 798.5576
644.7950, 615.9512
645.9590, 550.1826
647.1220, 359.1074
648.2850, 382.0332
649.4490, 245.1787
650.6120, 210.5811
651.7740, 343.0771
652.9370, 187.5781
654.1000, 95.93164
655.2620, 142.2676
656.4240, 228.5518
657.5860, 88.74316
658.7480, 57.40039
659.9100, 86.59180
661.0710, 78.01562
662.2330, 31.41504
663.3940, 87.86816
664.5550, 103.1475
665.7160, 43.10645
666.8770, 34.53125
668.0370, 74.15039
669.1980, 41.67969
670.3580, 140.7959
671.5180, 67.24805
672.6780, 26.84668
673.8380, 65.78516
674.9970, 75.96387
676.1570, 20.83105
677.3160, 47.82129
678.4750, 139.5986
679.6340, 128.7861
680.7930, 27.78418
681.9520, 106.7480
683.1100, 3.277344
684.2680, 58.80859
685.4270, 46.70020
686.5850, 10.74902
687.7420, 34.62207
688.9000, 149.1914
690.0580, 82.19238
691.2150, 51.87891
692.3720, 52.83398
693.5290, 28.26367
694.6860, 123.5264
695.8430, 152.3193
696.9990, 13.08105
698.1560, 101.4697
699.3120, 46.98535
700.4680, 126.9629
701.6240, 118.6309
702.7800, 47.04883
703.9350, 88.97656
705.0900, 87.43164
706.2460, 84.25879
707.4010, 140.9561
708.5560, 19.13672
709.7110, 162.2734
710.8650, 147.9375
712.0200, 2.994141
713.1740, 74.01855
714.3280, 175.9951
715.4820, 24.06445
716.6360, 154.8096
717.7890, 317.6484
718.9430, 16.45410
720.0960, 204.2119
721.2490, 183.9355
722.4020, 96.62598
723.5550, 117.2773
724.7080, 200.8926
725.8600, 210.4717
727.0130, 105.0186
728.1650, 71.52539
729.3170, 254.0186
730.4690, 336.4531
731.6200, 253.8535
732.7720, 253.2178
733.9230, 390.5498
735.0740, 346.8457
736.2250, 415.1602
737.3760, 488.0635
738.5270, 285.2656
739.6780, 258.4209
740.8280, 339.6572
741.9780, 383.7412
743.1280, 347.7920
744.2780, 400.8047
745.4280, 378.0137
746.5770, 347.0596
747.7270, 266.7930
748.8760, 246.6748
750.0250, 225.5127
751.1740, 156.3115
752.3230, 146.0732
753.4720, 185.7979
754.6200, 139.4854
755.7680, 181.1338
756.9160, 126.7461
758.0640, 109.3193
759.2120, 188.8545
760.3600, 79.35156
761.5070, 117.8662
762.6550, 13.28711
763.8020, 101.6973
764.9490, 83.02051
766.0960, 151.3057
767.2420, 150.5518
768.3890, 156.7607
769.5350, 74.93262
770.6810, 86.06445
771.8270, 47.15820
772.9730, 62.20605
774.1190, 0.2119140
775.2640, 29.15527
776.4100, 25.04785
777.5550, 112.8887
778.7000, 12.69043
779.8450, 217.4355
780.9900, 126.1455
782.1340, 170.8184
783.2790, 18.45410
784.4230, 30.03711
785.5670, 56.57129
786.7110, 3.063477
787.8550, 1.503906
788.9980, 83.13672
790.1420, 110.1250
791.2850, 140.3516
792.4280, 18.45898
793.5710, 36.65918
794.7140, 33.26758
795.8560, 56.66211
796.9990, 149.4160
798.1410, 29.25195
799.2830, 86.99609
800.4250, 104.4971
801.5670, 102.0928
802.7090, 236.7041
803.8500, 56.02637
804.9920, 6.271484
806.1330, 15.51465
807.2740, 141.5488
808.4150, 70.30957
809.5550, 25.46387
810.6960, 64.59668
811.8360, 5.607422
812.9760, 81.35742
814.1160, 43.05469
815.2560, 85.82520
816.3960, 116.9443
817.5350, 94.99609
818.6750, 110.5176
819.8140, 80.94531
820.9530, 71.12109
822.0920, 40.81543
823.2310, 16.65820
824.3690, 255.8398
825.5080, 21.77344
826.6460, 88.55273
827.7840, 191.8877
828.9220, 55.68652
830.0600, 51.53223
831.1970, 265.9668
832.3350, 18.43164
833.4720, 97.92773
834.6090, 122.2148
835.7460, 99.44629
836.8830, 40.57520
838.0190, 6.680664
839.1560, 166.8750
840.2920, 91.25391
841.4280, 26.69824
842.5640, 162.6201
843.7000, 102.7256
844.8360, 79.82617
845.9710, 43.08789
847.1070, 11.76562
848.2420, 77.29004
849.3770, 75.25195
850.5120, 228.9580
851.6460, 181.0703
852.7810, 198.7178
853.9150, 49.57227
855.0490, 160.6895
856.1830, 151.5029
857.3170, 133.5850
858.4510, 151.6182
859.5840, 254.2676
860.7180, 279.9883
861.8510, 234.0029
862.9840, 139.0020
864.1170, 234.6201
865.2500, 1.082031
866.3820, 94.03418
867.5150, 102.9707
868.6470, 98.89062
869.7790, 6.796875
870.9110, 66.68945
872.0430, 2.432617
873.1740, 87.56934
874.3060, 2.245117
875.4370, 227.0469
876.5680, 7.165039
877.6990, 56.60840
878.8300, 89.36816
879.9600, 11.11621
881.0910, 45.14746
882.2210, 130.4277
883.3510, 82.20410
884.4810, 2.841797
885.6110, 4.444336
886.7410, 77.03906
887.8700, 58.42383
888.9990, 138.7852
890.1290, 69.30859
891.2580, 178.6309
892.3860, 24.11914
893.5150, 54.37109
894.6440, 134.5430
895.7720, 94.04102
896.9000, 3.886719
898.0280, 200.3418
899.1560, 73.36719
900.2840, 91.80078
901.4110, 162.8906
902.5390, 95.25781
903.6660, 374.6191
904.7930, 219.0000
905.9200, 445.0293
907.0470, 395.1094
908.1730, 377.6758
909.3000, 480.5781
910.4260, 556.9434
911.5520, 627.2988
912.6780, 743.5898
913.8030, 876.7734
914.9290, 1017.885
916.0540, 1261.805
917.1800, 1402.643
918.3050, 1746.078
919.4300, 1934.525
920.5550, 2258.557
921.6790, 2690.438
922.8040, 3348.082
923.9280, 3938.451
925.0520, 4712.709
926.1760, 5236.943
927.3000, 6038.311
928.4230, 6683.676
929.5470, 7689.074
930.6700, 7885.549
931.7930, 8230.543
932.9160, 8014.018
934.0390, 7862.246
935.1620, 7199.479
936.2840, 6733.645
937.4070, 5680.986
938.5290, 4864.631
939.6510, 4120.801
940.7730, 3625.064
941.8940, 2953.141
943.0160, 2856.785
944.1370, 2315.232
945.2580, 2133.148
946.3800, 1871.707
947.5000, 1675.008
948.6210, 1541.602
949.7420, 1465.086
950.8620, 1406.768
951.9820, 1065.592
953.1020, 1058.426
954.2220, 961.3457
955.3420, 830.2188
956.4620, 783.0703
957.5810, 688.8457
958.7000, 584.5625
959.8190, 501.6777
960.9380, 841.4668
962.0570, 859.2422
963.1760, 702.4551
964.2940, 883.5176
965.4120, 817.0156
966.5300, 1030.318
967.6480, 1165.455
968.7660, 1020.824
969.8840, 1194.215
971.0010, 1247.619
972.1190, 1641.543
973.2360, 1606.760
974.3530, 1770.209
975.4690, 2126.127
976.5860, 2174.498
977.7030, 2253.992
978.8190, 2854.535
979.9350, 3029.098
981.0510, 3564.682
982.1670, 3937.723
983.2830, 4664.340
984.3980, 5116.994
985.5130, 5900.676
986.6290, 7003.373
987.7440, 7973.102
988.8590, 9717.848
989.9730, 11374.61
991.0880, 13359.39
992.2020, 15752.19
993.3160, 18217.00
994.4300, 21062.84
995.5440, 24049.69
996.6580, 26955.56
997.7720, 29792.44
998.8850, 32425.34
999.9980, 34368.23
1001.111, 35985.18
1002.224, 37079.14
1003.337, 37371.11
1004.450, 37227.12
1005.562, 36336.12
1006.674, 35169.10
1007.786, 33883.47
1008.898, 32355.52
1010.010, 30646.60
1011.122, 28480.60
1012.233, 26796.73
1013.344, 24660.88
1014.455, 22694.06
1015.566, 20477.45
1016.677, 18308.73
1017.788, 16291.03
1018.898, 14349.27
1020.009, 12467.53
1021.119, 10869.82
1022.229, 9489.486
1023.339, 8003.686
1024.448, 7282.047
1025.558, 6193.410
1026.667, 5601.797
1027.776, 5000.201
1028.885, 4665.627
1029.994, 4065.295
1031.103, 4133.707
1032.211, 3919.111
1033.320, 3651.586
1034.428, 3684.129
1035.536, 3748.691
1036.644, 3483.303
1037.751, 3624.938
1038.859, 3340.594
1039.966, 3457.270
1041.074, 3290.084
1042.181, 3023.805
1043.288, 2753.586
1044.394, 2671.410
1045.501, 2349.822
1046.607, 2092.146
1047.713, 1881.049
1048.820, 1613.980
1049.925, 1487.934
1051.031, 1462.281
1052.137, 1297.273
1053.242, 1242.818
1054.348, 1294.863
1055.453, 1072.928
1056.558, 1256.023
1057.662, 876.1543
1058.767, 1045.340
1059.871, 989.5410
1060.976, 1097.764
1062.080, 1082.852
1063.184, 1076.303
1064.288, 1015.625
1065.391, 1072.719
1066.495, 1004.080
1067.598, 1038.461
1068.701, 1100.369
1069.804, 1299.188
1070.907, 1265.686
1072.010, 1281.541
1073.112, 1694.957
1074.214, 1766.520
1075.317, 2014.947
1076.419, 2183.076
1077.521, 2609.672
1078.622, 2893.402
1079.724, 3457.104
1080.825, 3928.830
1081.926, 4529.523
1083.027, 4935.283
1084.128, 5609.059
1085.229, 6526.930
1086.329, 6831.740
1087.430, 6983.559
1088.530, 7169.391
1089.630, 7216.236
1090.730, 7107.098
1091.830, 6436.979
1092.929, 5812.959
1094.029, 5129.869
1095.128, 4535.951
1096.227, 3974.781
1097.326, 3391.775
1098.425, 2936.799
1099.523, 2480.832
1100.622, 2232.959
1101.720, 1795.096
1102.818, 1606.160
1103.916, 1356.240
1105.014, 1465.367
1106.111, 1095.477
1107.209, 990.6016
1108.306, 926.7598
1109.403, 786.9277
1110.500, 589.2266
1111.597, 567.7383
1112.694, 539.1777
1113.790, 284.4902
1114.887, 417.7441
1115.983, 373.4922
1117.079, 329.1895
1118.174, 295.4355
1119.270, 364.7832
1120.366, 430.0469
1121.461, 323.3184
1122.556, 460.6270
1123.651, 252.9238
1124.746, 248.2598
1125.841, 278.5996
1126.935, 352.9473
1128.030, 330.3047
1129.124, 248.6660
1130.218, 263.0352
1131.312, 199.4316
1132.405, 388.8359
1133.499, 213.8555
1134.592, 304.2734
1135.686, 508.8262
1136.779, 225.4102
1137.871, 313.8457
1138.964, 439.2832
1140.057, 257.7500
1141.149, 379.2227
1142.241, 69.12500
1143.334, 177.6074
1144.425, 173.0918
1145.517, 481.5801
1146.609, 47.92773
1147.700, 240.5762
1148.791, 3.902344
1149.883, 211.6973
1150.974, 74.23633
1152.064, 51.99219
1153.155, 131.4590
1154.245, 30.96680
1155.336, 2.542969
1156.426, 148.0312
1157.516, 255.5254
1158.606, 228.0195
1159.695, 167.5176
1160.785, 170.9238
1161.874, 34.38086
1162.963, 212.0391
1164.052, 24.64648
1165.141, 102.0703
1166.230, 98.40234
1167.318, 255.3047
1168.406, 111.6055
1169.495, 29.95117
1170.583, 100.4824
1171.670, 2.187500
1172.758, 45.29883
1173.846, 33.53711
1174.933, 66.60352
1176.020, 140.9297
1177.107, 108.9453
1178.194, 283.2656
1179.281, 284.5859
1180.367, 180.9023
1181.454, 22.78516
1182.540, 25.51172
1183.626, 120.1934
1184.712, 62.11914
1185.798, 106.3418
1186.883, 337.5586
1187.969, 233.7773
1189.054, 54.98633
1190.139, 202.1934
1191.224, 216.3945
1192.309, 20.75586
1193.393, 201.9492
1194.478, 76.13672
1195.562, 131.6797
1196.646, 116.4199
1197.730, 277.5156
1198.814, 4.253906
1199.897, 57.47266
1200.981, 41.57422
1202.064, 24.28711
1203.147, 0.2402340
1204.230, 156.6855
1205.313, 14.34180
1206.396, 56.39648
1207.478, 125.6035
1208.560, 29.20703
1209.642, 84.00977
1210.724, 76.80469
1211.806, 107.2422
1212.888, 176.4668
1213.969, 196.1660
1215.051, 28.14453
1216.132, 5.509766
1217.213, 186.3613
1218.294, 81.00195
1219.374, 114.6211
1220.455, 76.22852
1221.535, 101.8281
1222.616, 7.416016
1223.696, 129.9844
1224.775, 259.5430
1225.855, 76.08984
1226.935, 211.6250
1228.014, 133.1504
1229.093, 395.7109
1230.172, 54.21484
1231.251, 56.70508
1232.330, 106.3711
1233.408, 290.8379
1234.487, 73.29297
1235.565, 131.7363
1236.643, 137.1680
1237.721, 108.5879
1238.799, 124.9961
1239.876, 56.39258
1240.954, 11.77344
1242.031, 41.39844
1243.108, 63.58008
1244.185, 82.10352
1245.262, 6.455078
1246.338, 5.101563
1247.415, 126.1406
1248.491, 72.63086
1249.567, 226.6406
1250.643, 146.9297
1251.719, 95.74805
1252.795, 209.9219
1253.870, 216.7402
1254.945, 255.8887
1256.021, 156.0254
1257.096, 209.1621
1258.170, 202.4609
1259.245, 337.3691
1260.320, 177.6230
1261.394, 194.6914
1262.468, 49.94531
1263.542, 143.9746
1264.616, 91.99609
1265.690, 87.05469
1266.763, 292.0410
1267.836, 141.0117
1268.910, 224.4062
1269.983, 220.9648
1271.055, 6.726563
1272.128, 230.1543
1273.201, 171.0195
1274.273, 263.8691
1275.345, 333.7051
1276.417, 128.1875
1277.489, 448.9902
1278.561, 117.6992
1279.632, 254.4707
1280.704, 84.22852
1281.775, 229.4844
1282.846, 208.8418
1283.917, 125.6758
1284.988, 275.3516
1286.058, 200.0293
1287.129, 189.6934
1288.199, 222.3379
1289.269, 118.9707
1290.339, 37.36523
1291.409, 88.95703
1292.478, 50.62305
1293.548, 94.17969
1294.617, 199.7246
1295.686, 67.74805
1296.755, 27.72266
