##NAMES=Catapleiite
##RRUFFID=R060208
##IDEAL CHEMISTRY=Na_2_Zr^4+^Si_3_O_9_&#183;2H_2_O
##LOCALITY=Mont Saint-Hilaire, Rouville County, Quebec, Canada
##OWNER=RRUFF
##SOURCE=Royal Ontario Museum
##DESCRIPTION=Colorless transparent thin tabular pseudohexagonal crystal
##STATUS=The identification of this mineral is confirmed by single-crystal X-ray diffraction and chemical analysis.
##URL=rruff.info/R060208
##MEASURED CHEMISTRY=Na_2.00_Zr_1.00_Si_3.00_O_9_Â·2H_2_O
##PIN_ID=M00973
##ORIENTATION=Laser parallel to (-1 0 -1). Fiducial mark perpendicular to laser is parallel to -b [0 -1 0]
99.34500, 0.0000000E+00
100.5820, 13.60107
101.8200, 0.5961910
103.0570, 133.6802
104.2940, 340.5503
105.5310, 549.3936
106.7680, 905.4810
108.0040, 1326.213
109.2410, 1650.621
110.4770, 1603.782
111.7130, 1755.708
112.9490, 2135.042
114.1850, 2289.590
115.4200, 2448.274
116.6560, 2468.151
117.8910, 2658.428
119.1260, 2563.440
120.3610, 2683.650
121.5960, 2822.880
122.8300, 2732.331
124.0640, 2767.031
125.2990, 2806.671
126.5330, 2848.802
127.7670, 2813.977
129.0000, 3006.817
130.2340, 2839.017
131.4670, 2837.330
132.7000, 2902.553
133.9330, 2736.519
135.1660, 2729.088
136.3990, 2620.147
137.6310, 2468.623
138.8640, 2453.438
140.0960, 2350.517
141.3280, 2176.137
142.5600, 2069.758
143.7910, 2017.568
145.0230, 1918.703
146.2540, 1849.693
147.4850, 1898.810
148.7160, 1895.957
149.9470, 1906.245
151.1780, 1918.269
152.4080, 1930.646
153.6380, 1912.493
154.8690, 1964.430
156.0980, 1950.583
157.3280, 1964.007
158.5580, 1878.744
159.7870, 1907.838
161.0170, 1900.322
162.2460, 1984.229
163.4750, 2077.585
164.7030, 2158.419
165.9320, 2191.755
167.1600, 2244.613
168.3890, 2374.018
169.6170, 2455.986
170.8450, 2633.539
172.0730, 2605.690
173.3000, 2795.438
174.5280, 2929.776
175.7550, 2951.311
176.9820, 3032.125
178.2090, 3264.761
179.4350, 3466.251
180.6620, 3461.620
181.8880, 3614.363
183.1150, 3782.397
184.3410, 3914.315
185.5670, 4218.893
186.7920, 4285.005
188.0180, 4523.084
189.2430, 4841.051
190.4690, 5003.981
191.6940, 5400.171
192.9180, 5654.390
194.1430, 6062.907
195.3680, 6466.409
196.5920, 6811.693
197.8160, 7109.770
199.0400, 7349.102
200.2640, 7593.247
201.4880, 7799.116
202.7110, 7947.438
203.9350, 8163.834
205.1580, 8129.785
206.3810, 8228.415
207.6040, 8238.489
208.8270, 8304.873
210.0490, 8215.287
211.2710, 8097.725
212.4940, 7902.184
213.7160, 7654.661
214.9370, 7220.149
216.1590, 6814.643
217.3810, 6163.128
218.6020, 5538.591
219.8230, 4902.020
221.0440, 4347.403
222.2650, 3737.732
223.4860, 3278.004
224.7060, 2820.215
225.9260, 2456.771
227.1470, 2044.450
228.3670, 1874.476
229.5860, 1618.440
230.8060, 1371.345
232.0260, 1151.190
233.2450, 987.9761
234.4640, 870.7041
235.6830, 763.3750
236.9020, 626.9883
238.1200, 497.5459
239.3390, 517.0479
240.5570, 435.4951
241.7750, 318.8877
242.9930, 174.2271
244.2110, 242.5132
245.4290, 153.7471
246.6460, 156.2246
247.8630, 62.64160
249.0810, 69.96729
250.2980, 139.3291
251.5140, 4.491699
252.7310, 68.29297
253.9470, 71.62012
255.1640, 83.38330
256.3800, 107.5117
257.5960, 138.9497
258.8120, 164.6484
260.0270, 145.4878
261.2430, 115.6753
262.4580, 84.93896
263.6730, 24.33447
264.8880, 30.16455
266.1030, 45.58984
267.3170, 85.96338
268.5320, 120.5037
269.7460, 149.1414
270.9600, 173.0254
272.1740, 217.4380
273.3880, 214.9185
274.6010, 249.4775
275.8150, 302.1328
277.0280, 304.9048
278.2410, 203.8020
279.4540, 246.8020
280.6670, 247.9211
281.8790, 308.1631
283.0920, 225.5479
284.3040, 223.0559
285.5160, 175.6892
286.7280, 241.4380
287.9400, 216.3230
289.1510, 126.3481
290.3630, 159.5046
291.5740, 127.8162
292.7850, 94.28809
293.9960, 64.92139
295.2070, 39.60107
296.4170, 38.66089
297.6280, 9.760986
298.8380, 58.99414
300.0480, 41.62329
301.2580, 79.12573
302.4680, 10.48755
303.6770, 61.76465
304.8870, 88.90308
306.0960, 27.93433
307.3050, 66.84863
308.5140, 161.6560
309.7230, 169.3708
310.9310, 152.9961
312.1400, 163.5315
313.3480, 205.9802
314.5560, 297.3472
315.7640, 440.6360
316.9720, 303.8503
318.1790, 499.9902
319.3870, 562.0576
320.5940, 528.0552
321.8010, 661.9763
323.0080, 742.8301
324.2150, 778.6162
325.4210, 873.3354
326.6280, 926.9888
327.8340, 864.5688
329.0400, 914.0083
330.2460, 833.2439
331.4510, 896.2246
332.6570, 887.9023
333.8620, 792.2263
335.0680, 753.2197
336.2730, 692.8906
337.4780, 536.2266
338.6820, 583.2852
339.8870, 453.0452
341.0910, 493.5784
342.2950, 435.9111
343.5000, 394.0896
344.7030, 388.1355
345.9070, 390.1021
347.1110, 430.4001
348.3140, 545.7756
349.5170, 556.4922
350.7200, 618.1685
351.9230, 689.8008
353.1260, 711.4026
354.3290, 890.9780
355.5310, 976.5271
356.7330, 1127.049
357.9350, 1239.545
359.1370, 1379.014
360.3390, 1463.655
361.5400, 1559.745
362.7420, 1589.263
363.9430, 1684.626
365.1440, 1681.963
366.3450, 1665.276
367.5460, 1491.561
368.7460, 1427.822
369.9470, 1332.058
371.1470, 1245.270
372.3470, 1093.458
373.5470, 1139.621
374.7460, 981.7622
375.9460, 855.8796
377.1450, 887.9749
378.3450, 816.0479
379.5440, 804.0991
380.7430, 780.1284
381.9410, 737.1365
383.1400, 753.1240
384.3380, 712.0908
385.5370, 818.0376
386.7350, 793.9646
387.9320, 834.8726
389.1300, 819.7615
390.3280, 871.6313
391.5250, 869.4946
392.7220, 833.3464
393.9190, 879.1816
395.1160, 962.9907
396.3130, 1036.516
397.5100, 1038.268
398.7060, 1162.985
399.9020, 1217.666
401.0980, 1390.312
402.2940, 1479.920
403.4900, 1481.489
404.6860, 1746.017
405.8810, 2002.501
407.0760, 2099.945
408.2710, 2381.073
409.4660, 2680.743
410.6610, 2911.215
411.8550, 3495.931
413.0500, 3724.249
414.2440, 4261.540
415.4380, 4833.109
416.6320, 5665.668
417.8260, 6552.771
419.0190, 7352.287
420.2130, 8723.883
421.4060, 9928.086
422.5990, 11257.45
423.7920, 12880.92
424.9850, 14516.11
426.1770, 16013.33
427.3700, 17449.54
428.5620, 18421.71
429.7540, 18857.67
430.9460, 18825.31
432.1380, 17909.35
433.3290, 16553.86
434.5210, 14712.12
435.7120, 12853.20
436.9030, 11228.22
438.0940, 9552.941
439.2850, 8215.099
440.4750, 6881.168
441.6660, 5950.905
442.8560, 5148.195
444.0460, 4341.592
445.2360, 3756.378
446.4260, 3350.528
447.6160, 2847.430
448.8050, 2499.201
449.9940, 2169.283
451.1830, 1868.045
452.3720, 1858.363
453.5610, 1571.734
454.7500, 1474.716
455.9380, 1257.836
457.1260, 1170.526
458.3150, 1039.730
459.5020, 948.9150
460.6900, 863.0825
461.8780, 743.2329
463.0650, 719.3672
464.2530, 663.2412
465.4400, 598.5869
466.6270, 643.6729
467.8130, 601.7437
469.0000, 650.7998
470.1870, 501.8418
471.3730, 534.8706
472.5590, 475.8931
473.7450, 494.9033
474.9310, 363.9023
476.1160, 428.8999
477.3020, 381.8906
478.4870, 402.8740
479.6720, 269.8721
480.8570, 334.8730
482.0420, 265.8838
483.2270, 287.8950
484.4110, 320.9111
485.5960, 304.9316
486.7800, 323.9541
487.9640, 316.9980
489.1480, 330.0449
490.3310, 363.1011
491.5150, 362.1763
492.6980, 410.2803
493.8810, 401.3809
495.0640, 434.0137
496.2470, 490.6152
497.4300, 473.7549
498.6120, 486.8999
499.7950, 522.0703
500.9770, 608.2500
502.1590, 532.4541
503.3410, 720.6899
504.5220, 704.9346
505.7040, 746.2026
506.8850, 829.4756
508.0660, 980.7676
509.2470, 1108.068
510.4280, 1206.404
511.6090, 1266.751
512.7890, 1452.125
513.9700, 1626.530
515.1500, 1689.961
516.3300, 1917.431
517.5100, 2158.919
518.6900, 2232.443
519.8690, 2315.972
521.0490, 2392.516
522.2280, 2463.075
523.4070, 2459.679
524.5860, 2337.309
525.7640, 2191.973
526.9430, 2180.646
528.1210, 2042.370
529.3000, 1762.116
530.4780, 1656.889
531.6560, 1424.699
532.8330, 1191.610
534.0110, 1126.457
535.1880, 1010.988
536.3650, 796.8584
537.5430, 764.9077
538.7190, 636.4546
539.8960, 556.2822
541.0730, 567.6079
542.2490, 461.1143
543.4250, 406.7866
544.6020, 418.0225
545.7780, 315.2314
546.9530, 354.3442
548.1290, 396.8555
549.3040, 263.8579
550.4800, 245.2451
551.6550, 362.4893
552.8300, 290.0615
554.0040, 248.7817
555.1790, 357.4482
556.3540, 364.0127
557.5280, 421.6733
558.7020, 430.2354
559.8760, 504.6670
561.0500, 603.6636
562.2230, 697.5371
563.3970, 812.3584
564.5700, 925.8276
565.7430, 1175.654
566.9160, 1185.157
568.0890, 1383.235
569.2620, 1551.875
570.4340, 1659.312
571.6070, 1726.935
572.7790, 1834.587
573.9510, 1765.524
575.1230, 1676.307
576.2940, 1528.327
577.4660, 1257.674
578.6370, 1118.777
579.8080, 989.7339
580.9790, 775.8267
582.1500, 633.7793
583.3210, 453.0107
584.4910, 413.0884
585.6620, 330.1860
586.8320, 296.5322
588.0020, 166.6665
589.1720, 210.9609
590.3410, 188.0098
591.5110, 252.3438
592.6800, 194.4399
593.8500, 147.5439
595.0190, 189.6550
596.1880, 198.8130
597.3560, 316.9414
598.5250, 403.1597
599.6930, 395.2954
600.8620, 398.4329
602.0300, 537.5955
603.1970, 617.8757
604.3650, 720.0205
605.5330, 792.1699
606.7000, 914.3184
607.8680, 1106.468
609.0350, 1269.355
610.2020, 1454.455
611.3680, 1692.487
612.5350, 1897.333
613.7010, 2112.603
614.8680, 2437.794
616.0340, 2977.961
617.2000, 3591.533
618.3660, 4236.810
619.5310, 5179.584
620.6970, 6069.279
621.8620, 7223.389
623.0270, 8507.052
624.1920, 9969.425
625.3570, 11444.52
626.5220, 13175.90
627.6860, 14672.76
628.8500, 15523.26
630.0140, 15946.99
631.1780, 15536.70
632.3420, 14066.07
633.5060, 12240.70
634.6700, 10085.95
635.8330, 8217.884
636.9960, 6433.422
638.1590, 5121.993
639.3220, 3992.144
640.4850, 3210.504
641.6470, 2462.262
642.8100, 2043.838
643.9720, 1593.012
645.1340, 1374.580
646.2960, 1072.846
647.4570, 995.3572
648.6190, 816.4822
649.7800, 633.5273
650.9420, 537.9741
652.1030, 423.8169
653.2640, 377.5073
654.4240, 314.3013
655.5850, 244.4470
656.7450, 271.6631
657.9060, 199.6763
659.0660, 216.8379
660.2260, 135.9634
661.3850, 124.6292
662.5450, 170.4231
663.7040, 28.24487
664.8640, 108.2473
666.0230, 46.89331
667.1820, 42.51343
668.3410, 71.22290
669.4990, 62.43481
670.6580, 46.34033
671.8160, 25.98828
672.9740, 92.08618
674.1320, 24.84351
675.2900, 56.77393
676.4480, 18.77856
677.6050, 19.01099
678.7630, 36.06592
679.9200, 20.58325
681.0770, 13.60400
682.2340, 18.48535
683.3900, 4.194824
684.5470, 12.80957
685.7030, 38.31738
686.8590, 8.824463
688.0150, 72.63330
689.1710, 0.9328610
690.3270, 27.23755
691.4830, 44.37476
692.6380, 9.039551
693.7930, 4.702881
694.9480, 39.16406
696.1030, 22.08081
697.2580, 50.30176
698.4130, 14.16797
699.5670, 21.07080
700.7210, 32.98462
701.8750, 108.9893
703.0290, 4.947021
704.1830, 60.14893
705.3370, 3.689209
706.4900, 117.4927
707.6430, 10.26660
708.7970, 58.00610
709.9490, 32.71338
711.1020, 48.38696
712.2550, 18.02661
713.4070, 54.63037
714.5600, 26.19995
715.7120, 5.732910
716.8640, 39.77344
718.0160, 73.65576
719.1670, 52.04980
720.3190, 96.40771
721.4700, 40.72998
722.6210, 81.01514
723.7720, 82.26392
724.9230, 36.47656
726.0740, 87.65063
727.2250, 54.78809
728.3750, 142.8877
729.5250, 56.95117
730.6750, 126.9766
731.8250, 128.9653
732.9750, 158.9182
734.1240, 111.8347
735.2740, 163.7139
736.4230, 101.5566
737.5720, 127.3616
738.7210, 181.1299
739.8700, 117.8997
741.0190, 90.59351
742.1670, 132.5461
743.3150, 124.1648
744.4630, 152.7771
745.6110, 146.3206
746.7590, 75.64771
747.9070, 89.05737
749.0540, 88.48535
750.2020, 3.873779
751.3490, 103.2163
752.4960, 122.8716
753.6430, 0.8310550
754.7890, 50.03125
755.9360, 104.1892
757.0820, 39.69189
758.2280, 10.34766
759.3740, 12.17603
760.5200, 44.74561
761.6660, 18.65381
762.8120, 26.48193
763.9570, 78.26294
765.1020, 38.99683
766.2470, 57.66382
767.3920, 12.28247
768.5370, 52.15234
769.6810, 1.325928
770.8260, 45.74438
771.9700, 23.11987
773.1140, 7.553955
774.2580, 1.291748
775.4020, 47.90967
776.5460, 42.93164
777.6890, 20.14453
778.8320, 36.82959
779.9750, 65.88354
781.1180, 23.96826
782.2610, 34.22900
783.4040, 75.49609
784.5460, 17.81885
785.6890, 23.79761
786.8310, 74.63452
787.9730, 15.83472
789.1150, 51.74756
790.2560, 58.41602
791.3980, 40.17407
792.5390, 94.01172
793.6810, 15.95776
794.8220, 76.97021
795.9630, 58.91919
797.1030, 0.2299800
798.2440, 9.436768
799.3840, 107.7053
800.5240, 45.08716
801.6650, 80.54883
802.8040, 23.89136
803.9440, 139.7122
805.0840, 30.44458
806.2230, 55.24731
807.3630, 83.13330
808.5020, 48.11646
809.6410, 7.745850
810.7790, 29.63574
811.9180, 19.19116
813.0570, 26.40137
814.1950, 14.83594
815.3330, 21.19482
816.4710, 22.28711
817.6090, 25.08911
818.7470, 15.05469
819.8840, 29.82202
821.0220, 36.99683
822.1590, 65.17017
823.2960, 3.588135
824.4330, 48.22070
825.5690, 64.51074
826.7060, 3.392822
827.8420, 38.83765
828.9790, 42.09058
830.1150, 24.63574
831.2510, 8.254639
832.3860, 14.17676
833.5220, 83.68091
834.6570, 25.50732
835.7930, 65.51318
836.9280, 105.0137
838.0630, 102.7117
839.1980, 137.5376
840.3320, 144.9587
841.4670, 154.7219
842.6010, 106.0208
843.7350, 185.8479
844.8690, 107.1741
846.0030, 129.7612
847.1370, 70.21362
848.2700, 130.7034
849.4040, 135.9688
850.5370, 84.42871
851.6700, 65.69849
852.8030, 169.6829
853.9360, 31.94263
855.0680, 72.37573
856.2000, 151.6931
857.3330, 140.1714
858.4650, 150.9001
859.5970, 81.74951
860.7290, 106.0967
861.8600, 118.1919
862.9920, 81.51562
864.1230, 108.6797
865.2540, 156.0859
866.3850, 11.21631
867.5160, 108.5854
868.6460, 51.93701
869.7770, 47.27051
870.9070, 41.54932
872.0370, 71.84863
873.1670, 44.39746
874.2970, 45.31299
875.4270, 1.436523
876.5570, 27.77490
877.6860, 16.14453
878.8150, 11.05615
879.9440, 0.7607420
881.0730, 11.41016
882.2020, 35.43213
883.3300, 39.51025
884.4590, 27.44043
885.5870, 60.37500
886.7150, 2.780273
887.8430, 21.24951
888.9710, 34.21387
890.0990, 6.832031
891.2260, 35.46289
892.3530, 30.37695
893.4810, 7.786133
894.6080, 28.73584
895.7340, 44.31592
896.8610, 1.193848
897.9880, 33.57422
899.1140, 37.61768
900.2400, 86.36328
901.3660, 97.61719
902.4920, 91.22705
903.6180, 76.60400
904.7430, 23.98291
905.8690, 48.66943
906.9940, 60.83887
908.1190, 95.99023
909.2440, 118.1313
910.3690, 172.5688
911.4930, 180.2427
912.6180, 311.0522
913.7420, 300.7412
914.8660, 309.0254
915.9900, 438.4883
917.1140, 517.3457
918.2380, 567.8047
919.3610, 984.5605
920.4850, 878.0664
921.6080, 1065.953
922.7310, 1171.917
923.8540, 1585.476
924.9760, 1818.908
926.0990, 2120.940
927.2210, 2617.145
928.3440, 2958.994
929.4660, 3280.776
930.5880, 3658.757
931.7090, 3803.604
932.8310, 3927.485
933.9520, 3873.835
935.0740, 3623.054
936.1950, 3318.246
937.3160, 2974.256
938.4360, 2685.623
939.5570, 2215.013
940.6780, 2030.319
941.7980, 1763.122
942.9180, 1493.230
944.0380, 1367.601
945.1580, 1190.532
946.2780, 1180.490
947.3970, 1090.899
948.5170, 979.9414
949.6360, 957.7773
950.7550, 878.2295
951.8740, 844.2300
952.9930, 784.5059
954.1110, 758.4365
955.2300, 734.8022
956.3480, 618.2329
957.4660, 699.7700
958.5840, 776.9600
959.7020, 692.5483
960.8190, 785.1724
961.9370, 849.0610
963.0540, 809.7480
964.1710, 866.4766
965.2880, 1026.203
966.4050, 1172.740
967.5220, 1151.143
968.6380, 1294.035
969.7550, 1425.969
970.8710, 1533.936
971.9870, 1728.937
973.1030, 1851.966
974.2190, 2082.055
975.3340, 2537.174
976.4500, 2702.340
977.5650, 3023.537
978.6800, 3478.762
979.7950, 3773.029
980.9100, 4366.325
982.0250, 4970.671
983.1390, 5546.047
984.2530, 6317.456
985.3680, 7331.896
986.4820, 8529.371
987.5950, 9915.875
988.7090, 11581.43
989.8230, 13815.03
990.9360, 16350.67
992.0490, 19210.34
993.1620, 22518.04
994.2750, 26401.78
995.3880, 30647.56
996.5010, 35070.38
997.6130, 39491.22
998.7250, 43571.10
999.8370, 47985.02
1000.949, 51181.96
1002.061, 53304.95
1003.173, 55105.98
1004.284, 55690.04
1005.396, 55885.13
1006.507, 55140.25
1007.618, 53960.41
1008.729, 52623.60
1009.839, 50460.80
1010.950, 47577.07
1012.060, 44983.08
1013.171, 41601.43
1014.281, 38650.80
1015.391, 35314.22
1016.500, 32053.88
1017.610, 28422.46
1018.719, 24957.04
1019.829, 21839.68
1020.938, 18975.34
1022.047, 16428.70
1023.156, 14224.27
1024.264, 12343.59
1025.373, 10745.47
1026.481, 9328.395
1027.589, 8396.374
1028.697, 7600.929
1029.805, 6916.025
1030.913, 6247.144
1032.020, 5952.340
1033.128, 5691.586
1034.235, 5418.873
1035.342, 5162.280
1036.449, 5212.701
1037.556, 5142.187
1038.663, 5099.739
1039.769, 4911.451
1040.875, 4724.094
1041.981, 4520.832
1043.087, 4238.579
1044.193, 3907.382
1045.299, 3590.241
1046.404, 3170.157
1047.510, 2944.121
1048.615, 2592.149
1049.720, 2522.245
1050.825, 2368.388
1051.930, 2264.591
1053.034, 2171.835
1054.139, 2099.135
1055.243, 1997.748
1056.347, 1963.164
1057.451, 1964.628
1058.555, 1969.163
1059.658, 1931.790
1060.762, 2048.452
1061.865, 2161.518
1062.968, 2295.312
1064.071, 2280.120
1065.174, 2486.187
1066.277, 2619.562
1067.380, 2945.586
1068.482, 3199.111
1069.584, 3522.813
1070.686, 3900.058
1071.788, 4297.346
1072.890, 4767.317
1073.992, 5253.749
1075.093, 6129.255
1076.194, 7080.064
1077.295, 7808.142
1078.396, 9263.824
1079.497, 10452.17
1080.598, 12157.47
1081.698, 14353.31
1082.799, 16548.20
1083.899, 18435.13
1084.999, 20760.20
1086.099, 22994.23
1087.199, 24543.30
1088.298, 25606.41
1089.398, 25757.44
1090.497, 25659.13
1091.596, 24284.36
1092.695, 22540.78
1093.794, 20397.39
1094.892, 18078.00
1095.991, 15774.38
1097.089, 13611.85
1098.187, 11840.45
1099.285, 10059.14
1100.383, 8715.892
1101.481, 7508.481
1102.579, 6532.097
1103.676, 5693.736
1104.773, 4969.408
1105.870, 4295.115
1106.967, 3780.855
1108.064, 3416.629
1109.161, 2949.437
1110.257, 2683.276
1111.353, 2421.139
1112.449, 2154.043
1113.545, 1921.932
1114.641, 1775.899
1115.737, 1603.898
1116.832, 1379.932
1117.928, 1308.992
1119.023, 1099.083
1120.118, 1050.889
1121.213, 1033.686
1122.308, 860.4258
1123.402, 821.6382
1124.497, 786.8823
1125.591, 930.0830
1126.685, 786.7358
1127.779, 617.6104
1128.873, 687.9731
1129.967, 496.8232
1131.060, 618.2422
1132.153, 499.9160
1133.247, 555.3911
1134.340, 502.8940
1135.433, 526.4233
1136.525, 438.9805
1137.618, 428.6108
1138.710, 453.2231
1139.802, 348.8613
1140.895, 256.5254
1141.987, 379.1987
1143.078, 365.0225
1144.170, 281.9663
1145.261, 233.7388
1146.353, 256.1475
1147.444, 211.6167
1148.535, 158.5518
1149.626, 160.5337
1150.716, 178.9478
1151.807, 210.9575
1152.897, 135.9014
1153.988, 156.9941
1155.078, 57.89209
1156.168, 77.09912
1157.257, 118.6831
1158.347, 68.73730
1159.436, 68.15234
1160.526, 102.0645
1161.615, 8.980469
1162.704, 60.92188
1163.793, 76.53564
1164.881, 32.04785
1165.970, 2.183105
1167.058, 50.64502
1168.147, 95.28027
1169.235, 75.69531
1170.323, 53.05273
1171.410, 135.2026
1172.498, 3.451172
1173.585, 125.8311
1174.673, 40.75635
1175.760, 1.835449
1176.847, 56.21387
1177.934, 118.7466
1179.020, 101.9873
1180.107, 153.0044
1181.193, 135.9590
1182.279, 173.3394
1183.365, 122.7305
1184.451, 71.13135
1185.537, 16.44287
1186.623, 110.0400
1187.708, 54.59814
1188.793, 16.25781
1189.878, 41.22705
1190.963, 36.29736
1192.048, 48.25586
1193.133, 46.63428
1194.217, 104.9185
1195.302, 8.888184
1196.386, 71.37793
1197.470, 35.98730
1198.554, 18.45410
1199.638, 21.75732
1200.721, 3.678711
1201.805, 54.08789
1202.888, 48.33105
1203.971, 11.06787
1205.054, 1.656738
1206.137, 37.94092
1207.219, 63.88379
1208.302, 3.092285
1209.384, 20.48877
1210.466, 101.1157
1211.548, 26.93896
1212.630, 44.35107
1213.712, 53.73975
1214.794, 49.87549
1215.875, 3.421875
1216.956, 22.93213
1218.037, 5.257324
1219.118, 68.90820
1220.199, 8.552246
1221.280, 30.72559
1222.360, 45.87451
1223.441, 4.809570
1224.521, 64.79053
1225.601, 32.41748
1226.681, 3.830566
1227.760, 59.91357
1228.840, 41.69336
1229.919, 41.19092
1230.999, 6.750000
1232.078, 7.850586
1233.157, 31.94434
1234.236, 44.03027
1235.314, 39.61133
1236.393, 52.34277
1237.471, 25.77148
1238.549, 37.82617
1239.627, 22.04492
1240.705, 28.79346
1241.783, 74.21680
1242.860, 60.66797
1243.938, 34.41406
1245.015, 69.36035
1246.092, 18.29688
1247.169, 40.22217
1248.246, 29.27295
1249.323, 1.401855
1250.399, 32.45557
1251.475, 5.394531
1252.552, 30.28564
1253.628, 67.62988
1254.703, 0.5175780
1255.779, 1.916992
1256.855, 95.70557
1257.930, 124.9922
1259.005, 13.87549
1260.080, 42.61475
1261.155, 22.85889
1262.230, 69.55078
1263.305, 87.42969
1264.379, 57.09326
1265.454, 54.12793
1266.528, 36.92578
1267.602, 51.06201
1268.676, 60.78662
1269.750, 51.52441
1270.823, 13.64209
1271.897, 40.30615
1272.970, 5.379883
1274.043, 98.34863
1275.116, 5.934570
