##NAMES=Catapleiite
##RRUFFID=R060208
##IDEAL CHEMISTRY=Na_2_Zr^4+^Si_3_O_9_&#183;2H_2_O
##LOCALITY=Mont Saint-Hilaire, Rouville County, Quebec, Canada
##OWNER=RRUFF
##SOURCE=Royal Ontario Museum
##DESCRIPTION=Colorless transparent thin tabular pseudohexagonal crystal
##STATUS=The identification of this mineral is confirmed by single-crystal X-ray diffraction and chemical analysis.
##URL=rruff.info/R060208
##MEASURED CHEMISTRY=Na_2.00_Zr_1.00_Si_3.00_O_9_Â·2H_2_O
##PIN_ID=M01705
##ORIENTATION=Laser parallel to a* (1 0 0). Fiducial mark perpendicular to laser is parallel to -b [0 -1 0]
122.1480, 0.0000000E+00
123.3810, 7.346680
124.6150, 72.55566
125.8480, 94.43457
127.0810, 162.7861
128.3130, 97.65137
129.5460, 322.3027
130.7790, 379.3291
132.0110, 345.3760
133.2430, 520.4062
134.4750, 591.3730
135.7070, 613.3320
136.9380, 711.5986
138.1700, 740.0752
139.4010, 861.2676
140.6330, 863.5859
141.8640, 916.9590
143.0950, 1066.993
144.3250, 1142.057
145.5560, 1266.683
146.7860, 1337.539
148.0160, 1307.395
149.2470, 1488.098
150.4760, 1687.641
151.7060, 1589.291
152.9360, 1944.522
154.1650, 1845.216
155.3950, 1915.458
156.6240, 1897.565
157.8530, 1968.688
159.0820, 2064.133
160.3100, 1944.249
161.5390, 2033.762
162.7670, 1953.362
163.9950, 1615.146
165.2230, 1713.258
166.4510, 1744.851
167.6790, 1550.055
168.9060, 1567.991
170.1340, 1436.766
171.3610, 1341.467
172.5880, 1259.175
173.8150, 1264.971
175.0420, 1177.921
176.2690, 1154.405
177.4950, 1125.951
178.7210, 1046.359
179.9470, 1209.154
181.1730, 1244.887
182.3990, 1199.018
183.6250, 1251.829
184.8500, 1272.151
186.0760, 1424.997
187.3010, 1553.435
188.5260, 1713.944
189.7510, 1786.806
190.9750, 1916.204
192.2000, 1965.448
193.4240, 2064.197
194.6490, 2424.840
195.8730, 2427.916
197.0970, 2545.423
198.3200, 2768.605
199.5440, 2813.604
200.7670, 3047.049
201.9910, 3052.307
203.2140, 3070.489
204.4370, 3196.967
205.6590, 3217.598
206.8820, 3208.371
208.1050, 3204.413
209.3270, 3143.117
210.5490, 3084.436
211.7710, 2989.672
212.9930, 2898.000
214.2150, 2816.408
215.4360, 2602.888
216.6570, 2265.427
217.8790, 1890.018
219.1000, 1775.651
220.3210, 1536.322
221.5410, 1443.024
222.7620, 1175.752
223.9820, 1039.624
225.2030, 865.3848
226.4230, 848.1523
227.6430, 566.6367
228.8620, 484.2773
230.0820, 436.3262
231.3010, 598.1924
232.5210, 463.8174
233.7400, 203.2383
234.9590, 342.0166
236.1780, 65.19727
237.3960, 50.37109
238.6150, 102.5332
239.8330, 9.355469
241.0510, 59.70801
242.2690, 34.72363
243.4870, 41.30566
244.7050, 51.37793
245.9230, 208.4941
247.1400, 149.6514
248.3570, 169.8477
249.5740, 160.0859
250.7910, 47.36328
252.0080, 5.308594
253.2240, 40.11816
254.4410, 71.56250
255.6570, 60.31934
256.8730, 120.8408
258.0890, 143.6865
259.3050, 1.222656
260.5210, 112.4268
261.7360, 109.1934
262.9510, 123.0625
264.1670, 62.97363
265.3820, 36.06250
266.5960, 43.33984
267.8110, 31.42578
269.0260, 58.88184
270.2400, 80.95996
271.4540, 244.3164
272.6680, 356.4395
273.8820, 173.4531
275.0960, 143.3740
276.3090, 43.76074
277.5230, 37.04297
278.7360, 28.16992
279.9490, 65.60840
281.1620, 31.41992
282.3750, 126.7285
283.5880, 349.8467
284.8000, 369.9277
286.0120, 442.9590
287.2240, 457.9307
288.4360, 720.8340
289.6480, 602.6592
290.8600, 832.4033
292.0710, 825.0615
293.2830, 734.6318
294.4940, 901.1162
295.7050, 803.5127
296.9160, 879.8232
298.1260, 755.0430
299.3370, 757.1621
300.5470, 973.1650
301.7580, 785.0400
302.9680, 658.7900
304.1770, 862.4102
305.3870, 624.8984
306.5970, 514.2471
307.8060, 479.4570
309.0150, 518.5283
310.2250, 617.4707
311.4340, 609.2910
312.6420, 656.9971
313.8510, 589.5928
315.0590, 639.0850
316.2680, 688.4785
317.4760, 598.7783
318.6840, 464.9902
319.8920, 501.1133
321.0990, 465.1562
322.3070, 499.1182
323.5140, 321.0049
324.7210, 610.7969
325.9280, 429.4336
327.1350, 370.8984
328.3420, 480.2158
329.5490, 423.2891
330.7550, 229.9688
331.9610, 304.2920
333.1670, 273.4434
334.3730, 216.4639
335.5790, 210.3564
336.7840, 48.16406
337.9900, 106.8193
339.1950, 299.1865
340.4000, 112.4229
341.6050, 11.52637
342.8100, 115.3799
344.0150, 7.891602
345.2190, 4.724609
346.4230, 23.41699
347.6280, 57.76855
348.8320, 158.9434
350.0350, 138.1162
351.2390, 235.2871
352.4430, 337.4570
353.6460, 401.6250
354.8490, 390.7920
356.0520, 357.9580
357.2550, 328.1211
358.4580, 417.2822
359.6600, 538.4414
360.8630, 647.5986
362.0650, 687.7520
363.2670, 819.9023
364.4690, 587.0508
365.6710, 582.1963
366.8720, 678.3379
368.0740, 620.4785
369.2750, 752.6143
370.4760, 476.7480
371.6770, 497.8789
372.8780, 581.0049
374.0780, 583.1240
375.2790, 535.1279
376.4790, 536.2295
377.6790, 469.3154
378.8790, 442.8721
380.0790, 500.7217
381.2790, 392.1201
382.4780, 389.0703
383.6780, 426.6357
384.8770, 404.6494
386.0760, 412.7930
387.2750, 492.9238
388.4730, 377.2656
389.6720, 443.0869
390.8700, 368.1611
392.0690, 291.0410
393.2670, 371.8066
394.4650, 531.2998
395.6620, 480.9873
396.8600, 632.1035
398.0570, 615.4883
399.2550, 491.4209
400.4520, 384.8174
401.6490, 443.6328
402.8450, 678.6924
404.0420, 789.3594
405.2390, 866.0430
406.4350, 1273.076
407.6310, 1329.387
408.8270, 1679.623
410.0230, 2023.699
411.2190, 2145.505
412.4140, 2507.250
413.6090, 3009.346
414.8050, 3780.113
416.0000, 4239.688
417.1940, 5172.293
418.3890, 5957.402
419.5840, 7195.444
420.7780, 8275.163
421.9720, 9497.943
423.1660, 10776.35
424.3600, 11974.38
425.5540, 13043.56
426.7480, 13851.16
427.9410, 14364.74
429.1340, 14362.34
430.3270, 14014.92
431.5200, 13018.50
432.7130, 11961.08
433.9060, 10609.64
435.0980, 9270.214
436.2900, 7912.773
437.4830, 6758.330
438.6750, 5632.881
439.8660, 4831.406
441.0580, 4229.965
442.2500, 3616.498
443.4410, 3153.026
444.6320, 2867.552
445.8230, 2524.073
447.0140, 2107.592
448.2050, 1964.107
449.3950, 1620.621
450.5860, 1482.134
451.7760, 1576.646
452.9660, 1261.160
454.1560, 1154.673
455.3450, 961.1865
456.5350, 800.7031
457.7240, 778.2217
458.9140, 520.7412
460.1030, 476.2646
461.2920, 429.7920
462.4810, 441.3223
463.6690, 533.8574
464.8580, 569.3965
466.0460, 478.9414
467.2340, 413.4023
468.4220, 183.9580
469.6100, 374.5205
470.7970, 370.0879
471.9850, 176.6641
473.1720, 363.2510
474.3590, 265.4238
475.5460, 371.9336
476.7330, 156.3535
477.9200, 164.5605
479.1060, 179.7676
480.2930, 10.83398
481.4790, 253.0137
482.6650, 121.6973
483.8510, 208.6328
485.0370, 199.9219
486.2220, 142.9355
487.4080, 165.9844
488.5930, 216.4355
489.7780, 151.8750
490.9630, 155.8145
492.1480, 222.2207
493.3320, 193.5840
494.5170, 84.39844
495.7010, 127.4004
496.8850, 212.4395
498.0690, 358.5098
499.2530, 213.6719
500.4360, 358.8574
501.6200, 350.0645
502.8030, 437.3066
503.9860, 402.5801
505.1690, 545.8789
506.3520, 628.2051
507.5350, 744.5723
508.7170, 544.9785
509.9000, 889.4160
511.0820, 991.8867
512.2640, 1113.379
513.4460, 1396.936
514.6270, 1385.520
515.8090, 1600.125
516.9900, 1856.785
518.1710, 1991.514
519.3530, 2023.311
520.5330, 1948.219
521.7140, 2102.203
522.8950, 2276.225
524.0750, 2108.311
525.2550, 2255.469
526.4350, 2313.686
527.6150, 2158.957
528.7950, 2253.266
529.9750, 2126.928
531.1540, 2125.336
532.3340, 2154.805
533.5130, 2143.381
534.6920, 2023.004
535.8700, 2016.756
537.0490, 2075.227
538.2280, 2209.840
539.4060, 2087.152
540.5840, 2000.414
541.7620, 1854.303
542.9400, 1986.084
544.1180, 1982.217
545.2950, 2271.295
546.4720, 2280.639
547.6500, 2150.137
548.8270, 2517.508
550.0040, 2412.197
551.1800, 2667.691
552.3570, 2877.520
553.5330, 3148.771
554.7090, 3363.611
555.8850, 3801.709
557.0610, 4249.566
558.2370, 4842.676
559.4130, 5395.930
560.5880, 6090.930
561.7630, 6968.902
562.9380, 7950.031
564.1130, 8989.383
565.2880, 10238.00
566.4630, 11542.02
567.6370, 12902.86
568.8120, 13981.61
569.9860, 14641.57
571.1600, 15249.10
572.3330, 15548.69
573.5070, 15247.02
574.6810, 14457.73
575.8540, 13541.45
577.0270, 12209.79
578.2000, 10419.42
579.3730, 9349.785
580.5460, 7730.158
581.7180, 6429.533
582.8910, 5372.916
584.0630, 4565.307
585.2350, 3849.699
586.4070, 3291.100
587.5780, 2731.506
588.7500, 2283.914
589.9210, 1969.330
591.0930, 1763.752
592.2640, 1535.176
593.4350, 1332.176
594.6050, 1191.936
595.7760, 1001.473
596.9460, 946.9121
598.1170, 832.3555
599.2870, 731.2305
600.4570, 693.2500
601.6260, 747.7012
602.7960, 768.1562
603.9650, 936.6133
605.1350, 898.0703
606.3040, 1159.533
607.4730, 1044.994
608.6420, 1363.459
609.8100, 1545.924
610.9790, 1732.391
612.1470, 2088.855
613.3150, 2153.693
614.4830, 2512.197
615.6510, 3217.311
616.8190, 3836.029
617.9860, 4660.611
619.1540, 5711.195
620.3210, 7183.068
621.4880, 8269.523
622.6550, 9765.727
623.8220, 11188.61
624.9880, 12682.40
626.1550, 13970.98
627.3210, 15181.09
628.4870, 15546.15
629.6530, 14968.32
630.8190, 14106.07
631.9840, 12447.67
633.1500, 10714.07
634.3150, 8730.188
635.4800, 7240.047
636.6450, 5702.912
637.8100, 4551.248
638.9740, 3647.961
640.1390, 2967.051
641.3030, 2324.805
642.4670, 1961.818
643.6310, 1761.590
644.7950, 1534.568
645.9590, 1101.502
647.1220, 918.9570
648.2850, 862.8047
649.4490, 853.6523
650.6120, 713.7344
651.7740, 721.5996
652.9370, 602.9375
654.1000, 354.2266
655.2620, 419.0391
656.4240, 263.7969
657.5860, 271.9199
658.7480, 222.8418
659.9100, 264.5469
661.0710, 404.8340
662.2330, 101.8203
663.3940, 288.7129
664.5550, 198.7500
665.7160, 203.9805
666.8770, 211.7383
668.0370, 196.0645
669.1980, 18.59375
670.3580, 211.9160
671.5180, 236.1855
672.6780, 202.3555
673.8380, 158.0059
674.9970, 109.1582
676.1570, 4.365234
677.3160, 33.21875
678.4750, 25.69141
679.6340, 140.3613
680.7930, 9.492188
681.9520, 3.662109
683.1100, 202.9688
684.2680, 29.63477
685.4270, 10.62109
686.5850, 97.17773
687.7420, 335.2793
688.9000, 10.03711
690.0580, 167.5352
691.2150, 91.03320
692.3720, 111.8809
693.5290, 71.66992
694.6860, 60.59570
695.8430, 84.12695
696.9990, 165.2891
698.1560, 93.41016
699.3120, 94.58398
700.4680, 166.7793
701.6240, 94.89453
702.7800, 12.89453
703.9350, 30.18359
705.0900, 2.613281
706.2460, 14.35156
707.4010, 84.62305
708.5560, 37.70117
709.7110, 145.7324
710.8650, 132.7188
712.0200, 244.6621
713.1740, 110.5645
714.3280, 5.503906
715.4820, 288.2891
716.6360, 141.0410
717.7890, 292.7461
718.9430, 343.4102
720.0960, 302.0312
721.2490, 274.6113
722.4020, 329.1484
723.5550, 326.6406
724.7080, 572.0918
725.8600, 654.4980
727.0130, 523.8633
728.1650, 690.1836
729.3170, 585.4609
730.4690, 858.6953
731.6200, 567.8848
732.7720, 695.0293
733.9230, 872.1328
735.0740, 800.1914
736.2250, 901.2031
737.3760, 766.1719
738.5270, 891.0957
739.6780, 718.9746
740.8280, 699.8516
741.9780, 718.6406
743.1280, 532.3887
744.2780, 625.0879
745.4280, 497.7402
746.5770, 285.3496
747.7270, 297.9141
748.8760, 287.4297
750.0250, 427.9023
751.1740, 153.3301
752.3230, 234.7070
753.4720, 90.03711
754.6200, 1.318359
755.7680, 218.5215
756.9160, 219.6758
758.0640, 150.7852
759.2120, 10.15625
760.3600, 75.82031
761.5070, 150.7422
762.6550, 174.6172
763.8020, 226.4414
764.9490, 15.21875
766.0960, 111.9258
767.2420, 89.58203
768.3890, 191.1855
769.5350, 55.74023
770.6810, 65.23633
771.8270, 39.67773
772.9730, 163.0566
774.1190, 4.386719
775.2640, 34.63867
776.4100, 200.1758
777.5550, 101.8242
778.7000, 180.7734
779.8450, 19.66992
780.9900, 24.49414
782.1340, 119.2520
783.2790, 44.95898
784.4230, 5.396484
785.5670, 11.83594
786.7110, 46.63867
787.8550, 17.05078
788.9980, 128.3906
790.1420, 93.32227
791.2850, 48.83594
792.4280, 129.9336
793.5710, 60.01758
794.7140, 114.0820
795.8560, 111.2871
796.9990, 283.6289
798.1410, 134.2012
799.2830, 14.07422
800.4250, 33.72461
801.5670, 68.61914
802.7090, 40.62695
803.8500, 88.26367
804.9920, 182.1055
806.1330, 130.8984
807.2740, 170.7695
808.4150, 175.5527
809.5550, 125.6719
810.6960, 139.2715
811.8360, 151.8574
812.9760, 69.36133
814.1160, 137.1875
815.2560, 180.8770
816.3960, 162.8691
817.5350, 148.9160
818.6750, 146.3203
819.8140, 74.15430
820.9530, 33.97070
822.0920, 35.87695
823.2310, 18.18555
824.3690, 7.699219
825.5080, 114.5586
826.6460, 128.1250
827.7840, 151.4238
828.9220, 316.3340
830.0600, 142.3516
831.1970, 103.7832
832.3350, 88.96680
833.4720, 301.3984
834.6090, 183.6328
835.7460, 70.81055
836.8830, 86.27930
838.0190, 33.88086
839.1560, 59.86133
840.2920, 54.35938
841.4280, 22.95312
842.5640, 5.544922
843.7000, 46.02344
844.8360, 151.6738
845.9710, 264.0879
847.1070, 139.9180
848.2420, 240.6543
849.3770, 134.6309
850.5120, 85.22461
851.6460, 366.8008
852.7810, 246.7129
853.9150, 261.3242
855.0490, 190.1738
856.1830, 298.9922
857.3170, 412.7852
858.4510, 186.5488
859.5840, 253.2812
860.7180, 192.9883
861.8510, 329.6641
862.9840, 183.3125
864.1170, 120.9473
865.2500, 207.5547
866.3820, 281.1348
867.5150, 135.6855
868.6470, 198.2129
869.7790, 223.7129
870.9110, 327.1855
872.0430, 181.6328
873.1740, 90.05664
874.3060, 353.4531
875.4370, 129.8262
876.5680, 40.17383
877.6990, 217.4980
878.8300, 343.7988
879.9600, 277.0742
881.0910, 232.3281
882.2210, 112.5586
883.3510, 217.7676
884.4810, 309.9570
885.6110, 85.14062
886.7410, 396.3047
887.8700, 237.0898
888.9990, 310.1934
890.1290, 376.6660
891.2580, 437.5098
892.3860, 417.6973
893.5150, 316.4648
894.6440, 363.1250
895.7720, 373.1055
896.9000, 378.4121
898.0280, 620.0879
899.1560, 581.8477
900.2840, 471.8184
901.4110, 653.2344
902.5390, 861.6992
903.6660, 913.0547
904.7930, 647.8223
905.9200, 1234.719
907.0470, 1147.807
908.1730, 1546.148
909.3000, 1544.734
910.4260, 1943.293
911.5520, 2009.361
912.6780, 2553.033
913.8030, 2942.305
914.9290, 3052.895
916.0540, 3684.203
917.1800, 4280.729
918.3050, 4918.027
919.4300, 6002.354
920.5550, 6820.137
921.6790, 8091.504
922.8040, 9870.848
923.9280, 11745.94
925.0520, 13592.23
926.1760, 15848.46
927.3000, 18402.87
928.4230, 20476.17
929.5470, 22303.49
930.6700, 24008.43
931.7930, 24400.55
932.9160, 24134.88
934.0390, 23112.59
935.1620, 21499.58
936.2840, 19103.65
937.4070, 16732.55
938.5290, 14196.24
939.6510, 11724.38
940.7730, 9977.922
941.8940, 8671.285
943.0160, 6890.828
944.1370, 6373.402
945.2580, 5592.773
946.3800, 4758.215
947.5000, 4597.791
948.6210, 3945.029
949.7420, 3386.566
950.8620, 2939.322
951.9820, 2713.012
953.1020, 2400.723
954.2220, 1972.441
955.3420, 1566.330
956.4620, 1464.432
957.5810, 1432.879
958.7000, 1207.531
959.8190, 1067.861
960.9380, 1082.588
962.0570, 844.4062
963.1760, 1054.338
964.2940, 763.4941
965.4120, 869.5312
966.5300, 932.4688
967.6480, 876.3672
968.7660, 917.6641
969.8840, 872.0254
971.0010, 963.0762
972.1190, 1031.020
973.2360, 963.5195
974.3530, 1277.199
975.4690, 1380.342
976.5860, 1598.586
977.7030, 1662.564
978.8190, 1948.926
979.9350, 2312.635
981.0510, 2601.320
982.1670, 2716.102
983.2830, 3269.812
984.3980, 3522.938
985.5130, 4225.602
986.6290, 4791.367
987.7440, 5795.146
988.8590, 6790.943
989.9730, 8056.754
991.0880, 9478.574
992.2020, 11099.38
993.3160, 13122.27
994.4300, 14988.14
995.5440, 17204.02
996.6580, 19742.93
997.7720, 21774.72
998.8850, 23381.64
999.9980, 25209.59
1001.111, 26587.55
1002.224, 27373.53
1003.337, 27633.52
1004.450, 27884.52
1005.562, 27463.54
1006.674, 26526.59
1007.786, 25931.64
1008.898, 24327.72
1010.010, 23323.94
1011.122, 21906.04
1012.233, 20438.19
1013.344, 18778.36
1014.455, 17375.91
1015.566, 15760.77
1016.677, 14114.35
1017.788, 12571.59
1018.898, 11050.44
1020.009, 9390.719
1021.119, 8181.746
1022.229, 6972.062
1023.339, 6205.398
1024.448, 5272.773
1025.558, 4709.107
1026.667, 4263.537
1027.776, 3840.033
1028.885, 3506.682
1029.994, 3206.170
1031.103, 2973.670
1032.211, 2801.467
1033.320, 2632.631
1034.428, 2569.521
1035.536, 2515.240
1036.644, 2439.180
1037.751, 2473.016
1038.859, 2461.783
1039.966, 2451.801
1041.074, 2370.645
1042.181, 2015.523
1043.288, 1763.422
1044.394, 1803.352
1045.501, 1748.385
1046.607, 1437.426
1047.713, 1143.486
1048.820, 984.5820
1049.925, 957.6914
1051.031, 876.8223
1052.137, 780.9746
1053.242, 824.1504
1054.348, 636.4492
1055.453, 615.6953
1056.558, 577.9648
1057.662, 638.2656
1058.767, 546.8516
1059.871, 431.2461
1060.976, 348.1758
1062.080, 342.6230
1063.184, 468.2832
1064.288, 429.8809
1065.391, 177.5000
1066.495, 443.2266
1067.598, 601.0215
1068.701, 418.8477
1069.804, 741.8828
1070.907, 650.8906
1072.010, 563.8457
1073.112, 853.8223
1074.214, 940.7891
1075.317, 1152.799
1076.419, 1063.527
1077.521, 1185.568
1078.622, 1328.627
1079.724, 1738.703
1080.825, 1834.791
1081.926, 2224.898
1083.027, 2449.717
1084.128, 2840.852
1085.229, 3092.002
1086.329, 3191.168
1087.430, 3381.346
1088.530, 3642.783
1089.630, 3627.023
1090.730, 3440.701
1091.830, 2997.293
1092.929, 2913.291
1094.029, 2297.570
1095.128, 2113.918
1096.227, 1846.277
1097.326, 1616.646
1098.425, 1298.408
1099.523, 1177.150
1100.622, 819.2363
1101.720, 781.0977
1102.818, 558.8633
1103.916, 468.6035
1105.014, 414.1230
1106.111, 399.5918
1107.209, 297.1270
1108.306, 50.64453
1109.403, 67.79297
1110.500, 192.8633
1111.597, 2.585938
1112.694, 317.3125
1113.790, 7.097656
1114.887, 169.4668
1115.983, 171.9590
1117.079, 164.5625
1118.174, 305.0898
1119.270, 251.7988
1120.366, 178.3359
1121.461, 72.04688
1122.556, 488.1602
1123.651, 164.7148
1124.746, 128.2695
1125.841, 438.8301
1126.935, 257.3984
1128.030, 34.96484
1129.124, 96.46094
1130.218, 180.3672
1131.312, 286.9238
1132.405, 25.49023
1133.499, 279.3438
1134.592, 173.0449
1135.686, 183.6172
1136.779, 226.1914
1137.871, 77.76758
1138.964, 119.4004
1140.057, 191.9492
1141.149, 8.000000
1142.241, 88.28125
1143.334, 73.12891
1144.425, 140.1484
1145.517, 18.89453
1146.609, 485.7559
1147.700, 311.5488
1148.791, 332.1855
1149.883, 110.1777
1150.974, 322.6465
1152.064, 93.76172
1153.155, 40.79688
1154.245, 359.3516
1155.336, 227.8027
1156.426, 124.4766
1157.516, 175.3574
1158.606, 0.4570310
1159.695, 36.96680
1160.785, 90.20117
1161.874, 303.4531
1162.963, 22.23047
1164.052, 79.18945
1165.141, 213.5000
1166.230, 57.92383
1167.318, 130.5781
1168.406, 28.18945
1169.495, 99.94336
1170.583, 1.843750
1171.670, 101.3281
1172.758, 124.2207
1173.846, 167.4082
1174.933, 185.6836
1176.020, 20.75195
1177.107, 150.1191
1178.194, 143.2715
1179.281, 41.41211
1180.367, 110.4551
1181.454, 197.6680
1182.540, 90.78125
1183.626, 79.88672
1184.712, 34.98242
1185.798, 202.0664
1186.883, 182.1406
1187.969, 148.2031
1189.054, 26.63672
1190.139, 82.38281
1191.224, 4.449219
1192.309, 90.95898
1193.393, 37.93359
1194.478, 69.92969
1195.562, 85.03516
1196.646, 135.9727
1197.730, 128.8965
1198.814, 176.8066
1199.897, 48.70117
1200.981, 69.58008
1202.064, 148.4414
1203.147, 164.2891
1204.230, 89.87891
1205.313, 125.8770
1206.396, 12.61523
1207.478, 440.0020
1208.560, 158.6992
1209.642, 199.3828
1210.724, 275.0488
1211.806, 112.6973
1212.888, 0.3320310
1213.969, 125.9297
1215.051, 120.6562
1216.132, 191.2207
1217.213, 165.7676
1218.294, 70.29492
1219.374, 147.8027
1220.455, 37.70703
1221.535, 13.72656
1222.616, 29.12891
1223.696, 3.503906
1224.775, 322.8398
1225.855, 215.1582
1226.935, 215.4922
1228.014, 49.07812
1229.093, 56.50586
1230.172, 4.171875
1231.251, 48.47656
1232.330, 29.36133
1233.408, 22.74219
1234.487, 129.8105
1235.565, 260.8574
1236.643, 139.8828
1237.721, 207.8867
1238.799, 62.13086
1239.876, 3.576172
1240.954, 187.6328
1242.031, 75.42578
1243.108, 151.2422
1244.185, 332.9492
1245.262, 212.7168
1246.338, 178.0645
1247.415, 180.7852
1248.491, 115.9883
1249.567, 220.1621
1250.643, 120.8164
1251.719, 57.44727
1252.795, 184.0898
1253.870, 237.6699
1254.945, 386.4922
1256.021, 346.0254
1257.096, 252.5371
1258.170, 245.0254
1259.245, 100.6973
1260.320, 230.0020
1261.394, 168.5996
1262.468, 101.9941
1263.542, 140.3633
1264.616, 360.4824
1265.690, 276.8008
1266.763, 275.0996
1267.836, 179.2578
1268.910, 57.50781
1269.983, 19.85156
1271.055, 1.662109
1272.128, 142.2305
1273.201, 47.31641
1274.273, 118.3672
1275.345, 191.0391
1276.417, 158.0332
1277.489, 195.8359
1278.561, 226.7832
1279.632, 138.2949
1280.704, 304.1914
1281.775, 197.3301
1282.846, 274.5918
1283.917, 22.98438
1284.988, 153.7734
1286.058, 108.5801
1287.129, 72.28516
1288.199, 240.9902
1289.269, 32.46094
1290.339, 28.07422
1291.409, 16.14258
1292.478, 56.00586
1293.548, 60.07031
1294.617, 98.35547
1295.686, 5.183594
1296.755, 193.5391
