##NAMES=Catapleiite
##RRUFFID=R060198
##IDEAL CHEMISTRY=Na_2_Zr^4+^Si_3_O_9_&#183;2H_2_O
##LOCALITY=Mont Saint-Hilaire, Rouville County, Quebec, Canada
##OWNER=RRUFF
##SOURCE=Royal Ontario Museum
##DESCRIPTION=Tan colored pseudohexagonal tabular crystals
##STATUS=The identification of this mineral has been confirmed by X-ray diffraction and chemical analysis
##URL=rruff.info/R060198
##MEASURED CHEMISTRY=(Na_1.92_Ca_0.04_[box]_0.04_)_Σ=2_Zr_1.00_Si_3.00_O_9_·2H_2_O
##PIN_ID=L01561
##ORIENTATION=Laser parallel to b* (0 1 0). Fiducial mark perpendicular to laser is parallel to c [0 0 1]
95.94800, 0.0000000E+00
97.18200, 0.6650390
98.41600, 36.90137
99.64900, 84.48828
100.8830, 111.6211
102.1160, 43.36328
103.3490, 157.5107
104.5820, 251.5762
105.8150, 496.5605
107.0470, 802.8467
108.2800, 1491.945
109.5120, 1871.256
110.7440, 1276.139
111.9760, 936.0254
113.2080, 1191.473
114.4400, 1145.353
115.6710, 1458.114
116.9030, 1563.038
118.1340, 1461.784
119.3650, 1440.149
120.5960, 1451.102
121.8270, 1396.870
123.0580, 1455.477
124.2880, 1591.237
125.5190, 1678.976
126.7490, 1534.562
127.9790, 1768.907
129.2090, 1744.061
130.4390, 1958.278
131.6680, 1957.257
132.8980, 2133.512
134.1270, 2176.228
135.3560, 2117.059
136.5850, 2357.585
137.8140, 2747.102
139.0430, 2869.731
140.2710, 2915.394
141.5000, 3073.203
142.7280, 3197.674
143.9560, 3272.781
145.1840, 3498.314
146.4120, 3738.475
147.6390, 3904.363
148.8670, 3959.067
150.0940, 4114.668
151.3210, 4378.240
152.5490, 4424.842
153.7750, 4598.535
155.0020, 4654.367
156.2290, 4676.388
157.4550, 4655.669
158.6810, 4503.285
159.9080, 4335.304
161.1340, 4307.441
162.3590, 3902.088
163.5850, 3775.514
164.8110, 3628.706
166.0360, 3279.210
167.2610, 3057.284
168.4860, 2824.673
169.7110, 2640.749
170.9360, 2368.019
172.1610, 2301.577
173.3850, 2113.244
174.6100, 2084.533
175.8340, 1862.612
177.0580, 1770.287
178.2820, 1568.927
179.5050, 1489.537
180.7290, 1375.847
181.9520, 1367.674
183.1760, 1384.253
184.3990, 1355.395
185.6220, 1426.517
186.8450, 1567.336
188.0670, 1478.565
189.2900, 1434.413
190.5120, 1641.746
191.7340, 1597.447
192.9560, 1736.191
194.1780, 1769.970
195.4000, 1990.775
196.6220, 2011.601
197.8430, 2256.438
199.0640, 2254.282
200.2860, 2405.130
201.5070, 2530.977
202.7270, 2760.815
203.9480, 2807.645
205.1690, 2719.457
206.3890, 2528.243
207.6090, 2460.990
208.8290, 2471.681
210.0490, 2391.304
211.2690, 2312.854
212.4890, 2198.107
213.7080, 2060.728
214.9280, 1901.078
216.1470, 1690.461
217.3660, 1538.620
218.5850, 1379.637
219.8030, 1276.193
221.0220, 1121.746
222.2400, 992.0605
223.4590, 867.9927
224.6770, 716.5200
225.8950, 622.6309
227.1120, 476.0146
228.3300, 380.3384
229.5480, 363.5947
230.7650, 419.7847
231.9820, 299.3950
233.1990, 239.9722
234.4160, 122.9712
235.6330, 165.8940
236.8490, 53.73486
238.0660, 4.513184
239.2820, 74.12549
240.4980, 102.3965
241.7140, 155.1157
242.9300, 62.18555
244.1460, 146.4839
245.3610, 125.0601
246.5770, 141.7822
247.7920, 236.3921
249.0070, 229.4126
250.2220, 318.9829
251.4370, 258.1362
252.6510, 125.2905
253.8660, 118.0225
255.0800, 92.81885
256.2940, 6.688965
257.5080, 38.62207
258.7220, 213.3618
259.9360, 464.2915
261.1490, 635.1660
262.3630, 259.9780
263.5760, 24.71045
264.7890, 86.66650
266.0020, 58.18848
267.2150, 151.8550
268.4270, 151.8467
269.6400, 12.70508
270.8520, 160.8560
272.0640, 128.1846
273.2760, 139.6821
274.4880, 49.64941
275.7000, 118.8594
276.9120, 86.95459
278.1230, 47.92920
279.3340, 329.7676
280.5450, 367.4697
281.7560, 417.0200
282.9670, 531.4106
284.1780, 655.5259
285.3880, 866.7339
286.5980, 996.6631
287.8090, 1196.434
289.0190, 1409.054
290.2290, 1418.527
291.4380, 1606.861
292.6480, 1615.062
293.8570, 1807.135
295.0670, 1741.085
296.2760, 1772.928
297.4850, 1796.637
298.6930, 1664.245
299.9020, 1575.750
301.1110, 1380.151
302.3190, 1355.454
303.5270, 1307.662
304.7350, 1262.778
305.9430, 1230.805
307.1510, 1113.740
308.3580, 1077.571
309.5660, 1015.296
310.7730, 985.5005
311.9800, 923.3750
313.1870, 943.6372
314.3940, 887.6582
315.6010, 823.3584
316.8070, 895.7202
318.0130, 824.7012
319.2200, 857.2305
320.4260, 735.4004
321.6310, 808.3066
322.8370, 859.0327
324.0430, 741.7070
325.2480, 721.3369
326.4540, 772.7891
327.6590, 737.0049
328.8640, 660.0088
330.0680, 596.7539
331.2730, 512.3291
332.4780, 504.8379
333.6820, 472.2856
334.8860, 511.7012
336.0900, 396.0972
337.2940, 381.4741
338.4980, 358.8315
339.7010, 404.2065
340.9050, 333.5254
342.1080, 277.8242
343.3110, 195.1025
344.5140, 167.3589
345.7170, 111.5928
346.9200, 154.8032
348.1220, 205.9927
349.3240, 206.1616
350.5270, 286.3096
351.7290, 227.5039
352.9310, 338.6157
354.1320, 352.7109
355.3340, 406.7915
356.5350, 494.8584
357.7370, 596.6333
358.9380, 713.6758
360.1390, 692.7061
361.3400, 681.7246
362.5400, 779.7290
363.7410, 862.7192
364.9410, 991.6948
366.1410, 881.6504
367.3410, 932.5854
368.5410, 958.5049
369.7410, 1041.411
370.9400, 876.9790
372.1400, 871.9473
373.3390, 875.5288
374.5380, 909.0210
375.7370, 900.7974
376.9360, 867.8213
378.1350, 814.3838
379.3330, 733.2593
380.5310, 731.9946
381.7300, 698.6138
382.9280, 772.9673
384.1260, 681.9292
385.3230, 736.0532
386.5210, 719.0054
387.7180, 563.7944
388.9160, 547.3140
390.1130, 566.1880
391.3100, 542.0298
392.5060, 529.9453
393.7030, 515.3823
394.9000, 476.2031
396.0960, 472.8770
397.2920, 433.8945
398.4880, 479.2432
399.6840, 592.4443
400.8800, 590.9312
402.0750, 699.4253
403.2710, 797.8164
404.4660, 987.6475
405.6610, 1066.173
406.8560, 1309.899
408.0510, 1591.275
409.2450, 2023.773
410.4400, 2415.065
411.6340, 2859.486
412.8280, 3289.922
414.0220, 3916.110
415.2160, 4686.998
416.4100, 5579.251
417.6030, 6641.308
418.7970, 7802.950
419.9900, 9230.182
421.1830, 10639.87
422.3760, 11845.53
423.5690, 13010.64
424.7610, 14097.91
425.9540, 14609.40
427.1460, 14867.36
428.3380, 14610.76
429.5300, 14135.16
430.7220, 13434.54
431.9140, 12479.93
433.1050, 11165.31
434.2970, 10017.69
435.4880, 8850.069
436.6790, 7655.444
437.8700, 6622.818
439.0610, 5905.193
440.2510, 4870.567
441.4420, 4412.943
442.6320, 3733.321
443.8220, 3310.700
445.0120, 2995.082
446.2020, 2608.466
447.3910, 2187.854
448.5810, 2023.246
449.7700, 1884.643
450.9600, 1528.043
452.1490, 1388.450
453.3370, 1300.861
454.5260, 1065.279
455.7150, 916.7041
456.9030, 862.1372
458.0910, 789.5786
459.2800, 681.0308
460.4670, 613.4951
461.6550, 586.8628
462.8430, 531.5967
464.0300, 503.9775
465.2180, 484.5063
466.4050, 433.1680
467.5920, 386.3970
468.7790, 347.2095
469.9650, 261.8174
471.1520, 211.4473
472.3380, 137.0991
473.5250, 81.77441
474.7110, 96.46094
475.8970, 108.1636
477.0820, 74.77832
478.2680, 70.55420
479.4540, 46.05615
480.6390, 20.33203
481.8240, 0.3305660
483.0090, 37.24609
484.1940, 38.57861
485.3780, 40.73096
486.5630, 68.60596
487.7470, 30.43457
488.9320, 31.11182
490.1160, 48.06738
491.3000, 69.30957
492.4830, 69.83691
493.6670, 6.628906
494.8500, 80.96533
496.0340, 31.11768
497.2170, 32.42334
498.4000, 47.05469
499.5820, 77.23584
500.7650, 204.5132
501.9480, 70.35156
503.1300, 277.2974
504.3120, 269.3081
505.4940, 345.4062
506.6760, 417.5596
507.8580, 505.7539
509.0390, 437.0029
510.2210, 633.3315
511.4020, 759.7183
512.5830, 962.1729
513.7640, 954.6914
514.9450, 1181.284
516.1250, 1271.947
517.3060, 1494.685
518.4860, 1620.487
519.6660, 1574.368
520.8460, 1756.325
522.0260, 1843.360
523.2060, 2040.465
524.3850, 1998.630
525.5650, 1974.861
526.7440, 2016.146
527.9230, 2155.528
529.1020, 2065.034
530.2810, 2184.658
531.4590, 2157.562
532.6380, 2067.497
533.8160, 2120.738
534.9940, 2182.319
536.1720, 2149.681
537.3500, 2127.645
538.5270, 2163.406
539.7050, 2108.088
540.8820, 2098.769
542.0590, 2218.855
543.2360, 2250.273
544.4130, 2234.864
545.5900, 2409.791
546.7660, 2463.027
547.9430, 2571.187
549.1190, 2815.238
550.2950, 3012.361
551.4710, 3380.610
552.6470, 3737.780
553.8220, 4172.709
554.9980, 4686.488
556.1730, 5267.096
557.3480, 5965.816
558.5230, 6746.757
559.6980, 7790.225
560.8730, 8834.385
562.0470, 10159.69
563.2220, 11507.92
564.3960, 13076.09
565.5700, 14424.63
566.7440, 15860.95
567.9170, 16925.92
569.0910, 17640.91
570.2640, 18058.92
571.4380, 17817.95
572.6110, 17379.00
573.7840, 16420.06
574.9570, 15440.14
576.1290, 13426.24
577.3020, 12111.36
578.4740, 10466.49
579.6460, 8761.645
580.8180, 7577.814
581.9900, 6277.000
583.1620, 5250.201
584.3330, 4317.420
585.5040, 3502.652
586.6760, 3023.902
587.8470, 2365.166
589.0180, 2131.445
590.1880, 1628.741
591.3590, 1543.049
592.5290, 1207.374
593.7000, 1097.711
594.8700, 932.0625
596.0400, 909.4287
597.2090, 782.8071
598.3790, 794.1992
599.5490, 776.6040
600.7180, 695.0210
601.8870, 703.4507
603.0560, 639.8926
604.2250, 785.3447
605.3940, 900.8096
606.5620, 834.2847
607.7300, 1080.771
608.8990, 1221.268
610.0670, 1393.774
611.2350, 1590.291
612.4020, 2131.817
613.5700, 2319.352
614.7370, 2862.895
615.9050, 3800.447
617.0720, 4424.007
618.2390, 5567.877
619.4060, 6771.727
620.5720, 8438.462
621.7390, 10189.25
622.9050, 12250.25
624.0710, 13937.40
625.2370, 15315.79
626.4030, 16410.73
627.5690, 16583.69
628.7340, 16371.75
629.9000, 15586.52
631.0650, 14079.11
632.2300, 12550.99
633.3950, 10741.32
634.5600, 8956.326
635.7240, 7271.700
636.8890, 6132.057
638.0530, 4769.902
639.2170, 3783.301
640.3810, 3188.380
641.5450, 2490.407
642.7080, 2114.829
643.8720, 1844.157
645.0350, 1314.331
646.1980, 1166.557
647.3610, 960.8047
648.5240, 779.7656
649.6870, 667.2793
650.8490, 629.7441
652.0120, 496.4429
653.1740, 502.0552
654.3360, 315.4717
655.4980, 283.4326
656.6600, 254.4292
657.8210, 136.2505
658.9830, 221.8955
660.1440, 147.2290
661.3050, 289.1274
662.4660, 204.2861
663.6270, 108.9248
664.7870, 99.65137
665.9480, 121.8608
667.1080, 86.62354
668.2680, 92.99902
669.4280, 88.54785
670.5880, 35.68018
671.7480, 54.12207
672.9070, 13.82275
674.0670, 23.87451
675.2260, 51.09961
676.3850, 110.9258
677.5440, 28.20068
678.7030, 10.63965
679.8610, 109.2212
681.0200, 34.95312
682.1780, 19.18555
683.3360, 2.619141
684.4940, 123.2900
685.6520, 41.92383
686.8090, 68.51758
687.9670, 104.0732
689.1240, 101.5903
690.2810, 93.06885
691.4380, 43.50830
692.5950, 25.90527
693.7520, 1.740723
694.9080, 94.55957
696.0650, 33.18164
697.2210, 64.00439
698.3770, 23.85400
699.5330, 48.21875
700.6880, 24.24512
701.8440, 53.22314
702.9990, 43.84521
704.1550, 21.00293
705.3100, 43.20068
706.4650, 159.5107
707.6190, 208.1782
708.7740, 160.8008
709.9290, 168.3794
711.0830, 199.9126
712.2370, 241.4014
713.3910, 207.8442
714.5450, 277.2427
715.6980, 321.5952
716.8520, 371.9609
718.0050, 496.1631
719.1580, 514.3779
720.3110, 618.5469
721.4640, 684.6689
722.6170, 665.7441
723.7700, 827.7729
724.9220, 934.7549
726.0740, 882.6899
727.2260, 1184.578
728.3780, 1266.418
729.5300, 1290.210
730.6810, 1411.955
731.8330, 1504.652
732.9840, 1553.301
734.1350, 1588.981
735.2860, 1601.455
736.4370, 1559.129
737.5880, 1477.415
738.7380, 1380.822
739.8880, 1313.181
741.0390, 1204.490
742.1890, 1092.750
743.3380, 962.9619
744.4880, 917.1240
745.6380, 763.2363
746.7870, 792.2998
747.9360, 554.3140
749.0850, 597.2778
750.2340, 436.1924
751.3830, 445.0566
752.5310, 297.8721
753.6800, 307.6372
754.8280, 217.3521
755.9760, 134.0166
757.1240, 141.6284
758.2720, 171.1880
759.4190, 160.6948
760.5670, 105.1504
761.7140, 80.55127
762.8610, 69.89551
764.0080, 6.819336
765.1550, 6.625488
766.3020, 55.52344
767.4480, 114.5386
768.5950, 15.70264
769.7410, 57.03662
770.8870, 234.2881
772.0330, 38.82422
773.1780, 91.46924
774.3240, 107.2505
775.4690, 115.1777
776.6140, 124.2524
777.7590, 3.481934
778.9040, 166.7974
780.0490, 237.2886
781.1940, 76.99121
782.3380, 154.8232
783.4820, 44.82324
784.6260, 19.06689
785.7700, 42.11914
786.9140, 131.4141
788.0580, 51.86328
789.2010, 88.42432
790.3450, 72.11621
791.4880, 101.9302
792.6310, 79.88037
793.7730, 97.57471
794.9160, 64.16260
796.0590, 110.4849
797.2010, 90.94531
798.3430, 69.53271
799.4850, 59.23584
800.6270, 32.95264
801.7690, 71.07910
802.9100, 40.15625
804.0520, 23.17627
805.1930, 22.86719
806.3340, 106.9956
807.4750, 70.25195
808.6160, 82.23584
809.7560, 19.25830
810.8970, 67.97559
812.0370, 25.94873
813.1770, 20.21289
814.3170, 76.96973
815.4570, 57.01367
816.5960, 121.1865
817.7360, 130.4077
818.8750, 185.2666
820.0140, 77.81299
821.1530, 229.2148
822.2920, 219.2754
823.4310, 276.0122
824.5690, 348.8125
825.7070, 337.7119
826.8460, 411.5532
827.9840, 546.3115
829.1220, 453.8159
830.2590, 601.1997
831.3970, 691.7451
832.5340, 685.3257
833.6710, 765.8550
834.8080, 729.2197
835.9450, 733.1138
837.0820, 767.3262
838.2190, 766.3965
839.3550, 727.5469
840.4910, 632.7651
841.6270, 589.6104
842.7630, 564.6685
843.8990, 563.0723
845.0350, 446.4463
846.1700, 525.7915
847.3060, 598.1099
848.4410, 659.3994
849.5760, 475.6621
850.7100, 472.8979
851.8450, 528.1074
852.9800, 601.2900
854.1140, 442.4482
855.2480, 587.5806
856.3820, 330.6885
857.5160, 420.7715
858.6500, 482.8315
859.7830, 490.8682
860.9170, 397.8813
862.0500, 505.8721
863.1830, 353.8403
864.3160, 529.7871
865.4480, 466.7129
866.5810, 394.6177
867.7130, 502.5015
868.8460, 361.3657
869.9780, 548.2104
871.1100, 502.0361
872.2410, 455.8428
873.3730, 603.6318
874.5050, 524.4028
875.6360, 525.1572
876.7670, 491.8936
877.8980, 537.6143
879.0290, 584.3188
880.1590, 589.0083
881.2900, 674.6821
882.4200, 673.3418
883.5500, 714.9873
884.6800, 673.6191
885.8100, 799.2378
886.9400, 773.8433
888.0690, 743.4370
889.1990, 905.0181
890.3280, 888.5889
891.4570, 956.1484
892.5860, 1098.395
893.7140, 950.6602
894.8430, 1207.039
895.9710, 1379.362
897.1000, 1375.442
898.2280, 1613.404
899.3560, 1733.126
900.4830, 1942.297
901.6110, 2237.457
902.7380, 2523.526
903.8660, 2867.875
904.9930, 3328.623
906.1200, 3871.668
907.2460, 4378.471
908.3730, 5003.539
909.5000, 5652.306
910.6260, 6247.090
911.7520, 6867.384
912.8780, 7479.126
914.0040, 8162.465
915.1290, 9116.578
916.2550, 10186.30
917.3800, 11540.11
918.5050, 13246.07
919.6300, 15389.99
920.7550, 18209.88
921.8800, 21345.06
923.0040, 25091.69
924.1290, 29002.37
925.2530, 33719.84
926.3770, 38597.41
927.5010, 43303.18
928.6250, 47575.41
929.7480, 50406.66
930.8720, 52520.07
931.9950, 52921.66
933.1180, 52478.56
934.2410, 50193.91
935.3640, 46938.02
936.4860, 42835.66
937.6090, 38290.23
938.7310, 33912.33
939.8530, 29507.88
940.9750, 25744.82
942.0970, 22497.59
943.2180, 20307.79
944.3400, 18191.69
945.4610, 16400.33
946.5820, 14957.28
947.7030, 13253.77
948.8240, 11905.17
949.9450, 10368.38
951.0650, 8906.581
952.1860, 7569.099
953.3060, 6429.698
954.4260, 5357.377
955.5460, 4629.021
956.6650, 3718.793
957.7850, 3288.625
958.9040, 2817.499
960.0230, 2497.437
961.1420, 2195.438
962.2610, 2037.487
963.3800, 1797.581
964.4990, 1597.723
965.6170, 1516.902
966.7350, 1401.147
967.8530, 1283.450
968.9710, 1247.807
970.0890, 1133.233
971.2070, 1095.738
972.3240, 1067.309
973.4410, 1183.924
974.5580, 1100.590
975.6750, 1216.338
976.7920, 1392.130
977.9090, 1420.018
979.0250, 1596.945
980.1410, 1483.919
981.2580, 1704.950
982.3740, 1786.022
983.4890, 1937.155
984.6050, 2312.329
985.7200, 2466.545
986.8360, 2944.804
987.9510, 3311.104
989.0660, 3890.448
990.1810, 4653.836
991.2950, 5600.267
992.4100, 6601.740
993.5240, 7607.259
994.6390, 8902.819
995.7530, 10402.42
996.8660, 11735.08
997.9800, 13163.78
999.0940, 14425.52
1000.207, 15516.31
1001.320, 16658.14
1002.433, 17430.03
1003.546, 17836.95
1004.659, 18117.15
1005.772, 18158.94
1006.884, 17730.01
1007.996, 17141.12
1009.108, 16245.27
1010.220, 15483.48
1011.332, 14663.73
1012.444, 13745.03
1013.555, 12571.37
1014.666, 11549.76
1015.777, 10436.20
1016.888, 9632.692
1017.999, 8681.225
1019.110, 7710.809
1020.220, 6770.439
1021.331, 5928.119
1022.441, 5299.847
1023.551, 4568.623
1024.661, 4150.447
1025.770, 3541.320
1026.880, 3055.249
1027.989, 2906.228
1029.098, 2582.256
1030.207, 2211.335
1031.316, 2095.465
1032.425, 2106.647
1033.533, 1935.886
1034.642, 1636.193
1035.750, 1769.573
1036.858, 1555.037
1037.966, 1590.600
1039.073, 1530.236
1040.181, 1422.930
1041.288, 1283.755
1042.396, 1247.784
1043.503, 1209.783
1044.610, 1136.879
1045.716, 970.0752
1046.823, 928.3740
1047.929, 712.7451
1049.036, 754.2275
1050.142, 618.8428
1051.248, 603.5479
1052.353, 484.4590
1053.459, 464.3564
1054.564, 386.4111
1055.670, 282.8066
1056.775, 488.7314
1057.880, 364.5928
1058.985, 325.9121
1060.089, 346.0244
1061.194, 239.1797
1062.298, 197.6709
1063.402, 174.3496
1064.506, 169.4248
1065.610, 275.9639
1066.713, 262.8242
1067.817, 334.8516
1068.920, 445.9541
1070.023, 326.9033
1071.126, 337.5830
1072.229, 421.8408
1073.332, 577.0352
1074.435, 689.4141
1075.537, 784.3613
1076.639, 884.0811
1077.741, 954.6709
1078.843, 1179.471
1079.945, 1245.098
1081.046, 1602.494
1082.148, 1722.865
1083.249, 2034.844
1084.350, 2319.206
1085.451, 2532.835
1086.551, 2803.515
1087.652, 2982.240
1088.752, 2882.293
1089.853, 2827.038
1090.953, 2712.102
1092.053, 2503.487
1093.152, 2271.068
1094.252, 1885.202
1095.351, 1688.033
1096.451, 1380.252
1097.550, 1231.611
1098.649, 990.6143
1099.748, 953.1924
1100.846, 640.6592
1101.945, 557.0908
1103.043, 507.4092
1104.141, 259.4326
1105.239, 337.7227
1106.337, 284.1885
1107.434, 180.6475
1108.532, 213.3477
1109.629, 155.9922
1110.726, 219.7539
1111.823, 145.3955
1112.920, 148.8516
1114.017, 160.7031
1115.113, 90.40527
1116.210, 239.3145
1117.306, 256.2510
1118.402, 155.2158
1119.498, 260.2080
1120.593, 219.2285
1121.689, 437.2754
1122.784, 424.3486
1123.879, 433.4482
1124.974, 474.5742
1126.069, 416.7266
1127.164, 410.9033
1128.259, 359.2080
1129.353, 255.0283
1130.447, 276.3945
1131.541, 128.6699
1132.635, 153.9688
1133.729, 229.2920
1134.822, 229.6367
1135.916, 344.0059
1137.009, 239.3955
1138.102, 333.8086
1139.195, 294.9102
1140.288, 234.6992
1141.380, 234.1758
1142.473, 284.6738
1143.565, 259.1924
1144.657, 201.7295
1145.749, 182.2871
1146.841, 343.8652
1147.932, 238.4609
1149.024, 293.0752
1150.115, 171.7090
1151.206, 123.3623
1152.297, 205.0371
1153.388, 177.7324
1154.479, 161.4600
1155.569, 53.20117
1156.659, 205.9678
1157.750, 125.6553
1158.839, 165.4756
1159.929, 186.3213
1161.019, 148.2051
1162.108, 64.12598
1163.198, 103.3301
1164.287, 106.0732
1165.376, 120.1094
1166.465, 163.3291
1167.553, 157.4004
1168.642, 63.48828
1169.730, 152.5908
1170.818, 242.7305
1171.906, 52.85645
1172.994, 10.00488
1174.082, 106.1436
1175.170, 21.30469
1176.257, 121.5947
1177.344, 60.77148
1178.431, 24.11914
1179.518, 10.30859
1180.605, 80.50586
1181.691, 63.70898
1182.778, 5.639648
1183.864, 108.7627
1184.950, 5.025391
1186.036, 17.81348
1187.122, 31.29102
1188.207, 111.0225
1189.292, 8.531250
1190.378, 71.31055
1191.463, 106.1240
1192.548, 108.9326
1193.632, 55.10645
1194.717, 133.2988
1195.801, 83.33105
1196.886, 65.60938
1197.970, 100.5801
1199.054, 21.36523
1200.137, 76.69434
1201.221, 50.79688
1202.305, 31.07129
1203.388, 16.85840
1204.471, 6.986328
1205.554, 62.17871
1206.637, 2.615234
1207.719, 39.39648
1208.802, 82.83008
1209.884, 28.11523
1210.966, 21.42676
1212.048, 0.2343750
1213.130, 59.12402
1214.212, 94.53125
1215.293, 160.0078
1216.374, 110.5879
1217.456, 29.24902
1218.536, 38.05273
1219.617, 72.65820
1220.698, 4.565430
1221.778, 78.23340
1222.859, 79.10059
1223.939, 6.040039
1225.019, 0.9892580
1226.099, 3.012695
1227.178, 51.95117
1228.258, 43.09863
1229.337, 34.20703
1230.417, 71.63281
1231.496, 75.54395
1232.574, 55.79688
1233.653, 49.11816
1234.732, 34.49512
1235.810, 12.08594
1236.888, 34.36133
1237.966, 75.13281
1239.044, 81.39160
1240.122, 193.9971
1241.199, 42.36719
1242.277, 9.289063
1243.354, 164.0010
1244.431, 9.729492
1245.508, 209.4863
1246.585, 196.6836
1247.661, 195.8613
1248.738, 184.0186
1249.814, 145.1533
1250.890, 149.7344
1251.966, 195.3633
1253.042, 132.4385
1254.117, 157.4912
1255.193, 144.5195
1256.268, 143.5264
1257.343, 106.5098
1258.418, 83.46875
1259.493, 110.3965
1260.567, 149.3008
1261.642, 194.1836
1262.716, 196.0410
1263.790, 193.8770
1264.864, 225.3584
1265.938, 249.4746
1267.011, 254.2373
1268.085, 279.9756
1269.158, 273.6885
1270.231, 298.3750
1271.304, 284.5283
1272.377, 292.8867
1273.450, 232.2861
