##NAMES=Catapleiite
##RRUFFID=R060198
##IDEAL CHEMISTRY=Na_2_Zr^4+^Si_3_O_9_&#183;2H_2_O
##LOCALITY=Mont Saint-Hilaire, Rouville County, Quebec, Canada
##OWNER=RRUFF
##SOURCE=Royal Ontario Museum
##DESCRIPTION=Tan colored pseudohexagonal tabular crystals
##STATUS=The identification of this mineral has been confirmed by X-ray diffraction and chemical analysis
##URL=rruff.info/R060198
##MEASURED CHEMISTRY=(Na_1.92_Ca_0.04_[box]_0.04_)_Σ=2_Zr_1.00_Si_3.00_O_9_·2H_2_O
##PIN_ID=L00848
##ORIENTATION=Laser parallel to (1 0 1). Fiducial mark perpendicular to laser is parallel to b [0 1 0]
95.94800, 0.0000000E+00
97.18200, 71.60156
98.41600, 3.883789
99.64900, 58.40625
100.8830, 28.69434
102.1160, 24.91602
103.3490, 37.16016
104.5820, 336.3623
105.8150, 476.5459
107.0470, 1014.908
108.2800, 882.1816
109.5120, 1543.000
110.7440, 820.8818
111.9760, 644.3662
113.2080, 896.0547
114.4400, 973.7324
115.6710, 1119.705
116.9030, 1056.203
118.1340, 977.1855
119.3650, 804.7061
120.5960, 855.4141
121.8270, 963.8711
123.0580, 1008.734
124.2880, 1097.755
125.5190, 973.7422
126.7490, 1124.562
127.9790, 1297.120
129.2090, 1510.339
130.4390, 1456.217
131.6680, 1468.143
132.8980, 1560.543
134.1270, 1650.499
135.3560, 1779.112
136.5850, 1873.068
137.8140, 2241.117
139.0430, 2189.401
140.2710, 2302.490
141.5000, 2338.880
142.7280, 2244.930
143.9560, 2339.703
145.1840, 2328.972
146.4120, 2569.777
147.6390, 2560.228
148.8670, 2828.412
150.0940, 2850.429
151.3210, 3281.340
152.5490, 3242.217
153.7750, 3268.121
155.0020, 3188.124
156.2290, 3196.292
157.4550, 3202.710
158.6810, 3212.422
159.9080, 3106.423
161.1340, 3171.703
162.3590, 3020.287
163.5850, 3015.314
164.8110, 3079.718
166.0360, 2816.472
167.2610, 2825.018
168.4860, 2733.910
169.7110, 2745.628
170.9360, 2701.396
172.1610, 2695.022
173.3850, 2541.764
174.6100, 2648.843
175.8340, 2572.250
177.0580, 2512.690
178.2820, 2562.309
179.5050, 2691.593
180.7290, 2876.914
181.9520, 2810.481
183.1760, 2974.887
184.3990, 3102.383
185.6220, 3268.305
186.8450, 3468.437
188.0670, 3666.625
189.2900, 3870.261
190.5120, 4160.875
191.7340, 4414.770
192.9560, 4733.739
194.1780, 5049.558
195.4000, 5195.389
196.6220, 5554.223
197.8430, 5715.058
199.0640, 6086.884
200.2860, 6469.729
201.5070, 6801.526
202.7270, 6935.631
203.9480, 7118.462
205.1690, 6819.186
206.3890, 6905.876
207.6090, 6795.521
208.8290, 6476.105
210.0490, 6480.623
211.2690, 5945.234
212.4890, 5711.263
213.7080, 5327.066
214.9280, 4925.205
216.1470, 4260.276
217.3660, 3829.618
218.5850, 3159.769
219.8030, 2951.821
221.0220, 2393.490
222.2400, 2160.211
223.4590, 1767.208
224.6770, 1652.487
225.8950, 1414.683
227.1120, 1211.794
228.3300, 937.8228
229.5480, 830.7715
230.7650, 742.6406
231.9820, 560.4341
233.1990, 583.1504
234.4160, 372.7930
235.6330, 327.3643
236.8490, 183.8623
238.0660, 248.2832
239.2820, 39.61084
240.4980, 89.82715
241.7140, 160.1060
242.9300, 20.91113
244.1460, 116.9863
245.3610, 50.36865
246.5770, 53.64307
247.7920, 113.8608
249.0070, 259.0723
250.2220, 130.4878
251.4370, 61.80713
252.6510, 2.173340
253.8660, 127.5889
255.0800, 30.10059
256.2940, 86.69482
257.5080, 135.6025
258.7220, 48.00098
259.9360, 71.17871
261.1490, 42.99756
262.3630, 3.923828
263.5760, 59.27344
264.7890, 138.6104
266.0020, 192.1172
267.2150, 69.81201
268.4270, 159.6675
269.6400, 126.7085
270.8520, 287.9272
272.0640, 161.3657
273.2760, 122.9912
274.4880, 116.7930
275.7000, 178.7661
276.9120, 57.92676
278.1230, 21.75732
279.3340, 7.699219
280.5450, 81.47852
281.7560, 100.3403
282.9670, 176.9766
284.1780, 246.8857
285.3880, 346.6348
286.5980, 600.2178
287.8090, 528.6343
289.0190, 734.8848
290.2290, 773.9771
291.4380, 875.9180
292.6480, 846.7139
293.8570, 998.3706
295.0670, 994.8936
296.2760, 965.2876
297.4850, 867.5576
298.6930, 923.7080
299.9020, 802.7432
301.1110, 948.6670
302.3190, 683.4824
303.5270, 741.1929
304.7350, 778.8022
305.9430, 700.3130
307.1510, 818.7280
308.3580, 619.0503
309.5660, 659.2812
310.7730, 693.4121
311.9800, 760.4277
313.1870, 738.3125
314.3940, 673.0234
315.6010, 755.4233
316.8070, 696.5293
318.0130, 724.3501
319.2200, 720.7852
320.4260, 770.0049
321.6310, 694.9707
322.8370, 715.7578
324.0430, 616.4199
325.2480, 613.8999
326.4540, 696.1313
327.6590, 493.0928
328.8640, 575.7778
330.0680, 546.1255
331.2730, 487.2344
332.4780, 527.1338
333.6820, 493.8906
334.8860, 488.5693
336.0900, 346.1899
337.2940, 337.7700
338.4980, 322.3184
339.7010, 348.8394
340.9050, 327.8789
342.1080, 312.8027
343.3110, 331.2441
344.5140, 337.6597
345.7170, 384.0488
346.9200, 432.4136
348.1220, 447.6699
349.3240, 475.0713
350.5270, 519.3662
351.7290, 527.6411
352.9310, 606.8960
354.1320, 831.1313
355.3340, 891.3472
356.5350, 842.5435
357.7370, 1121.720
358.9380, 978.8755
360.1390, 1032.010
361.3400, 1080.125
362.5400, 1177.213
363.7410, 1310.278
364.9410, 1122.317
366.1410, 1053.336
367.3410, 1123.336
368.5410, 1114.322
369.7410, 967.2964
370.9400, 981.2603
372.1400, 942.2134
373.3390, 904.1572
374.5380, 851.0918
375.7370, 830.9707
376.9360, 789.0952
378.1350, 839.3257
379.3330, 700.6870
380.5310, 614.6987
381.7300, 733.3784
382.9280, 572.7944
384.1260, 650.4238
385.3230, 593.7539
386.5210, 539.5000
387.7180, 612.9790
388.9160, 555.4326
390.1130, 430.0747
391.3100, 691.5205
392.5060, 594.1919
393.7030, 431.7515
394.9000, 477.4380
396.0960, 461.4351
397.2920, 619.1748
398.4880, 520.0469
399.6840, 584.0386
400.8800, 598.4814
402.0750, 669.4517
403.2710, 781.6641
404.4660, 1005.487
405.6610, 1111.706
406.8560, 1446.869
408.0510, 1623.089
409.2450, 1820.354
410.4400, 2227.290
411.6340, 2686.931
412.8280, 3050.960
414.0220, 3744.100
415.2160, 4197.149
416.4100, 5111.169
417.6030, 5868.643
418.7970, 7098.541
419.9900, 8181.593
421.1830, 9364.280
422.3760, 10486.90
423.5690, 11673.86
424.7610, 12744.11
425.9540, 13242.68
427.1460, 13410.14
428.3380, 13356.19
429.5300, 12425.89
430.7220, 11776.65
431.9140, 10555.11
433.1050, 9595.327
434.2970, 8354.537
435.4880, 7340.740
436.6790, 6282.936
437.8700, 5343.125
439.0610, 4814.309
440.2510, 4183.486
441.4420, 3571.658
442.6320, 3239.829
443.8220, 2843.995
445.0120, 2356.158
446.2020, 2014.298
447.3910, 1935.456
448.5810, 1645.612
449.7700, 1502.769
450.9600, 1345.923
452.1490, 1162.840
453.3370, 1130.936
454.5260, 1004.092
455.7150, 881.2480
456.9030, 755.4072
458.0910, 738.5693
459.2800, 553.7344
460.4670, 584.9053
461.6550, 484.0830
462.8430, 531.2686
464.0300, 425.4629
465.2180, 412.6689
466.4050, 371.8838
467.5920, 273.0430
468.7790, 299.2217
469.9650, 234.4746
471.1520, 258.2139
472.3380, 178.3359
473.5250, 83.37207
474.7110, 5.201172
475.8970, 200.2393
477.0820, 187.1826
478.2680, 96.14941
479.4540, 192.5703
480.6390, 185.0039
481.8240, 67.42383
483.0090, 54.01270
484.1940, 165.5840
485.3780, 118.1514
486.5630, 141.8398
487.7470, 174.6074
488.9320, 236.6162
490.1160, 251.9121
491.3000, 292.3291
492.4830, 240.9492
493.6670, 266.8359
494.8500, 269.7822
496.0340, 425.7754
497.2170, 310.8184
498.4000, 483.9062
499.5820, 436.0312
500.7650, 423.1934
501.9480, 605.4082
503.1300, 761.6709
504.3120, 783.9873
505.4940, 897.3486
506.6760, 873.7695
507.8580, 1042.244
509.0390, 1279.768
510.2210, 1176.343
511.4020, 1450.958
512.5830, 1595.611
513.7640, 1728.327
514.9450, 1965.087
516.1250, 2069.897
517.3060, 2258.752
518.4860, 2486.632
519.6660, 2647.588
520.8460, 2781.711
522.0260, 2764.645
523.2060, 2999.754
524.3850, 2914.589
525.5650, 3000.832
526.7440, 2730.129
527.9230, 2812.173
529.1020, 2787.777
530.2810, 2704.957
531.4590, 2540.565
532.6380, 2563.390
533.8160, 2591.299
534.9940, 2401.482
536.1720, 2343.623
537.3500, 2289.027
538.5270, 2314.400
539.7050, 2137.826
540.8820, 2138.980
542.0590, 2076.448
543.2360, 2203.688
544.4130, 2104.271
545.5900, 2161.041
546.7660, 2216.365
547.9430, 2262.210
549.1190, 2326.582
550.2950, 2497.399
551.4710, 2808.560
552.6470, 3160.953
553.8220, 3284.390
554.9980, 3632.727
556.1730, 4254.133
557.3480, 4739.349
558.5230, 5538.973
559.6980, 6255.268
560.8730, 7173.766
562.0470, 7955.721
563.2220, 8981.284
564.3960, 10170.97
565.5700, 10991.71
566.7440, 11754.79
567.9170, 12421.14
569.0910, 13057.64
570.2640, 13341.03
571.4380, 13091.21
572.6110, 12600.67
573.7840, 11623.73
574.9570, 10479.88
576.1290, 9364.971
577.3020, 8145.072
578.4740, 6948.186
579.6460, 5847.311
580.8180, 4891.448
581.9900, 4005.599
583.1620, 3287.761
584.3330, 2879.934
585.5040, 2294.120
586.6760, 2003.317
587.8470, 1572.526
589.0180, 1381.744
590.1880, 1214.975
591.3590, 1018.215
592.5290, 896.4658
593.7000, 704.7275
594.8700, 676.9990
596.0400, 585.0098
597.2090, 660.5723
598.3790, 564.8711
599.5490, 554.1797
600.7180, 683.4961
601.8870, 699.8223
603.0560, 687.1562
604.2250, 653.4971
605.3940, 723.8457
606.5620, 977.2021
607.7300, 1019.565
608.8990, 1272.936
610.0670, 1331.313
611.2350, 1609.696
612.4020, 1906.088
613.5700, 2256.484
614.7370, 2728.890
615.9050, 3337.277
617.0720, 4165.129
618.2390, 5141.120
619.4060, 6334.113
620.5720, 7608.066
621.7390, 9061.193
622.9050, 10681.42
624.0710, 12163.81
625.2370, 13260.34
626.4030, 14333.80
627.5690, 14474.06
628.7340, 14262.00
629.9000, 13049.87
631.0650, 11726.01
632.2300, 10130.53
633.3950, 8201.395
634.5600, 7027.242
635.7240, 5750.193
636.8890, 4511.823
638.0530, 3595.511
639.2170, 3019.810
640.3810, 2332.112
641.5450, 1849.812
642.7080, 1526.699
643.8720, 1396.419
645.0350, 1115.455
646.1980, 1070.340
647.3610, 840.8359
648.5240, 644.1328
649.6870, 603.8984
650.8490, 526.1240
652.0120, 356.5703
653.1740, 288.9551
654.3360, 304.3047
655.4980, 280.8301
656.6600, 335.6494
657.8210, 285.6406
658.9830, 259.5332
660.1440, 150.8428
661.3050, 178.4736
662.4660, 179.8516
663.6270, 23.20605
664.7870, 186.1387
665.9480, 185.5967
667.1080, 49.97461
668.2680, 15.86230
669.4280, 17.59473
670.5880, 81.88672
671.7480, 34.37500
672.9070, 35.43848
674.0670, 9.637695
675.2260, 51.71094
676.3850, 13.69238
677.5440, 40.80176
678.7030, 23.09863
679.8610, 9.664063
681.0200, 15.81836
682.1780, 85.14941
683.3360, 97.48730
684.4940, 68.41504
685.6520, 63.82324
686.8090, 80.66211
687.9670, 75.81543
689.1240, 80.46875
690.2810, 83.20312
691.4380, 68.02148
692.5950, 50.41309
693.7520, 93.87695
694.9080, 27.93164
696.0650, 4.4922002E-02
697.2210, 58.20508
698.3770, 17.44336
699.5330, 18.73828
700.6880, 40.09082
701.8440, 95.51465
702.9990, 32.04004
704.1550, 4.366211
705.3100, 1.279297
706.4650, 52.02246
707.6190, 23.27734
708.7740, 58.48633
709.9290, 114.6514
711.0830, 50.77051
712.2370, 234.8447
713.3910, 134.8760
714.5450, 340.8643
715.6980, 203.8086
716.8520, 350.7090
718.0050, 360.5674
719.1580, 413.3818
720.3110, 374.1533
721.4640, 459.8789
722.6170, 524.5625
723.7700, 644.2012
724.9220, 763.7949
726.0740, 710.3447
727.2260, 692.8496
728.3780, 907.3096
729.5300, 960.7246
730.6810, 1044.095
731.8330, 1137.330
732.9840, 1163.699
734.1350, 1199.934
735.2860, 1116.121
736.4370, 1031.264
737.5880, 1011.990
738.7380, 986.4121
739.8880, 900.4180
741.0390, 861.3770
742.1890, 788.2891
743.3380, 746.1553
744.4880, 633.9756
745.6380, 489.7480
746.7870, 511.4756
747.9360, 362.1562
749.0850, 514.7891
750.2340, 242.3750
751.3830, 268.9150
752.5310, 317.4072
753.6800, 270.8535
754.8280, 83.25293
755.9760, 84.60059
757.1240, 21.89844
758.2720, 64.13086
759.4190, 23.31055
760.5670, 3.425781
761.7140, 46.53320
762.8610, 0.5927730
764.0080, 231.2705
765.1550, 23.08691
766.3020, 76.83789
767.4480, 100.4629
768.5950, 7.105469
769.7410, 110.3975
770.8870, 100.0381
772.0330, 83.80762
773.1780, 37.69727
774.3240, 48.68457
775.4690, 33.77441
776.6140, 4.041016
777.7590, 3.780273
778.9040, 66.55371
780.0490, 38.00098
781.1940, 67.54492
782.3380, 25.20020
783.4820, 86.94434
784.6260, 65.33789
785.7700, 46.78516
786.9140, 54.86133
788.0580, 15.04199
789.2010, 3.302734
790.3450, 98.64062
791.4880, 35.10547
792.6310, 54.66113
793.7730, 28.31934
794.9160, 43.93457
796.0590, 142.8643
797.2010, 70.80957
798.3430, 56.13574
799.4850, 89.96582
800.6270, 68.18555
801.7690, 92.16895
802.9100, 66.39062
804.0520, 64.90430
805.1930, 6.661133
806.3340, 37.91016
807.4750, 9.599609
808.6160, 24.10254
809.7560, 14.77148
810.8970, 101.9785
812.0370, 80.78809
813.1770, 42.67676
814.3170, 103.3535
815.4570, 10.90918
816.5960, 82.21973
817.7360, 78.75977
818.8750, 128.4502
820.0140, 90.40625
821.1530, 4.985352
822.2920, 38.43652
823.4310, 82.30273
824.5690, 61.67773
825.7070, 91.54199
826.8460, 164.9912
827.9840, 85.15039
829.1220, 64.14551
830.2590, 157.1318
831.3970, 254.2793
832.5340, 160.4082
833.6710, 211.8193
834.8080, 121.8838
835.9450, 195.3252
837.0820, 278.6133
838.2190, 173.5088
839.3550, 275.8262
840.4910, 265.0332
841.6270, 87.21094
842.7630, 162.0488
843.8990, 182.6211
845.0350, 122.0400
846.1700, 8.573242
847.3060, 109.3076
848.4410, 192.7432
849.5760, 93.57422
850.7100, 140.2988
851.8450, 96.07910
852.9800, 295.8350
854.1140, 200.5664
855.2480, 250.2744
856.3820, 141.9590
857.5160, 284.6191
858.6500, 261.2578
859.7830, 84.87402
860.9170, 198.4688
862.0500, 202.0420
863.1830, 178.5938
864.3160, 184.1250
865.4480, 170.6348
866.5810, 254.1240
867.7130, 243.5957
868.8460, 345.0479
869.9780, 315.4805
871.1100, 205.8955
872.2410, 274.2930
873.3730, 193.6729
874.5050, 208.0352
875.6360, 214.3809
876.7670, 239.7109
877.8980, 323.0244
879.0290, 249.3223
880.1590, 296.6064
881.2900, 363.8750
882.4200, 297.1299
883.5500, 327.3711
884.6800, 467.5996
885.8100, 324.8135
886.9400, 472.0166
888.0690, 369.2070
889.1990, 300.3867
890.3280, 681.5537
891.4570, 575.5088
892.5860, 706.9951
893.7140, 658.4316
894.8430, 736.0703
895.9710, 670.5361
897.1000, 887.9121
898.2280, 1113.125
899.3560, 978.2021
900.4830, 1261.340
901.6110, 1332.689
902.7380, 1410.348
903.8660, 1732.075
904.9930, 1962.548
906.1200, 2008.652
907.2460, 2291.400
908.3730, 2638.163
909.5000, 3116.819
910.6260, 3564.788
911.7520, 3955.698
912.8780, 4383.990
914.0040, 5041.275
915.1290, 5968.158
916.2550, 6741.847
917.3800, 7779.706
918.5050, 9116.243
919.6300, 10980.93
920.7550, 12733.00
921.8800, 15483.26
923.0040, 17674.05
924.1290, 20647.38
925.2530, 23920.51
926.3770, 27528.70
927.5010, 30483.93
928.6250, 33356.97
929.7480, 35465.73
930.8720, 36226.30
931.9950, 36336.96
933.1180, 35161.25
934.2410, 32956.24
935.3640, 30167.54
936.4860, 27156.26
937.6090, 23627.60
938.7310, 20517.87
939.8530, 17740.16
940.9750, 15510.04
942.0970, 13345.23
943.2180, 11823.49
944.3400, 10201.73
945.4610, 9294.390
946.5820, 8026.910
947.7030, 7010.568
948.8240, 5961.102
949.9450, 5391.936
951.0650, 4625.562
952.1860, 3855.840
953.3060, 3469.698
954.4260, 2904.731
955.5460, 2659.770
956.6650, 2374.527
957.7850, 2070.445
958.9040, 1767.634
960.0230, 1861.787
961.1420, 1672.092
962.2610, 1629.453
963.3800, 1533.865
964.4990, 1474.248
965.6170, 1504.836
966.7350, 1455.400
967.8530, 1529.004
968.9710, 1626.642
970.0890, 1691.330
971.2070, 1802.068
972.3240, 1963.846
973.4410, 2011.668
974.5580, 2240.552
975.6750, 2526.488
976.7920, 2621.461
977.9090, 3019.472
979.0250, 3206.525
980.1410, 3578.613
981.2580, 4262.735
982.3740, 4705.890
983.4890, 5436.078
984.6050, 6185.301
985.7200, 7113.557
986.8360, 8457.851
987.9510, 9813.184
989.0660, 11636.56
990.1810, 13719.98
991.2950, 16018.43
992.4100, 18992.91
993.5240, 22089.44
994.6390, 25370.00
995.7530, 28740.62
996.8660, 32356.30
997.9800, 35934.02
999.0940, 38554.78
1000.207, 41206.57
1001.320, 43046.41
1002.433, 44208.27
1003.546, 44443.17
1004.659, 44558.11
1005.772, 43722.08
1006.884, 42587.12
1007.996, 40555.19
1009.108, 37870.29
1010.220, 35959.43
1011.332, 33090.61
1012.444, 30828.85
1013.555, 28346.12
1014.666, 25463.46
1015.777, 22782.82
1016.888, 20306.23
1017.999, 18074.68
1019.110, 15904.99
1020.220, 13899.68
1021.331, 12121.26
1022.441, 10667.88
1023.551, 9163.537
1024.661, 8332.231
1025.770, 7277.969
1026.880, 6669.226
1027.989, 5877.807
1029.098, 5414.928
1030.207, 4987.662
1031.316, 4730.629
1032.425, 4400.606
1033.533, 4134.689
1034.642, 3942.813
1035.750, 3983.983
1036.858, 3855.193
1037.966, 3861.926
1039.073, 3538.413
1040.181, 3415.156
1041.288, 3126.748
1042.396, 2933.328
1043.503, 2741.971
1044.610, 2622.682
1045.716, 2041.455
1046.823, 1971.280
1047.929, 1808.158
1049.036, 1670.109
1050.142, 1526.157
1051.248, 1375.252
1052.353, 1259.406
1053.459, 1217.637
1054.564, 971.9375
1055.670, 989.3047
1056.775, 1056.107
1057.880, 930.5166
1058.985, 741.0635
1060.089, 777.6279
1061.194, 684.3223
1062.298, 756.0791
1063.402, 686.9092
1064.506, 818.7656
1065.610, 583.5420
1066.713, 857.8994
1067.817, 635.1699
1068.920, 826.5732
1070.023, 893.0303
1071.126, 838.7178
1072.229, 897.1123
1073.332, 943.4600
1074.435, 1048.062
1075.537, 1245.468
1076.639, 1435.925
1077.741, 1593.434
1078.843, 1849.980
1079.945, 2226.390
1081.046, 2268.037
1082.148, 2885.292
1083.249, 3191.004
1084.350, 3429.759
1085.451, 3652.576
1086.551, 3866.256
1087.652, 3959.133
1088.752, 3913.174
1089.853, 3879.119
1090.953, 3625.897
1092.053, 3275.441
1093.152, 2928.477
1094.252, 2613.938
1095.351, 2295.478
1096.451, 2043.145
1097.550, 1713.289
1098.649, 1404.460
1099.748, 1156.656
1100.846, 994.8955
1101.945, 715.1445
1103.043, 688.6152
1104.141, 579.9229
1105.239, 504.2490
1106.337, 425.5986
1107.434, 373.4170
1108.532, 232.8154
1109.629, 261.2363
1110.726, 280.6611
1111.823, 260.1289
1112.920, 163.6191
1114.017, 162.1328
1115.113, 197.6680
1116.210, 280.2256
1117.306, 241.8047
1118.402, 360.9980
1119.498, 270.7539
1120.593, 446.8848
1121.689, 476.5479
1122.784, 339.2314
1123.879, 332.5928
1124.974, 428.3145
1126.069, 316.7539
1127.164, 210.3486
1128.259, 278.4307
1129.353, 305.2295
1130.447, 125.0469
1131.541, 62.88086
1132.635, 116.9736
1133.729, 69.84180
1134.822, 75.72656
1135.916, 183.6279
1137.009, 122.7656
1138.102, 172.9990
1139.195, 252.9463
1140.288, 34.90820
1141.380, 156.9062
1142.473, 98.89746
1143.565, 190.2441
1144.657, 101.2637
1145.749, 0.7050780
1146.841, 96.35547
1147.932, 151.4199
1149.024, 153.6807
1150.115, 219.7715
1151.206, 109.8291
1152.297, 152.6680
1153.388, 37.20801
1154.479, 57.34180
1155.569, 138.7627
1156.659, 13.92676
1157.750, 28.88965
1158.839, 152.7100
1159.929, 17.52344
1161.019, 92.12695
1162.108, 74.92090
1163.198, 42.91992
1164.287, 11.23828
1165.376, 144.4072
1166.465, 80.58301
1167.553, 14.76562
1168.642, 97.04590
1169.730, 68.88281
1170.818, 16.73535
1171.906, 4.587891
1172.994, 42.56152
1174.082, 37.32715
1175.170, 40.87695
1176.257, 25.43945
1177.344, 19.66016
1178.431, 20.82520
1179.518, 9.294922
1180.605, 33.49414
1181.691, 18.02539
1182.778, 8.184570
1183.864, 102.6680
1184.950, 58.82520
1186.036, 56.98145
1187.122, 10.86426
1188.207, 99.41797
1189.292, 81.75293
1190.378, 43.68457
1191.463, 81.64941
1192.548, 112.7197
1193.632, 4.786133
1194.717, 19.84570
1195.801, 150.5400
1196.886, 77.56641
1197.970, 217.4814
1199.054, 0.6757810
1200.137, 119.8799
1201.221, 121.0439
1202.305, 15.39355
1203.388, 10.25195
1204.471, 97.98730
1205.554, 10.42969
1206.637, 19.10840
1207.719, 23.04492
1208.802, 75.56348
1209.884, 52.92676
1210.966, 103.5391
1212.048, 31.00684
1213.130, 122.4131
1214.212, 34.82227
1215.293, 49.21875
1216.374, 14.39453
1217.456, 29.96094
1218.536, 48.69531
1219.617, 47.59863
1220.698, 41.12012
1221.778, 19.88574
1222.859, 46.31152
1223.939, 0.4941410
1225.019, 49.65039
1226.099, 44.79395
1227.178, 155.9209
1228.258, 118.7646
1229.337, 124.1328
1230.417, 43.21875
1231.496, 118.2871
1232.574, 3.659180
1233.653, 49.35840
1234.732, 127.3613
1235.810, 76.34668
1236.888, 13.31738
1237.966, 101.2568
1239.044, 107.1807
1240.122, 7.087891
1241.199, 82.95996
1242.277, 101.8135
1243.354, 157.7021
1244.431, 72.52246
1245.508, 97.33203
1246.585, 208.1240
1247.661, 47.02734
1248.738, 12.77637
1249.814, 7.488281
1250.890, 83.15723
1251.966, 97.80859
1253.042, 52.43945
1254.117, 90.04395
1255.193, 8.633789
1256.268, 51.24121
1257.343, 111.2119
1258.418, 137.4824
1259.493, 205.0166
1260.567, 243.4141
1261.642, 81.79102
1262.716, 201.1436
1263.790, 141.4756
1264.864, 293.7861
1265.938, 27.07715
1267.011, 26.32715
1268.085, 123.5400
1269.158, 181.7334
1270.231, 115.9033
1271.304, 182.1816
1272.377, 5.782227
