##NAMES=Catapleiite
##RRUFFID=R060208
##IDEAL CHEMISTRY=Na_2_Zr^4+^Si_3_O_9_&#183;2H_2_O
##LOCALITY=Mont Saint-Hilaire, Rouville County, Quebec, Canada
##OWNER=RRUFF
##SOURCE=Royal Ontario Museum
##DESCRIPTION=Colorless transparent thin tabular pseudohexagonal crystal
##STATUS=The identification of this mineral is confirmed by single-crystal X-ray diffraction and chemical analysis.
##URL=rruff.info/R060208
##MEASURED CHEMISTRY=Na_2.00_Zr_1.00_Si_3.00_O_9_Â·2H_2_O
##PIN_ID=M01569
##ORIENTATION=Laser parallel to -c* (0 0 -1). Fiducial mark perpendicular to laser is parallel to a [1 0 0]
120.9140, 0.0000000E+00
122.1480, 8.820313
123.3810, 8.648926
124.6150, 36.73145
125.8480, 100.4390
127.0810, 215.5806
128.3130, 234.3594
129.5460, 358.4248
130.7790, 406.5762
132.0110, 576.6963
133.2430, 719.6040
134.4750, 695.2690
135.7070, 770.1187
136.9380, 885.3472
138.1700, 1058.480
139.4010, 1108.147
140.6330, 1268.820
141.8640, 1366.940
143.0950, 1441.562
144.3250, 1573.457
145.5560, 1678.206
146.7860, 1782.582
148.0160, 1933.652
149.2470, 2056.207
150.4760, 2208.045
151.7060, 2491.692
152.9360, 2448.611
154.1650, 2708.248
155.3950, 2705.338
156.6240, 2791.522
157.8530, 2835.493
159.0820, 2912.380
160.3100, 2994.401
161.5390, 2996.491
162.7670, 2943.416
163.9950, 2854.264
165.2230, 2771.226
166.4510, 2412.465
167.6790, 2314.128
168.9060, 2020.343
170.1340, 1929.223
171.3610, 1622.866
172.5880, 1462.364
173.8150, 1188.816
175.0420, 1217.770
176.2690, 1039.086
177.4950, 992.7085
178.7210, 853.9487
179.9470, 771.0649
181.1730, 759.3735
182.3990, 737.4678
183.6250, 671.0747
184.8500, 873.0596
186.0760, 794.5264
187.3010, 994.5400
188.5260, 883.2642
189.7510, 1014.476
190.9750, 969.3198
192.2000, 1062.265
193.4240, 1196.600
194.6490, 1192.463
195.8730, 1430.200
197.0970, 1549.888
198.3200, 1592.812
199.5440, 1722.295
200.7670, 1795.760
201.9910, 1934.323
203.2140, 1883.591
204.4370, 1932.303
205.6590, 1930.186
206.8820, 1974.223
208.1050, 2067.403
209.3270, 2025.712
210.5490, 2112.137
211.7710, 2053.665
212.9930, 2091.280
214.2150, 1933.970
215.4360, 1856.722
216.6570, 1698.525
217.8790, 1546.022
219.1000, 1402.252
220.3210, 1227.160
221.5410, 1088.088
222.7620, 956.0291
223.9820, 726.9739
225.2030, 641.9099
226.4230, 529.8188
227.6430, 403.6846
228.8620, 434.4946
230.0820, 286.2422
231.3010, 136.9495
232.5210, 219.9741
233.7400, 124.6538
234.9590, 66.15845
236.1780, 73.72778
237.3960, 84.74756
238.6150, 23.21021
239.8330, 49.37451
241.0510, 14.39868
242.2690, 76.48560
243.4870, 98.63403
244.7050, 115.8428
245.9230, 215.1104
247.1400, 128.4387
248.3570, 105.8413
249.5740, 249.3391
250.7910, 166.9507
252.0080, 80.71118
253.2240, 141.6240
254.4410, 142.7678
255.6570, 89.18164
256.8730, 43.93188
258.0890, 15.01514
259.3050, 2.6854999E-02
260.5210, 73.79736
261.7360, 38.20996
262.9510, 70.60522
264.1670, 31.68481
265.3820, 80.07495
266.5960, 97.58789
267.8110, 78.10132
269.0260, 66.21484
270.2400, 73.07715
271.4540, 11.56909
272.6680, 104.9158
273.8820, 72.20728
275.0960, 4.481201
276.3090, 1.755615
277.5230, 99.94189
278.7360, 107.6001
279.9490, 127.2014
281.1620, 218.7327
282.3750, 307.1868
283.5880, 357.5542
284.8000, 480.8218
286.0120, 572.9800
287.2240, 756.0200
288.4360, 860.9355
289.6480, 950.7227
290.8600, 1144.380
292.0710, 1386.909
293.2830, 1457.308
294.4940, 1734.581
295.7050, 1744.723
296.9160, 1680.730
298.1260, 1845.588
299.3370, 1799.280
300.5470, 1712.788
301.7580, 1590.104
302.9680, 1440.236
304.1770, 1455.182
305.3870, 1492.941
306.5970, 1370.519
307.8060, 1271.921
309.0150, 1246.160
310.2250, 1219.215
311.4340, 1309.177
312.6420, 1251.972
313.8510, 1268.634
315.0590, 1282.168
316.2680, 1191.581
317.4760, 1157.879
318.6840, 1073.066
319.8920, 1131.137
321.0990, 1060.083
322.3070, 1135.866
323.5140, 1031.486
324.7210, 1039.898
325.9280, 997.0979
327.1350, 943.0042
328.3420, 961.5630
329.5490, 876.5188
330.7550, 848.4849
331.9610, 757.8374
333.1670, 691.8860
334.3730, 660.6404
335.5790, 553.2126
336.7840, 496.6736
337.9900, 513.0112
339.1950, 442.1711
340.4000, 305.1292
341.6050, 374.9094
342.8100, 278.5300
344.0150, 217.0144
345.2190, 276.4255
346.4230, 273.7937
347.6280, 210.1360
348.8320, 237.4612
350.0350, 192.7773
351.2390, 243.0825
352.4430, 250.3777
353.6460, 301.6624
354.8490, 259.9365
356.0520, 378.1997
357.2550, 350.4541
358.4580, 413.6978
359.6600, 504.9331
360.8630, 648.1587
362.0650, 609.3755
363.2670, 760.5828
364.4690, 826.7808
365.6710, 826.9690
366.8720, 841.1479
368.0740, 859.3184
369.2750, 911.4795
370.4760, 877.4912
371.6770, 888.0400
372.8780, 824.0674
374.0780, 881.2310
375.2790, 829.4561
376.4790, 834.7610
377.6790, 729.3945
378.8790, 774.5562
380.0790, 791.0496
381.2790, 756.9102
382.4780, 777.2236
383.6780, 714.1309
384.8770, 646.7148
386.0760, 724.6133
387.2750, 590.7349
388.4730, 601.5862
389.6720, 533.4788
390.8700, 542.2627
392.0690, 481.6094
393.2670, 523.4978
394.4650, 557.5046
395.6620, 448.8086
396.8600, 496.6624
398.0570, 472.8230
399.2550, 516.0557
400.4520, 567.8003
401.6490, 550.5359
402.8450, 525.2446
404.0420, 589.0635
405.2390, 658.3645
406.4350, 758.4434
407.6310, 905.7378
408.8270, 1076.291
410.0230, 1270.008
411.2190, 1516.852
412.4140, 1843.938
413.6090, 2183.856
414.8050, 2602.398
416.0000, 3065.838
417.1940, 3645.444
418.3890, 4297.120
419.5840, 5106.065
420.7780, 5891.195
421.9720, 7010.100
423.1660, 8073.102
424.3600, 9453.302
425.5540, 10330.26
426.7480, 11541.62
427.9410, 12547.16
429.1340, 12896.21
430.3270, 13150.47
431.5200, 12612.72
432.7130, 11908.95
433.9060, 10817.17
435.0980, 9617.373
436.2900, 8209.562
437.4830, 7107.734
438.6750, 6026.895
439.8660, 5164.044
441.0580, 4562.180
442.2500, 3896.304
443.4410, 3463.418
444.6320, 2988.521
445.8230, 2625.615
447.0140, 2361.702
448.2050, 2098.781
449.3950, 1850.855
450.5860, 1635.921
451.7760, 1517.984
452.9660, 1326.042
454.1560, 1221.097
455.3450, 1044.149
456.5350, 902.2002
457.7240, 902.2490
458.9140, 811.2974
460.1030, 704.3452
461.2920, 661.3940
462.4810, 659.4434
463.6690, 482.4941
464.8580, 423.5464
466.0460, 484.6021
467.2340, 469.6606
468.4220, 456.7246
469.6100, 419.7930
470.7970, 368.8687
471.9850, 380.9526
473.1720, 291.0464
474.3590, 312.1523
475.5460, 200.2715
476.7330, 276.4058
477.9200, 127.5562
479.1060, 205.7241
480.2930, 112.9092
481.4790, 179.1138
482.6650, 133.2271
483.8510, 120.8066
485.0370, 89.71875
486.2220, 114.2686
487.4080, 116.6045
488.5930, 160.2324
489.7780, 129.1587
490.9630, 123.3477
492.1480, 92.95312
493.3320, 62.41504
494.5170, 85.13184
495.7010, 84.92773
496.8850, 132.9873
498.0690, 159.9370
499.2530, 196.4365
500.4360, 214.3574
501.6200, 281.5635
502.8030, 238.2803
503.9860, 281.0293
505.1690, 289.8037
506.3520, 362.6230
507.5350, 364.4971
508.7170, 511.4092
509.9000, 433.3604
511.0820, 598.3496
512.2640, 826.3657
513.4460, 840.4136
514.6270, 921.5073
515.8090, 1101.675
516.9900, 1179.884
518.1710, 1337.151
519.3530, 1503.487
520.5330, 1560.880
521.7140, 1558.340
522.8950, 1744.856
524.0750, 1683.436
525.2550, 1653.063
526.4350, 1777.764
527.6150, 1664.624
528.7950, 1620.505
529.9750, 1642.490
531.1540, 1754.579
532.3340, 1599.775
533.5130, 1824.099
534.6920, 1805.525
535.8700, 1685.069
537.0490, 1633.747
538.2280, 1728.628
539.4060, 1636.600
540.5840, 1538.859
541.7620, 1788.006
542.9400, 1725.110
544.1180, 1756.025
545.2950, 1748.656
546.4720, 1768.656
547.6500, 1777.741
548.8270, 1866.577
550.0040, 1893.406
551.1800, 1998.568
552.3570, 2189.779
553.5330, 2395.109
554.7090, 2613.182
555.8850, 2797.054
557.0610, 3067.479
558.2370, 3469.502
559.4130, 3922.738
560.5880, 4562.949
561.7630, 5244.763
562.9380, 5939.754
564.1130, 6617.988
565.2880, 7766.095
566.4630, 8560.807
567.6370, 9820.757
568.8120, 11060.48
569.9860, 12037.18
571.1600, 13050.62
572.3330, 13637.86
573.5070, 13941.14
574.6810, 13753.38
575.8540, 13173.65
577.0270, 12149.93
578.2000, 10738.22
579.3730, 9300.529
580.5460, 8019.855
581.7180, 6637.194
582.8910, 5543.549
584.0630, 4644.917
585.2350, 3830.301
586.4070, 3175.700
587.5780, 2648.112
588.7500, 2246.539
589.9210, 1889.980
591.0930, 1541.436
592.2640, 1472.905
593.4350, 1103.389
594.6050, 1015.886
595.7760, 1048.397
596.9460, 844.9214
598.1170, 783.4597
599.2870, 708.0107
600.4570, 722.5752
601.6260, 671.1526
602.7960, 595.7429
603.9650, 700.3457
605.1350, 625.9609
606.3040, 742.5891
607.4730, 818.2290
608.6420, 952.8813
609.8100, 952.5454
610.9790, 1129.221
612.1470, 1345.908
613.3150, 1554.607
614.4830, 1912.317
615.6510, 2198.038
616.8190, 2723.770
617.9860, 3372.512
619.1540, 4012.264
620.3210, 4948.027
621.4880, 5798.028
622.6550, 6892.018
623.8220, 8190.978
624.9880, 9688.978
626.1550, 11243.79
627.3210, 12777.78
628.4870, 13774.84
629.6530, 14371.46
630.8190, 14185.72
631.9840, 12829.82
633.1500, 11374.87
634.3150, 9565.029
635.4800, 7743.112
636.6450, 6205.275
637.8100, 4830.013
638.9740, 3909.461
640.1390, 3259.448
641.3030, 2586.719
642.4670, 2123.839
643.6310, 1759.711
644.7950, 1400.010
645.9590, 1150.693
647.1220, 1057.743
648.2850, 777.8850
649.4490, 720.2026
650.6120, 665.1321
651.7740, 562.8662
652.9370, 423.1821
654.1000, 385.5315
655.2620, 254.2783
656.4240, 289.6150
657.5860, 278.8445
658.7480, 118.2668
659.9100, 206.3157
661.0710, 156.1270
662.2330, 87.58154
663.3940, 74.28516
664.5550, 57.66650
665.7160, 23.65430
666.8770, 3.397461
668.0370, 24.00732
669.1980, 20.40112
670.3580, 47.29053
671.5180, 26.45898
672.6780, 48.83740
673.8380, 22.31006
674.9970, 3.003662
676.1570, 3.116943
677.3160, 53.77539
678.4750, 1.810303
679.6340, 55.91577
680.7930, 50.40381
681.9520, 25.51758
683.1100, 18.44092
684.2680, 8.129883
685.4270, 3.649658
686.5850, 0.2788090
687.7420, 31.33618
688.9000, 48.79688
690.0580, 85.29883
691.2150, 83.86304
692.3720, 83.48950
693.5290, 93.17871
694.6860, 87.93701
695.8430, 78.76196
696.9990, 54.65063
698.1560, 39.59082
699.3120, 53.57520
700.4680, 45.61255
701.6240, 78.69897
702.7800, 65.25488
703.9350, 11.06812
705.0900, 54.31714
706.2460, 5.623291
707.4010, 3.7842002E-02
708.5560, 1.668457
709.7110, 14.26855
710.8650, 25.15796
712.0200, 61.37109
713.1740, 180.8750
714.3280, 192.3542
715.4820, 225.8086
716.6360, 254.2383
717.7890, 270.6426
718.9430, 320.0220
720.0960, 356.3757
721.2490, 417.1953
722.4020, 507.0071
723.5550, 566.2842
724.7080, 605.5356
725.8600, 703.7612
727.0130, 750.9602
728.1650, 839.1333
729.3170, 1001.280
730.4690, 942.4004
731.6200, 1026.494
732.7720, 1205.561
733.9230, 1311.601
735.0740, 1317.613
736.2250, 1382.599
737.3760, 1390.557
738.5270, 1401.958
739.6780, 1338.417
740.8280, 1362.268
741.9780, 1155.116
743.1280, 1018.936
744.2780, 917.7283
745.4280, 888.4927
746.5770, 774.2285
747.7270, 686.9365
748.8760, 552.6157
750.0250, 536.2666
751.1740, 473.8887
752.3230, 389.4822
753.4720, 305.0471
754.6200, 283.5828
755.7680, 211.0896
756.9160, 181.5674
758.0640, 171.0161
759.2120, 64.43555
760.3600, 69.82373
761.5070, 80.18042
762.6550, 74.50610
763.8020, 123.8005
764.9490, 85.06519
766.0960, 68.29883
767.2420, 8.500732
768.3890, 44.65552
769.5350, 71.77539
770.6810, 83.86377
771.8270, 62.92017
772.9730, 22.94385
774.1190, 21.56470
775.2640, 38.13501
776.4100, 1.269531
777.5550, 25.45752
778.7000, 13.71313
779.8450, 4.970947
780.9900, 9.603271
782.1340, 54.18677
783.2790, 35.26416
784.4230, 72.78784
785.5670, 10.40381
786.7110, 13.07983
787.8550, 6.816895
788.9980, 38.38770
790.1420, 22.55420
791.2850, 29.32349
792.4280, 131.2708
793.5710, 2.658447
794.7140, 59.46533
795.8560, 62.67432
796.9990, 40.97070
798.1410, 53.34253
799.2830, 18.20386
800.4250, 20.29468
801.5670, 49.14233
802.7090, 25.45581
803.8500, 41.12012
804.9920, 32.92139
806.1330, 49.11377
807.2740, 25.61768
808.4150, 30.57031
809.5550, 2.591309
810.6960, 4.665039
811.8360, 8.792480
812.9760, 53.00342
814.1160, 17.75830
815.2560, 67.37402
816.3960, 78.94531
817.5350, 3.291748
818.6750, 56.80518
819.8140, 34.40723
820.9530, 20.23364
822.0920, 20.36743
823.2310, 61.58228
824.3690, 100.8586
825.5080, 121.7229
826.6460, 140.2742
827.7840, 157.5510
828.9220, 143.2422
830.0600, 107.8599
831.1970, 81.77466
832.3350, 80.29053
833.4720, 73.56226
834.6090, 85.62378
835.7460, 82.51807
836.8830, 93.47583
838.0190, 114.8506
839.1560, 159.0671
840.2920, 90.04834
841.4280, 121.1609
842.5640, 144.6753
843.7000, 118.9556
844.8360, 144.4551
845.9710, 150.9844
847.1070, 208.7771
848.2420, 168.7629
849.3770, 145.7053
850.5120, 118.6758
851.6460, 216.6406
852.7810, 174.5874
853.9150, 180.5244
855.0490, 241.4495
856.1830, 190.3643
857.3170, 299.2622
858.4510, 231.1555
859.5840, 293.0334
860.7180, 205.8950
861.8510, 227.7402
862.9840, 261.5698
864.1170, 239.3838
865.2500, 315.1824
866.3820, 231.9651
867.5150, 266.7329
868.6470, 266.4854
869.7790, 302.2236
870.9110, 341.9470
872.0430, 312.6565
873.1740, 298.3511
874.3060, 354.0322
875.4370, 247.6997
876.5680, 441.3540
877.6990, 329.9949
878.8300, 390.6230
879.9600, 385.2383
881.0910, 436.8413
882.2210, 472.4321
883.3510, 491.3696
884.4810, 541.5779
885.6110, 545.1335
886.7410, 595.6780
887.8700, 620.2114
888.9990, 675.7341
890.1290, 622.2466
891.2580, 698.7480
892.3860, 794.2419
893.5150, 770.7261
894.6440, 938.2007
895.7720, 973.4375
896.9000, 952.6851
898.0280, 1058.964
899.1560, 1137.208
900.2840, 1231.638
901.4110, 1297.904
902.5390, 1461.094
903.6660, 1645.736
904.7930, 1879.742
905.9200, 2117.916
907.0470, 2230.132
908.1730, 2475.255
909.3000, 2669.460
910.4260, 3027.792
911.5520, 3515.137
912.6780, 3875.982
913.8030, 4427.290
914.9290, 4984.319
916.0540, 5827.498
917.1800, 6799.923
918.3050, 7711.925
919.4300, 9215.540
920.5550, 10788.79
921.6790, 12991.95
922.8040, 15565.94
923.9280, 18350.32
925.0520, 21810.89
926.1760, 25689.88
927.3000, 30052.84
928.4230, 34451.41
929.5470, 39219.38
930.6700, 42768.47
931.7930, 46285.37
932.9160, 47633.64
934.0390, 47211.16
935.1620, 44939.04
936.2840, 41345.66
937.4070, 36630.62
938.5290, 31286.98
939.6510, 26407.37
940.7730, 21662.32
941.8940, 18148.29
943.0160, 15023.75
944.1370, 12648.93
945.2580, 10805.91
946.3800, 9725.794
947.5000, 8489.453
948.6210, 7583.697
949.7420, 6883.946
950.8620, 5936.329
951.9820, 5144.783
953.1020, 4326.604
954.2220, 3808.058
955.3420, 3239.316
956.4620, 2692.218
957.5810, 2374.182
958.7000, 1960.763
959.8190, 1789.504
960.9380, 1545.273
962.0570, 1337.067
963.1760, 1192.896
964.2940, 1113.778
965.4120, 1060.696
966.5300, 944.6523
967.6480, 850.6450
968.7660, 853.6729
969.8840, 790.7300
971.0010, 850.8203
972.1190, 773.9409
973.2360, 723.0894
974.3530, 781.2773
975.4690, 780.4990
976.5860, 863.7637
977.7030, 855.0630
978.8190, 951.3818
979.9350, 981.7314
981.0510, 1114.100
982.1670, 1224.906
983.2830, 1402.328
984.3980, 1520.768
985.5130, 1735.925
986.6290, 2011.396
987.7440, 2225.489
988.8590, 2719.235
989.9730, 3200.249
991.0880, 3637.788
992.2020, 4264.957
993.3160, 5045.848
994.4300, 6065.438
995.5440, 7103.045
996.6580, 8254.717
997.7720, 9347.355
998.8850, 10475.02
999.9980, 11672.71
1001.111, 12584.41
1002.224, 13278.13
1003.337, 13748.86
1004.450, 14023.62
1005.562, 14032.69
1006.674, 13603.20
1007.786, 13512.01
1008.898, 12863.86
1010.010, 12290.71
1011.122, 11606.60
1012.233, 10980.51
1013.344, 10222.44
1014.455, 9411.390
1015.566, 8684.373
1016.677, 7889.376
1017.788, 7081.403
1018.898, 6394.453
1020.009, 5592.523
1021.119, 4820.619
1022.229, 4121.732
1023.339, 3544.865
1024.448, 3017.022
1025.558, 2652.572
1026.667, 2253.767
1027.776, 2083.981
1028.885, 1846.220
1029.994, 1598.479
1031.103, 1490.761
1032.211, 1335.062
1033.320, 1275.384
1034.428, 1302.727
1035.536, 1177.034
1036.644, 1256.419
1037.751, 1239.833
1038.859, 1156.269
1039.966, 1198.726
1041.074, 1120.741
1042.181, 985.2407
1043.288, 976.7661
1044.394, 835.3281
1045.501, 682.9209
1046.607, 618.5464
1047.713, 609.7368
1048.820, 452.4355
1049.925, 361.1650
1051.031, 408.9243
1052.137, 298.7061
1053.242, 244.9702
1054.348, 241.8452
1055.453, 160.7568
1056.558, 180.8906
1057.662, 147.8784
1058.767, 88.89062
1059.871, 25.92969
1060.976, 115.0112
1062.080, 174.1597
1063.184, 185.4731
1064.288, 147.9570
1065.391, 105.2319
1066.495, 138.3706
1067.598, 173.7354
1068.701, 185.1270
1069.804, 275.8481
1070.907, 265.3032
1072.010, 335.7959
1073.112, 283.8628
1074.214, 408.4370
1075.317, 586.5732
1076.419, 569.2295
1077.521, 621.0684
1078.622, 799.7988
1079.724, 941.5601
1080.825, 1196.641
1081.926, 1337.896
1083.027, 1578.689
1084.128, 1818.751
1085.229, 1975.626
1086.329, 2216.723
1087.430, 2494.959
1088.530, 2668.898
1089.630, 2624.083
1090.730, 2597.065
1091.830, 2430.065
1092.929, 2104.674
1094.029, 1969.706
1095.128, 1675.777
1096.227, 1467.524
1097.326, 1212.604
1098.425, 959.6973
1099.523, 784.8057
1100.622, 680.9292
1101.720, 569.0698
1102.818, 467.9888
1103.916, 401.1553
1105.014, 283.3359
1106.111, 214.9062
1107.209, 220.1167
1108.306, 157.4805
1109.403, 120.2471
1110.500, 131.4961
1111.597, 116.2949
1112.694, 105.1934
1113.790, 28.14648
1114.887, 47.66895
1115.983, 30.97266
1117.079, 92.68848
1118.174, 24.61279
1119.270, 65.07520
1120.366, 54.76709
1121.461, 61.32910
1122.556, 18.00098
1123.651, 87.68408
1124.746, 21.37500
1125.841, 7.939941
1126.935, 3.265625
1128.030, 3.835938
1129.124, 43.76709
1130.218, 28.44873
1131.312, 67.82373
1132.405, 104.2383
1133.499, 107.6313
1134.592, 86.03320
1135.686, 86.44092
1136.779, 60.20654
1137.871, 82.63525
1138.964, 141.5620
1140.057, 112.3608
1141.149, 108.8218
1142.241, 135.0405
1143.334, 80.80762
1144.425, 97.29248
1145.517, 114.7827
1146.609, 85.61963
1147.700, 166.2305
1148.791, 111.7246
1149.883, 89.45117
1150.974, 17.00635
1152.064, 180.4033
1153.155, 74.29785
1154.245, 73.86572
1155.336, 108.0464
1156.426, 16.40283
1157.516, 55.14893
1158.606, 126.7046
1159.695, 88.20410
1160.785, 78.06885
1161.874, 95.99756
1162.963, 34.24854
1164.052, 68.85742
1165.141, 40.46191
1166.230, 28.92334
1167.318, 5.838379
1168.406, 60.42139
1169.495, 26.11035
1170.583, 70.36084
1171.670, 16.69287
1172.758, 72.89355
1173.846, 68.48145
1174.933, 2.071777
1176.020, 33.66309
1177.107, 72.25586
1178.194, 14.14990
1179.281, 60.43945
1180.367, 71.02930
1181.454, 95.62012
1182.540, 104.4224
1183.626, 9.986328
1184.712, 141.6001
1185.798, 16.61133
1186.883, 24.80322
1187.969, 62.43359
1189.054, 63.10742
1190.139, 24.68799
1191.224, 133.9229
1192.309, 46.49072
1193.393, 38.94434
1194.478, 1.401855
1195.562, 55.13525
1196.646, 47.86816
1197.730, 36.63623
1198.814, 67.13770
1199.897, 37.26025
1200.981, 66.24072
1202.064, 94.76270
1203.147, 54.72461
1204.230, 109.9937
1205.313, 2.584473
1206.396, 45.23291
1207.478, 13.36133
1208.560, 42.41846
1209.642, 40.80127
1210.724, 29.82227
1211.806, 1.763184
1212.888, 6.899414
1213.969, 10.57861
1215.051, 79.72266
1216.132, 72.90576
1217.213, 10.48096
1218.294, 63.74121
1219.374, 23.72510
1220.455, 73.60205
1221.535, 82.92188
1222.616, 11.90527
1223.696, 37.25928
1224.775, 20.39844
1225.855, 59.47266
1226.935, 53.60693
1228.014, 52.67773
1229.093, 27.73877
1230.172, 84.79102
1231.251, 26.17480
1232.330, 9.791992
1233.408, 42.21484
1234.487, 38.28955
1235.565, 16.27686
1236.643, 82.03711
1237.721, 60.97119
1238.799, 14.93750
1239.876, 68.83008
1240.954, 18.11475
1242.031, 52.73389
1243.108, 80.57227
1244.185, 16.88721
1245.262, 89.90625
1246.338, 39.68945
1247.415, 93.75830
1248.491, 67.51904
1249.567, 92.66406
1250.643, 28.25586
1251.719, 38.77539
1252.795, 89.52393
1253.870, 117.2002
1254.945, 124.7397
1256.021, 102.4199
1257.096, 15.16553
1258.170, 24.77051
1259.245, 2.284180
1260.320, 127.8984
1261.394, 49.50098
1262.468, 62.09131
1263.542, 115.6694
1264.616, 10.23584
1265.690, 28.18604
1266.763, 108.8022
1267.836, 2.318848
1268.910, 29.80908
1269.983, 64.60547
1271.055, 16.27686
1272.128, 35.21338
1273.201, 77.74316
1274.273, 112.1396
1275.345, 40.42969
1276.417, 48.90381
1277.489, 16.29980
1278.561, 11.59668
1279.632, 68.89941
1280.704, 20.30371
1281.775, 37.49170
1282.846, 72.93164
1283.917, 28.19238
1284.988, 92.38965
1286.058, 101.1895
1287.129, 165.3506
1288.199, 20.56885
1289.269, 43.69678
1290.339, 79.80908
1291.409, 81.90430
1292.478, 78.98633
1293.548, 81.81982
1294.617, 81.06787
