##NAMES=Celestine
##RRUFFID=R050008
##IDEAL CHEMISTRY=SrS^6+^O_4_
##LOCALITY=Scofield Quarry, Maybee, Monroe County, Michigan, USA
##OWNER=RRUFF
##SOURCE=Eugene Schlepp
##DESCRIPTION=Pale blue tabular crystals
##STATUS=The identification of this mineral has been confirmed by X-ray diffraction and chemical analysis
##URL=rruff.info/R050008
##MEASURED CHEMISTRY=Sr_1.00_S_1.00_O_4_
##PIN_ID=M00186
##ORIENTATION=Laser parallel to c* (0 0 1). Fiducial mark perpendicular to laser is parallel to -a [-1 0 0]
54.807, 0.000
56.212, 9.543
57.617, 4.658
59.021, 17.452
60.426, 43.645
61.830, 40.809
63.234, 25.889
64.637, 35.584
66.041, 34.044
67.444, 23.704
68.847, 33.536
70.250, 45.528
71.652, 43.061
73.054, 47.583
74.456, 37.591
75.858, 22.765
77.260, 20.456
78.661, 18.203
80.062, 19.114
81.463, 14.012
82.863, 2.926
84.264, 8.855
85.664, 1.203
87.064, 9.248
88.463, 0.283
89.863, 6.693
91.262, 4.677
92.661, 7.668
94.059, 21.665
95.458, 8.667
96.856, 10.675
98.254, 16.693
99.652, 9.940
101.049, 19.222
102.446, 6.258
103.843, 23.318
105.240, 41.380
106.637, 51.423
108.033, 82.497
109.429, 208.577
110.825, 813.660
112.220, 377.749
113.616, 110.836
115.011, 94.939
116.406, 92.040
117.800, 101.148
119.195, 110.249
120.589, 126.342
121.983, 186.446
123.377, 196.560
124.770, 228.665
126.163, 209.761
127.556, 172.858
128.949, 127.958
130.342, 101.051
131.734, 85.136
133.126, 64.216
134.518, 38.287
135.909, 28.349
137.301, 25.496
138.692, 41.616
140.083, 21.728
141.473, 22.945
142.864, 8.227
144.254, 21.389
145.644, 14.556
147.034, 11.764
148.423, 20.837
149.812, 21.947
151.201, 30.031
152.590, 19.149
153.979, 19.285
155.367, 23.552
156.755, 26.752
158.143, 23.844
159.530, 24.946
160.918, 31.184
162.305, 25.315
163.692, 25.596
165.078, 28.714
166.465, 28.771
167.851, 41.120
169.237, 42.205
170.623, 42.222
172.008, 56.298
173.393, 41.074
174.778, 40.102
176.163, 40.197
177.548, 33.231
178.932, 46.250
180.316, 20.195
181.700, 33.707
183.083, 48.643
184.467, 43.584
185.850, 50.494
187.233, 55.419
188.616, 74.058
189.998, 71.999
191.380, 87.908
192.762, 119.811
194.144, 151.709
195.525, 189.568
196.907, 260.481
198.288, 300.715
199.669, 322.797
201.049, 288.212
202.429, 251.067
203.810, 223.908
205.189, 173.944
206.569, 125.817
207.949, 94.671
209.328, 79.646
210.707, 52.503
212.085, 59.368
213.464, 38.214
214.842, 33.049
216.220, 30.904
217.598, 22.729
218.976, 9.553
220.353, 21.377
221.730, 11.636
223.107, 26.887
224.483, 13.120
225.860, 11.334
227.236, 9.526
228.612, 3.700
229.988, 11.843
231.363, 16.961
232.738, 10.055
234.113, 6.153
235.488, 23.201
236.863, 8.218
238.237, 11.181
239.611, 22.133
240.985, 16.079
242.359, 10.993
243.732, 18.894
245.105, 30.783
246.478, 12.677
247.851, 8.546
249.223, 17.274
250.595, 9.103
251.967, 11.657
253.339, 0.713
254.711, 2.339
256.082, 2.150
257.453, 3.936
258.824, 9.763
260.195, 7.670
261.565, 2.507
262.935, 8.639
264.305, 11.243
265.675, 0.911
267.044, 0.979
268.414, 6.791
269.783, 1.303
271.151, 5.605
272.520, 1.511
273.888, 4.416
275.256, 4.320
276.624, 8.222
277.992, 12.123
279.359, 2.977
280.726, 0.081
282.093, 11.814
283.460, 4.708
284.827, 10.600
286.193, 6.491
287.559, 0.380
288.925, 6.733
290.290, 0.849
291.656, 3.033
293.021, 5.913
294.386, 0.208
295.750, 2.669
297.115, 0.455
298.479, 18.419
299.843, 2.291
301.207, 5.162
302.570, 6.032
303.933, 13.900
305.296, 6.234
306.659, 5.629
308.022, 9.431
309.384, 9.288
310.746, 7.116
312.108, 9.930
313.470, 8.781
314.831, 18.634
316.193, 5.485
317.554, 19.326
318.914, 7.834
320.275, 13.990
321.635, 2.848
322.995, 7.685
324.355, 8.516
325.715, 7.345
327.074, 14.172
328.434, 3.997
329.792, 10.821
331.151, 5.643
332.510, 17.463
333.868, 13.282
335.226, 10.099
336.584, 1.916
337.941, 4.273
339.299, 0.463
340.656, 3.345
342.013, 2.848
343.370, 11.957
344.726, 8.244
346.082, 9.577
347.438, 9.375
348.794, 14.173
350.150, 11.970
351.505, 3.233
352.860, 10.555
354.215, 2.342
355.570, 12.129
356.924, 10.915
358.278, 5.701
359.632, 2.514
360.986, 17.271
362.339, 14.053
363.693, 3.834
365.046, 1.613
366.399, 13.391
367.751, 5.169
369.104, 11.946
370.456, 7.722
371.808, 8.499
373.159, 13.274
374.511, 2.050
375.862, 10.825
377.213, 34.600
378.564, 13.375
379.914, 21.149
381.265, 8.924
382.615, 21.677
383.965, 10.451
385.315, 12.187
386.664, 14.958
388.013, 8.825
389.362, 19.555
390.711, 6.276
392.060, 7.957
393.408, 28.685
394.756, 16.433
396.104, 1.151
397.451, 22.849
398.799, 14.608
400.146, 23.316
401.493, 21.037
402.840, 30.796
404.186, 25.537
405.533, 28.258
406.879, 36.012
408.225, 34.769
409.570, 33.497
410.916, 29.209
412.261, 39.958
413.606, 47.674
414.951, 28.403
416.295, 30.074
417.639, 26.765
418.983, 54.456
420.327, 35.166
421.671, 51.902
423.014, 43.631
424.357, 54.332
425.700, 61.454
427.043, 58.198
428.386, 53.809
429.728, 78.500
431.070, 89.228
432.412, 86.821
433.753, 95.544
435.095, 104.243
436.436, 125.962
437.777, 170.680
439.118, 173.415
440.458, 236.166
441.798, 290.664
443.138, 371.338
444.478, 504.088
445.818, 668.809
447.157, 988.555
448.496, 1531.285
449.835, 2232.979
451.174, 3355.255
452.513, 4212.902
453.851, 4712.620
455.189, 4259.352
456.527, 3302.031
457.864, 2644.748
459.202, 2078.420
460.539, 1746.189
461.876, 1541.907
463.212, 1177.638
464.549, 871.373
465.885, 655.141
467.221, 473.474
468.557, 356.209
469.893, 278.961
471.228, 214.713
472.563, 182.455
473.898, 154.210
475.233, 124.960
476.567, 112.729
477.902, 103.467
479.236, 68.236
480.570, 51.490
481.903, 55.360
483.237, 53.091
484.570, 45.843
485.903, 48.599
487.235, 33.351
488.568, 34.126
489.900, 20.866
491.232, 28.635
492.564, 33.383
493.896, 21.158
495.227, 24.933
496.558, 23.700
497.889, 19.435
499.220, 9.947
500.551, 18.659
501.881, 22.401
503.211, 23.009
504.541, 5.785
505.870, 1.940
507.200, 24.829
508.529, 22.599
509.858, 14.377
511.187, 17.154
512.515, 12.755
513.844, 20.535
515.172, 18.282
516.500, 13.063
517.827, 6.846
519.155, 15.614
520.482, 8.272
521.809, 14.062
523.136, 10.852
524.462, 16.618
525.789, 12.376
527.115, 22.168
528.441, 21.943
529.766, 631.735
531.092, 301.522
532.417, 15.312
533.742, 20.103
535.067, 17.891
536.391, 10.684
537.716, 15.476
539.040, 18.269
540.364, 12.061
541.688, 2.147
543.011, 22.657
544.334, 18.450
545.657, 8.327
546.980, 5.872
548.303, 15.930
549.625, 21.756
550.947, 10.595
552.269, 16.393
553.591, 3.191
554.913, 5.992
556.234, 1.767
557.555, 8.568
558.876, 18.389
560.197, 3.433
561.517, 25.251
562.837, 16.069
564.157, 19.871
565.477, 3.674
566.797, 5.580
568.116, 8.405
569.435, 9.208
570.754, 5.013
572.073, 1.817
573.391, 12.692
574.709, 16.598
576.027, 20.412
577.345, 13.569
578.663, 17.999
579.980, 24.806
581.297, 26.766
582.614, 10.632
583.931, 17.440
585.248, 27.251
586.564, 33.060
587.880, 25.143
589.196, 41.952
590.511, 29.789
591.827, 29.687
593.142, 34.495
594.457, 38.303
595.772, 46.110
597.086, 40.916
598.401, 49.722
599.715, 68.527
601.029, 71.388
602.343, 68.192
603.656, 99.160
604.969, 102.963
606.282, 113.830
607.595, 160.802
608.908, 184.603
610.220, 237.907
611.532, 313.847
612.844, 433.648
614.156, 687.519
615.468, 1008.329
616.779, 1446.220
618.090, 1819.302
619.401, 1858.185
620.712, 1588.981
622.022, 1227.887
623.332, 953.680
624.642, 710.473
625.952, 570.652
627.262, 500.444
628.571, 469.236
629.880, 524.025
631.189, 602.814
632.498, 779.602
633.807, 1070.576
635.115, 1611.373
636.423, 2351.157
637.731, 2851.330
639.039, 2906.113
640.346, 2476.410
641.653, 1626.320
642.960, 1089.171
644.267, 713.959
645.574, 498.181
646.880, 367.960
648.186, 256.738
649.492, 214.514
650.798, 181.423
652.103, 160.196
653.409, 140.968
654.714, 146.953
656.019, 109.739
657.323, 104.661
658.628, 108.470
659.932, 91.261
661.236, 74.026
662.540, 73.789
663.843, 40.530
665.147, 54.443
666.450, 40.511
667.753, 32.319
669.056, 36.385
670.358, 23.357
671.660, 17.359
672.963, 23.111
674.264, 22.614
675.566, 13.772
676.868, 32.588
678.169, 14.348
679.470, 30.163
680.771, 12.904
682.071, 31.721
683.372, 32.881
684.672, 18.700
685.972, 11.433
687.271, 14.165
688.571, 28.894
689.870, 19.621
691.169, 5.723
692.468, 17.445
693.767, 19.168
695.065, 12.886
696.364, 13.647
697.662, 17.361
698.960, 8.048
700.257, 18.008
701.555, 1.999
702.852, 9.703
704.149, 9.517
705.446, 5.435
706.742, 4.177
708.038, 13.779
709.335, 13.472
710.631, 17.764
711.926, 19.452
713.222, 22.287
714.517, 9.372
715.812, 0.052
717.107, 9.728
718.402, 9.401
719.696, 16.071
720.990, 12.739
722.284, 3.452
723.578, 8.154
724.872, 18.402
726.165, 18.345
727.458, 20.999
728.751, 5.717
730.044, 4.365
731.336, 12.669
732.629, 0.531
733.921, 4.895
735.213, 23.039
736.504, 3.665
737.796, 7.719
739.087, 18.337
740.378, 21.953
741.669, 16.608
742.960, 1.219
744.250, 29.824
745.540, 9.427
746.830, 6.027
748.120, 25.624
749.410, 17.218
750.699, 14.809
751.988, 20.397
753.277, 17.983
754.566, 29.566
755.854, 7.147
757.143, 13.724
758.431, 3.299
759.719, 24.869
761.006, 6.437
762.294, 3.002
763.581, 32.563
764.868, 2.880
766.155, 3.671
767.442, 13.218
768.728, 5.763
770.014, 9.304
771.300, 4.842
772.586, 0.377
773.872, 4.907
775.157, 16.433
776.442, 3.957
777.727, 11.477
779.012, 11.995
780.297, 1.490
781.581, 12.019
782.865, 16.525
784.149, 23.029
785.433, 20.531
786.716, 12.030
787.999, 1.527
789.282, 7.019
790.565, 13.509
791.848, 2.004
793.130, 20.477
794.413, 4.044
795.695, 2.428
796.977, 3.896
798.258, 6.362
799.540, 3.176
800.821, 14.281
802.102, 13.735
803.382, 13.186
804.663, 1.636
805.943, 7.081
807.224, 6.525
808.504, 0.034
809.783, 4.403
811.063, 0.837
812.342, 3.267
813.621, 3.695
814.900, 6.120
816.179, 11.544
817.457, 15.964
818.736, 0.383
820.014, 2.202
821.292, 2.208
822.569, 2.384
823.847, 0.982
825.124, 1.583
826.401, 6.811
827.678, 9.798
828.954, 4.414
830.231, 15.037
831.507, 2.330
832.783, 0.694
834.059, 6.056
835.334, 0.415
836.610, 5.228
837.885, 0.123
839.160, 5.471
840.435, 9.818
841.709, 12.162
842.983, 15.505
844.258, 5.153
845.532, 13.160
846.805, 1.494
848.079, 3.827
849.352, 0.158
850.625, 12.486
851.898, 6.813
853.171, 3.873
854.443, 4.551
855.715, 3.683
856.988, 4.008
858.259, 3.703
859.531, 0.426
860.803, 15.168
862.074, 5.130
863.345, 10.573
864.616, 7.717
865.886, 2.994
867.157, 7.708
868.427, 8.556
869.697, 8.594
870.967, 8.858
872.236, 2.119
873.506, 1.396
874.775, 1.330
876.044, 1.160
877.313, 11.912
878.581, 6.646
879.849, 2.617
881.118, 2.121
882.386, 3.068
883.653, 13.775
884.921, 4.529
886.188, 1.372
887.455, 8.002
888.722, 4.245
889.989, 10.661
891.255, 4.523
892.522, 15.764
893.788, 1.995
895.054, 6.245
896.319, 16.212
897.585, 31.452
898.850, 17.663
900.115, 47.813
901.380, 42.052
902.645, 15.291
903.909, 24.530
905.174, 33.769
906.438, 28.008
907.701, 19.247
908.965, 18.431
910.229, 9.670
911.492, 8.747
912.755, 16.987
914.018, 25.162
915.280, 21.232
916.543, 46.473
917.805, 31.213
919.067, 33.316
920.329, 35.558
921.590, 31.730
922.852, 39.963
924.113, 35.115
925.374, 30.075
926.635, 34.235
927.895, 38.481
929.156, 26.617
930.416, 33.866
931.676, 44.115
932.936, 31.979
934.195, 47.231
935.454, 45.483
936.714, 51.736
937.973, 49.991
939.231, 55.247
940.490, 53.316
941.748, 77.562
943.006, 52.821
944.264, 54.692
945.522, 58.954
946.780, 72.707
948.037, 68.847
949.294, 51.047
950.551, 67.309
951.808, 75.138
953.064, 85.410
954.320, 89.684
955.577, 84.959
956.832, 91.103
958.088, 101.382
959.344, 112.663
960.599, 111.731
961.854, 124.998
963.109, 118.132
964.364, 134.378
965.618, 145.644
966.872, 142.937
968.127, 170.233
969.380, 190.530
970.634, 213.679
971.888, 257.672
973.141, 334.927
974.394, 376.924
975.647, 366.019
976.900, 338.083
978.152, 397.397
979.404, 434.962
980.656, 504.874
981.908, 530.127
983.160, 626.438
984.411, 750.695
985.663, 780.026
986.914, 925.283
988.165, 1152.198
989.415, 1415.454
990.666, 1876.797
991.916, 2526.142
993.166, 3603.491
994.416, 5808.844
995.665, 10163.822
996.915, 21623.186
998.164, 43932.539
999.413, 61031.902
1000.662, 54991.230
1001.911, 31010.604
1003.159, 16469.980
1004.407, 9170.109
1005.655, 5481.207
1006.903, 3642.592
1008.151, 2465.741
1009.398, 1853.917
1010.646, 1454.270
1011.893, 1157.763
1013.139, 1015.168
1014.386, 838.973
1015.633, 731.386
1016.879, 604.652
1018.125, 576.669
1019.371, 469.093
1020.616, 466.521
1021.862, 409.954
1023.107, 391.391
1024.352, 369.831
1025.597, 317.228
1026.842, 304.639
1028.086, 258.506
1029.330, 279.680
1030.574, 246.143
1031.818, 215.544
1033.062, 214.018
1034.305, 204.841
1035.548, 192.171
1036.791, 178.668
1038.034, 143.866
1039.277, 124.374
1040.519, 130.459
1041.762, 109.981
1043.004, 130.508
1044.246, 117.002
1045.487, 110.541
1046.729, 103.093
1047.970, 106.651
1049.211, 90.215
1050.452, 90.787
1051.692, 60.366
1052.933, 88.950
1054.173, 81.543
1055.413, 77.140
1056.653, 92.742
1057.893, 69.348
1059.132, 68.960
1060.371, 74.576
1061.610, 55.201
1062.849, 52.827
1064.088, 43.462
1065.326, 78.103
1066.565, 41.748
1067.803, 30.406
1069.041, 57.069
1070.278, 62.738
1071.516, 23.416
1072.753, 42.098
1073.990, 17.786
1075.227, 26.481
1076.464, 31.181
1077.700, 30.888
1078.936, 31.600
1080.173, 41.318
1081.408, 34.040
1082.644, 21.769
1083.880, 43.503
1085.115, 41.243
1086.350, 31.987
1087.585, 28.738
1088.820, 35.496
1090.054, 47.260
1091.288, 20.029
1092.522, 54.803
1093.756, 59.583
1094.990, 54.369
1096.224, 74.161
1097.457, 123.046
1098.690, 118.849
1099.923, 155.659
1101.156, 238.475
1102.388, 278.295
1103.621, 372.121
1104.853, 532.952
1106.085, 706.788
1107.316, 909.629
1108.548, 1045.475
1109.779, 1050.327
1111.010, 1060.184
1112.241, 896.047
1113.472, 647.915
1114.703, 444.788
1115.933, 325.666
1117.163, 242.548
1118.393, 196.436
1119.623, 161.329
1120.853, 124.229
1122.082, 119.134
1123.311, 122.285
1124.540, 86.202
1125.769, 89.125
1126.997, 90.091
1128.226, 99.027
1129.454, 107.970
1130.682, 152.923
1131.910, 149.881
1133.138, 187.844
1134.365, 218.812
1135.592, 213.786
1136.819, 258.766
1138.046, 286.751
1139.273, 314.741
1140.499, 367.736
1141.725, 418.735
1142.951, 476.810
1144.177, 555.820
1145.403, 611.835
1146.628, 822.854
1147.854, 874.878
1149.079, 1084.906
1150.304, 1357.939
1151.528, 1584.976
1152.753, 2111.025
1153.977, 2516.074
1155.201, 3092.148
1156.425, 3844.343
1157.649, 4350.406
1158.872, 4627.474
1160.096, 4762.551
1161.319, 4151.632
1162.542, 3666.718
1163.764, 2886.809
1164.987, 2249.905
1166.209, 1795.007
1167.431, 1388.113
1168.653, 1096.223
1169.875, 904.336
1171.097, 711.454
1172.318, 599.704
1173.539, 496.129
1174.760, 377.258
1175.981, 359.394
1177.202, 305.536
1178.422, 262.680
1179.642, 264.160
1180.862, 189.076
1182.082, 189.491
1183.302, 152.470
1184.521, 142.637
1185.740, 109.808
1186.959, 111.847
1188.178, 102.195
1189.397, 82.427
1190.615, 92.274
1191.834, 82.464
1193.052, 68.440
1194.269, 60.846
1195.487, 66.439
1196.705, 40.221
1197.922, 47.127
1199.139, 31.335
1200.356, 24.493
1201.573, 38.706
1202.789, 26.924
1204.006, 27.143
1205.222, 18.364
1206.438, 11.592
1207.653, 0.182
1208.869, 22.047
1210.084, 7.269
1211.299, 31.503
1212.514, 38.740
1213.729, 21.205
1214.944, 19.618
1216.158, 18.862
1217.372, 23.079
1218.586, 15.327
1219.800, 24.640
1221.014, 13.024
1222.227, 15.289
1223.440, 18.076
1224.654, 26.334
1225.866, 12.732
1227.079, 3.995
1228.292, 3.259
1229.504, 6.671
1230.716, 8.942
1231.928, 12.212
1233.139, 9.066
1234.351, 6.724
1235.562, 17.009
1236.773, 7.431
1237.984, 17.715
1239.195, 7.003
1240.406, 31.293
1241.616, 16.586
1242.826, 5.118
1244.036, 39.341
1245.246, 22.704
1246.456, 13.007
1247.665, 32.314
1248.874, 30.640
1250.083, 34.950
1251.292, 20.263
1252.501, 43.578
1253.709, 43.911
1254.917, 28.231
1256.125, 15.553
1257.333, 38.911
1258.541, 13.238
1259.748, 17.569
1260.956, 32.901
1262.163, 22.234
1263.370, 11.570
1264.576, 16.908
1265.783, 19.253
1266.989, 21.596
1268.195, 8.060
1269.401, 1.284
1270.607, 1.634
1271.813, 2.017
1273.018, 2.333
1274.223, 1.684
1275.428, 1.168
1276.633, 18.521
1277.838, 1.874
1279.042, 13.222
1280.246, 22.658
1281.450, 19.998
1282.654, 4.337
1283.858, 23.673
1285.061, 13.997
1286.265, 17.339
1287.468, 2.347
1288.671, 7.960
1289.873, 27.275
1291.076, 22.586
1292.278, 13.896
1293.480, 20.199
1294.682, 10.493
1295.884, 23.802
1297.086, 0.182
1298.287, 4.466
1299.488, 0.255
1300.689, 2.976
1301.890, 12.301
1303.091, 10.591
1304.291, 18.861
1305.491, 16.128
1306.691, 31.393
1307.891, 9.657
1309.091, 26.952
1310.290, 7.212
1311.490, 19.471
1312.689, 27.729
1313.888, 4.985
1315.086, 11.244
1316.285, 1.503
1317.483, 4.252
1318.681, 22.995
1319.879, 21.240
1321.077, 10.483
1322.275, 16.724
1323.472, 4.038
1324.669, 10.804
1325.866, 2.579
1327.063, 11.357
1328.260, 11.857
1329.456, 33.067
1330.653, 11.725
1331.849, 0.524
1333.045, 1.688
1334.240, 8.118
1335.436, 7.072
1336.631, 25.743
1337.826, 0.568
1339.021, 3.396
1340.216, 6.228
1341.411, 8.065
1342.605, 6.093
1343.799, 11.753
1344.993, 28.396
1346.187, 5.542
1347.381, 14.685
1348.574, 15.826
1349.767, 5.964
1350.961, 30.101
1352.153, 9.253
1353.346, 11.615
1354.539, 15.511
1355.731, 20.923
1356.923, 14.955
1358.115, 2.159
1359.307, 11.272
1360.498, 10.618
1361.690, 26.496
1362.881, 5.600
1364.072, 3.701
1365.263, 8.781
1366.453, 3.142
1367.644, 14.927
1368.834, 4.104
1370.024, 19.160
1371.214, 14.234
1372.404, 4.241
1373.593, 12.182
1374.783, 21.566
1375.972, 3.056
1377.161, 0.320
1378.349, 13.697
1379.538, 6.073
1380.726, 31.358
1381.915, 35.732
1383.103, 19.105
1384.290, 52.479
1385.478, 24.852
1386.665, 7.225
1387.853, 11.597
1389.040, 19.969
1390.227, 24.340
1391.413, 16.710
1392.600, 31.802
1393.786, 40.167
1394.972, 24.487
1396.158, 18.849
1397.344, 47.210
1398.530, 30.568
1399.715, 17.925
1400.900, 33.281
1402.085, 24.547
1403.270, 38.900
1404.455, 32.252
1405.639, 26.604
1406.824, 32.947
1408.008, 26.270
1409.192, 27.438
1410.375, 35.785
1411.559, 29.133
1412.742, 28.482
1413.925, 46.830
1415.108, 33.179
1416.291, 40.343
1417.474, 16.258
1418.656, 36.601
1419.839, 35.455
1421.021, 44.260
1422.202, 17.339
1423.384, 46.313
1424.566, 39.264
1425.747, 51.503
1426.928, 38.580
1428.109, 19.226
1429.290, 50.277
1430.470, 34.885
1431.651, 22.050
1432.831, 23.209
1434.011, 37.374
1435.191, 28.785
1436.370, 25.717
1437.550, 17.502
1438.729, 7.795
1439.908, 21.491
1441.087, 25.508
1442.266, 27.272
1443.444, 34.293
1444.623, 16.012
1445.801, 37.828
1446.979, 35.988
1448.157, 35.629
1449.334, 37.541
1450.512, 11.434
1451.689, 44.807
1452.866, 40.647
1454.043, 31.424
1455.220, 33.222
1456.396, 16.956
1457.573, 32.619
1458.749, 39.327
1459.925, 23.011
1461.100, 29.661
1462.276, 22.264
1463.451, 30.848
1464.627, 47.383
1465.802, 22.888
1466.977, 21.971
1468.151, 41.422
1469.326, 23.611
1470.500, 34.076
1471.674, 31.545
1472.848, 24.128
1474.022, 11.670
1475.195, 27.227
1476.369, 30.791
1477.542, 46.091
1478.715, 33.754
1479.888, 14.343
1481.061, 29.022
1482.233, 29.706
1483.405, 25.239
1484.577, 26.903
1485.749, 36.534
1486.921, 23.178
1488.093, 30.814
1489.264, 28.450
1490.435, 32.093
1491.606, 20.770
1492.777, 8.483
1493.948, 19.217
1495.118, 26.871
1496.288, 2.355
1497.459, 34.444
1498.628, 17.257
1499.798, 18.097
1500.968, 37.965
1502.137, 12.866
1503.306, 30.811
1504.475, 32.484
1505.644, 22.876
1506.813, 22.215
1507.981, 14.346
1509.149, 0.129
1510.318, 14.561
1511.485, 5.502
1512.653, 13.474
1513.821, 0.000
##END=



