##NAMES=Celestine
##RRUFFID=R050008
##IDEAL CHEMISTRY=SrS^6+^O_4_
##LOCALITY=Scofield Quarry, Maybee, Monroe County, Michigan, USA
##OWNER=RRUFF
##SOURCE=Eugene Schlepp
##DESCRIPTION=Pale blue tabular crystals
##STATUS=The identification of this mineral has been confirmed by X-ray diffraction and chemical analysis
##URL=rruff.info/R050008
##MEASURED CHEMISTRY=Sr_1.00_S_1.00_O_4_
##PIN_ID=M00399
##ORIENTATION=Laser parallel to b* (0 1 0). Fiducial mark perpendicular to laser is parallel to -c [0 0 -1]
50.167, 0.000
51.575, 26.875
52.984, 35.864
54.392, 61.786
55.799, 54.689
57.207, 79.418
58.614, 80.991
60.021, 92.775
61.428, 119.574
62.834, 138.691
64.240, 169.443
65.646, 176.203
67.052, 166.966
68.458, 165.177
69.863, 152.296
71.268, 154.554
72.673, 151.389
74.077, 132.761
75.481, 113.824
76.885, 104.846
78.289, 83.933
79.693, 60.078
81.096, 50.263
82.499, 12.483
83.902, 42.728
85.304, 0.007
86.706, 13.725
88.108, 5.570
89.510, 5.126
90.912, 15.816
92.313, 4.499
93.714, 4.835
95.115, 11.190
96.515, 27.850
97.916, 32.633
99.316, 42.370
100.715, 34.023
102.115, 71.597
103.514, 40.273
104.913, 70.910
106.312, 90.754
107.711, 80.441
109.109, 110.122
110.507, 66.730
111.905, 74.245
113.303, 69.927
114.700, 89.476
116.097, 83.985
117.494, 115.494
118.891, 117.011
120.287, 128.514
121.683, 169.002
123.079, 164.476
124.475, 226.932
125.870, 264.371
127.265, 296.797
128.660, 240.214
130.055, 185.615
131.449, 173.010
132.843, 112.395
134.237, 79.813
135.631, 61.487
137.024, 56.096
138.417, 42.799
139.810, 37.499
141.203, 41.449
142.596, 16.052
143.988, 15.712
145.380, 26.331
146.771, 18.119
148.163, 26.892
149.554, 27.510
150.945, 25.170
152.336, 30.618
153.726, 29.927
155.117, 23.081
156.507, 29.372
157.896, 29.963
159.286, 24.477
160.675, 28.741
162.064, 10.207
163.453, 15.613
164.842, 36.846
166.230, 42.507
167.618, 24.227
169.006, 29.587
170.393, 40.891
171.781, 37.532
173.168, 57.019
174.555, 49.310
175.941, 21.988
177.328, 58.080
178.714, 35.513
180.100, 50.729
181.485, 48.988
182.871, 50.235
184.256, 38.235
185.641, 59.117
187.025, 54.364
188.410, 64.491
189.794, 78.585
191.178, 71.753
192.562, 103.881
193.945, 145.966
195.328, 163.085
196.711, 248.056
198.094, 260.014
199.476, 349.078
200.859, 333.033
202.241, 364.060
203.623, 310.336
205.004, 252.452
206.385, 199.475
207.766, 139.463
209.147, 116.428
210.528, 85.880
211.908, 60.820
213.288, 66.711
214.668, 34.600
216.048, 31.471
217.427, 33.052
218.806, 16.647
220.185, 17.247
221.564, 23.837
222.942, 18.407
224.320, 20.516
225.698, 11.474
227.076, 12.963
228.453, 17.412
229.830, 1.831
231.207, 14.230
232.584, 23.601
233.960, 16.947
235.337, 25.284
236.713, 9.425
238.088, 25.566
239.464, 10.694
240.839, 4.819
242.214, 11.942
243.589, 12.063
244.964, 4.182
246.338, 23.299
247.712, 7.413
249.086, 6.657
250.459, 9.450
251.833, 18.079
253.206, 21.860
254.579, 2.297
255.951, 11.044
257.324, 12.725
258.696, 9.124
260.068, 15.967
261.439, 26.899
262.811, 0.931
264.182, 3.980
265.553, 16.047
266.924, 0.094
268.294, 31.152
269.665, 12.206
271.035, 12.256
272.404, 1.300
273.774, 8.339
275.143, 7.373
276.512, 30.597
277.881, 15.420
279.250, 13.567
280.618, 8.437
281.986, 3.563
283.354, 9.432
284.721, 12.423
286.089, 0.410
287.456, 9.392
288.823, 5.371
290.190, 1.654
291.556, 0.684
292.922, 0.282
294.288, 0.709
295.654, 7.201
297.019, 4.155
298.385, 3.894
299.750, 2.051
301.114, 1.009
302.479, 8.074
303.843, 9.854
305.207, 2.223
306.571, 9.693
307.935, 4.527
309.298, 18.355
310.661, 0.777
312.024, 4.051
313.387, 1.910
314.749, 9.768
316.111, 10.397
317.473, 8.545
318.835, 1.294
320.196, 0.899
321.558, 8.932
322.919, 14.760
324.279, 2.562
325.640, 17.380
327.000, 4.105
328.360, 1.861
329.720, 3.679
331.080, 5.490
332.439, 5.236
333.798, 7.003
335.157, 10.801
336.516, 4.593
337.874, 4.382
339.232, 20.168
340.590, 17.883
341.948, 16.658
343.305, 27.417
344.662, 7.186
346.019, 7.951
347.376, 15.714
348.733, 21.469
350.089, 8.220
351.445, 11.968
352.801, 4.287
354.156, 9.455
355.512, 5.629
356.867, 1.068
358.222, 11.666
359.576, 3.398
360.931, 9.128
362.285, 11.856
363.639, 10.582
364.992, 14.307
366.346, 10.029
367.699, 8.252
369.052, 26.463
370.405, 6.176
371.757, 36.888
373.110, 16.597
374.462, 23.303
375.814, 16.007
377.165, 23.711
378.516, 35.409
379.868, 13.093
381.218, 29.780
382.569, 41.394
383.920, 28.006
385.270, 35.640
386.620, 28.248
387.969, 28.859
389.319, 23.566
390.668, 36.138
392.017, 42.725
393.366, 16.349
394.714, 28.915
396.063, 22.531
397.411, 23.109
398.759, 27.713
400.106, 17.321
401.454, 58.923
402.801, 24.457
404.148, 39.937
405.495, 34.476
406.841, 26.023
408.187, 27.494
409.533, 43.080
410.879, 32.580
412.224, 24.501
413.570, 51.112
414.915, 42.674
416.260, 46.260
417.604, 32.501
418.949, 52.047
420.293, 48.610
421.637, 71.161
422.980, 62.741
424.324, 66.365
425.667, 55.851
427.010, 71.363
428.353, 86.939
429.695, 97.398
431.037, 107.028
432.379, 84.584
433.721, 104.138
435.063, 108.624
436.404, 144.161
437.745, 154.693
439.086, 173.235
440.427, 201.802
441.767, 228.417
443.108, 326.952
444.448, 376.198
445.787, 485.737
447.127, 678.291
448.466, 870.770
449.805, 1369.311
451.144, 1895.833
452.482, 2996.208
453.821, 4135.637
455.159, 5023.108
456.497, 5353.536
457.834, 4555.060
459.172, 3804.567
460.509, 3411.806
461.846, 3208.299
463.183, 3085.716
464.519, 2428.702
465.856, 1829.241
467.192, 1250.597
468.527, 860.137
469.863, 647.654
471.198, 452.237
472.534, 363.684
473.868, 273.207
475.203, 242.714
476.538, 225.261
477.872, 142.127
479.206, 149.111
480.540, 121.612
481.873, 107.057
483.206, 125.597
484.539, 91.161
485.872, 67.672
487.205, 82.246
488.537, 62.764
489.869, 47.271
491.201, 48.788
492.533, 38.312
493.864, 25.835
495.196, 27.365
496.527, 21.910
497.857, 46.429
499.188, 17.947
500.518, 20.530
501.848, 34.107
503.178, 18.678
504.508, 51.276
505.837, 61.809
507.166, 24.345
508.495, 41.913
509.824, 25.504
511.153, 34.043
512.481, 47.597
513.809, 13.907
515.137, 26.451
516.464, 22.977
517.792, 46.441
519.119, 24.993
520.446, 8.509
521.772, 32.049
523.099, 4.600
524.425, 17.146
525.751, 25.707
527.077, 24.249
528.402, 17.334
529.728, 7.919
531.053, 20.448
532.377, 9.034
533.702, 18.606
535.027, 24.222
536.351, 23.792
537.675, 25.375
538.998, 27.961
540.322, 28.520
541.645, 41.109
542.968, 20.754
544.291, 7.343
545.613, 13.943
546.936, 21.534
548.258, 5.877
549.580, 19.727
550.902, 30.314
552.223, 7.100
553.544, 16.527
554.865, 0.148
556.186, 1.855
557.507, 20.460
558.827, 3.921
560.147, 25.667
561.467, 2.277
562.786, 2.981
564.106, 25.568
565.425, 2.952
566.744, 25.564
568.063, 15.216
569.381, 9.803
570.700, 12.457
572.018, 3.948
573.335, 24.661
574.653, 15.248
575.970, 23.077
577.288, 15.700
578.604, 9.326
579.921, 20.917
581.238, 16.507
582.554, 14.124
583.870, 11.714
585.186, 23.338
586.501, 32.250
587.817, 26.838
589.132, 51.467
590.447, 63.102
591.761, 32.687
593.076, 37.606
594.390, 39.213
595.704, 48.826
597.018, 55.693
598.331, 54.024
599.645, 57.615
600.958, 50.215
602.271, 99.360
603.583, 63.956
604.896, 97.501
606.208, 99.362
607.520, 98.952
608.832, 167.535
610.143, 147.118
611.455, 213.700
612.766, 259.281
614.077, 360.862
615.387, 556.441
616.698, 792.020
618.008, 1219.838
619.318, 1666.125
620.628, 1879.700
621.937, 1950.251
623.247, 1546.163
624.556, 1129.747
625.865, 926.998
627.173, 713.569
628.482, 661.167
629.790, 564.790
631.098, 548.524
632.405, 616.383
633.713, 672.947
635.020, 911.508
636.327, 1237.071
637.634, 1899.635
638.941, 2665.196
640.247, 3079.766
641.553, 3031.324
642.859, 2157.894
644.165, 1404.449
645.471, 964.042
646.776, 611.807
648.081, 499.437
649.386, 370.984
650.691, 340.529
651.995, 334.103
653.299, 366.644
654.603, 447.190
655.907, 533.727
657.210, 655.262
658.514, 692.518
659.817, 611.067
661.120, 511.744
662.422, 351.583
663.725, 272.107
665.027, 199.628
666.329, 134.148
667.630, 131.312
668.932, 95.968
670.233, 85.480
671.534, 84.992
672.835, 59.500
674.136, 70.007
675.436, 55.512
676.737, 34.014
678.036, 52.514
679.336, 30.012
680.636, 40.507
681.935, 30.106
683.234, 25.596
684.533, 30.085
685.832, 21.572
687.130, 40.815
688.428, 18.298
689.726, 21.778
691.024, 9.550
692.322, 22.044
693.619, 33.516
694.916, 18.571
696.213, 28.038
697.510, 29.013
698.806, 7.562
700.102, 21.020
701.398, 17.090
702.694, 24.542
703.990, 39.991
705.285, 15.294
706.580, 37.737
707.875, 27.177
709.170, 8.426
710.464, 9.860
711.758, 4.608
713.052, 14.029
714.346, 12.647
715.640, 23.154
716.933, 14.571
718.226, 6.202
719.519, 29.735
720.812, 6.420
722.105, 14.972
723.397, 9.367
724.689, 24.757
725.981, 9.144
727.272, 18.527
728.564, 14.813
729.855, 29.190
731.146, 3.618
732.437, 13.005
733.727, 12.370
735.017, 31.149
736.308, 28.501
737.597, 13.862
738.887, 26.736
740.176, 13.085
741.466, 2.441
742.755, 20.780
744.043, 12.115
745.332, 11.447
746.620, 34.775
747.908, 2.100
749.196, 14.419
750.484, 12.734
751.771, 3.046
753.059, 4.648
754.346, 18.649
755.633, 16.942
756.919, 1.768
758.206, 17.513
759.492, 8.208
760.778, 3.058
762.063, 17.320
763.349, 24.578
764.634, 27.832
765.919, 38.237
767.204, 25.332
768.489, 27.709
769.773, 24.819
771.057, 17.058
772.341, 3.294
773.625, 4.682
774.909, 28.745
776.192, 9.037
777.475, 1.170
778.758, 13.370
780.041, 4.433
781.323, 27.755
782.605, 26.060
783.887, 8.104
785.169, 4.265
786.451, 1.421
787.732, 30.572
789.013, 17.719
790.294, 22.864
791.575, 15.006
792.856, 13.144
794.136, 10.280
795.416, 12.309
796.696, 8.853
797.976, 17.669
799.255, 6.793
800.534, 1.914
801.813, 5.029
803.092, 20.141
804.371, 11.251
805.649, 6.357
806.927, 14.460
808.205, 7.668
809.483, 15.658
810.760, 11.753
812.037, 7.154
813.315, 5.929
814.591, 2.010
815.868, 0.914
817.144, 34.157
818.421, 13.225
819.697, 19.291
820.972, 6.646
822.248, 1.409
823.523, 14.459
824.798, 9.508
826.073, 15.099
827.348, 17.589
828.623, 15.639
829.897, 16.678
831.171, 19.715
832.445, 11.749
833.718, 5.781
834.992, 0.811
836.265, 14.837
837.538, 4.861
838.811, 12.883
840.083, 10.097
841.356, 12.914
842.628, 10.923
843.900, 3.070
845.171, 1.901
846.443, 28.901
847.714, 8.101
848.985, 12.889
850.256, 23.122
851.527, 0.149
852.797, 9.767
854.067, 9.264
855.337, 17.688
856.607, 16.648
857.876, 5.606
859.146, 24.547
860.415, 12.502
861.684, 25.456
862.953, 10.361
864.221, 5.725
865.489, 16.099
866.757, 19.976
868.025, 3.073
869.293, 29.858
870.560, 4.235
871.828, 2.426
873.095, 8.502
874.361, 8.622
875.628, 0.516
876.894, 15.367
878.160, 15.282
879.426, 21.128
880.692, 11.034
881.958, 12.924
883.223, 20.165
884.488, 0.503
885.753, 12.364
887.018, 9.773
888.282, 5.121
889.546, 4.015
890.810, 12.121
892.074, 28.767
893.338, 0.381
894.601, 19.182
895.864, 38.068
897.127, 16.911
898.390, 30.746
899.652, 1.631
900.915, 42.180
902.177, 43.040
903.439, 21.893
904.700, 37.490
905.962, 34.631
907.223, 31.512
908.484, 35.386
909.745, 4.713
911.006, 31.591
912.266, 1.518
913.526, 27.128
914.786, 14.009
916.046, 17.895
917.306, 23.782
918.565, 24.669
919.824, 32.028
921.083, 43.444
922.342, 37.333
923.600, 45.222
924.859, 31.871
926.117, 31.052
927.375, 36.944
928.632, 16.860
929.890, 49.418
931.147, 12.303
932.404, 33.522
933.661, 42.420
934.918, 8.291
936.174, 47.137
937.430, 59.873
938.686, 23.482
939.942, 40.392
941.198, 24.303
942.453, 47.216
943.708, 47.132
944.963, 40.049
946.218, 70.958
947.472, 49.879
948.727, 59.789
949.981, 80.714
951.235, 45.600
952.488, 90.314
953.742, 85.164
954.995, 70.097
956.248, 101.033
957.501, 92.940
958.754, 118.880
960.006, 95.816
961.258, 96.760
962.510, 131.707
963.762, 116.933
965.014, 105.867
966.265, 141.673
967.516, 143.316
968.767, 184.276
970.018, 209.230
971.269, 204.203
972.519, 284.523
973.769, 315.352
975.019, 383.326
976.269, 398.303
977.518, 359.282
978.767, 427.265
980.017, 433.250
981.265, 512.239
982.514, 593.230
983.762, 613.225
985.011, 755.223
986.259, 828.118
987.507, 946.122
988.754, 1195.130
990.002, 1367.141
991.249, 1836.397
992.496, 2398.415
993.743, 3221.436
994.989, 5134.166
996.236, 7957.176
997.482, 15790.210
998.728, 34878.664
999.974, 57857.699
1001.219, 64625.242
1002.464, 48914.188
1003.710, 24393.246
1004.954, 13311.688
1006.199, 7151.749
1007.444, 4517.813
1008.688, 3153.884
1009.932, 2231.958
1011.176, 1820.035
1012.420, 1367.117
1013.663, 1187.203
1014.906, 1015.961
1016.149, 819.057
1017.392, 788.961
1018.635, 646.892
1019.877, 597.001
1021.120, 558.894
1022.362, 482.888
1023.603, 443.573
1024.845, 384.705
1026.086, 371.840
1027.328, 338.981
1028.569, 309.127
1029.809, 272.277
1031.050, 278.433
1032.290, 197.593
1033.530, 237.703
1034.770, 185.858
1036.010, 194.037
1037.250, 197.807
1038.489, 129.999
1039.728, 181.195
1040.967, 181.879
1042.206, 148.091
1043.444, 171.297
1044.683, 107.525
1045.921, 99.759
1047.159, 127.001
1048.396, 121.251
1049.634, 92.511
1050.871, 108.779
1052.108, 88.056
1053.345, 104.338
1054.582, 83.629
1055.818, 86.928
1057.054, 70.233
1058.290, 69.722
1059.526, 64.860
1060.762, 64.183
1061.997, 55.515
1063.232, 41.853
1064.467, 33.197
1065.702, 27.546
1066.937, 39.900
1068.171, 51.261
1069.405, 43.627
1070.639, 39.002
1071.873, 5.383
1073.107, 59.769
1074.340, 8.166
1075.573, 27.576
1076.806, 13.995
1078.039, 25.423
1079.272, 24.859
1080.504, 1.300
1081.736, 25.752
1082.968, 17.208
1084.200, 12.832
1085.431, 30.311
1086.663, 22.801
1087.894, 34.148
1089.125, 23.652
1090.355, 17.240
1091.586, 46.760
1092.816, 88.280
1094.046, 54.806
1095.276, 94.433
1096.506, 80.970
1097.735, 74.515
1098.965, 132.063
1100.194, 134.617
1101.423, 208.177
1102.651, 261.743
1103.880, 324.315
1105.108, 508.891
1106.336, 639.474
1107.564, 764.061
1108.792, 1010.654
1110.019, 1006.252
1111.246, 1141.856
1112.473, 1011.468
1113.700, 704.086
1114.927, 572.712
1116.153, 383.344
1117.380, 285.982
1118.606, 250.625
1119.831, 195.275
1121.057, 168.932
1122.283, 148.651
1123.508, 95.319
1124.733, 115.993
1125.958, 93.672
1127.182, 115.357
1128.407, 141.047
1129.631, 102.742
1130.855, 153.443
1132.079, 168.149
1133.302, 173.860
1134.526, 198.578
1135.749, 214.301
1136.972, 245.028
1138.195, 288.761
1139.417, 343.503
1140.640, 402.250
1141.862, 434.004
1143.084, 490.110
1144.305, 594.876
1145.527, 644.647
1146.748, 825.425
1147.970, 976.208
1149.191, 1141.003
1150.411, 1548.803
1151.632, 1877.608
1152.852, 2392.420
1154.072, 3156.444
1155.292, 3649.266
1156.512, 4446.092
1157.732, 4970.923
1158.951, 4961.759
1160.170, 5462.599
1161.389, 4748.443
1162.608, 4080.292
1163.826, 3547.148
1165.045, 2617.012
1166.263, 2182.881
1167.481, 1680.011
1168.699, 1248.890
1169.916, 1131.774
1171.134, 858.664
1172.351, 718.558
1173.568, 585.456
1174.784, 488.358
1176.001, 467.264
1177.217, 387.175
1178.433, 330.089
1179.649, 321.007
1180.865, 292.670
1182.081, 280.601
1183.296, 301.163
1184.511, 301.103
1185.726, 340.047
1186.941, 384.220
1188.155, 390.173
1189.370, 371.379
1190.584, 368.227
1191.798, 291.240
1193.011, 239.804
1194.225, 191.573
1195.438, 136.484
1196.651, 148.910
1197.864, 89.476
1199.077, 111.688
1200.290, 72.103
1201.502, 79.091
1202.714, 76.082
1203.926, 56.075
1205.138, 84.071
1206.349, 34.070
1207.561, 55.071
1208.772, 48.075
1209.983, 21.082
1211.194, 46.090
1212.404, 59.102
1213.614, 25.404
1214.825, 39.419
1216.034, 48.198
1217.244, 16.497
1218.454, 59.520
1219.663, 30.289
1220.872, 24.581
1222.081, 67.454
1223.290, 20.509
1224.498, 45.542
1225.707, 44.576
1226.915, 6.154
1228.123, 33.192
1229.331, 7.685
1230.538, 5.013
1231.746, 29.982
1232.953, 23.790
1234.160, 6.351
1235.366, 4.583
1236.573, 0.219
1237.779, 5.825
1238.986, 11.883
1240.192, 5.067
1241.397, 14.985
1242.603, 0.257
1243.808, 26.325
1245.013, 26.402
1246.218, 13.465
1247.423, 62.531
1248.628, 25.599
1249.832, 20.673
1251.036, 59.746
1252.240, 11.821
1253.444, 19.899
1254.648, 49.031
1255.851, 52.113
1257.054, 27.222
1258.257, 19.309
1259.460, 2.793
1260.663, 75.885
1261.865, 10.977
1263.067, 41.227
1264.269, 18.324
1265.471, 4.425
1266.673, 2.467
1267.874, 30.634
1269.075, 9.771
1270.276, 32.875
1271.477, 3.071
1272.678, 3.180
1273.878, 25.288
1275.078, 10.398
1276.278, 13.636
1277.478, 14.749
1278.678, 17.908
1279.877, 12.020
1281.077, 15.130
1282.276, 5.242
1283.475, 40.416
1284.673, 3.514
1285.872, 33.083
1287.070, 7.833
1288.268, 18.375
1289.466, 18.447
1290.664, 4.519
1291.861, 13.601
1293.058, 13.710
1294.255, 22.784
1295.452, 18.859
1296.649, 52.932
1297.846, 4.003
1299.042, 42.073
1300.238, 23.115
1301.434, 21.157
1302.630, 53.193
1303.825, 3.229
1305.020, 13.251
1306.216, 41.269
1307.411, 7.284
1308.605, 45.298
1309.800, 15.311
1310.994, 3.679
1312.188, 35.328
1313.382, 2.334
1314.576, 2.338
1315.770, 11.341
1316.963, 11.341
1318.156, 12.910
1319.349, 16.332
1320.542, 13.320
1321.735, 15.306
1322.927, 15.289
1324.119, 9.731
1325.311, 14.325
1326.503, 7.706
1327.695, 8.256
1328.886, 12.224
1330.077, 16.822
1331.268, 21.122
1332.459, 19.056
1333.650, 15.015
1334.840, 2.906
1336.030, 6.179
1337.220, 9.270
1338.410, 11.369
1339.600, 3.476
1340.789, 5.558
1341.979, 0.249
1343.168, 2.828
1344.357, 11.044
1345.545, 10.920
1346.734, 16.785
1347.922, 18.647
1349.110, 11.505
1350.298, 13.359
1351.486, 13.208
1352.674, 20.053
1353.861, 30.894
1355.048, 34.731
1356.235, 0.565
1357.422, 12.395
1358.608, 6.778
1359.795, 1.042
1360.981, 19.858
1362.167, 6.234
1363.353, 14.427
1364.538, 7.624
1365.724, 9.169
1366.909, 38.961
1368.094, 30.750
1369.279, 2.461
1370.463, 19.315
1371.648, 7.251
1372.832, 4.131
1374.016, 8.342
1375.200, 4.412
1376.384, 6.138
1377.567, 10.808
1378.750, 1.308
1379.933, 25.335
1381.116, 15.457
1382.299, 28.579
1383.481, 24.556
1384.664, 4.823
1385.846, 17.944
1387.028, 17.064
1388.210, 26.184
1389.391, 30.300
1390.572, 27.414
1391.754, 22.525
1392.935, 47.571
1394.115, 29.679
1395.296, 52.784
1396.476, 15.888
1397.656, 34.989
1398.837, 21.087
1400.016, 34.183
1401.196, 4.277
1402.375, 29.367
1403.555, 36.023
1404.734, 12.102
1405.912, 51.178
1407.091, 29.252
1408.270, 28.059
1409.448, 39.127
1410.626, 23.194
1411.804, 48.260
1412.982, 18.326
1414.159, 40.391
1415.336, 57.102
1416.514, 49.162
1417.690, 17.222
1418.867, 57.281
1420.044, 25.340
1421.220, 37.320
1422.396, 71.433
1423.572, 34.467
1424.748, 20.635
1425.924, 56.893
1427.099, 2.871
1428.274, 35.097
1429.449, 11.372
1430.624, 38.214
1431.799, 68.113
1432.973, 27.011
1434.147, 20.908
1435.322, 44.804
1436.495, 67.700
1437.669, 70.085
1438.843, 90.105
1440.016, 23.605
1441.189, 75.536
1442.362, 54.263
1443.535, 37.998
1444.707, 56.587
1445.880, 60.203
1447.052, 55.319
1448.224, 39.292
1449.396, 36.924
1450.567, 51.561
1451.739, 83.686
1452.910, 33.234
1454.081, 41.796
1455.252, 96.327
1456.422, 63.840
1457.593, 71.206
1458.763, 64.607
1459.933, 68.061
1461.103, 81.052
1462.273, 68.386
1463.442, 53.675
1464.611, 66.858
1465.781, 5.844
1466.949, 35.036
1468.118, 43.823
1469.287, 16.797
1470.455, 63.881
1471.623, 38.775
1472.791, 37.407
1473.959, 47.133
1475.127, 65.223
1476.294, 56.167
1477.461, 63.184
1478.628, 39.169
1479.795, 28.317
1480.962, 41.459
1482.128, 16.681
1483.295, 17.878
1484.461, 22.106
1485.627, 13.285
1486.792, 16.432
1487.958, 32.554
1489.123, 54.699
1490.288, 65.833
1491.453, 66.290
1492.618, 20.612
1493.783, 63.674
1494.947, 28.847
1496.111, 36.091
1497.275, 40.359
1498.439, 17.654
1499.603, 38.961
1500.766, 54.274
1501.930, 0.465
1503.093, 75.883
1504.256, 13.284
1505.418, 35.762
1506.581, 43.300
1507.743, 25.892
1508.905, 27.550
1510.067, 22.253
1511.229, 0.424
1512.391, 55.835
1513.552, 11.083
1514.713, 1.714
1515.874, 0.000
##END=



