##NAMES=Celestine
##RRUFFID=R050008
##IDEAL CHEMISTRY=SrS^6+^O_4_
##LOCALITY=Scofield Quarry, Maybee, Monroe County, Michigan, USA
##OWNER=RRUFF
##SOURCE=Eugene Schlepp
##DESCRIPTION=Pale blue tabular crystals
##STATUS=The identification of this mineral has been confirmed by X-ray diffraction and chemical analysis
##URL=rruff.info/R050008
##MEASURED CHEMISTRY=Sr_1.00_S_1.00_O_4_
##PIN_ID=M00186
##ORIENTATION=Laser parallel to c* (0 0 1). Fiducial mark perpendicular to laser is parallel to -a [-1 0 0]
54.807, 0.000
56.212, 12.321
57.617, 15.265
59.021, 33.390
60.426, 40.273
61.830, 36.628
63.234, 25.963
64.637, 23.339
66.041, 14.104
67.444, 25.052
68.847, 27.363
70.250, 10.784
71.652, 22.297
73.054, 11.888
74.456, 5.544
75.858, 4.742
77.260, 3.029
78.661, 2.145
80.062, 8.733
81.463, 18.655
82.863, 44.612
84.264, 110.597
85.664, 201.607
87.064, 341.638
88.463, 418.687
89.863, 408.750
91.262, 355.824
92.661, 356.906
94.059, 362.006
95.458, 326.111
96.856, 345.283
98.254, 325.488
99.652, 246.705
101.049, 203.958
102.446, 179.233
103.843, 142.564
105.240, 132.881
106.637, 123.181
108.033, 130.466
109.429, 261.742
110.825, 202.484
112.220, 196.583
113.616, 164.529
115.011, 105.784
116.406, 71.053
117.800, 57.313
119.195, 47.566
120.589, 35.812
121.983, 55.045
123.377, 59.266
124.770, 55.474
126.163, 63.671
127.556, 51.866
128.949, 57.058
130.342, 46.245
131.734, 61.670
133.126, 50.848
134.518, 44.042
135.909, 42.196
137.301, 32.095
138.692, 22.501
140.083, 26.461
141.473, 26.658
142.864, 27.766
144.254, 31.955
145.644, 19.599
147.034, 30.226
148.423, 12.653
149.812, 33.604
151.201, 35.457
152.590, 34.749
153.979, 27.753
155.367, 47.735
156.755, 37.717
158.143, 48.732
159.530, 75.758
160.918, 76.758
162.305, 89.744
163.692, 126.183
165.078, 176.207
166.465, 241.258
167.851, 298.510
169.237, 347.495
170.623, 347.642
172.008, 313.667
173.393, 237.675
174.778, 187.669
176.163, 135.126
177.548, 101.411
178.932, 87.369
180.316, 82.405
181.700, 55.340
183.083, 48.739
184.467, 46.735
185.850, 40.711
187.233, 49.627
188.616, 37.559
189.998, 38.490
191.380, 28.401
192.762, 35.311
194.144, 45.218
195.525, 41.152
196.907, 56.094
198.288, 69.088
199.669, 65.739
201.049, 55.647
202.429, 58.558
203.810, 44.744
205.189, 34.674
206.569, 19.591
207.949, 0.478
209.328, 6.426
210.707, 20.773
212.085, 7.638
213.464, 4.552
214.842, 15.469
216.220, 10.563
217.598, 3.540
218.976, 5.675
220.353, 0.508
221.730, 3.466
223.107, 0.430
224.483, 2.574
225.860, 5.411
227.236, 2.401
228.612, 5.396
229.988, 8.391
231.363, 6.612
232.738, 3.374
234.113, 2.640
235.488, 12.362
236.863, 10.350
238.237, 2.661
239.611, 0.666
240.985, 4.323
242.359, 6.147
243.732, 5.864
245.105, 0.431
246.478, 11.935
247.851, 1.060
249.223, 1.040
250.595, 6.019
251.967, 9.696
253.339, 9.692
254.711, 11.997
256.082, 10.972
257.453, 9.945
258.824, 10.917
260.195, 4.887
261.565, 5.856
262.935, 6.823
264.305, 6.788
265.675, 16.751
267.044, 8.711
268.414, 16.670
269.783, 12.652
271.151, 2.421
272.520, 5.529
273.888, 6.476
275.256, 3.421
276.624, 6.363
277.992, 0.697
279.359, 14.240
280.726, 7.175
282.093, 10.107
283.460, 4.037
284.827, 0.965
286.193, 2.890
287.559, 15.813
288.925, 3.734
290.290, 10.652
291.656, 8.569
293.021, 9.517
294.386, 13.393
295.750, 3.700
297.115, 1.797
298.479, 10.102
299.843, 6.000
301.207, 10.896
302.570, 7.782
303.933, 1.665
305.296, 9.543
306.659, 10.418
308.022, 0.708
309.384, 0.841
310.746, 13.021
312.108, 1.879
313.470, 2.733
314.831, 10.583
316.193, 11.423
317.554, 13.004
318.914, 7.096
320.275, 11.931
321.635, 11.766
322.995, 6.598
324.355, 12.430
325.715, 19.260
327.074, 13.090
328.434, 9.916
329.792, 23.741
331.151, 14.564
332.510, 4.386
333.868, 11.206
335.226, 6.024
336.584, 5.841
337.941, 0.656
339.299, 6.466
340.656, 0.273
342.013, 7.923
343.370, 9.877
344.726, 5.676
346.082, 15.474
347.438, 4.269
348.794, 12.063
350.150, 3.144
351.505, 3.647
352.860, 4.437
354.215, 3.226
355.570, 7.014
356.924, 13.801
358.278, 6.588
359.632, 6.373
360.986, 0.158
362.339, 7.941
363.693, 6.280
365.046, 12.497
366.399, 13.273
367.751, 1.047
369.104, 6.819
370.456, 0.591
371.808, 6.247
373.159, 15.013
374.511, 3.220
375.862, 0.545
377.213, 13.296
378.564, 11.061
379.914, 4.824
381.265, 12.216
382.615, 5.525
383.965, 2.112
385.315, 7.845
386.664, 2.476
388.013, 7.361
389.362, 11.660
390.711, 5.370
392.060, 12.111
393.408, 5.863
394.756, 11.045
396.104, 6.767
397.451, 1.197
398.799, 8.946
400.146, 5.695
401.493, 3.120
402.840, 7.670
404.186, 12.393
405.533, 11.129
406.879, 9.359
408.225, 0.932
409.570, 0.218
410.916, 10.438
412.261, 15.093
413.606, 2.176
414.951, 14.567
416.295, 14.310
417.639, 20.052
418.983, 27.793
420.327, 22.534
421.671, 25.274
423.014, 25.991
424.357, 26.713
425.700, 30.438
427.043, 33.162
428.386, 40.032
429.728, 41.629
431.070, 53.364
432.412, 65.100
433.753, 66.532
435.095, 86.247
436.436, 95.966
437.777, 140.661
439.118, 139.378
440.458, 179.918
441.798, 234.650
443.138, 304.373
444.478, 444.107
445.818, 588.809
447.157, 884.447
448.496, 1316.135
449.835, 1993.868
451.174, 2935.564
452.513, 3649.297
453.851, 4033.020
455.189, 3614.010
456.527, 2787.740
457.864, 2250.095
459.202, 1833.569
460.539, 1614.297
461.876, 1368.007
463.212, 1046.736
464.549, 815.452
465.885, 585.113
467.221, 456.836
468.557, 311.563
469.893, 242.111
471.228, 201.652
472.563, 182.378
473.898, 139.045
475.233, 113.725
476.567, 92.451
477.902, 79.177
479.236, 66.905
480.570, 64.619
481.903, 47.347
483.237, 53.076
484.570, 43.789
485.903, 35.517
487.235, 37.245
488.568, 38.973
489.900, 31.699
491.232, 29.427
492.564, 21.154
493.896, 28.856
495.227, 28.583
496.558, 21.293
497.889, 30.003
499.220, 23.663
500.551, 15.375
501.881, 28.027
503.211, 12.172
504.541, 25.900
505.870, 26.611
507.200, 24.339
508.529, 18.045
509.858, 17.773
511.187, 24.252
512.515, 19.954
513.844, 20.662
515.172, 18.362
516.500, 22.081
517.827, 28.808
519.155, 31.526
520.482, 33.322
521.809, 34.043
523.136, 33.637
524.462, 30.924
525.789, 28.655
527.115, 26.391
528.441, 8.087
529.766, 21.820
531.092, 6.517
532.417, 22.251
533.742, 21.993
535.067, 7.506
536.391, 15.211
537.716, 10.960
539.040, 8.711
540.364, 17.452
541.688, 13.210
543.011, 12.235
544.334, 18.377
545.657, 8.141
546.980, 14.890
548.303, 17.658
549.625, 13.572
550.947, 5.348
552.269, 11.116
553.591, 4.886
554.913, 6.659
556.234, 7.407
557.555, 19.191
558.876, 6.981
560.197, 12.755
561.517, 9.563
562.837, 21.342
564.157, 13.554
565.477, 14.416
566.797, 7.259
568.116, 4.032
569.435, 6.053
570.754, 5.844
572.073, 20.631
573.391, 20.372
574.709, 26.193
576.027, 25.981
577.345, 25.813
578.663, 46.601
579.980, 31.389
581.297, 51.177
582.614, 38.964
583.931, 27.752
585.248, 42.540
586.564, 46.340
587.880, 61.254
589.196, 44.079
590.511, 54.026
591.827, 59.818
593.142, 71.698
594.457, 70.485
595.772, 84.273
597.086, 83.258
598.401, 99.112
599.715, 108.903
601.029, 125.513
602.343, 150.401
603.656, 166.189
604.969, 185.006
606.282, 210.793
607.595, 285.580
608.908, 322.366
610.220, 437.188
611.532, 600.005
612.844, 875.793
614.156, 1286.584
615.468, 1893.373
616.779, 2721.162
618.090, 3187.050
619.401, 3199.840
620.712, 2723.637
622.022, 2098.427
623.332, 1586.215
624.642, 1172.004
625.952, 908.792
627.262, 707.581
628.571, 584.369
629.880, 579.158
631.189, 563.946
632.498, 654.735
633.807, 817.581
635.115, 1117.405
636.423, 1459.708
637.731, 1700.553
639.039, 1645.522
640.346, 1293.308
641.653, 767.099
642.960, 517.883
644.267, 325.667
645.574, 187.451
646.880, 150.234
648.186, 88.016
649.492, 94.798
650.798, 63.580
652.103, 55.361
653.409, 42.141
654.714, 46.921
656.019, 23.700
657.323, 25.479
658.628, 28.299
659.932, 31.499
661.236, 11.280
662.540, 17.059
663.843, 17.838
665.147, 28.616
666.450, 15.394
667.753, 1.829
669.056, 22.948
670.358, 6.725
671.660, 24.501
672.963, 13.277
674.264, 5.052
675.566, 10.904
676.868, 21.678
678.169, 2.451
679.470, 16.435
680.771, 16.567
682.071, 23.340
683.372, 23.526
684.672, 15.298
685.972, 22.092
687.271, 4.095
688.571, 17.864
689.870, 23.632
691.169, 42.463
692.468, 28.003
693.767, 31.872
695.065, 12.675
696.364, 24.102
697.662, 7.302
698.960, 12.217
700.257, 9.658
701.555, 15.419
702.852, 6.471
704.149, 13.230
705.446, 1.012
706.742, 3.743
708.038, 10.659
709.335, 7.720
710.631, 15.520
711.926, 15.270
713.222, 16.022
714.517, 3.769
715.812, 8.514
717.107, 2.258
718.402, 8.439
719.696, 4.820
720.990, 0.916
722.284, 1.834
723.578, 17.566
724.872, 1.704
726.165, 6.045
727.458, 16.770
728.751, 7.653
730.044, 3.376
731.336, 9.096
732.629, 2.815
733.921, 8.533
735.213, 11.430
736.504, 15.144
737.796, 14.854
739.087, 13.568
740.378, 11.278
741.669, 4.986
742.960, 0.693
744.250, 3.397
745.540, 0.147
746.830, 5.798
748.120, 1.495
749.410, 10.191
750.699, 13.884
751.988, 0.423
753.277, 2.266
754.566, 5.953
755.854, 10.362
757.143, 1.315
758.431, 10.989
759.719, 3.662
761.006, 10.334
762.294, 7.003
763.581, 6.672
764.868, 3.339
766.155, 3.499
767.442, 5.667
768.728, 5.329
770.014, 8.990
771.300, 13.649
772.586, 1.307
773.872, 19.962
775.157, 4.616
776.442, 15.268
777.727, 8.919
779.012, 14.569
780.297, 14.225
781.581, 9.864
782.865, 12.509
784.149, 8.153
785.433, 6.796
786.716, 15.437
787.999, 2.077
789.282, 2.715
790.565, 5.649
791.848, 1.981
793.130, 0.390
794.413, 7.235
795.695, 3.859
796.977, 7.349
798.258, 8.102
799.540, 11.722
800.821, 9.341
802.102, 10.958
803.382, 6.574
804.663, 12.189
805.943, 8.730
807.224, 11.414
808.504, 5.025
809.783, 7.635
811.063, 5.243
812.342, 1.851
813.621, 4.544
814.900, 12.057
816.179, 3.656
817.457, 15.254
818.736, 10.851
820.014, 13.447
821.292, 15.042
822.569, 12.614
823.847, 15.984
825.124, 10.798
826.401, 16.388
827.678, 7.977
828.954, 0.565
830.231, 6.151
831.507, 7.736
832.783, 1.680
834.059, 4.100
835.334, 14.477
836.610, 20.948
837.885, 11.614
839.160, 14.824
840.435, 2.273
841.709, 12.275
842.983, 3.823
844.258, 0.369
845.532, 11.086
846.805, 7.550
848.079, 8.326
849.352, 9.493
850.625, 5.975
851.898, 1.462
853.171, 9.951
854.443, 3.554
855.715, 3.943
856.988, 11.557
858.259, 9.056
859.531, 14.408
860.803, 2.105
862.074, 4.610
863.345, 0.118
864.616, 1.372
865.886, 0.861
867.157, 12.350
868.427, 16.823
869.697, 2.310
870.967, 7.241
872.236, 7.242
873.506, 18.290
874.775, 3.312
876.044, 8.106
877.313, 9.584
878.581, 0.187
879.849, 7.430
881.118, 3.237
882.386, 9.238
883.653, 9.679
884.921, 10.153
886.188, 3.582
887.455, 3.944
888.722, 15.529
889.989, 26.001
891.255, 24.473
892.522, 32.945
893.788, 34.786
895.054, 31.877
896.319, 38.224
897.585, 33.660
898.850, 33.975
900.115, 37.444
901.380, 35.829
902.645, 36.023
903.909, 43.781
905.174, 37.061
906.438, 31.473
907.701, 38.947
908.965, 41.604
910.229, 48.984
911.492, 37.464
912.755, 40.915
914.018, 54.398
915.280, 42.880
916.543, 52.363
917.805, 48.812
919.067, 38.265
920.329, 76.747
921.590, 58.229
922.852, 52.714
924.113, 47.200
925.374, 74.589
926.635, 67.076
927.895, 65.557
929.156, 80.045
930.416, 69.534
931.676, 74.024
932.936, 63.514
934.195, 84.005
935.454, 73.497
936.714, 79.990
937.973, 49.484
939.231, 75.978
940.490, 84.415
941.748, 106.874
943.006, 81.856
944.264, 99.296
945.522, 80.612
946.780, 103.112
948.037, 92.608
949.294, 114.110
950.551, 122.614
951.808, 114.118
953.064, 120.624
954.320, 129.131
955.577, 137.639
956.832, 134.148
958.088, 139.659
959.344, 146.170
960.599, 184.683
961.854, 180.198
963.109, 184.713
964.364, 198.188
965.618, 180.285
966.872, 212.805
968.127, 214.326
969.380, 272.849
970.634, 291.373
971.888, 343.899
973.141, 416.426
974.394, 474.955
975.647, 460.486
976.900, 468.018
978.152, 480.551
979.404, 563.086
980.656, 594.545
981.908, 651.084
983.160, 792.624
984.411, 901.954
985.663, 934.137
986.914, 1131.682
988.165, 1363.815
989.415, 1682.364
990.666, 2205.891
991.916, 2981.223
993.166, 4357.778
994.416, 7012.334
995.665, 12503.831
996.915, 26802.619
998.164, 52861.633
999.413, 65000.598
1000.662, 59549.508
1001.911, 32618.643
1003.159, 17288.061
1004.407, 9686.960
1005.655, 5853.536
1006.903, 3957.823
1008.151, 2743.405
1009.398, 2078.989
1010.646, 1662.577
1011.893, 1332.005
1013.139, 1154.290
1014.386, 960.836
1015.633, 843.434
1016.879, 753.032
1018.125, 695.635
1019.371, 610.242
1020.616, 547.850
1021.862, 497.024
1023.107, 458.640
1024.352, 435.261
1025.597, 404.700
1026.842, 356.327
1028.086, 336.957
1029.330, 297.570
1030.574, 298.207
1031.818, 278.688
1033.062, 256.334
1034.305, 218.983
1035.548, 203.636
1036.791, 187.918
1038.034, 184.829
1039.277, 170.538
1040.519, 170.209
1041.762, 167.924
1043.004, 158.605
1044.246, 164.569
1045.487, 132.256
1046.729, 143.145
1047.970, 129.881
1049.211, 136.578
1050.452, 135.681
1051.692, 124.385
1052.933, 127.093
1054.173, 111.981
1055.413, 120.697
1056.653, 95.416
1057.893, 106.458
1059.132, 126.187
1060.371, 87.920
1061.610, 84.962
1062.849, 94.701
1064.088, 98.444
1065.326, 92.389
1066.565, 97.937
1067.803, 80.689
1069.041, 77.448
1070.278, 72.212
1071.516, 71.979
1072.753, 65.749
1073.990, 66.522
1075.227, 65.298
1076.464, 64.077
1077.700, 67.553
1078.936, 58.644
1080.173, 73.433
1081.408, 63.225
1082.644, 63.020
1083.880, 41.821
1085.115, 48.625
1086.350, 47.435
1087.585, 69.249
1088.820, 67.068
1090.054, 70.893
1091.288, 104.720
1092.522, 114.552
1093.756, 125.388
1094.990, 117.227
1096.224, 86.070
1097.457, 89.916
1098.690, 71.766
1099.923, 95.619
1101.156, 104.475
1102.388, 97.335
1103.621, 153.197
1104.853, 196.062
1106.085, 237.930
1107.316, 329.801
1108.548, 397.675
1109.779, 370.552
1111.010, 393.432
1112.241, 360.315
1113.472, 251.202
1114.703, 197.093
1115.933, 111.987
1117.163, 97.928
1118.393, 82.828
1119.623, 41.731
1120.853, 33.637
1122.082, 23.546
1123.311, 15.458
1124.540, 12.675
1125.769, 7.505
1126.997, 10.210
1128.226, 6.134
1129.454, 7.061
1130.682, 12.991
1131.910, 3.923
1133.138, 11.860
1134.365, 9.802
1135.592, 2.747
1136.819, 14.700
1138.046, 29.656
1139.273, 1.380
1140.499, 21.587
1141.725, 22.557
1142.951, 42.530
1144.177, 19.505
1145.403, 30.487
1146.628, 40.474
1147.854, 53.466
1149.079, 67.464
1150.304, 89.493
1151.528, 117.498
1152.753, 138.510
1153.977, 182.523
1155.201, 259.541
1156.425, 278.561
1157.649, 362.756
1158.872, 398.781
1160.096, 372.809
1161.319, 328.841
1162.542, 312.876
1163.764, 265.913
1164.987, 197.952
1166.209, 163.994
1167.431, 125.038
1168.653, 118.084
1169.875, 83.553
1171.097, 57.605
1172.318, 52.660
1173.539, 39.741
1174.760, 28.826
1175.981, 30.887
1177.202, 21.122
1178.422, 24.218
1179.642, 26.897
1180.862, 19.141
1182.082, 21.213
1183.302, 3.674
1184.521, 9.401
1185.740, 2.903
1186.959, 14.172
1188.178, 2.440
1189.397, 11.203
1190.615, 9.713
1191.834, 4.370
1193.052, 7.545
1194.269, 2.461
1195.487, 2.625
1196.705, 12.289
1197.922, 2.833
1199.139, 16.203
1200.356, 6.709
1201.573, 4.609
1202.789, 6.698
1204.006, 10.036
1205.222, 4.139
1206.438, 2.229
1207.653, 9.587
1208.869, 6.502
1210.084, 1.609
1211.299, 19.701
1212.514, 19.794
1213.729, 32.167
1214.944, 27.173
1216.158, 22.683
1217.372, 24.780
1218.586, 15.878
1219.800, 31.977
1221.014, 54.076
1222.227, 27.177
1223.440, 29.322
1224.654, 45.470
1225.866, 35.775
1227.079, 20.885
1228.292, 26.010
1229.504, 21.770
1230.716, 22.877
1231.928, 23.487
1233.139, 13.959
1234.351, 23.925
1235.562, 23.263
1236.773, 25.376
1237.984, 11.491
1239.195, 17.611
1240.406, 12.729
1241.616, 13.808
1242.826, 11.004
1244.036, 23.520
1245.246, 30.670
1246.456, 42.795
1247.665, 46.921
1248.874, 57.047
1250.083, 38.175
1251.292, 45.304
1252.501, 17.435
1253.709, 49.584
1254.917, 39.717
1256.125, 41.965
1257.333, 39.110
1258.541, 28.246
1259.748, 27.383
1260.956, 13.522
1262.163, 0.339
1263.370, 11.801
1264.576, 12.942
1265.783, 14.086
1266.989, 24.229
1268.195, 19.151
1269.401, 16.515
1270.607, 17.660
1271.813, 17.805
1273.018, 25.024
1274.223, 22.832
1275.428, 13.335
1276.633, 18.481
1277.838, 26.626
1279.042, 16.953
1280.246, 13.094
1281.450, 3.235
1282.654, 13.367
1283.858, 16.493
1285.061, 13.606
1286.265, 8.762
1287.468, 6.888
1288.671, 17.013
1289.873, 12.295
1291.076, 17.258
1292.278, 7.379
1293.480, 15.500
1294.682, 1.620
1295.884, 18.739
1297.086, 42.847
1298.287, 8.955
1299.488, 18.063
1300.689, 24.171
1301.890, 0.724
1303.091, 21.380
1304.291, 25.478
1305.491, 3.568
1306.691, 37.648
1307.891, 30.727
1309.091, 11.806
1310.290, 13.883
1311.490, 21.955
1312.689, 10.026
1313.888, 3.904
1315.086, 8.163
1316.285, 19.228
1317.483, 3.291
1318.681, 3.351
1319.879, 10.410
1321.077, 0.467
1322.275, 3.522
1323.472, 6.426
1324.669, 0.622
1325.866, 8.666
1327.063, 3.707
1328.260, 6.684
1329.456, 6.282
1330.653, 12.298
1331.849, 1.276
1333.045, 5.296
1334.240, 11.717
1335.436, 19.448
1336.631, 19.939
1337.826, 23.320
1339.021, 18.227
1340.216, 17.228
1341.411, 3.824
1342.605, 1.179
1343.799, 13.815
1344.993, 0.371
1346.187, 7.618
1347.381, 0.606
1348.574, 2.270
1349.767, 10.252
1350.961, 2.232
1352.153, 9.822
1353.346, 4.880
1354.539, 11.866
1355.731, 10.839
1356.923, 1.188
1358.115, 11.212
1359.307, 3.248
1360.498, 9.712
1361.690, 10.672
1362.881, 16.630
1364.072, 29.588
1365.263, 22.545
1366.453, 4.502
1367.644, 4.458
1368.834, 0.414
1370.024, 8.368
1371.214, 6.324
1372.404, 6.699
1373.593, 17.342
1374.783, 9.705
1375.972, 7.156
1377.161, 9.699
1378.349, 0.440
1379.538, 25.579
1380.726, 29.717
1381.915, 10.853
1383.103, 32.986
1384.290, 7.119
1385.478, 18.251
1386.665, 1.618
1387.853, 8.511
1389.040, 23.638
1390.227, 17.765
1391.413, 27.693
1392.600, 20.965
1393.786, 32.088
1394.972, 15.209
1396.158, 11.328
1397.344, 33.445
1398.530, 5.561
1399.715, 13.673
1400.900, 22.784
1402.085, 23.894
1403.270, 22.002
1404.455, 21.108
1405.639, 18.213
1406.824, 20.398
1408.008, 17.385
1409.192, 24.486
1410.375, 23.358
1411.559, 24.454
1412.742, 27.549
1413.925, 19.644
1415.108, 9.738
1416.291, 30.245
1417.474, 14.331
1418.656, 36.347
1419.839, 34.184
1421.021, 4.325
1422.202, 31.137
1423.384, 22.145
1424.566, 16.756
1425.747, 25.452
1426.928, 23.471
1428.109, 10.492
1429.290, 24.515
1430.470, 22.022
1431.651, 33.663
1432.831, 35.416
1434.011, 24.258
1435.191, 41.116
1436.370, 25.106
1437.550, 28.629
1438.729, 18.260
1439.908, 29.235
1441.087, 16.210
1442.266, 33.103
1443.444, 27.602
1444.623, 37.516
1445.801, 36.184
1446.979, 21.384
1448.157, 27.075
1449.334, 23.927
1450.512, 31.758
1451.689, 28.509
1452.866, 25.399
1454.043, 30.181
1455.220, 23.951
1456.396, 14.704
1457.573, 12.399
1458.749, 34.819
1459.925, 20.513
1461.100, 31.188
1462.276, 16.842
1463.451, 29.470
1464.627, 17.086
1465.802, 30.678
1466.977, 23.046
1468.151, 25.535
1469.326, 19.528
1470.500, 11.047
1471.674, 33.618
1472.848, 23.092
1474.022, 43.636
1475.195, 14.176
1476.369, 29.698
1477.542, 29.200
1478.715, 28.752
1479.888, 14.277
1481.061, 32.790
1482.233, 18.346
1483.405, 5.987
1484.577, 21.614
1485.749, 7.262
1486.921, 17.899
1488.093, 17.534
1489.264, 20.168
1490.435, 24.799
1491.606, 19.429
1492.777, 12.075
1493.948, 23.762
1495.118, 1.462
1496.288, 15.181
1497.459, 3.920
1498.628, 2.684
1499.798, 18.476
1500.968, 19.291
1502.137, 19.129
1503.306, 14.996
1504.475, 21.903
1505.644, 16.855
1506.813, 18.683
1507.981, 5.569
1509.149, 10.643
1510.318, 21.781
1511.485, 18.991
1512.653, 3.314
1513.821, 0.166
1514.988, 12.973
1516.155, 0.000
##END=



