##NAMES=Celestine
##RRUFFID=R040007
##IDEAL CHEMISTRY=SrS^6+^O_4_
##LOCALITY=Coahuila, Mexico
##OWNER=RRUFF
##SOURCE=University of Arizona Mineral Museum
##DESCRIPTION=Blue tabular crystals
##STATUS=The identification of this mineral has been confirmed by X-ray diffraction and chemical analysis
##URL=rruff.info/R040007
##MEASURED CHEMISTRY=(Sr_0.95_Ba_0.04_Ca_0.01_)_Σ=1_S_1.00_O_4_; = Light bands. (Sr_0.99_Ba_0.01_)_Σ=1_S_1.00_O_4_; trace amounts of Ca = Dark bands
##PIN_ID=M00013
##ORIENTATION=Laser parallel to b* (0 1 0). Fiducial mark perpendicular to laser is parallel to c [0 0 1]
51.466, 0.000
52.866, 35.616
54.266, 13.553
55.666, 38.554
57.065, 35.702
58.464, 42.339
59.863, 21.622
61.262, 4.421
62.661, 3.355
64.059, 0.223
65.458, 2.103
66.856, 0.242
68.253, 0.607
69.651, 9.170
71.048, 46.910
72.445, 29.809
73.842, 70.851
75.239, 66.022
76.635, 83.309
78.031, 85.702
79.427, 102.191
80.823, 138.768
82.218, 138.957
83.614, 159.160
85.009, 161.966
86.404, 172.839
87.798, 189.776
89.193, 193.641
90.587, 209.851
91.981, 209.933
93.375, 230.091
94.768, 240.295
96.161, 236.541
97.554, 217.826
98.947, 228.146
100.340, 231.499
101.732, 251.884
103.124, 249.297
104.516, 268.739
105.908, 247.208
107.300, 252.702
108.691, 228.221
110.082, 205.763
111.473, 215.328
112.864, 243.936
114.254, 244.565
115.644, 270.213
117.034, 283.884
118.424, 283.581
119.813, 328.304
121.203, 344.057
122.592, 371.826
123.981, 365.615
125.369, 317.417
126.758, 300.252
128.146, 259.106
129.534, 243.983
130.922, 217.872
132.309, 176.775
133.696, 161.691
135.083, 167.616
136.470, 150.540
137.857, 157.465
139.243, 143.390
140.630, 143.314
142.016, 132.240
143.401, 122.169
144.787, 120.102
146.172, 136.040
147.557, 135.983
148.942, 128.932
150.327, 135.255
151.711, 123.849
153.096, 126.817
154.480, 124.793
155.863, 105.776
157.247, 121.766
158.630, 116.764
160.013, 112.768
161.396, 127.781
162.779, 123.801
164.161, 119.829
165.544, 119.864
166.926, 114.906
168.308, 119.956
169.689, 128.014
171.070, 130.079
172.452, 127.098
173.833, 120.166
175.213, 101.243
176.594, 100.326
177.974, 115.417
179.354, 106.515
180.734, 116.836
182.114, 100.960
183.493, 125.085
184.872, 119.828
186.251, 138.952
187.630, 152.315
189.008, 166.839
190.387, 190.220
191.765, 231.365
193.143, 272.519
194.520, 287.860
195.898, 305.025
197.275, 325.197
198.652, 340.375
200.029, 320.058
201.405, 308.077
202.782, 246.261
204.158, 231.453
205.534, 170.183
206.909, 142.382
208.285, 134.588
209.660, 112.978
211.035, 79.199
212.410, 103.425
213.784, 85.783
215.159, 98.019
216.533, 92.404
217.907, 84.173
219.281, 62.992
220.654, 68.361
222.027, 43.250
223.400, 63.158
224.773, 69.094
226.146, 75.056
227.518, 46.041
228.891, 38.948
230.263, 45.971
231.634, 52.013
233.006, 46.070
234.377, 52.142
235.748, 58.229
237.119, 24.329
238.490, 52.444
239.860, 44.570
241.231, 23.708
242.601, 31.857
243.970, 50.023
245.340, 45.199
246.709, 43.385
248.079, 41.580
249.448, 28.784
250.816, 50.997
252.185, 53.218
253.553, 44.447
254.921, 13.683
256.289, 21.927
257.657, 17.178
259.024, 25.436
260.391, 37.701
261.758, 39.972
263.125, 20.249
264.492, 9.533
265.858, 17.823
267.224, 17.118
268.590, 3.420
269.956, 12.165
271.321, 22.040
272.687, 23.358
274.052, 0.681
275.416, 19.010
276.781, 20.344
278.146, 11.682
279.510, 22.026
280.874, 23.374
282.237, 12.727
283.601, 23.085
284.964, 28.447
286.327, 25.813
287.690, 21.184
289.053, 49.559
290.416, 10.938
291.778, 17.679
293.140, 26.704
294.502, 1.092
295.863, 31.483
297.225, 30.878
298.586, 16.277
299.947, 19.680
301.308, 7.086
302.668, 19.495
304.029, 13.908
305.389, 12.325
306.749, 5.254
308.108, 7.169
309.468, 0.404
310.827, 12.027
312.186, 13.461
313.545, 0.101
314.903, 12.660
316.262, 1.783
317.620, 12.229
318.978, 23.679
320.336, 6.132
321.693, 5.412
323.051, 22.048
324.408, 8.490
325.765, 8.975
327.121, 5.557
328.478, 2.913
329.834, 4.696
331.190, 26.181
332.546, 22.661
333.902, 2.856
335.257, 1.370
336.612, 15.115
337.967, 35.603
339.322, 27.784
340.677, 13.588
342.031, 22.086
343.385, 13.586
344.739, 17.089
346.093, 10.405
347.446, 0.101
348.799, 16.392
350.153, 16.114
351.505, 16.623
352.858, 28.226
354.210, 8.738
355.563, 0.724
356.915, 10.207
358.267, 8.310
359.618, 16.830
360.969, 28.353
362.321, 22.878
363.672, 2.421
365.022, 3.573
366.373, 13.955
367.723, 9.485
369.073, 41.015
370.423, 29.548
371.773, 19.084
373.122, 2.378
374.471, 14.163
375.821, 12.706
377.169, 2.748
378.518, 20.800
379.866, 17.350
381.215, 5.906
382.563, 10.534
383.910, 12.848
385.258, 6.681
386.605, 31.250
387.952, 22.278
389.299, 25.854
390.646, 18.435
391.992, 3.019
393.339, 2.608
394.685, 11.200
396.031, 25.801
397.376, 26.405
398.722, 20.013
400.067, 11.957
401.412, 23.572
402.757, 29.190
404.101, 46.813
405.446, 15.090
406.790, 5.720
408.134, 4.387
409.478, 31.061
410.821, 27.700
412.165, 41.341
413.508, 20.985
414.851, 19.632
416.193, 24.281
417.536, 34.946
418.878, 59.600
420.220, 53.257
421.562, 56.916
422.904, 55.578
424.245, 36.241
425.586, 57.907
426.927, 57.575
428.268, 71.245
429.609, 95.918
430.949, 88.592
432.289, 90.268
433.629, 104.948
434.969, 125.631
436.309, 164.317
437.648, 200.006
438.987, 244.696
440.326, 274.388
441.665, 372.082
443.003, 488.779
444.342, 707.478
445.680, 1041.182
447.018, 1566.888
448.355, 2175.595
449.693, 3042.304
451.030, 3848.015
452.367, 4302.728
453.704, 3968.749
455.041, 3266.466
456.377, 2526.187
457.713, 2052.909
459.049, 1639.634
460.385, 1308.360
461.721, 1004.088
463.056, 740.817
464.391, 540.548
465.726, 408.280
467.061, 305.017
468.395, 233.588
469.730, 182.328
471.064, 155.058
472.398, 120.808
473.731, 88.560
475.065, 85.307
476.398, 69.561
477.731, 75.316
479.064, 52.073
480.397, 78.831
481.729, 53.591
483.062, 34.169
484.394, 53.939
485.725, 32.388
487.057, 18.160
488.389, 37.733
489.720, 3.490
491.051, 4.287
492.382, 15.065
493.712, 33.844
495.043, 33.519
496.373, 33.995
497.703, 31.529
499.032, 17.828
500.362, 13.617
501.691, 12.017
503.020, 10.311
504.349, 14.019
505.678, 16.826
507.007, 23.188
508.335, 28.989
509.663, 9.055
510.991, 20.868
512.319, 0.681
513.646, 7.495
514.973, 3.308
516.300, 7.083
517.627, 7.445
518.954, 7.944
520.280, 13.079
521.607, 6.897
522.933, 3.715
524.259, 6.461
525.584, 8.189
526.910, 8.011
528.235, 18.834
529.560, 24.436
530.885, 41.481
532.209, 26.305
533.534, 32.243
534.858, 14.076
536.182, 12.049
537.506, 8.734
538.829, 45.563
540.152, 17.567
541.476, 15.509
542.799, 12.172
544.121, 2.347
545.444, 9.475
546.766, 5.703
548.088, 9.122
549.410, 15.948
550.732, 13.528
552.053, 8.732
553.375, 16.603
554.696, 15.468
556.017, 12.432
557.337, 33.383
558.658, 2.794
559.978, 25.092
561.298, 15.069
562.618, 18.082
563.938, 24.683
565.257, 23.169
566.576, 5.010
567.895, 4.812
569.214, 21.612
570.533, 10.412
571.851, 27.211
573.170, 15.052
574.488, 11.935
575.805, 6.731
577.123, 42.526
578.440, 34.321
579.758, 50.114
581.075, 16.907
582.391, 8.698
583.708, 20.488
585.024, 11.277
586.341, 20.066
587.657, 28.853
588.972, 40.638
590.288, 31.423
591.603, 52.441
592.918, 71.511
594.233, 57.684
595.548, 54.464
596.863, 82.242
598.177, 60.019
599.491, 50.794
600.805, 126.753
602.119, 67.669
603.432, 109.978
604.746, 169.890
606.059, 179.658
607.372, 161.425
608.685, 208.189
609.997, 285.968
611.309, 436.820
612.621, 547.762
613.933, 888.088
615.245, 1184.847
616.557, 1538.605
617.868, 1699.530
619.179, 1555.284
620.490, 1264.035
621.801, 988.785
623.111, 790.533
624.421, 671.134
625.731, 571.878
627.041, 562.620
628.351, 553.361
629.660, 560.920
630.970, 691.713
632.279, 911.448
633.588, 1313.180
634.896, 1827.912
636.205, 2443.641
637.513, 2644.369
638.821, 2478.491
640.129, 1840.906
641.437, 1254.627
642.744, 799.461
644.051, 576.178
645.358, 439.429
646.665, 390.143
647.972, 369.911
649.278, 365.611
650.584, 391.482
651.890, 485.185
653.196, 564.046
654.502, 675.744
655.807, 606.440
657.113, 568.133
658.418, 434.901
659.722, 347.087
661.027, 252.936
662.331, 196.617
663.636, 157.733
664.940, 123.410
666.244, 127.084
667.547, 78.895
668.851, 92.566
670.154, 66.140
671.457, 76.804
672.760, 49.880
674.062, 37.539
675.365, 40.196
676.667, 63.850
677.969, 52.500
679.271, 45.148
680.572, 38.864
681.874, 40.741
683.175, 40.222
684.476, 47.886
685.777, 45.517
687.077, 41.158
688.378, 38.783
689.678, 9.404
690.978, 22.868
692.278, 13.481
693.577, 30.088
694.877, 38.693
696.176, 12.294
697.475, 14.890
698.774, 47.201
700.072, 50.970
701.371, 38.289
702.669, 28.872
703.967, 53.599
705.265, 25.239
706.562, 40.811
707.860, 14.380
709.157, 18.943
710.454, 5.497
711.751, 14.050
713.047, 14.592
714.344, 32.129
715.640, 17.330
716.936, 12.859
718.232, 11.383
719.527, 4.901
720.823, 16.763
722.118, 17.270
723.413, 26.868
724.708, 30.538
726.002, 40.825
727.297, 35.318
728.591, 16.807
729.885, 14.292
731.179, 29.772
732.472, 32.237
733.766, 43.711
735.059, 29.181
736.352, 34.648
737.645, 40.111
738.937, 43.570
740.230, 41.773
741.522, 35.479
742.814, 29.928
744.106, 22.576
745.397, 21.816
746.689, 7.254
747.980, 5.687
749.271, 3.114
750.562, 54.534
751.853, 56.982
753.143, 33.395
754.433, 28.805
755.723, 8.212
757.013, 9.614
758.303, 0.011
759.592, 9.400
760.881, 35.784
762.170, 24.165
763.459, 32.542
764.748, 15.917
766.036, 24.287
767.325, 4.654
768.613, 0.984
769.901, 29.369
771.188, 17.719
772.476, 7.065
773.763, 34.407
775.050, 22.745
776.337, 35.083
777.624, 45.417
778.910, 6.251
780.196, 33.069
781.482, 23.386
782.768, 21.700
784.054, 21.989
785.339, 10.304
786.625, 15.593
787.910, 41.878
789.195, 20.161
790.479, 21.440
791.764, 46.717
793.048, 0.010
794.332, 20.743
795.616, 23.506
796.900, 5.753
798.183, 18.995
799.467, 2.765
800.750, 17.466
802.033, 0.305
803.316, 18.919
804.598, 3.141
805.880, 32.357
807.163, 13.429
808.445, 20.772
809.726, 12.971
811.008, 22.167
812.289, 12.640
813.570, 19.459
814.851, 14.294
816.132, 22.859
817.413, 2.991
818.693, 26.152
819.973, 24.294
821.253, 1.432
822.533, 23.567
823.813, 20.699
825.092, 8.829
826.371, 4.043
827.650, 19.078
828.929, 47.198
830.208, 45.314
831.486, 50.429
832.764, 25.542
834.042, 15.348
835.320, 46.751
836.598, 4.150
837.875, 2.057
839.152, 33.032
840.429, 1.119
841.706, 7.203
842.983, 19.285
844.259, 12.873
845.536, 21.194
846.812, 11.119
848.088, 33.186
849.363, 42.252
850.639, 12.142
851.914, 11.908
853.189, 17.146
854.464, 23.203
855.739, 22.260
857.013, 26.685
858.288, 1.644
859.562, 3.396
860.836, 11.434
862.110, 19.337
863.383, 20.472
864.656, 22.087
865.930, 17.213
867.203, 20.118
868.475, 9.149
869.748, 6.115
871.020, 13.987
872.292, 5.823
873.564, 12.434
874.836, 10.421
876.108, 4.583
877.379, 18.450
878.650, 6.482
879.922, 3.514
881.192, 5.545
882.463, 25.533
883.733, 32.479
885.004, 36.800
886.274, 25.538
887.544, 38.568
888.813, 23.597
890.083, 11.626
891.352, 23.655
892.621, 26.684
893.890, 26.537
895.159, 4.742
896.427, 33.771
897.695, 56.799
898.964, 64.828
900.232, 31.623
901.499, 48.365
902.767, 69.002
904.034, 1.968
905.301, 26.062
906.568, 54.235
907.835, 48.266
909.102, 20.113
910.368, 32.002
911.634, 44.496
912.900, 39.387
914.166, 54.421
915.432, 38.457
916.697, 46.493
917.962, 71.514
919.227, 33.551
920.492, 86.320
921.757, 87.795
923.021, 52.836
924.285, 55.884
925.550, 37.758
926.813, 59.802
928.077, 35.344
929.341, 34.391
930.604, 88.439
931.867, 35.633
933.130, 54.685
934.393, 109.739
935.655, 40.793
936.918, 64.031
938.180, 98.032
939.442, 60.092
940.703, 96.156
941.965, 82.220
943.226, 78.287
944.488, 58.356
945.749, 79.029
947.009, 48.409
948.270, 86.483
949.530, 119.445
950.791, 75.523
952.051, 86.069
953.311, 133.152
954.570, 162.871
955.830, 149.958
957.089, 131.883
958.348, 134.975
959.607, 114.910
960.866, 115.008
962.124, 135.108
963.383, 154.210
964.641, 156.237
965.899, 152.847
967.156, 155.793
968.414, 169.907
969.671, 207.587
970.928, 198.707
972.185, 278.830
973.442, 330.819
974.699, 348.949
975.955, 351.082
977.211, 350.218
978.468, 407.919
979.723, 442.062
980.979, 470.209
982.234, 557.359
983.490, 600.517
984.745, 717.679
986.000, 769.755
987.254, 947.923
988.509, 1230.733
989.763, 1545.690
991.017, 2082.876
992.271, 2922.052
993.525, 4252.246
994.779, 6750.442
996.032, 12292.797
997.285, 25112.004
998.538, 44814.223
999.791, 58314.449
1001.044, 46826.668
1002.296, 26053.896
1003.548, 13210.410
1004.800, 7349.651
1006.052, 4452.893
1007.304, 2936.140
1008.555, 2122.788
1009.807, 1587.979
1011.058, 1258.241
1012.309, 1020.509
1013.559, 823.782
1014.810, 752.060
1016.060, 641.347
1017.310, 570.638
1018.560, 544.935
1019.810, 428.236
1021.060, 414.543
1022.309, 339.856
1023.558, 301.174
1024.807, 301.498
1026.056, 281.827
1027.305, 240.033
1028.553, 227.371
1029.801, 223.723
1031.049, 178.081
1032.297, 173.448
1033.545, 163.819
1034.793, 144.201
1036.040, 137.145
1037.287, 125.996
1038.534, 115.405
1039.781, 103.818
1041.027, 98.236
1042.274, 90.382
1043.520, 84.386
1044.766, 78.522
1046.012, 75.960
1047.257, 68.406
1048.503, 66.857
1049.748, 38.314
1050.993, 54.777
1052.238, 105.248
1053.483, 27.726
1054.727, 38.181
1055.971, 11.329
1057.216, 48.167
1058.459, 14.669
1059.703, 76.181
1060.947, 39.702
1062.190, 72.229
1063.433, 34.763
1064.676, 5.301
1065.919, 13.844
1067.162, 55.392
1068.404, 37.944
1069.646, 26.501
1070.888, 40.064
1072.130, 31.634
1073.372, 0.791
1074.613, 24.788
1075.855, 44.372
1077.096, 25.039
1078.337, 31.550
1079.578, 38.144
1080.818, 20.742
1082.059, 12.560
1083.299, 36.171
1084.539, 24.786
1085.779, 0.407
1087.018, 19.039
1088.258, 42.677
1089.497, 0.319
1090.736, 53.229
1091.975, 60.953
1093.213, 86.612
1094.452, 109.275
1095.690, 116.472
1096.928, 98.625
1098.166, 136.310
1099.404, 159.001
1100.642, 170.697
1101.879, 223.399
1103.116, 263.106
1104.353, 334.819
1105.590, 492.537
1106.827, 668.260
1108.063, 758.991
1109.299, 935.732
1110.536, 1004.477
1111.771, 868.227
1113.007, 744.981
1114.243, 604.744
1115.478, 436.520
1116.713, 367.305
1117.948, 269.095
1119.183, 175.890
1120.418, 198.690
1121.652, 195.494
1122.886, 162.303
1124.120, 115.117
1125.354, 101.942
1126.588, 78.763
1127.821, 75.591
1129.055, 115.613
1130.288, 182.449
1131.521, 156.247
1132.753, 154.091
1133.986, 141.961
1135.218, 213.817
1136.450, 199.310
1137.682, 290.885
1138.914, 251.756
1140.146, 309.630
1141.377, 372.519
1142.609, 440.400
1143.840, 482.941
1145.071, 652.862
1146.301, 751.794
1147.532, 871.583
1148.762, 1055.486
1149.992, 1299.391
1151.222, 1643.348
1152.452, 2150.262
1153.682, 2641.179
1154.911, 3370.100
1156.140, 3980.062
1157.369, 4455.014
1158.598, 4683.372
1159.827, 4767.706
1161.055, 4425.785
1162.284, 3961.777
1163.512, 3332.739
1164.740, 2714.689
1165.967, 2074.643
1167.195, 1756.604
1168.422, 1319.876
1169.650, 1108.859
1170.877, 885.855
1172.103, 724.822
1173.330, 610.832
1174.557, 493.269
1175.783, 463.816
1177.009, 366.947
1178.235, 382.346
1179.461, 368.209
1180.686, 294.215
1181.912, 354.443
1183.137, 340.639
1184.362, 359.636
1185.587, 426.567
1186.811, 450.572
1188.036, 542.641
1189.260, 564.771
1190.484, 550.818
1191.708, 433.039
1192.932, 369.142
1194.155, 268.639
1195.378, 244.895
1196.602, 210.095
1197.825, 180.164
1199.047, 139.776
1200.270, 116.502
1201.492, 131.466
1202.715, 82.475
1203.937, 103.163
1205.159, 122.228
1206.380, 81.370
1207.602, 54.143
1208.823, 73.193
1210.044, 77.346
1211.265, 72.359
1212.486, 80.373
1213.707, 74.387
1214.927, 81.441
1216.147, 71.782
1217.367, 75.472
1218.587, 56.488
1219.807, 54.504
1221.027, 57.513
1222.246, 29.529
1223.465, 103.545
1224.684, 70.065
1225.903, 63.082
1227.121, 8.097
1228.340, 7.888
1229.558, 50.125
1230.776, 62.138
1231.994, 45.170
1233.212, 10.179
1234.429, 19.246
1235.646, 8.256
1236.864, 8.661
1238.081, 3.115
1239.297, 27.987
1240.514, 46.995
1241.730, 30.004
1242.947, 21.014
1244.163, 6.025
1245.378, 5.279
1246.594, 4.474
1247.810, 15.250
1249.025, 18.266
1250.240, 42.282
1251.455, 62.374
1252.670, 55.393
1253.885, 29.361
1255.099, 24.381
1256.313, 20.402
1257.527, 66.494
1258.741, 21.510
1259.955, 56.550
1261.168, 14.958
1262.382, 41.968
1263.595, 23.978
1264.808, 16.985
1266.021, 29.430
1267.233, 26.042
1268.446, 34.044
1269.658, 15.046
1270.870, 2.104
1272.082, 40.101
1273.294, 40.130
1274.505, 2.875
1275.716, 68.118
1276.928, 14.890
1278.139, 25.097
1279.349, 2.082
1280.560, 17.054
1281.770, 8.984
1282.981, 10.032
1284.191, 32.901
1285.401, 34.884
1286.610, 7.807
1287.820, 15.727
1289.029, 8.359
1290.239, 4.547
1291.448, 3.478
1292.656, 11.628
1293.865, 28.254
1295.073, 34.126
1296.282, 2.989
1297.490, 50.850
1298.698, 39.707
1299.906, 28.563
1301.113, 6.418
1302.320, 11.320
1303.528, 2.820
1304.735, 2.282
1305.942, 2.217
1307.148, 6.697
1308.355, 14.529
1309.561, 30.358
1310.767, 38.388
1311.973, 18.205
1313.179, 0.019
1314.384, 14.827
1315.590, 12.631
1316.795, 23.431
1318.000, 11.227
1319.205, 27.010
1320.410, 12.788
1321.614, 28.439
1322.819, 0.683
1324.023, 7.934
1325.227, 17.807
1326.431, 13.458
1327.634, 28.733
1328.838, 21.978
1330.041, 8.318
1331.244, 21.378
1332.447, 10.069
1333.650, 6.754
1334.852, 13.434
1336.055, 4.462
1337.257, 8.782
1338.459, 0.555
1339.661, 4.103
1340.862, 5.755
1342.064, 13.402
1343.265, 1.957
1344.466, 12.677
1345.667, 1.694
1346.868, 40.733
1348.068, 4.653
1349.269, 16.953
1350.469, 9.447
1351.669, 3.480
1352.869, 21.729
1354.069, 10.308
1355.268, 39.895
1356.468, 41.465
1357.667, 65.031
1358.866, 22.593
1360.065, 68.332
1361.263, 46.885
1362.462, 52.489
1363.660, 49.035
1364.858, 40.549
1366.056, 58.058
1367.254, 46.562
1368.451, 51.060
1369.649, 33.553
1370.846, 64.040
1372.043, 39.515
1373.240, 36.812
1374.436, 53.282
1375.633, 29.754
1376.829, 51.183
1378.025, 21.596
1379.221, 53.093
1380.417, 19.467
1381.613, 1.454
1382.808, 17.311
1384.003, 48.236
1385.199, 66.159
1386.393, 40.077
1387.588, 58.992
1388.783, 14.903
1389.977, 52.807
1391.171, 31.703
1392.365, 65.594
1393.559, 71.480
1394.753, 24.360
1395.946, 72.237
1397.140, 2.891
1398.333, 43.969
1399.526, 48.058
1400.719, 26.642
1401.911, 67.211
1403.104, 37.023
1404.296, 7.262
1405.488, 57.077
1406.680, 58.875
1407.872, 53.842
1409.063, 79.489
1410.255, 29.269
1411.446, 50.983
1412.637, 47.755
1413.828, 29.450
1415.018, 57.149
1416.209, 34.657
1417.399, 44.381
1418.589, 67.113
1419.779, 43.390
1420.969, 70.071
1422.159, 65.734
1423.348, 98.350
1424.537, 45.162
1425.726, 50.978
1426.915, 87.349
1428.104, 22.511
1429.293, 58.751
1430.481, 49.880
1431.669, 61.491
1432.857, 36.304
1434.045, 27.743
1435.233, 83.142
1436.420, 98.270
1437.608, 66.751
1438.795, 65.819
1439.982, 75.959
1441.169, 66.325
1442.355, 62.614
1443.542, 30.960
1444.728, 19.299
1445.914, 28.630
1447.100, 58.952
1448.286, 57.269
1449.472, 66.583
1450.657, 92.850
1451.842, 63.039
1453.027, 5.097
1454.212, 75.162
1455.397, 38.394
1456.581, 63.273
1457.766, 72.378
1458.950, 78.518
1460.134, 103.462
1461.318, 43.377
1462.501, 87.212
1463.685, 108.146
1464.868, 49.169
1466.051, 78.107
1467.234, 50.907
1468.417, 59.800
1469.600, 51.516
1470.782, 74.263
1471.965, 58.059
1473.147, 82.820
1474.329, 68.633
1475.510, 67.514
1476.692, 81.267
1477.873, 45.183
1479.055, 24.014
1480.236, 72.973
1481.416, 56.998
1482.597, 33.028
1483.778, 81.028
1484.958, 24.777
1486.138, 34.730
1487.318, 78.656
1488.498, 9.267
1489.678, 41.631
1490.857, 48.517
1492.037, 51.385
1493.216, 69.329
1494.395, 57.292
1495.574, 48.277
1496.752, 20.273
1497.931, 35.289
1499.109, 65.325
1500.287, 36.378
1501.465, 1.419
1502.643, 57.497
1503.820, 11.576
1504.998, 44.677
1506.175, 32.162
1507.352, 47.877
1508.529, 53.382
1509.706, 59.177
1510.882, 47.571
1512.059, 40.973
1513.235, 13.667
1514.411, 3.467
1515.587, 8.573
1516.762, 5.439
1517.938, 34.001
1519.113, 32.036
1520.288, 0.192
1521.463, 25.401
1522.638, 0.000
##END=



