##NAMES=Celestine
##RRUFFID=R040007
##IDEAL CHEMISTRY=SrS^6+^O_4_
##LOCALITY=Coahuila, Mexico
##OWNER=RRUFF
##SOURCE=University of Arizona Mineral Museum
##DESCRIPTION=Blue tabular crystals
##STATUS=The identification of this mineral has been confirmed by X-ray diffraction and chemical analysis
##URL=rruff.info/R040007
##MEASURED CHEMISTRY=(Sr_0.95_Ba_0.04_Ca_0.01_)_Σ=1_S_1.00_O_4_; = Light bands. (Sr_0.99_Ba_0.01_)_Σ=1_S_1.00_O_4_; trace amounts of Ca = Dark bands
##PIN_ID=M00013
##ORIENTATION=Laser parallel to b* (0 1 0). Fiducial mark perpendicular to laser is parallel to c [0 0 1]
51.466, 0.000
52.866, 0.297
54.266, 20.039
55.666, 12.281
57.065, 7.636
58.464, 1.683
59.863, 13.858
61.262, 0.274
62.661, 0.161
64.059, 2.071
65.458, 4.617
66.856, 9.041
68.253, 29.998
69.651, 33.219
71.048, 54.673
72.445, 107.336
73.842, 145.186
75.239, 225.206
76.635, 327.379
78.031, 466.691
79.427, 729.130
80.823, 1052.683
82.218, 1527.344
83.614, 1934.102
85.009, 2139.950
86.404, 2028.884
87.798, 1624.899
89.193, 1204.988
90.587, 846.148
91.981, 594.377
93.375, 448.671
94.768, 369.026
96.161, 314.435
97.554, 265.894
98.947, 247.404
100.340, 234.960
101.732, 242.555
103.124, 235.188
104.516, 228.856
105.908, 217.089
107.300, 209.291
108.691, 184.061
110.082, 173.860
111.473, 159.686
112.864, 175.540
114.254, 203.420
115.644, 227.326
117.034, 217.259
118.424, 229.226
119.813, 265.223
121.203, 299.240
122.592, 313.283
123.981, 307.355
125.369, 309.448
126.758, 271.560
128.146, 222.694
129.534, 199.860
130.922, 188.057
132.309, 169.288
133.696, 159.792
135.083, 139.833
136.470, 145.107
137.857, 140.378
139.243, 136.645
140.630, 117.912
142.016, 107.180
143.401, 110.450
144.787, 93.723
146.172, 100.284
147.557, 88.564
148.942, 104.851
150.327, 97.144
151.711, 101.444
153.096, 124.753
154.480, 97.104
155.863, 122.427
157.247, 116.760
158.630, 121.100
160.013, 133.450
161.396, 167.807
162.779, 207.174
164.161, 246.806
165.544, 300.187
166.926, 328.576
168.308, 375.974
169.689, 368.380
171.070, 324.795
172.452, 272.253
173.833, 254.684
175.213, 184.124
176.594, 131.572
177.974, 147.028
179.354, 133.640
180.734, 112.110
182.114, 116.646
183.493, 97.156
184.872, 90.478
186.251, 70.970
187.630, 77.405
189.008, 83.975
190.387, 93.489
191.765, 93.010
193.143, 102.178
194.520, 91.707
195.898, 73.435
197.275, 78.079
198.652, 81.627
200.029, 45.182
201.405, 67.895
202.782, 69.581
204.158, 53.162
205.534, 65.669
206.909, 48.245
208.285, 34.395
209.660, 46.480
211.035, 43.551
212.410, 41.892
213.784, 54.480
215.159, 53.620
216.533, 53.206
217.907, 49.207
219.281, 42.280
220.654, 33.513
222.027, 35.823
223.400, 35.880
224.773, 38.105
226.146, 37.362
227.518, 35.636
228.891, 29.947
230.263, 28.388
231.634, 35.541
233.006, 23.922
234.377, 28.321
235.748, 31.737
237.119, 11.171
238.490, 6.381
239.860, 32.082
241.231, 18.560
242.601, 33.051
243.970, 21.556
245.340, 6.075
246.709, 15.607
248.079, 13.151
249.448, 9.707
250.816, 12.273
252.185, 33.849
253.553, 24.434
254.921, 8.028
256.289, 1.369
257.657, 23.247
259.024, 10.871
260.391, 26.502
261.758, 12.141
263.125, 12.788
264.492, 4.441
265.858, 36.100
267.224, 6.767
268.590, 8.441
269.956, 25.121
271.321, 7.806
272.687, 14.498
274.052, 5.801
275.416, 9.904
276.781, 29.615
278.146, 6.331
279.510, 2.053
280.874, 2.780
282.237, 7.512
283.601, 6.249
284.964, 9.926
286.327, 3.737
287.690, 10.488
289.053, 9.243
290.416, 0.997
291.778, 9.766
293.140, 3.935
294.502, 28.306
295.863, 5.082
297.225, 11.862
298.586, 17.645
299.947, 0.432
301.308, 14.222
302.668, 10.016
304.029, 3.186
305.389, 0.615
306.749, 30.419
308.108, 16.227
309.468, 23.038
310.827, 1.148
312.186, 0.331
313.545, 21.490
314.903, 3.686
316.262, 11.859
317.620, 13.969
318.978, 21.801
320.336, 20.635
321.693, 13.474
323.051, 4.315
324.408, 5.160
325.765, 30.008
327.121, 16.860
328.478, 7.713
329.834, 32.570
331.190, 0.570
332.546, 10.707
333.902, 21.156
335.257, 23.023
336.612, 4.893
337.967, 3.235
339.322, 1.360
340.677, 12.517
342.031, 7.397
343.385, 7.284
344.739, 19.169
346.093, 21.057
347.446, 20.947
348.799, 2.164
350.153, 1.728
351.505, 1.378
352.858, 16.518
354.210, 1.417
355.563, 16.318
356.915, 16.781
358.267, 6.119
359.618, 8.020
360.969, 10.076
362.321, 5.827
363.672, 5.266
365.022, 2.360
366.373, 8.452
367.723, 27.456
369.073, 13.638
370.423, 16.267
371.773, 4.173
373.122, 4.111
374.471, 18.980
375.821, 8.789
377.169, 15.827
378.518, 7.726
379.866, 28.672
381.215, 43.578
382.563, 0.447
383.910, 17.468
385.258, 8.387
386.605, 13.311
387.952, 29.240
389.299, 28.174
390.646, 33.153
391.992, 35.288
393.339, 32.615
394.685, 35.565
396.031, 28.518
397.376, 34.475
398.722, 34.489
400.067, 35.401
401.412, 39.207
402.757, 45.524
404.101, 48.497
405.446, 39.604
406.790, 49.193
408.134, 49.861
409.478, 51.530
410.821, 58.173
412.165, 63.164
413.508, 66.177
414.851, 73.505
416.193, 62.173
417.536, 87.174
418.878, 91.365
420.220, 99.371
421.562, 83.379
422.904, 105.390
424.245, 129.402
425.586, 115.416
426.927, 146.432
428.268, 135.570
429.609, 158.592
430.949, 199.614
432.289, 233.637
433.629, 261.663
434.969, 301.416
436.309, 353.269
437.648, 444.299
438.987, 524.349
440.326, 695.383
441.665, 899.417
443.003, 1222.453
444.342, 1710.490
445.680, 2488.534
447.018, 3838.578
448.355, 5597.630
449.693, 8039.684
451.030, 10509.739
452.367, 11554.770
453.704, 10201.830
455.041, 7764.887
456.377, 5276.947
457.713, 3510.008
459.049, 2464.070
460.385, 1753.133
461.721, 1335.204
463.056, 980.276
464.391, 745.350
465.726, 622.310
467.061, 508.385
468.395, 404.461
469.730, 369.541
471.064, 283.622
472.398, 250.658
473.731, 212.723
475.065, 205.809
476.398, 157.744
477.731, 136.314
479.064, 143.403
480.397, 120.492
481.729, 92.584
483.062, 112.677
484.394, 77.770
485.725, 57.864
487.057, 76.958
488.389, 84.058
489.720, 71.159
491.051, 65.262
492.382, 27.317
493.712, 42.923
495.043, 36.030
496.373, 55.138
497.703, 57.253
499.032, 49.202
500.362, 37.227
501.691, 54.344
503.020, 9.461
504.349, 50.578
505.678, 33.697
507.007, 48.816
508.335, 37.935
509.663, 61.917
510.991, 61.036
512.319, 36.048
513.646, 36.169
514.973, 49.282
516.300, 35.402
517.627, 27.657
518.954, 47.779
520.280, 23.902
521.607, 23.485
522.933, 34.609
524.259, 48.429
525.584, 25.440
526.910, 42.096
528.235, 33.223
529.560, 51.616
530.885, 29.745
532.209, 5.875
533.534, 37.724
534.858, 19.823
536.182, 24.454
537.506, 8.584
538.829, 4.714
540.152, 16.843
541.476, 3.972
542.799, 23.006
544.121, 17.134
545.444, 30.294
546.766, 18.850
548.088, 13.977
549.410, 11.114
550.732, 4.514
552.053, 1.461
553.375, 25.763
554.696, 15.947
556.017, 14.183
557.337, 39.664
558.658, 11.798
559.978, 21.931
561.298, 1.936
562.618, 10.216
563.938, 2.555
565.257, 6.283
566.576, 3.109
567.895, 3.006
569.214, 3.880
570.533, 11.291
571.851, 8.498
573.170, 34.640
574.488, 15.851
575.805, 12.955
577.123, 15.941
578.440, 18.153
579.758, 26.387
581.075, 13.526
582.391, 14.623
583.708, 17.710
585.024, 11.938
586.341, 3.975
587.657, 11.057
588.972, 14.139
590.288, 17.218
591.603, 34.297
592.918, 7.586
594.233, 28.492
595.548, 41.562
596.863, 9.652
598.177, 11.724
599.491, 27.789
600.805, 38.851
602.119, 40.912
603.432, 61.281
604.746, 81.162
606.059, 96.457
607.372, 142.695
608.685, 167.838
609.997, 199.889
611.309, 353.938
612.621, 489.985
613.933, 682.031
615.245, 1013.075
616.557, 1276.117
617.868, 1392.157
619.179, 1241.840
620.490, 961.876
621.801, 807.962
623.111, 604.009
624.421, 478.039
625.731, 366.068
627.041, 310.837
628.351, 210.861
629.660, 179.922
630.970, 171.363
632.279, 155.381
633.588, 143.397
634.896, 159.703
636.205, 219.717
637.513, 240.729
638.821, 218.083
640.129, 174.091
641.437, 137.095
642.744, 129.763
644.051, 100.104
645.358, 126.109
646.665, 129.504
647.972, 148.497
649.278, 213.487
650.584, 263.376
651.890, 371.363
653.196, 465.348
654.502, 555.986
655.807, 568.965
657.113, 448.002
658.418, 368.977
659.722, 239.949
661.027, 157.059
662.331, 121.187
663.636, 74.151
664.940, 100.112
666.244, 73.070
667.547, 54.214
668.851, 61.167
670.154, 49.118
671.457, 49.065
672.760, 26.010
674.062, 57.952
675.365, 36.162
676.667, 41.102
677.969, 51.039
679.271, 38.378
680.572, 24.487
681.874, 15.418
683.175, 35.347
684.476, 48.717
685.777, 31.642
687.077, 36.121
688.378, 39.043
689.678, 1.905
690.978, 23.004
692.278, 21.978
693.577, 45.888
694.877, 25.794
696.176, 26.653
697.475, 33.552
698.774, 20.386
700.072, 31.280
701.371, 18.170
702.669, 3.057
703.967, 41.937
705.265, 50.234
706.562, 10.107
707.860, 23.233
709.157, 48.044
710.454, 18.905
711.751, 15.762
713.047, 6.615
714.344, 42.043
715.640, 40.886
716.936, 41.726
718.232, 21.216
719.527, 11.049
720.823, 19.747
722.118, 17.962
723.413, 25.356
724.708, 31.050
726.002, 16.419
727.297, 14.228
728.591, 18.079
729.885, 13.880
731.179, 32.677
732.472, 37.470
733.766, 21.051
735.059, 10.838
736.352, 15.621
737.645, 19.399
738.937, 27.178
740.230, 30.738
741.522, 12.720
742.814, 38.365
744.106, 23.126
745.397, 21.884
746.689, 28.640
747.980, 15.393
749.271, 17.722
750.562, 19.161
751.853, 15.904
753.143, 17.625
754.433, 22.361
755.723, 33.094
757.013, 19.824
758.303, 6.449
759.592, 5.268
760.881, 12.021
762.170, 6.676
763.459, 10.369
764.748, 22.058
766.036, 30.744
767.325, 26.427
768.613, 44.107
769.901, 47.784
771.188, 27.459
772.476, 43.131
773.763, 19.200
775.050, 42.452
776.337, 11.101
777.624, 13.746
778.910, 29.389
780.196, 40.029
781.482, 5.334
782.768, 20.294
784.054, 10.919
785.339, 0.459
786.625, 26.157
787.910, 39.769
789.195, 1.379
790.479, 23.984
791.764, 21.586
793.048, 0.185
794.332, 26.779
795.616, 31.370
796.900, 11.958
798.183, 22.543
799.467, 10.874
800.750, 1.302
802.033, 20.264
803.316, 21.827
804.598, 9.613
805.880, 35.937
807.163, 17.485
808.445, 21.970
809.726, 17.559
811.008, 5.086
812.289, 16.609
813.570, 42.130
814.851, 1.649
816.132, 1.164
817.413, 42.675
818.693, 22.184
819.973, 12.691
821.253, 0.195
822.533, 20.696
823.813, 28.194
825.092, 9.690
826.371, 20.184
827.650, 21.677
828.929, 1.833
830.208, 24.652
831.486, 21.136
832.764, 4.382
834.042, 0.906
835.320, 23.566
836.598, 15.977
837.875, 5.555
839.152, 8.908
840.429, 7.631
841.706, 14.823
842.983, 1.724
844.259, 18.007
845.536, 0.545
846.812, 23.896
848.088, 10.340
849.363, 32.782
850.639, 16.224
851.914, 2.663
853.189, 40.087
854.464, 8.524
855.739, 11.927
857.013, 6.933
858.288, 39.634
859.562, 10.777
860.836, 13.049
862.110, 2.653
863.383, 16.749
864.656, 31.100
865.930, 26.396
867.203, 11.553
868.475, 6.840
869.748, 6.232
871.020, 46.624
872.292, 24.994
873.564, 32.174
874.836, 17.529
876.108, 6.869
877.379, 11.263
878.650, 1.343
879.922, 16.990
881.192, 2.715
882.463, 27.642
883.733, 28.930
885.004, 18.323
886.274, 20.715
887.544, 11.109
888.813, 26.363
890.083, 17.709
891.352, 0.097
892.621, 30.493
893.890, 31.888
895.159, 38.189
896.427, 58.585
897.695, 35.980
898.964, 52.376
900.232, 48.771
901.499, 46.257
902.767, 53.517
904.034, 47.914
905.301, 47.997
906.568, 49.510
907.835, 42.083
909.102, 52.483
910.368, 47.884
911.634, 53.387
912.900, 58.555
914.166, 58.720
915.432, 62.942
916.697, 35.257
917.962, 43.663
919.227, 52.076
920.492, 70.484
921.757, 93.892
923.021, 81.117
924.285, 70.761
925.550, 51.172
926.813, 47.939
928.077, 19.352
929.341, 45.714
930.604, 44.114
931.867, 61.530
933.130, 31.948
934.393, 58.651
935.655, 41.071
936.918, 61.453
938.180, 61.455
939.442, 43.879
940.703, 99.304
941.965, 50.439
943.226, 76.867
944.488, 82.297
945.749, 55.384
947.009, 74.818
948.270, 91.253
949.530, 87.684
950.791, 100.122
952.051, 120.555
953.311, 77.598
954.570, 113.042
955.830, 90.488
957.089, 112.035
958.348, 113.485
959.607, 142.938
960.866, 146.082
962.124, 160.192
963.383, 162.592
964.641, 177.203
965.899, 187.532
967.156, 203.842
968.414, 210.151
969.671, 222.624
970.928, 232.099
972.185, 322.578
973.442, 341.874
974.699, 359.361
975.955, 328.850
977.211, 367.342
978.468, 396.836
979.723, 460.338
980.979, 475.575
982.234, 601.082
983.490, 579.592
984.745, 735.703
986.000, 813.042
987.254, 933.560
988.509, 1265.082
989.763, 1651.164
991.017, 2175.720
992.271, 3056.696
993.525, 4347.314
994.779, 6913.685
996.032, 12676.229
997.285, 25970.711
998.538, 46469.262
999.791, 59279.812
1001.044, 46727.375
1002.296, 25025.928
1003.548, 12062.492
1004.800, 6634.059
1006.052, 4092.630
1007.304, 2751.203
1008.555, 1955.781
1009.807, 1483.944
1011.058, 1200.529
1012.309, 1010.398
1013.559, 838.909
1014.810, 693.519
1016.060, 588.484
1017.310, 541.756
1018.560, 451.800
1019.810, 408.429
1021.060, 399.062
1022.309, 305.699
1023.558, 280.339
1024.807, 295.984
1026.056, 220.634
1027.305, 207.287
1028.553, 221.947
1029.801, 159.579
1031.049, 183.247
1032.297, 128.853
1033.545, 143.528
1034.793, 130.208
1036.040, 96.892
1037.287, 107.579
1038.534, 95.271
1039.781, 72.969
1041.027, 68.676
1042.274, 52.383
1043.520, 97.099
1044.766, 80.818
1046.012, 80.543
1047.257, 66.274
1048.503, 75.009
1049.748, 60.347
1050.993, 44.506
1052.238, 47.264
1053.483, 46.026
1054.727, 58.793
1055.971, 26.563
1057.216, 40.342
1058.459, 58.128
1059.703, 30.917
1060.947, 49.710
1062.190, 33.008
1063.433, 31.814
1064.676, 26.630
1065.919, 17.451
1067.162, 67.277
1068.404, 0.891
1069.646, 13.945
1070.888, 38.787
1072.130, 5.366
1073.372, 33.485
1074.613, 33.340
1075.855, 13.199
1077.096, 18.068
1078.337, 15.120
1079.578, 25.819
1080.818, 13.699
1082.059, 8.584
1083.299, 3.528
1084.539, 20.367
1085.779, 14.266
1087.018, 35.170
1088.258, 50.081
1089.497, 12.997
1090.736, 30.916
1091.975, 120.841
1093.213, 104.770
1094.452, 136.702
1095.690, 91.720
1096.928, 126.661
1098.166, 136.608
1099.404, 137.559
1100.642, 143.515
1101.879, 247.478
1103.116, 274.447
1104.353, 436.420
1105.590, 515.397
1106.827, 751.382
1108.063, 944.369
1109.299, 1133.361
1110.536, 1260.363
1111.771, 1173.368
1113.007, 985.377
1114.243, 796.893
1115.478, 601.909
1116.713, 443.929
1117.948, 331.090
1119.183, 255.980
1120.418, 179.381
1121.652, 184.846
1122.886, 179.885
1124.120, 119.927
1125.354, 77.971
1126.588, 85.020
1127.821, 51.188
1129.055, 9.242
1130.288, 31.301
1131.521, 26.379
1132.753, 37.447
1133.986, 72.526
1135.218, 43.600
1136.450, 14.676
1137.682, 46.756
1138.914, 3.127
1140.146, 25.960
1141.377, 6.887
1142.609, 22.207
1143.840, 49.425
1145.071, 106.525
1146.301, 90.629
1147.532, 123.735
1148.762, 174.869
1149.992, 258.980
1151.222, 357.094
1152.452, 551.413
1153.682, 787.531
1154.911, 953.652
1156.140, 1044.775
1157.369, 980.900
1158.598, 747.038
1159.827, 584.229
1161.055, 450.375
1162.284, 341.581
1163.512, 258.356
1164.740, 222.508
1165.967, 190.661
1167.195, 146.819
1168.422, 150.979
1169.650, 82.140
1170.877, 77.304
1172.103, 56.494
1173.330, 78.910
1174.557, 74.105
1175.783, 52.726
1177.009, 38.943
1178.235, 45.115
1179.461, 59.301
1180.686, 87.477
1181.912, 53.672
1183.137, 114.936
1184.362, 126.132
1185.587, 230.350
1186.811, 286.197
1188.036, 353.307
1189.260, 411.517
1190.484, 376.028
1191.708, 351.299
1192.932, 237.780
1194.155, 179.390
1195.378, 127.593
1196.602, 128.046
1197.825, 78.450
1199.047, 62.053
1200.270, 58.244
1201.492, 61.458
1202.715, 25.650
1203.937, 17.253
1205.159, 30.810
1206.380, 44.014
1207.602, 5.380
1208.823, 15.427
1210.044, 3.790
1211.265, 14.220
1212.486, 10.440
1213.707, 28.761
1214.927, 30.636
1216.147, 20.821
1217.367, 13.779
1218.587, 21.971
1219.807, 44.482
1221.027, 2.673
1222.246, 36.864
1223.465, 26.054
1224.684, 38.300
1225.903, 34.490
1227.121, 56.679
1228.340, 46.868
1229.558, 32.057
1230.776, 50.218
1231.994, 34.428
1233.212, 16.008
1234.429, 1.553
1235.646, 14.952
1236.864, 19.136
1238.081, 25.523
1239.297, 5.708
1240.514, 26.893
1241.730, 2.868
1242.947, 46.319
1244.163, 12.054
1245.378, 49.254
1246.594, 18.680
1247.810, 16.869
1249.025, 44.058
1250.240, 24.505
1251.455, 47.693
1252.670, 16.879
1253.885, 18.072
1255.099, 46.257
1256.313, 39.437
1257.527, 66.616
1258.741, 7.796
1259.955, 9.024
1261.168, 23.154
1262.382, 19.331
1263.595, 12.508
1264.808, 41.705
1266.021, 6.120
1267.233, 6.946
1268.446, 43.225
1269.658, 26.395
1270.870, 31.568
1272.082, 8.726
1273.294, 17.122
1274.505, 15.021
1275.716, 20.163
1276.928, 3.316
1278.139, 6.456
1279.349, 5.597
1280.560, 16.731
1281.770, 16.865
1282.981, 34.008
1284.191, 2.139
1285.401, 15.236
1286.610, 1.354
1287.820, 21.383
1289.029, 0.491
1290.239, 19.588
1291.448, 19.672
1292.656, 26.768
1293.865, 5.839
1295.073, 46.906
1296.282, 37.970
1297.490, 0.030
1298.698, 37.086
1299.906, 32.134
1301.113, 36.175
1302.320, 19.210
1303.528, 36.243
1304.735, 28.727
1305.942, 26.292
1307.148, 12.692
1308.355, 5.686
1309.561, 41.310
1310.767, 18.301
1311.973, 28.288
1313.179, 30.273
1314.384, 24.249
1315.590, 29.219
1316.795, 11.184
1318.000, 1.145
1319.205, 11.101
1320.410, 1.947
1321.614, 8.999
1322.819, 31.941
1324.023, 15.879
1325.227, 40.812
1326.431, 14.741
1327.634, 6.666
1328.838, 15.585
1330.041, 11.501
1331.244, 4.589
1332.447, 8.686
1333.650, 14.208
1334.852, 1.097
1336.055, 7.979
1337.257, 1.857
1338.459, 0.270
1339.661, 17.596
1340.862, 13.542
1342.064, 12.690
1343.265, 0.153
1344.466, 23.990
1345.667, 16.824
1346.868, 28.653
1348.068, 15.522
1349.269, 1.294
1350.469, 20.104
1351.669, 5.910
1352.869, 28.712
1354.069, 16.014
1355.268, 3.809
1356.468, 15.599
1357.667, 7.386
1358.866, 3.830
1360.065, 60.393
1361.263, 4.833
1362.462, 49.936
1363.660, 1.702
1364.858, 41.465
1366.056, 31.225
1367.254, 29.984
1368.451, 13.741
1369.649, 24.879
1370.846, 33.251
1372.043, 39.979
1373.240, 29.703
1374.436, 24.422
1375.633, 19.137
1376.829, 1.844
1378.025, 2.548
1379.221, 6.247
1380.417, 45.948
1381.613, 6.658
1382.808, 55.748
1384.003, 28.754
1385.199, 15.835
1386.393, 35.910
1387.588, 0.019
1388.783, 24.046
1389.977, 7.108
1391.171, 38.167
1392.365, 35.222
1393.559, 6.725
1394.753, 28.769
1395.946, 37.397
1397.140, 25.946
1398.333, 63.970
1399.526, 42.713
1400.719, 28.717
1401.911, 32.694
1403.104, 40.680
1404.296, 30.672
1405.488, 54.621
1406.680, 41.532
1407.872, 24.366
1409.063, 31.342
1410.255, 45.283
1411.446, 54.995
1412.637, 60.065
1413.828, 29.920
1415.018, 58.199
1416.209, 53.727
1417.399, 33.799
1418.589, 53.694
1419.779, 24.585
1420.969, 61.439
1422.159, 26.937
1423.348, 30.112
1424.537, 52.962
1425.726, 24.799
1426.915, 33.509
1428.104, 43.322
1429.293, 46.731
1430.481, 46.926
1431.669, 70.630
1432.857, 68.425
1434.045, 23.613
1435.233, 18.303
1436.420, 40.729
1437.608, 48.796
1438.795, 51.179
1439.982, 55.394
1441.169, 59.728
1442.355, 55.224
1443.542, 66.486
1444.728, 73.412
1445.914, 82.989
1447.100, 105.455
1448.286, 65.016
1449.472, 88.568
1450.657, 67.307
1451.842, 79.703
1453.027, 60.795
1454.212, 68.271
1455.397, 45.613
1456.581, 45.855
1457.766, 58.723
1458.950, 42.506
1460.134, 77.827
1461.318, 41.113
1462.501, 54.415
1463.685, 83.688
1464.868, 37.930
1466.051, 81.092
1467.234, 74.273
1468.417, 61.424
1469.600, 63.561
1470.782, 54.884
1471.965, 53.138
1473.147, 44.978
1474.329, 44.084
1475.510, 38.121
1476.692, 19.196
1477.873, 18.282
1479.055, 25.435
1480.236, 56.581
1481.416, 10.793
1482.597, 33.000
1483.778, 35.241
1484.958, 24.501
1486.138, 27.742
1487.318, 21.462
1488.498, 28.247
1489.678, 17.513
1490.857, 24.822
1492.037, 36.159
1493.216, 65.496
1494.395, 15.837
1495.574, 39.189
1496.752, 16.556
1497.931, 68.942
1499.109, 9.352
1500.287, 20.795
1501.465, 6.727
1502.643, 20.784
1503.820, 21.328
1504.998, 24.905
1506.175, 16.524
1507.352, 23.187
1508.529, 29.897
1509.706, 22.664
1510.882, 12.497
1512.059, 8.407
1513.235, 55.144
1514.411, 6.410
1515.587, 36.542
1516.762, 14.428
1517.938, 23.845
1519.113, 0.241
1520.288, 23.764
1521.463, 10.055
1522.638, 0.000
##END=



