##NAMES=Celestine
##RRUFFID=R040007
##IDEAL CHEMISTRY=SrS^6+^O_4_
##LOCALITY=Coahuila, Mexico
##OWNER=RRUFF
##SOURCE=University of Arizona Mineral Museum
##DESCRIPTION=Blue tabular crystals
##STATUS=The identification of this mineral has been confirmed by X-ray diffraction and chemical analysis
##URL=rruff.info/R040007
##MEASURED CHEMISTRY=(Sr_0.95_Ba_0.04_Ca_0.01_)_Σ=1_S_1.00_O_4_; = Light bands. (Sr_0.99_Ba_0.01_)_Σ=1_S_1.00_O_4_; trace amounts of Ca = Dark bands
##PIN_ID=M00014
##ORIENTATION=Laser parallel to a* (1 0 0). Fiducial mark perpendicular to laser is parallel to b [0 1 0]
51.466, 0.000
52.866, 2.202
54.266, 15.060
55.666, 28.790
57.065, 12.704
58.464, 0.056
59.863, 2.112
61.262, 2.067
62.661, 4.409
64.059, 6.549
65.458, 15.986
66.856, 23.954
68.253, 52.305
69.651, 82.580
71.048, 114.998
72.445, 170.274
73.842, 230.803
75.239, 311.561
76.635, 386.529
78.031, 517.688
79.427, 737.022
80.823, 1070.519
82.218, 1521.165
83.614, 1921.951
85.009, 2240.867
86.404, 2206.907
87.798, 1920.061
89.193, 1557.324
90.587, 1320.689
91.981, 1183.152
93.375, 1079.709
94.768, 956.353
96.161, 823.077
97.554, 715.874
98.947, 627.742
100.340, 546.676
101.732, 486.908
103.124, 460.729
104.516, 405.842
105.908, 384.008
107.300, 374.225
108.691, 342.493
110.082, 342.807
111.473, 305.168
112.864, 333.572
114.254, 737.019
115.644, 717.510
117.034, 543.044
118.424, 361.618
119.813, 303.238
121.203, 314.894
122.592, 303.588
123.981, 285.315
125.369, 286.076
126.758, 301.869
128.146, 294.695
129.534, 293.556
130.922, 282.458
132.309, 273.406
133.696, 245.392
135.083, 260.403
136.470, 214.411
137.857, 208.425
139.243, 225.441
140.630, 238.471
142.016, 198.520
143.401, 208.582
144.787, 215.657
146.172, 175.753
147.557, 186.869
148.942, 177.999
150.327, 185.143
151.711, 204.300
153.096, 189.471
154.480, 208.655
155.863, 199.854
157.247, 194.069
158.630, 205.300
160.013, 222.544
161.396, 240.803
162.779, 274.076
164.161, 299.365
165.544, 353.667
166.926, 405.985
168.308, 410.317
169.689, 369.663
171.070, 383.025
172.452, 332.400
173.833, 268.790
175.213, 210.195
176.594, 203.613
177.974, 196.046
179.354, 149.719
180.734, 170.177
182.114, 151.648
183.493, 167.134
184.872, 144.847
186.251, 135.566
187.630, 146.088
189.008, 141.677
190.387, 139.224
191.765, 130.875
193.143, 137.630
194.520, 163.034
195.898, 151.636
197.275, 169.255
198.652, 179.898
200.029, 172.558
201.405, 130.234
202.782, 106.923
204.158, 120.624
205.534, 124.442
206.909, 125.324
208.285, 106.444
209.660, 117.183
211.035, 112.869
212.410, 94.622
213.784, 119.784
215.159, 89.883
216.533, 97.759
217.907, 103.730
219.281, 72.740
220.654, 61.777
222.027, 73.287
223.400, 83.369
224.773, 88.321
226.146, 71.041
227.518, 47.162
228.891, 78.171
230.263, 59.663
231.634, 80.331
233.006, 80.667
234.377, 61.407
235.748, 57.800
237.119, 61.476
238.490, 70.106
239.860, 38.102
241.231, 67.957
242.601, 41.626
243.970, 43.163
245.340, 70.720
246.709, 45.296
248.079, 42.097
249.448, 27.709
250.816, 26.265
252.185, 56.983
253.553, 31.643
254.921, 38.319
256.289, 44.010
257.657, 32.715
259.024, 65.434
260.391, 19.393
261.758, 34.138
263.125, 56.895
264.492, 59.666
265.858, 46.448
267.224, 29.242
268.590, 27.048
269.956, 30.864
271.321, 51.692
272.687, 42.531
274.052, 17.380
275.416, 57.240
276.781, 28.110
278.146, 32.989
279.510, 44.879
280.874, 44.778
282.237, 47.687
283.601, 40.604
284.964, 16.531
286.327, 27.467
287.690, 30.411
289.053, 20.364
290.416, 35.325
291.778, 18.294
293.140, 20.272
294.502, 16.258
295.863, 23.251
297.225, 27.252
298.586, 25.260
299.947, 56.275
301.308, 11.298
302.668, 14.329
304.029, 32.366
305.389, 9.589
306.749, 17.462
308.108, 19.520
309.468, 17.586
310.827, 23.658
312.186, 14.737
313.545, 3.824
314.903, 33.917
316.262, 8.984
317.620, 24.122
318.978, 8.765
320.336, 13.353
321.693, 39.534
323.051, 3.335
324.408, 26.802
325.765, 21.946
327.121, 30.096
328.478, 4.748
329.834, 15.414
331.190, 10.582
332.546, 9.756
333.902, 19.019
335.257, 23.205
336.612, 8.679
337.967, 17.876
339.322, 10.502
340.677, 13.730
342.031, 12.411
343.385, 11.328
344.739, 11.864
346.093, 11.389
347.446, 10.633
348.799, 16.870
350.153, 18.691
351.505, 16.940
352.858, 6.195
354.210, 2.455
355.563, 13.720
356.915, 4.010
358.267, 9.264
359.618, 5.457
360.969, 14.826
362.321, 10.886
363.672, 30.405
365.022, 36.703
366.373, 16.995
367.723, 7.690
369.073, 13.618
370.423, 28.932
371.773, 10.751
373.122, 0.924
374.471, 1.757
375.821, 7.434
377.169, 18.892
378.518, 2.781
379.866, 5.550
381.215, 16.889
382.563, 29.237
383.910, 11.407
385.258, 4.952
386.605, 1.321
387.952, 13.301
389.299, 2.080
390.646, 17.526
391.992, 8.980
393.339, 8.528
394.685, 21.012
396.031, 8.579
397.376, 2.833
398.722, 5.748
400.067, 3.839
401.412, 11.411
402.757, 7.753
404.101, 2.543
405.446, 5.891
406.790, 9.334
408.134, 11.795
409.478, 3.518
410.821, 11.940
412.165, 9.972
413.508, 5.869
414.851, 14.340
416.193, 6.817
417.536, 5.298
418.878, 9.785
420.220, 19.276
421.562, 3.229
422.904, 12.268
424.245, 43.769
425.586, 31.275
426.927, 20.784
428.268, 27.299
429.609, 27.817
430.949, 28.339
432.289, 33.865
433.629, 52.395
434.969, 74.931
436.309, 102.470
437.648, 81.013
438.987, 160.560
440.326, 194.110
441.665, 230.664
443.003, 344.224
444.342, 501.787
445.680, 690.354
447.018, 1129.924
448.355, 1622.497
449.693, 2437.074
451.030, 3129.653
452.367, 3569.235
453.704, 3042.821
455.041, 2467.409
456.377, 1731.000
457.713, 1316.594
459.049, 1082.191
460.385, 851.791
461.721, 696.400
463.056, 537.012
464.391, 386.628
465.726, 324.247
467.061, 221.694
468.395, 166.319
469.730, 165.947
471.064, 65.577
472.398, 91.209
473.731, 60.844
475.065, 62.483
476.398, 56.125
477.731, 59.597
479.064, 26.243
480.397, 14.721
481.729, 4.375
483.062, 26.030
484.394, 19.643
485.725, 16.303
487.057, 20.964
488.389, 16.627
489.720, 21.218
491.051, 35.890
492.382, 12.565
493.712, 4.241
495.043, 16.918
496.373, 0.399
497.703, 20.284
499.032, 3.032
500.362, 7.650
501.691, 3.667
503.020, 18.986
504.349, 17.685
505.678, 14.383
507.007, 9.059
508.335, 5.261
509.663, 27.417
510.991, 28.126
512.319, 31.807
513.646, 40.163
514.973, 31.376
516.300, 34.061
517.627, 31.648
518.954, 32.696
520.280, 27.872
521.607, 36.642
522.933, 43.966
524.259, 43.549
525.584, 21.977
526.910, 39.027
528.235, 21.813
529.560, 25.068
530.885, 31.699
532.209, 0.895
533.534, 36.817
534.858, 21.503
536.182, 11.143
537.506, 15.857
538.829, 11.542
540.152, 18.241
541.476, 18.223
542.799, 29.944
544.121, 31.203
545.444, 24.354
546.766, 16.588
548.088, 11.747
549.410, 10.470
550.732, 2.956
552.053, 7.101
553.375, 3.777
554.696, 13.742
556.017, 34.088
557.337, 41.953
558.658, 3.583
559.978, 25.417
561.298, 42.606
562.618, 13.041
563.938, 20.516
565.257, 29.973
566.576, 0.695
567.895, 26.400
569.214, 33.171
570.533, 47.875
571.851, 44.579
573.170, 24.283
574.488, 37.083
575.805, 21.786
577.123, 22.664
578.440, 31.366
579.758, 42.067
581.075, 37.541
582.391, 69.241
583.708, 44.940
585.024, 77.639
586.341, 54.498
587.657, 63.195
588.972, 56.950
590.288, 63.686
591.603, 76.386
592.918, 84.468
594.233, 116.161
595.548, 102.853
596.863, 90.682
598.177, 105.372
599.491, 133.061
600.805, 130.409
602.119, 184.096
603.432, 173.781
604.746, 245.466
606.059, 242.149
607.372, 308.831
608.685, 392.512
609.997, 517.194
611.309, 721.871
612.621, 998.548
613.933, 1527.224
615.245, 2252.898
616.557, 2852.570
617.868, 3078.241
619.179, 2816.519
620.490, 2334.187
621.801, 1945.994
623.111, 1650.062
624.421, 1356.726
625.731, 991.388
627.041, 796.049
628.351, 621.717
629.660, 585.381
630.970, 613.037
632.279, 692.238
633.588, 875.953
634.896, 1152.603
636.205, 1427.252
637.513, 1496.898
638.821, 1288.225
640.129, 855.812
641.437, 558.455
642.744, 359.095
644.051, 272.733
645.358, 174.369
646.665, 108.134
647.972, 110.854
649.278, 88.484
650.584, 54.127
651.890, 99.670
653.196, 61.357
654.502, 59.696
655.807, 48.315
657.113, 39.510
658.418, 54.105
659.722, 19.265
661.027, 49.571
662.331, 14.179
663.636, 57.492
664.940, 18.086
666.244, 61.780
667.547, 14.378
668.851, 27.100
670.154, 5.693
671.457, 19.321
672.760, 25.907
674.062, 18.523
675.365, 27.105
676.667, 39.684
677.969, 11.262
679.271, 36.260
680.572, 2.951
681.874, 19.824
683.175, 33.826
684.476, 4.205
685.777, 0.235
687.077, 27.316
688.378, 31.865
689.678, 23.057
690.978, 17.602
692.278, 8.144
693.577, 36.683
694.877, 16.566
696.176, 45.100
697.475, 5.631
698.774, 37.906
700.072, 28.429
701.371, 1.951
702.669, 0.467
703.967, 28.975
705.265, 32.483
706.562, 30.982
707.860, 14.671
709.157, 7.767
710.454, 6.119
711.751, 27.603
713.047, 10.085
714.344, 29.564
715.640, 0.554
716.936, 42.216
718.232, 43.686
719.527, 57.148
720.823, 4.385
722.118, 18.073
723.413, 33.282
724.708, 3.734
726.002, 26.182
727.297, 23.627
728.591, 43.070
729.885, 10.510
731.179, 25.946
732.472, 6.380
733.766, 58.809
735.059, 59.235
736.352, 41.659
737.645, 39.081
738.937, 30.501
740.230, 34.149
741.522, 6.332
742.814, 47.742
744.106, 12.150
745.397, 13.554
746.689, 17.955
747.980, 0.354
749.271, 25.746
750.562, 34.136
751.853, 6.523
753.143, 22.906
754.433, 36.287
755.723, 4.335
757.013, 44.035
758.303, 23.403
759.592, 18.767
760.881, 26.130
762.170, 23.490
763.459, 19.847
764.748, 17.203
766.036, 19.247
767.325, 22.651
768.613, 19.253
769.901, 37.599
771.188, 26.942
772.476, 38.282
773.763, 20.379
775.050, 29.943
776.337, 4.263
777.624, 1.421
778.910, 19.889
780.196, 25.197
781.482, 16.503
782.768, 13.806
784.054, 14.107
785.339, 15.406
786.625, 4.298
787.910, 6.992
789.195, 23.278
790.479, 42.563
791.764, 21.845
793.048, 6.875
794.332, 18.397
795.616, 31.668
796.900, 56.936
798.183, 27.202
799.467, 38.467
800.750, 1.729
802.033, 14.012
803.316, 35.235
804.598, 9.480
805.880, 40.724
807.163, 14.034
808.445, 39.197
809.726, 17.427
811.008, 40.655
812.289, 13.884
813.570, 8.110
814.851, 45.337
816.132, 55.568
817.413, 9.228
818.693, 28.993
819.973, 8.789
821.253, 17.425
822.533, 0.393
823.813, 14.817
825.092, 2.820
826.371, 38.026
827.650, 3.231
828.929, 25.433
830.208, 21.635
831.486, 11.834
832.764, 6.048
834.042, 2.855
835.320, 19.023
836.598, 6.858
837.875, 28.931
839.152, 16.901
840.429, 38.517
841.706, 45.673
842.983, 30.829
844.259, 32.984
845.536, 24.110
846.812, 19.071
848.088, 6.776
849.363, 34.328
850.639, 9.476
851.914, 13.641
853.189, 29.498
854.464, 17.636
855.739, 71.346
857.013, 16.973
858.288, 7.109
859.562, 31.244
860.836, 40.379
862.110, 6.063
863.383, 52.995
864.656, 32.886
865.930, 21.021
867.203, 58.011
868.475, 34.144
869.748, 7.189
871.020, 1.945
872.292, 30.078
873.564, 37.215
874.836, 47.982
876.108, 49.786
877.379, 54.863
878.650, 39.729
879.922, 21.868
881.192, 13.006
882.463, 19.144
883.733, 9.186
885.004, 29.324
886.274, 16.289
887.544, 24.370
888.813, 39.570
890.083, 33.715
891.352, 38.860
892.621, 45.006
893.890, 41.152
895.159, 34.139
896.427, 58.289
897.695, 64.380
898.964, 60.491
900.232, 65.638
901.499, 42.402
902.767, 86.554
904.034, 52.707
905.301, 57.723
906.568, 79.879
907.835, 36.043
909.102, 42.547
910.368, 26.713
911.634, 62.879
912.900, 37.046
914.166, 103.214
915.432, 38.383
916.697, 66.553
917.962, 88.721
919.227, 70.893
920.492, 77.065
921.757, 81.981
923.021, 88.413
924.285, 89.589
925.550, 85.766
926.813, 89.336
928.077, 95.515
929.341, 81.555
930.604, 79.333
931.867, 79.516
933.130, 46.701
934.393, 79.888
935.655, 63.069
936.918, 109.253
938.180, 50.444
939.442, 98.091
940.703, 87.223
941.965, 81.420
943.226, 99.619
944.488, 112.819
945.749, 102.340
947.009, 105.544
948.270, 111.749
949.530, 83.956
950.791, 126.165
952.051, 143.375
953.311, 112.456
954.570, 185.583
955.830, 187.799
957.089, 175.002
958.348, 149.222
959.607, 162.381
960.866, 141.605
962.124, 181.830
963.383, 244.058
964.641, 199.289
965.899, 224.507
967.156, 224.741
968.414, 229.978
969.671, 273.508
970.928, 280.749
972.185, 327.325
973.442, 401.571
974.699, 396.692
975.955, 408.943
977.211, 401.158
978.468, 451.414
979.723, 458.640
980.979, 529.903
982.234, 614.168
983.490, 663.435
984.745, 745.283
986.000, 858.428
987.254, 1049.496
988.509, 1251.342
989.763, 1678.391
991.017, 2180.797
992.271, 3094.095
993.525, 4496.397
994.779, 7183.708
996.032, 13143.090
997.285, 27183.412
998.538, 48947.734
999.791, 61705.711
1001.044, 47960.047
1002.296, 25351.381
1003.548, 12164.971
1004.800, 6785.314
1006.052, 4213.659
1007.304, 2807.010
1008.555, 2085.365
1009.807, 1574.726
1011.058, 1298.090
1012.309, 1084.456
1013.559, 867.833
1014.810, 724.212
1016.060, 660.596
1017.310, 587.983
1018.560, 561.373
1019.810, 493.766
1021.060, 437.976
1022.309, 389.379
1023.558, 375.786
1024.807, 320.195
1026.056, 338.611
1027.305, 306.030
1028.553, 260.452
1029.801, 257.046
1031.049, 217.478
1032.297, 215.913
1033.545, 206.352
1034.793, 160.793
1036.040, 165.596
1037.287, 215.053
1038.534, 151.514
1039.781, 154.019
1041.027, 116.485
1042.274, 159.955
1043.520, 162.427
1044.766, 109.949
1046.012, 71.126
1047.257, 79.611
1048.503, 68.099
1049.748, 89.590
1050.993, 89.084
1052.238, 113.584
1053.483, 86.087
1054.727, 57.593
1055.971, 47.564
1057.216, 43.234
1058.459, 45.212
1059.703, 44.769
1060.947, 65.297
1062.190, 56.828
1063.433, 91.362
1064.676, 72.898
1065.919, 73.436
1067.162, 86.978
1068.404, 37.526
1069.646, 44.077
1070.888, 56.631
1072.130, 63.188
1073.372, 87.776
1074.613, 94.338
1075.855, 16.907
1077.096, 60.488
1078.337, 73.073
1079.578, 27.662
1080.818, 103.256
1082.059, 68.852
1083.299, 123.767
1084.539, 115.526
1085.779, 123.129
1087.018, 208.735
1088.258, 257.342
1089.497, 265.955
1090.736, 423.570
1091.975, 528.189
1093.213, 685.810
1094.452, 763.433
1095.690, 532.062
1096.928, 403.694
1098.166, 329.327
1099.404, 251.963
1100.642, 189.601
1101.879, 135.242
1103.116, 164.885
1104.353, 178.536
1105.590, 197.189
1106.827, 286.845
1108.063, 355.503
1109.299, 364.168
1110.536, 352.835
1111.771, 356.504
1113.007, 286.175
1114.243, 184.848
1115.478, 178.524
1116.713, 95.201
1117.948, 52.880
1119.183, 87.565
1120.418, 63.251
1121.652, 59.013
1122.886, 49.766
1124.120, 42.461
1125.354, 36.159
1126.588, 29.858
1127.821, 23.119
1129.055, 19.617
1130.288, 10.322
1131.521, 13.049
1132.753, 6.757
1133.986, 5.531
1135.218, 18.211
1136.450, 0.018
1137.682, 18.973
1138.914, 6.245
1140.146, 17.527
1141.377, 4.279
1142.609, 8.910
1143.840, 3.868
1145.071, 14.864
1146.301, 10.933
1147.532, 24.332
1148.762, 23.819
1149.992, 60.557
1151.222, 79.296
1152.452, 112.040
1153.682, 106.831
1154.911, 192.588
1156.140, 213.334
1157.369, 282.696
1158.598, 292.490
1159.827, 318.238
1161.055, 323.009
1162.284, 299.758
1163.512, 230.508
1164.740, 204.258
1165.967, 142.010
1167.195, 153.782
1168.422, 101.041
1169.650, 82.808
1170.877, 95.561
1172.103, 117.314
1173.330, 38.099
1174.557, 41.929
1175.783, 38.682
1177.009, 5.912
1178.235, 45.963
1179.461, 54.715
1180.686, 45.468
1181.912, 5.220
1183.137, 9.609
1184.362, 27.917
1185.587, 0.764
1186.811, 20.488
1188.036, 18.251
1189.260, 28.989
1190.484, 15.728
1191.708, 1.485
1192.932, 14.277
1194.155, 4.632
1195.378, 4.505
1196.602, 4.238
1197.825, 11.071
1199.047, 29.083
1200.270, 18.811
1201.492, 3.725
1202.715, 9.525
1203.937, 27.804
1205.159, 6.142
1206.380, 0.152
1207.602, 23.552
1208.823, 14.255
1210.044, 14.957
1211.265, 6.658
1212.486, 18.359
1213.707, 10.917
1214.927, 26.834
1216.147, 18.536
1217.367, 10.446
1218.587, 40.146
1219.807, 0.961
1221.027, 46.703
1222.246, 12.295
1223.465, 35.619
1224.684, 32.777
1225.903, 42.547
1227.121, 32.259
1228.340, 43.950
1229.558, 3.361
1230.776, 0.676
1231.994, 14.005
1233.212, 57.685
1234.429, 60.394
1235.646, 52.071
1236.864, 68.556
1238.081, 39.715
1239.297, 68.388
1240.514, 63.061
1241.730, 59.798
1242.947, 105.470
1244.163, 31.227
1245.378, 60.917
1246.594, 32.588
1247.810, 42.275
1249.025, 48.990
1250.240, 50.715
1251.455, 52.278
1252.670, 26.178
1253.885, 46.920
1255.099, 31.584
1256.313, 24.255
1257.527, 40.916
1258.741, 44.576
1259.955, 68.236
1261.168, 47.887
1262.382, 49.232
1263.595, 36.176
1264.808, 21.847
1266.021, 28.481
1267.233, 5.110
1268.446, 6.737
1269.658, 28.362
1270.870, 21.982
1272.082, 24.601
1273.294, 69.218
1274.505, 0.167
1275.716, 59.445
1276.928, 16.052
1278.139, 23.658
1279.349, 22.261
1280.560, 14.772
1281.770, 10.367
1282.981, 15.044
1284.191, 55.952
1285.401, 11.408
1286.610, 16.975
1287.820, 24.460
1289.029, 1.910
1290.239, 49.571
1291.448, 73.110
1292.656, 84.647
1293.865, 5.819
1295.073, 49.701
1296.282, 25.219
1297.490, 59.734
1298.698, 13.247
1299.906, 21.750
1301.113, 53.249
1302.320, 3.256
1303.528, 14.222
1304.735, 30.692
1305.942, 20.159
1307.148, 63.624
1308.355, 28.085
1309.561, 50.544
1310.767, 25.997
1311.973, 21.446
1313.179, 1.108
1314.384, 23.332
1315.590, 38.769
1316.795, 63.200
1318.000, 19.627
1319.205, 12.050
1320.410, 52.469
1321.614, 3.116
1322.819, 8.127
1324.023, 45.531
1325.227, 52.931
1326.431, 55.328
1327.634, 15.279
1328.838, 5.248
1330.041, 10.145
1331.244, 38.517
1332.447, 39.898
1333.650, 39.209
1334.852, 46.570
1336.055, 15.928
1337.257, 0.766
1338.459, 4.887
1339.661, 6.231
1340.862, 26.571
1342.064, 8.908
1343.265, 2.242
1344.466, 41.572
1345.667, 4.899
1346.868, 22.223
1348.068, 57.084
1349.269, 14.212
1350.469, 27.100
1351.669, 37.379
1352.869, 47.687
1354.069, 58.715
1355.268, 55.297
1356.468, 50.600
1357.667, 16.933
1358.866, 10.766
1360.065, 31.566
1361.263, 3.879
1362.462, 59.174
1363.660, 8.468
1364.858, 17.734
1366.056, 7.971
1367.254, 3.679
1368.451, 1.021
1369.649, 12.904
1370.846, 24.197
1372.043, 29.575
1373.240, 36.985
1374.436, 37.565
1375.633, 39.622
1376.829, 30.824
1378.025, 21.373
1379.221, 31.217
1380.417, 14.546
1381.613, 3.622
1382.808, 34.141
1384.003, 30.657
1385.199, 15.169
1386.393, 50.677
1387.588, 13.180
1388.783, 25.679
1389.977, 38.173
1391.171, 26.663
1392.365, 20.149
1393.559, 17.684
1394.753, 25.110
1395.946, 12.584
1397.140, 15.910
1398.333, 35.375
1399.526, 30.837
1400.719, 46.887
1401.911, 62.313
1403.104, 44.727
1404.296, 58.539
1405.488, 63.917
1406.680, 77.012
1407.872, 20.812
1409.063, 82.204
1410.255, 37.654
1411.446, 62.028
1412.637, 58.323
1413.828, 58.895
1415.018, 61.189
1416.209, 34.510
1417.399, 52.856
1418.589, 39.171
1419.779, 81.799
1420.969, 52.127
1422.159, 86.303
1423.348, 38.702
1424.537, 57.837
1425.726, 60.141
1426.915, 35.225
1428.104, 90.343
1429.293, 51.615
1430.481, 85.809
1431.669, 77.077
1432.857, 64.106
1434.045, 62.744
1435.233, 63.686
1436.420, 80.886
1437.608, 60.104
1438.795, 57.337
1439.982, 79.567
1441.169, 59.722
1442.355, 71.131
1443.542, 53.938
1444.728, 36.818
1445.914, 69.195
1447.100, 58.304
1448.286, 107.354
1449.472, 89.438
1450.657, 97.523
1451.842, 145.541
1453.027, 94.020
1454.212, 94.068
1455.397, 62.964
1456.581, 125.753
1457.766, 130.704
1458.950, 63.447
1460.134, 96.104
1461.318, 59.851
1462.501, 51.735
1463.685, 103.615
1464.868, 96.506
1466.051, 101.342
1467.234, 76.260
1468.417, 42.168
1469.600, 78.076
1470.782, 83.962
1471.965, 12.837
1473.147, 72.699
1474.329, 78.565
1475.510, 36.451
1476.692, 41.363
1477.873, 82.270
1479.055, 36.187
1480.236, 122.102
1481.416, 42.057
1482.597, 47.996
1483.778, 66.979
1484.958, 35.010
1486.138, 51.113
1487.318, 101.217
1488.498, 52.334
1489.678, 42.467
1490.857, 78.618
1492.037, 51.797
1493.216, 39.008
1494.395, 68.244
1495.574, 54.509
1496.752, 52.802
1497.931, 72.037
1499.109, 11.405
1500.287, 105.818
1501.465, 13.717
1502.643, 15.805
1503.820, 73.392
1504.998, 60.043
1506.175, 38.762
1507.352, 69.559
1508.529, 53.444
1509.706, 43.429
1510.882, 47.535
1512.059, 60.389
1513.235, 56.914
1514.411, 57.465
1515.587, 23.611
1516.762, 39.060
1517.938, 74.276
1519.113, 27.649
1520.288, 102.049
1521.463, 0.231
1522.638, 0.000
##END=



