##NAMES=Celestine
##RRUFFID=R050008
##IDEAL CHEMISTRY=SrS^6+^O_4_
##LOCALITY=Scofield Quarry, Maybee, Monroe County, Michigan, USA
##OWNER=RRUFF
##SOURCE=Eugene Schlepp
##DESCRIPTION=Pale blue tabular crystals
##STATUS=The identification of this mineral has been confirmed by X-ray diffraction and chemical analysis
##URL=rruff.info/R050008
##MEASURED CHEMISTRY=Sr_1.00_S_1.00_O_4_
##PIN_ID=M00310
##ORIENTATION=Laser parallel to -a* (-1 0 0). Fiducial mark perpendicular to laser is parallel to b [0 1 0]
50.167, 0.000
51.575, 37.043
52.984, 53.454
54.392, 32.493
55.799, 63.620
57.207, 90.811
58.614, 101.335
60.021, 94.448
61.428, 159.509
62.834, 129.522
64.240, 179.137
65.646, 190.074
67.052, 212.305
68.458, 162.951
69.863, 138.157
71.268, 78.034
72.673, 75.743
74.077, 77.400
75.481, 57.780
76.885, 30.960
78.289, 32.239
79.693, 43.198
81.096, 0.439
82.499, 4.927
83.902, 31.681
85.304, 72.534
86.706, 152.987
88.108, 302.449
89.510, 403.968
90.912, 323.652
92.313, 266.423
93.714, 136.965
95.115, 91.995
96.515, 66.112
97.916, 49.806
99.316, 29.298
100.715, 28.926
102.115, 29.665
103.514, 2.560
104.913, 1.734
106.312, 5.831
107.711, 28.857
109.109, 24.138
110.507, 4.220
111.905, 12.788
113.303, 16.885
114.700, 10.931
116.097, 47.938
117.494, 57.876
118.891, 47.889
120.287, 45.031
121.683, 70.758
123.079, 101.284
124.475, 163.009
125.870, 199.190
127.265, 219.063
128.660, 237.000
130.055, 163.780
131.449, 149.671
132.843, 137.535
134.237, 99.487
135.631, 63.680
137.024, 72.337
138.417, 57.734
139.810, 44.364
141.203, 65.073
142.596, 30.585
143.988, 29.710
145.380, 26.791
146.771, 22.284
148.163, 34.253
149.554, 22.712
150.945, 21.780
152.336, 2.669
153.726, 32.457
155.117, 25.077
156.507, 25.583
157.896, 30.160
159.286, 29.570
160.675, 39.015
162.064, 54.566
163.453, 67.964
164.842, 74.361
166.230, 78.590
167.618, 151.916
169.006, 207.165
170.393, 290.427
171.781, 329.552
173.168, 310.572
174.555, 237.614
175.941, 171.499
177.328, 132.396
178.714, 91.292
180.100, 85.112
181.485, 58.933
182.871, 32.816
184.256, 23.685
185.641, 17.452
187.025, 29.088
188.410, 2.348
189.794, 47.436
191.178, 16.030
192.562, 2.551
193.945, 22.147
195.328, 22.801
196.711, 18.374
198.094, 0.987
199.476, 13.588
200.859, 4.874
202.241, 3.601
203.623, 15.096
205.004, 16.528
206.385, 6.143
207.766, 19.779
209.147, 4.661
210.528, 2.041
211.908, 9.686
213.288, 7.433
214.668, 6.209
216.048, 10.046
217.427, 6.222
218.806, 17.356
220.185, 18.432
221.564, 6.562
222.942, 9.694
224.320, 1.117
225.698, 0.899
227.076, 6.648
228.453, 8.364
229.830, 12.049
231.207, 2.699
232.584, 8.308
233.960, 9.137
235.337, 20.379
236.713, 15.864
238.088, 17.318
239.464, 20.756
240.839, 19.148
242.214, 2.507
243.589, 16.818
244.964, 26.073
246.338, 5.297
247.712, 9.373
249.086, 25.087
250.459, 8.170
251.833, 26.230
253.206, 15.268
254.579, 32.285
255.951, 17.284
257.324, 26.259
258.696, 36.212
260.068, 44.139
261.439, 32.038
262.811, 25.909
264.182, 36.748
265.553, 35.506
266.924, 49.223
268.294, 35.896
269.665, 39.107
271.035, 22.515
272.404, 31.449
273.774, 34.010
275.143, 36.531
276.512, 22.883
277.881, 42.279
279.250, 53.396
280.618, 26.762
281.986, 27.295
283.354, 32.834
284.721, 32.322
286.089, 36.765
287.456, 34.237
288.823, 28.692
290.190, 50.123
291.556, 32.530
292.922, 50.918
294.288, 46.270
295.654, 41.590
297.019, 47.882
298.385, 51.147
299.750, 62.383
301.114, 63.488
302.479, 43.591
303.843, 42.612
305.207, 59.563
306.571, 47.586
307.935, 63.399
309.298, 51.196
310.661, 53.956
312.024, 44.647
313.387, 42.418
314.749, 42.470
316.111, 40.784
317.473, 43.898
318.835, 50.647
320.196, 57.325
321.558, 57.003
322.919, 65.713
324.279, 58.412
325.640, 40.184
327.000, 34.014
328.360, 56.892
329.720, 50.790
331.080, 59.699
332.439, 58.640
333.798, 46.572
335.157, 52.497
336.516, 36.416
337.874, 46.327
339.232, 40.288
340.590, 55.129
341.948, 40.021
343.305, 36.907
344.662, 46.787
346.019, 39.517
347.376, 47.194
348.733, 41.757
350.089, 47.254
351.445, 49.856
352.801, 40.709
354.156, 44.400
355.512, 62.873
356.867, 50.028
358.222, 52.560
359.576, 45.095
360.931, 49.590
362.285, 46.556
363.639, 19.991
364.992, 60.720
366.346, 55.944
367.699, 45.396
369.052, 25.408
370.405, 45.076
371.757, 39.894
373.110, 41.171
374.462, 36.113
375.814, 42.580
377.165, 44.196
378.516, 42.895
379.868, 37.362
381.218, 44.063
382.569, 24.054
383.920, 31.966
385.270, 26.612
386.620, 43.051
387.969, 40.153
389.319, 53.233
390.668, 40.490
392.017, 46.268
393.366, 43.081
394.714, 47.206
396.063, 45.456
397.411, 45.709
398.759, 50.069
400.106, 47.384
401.454, 23.703
402.801, 33.043
404.148, 42.362
405.495, 31.423
406.841, 52.709
408.187, 40.079
409.533, 46.316
410.879, 48.914
412.224, 56.248
413.570, 58.377
414.915, 49.897
416.260, 59.133
417.604, 55.235
418.949, 45.480
420.293, 75.804
421.637, 91.159
422.980, 82.542
424.324, 94.870
425.667, 86.165
427.010, 93.053
428.353, 113.841
429.695, 109.225
431.037, 114.550
432.379, 133.888
433.721, 147.056
435.063, 159.448
436.404, 196.765
437.745, 236.086
439.086, 271.342
440.427, 353.690
441.767, 379.097
443.108, 546.390
444.448, 657.685
445.787, 856.001
447.127, 1169.315
448.466, 1535.646
449.805, 2402.963
451.144, 3401.254
452.482, 5617.633
453.821, 8459.937
455.159, 10927.312
456.497, 11966.671
457.834, 8654.010
459.172, 5971.370
460.509, 3779.744
461.846, 2367.163
463.183, 1815.586
464.519, 1224.926
465.856, 1006.261
467.192, 769.667
468.527, 635.023
469.863, 511.446
471.198, 410.818
472.534, 344.204
473.868, 277.552
475.203, 227.892
476.538, 228.235
477.872, 188.573
479.206, 170.933
480.540, 153.321
481.873, 115.740
483.206, 122.162
484.539, 98.618
485.872, 95.049
487.205, 111.405
488.537, 78.736
489.869, 59.162
491.201, 76.564
492.533, 67.003
493.864, 46.439
495.196, 83.823
496.527, 32.233
497.857, 52.576
499.188, 39.960
500.518, 37.319
501.848, 64.741
503.178, 44.100
504.508, 41.446
505.837, 51.834
507.166, 50.193
508.495, 42.584
509.824, 41.956
511.153, 60.352
512.481, 68.787
513.809, 53.165
515.137, 53.560
516.464, 34.002
517.792, 31.427
519.119, 46.865
520.446, 30.273
521.772, 49.703
523.099, 59.126
524.425, 32.441
525.751, 44.894
527.077, 27.369
528.402, 43.812
529.728, 30.188
531.053, 11.701
532.377, 18.170
533.702, 35.666
535.027, 39.118
536.351, 7.649
537.675, 10.144
538.998, 0.643
540.322, 0.438
541.645, 17.646
542.968, 17.108
544.291, 18.619
545.613, 35.116
546.936, 15.649
548.258, 15.189
549.580, 24.740
550.902, 0.283
552.223, 19.857
553.544, 8.404
554.865, 20.937
556.186, 29.490
557.507, 28.044
558.827, 12.910
560.147, 3.467
561.467, 12.011
562.786, 3.962
564.106, 6.550
565.425, 5.113
566.744, 0.842
568.063, 5.754
569.381, 14.166
570.700, 5.401
572.018, 7.028
573.335, 11.753
574.653, 13.448
575.970, 20.827
577.288, 27.142
578.604, 0.271
579.921, 2.622
581.238, 3.200
582.554, 18.768
583.870, 16.337
585.186, 21.113
586.501, 0.185
587.817, 18.861
589.132, 20.482
590.447, 5.053
591.761, 11.638
593.076, 9.211
594.390, 0.817
595.704, 15.566
597.018, 13.141
598.331, 18.716
599.645, 32.138
600.958, 31.803
602.271, 38.234
603.583, 34.811
604.896, 24.126
606.208, 50.853
607.520, 74.431
608.832, 84.010
610.143, 77.589
611.455, 135.169
612.766, 190.015
614.077, 231.897
615.387, 367.477
616.698, 553.057
618.008, 835.638
619.318, 1205.218
620.628, 1380.798
621.937, 1424.379
623.247, 1185.959
624.556, 1001.539
625.865, 945.174
627.173, 750.754
628.482, 574.334
629.790, 367.915
631.098, 270.495
632.405, 181.128
633.713, 140.943
635.020, 115.523
636.327, 126.728
637.634, 121.308
638.941, 173.912
640.247, 189.231
641.553, 198.023
642.859, 137.602
644.165, 125.180
645.471, 74.759
646.776, 67.337
648.081, 70.915
649.386, 36.579
650.691, 47.156
651.995, 54.732
653.299, 69.309
654.603, 40.885
655.907, 78.460
657.210, 94.036
658.514, 97.611
659.817, 50.229
661.120, 74.803
662.422, 27.429
663.725, 35.003
665.027, 18.577
666.329, 7.150
667.630, 17.723
668.932, 0.295
670.233, 19.867
671.534, 15.438
672.835, 23.009
674.136, 31.579
675.436, 15.149
676.737, 22.163
678.036, 14.381
679.336, 17.949
680.636, 24.516
681.935, 23.595
683.234, 1.658
684.533, 10.991
685.832, 7.586
687.130, 0.150
688.428, 5.713
689.726, 1.392
691.024, 19.835
692.322, 0.486
693.619, 15.044
694.916, 15.601
696.213, 10.156
697.510, 16.840
698.806, 16.393
700.102, 16.041
701.398, 14.948
702.694, 13.593
703.990, 12.132
705.285, 7.680
706.580, 13.226
707.875, 2.770
709.170, 14.617
710.464, 13.772
711.758, 14.303
713.052, 14.833
714.346, 2.631
715.640, 20.207
716.933, 12.730
718.226, 3.467
719.519, 5.049
720.812, 26.564
722.105, 13.432
723.397, 14.929
724.689, 6.325
725.981, 12.726
727.272, 10.232
728.564, 0.392
729.855, 1.110
731.146, 0.608
732.437, 3.800
733.727, 4.843
735.017, 2.235
736.308, 8.249
737.597, 16.731
738.887, 24.211
740.176, 4.690
741.466, 7.833
742.755, 1.628
744.043, 3.094
745.332, 25.559
746.620, 7.021
747.908, 22.482
749.196, 3.942
750.484, 0.395
751.771, 11.849
753.059, 25.302
754.346, 10.247
755.633, 2.195
756.919, 10.366
758.206, 20.065
759.492, 8.506
760.778, 0.914
762.063, 28.332
763.349, 29.749
764.634, 9.163
765.919, 17.576
767.204, 1.012
768.489, 1.605
769.773, 18.798
771.057, 26.200
772.341, 34.600
773.625, 12.998
774.909, 28.395
776.192, 18.790
777.475, 19.184
778.758, 11.576
780.041, 2.967
781.323, 24.356
782.605, 14.743
783.887, 16.128
785.169, 24.513
786.451, 2.895
787.732, 0.724
789.013, 13.652
790.294, 6.972
791.575, 15.396
792.856, 3.763
794.136, 8.872
795.416, 0.515
796.696, 33.838
797.976, 38.191
799.255, 22.541
800.534, 12.891
801.813, 25.239
803.092, 1.585
804.371, 24.929
805.649, 20.272
806.927, 15.613
808.205, 16.954
809.483, 9.292
810.760, 26.630
812.037, 8.966
813.315, 2.300
814.591, 11.633
815.868, 1.965
817.144, 13.294
818.421, 11.623
819.697, 10.868
820.972, 17.276
822.248, 7.600
823.523, 13.897
824.798, 6.219
826.073, 12.539
827.348, 14.859
828.623, 9.177
829.897, 0.495
831.171, 19.810
832.445, 27.123
833.718, 9.436
834.992, 2.747
836.265, 21.058
837.538, 26.654
838.811, 1.639
840.083, 5.928
841.356, 8.170
842.628, 9.448
843.900, 13.708
845.171, 0.005
846.443, 12.239
847.714, 3.523
848.985, 14.807
850.256, 0.911
851.527, 4.369
852.797, 0.352
854.067, 3.075
855.337, 7.199
856.607, 18.528
857.876, 7.733
859.146, 30.985
860.415, 15.245
861.684, 4.525
862.953, 0.270
864.221, 9.000
865.489, 12.249
866.757, 0.497
868.025, 5.567
869.293, 14.676
870.560, 5.081
871.828, 27.768
873.095, 4.981
874.361, 6.781
875.628, 0.456
876.894, 22.692
878.160, 6.093
879.426, 15.144
880.692, 0.623
881.958, 14.401
883.223, 3.513
884.488, 9.597
885.753, 5.438
887.018, 9.340
888.282, 7.575
889.546, 25.806
890.810, 23.046
892.074, 8.287
893.338, 36.503
894.601, 18.059
895.864, 43.194
897.127, 33.385
898.390, 38.626
899.652, 27.854
900.915, 50.096
902.177, 40.306
903.439, 39.373
904.700, 48.615
905.962, 32.865
907.223, 31.268
908.484, 44.429
909.745, 43.826
911.006, 42.078
912.266, 41.095
913.526, 49.699
914.786, 31.954
916.046, 26.210
917.306, 25.468
918.565, 31.725
919.824, 33.718
921.083, 47.675
922.342, 45.115
923.600, 40.196
924.859, 42.458
926.117, 30.721
927.375, 22.984
928.632, 19.249
929.890, 25.514
931.147, 29.781
932.404, 35.993
933.661, 47.262
934.918, 37.531
936.174, 49.802
937.430, 28.073
938.686, 56.292
939.942, 35.333
941.198, 61.609
942.453, 60.262
943.708, 63.540
944.963, 31.796
946.218, 55.338
947.472, 40.408
948.727, 38.691
949.981, 84.977
951.235, 46.263
952.488, 58.551
953.742, 77.840
954.995, 84.044
956.248, 83.337
957.501, 84.630
958.754, 80.926
960.006, 104.223
961.258, 92.521
962.510, 110.822
963.762, 116.123
965.014, 115.383
966.265, 130.688
967.516, 126.943
968.767, 146.251
970.018, 151.561
971.269, 175.873
972.519, 216.187
973.769, 272.502
975.019, 318.819
976.269, 328.138
977.518, 321.459
978.767, 332.782
980.017, 321.107
981.265, 409.338
982.514, 473.667
983.762, 477.997
985.011, 620.329
986.259, 684.655
987.507, 737.991
988.754, 920.561
990.002, 1080.871
991.249, 1443.214
992.496, 1860.559
993.743, 2456.906
994.989, 3951.256
996.236, 5921.516
997.482, 11824.870
998.728, 26584.227
999.974, 48063.586
1001.219, 59942.809
1002.464, 37712.180
1003.710, 17201.445
1004.954, 9350.575
1006.199, 5051.945
1007.444, 3358.120
1008.688, 2372.495
1009.932, 1674.873
1011.176, 1393.253
1012.420, 1071.332
1013.663, 900.649
1014.906, 791.499
1016.149, 639.894
1017.392, 608.284
1018.635, 507.372
1019.877, 424.776
1021.120, 440.903
1022.362, 353.315
1023.603, 321.730
1024.845, 322.182
1026.086, 275.602
1027.328, 283.026
1028.569, 237.665
1029.809, 192.094
1031.050, 208.522
1032.290, 175.726
1033.530, 172.165
1034.770, 150.169
1036.010, 124.620
1037.250, 148.635
1038.489, 137.100
1039.728, 106.568
1040.967, 145.039
1042.206, 135.514
1043.444, 109.992
1044.683, 156.477
1045.921, 141.964
1047.159, 117.455
1048.396, 116.949
1049.634, 148.581
1050.871, 133.085
1052.108, 111.591
1053.345, 133.164
1054.582, 101.111
1055.818, 97.627
1057.054, 131.151
1058.290, 61.847
1059.526, 103.388
1060.762, 72.933
1061.997, 65.978
1063.232, 109.534
1064.467, 53.093
1065.702, 75.737
1066.937, 83.302
1068.171, 61.872
1069.405, 71.446
1070.639, 63.025
1071.873, 55.612
1073.107, 64.202
1074.340, 53.996
1075.573, 56.389
1076.806, 49.987
1078.039, 66.587
1079.272, 76.191
1080.504, 59.797
1081.736, 83.405
1082.968, 108.017
1084.200, 69.633
1085.431, 116.251
1086.663, 139.873
1087.894, 179.728
1089.125, 246.356
1090.355, 279.987
1091.586, 413.623
1092.816, 560.263
1094.046, 645.905
1095.276, 645.553
1096.506, 515.205
1097.735, 388.860
1098.965, 361.517
1100.194, 310.177
1101.423, 291.839
1102.651, 333.504
1103.880, 356.172
1105.108, 524.843
1106.336, 636.516
1107.564, 834.192
1108.792, 1097.871
1110.019, 1131.553
1111.246, 1269.237
1112.473, 1064.924
1113.700, 837.614
1114.927, 730.306
1116.153, 502.002
1117.380, 427.699
1118.606, 339.400
1119.831, 208.103
1121.057, 237.808
1122.283, 193.517
1123.508, 172.227
1124.733, 143.941
1125.958, 95.657
1127.182, 108.375
1128.407, 82.097
1129.631, 49.821
1130.855, 62.548
1132.079, 39.278
1133.302, 53.010
1134.526, 63.745
1135.749, 15.482
1136.972, 53.229
1138.195, 23.979
1139.417, 36.731
1140.640, 28.485
1141.862, 39.242
1143.084, 12.004
1144.305, 9.769
1145.527, 12.537
1146.748, 14.307
1147.970, 26.079
1149.191, 31.853
1150.411, 57.630
1151.632, 46.410
1152.852, 87.193
1154.072, 113.978
1155.292, 127.770
1156.512, 121.564
1157.732, 133.361
1158.951, 82.159
1160.170, 91.961
1161.389, 75.765
1162.608, 36.573
1163.826, 49.383
1165.045, 28.195
1166.263, 31.011
1167.481, 40.866
1168.699, 25.778
1169.916, 13.668
1171.134, 12.508
1172.351, 16.315
1173.568, 32.140
1174.784, 15.016
1176.001, 22.809
1177.217, 1.364
1178.433, 19.535
1179.649, 15.312
1180.865, 15.373
1182.081, 12.910
1183.296, 7.477
1184.511, 7.989
1185.726, 30.977
1186.941, 47.815
1188.155, 45.645
1189.370, 42.804
1190.584, 44.655
1191.798, 15.477
1193.011, 30.312
1194.225, 15.184
1195.438, 4.973
1196.651, 21.760
1197.864, 3.607
1199.077, 2.555
1200.290, 27.716
1201.502, 9.274
1202.714, 2.337
1203.926, 5.020
1205.138, 7.520
1206.349, 12.905
1207.561, 10.875
1208.772, 15.950
1209.983, 22.776
1211.194, 2.397
1212.404, 33.429
1213.614, 19.966
1214.825, 19.794
1216.034, 24.621
1217.244, 22.307
1218.454, 28.688
1219.663, 28.517
1220.872, 36.346
1222.081, 43.176
1223.290, 22.007
1224.498, 34.838
1225.707, 19.670
1226.915, 29.503
1228.123, 44.335
1229.331, 20.554
1230.538, 7.435
1231.746, 40.269
1232.953, 3.898
1234.160, 34.933
1235.366, 34.764
1236.573, 30.595
1237.779, 21.585
1238.986, 26.418
1240.192, 18.253
1241.397, 23.088
1242.603, 20.925
1243.808, 30.762
1245.013, 52.600
1246.218, 17.439
1247.423, 49.278
1248.628, 38.123
1249.832, 37.964
1251.036, 51.806
1252.240, 24.649
1253.444, 33.624
1254.648, 40.467
1255.851, 48.312
1257.054, 46.837
1258.257, 23.002
1259.460, 30.848
1260.663, 39.695
1261.865, 10.542
1263.067, 36.389
1264.269, 58.237
1265.471, 26.127
1266.673, 26.976
1267.874, 30.825
1269.075, 39.694
1270.276, 27.544
1271.477, 19.412
1272.678, 9.350
1273.878, 9.003
1275.078, 9.083
1276.278, 14.950
1277.478, 19.800
1278.678, 30.650
1279.877, 43.511
1281.077, 17.355
1282.276, 9.190
1283.475, 40.026
1284.673, 22.858
1285.872, 31.699
1287.070, 29.264
1288.268, 34.089
1289.466, 25.944
1290.664, 37.767
1291.861, 33.582
1293.058, 25.388
1294.255, 31.190
1295.452, 34.992
1296.649, 23.867
1297.846, 30.877
1299.042, 32.447
1300.238, 32.231
1301.434, 25.014
1302.630, 22.796
1303.825, 35.577
1305.020, 10.354
1306.216, 44.130
1307.411, 27.905
1308.605, 15.678
1309.800, 14.449
1310.994, 6.711
1312.188, 4.847
1313.382, 5.756
1314.576, 12.521
1315.770, 17.897
1316.963, 16.694
1318.156, 8.418
1319.349, 19.658
1320.542, 17.414
1321.735, 29.149
1322.927, 7.134
1324.119, 3.116
1325.311, 2.986
1326.503, 7.429
1327.695, 6.454
1328.886, 2.275
1330.077, 9.001
1331.268, 17.724
1332.459, 0.554
1333.650, 9.841
1334.840, 38.858
1336.030, 13.561
1337.220, 7.261
1338.410, 10.959
1339.600, 9.482
1340.789, 10.207
1341.979, 33.895
1343.168, 14.518
1344.357, 1.768
1345.545, 0.449
1346.734, 8.760
1347.922, 7.214
1349.110, 4.698
1350.298, 2.035
1351.486, 20.133
1352.674, 24.790
1353.861, 18.446
1355.048, 17.017
1356.235, 7.331
1357.422, 23.317
1358.608, 18.964
1359.795, 18.390
1360.981, 29.249
1362.167, 24.887
1363.353, 18.525
1364.538, 21.162
1365.724, 22.058
1366.909, 26.696
1368.094, 14.333
1369.279, 26.009
1370.463, 16.649
1371.648, 1.708
1372.832, 6.905
1374.016, 17.507
1375.200, 25.097
1376.384, 16.447
1377.567, 27.023
1378.750, 19.844
1379.933, 2.663
1381.116, 26.481
1382.299, 18.297
1383.481, 39.113
1384.664, 40.927
1385.846, 28.741
1387.028, 37.552
1388.210, 17.361
1389.391, 20.168
1390.572, 14.974
1391.754, 30.779
1392.935, 20.582
1394.115, 51.382
1395.296, 5.181
1396.476, 37.977
1397.656, 23.770
1398.837, 25.561
1400.016, 21.350
1401.196, 20.840
1402.375, 24.922
1403.555, 24.701
1404.734, 32.474
1405.912, 33.245
1407.091, 12.014
1408.270, 38.781
1409.448, 21.546
1410.626, 15.310
1411.804, 26.072
1412.982, 15.833
1414.159, 9.592
1415.336, 14.245
1416.514, 43.835
1417.690, 16.590
1418.867, 36.322
1420.044, 40.084
1421.220, 18.814
1422.396, 52.193
1423.572, 28.830
1424.748, 18.307
1425.924, 54.537
1427.099, 16.246
1428.274, 6.090
1429.449, 18.202
1430.624, 11.889
1431.799, 33.336
1432.973, 37.327
1434.147, 24.905
1435.322, 36.913
1436.495, 37.578
1437.669, 4.004
1438.843, 57.651
1440.016, 24.763
1441.189, 26.368
1442.362, 52.969
1443.535, 31.565
1444.707, 43.158
1445.880, 57.904
1447.052, 43.478
1448.224, 16.055
1449.396, 62.304
1450.567, 46.857
1451.739, 76.399
1452.910, 16.929
1454.081, 56.448
1455.252, 53.942
1456.422, 27.434
1457.593, 36.605
1458.763, 42.063
1459.933, 23.506
1461.103, 34.932
1462.273, 34.341
1463.442, 20.626
1464.611, 58.947
1465.781, 19.247
1466.949, 24.246
1468.118, 53.501
1469.287, 36.783
1470.455, 30.025
1471.623, 70.344
1472.791, 21.633
1473.959, 11.613
1475.127, 39.768
1476.294, 26.078
1477.461, 37.417
1478.628, 17.495
1479.795, 28.901
1480.962, 38.293
1482.128, 9.684
1483.295, 41.074
1484.461, 9.461
1485.627, 9.834
1486.792, 37.194
1487.958, 16.547
1489.123, 19.895
1490.288, 42.233
1491.453, 16.570
1492.618, 9.915
1493.783, 19.272
1494.947, 6.634
1496.111, 17.065
1497.275, 25.582
1498.439, 24.126
1499.603, 42.694
1500.766, 24.280
1501.930, 23.890
1503.093, 41.532
1504.256, 25.218
1505.418, 3.039
1506.581, 44.774
1507.743, 30.661
1508.905, 2.623
1510.067, 61.677
1511.229, 27.848
1512.391, 29.276
1513.552, 5.530
1514.713, 12.206
1515.874, 4.776
1517.035, 0.000
##END=



