##NAMES=Celestine
##RRUFFID=R040007
##IDEAL CHEMISTRY=SrS^6+^O_4_
##LOCALITY=Coahuila, Mexico
##OWNER=RRUFF
##SOURCE=University of Arizona Mineral Museum
##DESCRIPTION=Blue tabular crystals
##STATUS=The identification of this mineral has been confirmed by X-ray diffraction and chemical analysis
##URL=rruff.info/R040007
##MEASURED CHEMISTRY=(Sr_0.95_Ba_0.04_Ca_0.01_)_Σ=1_S_1.00_O_4_; = Light bands. (Sr_0.99_Ba_0.01_)_Σ=1_S_1.00_O_4_; trace amounts of Ca = Dark bands
##PIN_ID=M00013
##ORIENTATION=Laser parallel to b* (0 1 0). Fiducial mark perpendicular to laser is parallel to c [0 0 1]
51.466, 0.000
52.866, 14.907
54.266, 9.461
55.666, 42.785
57.065, 24.670
58.464, 12.002
59.863, 4.821
61.262, 19.235
62.661, 12.102
64.059, 3.637
65.458, 5.970
66.856, 9.119
68.253, 14.062
69.651, 44.483
71.048, 65.122
72.445, 116.957
73.842, 150.973
75.239, 178.153
76.635, 244.482
78.031, 359.948
79.427, 501.539
80.823, 707.245
82.218, 928.057
83.614, 1202.968
85.009, 1359.971
86.404, 1314.061
87.798, 1134.234
89.193, 886.484
90.587, 682.811
91.981, 560.210
93.375, 463.679
94.768, 430.212
96.161, 414.805
97.554, 442.450
98.947, 511.145
100.340, 590.886
101.732, 671.670
103.124, 710.495
104.516, 704.358
105.908, 631.259
107.300, 497.195
108.691, 400.164
110.082, 348.167
111.473, 288.201
112.864, 304.266
114.254, 293.360
115.644, 302.483
117.034, 352.638
118.424, 309.821
119.813, 378.036
121.203, 372.281
122.592, 368.550
123.981, 379.859
125.369, 369.200
126.758, 355.562
128.146, 332.971
129.534, 307.408
130.922, 259.867
132.309, 265.371
133.696, 206.896
135.083, 215.438
136.470, 219.986
137.857, 218.536
139.243, 204.085
140.630, 193.633
142.016, 203.181
143.401, 195.727
144.787, 214.279
146.172, 214.836
147.557, 203.401
148.942, 221.974
150.327, 234.555
151.711, 250.145
153.096, 265.744
154.480, 250.353
155.863, 207.971
157.247, 224.600
158.630, 213.239
160.013, 214.888
161.396, 207.548
162.779, 222.218
164.161, 231.898
165.544, 267.589
166.926, 278.290
168.308, 326.002
169.689, 314.724
171.070, 306.457
172.452, 284.199
173.833, 264.952
175.213, 268.715
176.594, 223.488
177.974, 225.271
179.354, 229.063
180.734, 205.088
182.114, 194.898
183.493, 224.717
184.872, 244.546
186.251, 272.421
187.630, 302.768
189.008, 342.619
190.387, 386.485
191.765, 425.357
193.143, 461.236
194.520, 463.908
195.898, 436.797
197.275, 390.158
198.652, 333.076
200.029, 313.989
201.405, 247.908
202.782, 219.843
204.158, 184.523
205.534, 169.458
206.909, 156.764
208.285, 128.718
209.660, 135.680
211.035, 94.031
212.410, 118.220
213.784, 106.191
215.159, 97.669
216.533, 82.654
217.907, 88.179
219.281, 77.197
220.654, 75.764
222.027, 68.545
223.400, 87.132
224.773, 64.723
226.146, 71.261
227.518, 71.882
228.891, 57.530
230.263, 36.004
231.634, 61.704
233.006, 81.060
234.377, 57.802
235.748, 56.564
237.119, 48.344
238.490, 40.141
239.860, 67.955
241.231, 54.784
242.601, 23.628
243.970, 54.487
245.340, 35.360
246.709, 36.249
248.079, 44.152
249.448, 39.067
250.816, 43.994
252.185, 37.932
253.553, 47.882
254.921, 29.845
256.289, 49.819
257.657, 47.803
259.024, 22.796
260.391, 32.799
261.758, 33.810
263.125, 23.831
264.492, 10.860
265.858, 22.897
267.224, 43.943
268.590, 18.996
269.956, 39.057
271.321, 46.126
272.687, 41.203
274.052, 18.287
275.416, 36.378
276.781, 50.476
278.146, 7.581
279.510, 12.692
280.874, 23.810
282.237, 5.935
283.601, 12.066
284.964, 15.204
286.327, 24.347
287.690, 26.130
289.053, 26.652
290.416, 23.813
291.778, 19.979
293.140, 19.415
294.502, 18.911
295.863, 14.511
297.225, 19.698
298.586, 14.890
299.947, 13.087
301.308, 19.289
302.668, 4.496
304.029, 10.707
305.389, 5.923
306.749, 15.145
308.108, 7.630
309.468, 12.600
310.827, 4.835
312.186, 8.075
313.545, 13.319
314.903, 1.568
316.262, 8.821
317.620, 1.920
318.978, 12.342
320.336, 13.390
321.693, 17.880
323.051, 1.154
324.408, 9.433
325.765, 9.716
327.121, 0.004
328.478, 0.296
329.834, 18.592
331.190, 35.892
332.546, 26.197
333.902, 12.495
335.257, 9.180
336.612, 1.134
337.967, 4.452
339.322, 5.227
340.677, 8.902
342.031, 0.574
343.385, 5.757
344.739, 12.091
346.093, 0.429
347.446, 25.771
348.799, 19.116
350.153, 22.535
351.505, 17.811
352.858, 17.800
354.210, 0.550
355.563, 31.457
356.915, 13.814
358.267, 33.424
359.618, 9.469
360.969, 38.605
362.321, 16.967
363.672, 7.333
365.022, 30.702
366.373, 28.930
367.723, 19.432
369.073, 14.797
370.423, 5.836
371.773, 25.532
373.122, 2.904
374.471, 1.728
375.821, 10.358
377.169, 4.386
378.518, 0.852
379.866, 27.991
381.215, 10.629
382.563, 22.751
383.910, 4.863
385.258, 14.525
386.605, 40.472
387.952, 14.274
389.299, 20.414
390.646, 5.821
391.992, 2.313
393.339, 53.406
394.685, 32.828
396.031, 43.343
397.376, 21.775
398.722, 7.211
400.067, 39.651
401.412, 31.100
402.757, 5.553
404.101, 46.009
405.446, 14.469
406.790, 32.932
408.134, 40.170
409.478, 32.935
410.821, 23.409
412.165, 31.887
413.508, 48.370
414.851, 54.857
416.193, 42.098
417.536, 40.593
418.878, 60.090
420.220, 76.591
421.562, 76.093
422.904, 82.599
424.245, 101.107
425.586, 105.618
426.927, 99.132
428.268, 118.648
429.609, 132.167
430.949, 155.688
432.289, 204.227
433.629, 203.753
434.969, 242.281
436.309, 284.813
437.648, 377.347
438.987, 471.884
440.326, 627.423
441.665, 834.965
443.003, 1180.511
444.342, 1675.060
445.680, 2511.611
447.018, 3692.164
448.355, 5165.719
449.693, 6868.275
451.030, 8149.836
452.367, 8622.398
453.704, 7469.965
455.041, 5860.539
456.377, 4116.117
457.713, 2949.698
459.049, 2149.281
460.385, 1631.867
461.721, 1266.454
463.056, 889.042
464.391, 698.632
465.726, 566.224
467.061, 416.818
468.395, 355.414
469.730, 303.838
471.064, 229.437
472.398, 189.039
473.731, 167.643
475.065, 190.248
476.398, 147.854
477.731, 116.465
479.064, 92.046
480.397, 80.659
481.729, 64.865
483.062, 62.485
484.394, 64.106
485.725, 56.728
487.057, 65.352
488.389, 61.972
489.720, 32.600
491.051, 25.231
492.382, 29.862
493.712, 40.495
495.043, 7.722
496.373, 32.084
497.703, 22.721
499.032, 54.359
500.362, 27.861
501.691, 36.228
503.020, 10.856
504.349, 32.498
505.678, 30.142
507.007, 29.786
508.335, 30.430
509.663, 16.079
510.991, 40.806
512.319, 5.455
513.646, 15.410
514.973, 5.941
516.300, 19.704
517.627, 42.350
518.954, 13.996
520.280, 8.700
521.607, 33.941
522.933, 31.581
524.259, 37.222
525.584, 19.862
526.910, 37.168
528.235, 27.538
529.560, 8.451
530.885, 22.873
532.209, 14.515
533.534, 15.156
534.858, 8.729
536.182, 3.056
537.506, 2.586
538.829, 9.773
540.152, 7.861
541.476, 28.031
542.799, 18.667
544.121, 14.093
545.444, 6.270
546.766, 3.638
548.088, 9.263
549.410, 11.615
550.732, 3.240
552.053, 8.057
553.375, 26.564
554.696, 3.184
556.017, 16.803
557.337, 34.656
558.658, 22.275
559.978, 35.377
561.298, 18.633
562.618, 37.259
563.938, 16.885
565.257, 13.511
566.576, 8.713
567.895, 0.519
569.214, 12.658
570.533, 22.273
571.851, 11.442
573.170, 35.241
574.488, 7.945
575.805, 40.885
577.123, 18.509
578.440, 25.118
579.758, 27.726
581.075, 11.337
582.391, 41.946
583.708, 41.554
585.024, 62.196
586.341, 32.802
587.657, 38.409
588.972, 40.012
590.288, 9.612
591.603, 20.211
592.918, 42.907
594.233, 46.835
595.548, 47.429
596.863, 25.121
598.177, 71.749
599.491, 107.339
600.805, 72.604
602.119, 72.257
603.432, 134.889
604.746, 120.487
606.059, 123.067
607.372, 163.695
608.685, 217.744
609.997, 235.387
611.309, 304.488
612.621, 499.111
613.933, 708.468
615.245, 959.287
616.557, 1257.130
617.868, 1363.691
619.179, 1300.250
620.490, 1105.806
621.801, 1011.360
623.111, 922.912
624.421, 859.913
625.731, 749.462
627.041, 734.089
628.351, 631.633
629.660, 513.586
630.970, 500.125
632.279, 504.802
633.588, 559.336
634.896, 691.486
636.205, 929.015
637.513, 955.541
638.821, 949.287
640.129, 783.809
641.437, 647.328
642.744, 525.994
644.051, 544.607
645.358, 593.118
646.665, 630.620
647.972, 804.125
649.278, 1075.626
650.584, 1512.245
651.890, 2188.741
653.196, 2899.343
654.502, 3622.298
655.807, 3598.787
657.113, 3116.272
658.418, 2343.852
659.722, 1618.655
661.027, 1078.133
662.331, 794.865
663.636, 565.360
664.940, 426.827
666.244, 323.973
667.547, 267.493
668.851, 252.954
670.154, 189.418
671.457, 142.882
672.760, 156.782
674.062, 99.281
675.365, 108.728
676.667, 127.171
677.969, 115.898
679.271, 110.080
680.572, 110.771
681.874, 81.202
683.175, 70.648
684.476, 66.078
685.777, 79.504
687.077, 53.943
688.378, 64.363
689.678, 46.780
690.978, 51.192
692.278, 25.602
693.577, 36.342
694.877, 50.735
696.176, 47.400
697.475, 58.400
698.774, 58.795
700.072, 53.353
701.371, 49.984
702.669, 45.270
703.967, 36.721
705.265, 27.849
706.562, 35.222
707.860, 13.532
709.157, 55.034
710.454, 30.396
711.751, 28.856
713.047, 7.211
714.344, 67.559
715.640, 9.097
716.936, 26.440
718.232, 59.767
719.527, 43.295
720.823, 30.614
722.118, 11.929
723.413, 12.883
724.708, 19.894
726.002, 35.194
727.297, 0.491
728.591, 10.686
729.885, 10.891
731.179, 9.416
732.472, 20.687
733.766, 23.397
735.059, 35.215
736.352, 35.322
737.645, 36.576
738.937, 32.826
740.230, 19.072
741.522, 27.314
742.814, 22.551
744.106, 40.785
745.397, 29.014
746.689, 33.224
747.980, 14.446
749.271, 5.662
750.562, 40.872
751.853, 14.078
753.143, 18.278
754.433, 23.475
755.723, 1.332
757.013, 15.595
758.303, 17.028
759.592, 20.202
760.881, 36.371
762.170, 16.536
763.459, 1.697
764.748, 14.850
766.036, 0.561
767.325, 7.862
768.613, 3.735
769.901, 6.380
771.188, 5.490
772.476, 30.594
773.763, 25.694
775.050, 47.790
776.337, 22.882
777.624, 33.971
778.910, 1.056
780.196, 47.571
781.482, 12.646
782.768, 25.717
784.054, 1.783
785.339, 29.842
786.625, 8.898
787.910, 42.948
789.195, 2.005
790.479, 48.032
791.764, 28.066
793.048, 11.904
794.332, 23.112
795.616, 31.124
796.900, 7.132
798.183, 9.136
799.467, 57.135
800.750, 8.870
802.033, 43.114
803.316, 37.094
804.598, 7.070
805.880, 34.042
807.163, 7.010
808.445, 1.027
809.726, 38.929
811.008, 31.882
812.289, 6.831
813.570, 0.776
814.851, 36.715
816.132, 1.650
817.413, 11.580
818.693, 34.506
819.973, 5.571
821.253, 7.342
822.533, 20.252
823.813, 7.835
825.092, 13.526
826.371, 17.961
827.650, 6.861
828.929, 23.756
830.208, 27.649
831.486, 41.539
832.764, 39.429
834.042, 19.316
835.320, 29.200
836.598, 8.081
837.875, 12.959
839.152, 32.834
840.429, 7.706
841.706, 27.576
842.983, 28.442
844.259, 25.306
845.536, 28.945
846.812, 9.975
848.088, 18.876
849.363, 3.724
850.639, 7.427
851.914, 20.414
853.189, 0.748
854.464, 20.087
855.739, 28.918
857.013, 1.250
858.288, 6.421
859.562, 34.405
860.836, 2.228
862.110, 12.031
863.383, 26.784
864.656, 2.403
865.930, 24.406
867.203, 25.979
868.475, 41.783
869.748, 35.528
871.020, 19.254
872.292, 3.967
873.564, 33.809
874.836, 20.583
876.108, 7.797
877.379, 20.849
878.650, 9.605
879.922, 5.373
881.192, 16.417
882.463, 16.844
883.733, 6.708
885.004, 4.239
886.274, 24.972
887.544, 17.718
888.813, 16.538
890.083, 24.198
891.352, 34.932
892.621, 23.666
893.890, 69.362
895.159, 15.093
896.427, 18.818
897.695, 55.548
898.964, 60.276
900.232, 32.003
901.499, 39.632
902.767, 64.026
904.034, 63.823
905.301, 60.448
906.568, 20.135
907.835, 61.858
909.102, 20.903
910.368, 23.557
911.634, 40.231
912.900, 52.937
914.166, 51.658
915.432, 34.328
916.697, 27.576
917.962, 29.089
919.227, 32.994
920.492, 37.086
921.757, 51.039
923.021, 65.506
924.285, 65.064
925.550, 75.812
926.813, 72.533
928.077, 27.254
929.341, 30.975
930.604, 11.697
931.867, 14.617
933.130, 49.102
934.393, 99.740
935.655, 47.460
936.918, 54.769
938.180, 61.490
939.442, 55.071
940.703, 70.794
941.965, 40.897
943.226, 97.622
944.488, 57.347
945.749, 51.849
947.009, 69.577
948.270, 58.305
949.530, 63.885
950.791, 99.516
952.051, 87.248
953.311, 104.988
954.570, 121.723
955.830, 100.460
957.089, 140.078
958.348, 86.818
959.607, 114.446
960.866, 111.728
962.124, 145.472
963.383, 115.219
964.641, 134.869
965.899, 166.298
967.156, 178.049
968.414, 154.545
969.671, 177.277
970.928, 221.034
972.185, 261.111
973.442, 322.814
974.699, 374.577
975.955, 343.298
977.211, 317.060
978.468, 320.831
979.723, 411.557
980.979, 464.334
982.234, 496.113
983.490, 561.894
984.745, 662.678
986.000, 798.464
987.254, 870.253
988.509, 1144.025
989.763, 1449.819
991.017, 1968.617
992.271, 2757.400
993.525, 3968.209
994.779, 6424.021
996.032, 11421.835
997.285, 23641.654
998.538, 42496.684
999.791, 55535.523
1001.044, 44788.324
1002.296, 24485.555
1003.548, 12192.392
1004.800, 6851.066
1006.052, 4193.910
1007.304, 2729.754
1008.555, 1955.431
1009.807, 1516.796
1011.058, 1177.650
1012.309, 977.488
1013.559, 789.537
1014.810, 635.406
1016.060, 570.088
1017.310, 532.963
1018.560, 423.843
1019.810, 444.725
1021.060, 392.411
1022.309, 352.305
1023.558, 332.998
1024.807, 263.900
1026.056, 243.805
1027.305, 227.299
1028.553, 225.213
1029.801, 191.129
1031.049, 173.052
1032.297, 145.076
1033.545, 163.090
1034.793, 124.034
1036.040, 116.253
1037.287, 75.954
1038.534, 88.923
1039.781, 84.048
1041.027, 87.026
1042.274, 63.008
1043.520, 92.994
1044.766, 64.984
1046.012, 88.978
1047.257, 22.990
1048.503, 65.005
1049.748, 21.026
1050.993, 70.053
1052.238, 22.084
1053.483, 6.875
1054.727, 20.168
1055.971, 53.216
1057.216, 58.268
1058.459, 46.324
1059.703, 13.387
1060.947, 74.455
1062.190, 38.526
1063.433, 10.602
1064.676, 61.682
1065.919, 40.770
1067.162, 14.863
1068.404, 7.960
1069.646, 10.064
1070.888, 2.817
1072.130, 16.309
1073.372, 9.561
1074.613, 3.426
1075.855, 38.716
1077.096, 10.861
1078.337, 27.011
1079.578, 29.167
1080.818, 21.672
1082.059, 44.059
1083.299, 31.230
1084.539, 15.406
1085.779, 40.585
1087.018, 21.770
1088.258, 50.961
1089.497, 72.156
1090.736, 66.370
1091.975, 119.590
1093.213, 161.814
1094.452, 161.043
1095.690, 78.280
1096.928, 117.521
1098.166, 127.766
1099.404, 191.034
1100.642, 219.008
1101.879, 221.770
1103.116, 311.035
1104.353, 408.305
1105.590, 483.579
1106.827, 688.857
1108.063, 816.138
1109.299, 1035.425
1110.536, 1074.716
1111.771, 969.012
1113.007, 912.311
1114.243, 709.615
1115.478, 495.924
1116.713, 374.236
1117.948, 356.554
1119.183, 212.876
1120.418, 203.202
1121.652, 188.534
1122.886, 171.872
1124.120, 204.511
1125.354, 126.854
1126.588, 108.201
1127.821, 104.551
1129.055, 126.253
1130.288, 97.610
1131.521, 96.971
1132.753, 90.336
1133.986, 85.703
1135.218, 105.074
1136.450, 125.449
1137.682, 141.232
1138.914, 163.613
1140.146, 208.997
1141.377, 236.932
1142.609, 303.039
1143.840, 366.715
1145.071, 458.486
1146.301, 545.940
1147.532, 657.370
1148.762, 891.778
1149.992, 1151.277
1151.222, 1590.782
1152.452, 2302.201
1153.682, 3037.649
1154.911, 3756.074
1156.140, 4157.501
1157.369, 4104.934
1158.598, 3677.369
1159.827, 3161.846
1161.055, 2666.312
1162.284, 2216.887
1163.512, 1822.336
1164.740, 1468.843
1165.967, 1125.368
1167.195, 941.825
1168.422, 747.318
1169.650, 625.791
1170.877, 583.447
1172.103, 472.923
1173.330, 405.398
1174.557, 358.916
1175.783, 327.397
1177.009, 263.925
1178.235, 341.930
1179.461, 313.868
1180.686, 311.647
1181.912, 412.899
1183.137, 459.654
1184.362, 577.157
1185.587, 734.463
1186.811, 954.965
1188.036, 1149.796
1189.260, 1161.736
1190.484, 1264.952
1191.708, 1079.543
1192.932, 904.102
1194.155, 686.911
1195.378, 509.430
1196.602, 407.228
1197.825, 344.338
1199.047, 274.852
1200.270, 204.216
1201.492, 206.670
1202.715, 171.191
1203.937, 178.829
1205.159, 145.456
1206.380, 114.971
1207.602, 86.487
1208.823, 97.080
1210.044, 85.596
1211.265, 76.357
1212.486, 74.556
1213.707, 73.072
1214.927, 73.588
1216.147, 90.110
1217.367, 56.204
1218.587, 60.696
1219.807, 112.211
1221.027, 45.618
1222.246, 40.947
1223.465, 94.461
1224.684, 100.975
1225.903, 47.284
1227.121, 42.830
1228.340, 80.049
1229.558, 11.562
1230.776, 38.075
1231.994, 31.587
1233.212, 54.099
1234.429, 53.099
1235.646, 29.630
1236.864, 72.573
1238.081, 38.081
1239.297, 80.681
1240.514, 29.235
1241.730, 12.746
1242.947, 7.259
1244.163, 12.770
1245.378, 0.142
1246.594, 79.807
1247.810, 5.672
1249.025, 59.886
1250.240, 75.400
1251.455, 65.001
1252.670, 53.533
1253.885, 30.049
1255.099, 66.564
1256.313, 22.080
1257.527, 84.594
1258.741, 30.159
1259.955, 20.674
1261.168, 25.186
1262.382, 23.699
1263.595, 37.392
1264.808, 31.889
1266.021, 65.386
1267.233, 27.882
1268.446, 11.378
1269.658, 4.094
1270.870, 36.400
1272.082, 27.893
1273.294, 38.379
1274.505, 4.135
1275.716, 46.348
1276.928, 27.830
1278.139, 52.310
1279.349, 46.790
1280.560, 56.269
1281.770, 50.741
1282.981, 3.784
1284.191, 20.664
1285.401, 18.105
1286.610, 21.457
1287.820, 41.972
1289.029, 30.377
1290.239, 18.221
1291.448, 7.169
1292.656, 14.552
1293.865, 53.931
1295.073, 4.331
1296.282, 4.705
1297.490, 37.075
1298.698, 16.438
1299.906, 24.798
1301.113, 27.145
1302.320, 23.365
1303.528, 31.823
1304.735, 15.150
1305.942, 18.464
1307.148, 12.225
1308.355, 33.078
1309.561, 12.373
1310.767, 10.636
1311.973, 25.895
1313.179, 18.149
1314.384, 25.841
1315.590, 4.645
1316.795, 26.885
1318.000, 32.119
1319.205, 18.349
1320.410, 29.573
1321.614, 17.696
1322.819, 0.993
1324.023, 0.211
1325.227, 3.408
1326.431, 4.402
1327.634, 28.221
1328.838, 28.944
1330.041, 4.897
1331.244, 36.252
1332.447, 3.395
1333.650, 30.530
1334.852, 9.659
1336.055, 14.781
1337.257, 19.897
1338.459, 43.993
1339.661, 30.097
1340.862, 5.180
1342.064, 0.743
1343.265, 49.324
1344.466, 4.614
1345.667, 29.438
1346.868, 31.486
1348.068, 12.528
1349.269, 13.565
1350.469, 52.597
1351.669, 44.624
1352.869, 17.646
1354.069, 72.663
1355.268, 7.675
1356.468, 1.318
1357.667, 50.681
1358.866, 37.676
1360.065, 32.667
1361.263, 15.345
1362.462, 34.632
1363.660, 75.605
1364.858, 32.725
1366.056, 3.306
1367.254, 50.657
1368.451, 37.617
1369.649, 2.424
1370.846, 27.530
1372.043, 7.517
1373.240, 55.433
1374.436, 53.371
1375.633, 39.309
1376.829, 59.325
1378.025, 3.260
1379.221, 31.194
1380.417, 43.897
1381.613, 57.972
1382.808, 19.367
1384.003, 26.759
1385.199, 52.148
1386.393, 54.515
1387.588, 53.662
1388.783, 36.037
1389.977, 40.408
1391.171, 37.801
1392.365, 29.155
1393.559, 46.498
1394.753, 23.852
1395.946, 37.202
1397.140, 48.545
1398.333, 69.548
1399.526, 41.881
1400.719, 74.810
1401.911, 30.131
1403.104, 51.448
1404.296, 46.279
1405.488, 71.582
1406.680, 17.005
1407.872, 63.597
1409.063, 49.754
1410.255, 60.894
1411.446, 91.028
1412.637, 34.236
1413.828, 86.472
1415.018, 80.655
1416.209, 61.360
1417.399, 66.496
1418.589, 73.604
1419.779, 92.753
1420.969, 77.694
1422.159, 86.832
1423.348, 90.959
1424.537, 66.754
1425.726, 39.414
1426.915, 41.223
1428.104, 56.161
1429.293, 51.761
1430.481, 66.507
1431.669, 51.043
1432.857, 51.969
1434.045, 39.017
1435.233, 46.612
1436.420, 66.359
1437.608, 27.124
1438.795, 69.938
1439.982, 77.461
1441.169, 61.213
1442.355, 103.108
1443.542, 134.215
1444.728, 77.054
1445.914, 82.367
1447.100, 104.710
1448.286, 100.323
1449.472, 74.071
1450.657, 114.809
1451.842, 68.530
1453.027, 54.339
1454.212, 110.627
1455.397, 65.155
1456.581, 66.632
1457.766, 118.083
1458.950, 96.415
1460.134, 88.577
1461.318, 72.928
1462.501, 41.245
1463.685, 97.404
1464.868, 42.648
1466.051, 114.441
1467.234, 54.664
1468.417, 54.760
1469.600, 35.891
1470.782, 82.006
1471.965, 55.072
1473.147, 123.090
1474.329, 42.069
1475.510, 16.055
1476.692, 49.094
1477.873, 47.161
1479.055, 87.270
1480.236, 96.385
1481.416, 87.199
1482.597, 49.434
1483.778, 63.494
1484.958, 59.570
1486.138, 52.705
1487.318, 76.833
1488.498, 66.713
1489.678, 66.026
1490.857, 69.742
1492.037, 51.069
1493.216, 57.395
1494.395, 45.725
1495.574, 52.080
1496.752, 48.451
1497.931, 31.843
1499.109, 15.267
1500.287, 22.730
1501.465, 30.231
1502.643, 22.774
1503.820, 47.371
1504.998, 21.026
1506.175, 3.259
1507.352, 65.505
1508.529, 12.326
1509.706, 25.218
1510.882, 45.192
1512.059, 43.260
1513.235, 15.436
1514.411, 6.732
1515.587, 57.423
1516.762, 86.519
1517.938, 0.415
1519.113, 100.458
1520.288, 21.968
1521.463, 53.395
1522.638, 0.000
##END=



