##NAMES=Celestine
##RRUFFID=R050008
##IDEAL CHEMISTRY=SrS^6+^O_4_
##LOCALITY=Scofield Quarry, Maybee, Monroe County, Michigan, USA
##OWNER=RRUFF
##SOURCE=Eugene Schlepp
##DESCRIPTION=Pale blue tabular crystals
##STATUS=The identification of this mineral has been confirmed by X-ray diffraction and chemical analysis
##URL=rruff.info/R050008
##MEASURED CHEMISTRY=Sr_1.00_S_1.00_O_4_
##PIN_ID=M00186
##ORIENTATION=Laser parallel to c* (0 0 1). Fiducial mark perpendicular to laser is parallel to -a [-1 0 0]
53.401, 0.000
54.807, 11.608
56.212, 16.883
57.617, 38.888
59.021, 37.739
60.426, 51.473
61.830, 32.630
63.234, 47.729
64.637, 30.832
66.041, 20.973
67.444, 42.087
68.847, 37.920
70.250, 28.878
71.652, 25.936
73.054, 20.712
74.456, 18.279
75.858, 15.554
77.260, 2.913
78.661, 6.347
80.062, 11.150
81.463, 9.408
82.863, 15.006
84.264, 26.632
85.664, 68.279
87.064, 140.937
88.463, 185.601
89.863, 162.264
91.262, 156.923
92.661, 130.576
94.059, 133.232
95.458, 140.957
96.856, 125.716
98.254, 106.674
99.652, 109.665
101.049, 75.715
102.446, 58.773
103.843, 49.840
105.240, 63.930
106.637, 71.023
108.033, 107.075
109.429, 248.093
110.825, 193.189
112.220, 192.650
113.616, 161.920
115.011, 92.806
116.406, 82.657
117.800, 62.483
119.195, 90.273
120.589, 98.028
121.983, 132.749
123.377, 158.438
124.770, 171.096
126.163, 193.727
127.556, 173.329
128.949, 203.904
130.342, 194.452
131.734, 144.071
133.126, 108.764
134.518, 95.506
135.909, 81.917
137.301, 60.099
138.692, 59.365
140.083, 32.443
141.473, 30.743
142.864, 6.283
144.254, 41.292
145.644, 19.010
147.034, 36.040
148.423, 19.980
149.812, 37.917
151.201, 38.762
152.590, 29.692
153.979, 51.684
155.367, 46.366
156.755, 50.862
158.143, 42.161
159.530, 48.445
160.918, 63.790
162.305, 53.090
163.692, 72.373
165.078, 81.849
166.465, 118.019
167.851, 144.160
169.237, 154.408
170.623, 174.618
172.008, 133.780
173.393, 129.877
174.778, 101.721
176.163, 89.796
177.548, 62.939
178.932, 55.999
180.316, 44.543
181.700, 31.508
183.083, 49.531
184.467, 37.497
185.850, 32.411
187.233, 41.397
188.616, 37.303
189.998, 40.315
191.380, 43.234
192.762, 67.144
194.144, 80.034
195.525, 93.061
196.907, 112.954
198.288, 128.879
199.669, 148.752
201.049, 129.637
202.429, 121.515
203.810, 89.408
205.189, 66.266
206.569, 35.121
207.949, 30.973
209.328, 11.821
210.707, 16.666
212.085, 8.508
213.464, 12.346
214.842, 6.182
216.220, 12.014
217.598, 10.159
218.976, 1.662
220.353, 1.796
221.730, 2.035
223.107, 12.150
224.483, 0.344
225.860, 4.542
227.236, 1.260
228.612, 6.064
229.988, 8.872
231.363, 9.685
232.738, 7.503
234.113, 7.348
235.488, 8.058
236.863, 5.048
238.237, 6.904
239.611, 0.765
240.985, 6.370
242.359, 1.497
243.732, 1.368
245.105, 4.755
246.478, 4.557
247.851, 3.443
249.223, 2.665
250.595, 1.771
251.967, 9.866
253.339, 4.041
254.711, 0.954
256.082, 6.873
257.453, 0.201
258.824, 6.731
260.195, 16.331
261.565, 8.613
262.935, 2.436
264.305, 10.479
265.675, 2.515
267.044, 4.546
268.414, 4.569
269.783, 3.586
271.151, 6.597
272.520, 2.601
273.888, 5.680
275.256, 0.410
276.624, 9.574
277.992, 5.553
279.359, 7.526
280.726, 9.338
282.093, 1.455
283.460, 8.412
284.827, 6.363
286.193, 3.309
287.559, 4.251
288.925, 8.187
290.290, 3.119
291.656, 22.046
293.021, 15.969
294.386, 7.111
295.750, 14.801
297.115, 5.710
298.479, 3.613
299.843, 6.512
301.207, 15.398
302.570, 5.278
303.933, 22.151
305.296, 4.983
306.659, 12.869
308.022, 22.678
309.384, 10.500
310.746, 10.308
312.108, 17.105
313.470, 12.897
314.831, 25.684
316.193, 19.461
317.554, 10.232
318.914, 12.997
320.275, 20.754
321.635, 28.503
322.995, 2.244
324.355, 14.983
325.715, 22.719
327.074, 13.452
328.434, 28.183
329.792, 13.910
331.151, 18.634
332.510, 20.357
333.868, 0.922
335.226, 14.796
336.584, 14.512
337.941, 15.226
339.299, 11.934
340.656, 9.642
342.013, 20.347
343.370, 23.051
344.726, 11.751
346.082, 22.450
347.438, 12.147
348.794, 14.844
350.150, 7.539
351.505, 24.233
352.860, 26.927
354.215, 21.619
355.570, 22.310
356.924, 22.001
358.278, 26.690
359.632, 26.379
360.986, 22.066
362.339, 37.753
363.693, 26.439
365.046, 24.125
366.399, 32.810
367.751, 28.495
369.104, 35.179
370.456, 27.863
371.808, 32.546
373.159, 37.183
374.511, 41.840
375.862, 38.452
377.213, 34.092
378.564, 35.681
379.914, 42.321
381.265, 41.063
382.615, 48.539
383.965, 50.022
385.315, 56.278
386.664, 57.914
388.013, 41.317
389.362, 40.878
390.711, 37.177
392.060, 44.283
393.408, 58.100
394.756, 60.865
396.104, 62.766
397.451, 72.676
398.799, 76.542
400.146, 70.597
401.493, 57.534
402.840, 78.858
404.186, 85.431
405.533, 74.715
406.879, 78.999
408.225, 73.546
409.570, 76.651
410.916, 80.825
412.261, 77.340
413.606, 93.621
414.951, 92.220
416.295, 95.359
417.639, 113.694
418.983, 109.657
420.327, 119.065
421.671, 138.040
423.014, 117.662
424.357, 147.520
425.700, 130.030
427.043, 152.626
428.386, 181.139
429.728, 167.685
431.070, 203.232
432.412, 227.767
433.753, 246.335
435.095, 265.857
436.436, 311.419
437.777, 379.812
439.118, 411.404
440.458, 481.966
441.798, 582.546
443.138, 727.140
444.478, 922.645
445.818, 1154.234
447.157, 1517.806
448.496, 2107.349
449.835, 2852.905
451.174, 4112.496
452.513, 5357.040
453.851, 6811.684
455.189, 8081.307
456.527, 9894.323
457.864, 12773.941
459.202, 15253.517
460.539, 16273.073
461.876, 14372.658
463.212, 10662.282
464.549, 7467.856
465.885, 4997.501
467.221, 3507.681
468.557, 2452.297
469.893, 1789.944
471.228, 1365.556
472.563, 1058.168
473.898, 833.810
475.233, 689.438
476.567, 578.094
477.902, 520.750
479.236, 418.371
480.570, 363.004
481.903, 335.663
483.237, 314.323
484.570, 260.906
485.903, 231.555
487.235, 229.217
488.568, 193.865
489.900, 189.532
491.232, 175.188
492.564, 154.858
493.896, 156.529
495.227, 142.088
496.558, 147.753
497.889, 128.420
499.220, 109.092
500.551, 104.751
501.881, 94.402
503.211, 99.080
504.541, 94.758
505.870, 91.100
507.200, 95.103
508.529, 84.773
509.858, 86.457
511.187, 83.114
512.515, 55.802
513.844, 64.491
515.172, 43.181
516.500, 65.874
517.827, 63.567
519.155, 54.267
520.482, 51.964
521.809, 57.664
523.136, 49.398
524.462, 59.138
525.789, 42.846
527.115, 39.554
528.441, 28.263
529.766, 24.976
531.092, 20.689
532.417, 20.353
533.742, 42.121
535.067, 27.841
536.391, 29.567
537.716, 39.295
539.040, 19.024
540.364, 26.759
541.688, 25.499
543.011, 29.242
544.334, 22.987
545.657, 27.752
546.980, 14.501
548.303, 34.253
549.625, 22.006
550.947, 8.237
552.269, 15.522
553.591, 10.306
554.913, 13.181
556.234, 35.083
557.555, 10.862
558.876, 21.649
560.197, 12.436
561.517, 0.231
562.837, 0.046
564.157, 1.132
565.477, 3.673
566.797, 17.482
568.116, 19.661
569.435, 14.477
570.754, 9.445
572.073, 18.263
573.391, 17.086
574.709, 20.907
576.027, 21.616
577.345, 11.807
578.663, 18.648
579.980, 12.479
581.297, 7.323
582.614, 8.159
583.931, 8.003
585.248, 4.926
586.564, 12.769
587.880, 13.612
589.196, 13.457
590.511, 28.512
591.827, 30.649
593.142, 26.773
594.457, 36.621
595.772, 42.552
597.086, 54.402
598.401, 58.253
599.715, 74.640
601.029, 71.495
602.343, 66.395
603.656, 90.247
604.969, 94.101
606.282, 132.960
607.595, 149.098
608.908, 202.953
610.220, 270.821
611.532, 361.677
612.844, 568.549
614.156, 805.671
615.468, 1223.530
616.779, 1753.392
618.090, 2156.252
619.401, 2198.286
620.712, 1898.146
622.022, 1465.007
623.332, 1145.867
624.642, 855.728
625.952, 676.599
627.262, 548.470
628.571, 489.285
629.880, 484.148
631.189, 471.010
632.498, 586.582
633.807, 755.445
635.115, 1118.307
636.423, 1528.170
637.731, 1830.031
639.039, 1908.046
640.346, 1519.994
641.653, 1024.858
642.960, 643.719
644.267, 446.580
645.574, 270.206
646.880, 204.067
648.186, 139.492
649.492, 99.351
650.798, 99.210
652.103, 98.069
653.409, 79.938
654.714, 89.939
656.019, 80.796
657.323, 69.653
658.628, 57.547
659.932, 42.427
661.236, 26.282
662.540, 28.136
663.843, 32.017
665.147, 11.885
666.450, 19.171
667.753, 21.234
669.056, 20.449
670.358, 8.299
671.660, 11.267
672.963, 13.439
674.264, 21.286
675.566, 0.237
676.868, 8.609
678.169, 0.828
679.470, 2.329
680.771, 2.487
682.071, 2.508
683.372, 1.347
684.672, 14.203
685.972, 17.781
687.271, 8.617
688.571, 17.566
689.870, 4.400
691.169, 16.906
692.468, 18.132
693.767, 8.961
695.065, 20.789
696.364, 5.792
697.662, 5.758
698.960, 19.692
700.257, 14.548
701.555, 0.368
702.852, 15.583
704.149, 13.399
705.446, 11.214
706.742, 12.397
708.038, 7.097
709.335, 0.906
710.631, 1.286
711.926, 1.581
713.222, 6.928
714.517, 5.727
715.812, 6.524
717.107, 18.469
718.402, 4.942
719.696, 3.731
720.990, 20.825
722.284, 8.612
723.578, 3.604
724.872, 8.175
726.165, 0.049
727.458, 11.295
728.751, 9.065
730.044, 20.833
731.336, 0.402
732.629, 3.359
733.921, 7.118
735.213, 19.874
736.504, 7.627
737.796, 22.576
739.087, 2.325
740.378, 22.070
741.669, 21.113
742.960, 10.853
744.250, 20.590
745.540, 0.325
746.830, 0.944
748.120, 0.683
749.410, 11.502
750.699, 3.219
751.988, 13.933
753.277, 25.645
754.566, 4.646
755.854, 10.056
757.143, 4.755
758.431, 15.451
759.719, 22.145
761.006, 9.836
762.294, 0.476
763.581, 26.207
764.868, 7.887
766.155, 18.565
767.442, 7.240
768.728, 0.088
770.014, 13.579
771.300, 10.244
772.586, 13.905
773.872, 1.565
775.157, 15.219
776.442, 26.872
777.727, 21.521
779.012, 12.168
780.297, 8.812
781.581, 8.454
782.865, 10.907
784.149, 14.720
785.433, 19.346
786.716, 7.032
787.999, 10.582
789.282, 21.193
790.565, 16.801
791.848, 33.407
793.130, 2.010
794.413, 3.609
795.695, 9.205
796.977, 13.798
798.258, 11.388
799.540, 8.025
800.821, 24.553
802.102, 4.871
803.382, 9.697
804.663, 37.262
805.943, 8.825
807.224, 6.385
808.504, 1.943
809.783, 16.496
811.063, 22.047
812.342, 4.595
813.621, 5.140
814.900, 24.683
816.179, 13.222
817.457, 4.760
818.736, 5.294
820.014, 3.174
821.292, 0.351
822.569, 2.129
823.847, 17.386
825.124, 1.898
826.401, 1.593
827.678, 21.910
828.954, 6.589
830.231, 6.900
831.507, 2.609
832.783, 12.875
834.059, 10.324
835.334, 15.235
836.610, 5.232
837.885, 3.697
839.160, 8.840
840.435, 9.613
841.709, 1.065
842.983, 13.512
844.258, 8.042
845.532, 19.605
846.805, 6.818
848.079, 11.238
849.352, 16.343
850.625, 0.063
851.898, 0.466
853.171, 1.865
854.443, 14.261
855.715, 4.362
856.988, 12.026
858.259, 12.413
859.531, 4.203
860.803, 4.176
862.074, 4.554
863.345, 10.909
864.616, 3.176
865.886, 8.581
867.157, 14.783
868.427, 8.142
869.697, 17.499
870.967, 10.150
872.236, 7.176
873.506, 4.505
874.775, 4.829
876.044, 9.160
877.313, 4.121
878.581, 8.446
879.849, 9.380
881.118, 1.941
882.386, 1.257
883.653, 3.575
884.921, 14.685
886.188, 12.956
887.455, 2.257
888.722, 11.570
889.989, 4.130
891.255, 10.178
892.522, 16.397
893.788, 6.297
895.054, 13.004
896.319, 2.304
897.585, 17.604
898.850, 21.692
900.115, 20.698
901.380, 13.716
902.645, 37.011
903.909, 26.223
905.174, 25.516
906.438, 16.809
907.701, 21.565
908.965, 38.854
910.229, 27.098
911.492, 13.390
912.755, 38.681
914.018, 43.967
915.280, 24.973
916.543, 32.262
917.805, 32.538
919.067, 36.827
920.329, 43.100
921.590, 34.122
922.852, 34.409
924.113, 47.694
925.374, 63.981
926.635, 34.093
927.895, 44.380
929.156, 61.666
930.416, 41.952
931.676, 49.238
932.936, 56.517
934.195, 46.794
935.454, 56.129
936.714, 58.415
937.973, 53.701
939.231, 52.279
940.490, 63.566
941.748, 65.853
943.006, 50.140
944.264, 62.428
945.522, 62.562
946.780, 75.765
948.037, 67.051
949.294, 69.341
950.551, 103.630
951.808, 85.155
953.064, 68.446
954.320, 108.173
955.577, 83.465
956.832, 106.758
958.088, 106.052
959.344, 121.337
960.599, 110.489
961.854, 115.786
963.109, 126.083
964.364, 127.073
965.618, 135.446
966.872, 148.920
968.127, 161.222
969.380, 186.497
970.634, 228.787
971.888, 304.658
973.141, 340.753
974.394, 379.696
975.647, 377.006
976.900, 379.199
978.152, 402.188
979.404, 422.503
980.656, 498.188
981.908, 547.505
983.160, 611.449
984.411, 755.770
985.663, 802.092
986.914, 944.263
988.165, 1135.588
989.415, 1424.899
990.666, 1890.487
991.916, 2507.819
993.166, 3664.038
994.416, 5790.375
995.665, 10289.037
996.915, 21826.984
998.164, 43766.320
999.413, 60965.668
1000.662, 54563.840
1001.911, 31353.047
1003.159, 16932.287
1004.407, 9471.606
1005.655, 5649.963
1006.903, 3729.926
1008.151, 2485.287
1009.398, 1920.651
1010.646, 1511.648
1011.893, 1176.018
1013.139, 1010.392
1014.386, 870.769
1015.633, 725.149
1016.879, 635.924
1018.125, 555.310
1019.371, 510.700
1020.616, 464.943
1021.862, 413.657
1023.107, 407.055
1024.352, 352.143
1025.597, 326.548
1026.842, 309.956
1028.086, 268.368
1029.330, 256.784
1030.574, 227.633
1031.818, 223.057
1033.062, 216.491
1034.305, 188.932
1035.548, 172.377
1036.791, 164.828
1038.034, 145.284
1039.277, 153.743
1040.519, 133.008
1041.762, 103.474
1043.004, 116.943
1044.246, 113.117
1045.487, 101.596
1046.729, 99.078
1047.970, 94.274
1049.211, 86.060
1050.452, 90.559
1051.692, 85.066
1052.933, 89.137
1054.173, 86.564
1055.413, 82.724
1056.653, 80.249
1057.893, 66.040
1059.132, 56.578
1060.371, 50.210
1061.610, 55.760
1062.849, 47.312
1064.088, 51.868
1065.326, 70.428
1066.565, 53.993
1067.803, 20.562
1069.041, 52.134
1070.278, 46.714
1071.516, 23.301
1072.753, 27.891
1073.990, 37.486
1075.227, 38.085
1076.464, 40.689
1077.700, 29.297
1078.936, 22.910
1080.173, 44.529
1081.408, 22.151
1082.644, 42.778
1083.880, 27.409
1085.115, 6.048
1086.350, 33.691
1087.585, 6.338
1088.820, 32.993
1090.054, 55.651
1091.288, 53.313
1092.522, 75.980
1093.756, 88.650
1094.990, 63.325
1096.224, 68.005
1097.457, 76.690
1098.690, 86.380
1099.923, 98.075
1101.156, 131.781
1102.388, 162.491
1103.621, 237.208
1104.853, 302.929
1106.085, 388.655
1107.316, 546.385
1108.548, 630.120
1109.779, 684.861
1111.010, 659.606
1112.241, 511.354
1113.472, 426.108
1114.703, 289.865
1115.933, 201.626
1117.163, 165.396
1118.393, 117.166
1119.623, 81.940
1120.853, 74.720
1122.082, 70.506
1123.311, 53.476
1124.540, 52.271
1125.769, 38.071
1126.997, 51.877
1128.226, 41.686
1129.454, 49.502
1130.682, 47.323
1131.910, 40.149
1133.138, 78.979
1134.365, 94.817
1135.592, 74.665
1136.819, 121.516
1138.046, 114.371
1139.273, 135.234
1140.499, 165.100
1141.725, 175.972
1142.951, 217.848
1144.177, 254.730
1145.403, 300.622
1146.628, 376.518
1147.854, 398.418
1149.079, 501.327
1150.304, 629.240
1151.528, 775.158
1152.753, 996.080
1153.977, 1262.005
1155.201, 1527.936
1156.425, 1868.870
1157.649, 2084.809
1158.872, 2293.752
1160.096, 2391.107
1161.319, 2046.058
1162.542, 1806.012
1163.764, 1411.970
1164.987, 1070.934
1166.209, 881.901
1167.431, 684.872
1168.653, 551.851
1169.875, 474.837
1171.097, 329.826
1172.318, 290.819
1173.539, 257.816
1174.760, 198.817
1175.981, 165.820
1177.202, 160.890
1178.422, 122.147
1179.642, 121.478
1180.862, 103.496
1182.082, 89.518
1183.302, 66.113
1184.521, 50.339
1185.740, 62.369
1186.959, 57.402
1188.178, 41.439
1189.397, 26.479
1190.615, 50.526
1191.834, 26.923
1193.052, 23.972
1194.269, 27.510
1195.487, 18.993
1196.705, 8.050
1197.922, 10.737
1199.139, 5.799
1200.356, 10.566
1201.573, 7.320
1202.789, 15.748
1204.006, 12.398
1205.222, 12.672
1206.438, 6.256
1207.653, 0.183
1208.869, 29.458
1210.084, 9.540
1211.299, 4.622
1212.514, 34.706
1213.729, 9.803
1214.944, 3.888
1216.158, 8.902
1217.372, 19.362
1218.586, 32.465
1219.800, 9.557
1221.014, 21.862
1222.227, 17.958
1223.440, 13.055
1224.654, 12.453
1225.866, 22.050
1227.079, 18.196
1228.292, 17.301
1229.504, 10.413
1230.716, 13.519
1231.928, 6.632
1233.139, 13.934
1234.351, 15.044
1235.562, 9.157
1236.773, 13.457
1237.984, 12.479
1239.195, 11.599
1240.406, 20.722
1241.616, 15.848
1242.826, 31.403
1244.036, 24.570
1245.246, 26.959
1246.456, 42.019
1247.665, 39.297
1248.874, 36.437
1250.083, 28.579
1251.292, 46.872
1252.501, 32.169
1253.709, 43.441
1254.917, 31.747
1256.125, 27.956
1257.333, 31.110
1258.541, 17.266
1259.748, 10.424
1260.956, 5.584
1262.163, 0.177
1263.370, 38.987
1264.576, 6.152
1265.783, 21.320
1266.989, 0.489
1268.195, 6.339
1269.401, 26.833
1270.607, 10.018
1271.813, 3.191
1273.018, 22.366
1274.223, 15.542
1275.428, 21.748
1276.633, 12.927
1277.838, 2.109
1279.042, 20.230
1280.246, 20.397
1281.450, 7.562
1282.654, 11.753
1283.858, 20.919
1285.061, 6.107
1286.265, 12.373
1287.468, 9.561
1288.671, 6.717
1289.873, 24.869
1291.076, 6.022
1292.278, 14.169
1293.480, 39.317
1294.682, 19.462
1295.884, 27.607
1297.086, 3.752
1298.287, 17.887
1299.488, 20.022
1300.689, 2.156
1301.890, 7.288
1303.091, 14.415
1304.291, 7.458
1305.491, 4.667
1306.691, 18.790
1307.891, 5.914
1309.091, 21.036
1310.290, 18.158
1311.490, 4.275
1312.689, 9.382
1313.888, 9.485
1315.086, 9.586
1316.285, 25.683
1317.483, 16.038
1318.681, 14.868
1319.879, 6.958
1321.077, 0.045
1322.275, 2.869
1323.472, 19.787
1324.669, 14.642
1325.866, 9.355
1327.063, 7.581
1328.260, 1.521
1329.456, 7.524
1330.653, 6.565
1331.849, 8.603
1333.045, 15.637
1334.240, 2.667
1335.436, 3.305
1336.631, 9.718
1337.826, 5.262
1339.021, 4.247
1340.216, 7.763
1341.411, 7.231
1342.605, 13.770
1343.799, 8.232
1344.993, 2.792
1346.187, 9.671
1347.381, 9.344
1348.574, 21.377
1349.767, 8.352
1350.961, 10.233
1352.153, 5.802
1353.346, 5.160
1354.539, 6.119
1355.731, 6.075
1356.923, 5.028
1358.115, 12.978
1359.307, 11.075
1360.498, 2.135
1361.690, 5.800
1362.881, 19.732
1364.072, 0.661
1365.263, 12.595
1366.453, 19.530
1367.644, 0.550
1368.834, 3.629
1370.024, 5.284
1371.214, 9.195
1372.404, 8.102
1373.593, 11.036
1374.783, 8.938
1375.972, 1.828
1377.161, 27.706
1378.349, 19.918
1379.538, 17.131
1380.726, 5.344
1381.915, 16.555
1383.103, 13.764
1384.290, 14.962
1385.478, 0.840
1386.665, 9.356
1387.853, 2.548
1389.040, 8.261
1390.227, 5.930
1391.413, 18.114
1392.600, 31.303
1393.786, 6.490
1394.972, 6.471
1396.158, 7.655
1397.344, 6.837
1398.530, 11.408
1399.715, 28.193
1400.900, 19.361
1402.085, 21.529
1403.270, 22.694
1404.455, 11.857
1405.639, 36.018
1406.824, 23.179
1408.008, 25.339
1409.192, 27.497
1410.375, 26.655
1411.559, 28.812
1412.742, 19.423
1413.925, 39.572
1415.108, 25.720
1416.291, 42.868
1417.474, 19.015
1418.656, 28.161
1419.839, 48.308
1421.021, 4.992
1422.202, 29.756
1423.384, 36.007
1424.566, 16.797
1425.747, 39.880
1426.928, 17.956
1428.109, 11.491
1429.290, 16.119
1430.470, 21.167
1431.651, 42.066
1432.831, 27.015
1434.011, 34.732
1435.191, 25.744
1436.370, 25.773
1437.550, 31.762
1438.729, 29.735
1439.908, 40.397
1441.087, 29.335
1442.266, 39.903
1443.444, 43.292
1444.623, 31.200
1445.801, 33.108
1446.979, 20.021
1448.157, 46.554
1449.334, 38.460
1450.512, 56.168
1451.689, 36.044
1452.866, 52.908
1454.043, 14.147
1455.220, 33.596
1456.396, 39.997
1457.573, 48.074
1458.749, 50.252
1459.925, 46.902
1461.100, 50.528
1462.276, 21.934
1463.451, 40.503
1464.627, 41.042
1465.802, 27.520
1466.977, 51.008
1468.151, 39.384
1469.326, 42.799
1470.500, 22.455
1471.674, 37.771
1472.848, 10.063
1474.022, 21.005
1475.195, 25.370
1476.369, 15.733
1477.542, 10.090
1478.715, 34.420
1479.888, 16.783
1481.061, 17.127
1482.233, 35.476
1483.405, 10.790
1484.577, 34.069
1485.749, 1.324
1486.921, 17.649
1488.093, 19.983
1489.264, 10.320
1490.435, 11.635
1491.606, 15.927
1492.777, 14.270
1493.948, 17.453
1495.118, 20.834
1496.288, 11.231
1497.459, 15.642
1498.628, 10.557
1499.798, 5.474
1500.968, 7.899
1502.137, 13.050
1503.306, 22.485
1504.475, 21.933
1505.644, 0.404
1506.813, 0.093
1507.981, 20.425
1509.149, 0.961
1510.318, 16.540
1511.485, 4.181
1512.653, 8.355
1513.821, 0.167
1514.988, 14.362
1516.155, 16.616
1517.322, 0.000
##END=



