##NAMES=Celestine
##RRUFFID=R040007
##IDEAL CHEMISTRY=SrS^6+^O_4_
##LOCALITY=Coahuila, Mexico
##OWNER=RRUFF
##SOURCE=University of Arizona Mineral Museum
##DESCRIPTION=Blue tabular crystals
##STATUS=The identification of this mineral has been confirmed by X-ray diffraction and chemical analysis
##URL=rruff.info/R040007
##MEASURED CHEMISTRY=(Sr_0.95_Ba_0.04_Ca_0.01_)_Σ=1_S_1.00_O_4_; = Light bands. (Sr_0.99_Ba_0.01_)_Σ=1_S_1.00_O_4_; trace amounts of Ca = Dark bands
##PIN_ID=M00011
##ORIENTATION=Laser parallel to c* (0 0 1). Fiducial mark perpendicular to laser is parallel to a [1 0 0]
86.404, 0.000
87.798, 0.520
89.193, 4.911
90.587, 33.869
91.981, 46.424
93.375, 68.089
94.768, 38.571
96.161, 26.685
97.554, 19.301
98.947, 54.325
100.340, 26.688
101.732, 50.336
103.124, 47.231
104.516, 52.339
105.908, 44.636
107.300, 65.095
108.691, 41.697
110.082, 53.423
111.473, 43.262
112.864, 65.204
114.254, 114.245
115.644, 179.372
117.034, 325.581
118.424, 393.863
119.813, 349.212
121.203, 264.623
122.592, 233.122
123.981, 231.662
125.369, 199.242
126.758, 186.667
128.146, 192.507
129.534, 154.183
130.922, 143.890
132.309, 124.624
133.696, 77.378
135.083, 63.178
136.470, 83.000
137.857, 56.877
139.243, 44.802
140.630, 37.778
142.016, 25.760
143.401, 15.744
144.787, 54.742
146.172, 12.794
147.557, 26.864
148.942, 57.931
150.327, 42.027
151.711, 26.127
153.096, 37.258
154.480, 38.389
155.863, 27.514
157.247, 31.647
158.630, 0.534
160.013, 51.588
161.396, 34.704
162.779, 60.816
164.161, 39.924
165.544, 21.029
166.926, 52.129
168.308, 58.227
169.689, 46.318
171.070, 44.398
172.452, 66.471
173.833, 37.539
175.213, 69.959
176.594, 38.016
177.974, 21.072
179.354, 36.128
180.734, 32.198
182.114, 18.231
183.493, 43.274
184.872, 61.575
186.251, 45.618
187.630, 70.144
189.008, 110.208
190.387, 85.224
191.765, 101.118
193.143, 144.261
194.520, 182.611
195.898, 203.608
197.275, 215.608
198.652, 259.610
200.029, 279.616
201.405, 268.624
202.782, 240.737
204.158, 214.496
205.534, 182.337
206.909, 160.313
208.285, 135.292
209.660, 110.273
211.035, 89.257
212.410, 62.517
213.784, 89.733
215.159, 39.713
216.533, 6.269
217.907, 51.234
219.281, 50.746
220.654, 44.719
222.027, 17.693
223.400, 43.668
224.773, 59.646
226.146, 23.626
227.518, 12.973
228.891, 53.943
230.263, 8.086
231.634, 37.886
233.006, 28.860
234.377, 9.844
235.748, 26.829
237.119, 25.816
238.490, 15.804
239.860, 59.793
241.231, 12.781
242.601, 26.794
243.970, 45.784
245.340, 8.776
246.709, 27.767
248.079, 15.760
249.448, 16.753
250.816, 20.747
252.185, 17.192
253.553, 18.183
254.921, 25.077
256.289, 14.949
257.657, 28.852
259.024, 25.781
260.391, 16.731
261.758, 5.300
263.125, 25.685
264.492, 39.683
265.858, 13.695
267.224, 40.717
268.590, 11.750
269.956, 2.792
271.321, 38.842
272.687, 19.900
274.052, 0.035
275.416, 11.965
276.781, 25.109
278.146, 9.188
279.510, 5.272
280.874, 20.360
282.237, 3.548
283.601, 6.546
284.964, 0.644
286.327, 23.745
287.690, 6.151
289.053, 7.047
290.416, 16.942
291.778, 14.161
293.140, 5.266
294.502, 41.372
295.863, 10.520
297.225, 13.413
298.586, 18.692
299.947, 4.202
301.308, 16.904
302.668, 33.010
304.029, 11.118
305.389, 35.225
306.749, 36.333
308.108, 8.441
309.468, 18.549
310.827, 9.657
312.186, 36.765
313.545, 8.872
314.903, 12.980
316.262, 18.087
317.620, 12.807
318.978, 29.296
320.336, 8.602
321.693, 4.498
323.051, 21.411
324.408, 42.679
325.765, 5.768
327.121, 14.856
328.478, 21.944
329.834, 20.032
331.190, 9.119
332.546, 30.206
333.902, 22.293
335.257, 13.621
336.612, 0.461
337.967, 1.457
339.322, 9.622
340.677, 4.079
342.031, 26.157
343.385, 5.765
344.739, 26.311
346.093, 1.618
347.446, 7.548
348.799, 0.482
350.153, 2.417
351.505, 29.644
352.858, 4.201
354.210, 32.253
355.563, 10.301
356.915, 17.344
358.267, 21.385
359.618, 44.426
360.969, 32.678
362.321, 44.726
363.672, 28.773
365.022, 16.179
366.373, 24.858
367.723, 10.893
369.073, 8.919
370.423, 50.945
371.773, 5.971
373.122, 6.000
374.471, 16.029
375.821, 24.052
377.169, 27.073
378.518, 8.125
379.866, 27.147
381.215, 19.167
382.563, 70.184
383.910, 42.202
385.258, 31.362
386.605, 42.379
387.952, 23.397
389.299, 34.425
390.646, 47.446
391.992, 53.468
393.339, 41.190
394.685, 5.338
396.031, 26.486
397.376, 72.510
398.722, 41.554
400.067, 69.578
401.412, 56.602
402.757, 31.625
404.101, 23.653
405.446, 12.690
406.790, 12.708
408.134, 9.735
409.478, 41.762
410.821, 66.793
412.165, 59.823
413.508, 20.852
414.851, 62.887
416.193, 34.924
417.536, 48.962
418.878, 80.000
420.220, 73.038
421.562, 83.077
422.904, 87.094
424.245, 85.100
425.586, 92.002
426.927, 84.041
428.268, 101.080
429.609, 99.118
430.949, 91.155
432.289, 99.192
433.629, 112.229
434.969, 126.266
436.309, 153.635
437.648, 195.763
438.987, 221.798
440.326, 255.833
441.665, 303.867
443.003, 392.901
444.342, 567.780
445.680, 795.811
447.018, 1170.844
448.355, 1674.875
449.693, 2300.611
451.030, 2980.293
452.367, 3713.408
453.704, 4223.436
455.041, 4207.462
456.377, 4029.490
457.713, 3459.955
459.049, 2909.244
460.385, 2548.268
461.721, 2077.996
463.056, 1807.091
464.391, 1353.121
465.726, 1048.150
467.061, 783.177
468.395, 593.203
469.730, 446.228
471.064, 314.252
472.398, 269.275
473.731, 223.297
475.065, 148.318
476.398, 142.338
477.731, 143.356
479.064, 133.594
480.397, 83.610
481.729, 103.082
483.062, 83.096
484.394, 121.772
485.725, 103.786
487.057, 54.798
488.389, 49.813
489.720, 37.826
491.051, 11.839
492.382, 42.854
493.712, 35.869
495.043, 30.890
496.373, 9.014
497.703, 37.952
499.032, 40.783
500.362, 4.201
501.691, 58.810
503.020, 44.822
504.349, 15.379
505.678, 25.389
507.007, 36.179
508.335, 38.617
509.663, 60.461
510.991, 14.196
512.319, 6.795
513.646, 11.205
514.973, 25.208
516.300, 40.209
517.627, 72.213
518.954, 71.216
520.280, 1.317
521.607, 34.682
522.933, 15.679
524.259, 54.681
525.584, 40.515
526.910, 45.509
528.235, 13.501
529.560, 33.493
530.885, 56.484
532.209, 15.001
533.534, 24.989
534.858, 31.978
536.182, 51.971
537.506, 14.446
538.829, 33.541
540.152, 39.103
541.476, 8.086
542.799, 48.068
544.121, 0.049
545.444, 14.072
546.766, 16.214
548.088, 36.317
549.410, 35.290
550.732, 27.262
552.053, 28.232
553.375, 2.328
554.696, 2.272
556.017, 13.793
557.337, 8.756
558.658, 17.939
559.978, 35.719
561.298, 29.677
562.618, 37.287
563.938, 44.091
565.257, 35.507
566.576, 42.576
567.895, 41.532
569.214, 15.185
570.533, 33.138
571.851, 66.091
573.170, 23.925
574.488, 40.170
575.805, 55.116
577.123, 34.060
578.440, 38.002
579.758, 27.212
581.075, 74.150
582.391, 48.086
583.708, 84.021
585.024, 74.954
586.341, 85.908
587.657, 82.375
588.972, 67.763
590.288, 67.686
591.603, 57.776
592.918, 63.695
594.233, 70.769
595.548, 63.776
596.863, 67.691
598.177, 43.604
599.491, 95.542
600.805, 103.449
602.119, 72.355
603.432, 93.259
604.746, 95.507
606.059, 134.492
607.372, 143.389
608.685, 180.285
609.997, 256.180
611.309, 354.086
612.621, 482.980
613.933, 685.064
615.245, 990.953
616.557, 1244.842
617.868, 1550.806
619.179, 1738.693
620.490, 1617.533
621.801, 1391.417
623.111, 1116.297
624.421, 897.176
625.731, 757.052
627.041, 634.925
628.351, 635.796
629.660, 599.664
630.970, 624.529
632.279, 831.392
633.588, 1043.252
634.896, 1462.109
636.205, 1928.964
637.513, 2435.819
638.821, 2586.672
640.129, 2534.524
641.437, 2061.374
642.744, 1421.718
644.051, 931.569
645.358, 685.092
646.665, 472.937
647.972, 365.779
649.278, 285.698
650.584, 236.534
651.890, 266.010
653.196, 250.841
654.502, 248.672
655.807, 245.502
657.113, 209.329
658.418, 191.775
659.722, 159.108
661.027, 93.927
662.331, 91.750
663.636, 84.565
664.940, 126.377
666.244, 55.189
667.547, 60.205
668.851, 64.013
670.154, 50.314
671.457, 61.594
672.760, 52.915
674.062, 52.578
675.365, 38.371
676.667, 14.839
677.969, 68.732
679.271, 66.503
680.572, 23.290
681.874, 22.055
683.175, 56.822
684.476, 72.586
685.777, 27.522
687.077, 68.280
688.378, 0.034
689.678, 30.781
690.978, 54.967
692.278, 44.874
693.577, 0.058
694.877, 67.395
696.176, 0.121
697.475, 58.839
698.774, 42.553
700.072, 41.264
701.371, 17.830
702.669, 10.534
703.967, 24.766
705.265, 30.913
706.562, 39.588
707.860, 50.261
709.157, 11.930
710.454, 33.470
711.751, 0.005
713.047, 54.725
714.344, 17.357
715.640, 22.004
716.936, 25.649
718.232, 6.710
719.527, 47.919
720.823, 22.546
722.118, 11.170
723.413, 31.634
724.708, 1.545
726.002, 33.062
727.297, 31.832
728.591, 4.567
729.885, 6.023
731.179, 79.607
732.472, 30.189
733.766, 42.767
735.059, 6.418
736.352, 41.987
737.645, 46.554
738.937, 29.118
740.230, 54.681
741.522, 17.239
742.814, 43.794
744.106, 40.346
745.397, 68.895
746.689, 8.441
747.980, 52.982
749.271, 8.521
750.562, 11.055
751.853, 28.586
753.143, 24.114
754.433, 14.638
755.723, 46.160
757.013, 19.679
758.303, 20.196
759.592, 1.710
760.881, 12.219
762.170, 36.724
763.459, 25.226
764.748, 45.726
766.036, 15.223
767.325, 90.718
768.613, 5.210
769.901, 41.698
771.188, 40.184
772.476, 8.669
773.763, 51.152
775.050, 24.369
776.337, 43.092
777.624, 24.550
778.910, 50.005
780.196, 20.458
781.482, 20.909
782.768, 38.357
784.054, 52.803
785.339, 20.246
786.625, 41.688
787.910, 26.127
789.195, 52.563
790.479, 50.998
791.764, 29.430
793.048, 36.861
794.332, 53.289
795.616, 52.715
796.900, 2.861
798.183, 39.556
799.467, 6.029
800.750, 15.378
802.033, 27.783
803.316, 12.814
804.598, 31.578
805.880, 22.033
807.163, 33.341
808.445, 61.712
809.726, 28.082
811.008, 13.450
812.289, 22.816
813.570, 4.818
814.851, 10.542
816.132, 3.900
817.413, 40.256
818.693, 15.610
819.973, 46.962
821.253, 16.687
822.533, 25.652
823.813, 32.989
825.092, 15.328
826.371, 56.664
827.650, 12.001
828.929, 24.325
830.208, 40.649
831.486, 33.507
832.764, 6.830
834.042, 1.152
835.320, 51.466
836.598, 12.774
837.875, 30.093
839.152, 2.591
840.429, 25.723
841.706, 54.036
842.983, 42.821
844.259, 7.869
845.536, 19.563
846.812, 8.268
848.088, 11.567
849.363, 22.720
850.639, 45.430
851.914, 34.717
853.189, 48.003
854.464, 34.289
855.739, 30.529
857.013, 64.649
858.288, 31.806
859.562, 47.091
860.836, 19.376
862.110, 34.661
863.383, 21.819
864.656, 30.104
865.930, 2.167
867.203, 60.118
868.475, 40.367
869.748, 1.646
871.020, 44.931
872.292, 26.250
873.564, 1.537
874.836, 33.822
876.108, 36.010
877.379, 6.739
878.650, 47.834
879.922, 5.895
881.192, 16.374
882.463, 21.761
883.733, 2.735
885.004, 24.007
886.274, 16.279
887.544, 3.448
888.813, 60.557
890.083, 45.832
891.352, 22.107
892.621, 0.384
893.890, 26.661
895.159, 9.916
896.427, 41.196
897.695, 41.477
898.964, 75.760
900.232, 82.876
901.499, 73.284
902.767, 54.292
904.034, 57.487
905.301, 34.777
906.568, 52.069
907.835, 49.335
909.102, 27.630
910.368, 42.927
911.634, 23.449
912.900, 19.361
914.166, 47.620
915.432, 61.924
916.697, 55.230
917.962, 17.539
919.227, 66.840
920.492, 93.187
921.757, 96.459
923.021, 48.775
924.285, 117.632
925.550, 52.880
926.813, 61.205
928.077, 26.578
929.341, 26.907
930.604, 80.239
931.867, 125.573
933.130, 78.911
934.393, 58.252
935.655, 132.596
936.918, 30.942
938.180, 78.294
939.442, 40.649
940.703, 44.013
941.965, 67.380
943.226, 79.750
944.488, 72.123
945.749, 46.499
947.009, 106.877
948.270, 87.259
949.530, 91.152
950.791, 117.539
952.051, 121.253
953.311, 125.662
954.570, 107.043
955.830, 120.363
957.089, 133.766
958.348, 118.530
959.607, 82.939
960.866, 151.352
962.124, 110.768
963.383, 114.190
964.641, 171.616
965.899, 191.533
967.156, 180.966
968.414, 170.396
969.671, 183.836
970.928, 212.280
972.185, 215.727
973.442, 310.972
974.699, 358.427
975.955, 353.886
977.211, 327.352
978.468, 343.821
979.723, 406.427
980.979, 433.905
982.234, 488.386
983.490, 648.880
984.745, 625.382
986.000, 717.870
987.254, 828.381
988.509, 1031.896
989.763, 1316.415
991.017, 1677.763
992.271, 2193.290
993.525, 3150.821
994.779, 4684.359
996.032, 7661.461
997.285, 14334.859
998.538, 27497.980
999.791, 44261.918
1001.044, 57093.500
1002.296, 46907.090
1003.548, 28190.682
1004.800, 16006.277
1006.052, 9459.880
1007.304, 5726.484
1008.555, 3584.096
1009.807, 2489.727
1011.058, 1822.362
1012.309, 1391.002
1013.559, 1161.647
1014.810, 935.297
1016.060, 808.951
1017.310, 698.546
1018.560, 647.212
1019.810, 506.884
1021.060, 526.560
1022.309, 417.249
1023.558, 399.947
1024.807, 363.649
1026.056, 329.356
1027.305, 350.225
1028.553, 304.737
1029.801, 283.463
1031.049, 235.029
1032.297, 202.765
1033.545, 194.509
1034.793, 201.260
1036.040, 189.016
1037.287, 148.776
1038.534, 146.467
1039.781, 129.317
1041.027, 137.023
1042.274, 114.812
1043.520, 122.607
1044.766, 126.413
1046.012, 92.234
1047.257, 80.060
1048.503, 37.891
1049.748, 86.728
1050.993, 49.571
1052.238, 120.419
1053.483, 97.272
1054.727, 55.134
1055.971, 41.000
1057.216, 106.871
1058.459, 59.767
1059.703, 52.667
1060.947, 14.428
1062.190, 88.481
1063.433, 38.396
1064.676, 36.316
1065.919, 41.244
1067.162, 19.176
1068.404, 82.113
1069.646, 3.944
1070.888, 10.998
1072.130, 40.953
1073.372, 25.092
1074.613, 50.055
1075.855, 43.016
1077.096, 43.981
1078.337, 21.958
1079.578, 60.946
1080.818, 27.940
1082.059, 59.364
1083.299, 39.367
1084.539, 30.375
1085.779, 8.387
1087.018, 15.976
1088.258, 0.997
1089.497, 38.649
1090.736, 41.679
1091.975, 33.714
1093.213, 45.752
1094.452, 17.795
1095.690, 96.842
1096.928, 53.893
1098.166, 68.948
1099.404, 126.009
1100.642, 191.075
1101.879, 138.147
1103.116, 223.224
1104.353, 327.305
1105.590, 421.395
1106.827, 536.488
1108.063, 698.593
1109.299, 823.702
1110.536, 1009.814
1111.771, 1037.449
1113.007, 935.569
1114.243, 818.694
1115.478, 621.833
1116.713, 454.969
1117.948, 345.107
1119.183, 236.250
1120.418, 218.396
1121.652, 169.546
1122.886, 151.705
1124.120, 135.867
1125.354, 106.687
1126.588, 94.856
1127.821, 100.036
1129.055, 103.216
1130.288, 70.400
1131.521, 124.160
1132.753, 168.297
1133.986, 103.523
1135.218, 132.720
1136.450, 195.920
1137.682, 156.124
1138.914, 269.331
1140.146, 247.541
1141.377, 300.760
1142.609, 307.977
1143.840, 396.631
1145.071, 480.554
1146.301, 526.796
1147.532, 599.033
1148.762, 754.275
1149.992, 883.533
1151.222, 1095.780
1152.452, 1346.084
1153.682, 1675.335
1154.911, 1992.589
1156.140, 2513.948
1157.369, 3083.553
1158.598, 3613.831
1159.827, 4106.092
1161.055, 4473.355
1162.284, 4373.667
1163.512, 3964.933
1164.740, 3366.230
1165.967, 2733.501
1167.195, 2144.921
1168.422, 1685.236
1169.650, 1367.301
1170.877, 1047.577
1172.103, 890.870
1173.330, 661.149
1174.557, 632.510
1175.783, 505.799
1177.009, 447.287
1178.235, 334.580
1179.461, 343.898
1180.686, 299.244
1181.912, 247.541
1183.137, 192.838
1184.362, 252.135
1185.587, 155.591
1186.811, 202.437
1188.036, 192.472
1189.260, 124.084
1190.484, 104.220
1191.708, 119.620
1192.932, 146.038
1194.155, 116.472
1195.378, 112.772
1196.602, 64.445
1197.825, 66.782
1199.047, 30.133
1200.270, 9.509
1201.492, 74.338
1202.715, 61.641
1203.937, 26.948
1205.159, 0.749
1206.380, 60.285
1207.602, 35.586
1208.823, 61.913
1210.044, 32.213
1211.265, 55.604
1212.486, 23.458
1213.707, 24.757
1214.927, 57.070
1216.147, 86.536
1217.367, 23.803
1218.587, 31.950
1219.807, 52.271
1221.027, 4.972
1222.246, 26.383
1223.465, 74.673
1224.684, 48.016
1225.903, 56.452
1227.121, 38.178
1228.340, 8.440
1229.558, 21.861
1230.776, 32.192
1231.994, 25.471
1233.212, 10.188
1234.429, 45.085
1235.646, 26.644
1236.864, 1.648
1238.081, 54.978
1239.297, 53.232
1240.514, 17.485
1241.730, 27.737
1242.947, 14.990
1244.163, 25.244
1245.378, 26.638
1246.594, 31.751
1247.810, 39.005
1249.025, 29.260
1250.240, 43.511
1251.455, 33.766
1252.670, 90.018
1253.885, 86.270
1255.099, 21.521
1256.313, 47.769
1257.527, 5.983
1258.741, 73.262
1259.955, 71.499
1261.168, 8.839
1262.382, 31.074
1263.595, 69.309
1264.808, 63.543
1266.021, 31.756
1267.233, 39.967
1268.446, 41.177
1269.658, 72.386
1270.870, 6.406
1272.082, 28.790
1273.294, 14.028
1274.505, 36.274
1275.716, 23.466
1276.928, 4.345
1278.139, 10.171
1279.349, 9.998
1280.560, 59.165
1281.770, 53.328
1282.981, 37.490
1284.191, 21.650
1285.401, 87.809
1286.610, 18.960
1287.820, 64.103
1289.029, 0.768
1290.239, 52.659
1291.448, 19.430
1292.656, 36.515
1293.865, 42.594
1295.073, 19.670
1296.282, 49.711
1297.490, 10.748
1298.698, 26.780
1299.906, 41.804
1301.113, 7.824
1302.320, 14.161
1303.528, 20.845
1304.735, 53.847
1305.942, 35.836
1307.148, 14.817
1308.355, 41.793
1309.561, 19.765
1310.767, 62.732
1311.973, 7.695
1313.179, 17.653
1314.384, 20.394
1315.590, 77.548
1316.795, 24.485
1318.000, 53.417
1319.205, 12.345
1320.410, 30.268
1321.614, 7.186
1322.819, 41.097
1324.023, 24.003
1325.227, 17.903
1326.431, 87.798
1327.634, 53.687
1328.838, 40.572
1330.041, 9.449
1331.244, 0.321
1332.447, 2.644
1333.650, 5.040
1334.852, 4.113
1336.055, 8.275
1337.257, 24.447
1338.459, 11.366
1339.661, 16.174
1340.862, 5.976
1342.064, 24.773
1343.265, 21.565
1344.466, 17.352
1345.667, 1.135
1346.868, 33.912
1348.068, 32.685
1349.269, 45.454
1350.469, 65.802
1351.669, 67.940
1352.869, 7.677
1354.069, 94.411
1355.268, 16.141
1356.468, 0.867
1357.667, 92.588
1358.866, 31.306
1360.065, 11.021
1361.263, 33.732
1362.462, 40.442
1363.660, 29.151
1364.858, 51.857
1366.056, 20.374
1367.254, 44.081
1368.451, 22.787
1369.649, 8.508
1370.846, 3.193
1372.043, 16.893
1373.240, 31.209
1374.436, 23.912
1375.633, 71.618
1376.829, 21.539
1378.025, 44.682
1379.221, 69.422
1380.417, 26.520
1381.613, 18.212
1382.808, 56.068
1384.003, 78.506
1385.199, 65.588
1386.393, 40.667
1387.588, 82.740
1388.783, 49.810
1389.977, 57.876
1391.171, 71.937
1392.365, 80.994
1393.559, 52.490
1394.753, 37.523
1395.946, 62.559
1397.140, 100.591
1398.333, 43.619
1399.526, 56.907
1400.719, 46.911
1401.911, 41.916
1403.104, 45.502
1404.296, 18.106
1405.488, 44.079
1406.680, 85.049
1407.872, 80.006
1409.063, 65.951
1410.255, 72.842
1411.446, 68.658
1412.637, 57.627
1413.828, 67.439
1415.018, 35.469
1416.209, 25.307
1417.399, 23.102
1418.589, 43.916
1419.779, 41.617
1420.969, 48.788
1422.159, 53.723
1423.348, 63.417
1424.537, 62.943
1425.726, 69.702
1426.915, 87.417
1428.104, 115.201
1429.293, 115.627
1430.481, 118.163
1431.669, 120.000
1432.857, 114.279
1434.045, 107.366
1435.233, 85.877
1436.420, 91.314
1437.608, 84.314
1438.795, 84.083
1439.982, 80.171
1441.169, 76.066
1442.355, 85.035
1443.542, 96.170
1444.728, 99.208
1445.914, 103.978
1447.100, 111.285
1448.286, 140.501
1449.472, 142.230
1450.657, 137.915
1451.842, 132.292
1453.027, 119.607
1454.212, 95.721
1455.397, 95.031
1456.581, 79.318
1457.766, 149.575
1458.950, 114.801
1460.134, 114.000
1461.318, 189.165
1462.501, 191.301
1463.685, 144.417
1464.868, 180.514
1466.051, 102.346
1467.234, 162.381
1468.417, 104.483
1469.600, 156.550
1470.782, 53.601
1471.965, 119.380
1473.147, 60.374
1474.329, 118.388
1475.510, 70.369
1476.692, 78.313
1477.873, 77.228
1479.055, 90.192
1480.236, 105.255
1481.416, 107.309
1482.597, 121.450
1483.778, 29.692
1484.958, 58.954
1486.138, 46.209
1487.318, 54.490
1488.498, 77.834
1489.678, 27.183
1490.857, 94.538
1492.037, 79.895
1493.216, 33.258
1494.395, 59.633
1495.574, 32.025
1496.752, 36.450
1497.931, 74.902
1499.109, 76.391
1500.287, 66.927
1501.465, 31.513
1502.643, 41.161
1503.820, 15.869
1504.998, 23.636
1506.175, 51.457
1507.352, 54.336
1508.529, 72.278
1509.706, 70.294
1510.882, 78.399
1512.059, 94.606
1513.235, 44.929
1514.411, 6.381
1515.587, 52.977
1516.762, 60.738
1517.938, 2.302
1519.113, 44.896
1520.288, 18.316
1521.463, 53.839
1522.638, 22.442
1523.813, 0.034
1524.987, 0.000
##END=



