##NAMES=Celestine
##RRUFFID=R050008
##IDEAL CHEMISTRY=SrS^6+^O_4_
##LOCALITY=Scofield Quarry, Maybee, Monroe County, Michigan, USA
##OWNER=RRUFF
##SOURCE=Eugene Schlepp
##DESCRIPTION=Pale blue tabular crystals
##STATUS=The identification of this mineral has been confirmed by X-ray diffraction and chemical analysis
##URL=rruff.info/R050008
##MEASURED CHEMISTRY=Sr_1.00_S_1.00_O_4_
##PIN_ID=M00399
##ORIENTATION=Laser parallel to b* (0 1 0). Fiducial mark perpendicular to laser is parallel to -c [0 0 -1]
50.167, 0.000
51.575, 14.332
52.984, 47.830
54.392, 51.695
55.799, 76.134
57.207, 103.050
58.614, 117.357
60.021, 136.695
61.428, 152.329
62.834, 154.260
64.240, 169.452
65.646, 197.397
67.052, 223.057
68.458, 210.236
69.863, 184.347
71.268, 132.521
72.673, 117.862
74.077, 91.359
75.481, 110.001
76.885, 72.778
78.289, 64.680
79.693, 15.699
81.096, 14.173
82.499, 1.941
83.902, 11.612
85.304, 16.191
86.706, 7.681
88.108, 10.087
89.510, 27.587
90.912, 45.340
92.313, 94.169
93.714, 114.069
95.115, 196.040
96.515, 219.076
97.916, 272.174
99.316, 336.331
100.715, 333.542
102.115, 438.801
103.514, 402.105
104.913, 497.454
106.312, 530.845
107.711, 553.278
109.109, 522.752
110.507, 454.266
111.905, 474.819
113.303, 410.411
114.700, 476.041
116.097, 422.708
117.494, 451.412
118.891, 454.152
120.287, 436.928
121.683, 501.739
123.079, 453.585
124.475, 569.465
125.870, 556.379
127.265, 632.328
128.660, 682.313
130.055, 685.335
131.449, 769.390
132.843, 718.477
134.237, 714.596
135.631, 615.745
137.024, 563.924
138.417, 550.128
139.810, 457.356
141.203, 520.603
142.596, 420.866
143.988, 435.141
145.380, 398.425
146.771, 393.728
148.163, 412.043
149.554, 332.356
150.945, 421.650
152.336, 352.921
153.726, 403.189
155.117, 379.476
156.507, 362.781
157.896, 413.105
159.286, 332.448
160.675, 365.811
162.064, 309.193
163.453, 405.594
164.842, 372.015
166.230, 370.455
167.618, 426.915
169.006, 390.394
170.393, 533.893
171.781, 462.410
173.168, 510.947
174.555, 457.503
175.941, 419.079
177.328, 400.673
178.714, 328.286
180.100, 387.918
181.485, 343.568
182.871, 365.237
184.256, 332.925
185.641, 337.631
187.025, 369.355
188.410, 309.098
189.794, 341.858
191.178, 343.637
192.562, 393.433
193.945, 379.247
195.328, 358.079
196.711, 456.929
198.094, 374.796
199.476, 434.680
200.859, 368.582
202.241, 351.506
203.623, 348.645
205.004, 272.603
206.385, 328.579
207.766, 206.775
209.147, 275.844
210.528, 228.867
211.908, 240.912
213.288, 242.992
214.668, 183.081
216.048, 253.199
217.427, 191.412
218.806, 237.580
220.185, 171.754
221.564, 229.918
222.942, 212.057
224.320, 162.209
225.698, 238.289
227.076, 178.324
228.453, 226.329
229.830, 188.315
231.207, 195.295
232.584, 213.181
233.960, 155.985
235.337, 187.708
236.713, 147.414
238.088, 179.156
239.464, 171.921
240.839, 122.121
242.214, 208.934
243.589, 144.769
244.964, 179.628
246.338, 166.225
247.712, 154.472
249.086, 157.587
250.459, 118.192
251.833, 204.615
253.206, 127.664
254.579, 183.655
255.951, 156.657
257.324, 128.694
258.696, 167.750
260.068, 90.822
261.439, 172.910
262.811, 106.013
264.182, 125.131
265.553, 146.265
266.924, 102.413
268.294, 141.575
269.665, 84.752
271.035, 133.942
272.404, 118.147
273.774, 124.365
275.143, 125.599
276.512, 54.845
277.881, 162.105
279.250, 62.378
280.618, 138.664
281.986, 75.963
283.354, 123.274
284.721, 104.598
286.089, 64.934
287.456, 121.282
288.823, 50.642
290.190, 121.015
291.556, 94.399
292.922, 90.794
294.288, 109.201
295.654, 45.620
297.019, 120.050
298.385, 45.490
299.750, 93.942
301.114, 89.404
302.479, 74.878
303.843, 122.361
305.207, 47.856
306.571, 81.361
307.935, 59.876
309.298, 76.402
310.661, 110.938
312.024, 60.484
313.387, 133.041
314.749, 48.608
316.111, 108.186
317.473, 62.773
318.835, 62.372
320.196, 114.981
321.558, 30.600
322.919, 109.230
324.279, 27.870
325.640, 69.520
327.000, 72.180
328.360, 38.850
329.720, 87.530
331.080, 46.219
332.439, 67.919
333.798, 59.628
335.157, 53.347
336.516, 83.075
337.874, 18.813
339.232, 75.560
340.590, 6.316
341.948, 71.081
343.305, 46.856
344.662, 3.639
346.019, 80.432
347.376, 7.233
348.733, 63.042
350.089, 32.386
351.445, 38.213
352.801, 84.049
354.156, 15.107
355.512, 62.744
356.867, 54.920
358.222, 47.788
359.576, 71.663
360.931, 15.453
362.285, 68.438
363.639, 6.664
364.992, 45.243
366.346, 21.157
367.699, 13.078
369.052, 71.007
370.405, 6.328
371.757, 55.271
373.110, 1.144
374.462, 41.817
375.814, 10.784
377.165, 18.251
378.516, 89.233
379.868, 8.462
381.218, 61.676
382.569, 45.679
383.920, 24.048
385.270, 62.065
386.620, 3.908
387.969, 72.125
389.319, 24.248
390.668, 13.638
392.017, 44.698
393.366, 18.813
394.714, 30.893
396.063, 21.451
397.411, 64.560
398.759, 23.676
400.106, 23.670
401.454, 48.808
402.801, 20.921
404.148, 62.239
405.495, 46.407
406.841, 40.622
408.187, 65.807
409.533, 16.009
410.879, 67.218
412.224, 20.437
413.570, 54.191
414.915, 47.437
416.260, 42.507
417.604, 82.878
418.949, 14.157
420.293, 62.075
421.637, 62.369
422.980, 61.714
424.324, 90.020
425.667, 67.332
427.010, 104.686
428.353, 56.014
429.695, 78.347
431.037, 83.692
432.379, 34.042
433.721, 156.432
435.063, 100.794
436.404, 140.425
437.745, 136.806
439.086, 123.191
440.427, 236.582
441.767, 208.978
443.108, 313.379
444.448, 315.788
445.787, 408.202
447.127, 555.623
448.466, 713.049
449.805, 1067.479
451.144, 1344.918
452.482, 1925.360
453.821, 2394.806
455.159, 2591.256
456.497, 3111.710
457.834, 3376.172
459.172, 4288.638
460.509, 5667.107
461.846, 6743.581
463.183, 7413.057
464.519, 6001.551
465.856, 4486.047
467.192, 3035.547
468.527, 1957.052
469.863, 1460.559
471.198, 984.077
472.534, 752.596
473.868, 542.119
475.203, 438.643
476.538, 396.169
477.872, 295.709
479.206, 263.250
480.540, 195.794
481.873, 194.340
483.206, 162.889
484.539, 124.442
485.872, 143.997
487.205, 105.553
488.537, 113.111
489.869, 89.671
491.201, 91.232
492.533, 111.793
493.864, 24.356
495.196, 84.921
496.527, 38.487
497.857, 46.054
499.188, 43.622
500.518, 3.190
501.848, 59.762
503.178, 11.334
504.508, 40.907
505.837, 70.480
507.166, 13.052
508.495, 71.625
509.824, 13.802
511.153, 32.771
512.481, 13.342
513.809, 4.913
515.137, 77.302
516.464, 8.126
517.792, 7.443
519.119, 20.050
520.446, 15.617
521.772, 40.993
523.099, 6.693
524.425, 15.201
525.751, 6.918
527.077, 14.489
528.402, 33.109
529.728, 27.216
531.053, 36.339
532.377, 13.282
533.702, 9.253
535.027, 28.891
536.351, 27.243
537.675, 43.325
538.998, 23.802
540.322, 1.365
541.645, 32.243
542.968, 6.094
544.291, 73.444
545.613, 4.626
546.936, 39.223
548.258, 0.866
549.580, 4.425
550.902, 65.059
552.223, 15.975
553.544, 55.605
554.865, 5.744
556.186, 27.441
557.507, 71.930
558.827, 42.537
560.147, 52.056
561.467, 14.255
562.786, 44.021
564.106, 33.435
565.425, 11.694
566.744, 62.892
568.063, 15.398
569.381, 26.015
570.700, 54.413
572.018, 34.010
573.335, 80.349
574.653, 6.286
575.970, 7.390
577.288, 52.717
578.604, 2.311
579.921, 55.999
581.238, 15.310
582.554, 45.769
583.870, 50.060
585.186, 21.565
586.501, 79.915
587.817, 50.186
589.132, 42.927
590.447, 49.283
591.761, 25.708
593.076, 89.093
594.390, 8.330
595.704, 95.861
597.018, 61.080
598.331, 59.677
599.645, 129.052
600.958, 42.249
602.271, 156.539
603.583, 103.719
604.896, 102.678
606.208, 173.100
607.520, 109.258
608.832, 211.636
610.143, 155.777
611.455, 242.933
612.766, 325.155
614.077, 305.270
615.387, 485.847
616.698, 561.944
618.008, 777.092
619.318, 1089.381
620.628, 1294.450
621.937, 1782.944
623.247, 2230.126
624.556, 2799.347
625.865, 3405.873
627.173, 2992.966
628.482, 2494.756
629.790, 1650.758
631.098, 1137.837
632.405, 880.836
633.713, 626.808
635.020, 660.485
636.327, 611.436
637.634, 750.448
638.941, 1034.782
640.247, 1082.714
641.553, 1149.437
642.859, 780.404
644.165, 604.303
645.471, 474.478
646.776, 339.355
648.081, 353.337
649.386, 338.191
650.691, 400.034
651.995, 437.351
653.299, 525.172
654.603, 817.110
655.907, 1043.024
657.210, 1446.810
658.514, 1535.484
659.817, 1253.245
661.120, 1106.074
662.422, 681.850
663.725, 503.576
665.027, 360.527
666.329, 237.229
667.630, 263.478
668.932, 160.156
670.233, 155.822
671.534, 153.009
672.835, 89.651
674.136, 156.140
675.436, 73.855
676.737, 84.459
678.036, 98.048
679.336, 53.628
680.636, 104.260
681.935, 53.196
683.234, 95.736
684.533, 75.611
685.832, 62.125
687.130, 91.288
688.428, 17.965
689.726, 93.800
691.024, 64.272
692.322, 37.736
693.619, 75.670
694.916, 36.158
696.213, 82.238
697.510, 62.595
698.806, 50.964
700.102, 76.959
701.398, 21.206
702.694, 55.528
703.990, 52.852
705.285, 7.063
706.580, 87.995
707.875, 2.392
709.170, 61.581
710.464, 48.818
711.758, 18.243
713.052, 79.922
714.346, 10.802
715.640, 50.066
716.933, 40.180
718.226, 11.491
719.519, 86.577
720.812, 28.688
722.105, 45.687
723.397, 57.709
724.689, 41.722
725.981, 80.715
727.272, 45.889
728.564, 82.331
729.855, 79.283
731.146, 1.867
732.437, 96.682
733.727, 18.582
735.017, 82.833
736.308, 80.700
737.597, 46.999
738.887, 89.839
740.176, 3.666
741.466, 65.437
742.755, 85.226
744.043, 0.650
745.332, 59.100
746.620, 44.837
747.908, 48.524
749.196, 90.232
750.484, 14.339
751.771, 125.323
753.059, 27.971
754.346, 43.754
755.633, 84.372
756.919, 4.977
758.206, 98.570
759.492, 12.151
760.778, 35.253
762.063, 94.799
763.349, 2.332
764.634, 89.841
765.919, 73.338
767.204, 54.821
768.489, 82.291
769.773, 2.251
771.057, 91.181
772.341, 62.600
773.625, 36.005
774.909, 100.397
776.192, 34.224
777.475, 44.306
778.758, 37.629
780.041, 18.939
781.323, 57.231
782.605, 8.489
783.887, 89.763
785.169, 52.002
786.451, 68.229
787.732, 125.443
789.013, 24.355
790.294, 96.811
791.575, 52.965
792.856, 19.107
794.136, 120.266
795.416, 8.380
796.696, 57.474
797.976, 82.557
799.255, 25.627
800.534, 75.683
801.813, 40.727
803.092, 105.758
804.371, 83.778
805.649, 14.786
806.927, 88.778
808.205, 34.758
809.483, 36.726
810.760, 89.682
812.037, 2.625
813.315, 122.550
814.591, 43.464
815.868, 52.365
817.144, 72.255
818.421, 21.134
819.697, 109.000
820.972, 2.145
822.248, 60.692
823.523, 105.518
824.798, 7.334
826.073, 79.134
827.348, 20.924
828.623, 30.703
829.897, 65.432
831.171, 2.811
832.445, 74.928
833.718, 35.525
834.992, 9.757
836.265, 123.793
837.538, 8.479
838.811, 94.102
840.083, 35.658
841.356, 13.318
842.628, 102.141
843.900, 39.782
845.171, 37.319
846.443, 61.617
847.714, 7.806
848.985, 116.450
850.256, 13.033
851.527, 67.524
852.797, 67.949
854.067, 6.516
855.337, 104.360
856.607, 30.776
857.876, 40.168
859.146, 125.482
860.415, 11.993
861.684, 119.034
862.953, 23.430
864.221, 1.743
865.489, 97.507
866.757, 24.044
868.025, 51.341
869.293, 53.643
870.560, 19.164
871.828, 116.011
873.095, 2.446
874.361, 26.412
875.628, 84.645
876.894, 9.948
878.160, 51.127
879.426, 19.487
880.692, 20.705
881.958, 49.091
883.223, 8.542
884.488, 42.498
885.753, 5.874
887.018, 14.593
888.282, 90.960
889.546, 10.686
890.810, 81.505
892.074, 76.852
893.338, 29.974
894.601, 90.240
895.864, 9.427
897.127, 120.423
898.390, 104.645
899.652, 14.787
900.915, 146.959
902.177, 12.266
903.439, 38.266
904.700, 117.567
905.962, 6.521
907.223, 62.599
908.484, 40.888
909.745, 87.619
911.006, 113.901
912.266, 15.608
913.526, 72.406
914.786, 105.673
916.046, 31.708
917.306, 135.970
918.565, 13.205
919.824, 72.362
921.083, 91.615
922.342, 10.395
923.600, 100.644
924.859, 32.830
926.117, 57.865
927.375, 103.108
928.632, 9.085
929.890, 175.022
931.147, 48.079
932.404, 49.820
933.661, 147.983
934.918, 1.438
936.174, 114.670
937.430, 91.814
938.686, 28.027
939.942, 136.257
941.198, 5.770
942.453, 24.999
943.708, 25.156
944.963, 69.019
946.218, 109.191
947.472, 43.599
948.727, 69.753
949.981, 127.965
951.235, 39.890
952.488, 153.103
953.742, 100.200
954.995, 72.415
956.248, 132.630
957.501, 73.361
958.754, 188.579
960.006, 174.669
961.258, 80.772
962.510, 204.995
963.762, 35.319
965.014, 156.544
966.265, 200.694
967.516, 58.886
968.767, 235.117
970.018, 159.129
971.269, 183.379
972.519, 326.547
973.769, 202.809
975.019, 397.074
976.269, 398.807
977.518, 319.077
978.767, 417.174
980.017, 357.353
981.265, 426.632
982.514, 545.918
983.762, 453.204
985.011, 687.428
986.259, 637.340
987.507, 726.638
988.754, 1040.667
990.002, 1012.979
991.249, 1540.248
992.496, 1859.377
993.743, 2417.720
994.989, 4030.049
996.236, 5954.375
997.482, 11680.734
998.728, 25516.020
999.974, 44442.375
1001.219, 56348.641
1002.464, 41395.016
1003.710, 21361.402
1004.954, 11836.885
1006.199, 6248.281
1007.444, 3937.666
1008.688, 2738.073
1009.932, 1845.491
1011.176, 1665.774
1012.420, 1113.209
1013.663, 1028.632
1014.906, 932.876
1016.149, 691.344
1017.392, 689.091
1018.635, 562.577
1019.877, 492.070
1021.120, 547.215
1022.362, 332.730
1023.603, 439.195
1024.845, 353.725
1026.086, 289.262
1027.328, 410.794
1028.569, 302.347
1029.809, 269.711
1031.050, 289.281
1032.290, 142.857
1033.530, 261.980
1034.770, 191.576
1036.010, 153.179
1037.250, 253.810
1038.489, 162.447
1039.728, 196.603
1040.967, 241.268
1042.206, 110.940
1043.444, 212.625
1044.683, 104.326
1045.921, 127.688
1047.159, 129.413
1048.396, 37.145
1049.634, 154.886
1050.871, 118.635
1052.108, 128.392
1053.345, 212.167
1054.582, 84.949
1055.818, 151.590
1057.054, 115.390
1058.290, 78.802
1059.526, 86.996
1060.762, 5.802
1061.997, 9.079
1063.232, 170.906
1064.467, 36.741
1065.702, 150.590
1066.937, 150.448
1068.171, 77.325
1069.405, 196.210
1070.639, 120.104
1071.873, 126.013
1073.107, 149.930
1074.340, 63.856
1075.573, 220.791
1076.806, 99.735
1078.039, 74.509
1079.272, 244.485
1080.504, 39.470
1081.736, 182.466
1082.968, 191.471
1084.200, 74.498
1085.431, 313.532
1086.663, 263.576
1087.894, 403.634
1089.125, 631.700
1090.355, 654.787
1091.586, 1081.888
1092.816, 1357.999
1094.046, 1430.728
1095.276, 1684.858
1096.506, 1228.001
1097.735, 875.181
1098.965, 738.343
1100.194, 407.515
1101.423, 461.701
1102.651, 322.898
1103.880, 293.104
1105.108, 384.319
1106.336, 267.546
1107.564, 337.782
1108.792, 395.028
1110.019, 222.284
1111.246, 364.549
1112.473, 199.827
1113.700, 109.115
1114.927, 233.413
1116.153, 49.720
1117.380, 160.256
1118.606, 236.583
1119.831, 19.919
1121.057, 205.869
1122.283, 86.228
1123.508, 129.597
1124.733, 229.977
1125.958, 78.367
1127.182, 190.766
1128.407, 139.186
1129.631, 21.615
1130.855, 199.057
1132.079, 15.509
1133.302, 82.970
1134.526, 179.447
1135.749, 7.068
1136.972, 209.780
1138.195, 211.284
1139.417, 63.798
1140.640, 233.585
1141.862, 153.117
1143.084, 265.658
1144.305, 275.216
1145.527, 210.774
1146.748, 382.346
1147.970, 379.927
1149.191, 509.517
1150.411, 819.115
1151.632, 929.722
1152.852, 1331.342
1154.072, 1831.971
1155.292, 1917.608
1156.512, 2223.254
1157.732, 2010.909
1158.951, 1715.577
1160.170, 1886.896
1161.389, 1379.581
1162.608, 1320.275
1163.826, 1208.315
1165.045, 777.034
1166.263, 836.760
1167.481, 621.495
1168.699, 406.244
1169.916, 513.001
1171.134, 250.766
1172.351, 252.539
1173.568, 237.469
1174.784, 120.257
1176.001, 278.054
1177.217, 200.568
1178.433, 218.385
1179.649, 270.210
1180.865, 160.045
1182.081, 280.888
1183.296, 351.010
1184.511, 249.867
1185.726, 516.732
1186.941, 513.485
1188.155, 509.367
1189.370, 672.255
1190.584, 435.147
1191.798, 432.050
1193.011, 376.479
1194.225, 218.398
1195.438, 345.323
1196.651, 226.254
1197.864, 158.192
1199.077, 229.137
1200.290, 57.089
1201.502, 209.047
1202.714, 206.012
1203.926, 62.984
1205.138, 251.415
1206.349, 107.400
1207.561, 83.391
1208.772, 255.392
1209.983, 29.577
1211.194, 194.590
1212.404, 156.610
1213.614, 38.207
1214.825, 233.240
1216.034, 150.279
1217.244, 61.323
1218.454, 238.375
1219.663, 94.432
1220.872, 153.495
1222.081, 215.564
1223.290, 95.639
1224.498, 189.722
1225.707, 105.811
1226.915, 72.907
1228.123, 238.008
1229.331, 16.073
1230.538, 151.190
1231.746, 224.313
1232.953, 13.432
1234.160, 232.564
1235.366, 73.702
1236.573, 13.121
1237.779, 103.266
1238.986, 38.582
1240.192, 73.582
1241.397, 206.752
1242.603, 0.070
1243.808, 128.114
1245.013, 116.304
1246.218, 18.697
1247.423, 231.900
1248.628, 105.094
1249.832, 111.427
1251.036, 220.626
1252.240, 44.830
1253.444, 187.041
1254.648, 183.258
1255.851, 34.499
1257.054, 177.727
1258.257, 52.955
1259.460, 96.293
1260.663, 222.514
1261.865, 63.259
1263.067, 167.959
1264.269, 141.182
1265.471, 33.588
1266.673, 115.639
1267.874, 85.872
1269.075, 46.181
1270.276, 216.420
1271.477, 35.663
1272.678, 127.366
1273.878, 143.618
1275.078, 75.876
1276.278, 177.138
1277.478, 58.404
1278.678, 115.679
1279.877, 214.951
1281.077, 25.876
1282.276, 37.371
1283.475, 184.604
1284.673, 58.173
1285.872, 143.037
1287.070, 90.250
1288.268, 4.467
1289.466, 207.687
1290.664, 58.912
1291.861, 65.140
1293.058, 167.372
1294.255, 36.605
1295.452, 136.843
1296.649, 124.064
1297.846, 37.288
1299.042, 191.637
1300.238, 99.867
1301.434, 140.101
1302.630, 216.338
1303.825, 9.431
1305.020, 144.800
1306.216, 178.023
1307.411, 2.762
1308.605, 246.474
1309.800, 137.691
1310.994, 13.910
1312.188, 252.140
1313.382, 12.350
1314.576, 47.561
1315.770, 145.773
1316.963, 1.986
1318.156, 168.199
1319.349, 88.413
1320.542, 9.372
1321.735, 164.841
1322.927, 45.055
1324.119, 23.269
1325.311, 201.527
1326.503, 67.287
1327.695, 134.881
1328.886, 124.203
1330.077, 44.630
1331.268, 166.526
1332.459, 58.682
1333.650, 30.161
1334.840, 159.988
1336.030, 4.863
1337.220, 76.284
1338.410, 199.483
1339.600, 75.629
1340.789, 174.777
1341.979, 160.031
1343.168, 64.180
1344.357, 235.330
1345.545, 75.482
1346.734, 99.635
1347.922, 248.802
1349.110, 44.970
1350.298, 94.140
1351.486, 176.479
1352.674, 2.654
1353.861, 208.827
1355.048, 132.005
1356.235, 36.813
1357.422, 224.362
1358.608, 25.570
1359.795, 61.752
1360.981, 221.939
1362.167, 30.134
1363.353, 147.336
1364.538, 183.540
1365.724, 80.752
1366.909, 194.974
1368.094, 67.417
1369.279, 32.661
1370.463, 168.920
1371.648, 8.895
1372.832, 85.369
1374.016, 190.647
1375.200, 8.825
1376.384, 117.323
1377.567, 125.885
1378.750, 12.559
1379.933, 195.319
1381.116, 73.842
1382.299, 88.398
1383.481, 217.947
1384.664, 47.500
1385.846, 144.057
1387.028, 184.618
1388.210, 9.817
1389.391, 173.752
1390.572, 128.746
1391.754, 8.290
1392.935, 225.025
1394.115, 88.560
1395.296, 96.097
1396.476, 245.613
1397.656, 27.132
1398.837, 145.654
1400.016, 177.555
1401.196, 10.068
1402.375, 195.584
1403.555, 146.053
1404.734, 75.535
1405.912, 256.020
1407.091, 71.508
1408.270, 114.000
1409.448, 155.492
1410.626, 19.988
1411.804, 165.630
1412.982, 175.668
1414.159, 30.840
1415.336, 214.655
1416.514, 104.154
1417.690, 75.447
1418.867, 240.952
1420.044, 40.440
1421.220, 76.941
1422.396, 161.104
1423.572, 64.534
1424.748, 161.585
1425.924, 116.887
1427.099, 47.419
1428.274, 223.752
1429.449, 172.087
1430.624, 79.422
1431.799, 217.759
1432.973, 88.097
1434.147, 150.437
1435.322, 241.471
1436.495, 95.806
1437.669, 148.591
1438.843, 219.858
1440.016, 10.125
1441.189, 209.389
1442.362, 212.650
1443.535, 95.904
1444.707, 242.294
1445.880, 90.491
1447.052, 146.701
1448.224, 232.256
1449.396, 34.378
1450.567, 201.480
1451.739, 203.561
1452.910, 33.996
1454.081, 288.015
1455.252, 211.759
1456.422, 54.794
1457.593, 251.762
1458.763, 109.762
1459.933, 96.535
1461.103, 230.582
1462.273, 114.604
1463.442, 151.599
1464.611, 179.384
1465.781, 21.602
1466.949, 202.375
1468.118, 161.115
1469.287, 2.811
1470.455, 248.650
1471.623, 139.613
1472.791, 76.616
1473.959, 257.592
1475.127, 97.539
1476.294, 127.461
1477.461, 198.427
1478.628, 31.990
1479.795, 115.960
1480.962, 108.935
1482.128, 20.956
1483.295, 257.007
1484.461, 116.135
1485.627, 153.272
1486.792, 219.518
1487.958, 47.774
1489.123, 181.052
1490.288, 236.340
1491.453, 13.412
1492.618, 254.090
1493.783, 137.897
1494.947, 77.679
1496.111, 223.536
1497.275, 137.486
1498.439, 56.167
1499.603, 218.477
1500.766, 88.737
1501.930, 146.143
1503.093, 254.590
1504.256, 74.445
1505.418, 196.269
1506.581, 213.325
1507.743, 34.162
1508.905, 242.791
1510.067, 164.733
1511.229, 2.591
1512.391, 227.573
1513.552, 124.089
1514.713, 3.988
1515.874, 0.000
##END=



