##NAMES=Celestine
##RRUFFID=R040007
##IDEAL CHEMISTRY=SrS^6+^O_4_
##LOCALITY=Coahuila, Mexico
##OWNER=RRUFF
##SOURCE=University of Arizona Mineral Museum
##DESCRIPTION=Blue tabular crystals
##STATUS=The identification of this mineral has been confirmed by X-ray diffraction and chemical analysis
##URL=rruff.info/R040007
##MEASURED CHEMISTRY=(Sr_0.95_Ba_0.04_Ca_0.01_)_Σ=1_S_1.00_O_4_; = Light bands. (Sr_0.99_Ba_0.01_)_Σ=1_S_1.00_O_4_; trace amounts of Ca = Dark bands
##PIN_ID=M00011
##ORIENTATION=Laser parallel to c* (0 0 1). Fiducial mark perpendicular to laser is parallel to a [1 0 0]
52.866, 0.000
54.266, 13.049
55.666, 24.720
57.065, 0.787
58.464, 0.127
59.863, 8.984
61.262, 0.724
62.661, 5.209
64.059, 6.961
65.458, 18.064
66.856, 32.317
68.253, 38.561
69.651, 75.759
71.048, 105.492
72.445, 135.701
73.842, 154.337
75.239, 188.360
76.635, 340.732
78.031, 391.422
79.427, 501.401
80.823, 724.644
82.218, 1012.130
83.614, 1331.840
85.009, 1617.758
86.404, 1780.870
87.798, 1782.162
89.193, 1659.625
90.587, 1496.247
91.981, 1285.021
93.375, 1099.941
94.768, 998.000
96.161, 922.189
97.554, 864.495
98.947, 770.830
100.340, 675.424
101.732, 616.035
103.124, 556.735
104.516, 494.520
105.908, 456.295
107.300, 421.113
108.691, 392.351
110.082, 382.442
111.473, 372.602
112.864, 373.828
114.254, 361.119
115.644, 387.471
117.034, 432.884
118.424, 479.363
119.813, 400.900
121.203, 369.491
122.592, 351.135
123.981, 324.831
125.369, 325.579
126.758, 330.385
128.146, 330.239
129.534, 292.150
130.922, 331.118
132.309, 282.145
133.696, 284.260
135.083, 267.414
136.470, 273.601
137.857, 268.791
139.243, 296.975
140.630, 256.159
142.016, 262.349
143.401, 239.564
144.787, 227.802
146.172, 239.057
147.557, 243.328
148.942, 246.617
150.327, 237.924
151.711, 230.250
153.096, 256.601
154.480, 246.973
155.863, 252.367
157.247, 228.790
158.630, 231.235
160.013, 247.701
161.396, 273.190
162.779, 305.701
164.161, 334.234
165.544, 349.790
166.926, 369.367
168.308, 417.968
169.689, 444.590
171.070, 435.234
172.452, 455.900
173.833, 393.588
175.213, 364.298
176.594, 326.030
177.974, 273.782
179.354, 283.556
180.734, 242.350
182.114, 196.499
183.493, 220.408
184.872, 212.260
186.251, 182.132
187.630, 194.024
189.008, 158.936
190.387, 174.873
191.765, 171.826
193.143, 173.802
194.520, 184.803
195.898, 178.897
197.275, 178.090
198.652, 173.373
200.029, 168.458
201.405, 160.562
202.782, 164.684
204.158, 148.044
205.534, 161.782
206.909, 156.955
208.285, 134.732
209.660, 152.417
211.035, 122.658
212.410, 112.397
213.784, 113.633
215.159, 140.887
216.533, 138.188
217.907, 118.475
219.281, 103.187
220.654, 117.562
222.027, 109.639
223.400, 111.701
224.773, 122.905
226.146, 100.229
227.518, 108.627
228.891, 122.011
230.263, 88.629
231.634, 91.093
233.006, 85.714
234.377, 81.991
235.748, 96.700
237.119, 102.673
238.490, 80.471
239.860, 67.295
241.231, 81.152
242.601, 68.042
243.970, 79.963
245.340, 73.914
246.709, 83.893
248.079, 81.393
249.448, 68.932
250.816, 73.185
252.185, 62.339
253.553, 48.446
254.921, 77.575
256.289, 76.765
257.657, 98.969
259.024, 84.589
260.391, 69.803
261.758, 67.037
263.125, 53.289
264.492, 64.560
265.858, 61.848
267.224, 51.155
268.590, 74.478
269.956, 10.818
271.321, 31.174
272.687, 50.546
274.052, 25.934
275.416, 43.337
276.781, 37.756
278.146, 49.189
279.510, 47.020
280.874, 41.098
282.237, 39.574
283.601, 35.063
284.964, 28.565
286.327, 24.081
287.690, 22.860
289.053, 21.343
290.416, 20.705
291.778, 23.271
293.140, 19.849
294.502, 21.438
295.863, 20.040
297.225, 30.652
298.586, 40.275
299.947, 13.909
301.308, 39.553
302.668, 36.208
304.029, 34.874
305.389, 8.550
306.749, 17.237
308.108, 14.066
309.468, 42.640
310.827, 22.357
312.186, 4.916
313.545, 26.821
314.903, 7.568
316.262, 24.325
317.620, 24.092
318.978, 26.869
320.336, 15.656
321.693, 46.453
323.051, 14.259
324.408, 32.074
325.765, 0.100
327.121, 12.734
328.478, 2.706
329.834, 8.970
331.190, 19.832
332.546, 33.019
333.902, 14.182
335.257, 23.071
336.612, 7.411
337.967, 14.836
339.322, 9.223
340.677, 17.774
342.031, 9.112
343.385, 21.825
344.739, 12.771
346.093, 0.723
347.446, 32.682
348.799, 6.830
350.153, 2.806
351.505, 25.482
352.858, 8.528
354.210, 4.531
355.563, 15.528
356.915, 10.481
358.267, 16.497
359.618, 8.478
360.969, 12.322
362.321, 15.287
363.672, 9.752
365.022, 1.202
366.373, 24.980
367.723, 17.686
369.073, 45.013
370.423, 6.097
371.773, 13.347
373.122, 20.416
374.471, 1.835
375.821, 18.906
377.169, 1.017
378.518, 6.182
379.866, 6.277
381.215, 20.620
382.563, 10.160
383.910, 9.958
385.258, 9.566
386.605, 45.895
387.952, 18.417
389.299, 37.791
390.646, 13.965
391.992, 2.158
393.339, 20.966
394.685, 21.232
396.031, 14.558
397.376, 28.654
398.722, 5.125
400.067, 1.107
401.412, 17.347
402.757, 16.595
404.101, 10.852
405.446, 5.153
406.790, 16.524
408.134, 22.704
409.478, 27.019
410.821, 21.317
412.165, 3.378
413.508, 0.068
414.851, 17.500
416.193, 36.835
417.536, 1.176
418.878, 1.569
420.220, 8.078
421.562, 22.340
422.904, 25.701
424.245, 22.069
425.586, 34.442
426.927, 36.939
428.268, 35.573
429.609, 52.595
430.949, 40.991
432.289, 51.392
433.629, 72.798
434.969, 70.209
436.309, 100.626
437.648, 96.048
438.987, 153.475
440.326, 194.907
441.665, 217.343
443.003, 305.784
444.342, 447.231
445.680, 591.681
447.018, 854.136
448.355, 1326.596
449.693, 1824.061
451.030, 2494.530
452.367, 3116.003
453.704, 3543.480
455.041, 3606.962
456.377, 3384.447
457.713, 2924.937
459.049, 2657.430
460.385, 2301.927
461.721, 1965.429
463.056, 1593.935
464.391, 1193.445
465.726, 875.959
467.061, 657.482
468.395, 490.008
469.730, 354.276
471.064, 316.811
472.398, 210.350
473.731, 188.831
475.065, 116.381
476.398, 93.937
477.731, 105.496
479.064, 79.062
480.397, 72.631
481.729, 64.204
483.062, 57.780
484.394, 40.359
485.725, 26.941
487.057, 34.521
488.389, 5.109
489.720, 1.303
491.051, 15.285
492.382, 0.875
493.712, 1.693
495.043, 14.069
496.373, 1.324
497.703, 2.719
499.032, 10.884
500.362, 8.301
501.691, 4.907
503.020, 14.272
504.349, 26.931
505.678, 17.541
507.007, 20.151
508.335, 5.575
509.663, 14.378
510.991, 5.000
512.319, 19.621
513.646, 29.048
514.973, 45.584
516.300, 32.765
517.627, 37.393
518.954, 40.390
520.280, 7.922
521.607, 32.219
522.933, 22.391
524.259, 35.024
525.584, 7.633
526.910, 3.347
528.235, 3.476
529.560, 9.467
530.885, 4.432
532.209, 24.268
533.534, 0.897
534.858, 38.715
536.182, 23.344
537.506, 8.460
538.829, 17.088
540.152, 39.210
541.476, 16.921
542.799, 30.368
544.121, 1.012
545.444, 5.604
546.766, 1.218
548.088, 14.170
549.410, 22.961
550.732, 4.437
552.053, 34.060
553.375, 27.019
554.696, 24.035
556.017, 32.022
557.337, 41.663
558.658, 24.136
559.978, 28.759
561.298, 24.533
562.618, 28.263
563.938, 13.858
565.257, 24.453
566.576, 38.086
567.895, 15.690
569.214, 30.283
570.533, 22.875
571.851, 22.423
573.170, 7.748
574.488, 22.496
575.805, 32.083
577.123, 16.631
578.440, 37.186
579.758, 15.512
581.075, 68.166
582.391, 60.747
583.708, 84.327
585.024, 58.906
586.341, 34.503
587.657, 52.079
588.972, 59.668
590.288, 53.530
591.603, 78.814
592.918, 62.522
594.233, 89.126
595.548, 109.694
596.863, 109.261
598.177, 113.843
599.491, 107.411
600.805, 137.050
602.119, 150.610
603.432, 191.169
604.746, 199.734
606.059, 238.289
607.372, 281.036
608.685, 304.606
609.997, 448.197
611.309, 535.745
612.621, 754.299
613.933, 1151.843
615.245, 1631.385
616.557, 2182.926
617.868, 2588.464
619.179, 2846.190
620.490, 2696.933
621.801, 2235.465
623.111, 1771.995
624.421, 1361.783
625.731, 1127.339
627.041, 833.863
628.351, 732.738
629.660, 623.407
630.970, 601.925
632.279, 667.549
633.588, 736.536
634.896, 906.390
636.205, 1160.464
637.513, 1439.178
638.821, 1440.792
640.129, 1397.411
641.437, 1042.924
642.744, 733.432
644.051, 474.932
645.358, 341.520
646.665, 230.879
647.972, 185.954
649.278, 157.480
650.584, 138.642
651.890, 116.473
653.196, 142.044
654.502, 91.071
655.807, 85.041
657.113, 89.477
658.418, 58.862
659.722, 87.136
661.027, 92.592
662.331, 66.045
663.636, 69.495
664.940, 58.942
666.244, 41.739
667.547, 44.218
668.851, 38.086
670.154, 35.253
671.457, 38.686
672.760, 35.115
674.062, 38.543
675.365, 9.968
676.667, 21.386
677.969, 29.675
679.271, 50.089
680.572, 43.501
681.874, 37.910
683.175, 23.186
684.476, 20.326
685.777, 17.370
687.077, 12.466
688.378, 11.678
689.678, 31.071
690.978, 15.116
692.278, 41.500
693.577, 13.118
694.877, 31.138
696.176, 4.500
697.475, 29.854
698.774, 25.857
700.072, 54.210
701.371, 52.080
702.669, 29.238
703.967, 47.222
705.265, 1.339
706.562, 34.673
707.860, 32.309
709.157, 11.363
710.454, 2.955
711.751, 42.266
713.047, 19.577
714.344, 9.115
715.640, 20.181
716.936, 10.474
718.232, 12.762
719.527, 51.047
720.823, 28.291
722.118, 19.570
723.413, 8.155
724.708, 25.083
726.002, 46.344
727.297, 5.602
728.591, 35.078
729.885, 9.911
731.179, 44.135
732.472, 26.356
733.766, 36.528
735.059, 8.744
736.352, 14.896
737.645, 43.106
738.937, 27.314
740.230, 40.519
741.522, 19.721
742.814, 43.921
744.106, 20.118
745.397, 72.312
746.689, 37.504
747.980, 8.693
749.271, 16.879
750.562, 42.062
751.853, 42.242
753.143, 18.420
754.433, 20.595
755.723, 11.768
757.013, 29.938
758.303, 25.105
759.592, 19.160
760.881, 39.433
762.170, 3.594
763.459, 16.750
764.748, 13.904
766.036, 24.056
767.325, 18.205
768.613, 29.352
769.901, 32.497
771.188, 47.640
772.476, 49.780
773.763, 1.919
775.050, 1.054
776.337, 24.185
777.624, 48.313
778.910, 16.560
780.196, 12.554
781.482, 44.665
782.768, 2.226
784.054, 1.879
785.339, 39.980
786.625, 14.921
787.910, 4.834
789.195, 2.753
790.479, 6.677
791.764, 0.733
793.048, 2.189
794.332, 1.520
795.616, 11.579
796.900, 11.637
798.183, 12.693
799.467, 1.748
800.750, 36.799
802.033, 12.850
803.316, 5.902
804.598, 62.951
805.880, 58.999
807.163, 35.018
808.445, 15.034
809.726, 7.051
811.008, 17.069
812.289, 32.085
813.570, 38.100
814.851, 41.116
816.132, 34.130
817.413, 45.142
818.693, 39.154
819.973, 22.165
821.253, 25.825
822.533, 15.829
823.813, 42.161
825.092, 70.150
826.371, 32.138
827.650, 73.125
828.929, 14.112
830.208, 11.729
831.486, 9.610
832.764, 7.593
834.042, 33.584
835.320, 27.575
836.598, 57.565
837.875, 1.476
839.152, 16.348
840.429, 10.183
841.706, 29.912
842.983, 30.465
844.259, 13.619
845.536, 44.422
846.812, 26.416
848.088, 41.893
849.363, 28.887
850.639, 36.388
851.914, 29.382
853.189, 31.199
854.464, 32.365
855.739, 35.365
857.013, 46.367
858.288, 47.371
859.562, 81.851
860.836, 43.861
862.110, 51.874
863.383, 25.633
864.656, 56.226
865.930, 26.240
867.203, 37.208
868.475, 37.123
869.748, 14.100
871.020, 5.937
872.292, 8.818
873.564, 28.835
874.836, 18.852
876.108, 45.831
877.379, 24.838
878.650, 50.857
879.922, 47.878
881.192, 5.367
882.463, 26.973
883.733, 18.842
885.004, 30.871
886.274, 9.901
887.544, 54.933
888.813, 28.797
890.083, 37.759
891.352, 12.795
892.621, 39.836
893.890, 13.888
895.159, 43.923
896.427, 83.978
897.695, 19.021
898.964, 41.080
900.232, 30.140
901.499, 88.064
902.767, 83.105
904.034, 52.182
905.301, 52.267
906.568, 54.337
907.835, 76.425
909.102, 71.443
910.368, 48.540
911.634, 21.639
912.900, 52.731
914.166, 84.834
915.432, 79.745
916.697, 55.834
917.962, 70.902
919.227, 58.013
920.492, 47.119
921.757, 95.234
923.021, 54.351
924.285, 74.470
925.550, 119.591
926.813, 65.526
928.077, 68.442
929.341, 131.570
930.604, 71.700
931.867, 37.572
933.130, 110.676
934.393, 36.814
935.655, 102.600
936.918, 93.593
938.180, 129.737
939.442, 99.776
940.703, 91.451
941.965, 67.259
943.226, 117.848
944.488, 104.797
945.749, 84.845
947.009, 152.889
948.270, 128.040
949.530, 125.195
950.791, 90.358
952.051, 145.433
953.311, 146.610
954.570, 134.786
955.830, 137.924
957.089, 163.110
958.348, 179.560
959.607, 128.752
960.866, 158.947
962.124, 169.123
963.383, 155.325
964.641, 212.529
965.899, 156.737
967.156, 162.954
968.414, 166.174
969.671, 231.398
970.928, 271.625
972.185, 256.854
973.442, 348.553
974.699, 393.893
975.955, 389.134
977.211, 423.378
978.468, 418.625
979.723, 428.876
980.979, 507.130
982.234, 536.154
983.490, 647.418
984.745, 705.686
986.000, 784.968
987.254, 884.305
988.509, 1036.584
989.763, 1407.858
991.017, 1709.149
992.271, 2381.536
993.525, 3291.835
994.779, 4843.141
996.032, 7973.450
997.285, 14869.765
998.538, 28904.078
999.791, 47721.406
1001.044, 61324.738
1002.296, 50262.074
1003.548, 30044.420
1004.800, 16888.770
1006.052, 9794.123
1007.304, 6003.480
1008.555, 3805.840
1009.807, 2588.204
1011.058, 1868.574
1012.309, 1524.947
1013.559, 1211.324
1014.810, 1006.710
1016.060, 856.101
1017.310, 808.496
1018.560, 681.895
1019.810, 651.301
1021.060, 547.712
1022.309, 514.126
1023.558, 454.545
1024.807, 422.968
1026.056, 357.394
1027.305, 331.823
1028.553, 367.260
1029.801, 352.701
1031.049, 303.243
1032.297, 260.629
1033.545, 227.105
1034.793, 243.584
1036.040, 222.067
1037.287, 183.554
1038.534, 189.044
1039.781, 137.540
1041.027, 192.041
1042.274, 152.327
1043.520, 127.224
1044.766, 156.741
1046.012, 129.261
1047.257, 87.785
1048.503, 145.326
1049.748, 87.856
1050.993, 90.390
1052.238, 102.803
1053.483, 76.345
1054.727, 62.427
1055.971, 76.981
1057.216, 64.130
1058.459, 62.375
1059.703, 74.636
1060.947, 61.206
1062.190, 82.779
1063.433, 100.552
1064.676, 77.129
1065.919, 92.711
1067.162, 97.297
1068.404, 89.887
1069.646, 68.481
1070.888, 63.077
1072.130, 89.675
1073.372, 34.276
1074.613, 57.879
1075.855, 29.485
1077.096, 22.095
1078.337, 20.707
1079.578, 75.323
1080.818, 90.940
1082.059, 120.566
1083.299, 122.355
1084.539, 109.378
1085.779, 107.458
1087.018, 72.096
1088.258, 63.736
1089.497, 69.383
1090.736, 86.035
1091.975, 82.690
1093.213, 109.351
1094.452, 109.015
1095.690, 160.681
1096.928, 82.350
1098.166, 160.021
1099.404, 54.695
1100.642, 71.370
1101.879, 59.048
1103.116, 78.728
1104.353, 102.410
1105.590, 155.095
1106.827, 185.781
1108.063, 234.485
1109.299, 315.191
1110.536, 367.899
1111.771, 372.609
1113.007, 332.321
1114.243, 282.035
1115.478, 216.071
1116.713, 162.790
1117.948, 127.510
1119.183, 99.232
1120.418, 76.959
1121.652, 84.687
1122.886, 73.436
1124.120, 68.183
1125.354, 54.932
1126.588, 3.693
1127.821, 35.446
1129.055, 28.199
1130.288, 37.901
1131.521, 17.840
1132.753, 20.595
1133.986, 0.564
1135.218, 3.820
1136.450, 45.925
1137.682, 46.646
1138.914, 53.394
1140.146, 4.758
1141.377, 23.990
1142.609, 4.740
1143.840, 10.490
1145.071, 22.241
1146.301, 54.993
1147.532, 7.746
1148.762, 52.499
1149.992, 59.253
1151.222, 52.582
1152.452, 76.337
1153.682, 91.093
1154.911, 107.849
1156.140, 150.435
1157.369, 248.363
1158.598, 255.120
1159.827, 334.877
1161.055, 426.665
1162.284, 396.422
1163.512, 360.180
1164.740, 305.938
1165.967, 250.697
1167.195, 207.099
1168.422, 154.235
1169.650, 125.993
1170.877, 110.751
1172.103, 107.509
1173.330, 45.280
1174.557, 86.038
1175.783, 46.795
1177.009, 30.553
1178.235, 19.660
1179.461, 27.087
1180.686, 2.485
1181.912, 43.232
1183.137, 40.978
1184.362, 40.770
1185.587, 10.634
1186.811, 16.734
1188.036, 10.738
1189.260, 12.521
1190.484, 37.316
1191.708, 11.396
1192.932, 23.107
1194.155, 37.818
1195.378, 1.612
1196.602, 7.420
1197.825, 22.126
1199.047, 44.168
1200.270, 7.797
1201.492, 22.523
1202.715, 40.806
1203.937, 12.532
1205.159, 48.183
1206.380, 15.798
1207.602, 10.447
1208.823, 52.095
1210.044, 0.741
1211.265, 34.384
1212.486, 50.166
1213.707, 49.862
1214.927, 60.082
1216.147, 68.824
1217.367, 46.459
1218.587, 44.092
1219.807, 21.740
1221.027, 47.369
1222.246, 71.018
1223.465, 18.644
1224.684, 41.268
1225.903, 91.890
1227.121, 43.510
1228.340, 22.129
1229.558, 44.745
1230.776, 54.419
1231.994, 15.032
1233.212, 44.643
1234.429, 37.252
1235.646, 56.919
1236.864, 37.525
1238.081, 62.134
1239.297, 42.736
1240.514, 63.339
1241.730, 20.938
1242.947, 17.536
1244.163, 20.133
1245.378, 37.728
1246.594, 30.463
1247.810, 42.457
1249.025, 26.508
1250.240, 48.098
1251.455, 43.688
1252.670, 27.270
1253.885, 57.850
1255.099, 36.429
1256.313, 26.006
1257.527, 34.584
1258.741, 61.157
1259.955, 27.729
1261.168, 12.389
1262.382, 36.173
1263.595, 43.727
1264.808, 62.279
1266.021, 50.501
1267.233, 58.669
1268.446, 18.596
1269.658, 52.455
1270.870, 37.512
1272.082, 20.521
1273.294, 38.050
1274.505, 27.576
1275.716, 11.101
1276.928, 57.860
1278.139, 19.379
1279.349, 11.896
1280.560, 55.400
1281.770, 47.849
1282.981, 5.648
1284.191, 36.838
1285.401, 12.322
1286.610, 37.711
1287.820, 81.183
1289.029, 82.644
1290.239, 90.572
1291.448, 91.975
1292.656, 72.008
1293.865, 57.454
1295.073, 33.887
1296.282, 14.684
1297.490, 28.729
1298.698, 66.140
1299.906, 35.547
1301.113, 55.945
1302.320, 32.340
1303.528, 27.732
1304.735, 44.122
1305.942, 19.508
1307.148, 34.070
1308.355, 59.271
1309.561, 46.648
1310.767, 47.021
1311.973, 53.391
1313.179, 20.758
1314.384, 42.121
1315.590, 26.047
1316.795, 66.839
1318.000, 22.192
1319.205, 33.542
1320.410, 54.889
1321.614, 36.232
1322.819, 5.427
1324.023, 34.808
1325.227, 15.867
1326.431, 49.440
1327.634, 28.744
1328.838, 17.029
1330.041, 12.311
1331.244, 5.587
1332.447, 7.858
1333.650, 47.123
1334.852, 13.398
1336.055, 28.469
1337.257, 50.716
1338.459, 28.959
1339.661, 11.198
1340.862, 10.419
1342.064, 37.651
1343.265, 48.879
1344.466, 3.227
1345.667, 17.448
1346.868, 19.873
1348.068, 26.334
1349.269, 7.568
1350.469, 9.231
1351.669, 38.962
1352.869, 47.152
1354.069, 35.340
1355.268, 17.326
1356.468, 4.508
1357.667, 7.208
1358.866, 5.138
1360.065, 14.034
1361.263, 21.230
1362.462, 17.399
1363.660, 10.566
1364.858, 43.733
1366.056, 9.899
1367.254, 39.064
1368.451, 30.230
1369.649, 44.396
1370.846, 23.578
1372.043, 48.746
1373.240, 36.917
1374.436, 6.088
1375.633, 74.262
1376.829, 40.441
1378.025, 79.625
1379.221, 5.814
1380.417, 17.010
1381.613, 11.218
1382.808, 34.441
1384.003, 11.684
1385.199, 19.963
1386.393, 20.355
1387.588, 27.743
1388.783, 28.365
1389.977, 24.364
1391.171, 32.880
1392.365, 20.250
1393.559, 28.615
1394.753, 42.976
1395.946, 20.902
1397.140, 26.237
1398.333, 44.561
1399.526, 27.860
1400.719, 11.149
1401.911, 59.445
1403.104, 72.578
1404.296, 0.248
1405.488, 27.047
1406.680, 44.191
1407.872, 60.347
1409.063, 6.383
1410.255, 65.881
1411.446, 20.141
1412.637, 17.553
1413.828, 18.678
1415.018, 40.904
1416.209, 13.125
1417.399, 46.303
1418.589, 25.515
1419.779, 60.722
1420.969, 50.896
1422.159, 83.094
1423.348, 15.269
1424.537, 52.457
1425.726, 34.201
1426.915, 24.041
1428.104, 55.184
1429.293, 30.082
1430.481, 50.308
1431.669, 88.247
1432.857, 60.373
1434.045, 42.366
1435.233, 77.328
1436.420, 66.013
1437.608, 109.525
1438.795, 69.555
1439.982, 56.121
1441.169, 92.230
1442.355, 59.104
1443.542, 73.944
1444.728, 93.024
1445.914, 96.071
1447.100, 113.106
1448.286, 93.175
1449.472, 187.240
1450.657, 103.300
1451.842, 145.244
1453.027, 122.292
1454.212, 90.218
1455.397, 105.241
1456.581, 148.259
1457.766, 165.270
1458.950, 145.265
1460.134, 137.246
1461.318, 119.211
1462.501, 86.188
1463.685, 82.150
1464.868, 109.093
1466.051, 58.303
1467.234, 162.224
1468.417, 74.521
1469.600, 44.391
1470.782, 74.957
1471.965, 116.764
1473.147, 62.552
1474.329, 99.320
1475.510, 94.066
1476.692, 52.808
1477.873, 54.604
1479.055, 101.399
1480.236, 90.244
1481.416, 71.080
1482.597, 70.950
1483.778, 51.866
1484.958, 50.795
1486.138, 35.755
1487.318, 35.885
1488.498, 79.653
1489.678, 28.590
1490.857, 63.522
1492.037, 42.448
1493.216, 50.365
1494.395, 34.276
1495.574, 47.181
1496.752, 63.094
1497.931, 20.056
1499.109, 40.131
1500.287, 21.301
1501.465, 6.506
1502.643, 2.248
1503.820, 28.040
1504.998, 13.373
1506.175, 18.750
1507.352, 8.173
1508.529, 8.653
1509.706, 8.202
1510.882, 6.838
1512.059, 1.418
1513.235, 9.852
1514.411, 34.439
1515.587, 28.229
1516.762, 37.485
1517.938, 43.936
1519.113, 17.626
1520.288, 1.260
1521.463, 5.571
1522.638, 41.414
1523.813, 40.042
1524.987, 30.031
1526.162, 0.000
##END=



