##NAMES=Celestine
##RRUFFID=R040007
##IDEAL CHEMISTRY=SrS^6+^O_4_
##LOCALITY=Coahuila, Mexico
##OWNER=RRUFF
##SOURCE=University of Arizona Mineral Museum
##DESCRIPTION=Blue tabular crystals
##STATUS=The identification of this mineral has been confirmed by X-ray diffraction and chemical analysis
##URL=rruff.info/R040007
##MEASURED CHEMISTRY=(Sr_0.95_Ba_0.04_Ca_0.01_)_Σ=1_S_1.00_O_4_; = Light bands. (Sr_0.99_Ba_0.01_)_Σ=1_S_1.00_O_4_; trace amounts of Ca = Dark bands
##PIN_ID=M00014
##ORIENTATION=Laser parallel to a* (1 0 0). Fiducial mark perpendicular to laser is parallel to b [0 1 0]
51.466, 0.000
52.866, 10.865
54.266, 14.211
55.666, 16.568
57.065, 20.329
58.464, 11.889
59.863, 18.208
61.262, 3.241
62.661, 9.111
64.059, 0.068
65.458, 1.711
66.856, 20.763
68.253, 38.176
69.651, 29.911
71.048, 88.937
72.445, 122.224
73.842, 221.751
75.239, 294.497
76.635, 386.440
78.031, 528.566
79.427, 721.858
80.823, 1043.303
82.218, 1431.891
83.614, 1896.610
85.009, 2101.452
86.404, 1996.410
87.798, 1700.479
89.193, 1309.650
90.587, 1046.920
91.981, 822.285
93.375, 752.741
94.768, 674.282
96.161, 608.901
97.554, 538.590
98.947, 499.345
100.340, 457.162
101.732, 430.039
103.124, 426.970
104.516, 408.954
105.908, 385.988
107.300, 397.069
108.691, 381.197
110.082, 373.368
111.473, 393.585
112.864, 404.842
114.254, 476.139
115.644, 557.473
117.034, 664.845
118.424, 589.254
119.813, 589.701
121.203, 636.209
122.592, 670.756
123.981, 746.332
125.369, 836.939
126.758, 882.575
128.146, 913.249
129.534, 945.969
130.922, 854.724
132.309, 776.524
133.696, 668.363
135.083, 601.242
136.470, 515.124
137.857, 448.007
139.243, 405.889
140.630, 391.767
142.016, 341.644
143.401, 324.528
144.787, 317.426
146.172, 285.345
147.557, 275.277
148.942, 266.223
150.327, 228.180
151.711, 221.147
153.096, 231.127
154.480, 215.117
155.863, 220.121
157.247, 224.136
158.630, 238.165
160.013, 251.206
161.396, 271.261
162.779, 303.328
164.161, 357.409
165.544, 352.503
166.926, 403.611
168.308, 445.731
169.689, 419.967
171.070, 420.113
172.452, 345.272
173.833, 328.445
175.213, 324.630
176.594, 263.828
177.974, 277.039
179.354, 292.263
180.734, 251.500
182.114, 234.751
183.493, 213.013
184.872, 210.483
186.251, 189.768
187.630, 171.064
189.008, 174.307
190.387, 185.338
191.765, 148.654
193.143, 161.983
194.520, 146.323
195.898, 165.675
197.275, 153.088
198.652, 155.474
200.029, 136.883
201.405, 137.312
202.782, 133.752
204.158, 135.186
205.534, 123.637
206.909, 118.046
208.285, 113.062
209.660, 117.986
211.035, 102.367
212.410, 110.261
213.784, 108.352
215.159, 86.895
216.533, 100.515
217.907, 82.897
219.281, 97.762
220.654, 89.628
222.027, 83.803
223.400, 89.962
224.773, 83.573
226.146, 85.523
227.518, 79.510
228.891, 62.030
230.263, 53.085
231.634, 46.173
233.006, 44.290
234.377, 51.339
235.748, 75.022
237.119, 66.322
238.490, 74.140
239.860, 63.651
241.231, 71.912
242.601, 53.328
243.970, 79.844
245.340, 61.163
246.709, 60.499
248.079, 71.852
249.448, 57.222
250.816, 55.607
252.185, 54.008
253.553, 58.423
254.921, 61.853
256.289, 44.297
257.657, 48.753
259.024, 45.819
260.391, 71.706
261.758, 46.200
263.125, 55.707
264.492, 57.225
265.858, 52.755
267.224, 49.295
268.590, 28.847
269.956, 58.409
271.321, 54.981
272.687, 59.563
274.052, 40.156
275.416, 56.758
276.781, 56.370
278.146, 44.991
279.510, 52.647
280.874, 11.261
282.237, 37.910
283.601, 37.567
284.964, 3.233
286.327, 5.093
287.690, 34.589
289.053, 2.279
290.416, 35.976
291.778, 24.682
293.140, 42.395
294.502, 46.115
295.863, 40.843
297.225, 30.577
298.586, 22.319
299.947, 32.067
301.308, 29.823
302.668, 47.584
304.029, 26.353
305.389, 58.129
306.749, 5.911
308.108, 24.700
309.468, 0.496
310.827, 7.298
312.186, 8.107
313.545, 3.923
314.903, 9.745
316.262, 7.426
317.620, 27.408
318.978, 30.249
320.336, 22.096
321.693, 2.949
323.051, 8.809
324.408, 22.326
325.765, 9.457
327.121, 12.584
328.478, 3.293
329.834, 12.177
331.190, 8.066
332.546, 17.961
333.902, 4.862
335.257, 23.769
336.612, 19.681
337.967, 5.598
339.322, 25.835
340.677, 2.072
342.031, 6.299
343.385, 21.548
344.739, 38.041
346.093, 9.848
347.446, 16.298
348.799, 26.258
350.153, 4.222
351.505, 14.192
352.858, 21.838
354.210, 35.130
355.563, 39.105
356.915, 6.085
358.267, 3.070
359.618, 20.940
360.969, 10.051
362.321, 1.046
363.672, 4.245
365.022, 26.249
366.373, 23.257
367.723, 19.720
369.073, 9.710
370.423, 13.299
371.773, 13.689
373.122, 12.326
374.471, 27.340
375.821, 0.643
377.169, 21.625
378.518, 2.607
379.866, 12.589
381.215, 0.433
382.563, 13.481
383.910, 6.472
385.258, 13.583
386.605, 10.646
387.952, 32.720
389.299, 12.801
390.646, 36.889
391.992, 7.985
393.339, 6.088
394.685, 13.197
396.031, 24.312
397.376, 8.567
398.722, 1.443
400.067, 12.315
401.412, 5.184
402.757, 23.949
404.101, 1.913
405.446, 3.770
406.790, 31.375
408.134, 16.526
409.478, 25.681
410.821, 5.842
412.165, 19.007
413.508, 23.182
414.851, 26.362
416.193, 42.547
417.536, 21.737
418.878, 41.932
420.220, 14.131
421.562, 36.341
422.904, 65.554
424.245, 54.775
425.586, 39.001
426.927, 77.231
428.268, 52.466
429.609, 69.704
430.949, 66.948
432.289, 119.196
433.629, 122.451
434.969, 155.710
436.309, 180.974
437.648, 216.240
438.987, 309.511
440.326, 383.786
441.665, 488.064
443.003, 685.351
444.342, 941.641
445.680, 1415.934
447.018, 2179.234
448.355, 3244.463
449.693, 4841.770
451.030, 6391.078
452.367, 6981.391
453.704, 6062.706
455.041, 4605.030
456.377, 3240.355
457.713, 2345.686
459.049, 1837.023
460.385, 1627.364
461.721, 1451.713
463.056, 1234.065
464.391, 987.420
465.726, 740.778
467.061, 514.138
468.395, 380.502
469.730, 337.870
471.064, 238.239
472.398, 178.614
473.731, 183.991
475.065, 136.370
476.398, 109.752
477.731, 92.977
479.064, 76.365
480.397, 81.755
481.729, 81.147
483.062, 38.541
484.394, 62.937
485.725, 8.557
487.057, 28.716
488.389, 54.755
489.720, 37.160
491.051, 26.566
492.382, 17.975
493.712, 13.613
495.043, 7.194
496.373, 9.219
497.703, 7.643
499.032, 1.931
500.362, 1.139
501.691, 4.288
503.020, 1.697
504.349, 6.272
505.678, 11.850
507.007, 5.141
508.335, 16.978
509.663, 14.392
510.991, 43.807
512.319, 39.223
513.646, 23.731
514.973, 11.657
516.300, 40.132
517.627, 21.554
518.954, 29.976
520.280, 7.509
521.607, 44.933
522.933, 0.359
524.259, 18.784
525.584, 39.210
526.910, 6.637
528.235, 36.461
529.560, 22.554
530.885, 33.984
532.209, 17.828
533.534, 50.263
534.858, 51.695
536.182, 51.085
537.506, 24.592
538.829, 31.428
540.152, 25.486
541.476, 5.454
542.799, 38.798
544.121, 31.988
545.444, 46.453
546.766, 42.880
548.088, 27.330
549.410, 18.781
550.732, 27.231
552.053, 38.706
553.375, 48.158
554.696, 16.609
556.017, 53.061
557.337, 33.264
558.658, 49.610
559.978, 61.935
561.298, 22.121
562.618, 19.578
563.938, 28.901
565.257, 68.144
566.576, 9.601
567.895, 55.059
569.214, 68.516
570.533, 22.973
571.851, 65.570
573.170, 95.026
574.488, 60.630
575.805, 54.085
577.123, 31.795
578.440, 68.248
579.758, 88.911
581.075, 65.374
582.391, 116.579
583.708, 66.151
585.024, 65.679
586.341, 120.159
587.657, 119.698
588.972, 111.325
590.288, 116.823
591.603, 97.096
592.918, 138.538
594.233, 126.099
595.548, 155.539
596.863, 149.113
598.177, 131.561
599.491, 226.996
600.805, 196.535
602.119, 280.976
603.432, 343.552
604.746, 340.445
606.059, 418.873
607.372, 462.298
608.685, 566.722
609.997, 711.155
611.309, 888.860
612.621, 1193.100
613.933, 1726.604
615.245, 2367.122
616.557, 3114.538
617.868, 4030.115
619.179, 4758.840
620.490, 5932.246
621.801, 7077.684
623.111, 6983.085
624.421, 5866.617
625.731, 3918.130
627.041, 2556.723
628.351, 1633.242
629.660, 1160.008
630.970, 845.395
632.279, 726.779
633.588, 716.161
634.896, 745.540
636.205, 856.176
637.513, 813.551
638.821, 691.923
640.129, 528.294
641.437, 364.660
642.744, 260.024
644.051, 200.389
645.358, 154.751
646.665, 138.171
647.972, 112.530
649.278, 158.886
650.584, 86.243
651.890, 149.593
653.196, 127.869
654.502, 145.213
655.807, 124.554
657.113, 166.579
658.418, 103.254
659.722, 105.150
661.027, 88.684
662.331, 54.461
663.636, 43.927
664.940, 27.752
666.244, 52.068
667.547, 32.382
668.851, 37.692
670.154, 43.009
671.457, 0.683
672.760, 12.618
674.062, 19.914
675.365, 51.208
676.667, 24.498
677.969, 22.790
679.271, 41.078
680.572, 19.162
681.874, 45.443
683.175, 39.722
684.476, 3.982
685.777, 12.255
687.077, 18.526
688.378, 30.793
689.678, 17.060
690.978, 38.324
692.278, 24.401
693.577, 11.878
694.877, 0.865
696.176, 6.385
697.475, 17.084
698.774, 6.275
700.072, 7.873
701.371, 17.824
702.669, 6.971
703.967, 29.222
705.265, 24.411
706.562, 44.596
707.860, 16.882
709.157, 40.061
710.454, 29.421
711.751, 57.406
713.047, 8.573
714.344, 29.737
715.640, 0.898
716.936, 30.379
718.232, 24.532
719.527, 34.974
720.823, 46.126
722.118, 24.265
723.413, 52.405
724.708, 40.542
726.002, 21.675
727.297, 9.196
728.591, 31.920
729.885, 10.031
731.179, 26.138
732.472, 6.241
733.766, 38.338
735.059, 10.568
736.352, 18.511
737.645, 3.413
738.937, 10.652
740.230, 12.712
741.522, 15.768
742.814, 11.819
744.106, 7.867
745.397, 13.909
746.689, 5.054
747.980, 36.973
749.271, 9.996
750.562, 31.015
751.853, 9.030
753.143, 17.040
754.433, 53.046
755.723, 9.951
757.013, 17.039
758.303, 8.025
759.592, 0.006
760.881, 39.979
762.170, 25.949
763.459, 18.916
764.748, 15.878
766.036, 2.838
767.325, 6.209
768.613, 9.734
769.901, 8.672
771.188, 9.393
772.476, 5.529
773.763, 14.554
775.050, 18.348
776.337, 12.247
777.624, 23.143
778.910, 6.035
780.196, 6.595
781.482, 3.298
782.768, 5.684
784.054, 0.442
785.339, 20.426
786.625, 31.290
787.910, 36.151
789.195, 42.091
790.479, 0.864
791.764, 41.713
793.048, 15.559
794.332, 13.403
795.616, 38.243
796.900, 38.080
798.183, 28.915
799.467, 35.927
800.750, 6.575
802.033, 18.400
803.316, 39.222
804.598, 11.042
805.880, 12.859
807.163, 27.328
808.445, 22.467
809.726, 29.259
811.008, 36.047
812.289, 5.165
813.570, 29.617
814.851, 5.603
816.132, 21.172
817.413, 14.947
818.693, 31.724
819.973, 34.500
821.253, 29.273
822.533, 35.044
823.813, 6.813
825.092, 54.579
826.371, 16.836
827.650, 44.543
828.929, 32.302
830.208, 14.060
831.486, 5.815
832.764, 8.567
834.042, 15.318
835.320, 12.068
836.598, 21.815
837.875, 45.560
839.152, 32.043
840.429, 31.725
841.706, 22.465
842.983, 6.205
844.259, 21.941
845.536, 0.322
846.812, 29.412
848.088, 48.080
849.363, 4.293
850.639, 6.157
851.914, 20.977
853.189, 17.164
854.464, 6.488
855.739, 63.198
857.013, 61.920
858.288, 39.618
859.562, 58.314
860.836, 4.990
862.110, 2.680
863.383, 36.372
864.656, 2.063
865.930, 10.753
867.203, 23.275
868.475, 8.963
869.748, 26.823
871.020, 43.852
872.292, 10.474
873.564, 22.197
874.836, 3.867
876.108, 31.538
877.379, 27.209
878.650, 28.879
879.922, 39.548
881.192, 7.075
882.463, 22.745
883.733, 35.266
885.004, 6.935
886.274, 12.350
887.544, 22.021
888.813, 1.482
890.083, 40.140
891.352, 32.057
892.621, 15.604
893.890, 35.195
895.159, 8.834
896.427, 13.411
897.695, 29.051
898.964, 67.517
900.232, 62.358
901.499, 61.032
902.767, 75.585
904.034, 30.259
905.301, 69.798
906.568, 33.463
907.835, 76.140
909.102, 12.713
910.368, 25.382
911.634, 67.916
912.900, 7.137
914.166, 48.824
915.432, 72.511
916.697, 46.199
917.962, 59.878
919.227, 27.283
920.492, 64.152
921.757, 81.757
923.021, 106.347
924.285, 55.036
925.550, 60.564
926.813, 68.944
928.077, 114.642
929.341, 65.306
930.604, 78.007
931.867, 87.576
933.130, 50.165
934.393, 108.674
935.655, 50.256
936.918, 79.593
938.180, 74.308
939.442, 49.024
940.703, 56.743
941.965, 73.462
943.226, 69.925
944.488, 58.648
945.749, 57.373
947.009, 99.099
948.270, 96.828
949.530, 115.558
950.791, 135.291
952.051, 114.025
953.311, 93.703
954.570, 138.441
955.830, 99.181
957.089, 146.920
958.348, 117.664
959.607, 191.482
960.866, 138.230
962.124, 163.981
963.383, 163.733
964.641, 151.984
965.899, 179.756
967.156, 186.015
968.414, 184.791
969.671, 204.570
970.928, 277.351
972.185, 290.135
973.442, 358.921
974.699, 405.709
975.955, 353.491
977.211, 321.288
978.468, 436.090
979.723, 436.896
980.979, 477.703
982.234, 597.513
983.490, 597.324
984.745, 705.140
986.000, 878.957
987.254, 960.778
988.509, 1232.601
989.763, 1632.427
991.017, 2135.257
992.271, 2988.090
993.525, 4282.645
994.779, 6993.491
996.032, 12743.344
997.285, 26310.160
998.538, 47448.020
999.791, 59973.891
1001.044, 46419.762
1002.296, 24479.359
1003.548, 11856.082
1004.800, 6577.083
1006.052, 4084.788
1007.304, 2744.696
1008.555, 1960.620
1009.807, 1540.546
1011.058, 1229.475
1012.309, 972.308
1013.559, 812.249
1014.810, 738.192
1016.060, 630.140
1017.310, 557.091
1018.560, 507.046
1019.810, 412.004
1021.060, 419.642
1022.309, 394.608
1023.558, 341.408
1024.807, 306.381
1026.056, 266.707
1027.305, 251.686
1028.553, 263.669
1029.801, 229.656
1031.049, 213.648
1032.297, 207.099
1033.545, 161.103
1034.793, 142.112
1036.040, 162.533
1037.287, 160.552
1038.534, 146.594
1039.781, 151.624
1041.027, 86.658
1042.274, 130.698
1043.520, 96.746
1044.766, 49.802
1046.012, 56.861
1047.257, 55.933
1048.503, 120.000
1049.748, 112.079
1050.993, 109.643
1052.238, 70.732
1053.483, 73.818
1054.727, 50.976
1055.971, 78.340
1057.216, 108.437
1058.459, 99.539
1059.703, 93.668
1060.947, 64.781
1062.190, 103.330
1063.433, 138.451
1064.676, 130.576
1065.919, 117.704
1067.162, 159.834
1068.404, 120.967
1069.646, 108.105
1070.888, 115.250
1072.130, 131.399
1073.372, 118.551
1074.613, 133.710
1075.855, 121.873
1077.096, 115.044
1078.337, 169.218
1079.578, 212.395
1080.818, 273.575
1082.059, 286.344
1083.299, 364.649
1084.539, 400.839
1085.779, 465.540
1087.018, 656.738
1088.258, 962.937
1089.497, 1243.141
1090.736, 1728.345
1091.975, 2370.585
1093.213, 2822.796
1094.452, 2982.010
1095.690, 2371.225
1096.928, 1779.444
1098.166, 1241.665
1099.404, 935.888
1100.642, 721.113
1101.879, 589.341
1103.116, 557.571
1104.353, 566.803
1105.590, 565.038
1106.827, 720.275
1108.063, 863.514
1109.299, 1005.763
1110.536, 1014.015
1111.771, 911.268
1113.007, 808.567
1114.243, 631.133
1115.478, 468.449
1116.713, 401.736
1117.948, 318.008
1119.183, 239.281
1120.418, 195.556
1121.652, 229.832
1122.886, 179.110
1124.120, 133.390
1125.354, 104.612
1126.588, 75.910
1127.821, 61.211
1129.055, 39.994
1130.288, 59.784
1131.521, 22.073
1132.753, 24.363
1133.986, 41.654
1135.218, 18.957
1136.450, 16.265
1137.682, 40.635
1138.914, 26.957
1140.146, 22.321
1141.377, 23.346
1142.609, 15.773
1143.840, 19.519
1145.071, 5.813
1146.301, 31.135
1147.532, 47.789
1148.762, 2.085
1149.992, 37.454
1151.222, 49.969
1152.452, 133.273
1153.682, 105.039
1154.911, 186.349
1156.140, 164.453
1157.369, 178.763
1158.598, 221.074
1159.827, 232.458
1161.055, 196.862
1162.284, 211.246
1163.512, 128.754
1164.740, 99.119
1165.967, 67.498
1167.195, 66.808
1168.422, 43.130
1169.650, 42.497
1170.877, 5.188
1172.103, 24.127
1173.330, 10.491
1174.557, 36.820
1175.783, 26.406
1177.009, 2.811
1178.235, 14.778
1179.461, 11.859
1180.686, 22.444
1181.912, 24.008
1183.137, 10.676
1184.362, 11.133
1185.587, 0.546
1186.811, 45.775
1188.036, 50.294
1189.260, 52.596
1190.484, 37.742
1191.708, 44.096
1192.932, 51.386
1194.155, 2.693
1195.378, 6.047
1196.602, 3.367
1197.825, 9.623
1199.047, 5.681
1200.270, 20.022
1201.492, 0.619
1202.715, 5.346
1203.937, 20.971
1205.159, 21.744
1206.380, 5.009
1207.602, 21.365
1208.823, 23.321
1210.044, 36.926
1211.265, 109.415
1212.486, 82.658
1213.707, 35.899
1214.927, 52.138
1216.147, 50.411
1217.367, 38.099
1218.587, 30.336
1219.807, 17.624
1221.027, 29.857
1222.246, 23.603
1223.465, 34.402
1224.684, 32.661
1225.903, 21.069
1227.121, 34.294
1228.340, 7.444
1229.558, 0.427
1230.776, 23.981
1231.994, 5.811
1233.212, 60.390
1234.429, 70.588
1235.646, 18.782
1236.864, 68.974
1238.081, 12.290
1239.297, 38.549
1240.514, 25.788
1241.730, 37.050
1242.947, 27.239
1244.163, 23.039
1245.378, 58.636
1246.594, 23.816
1247.810, 36.996
1249.025, 66.174
1250.240, 65.335
1251.455, 53.624
1252.670, 57.782
1253.885, 54.938
1255.099, 30.089
1256.313, 64.237
1257.527, 69.383
1258.741, 15.528
1259.955, 47.322
1261.168, 13.805
1262.382, 21.928
1263.595, 52.986
1264.808, 56.094
1266.021, 61.186
1267.233, 30.276
1268.446, 37.362
1269.658, 58.622
1270.870, 8.310
1272.082, 26.746
1273.294, 26.798
1274.505, 38.846
1275.716, 33.891
1276.928, 48.933
1278.139, 32.972
1279.349, 33.738
1280.560, 29.904
1281.770, 29.060
1282.981, 15.093
1284.191, 27.104
1285.401, 17.111
1286.610, 25.114
1287.820, 21.618
1289.029, 0.357
1290.239, 37.326
1291.448, 27.287
1292.656, 29.758
1293.865, 42.184
1295.073, 17.119
1296.282, 6.048
1297.490, 56.971
1298.698, 0.891
1299.906, 45.804
1301.113, 20.290
1302.320, 37.604
1303.528, 62.493
1304.735, 8.623
1305.942, 16.251
1307.148, 19.121
1308.355, 7.987
1309.561, 23.847
1310.767, 20.702
1311.973, 41.551
1313.179, 34.395
1314.384, 25.234
1315.590, 42.068
1316.795, 47.776
1318.000, 21.600
1319.205, 43.069
1320.410, 5.883
1321.614, 17.691
1322.819, 1.506
1324.023, 25.279
1325.227, 47.609
1326.431, 6.382
1327.634, 34.886
1328.838, 0.503
1330.041, 32.259
1331.244, 31.989
1332.447, 7.735
1333.650, 36.475
1334.852, 4.789
1336.055, 8.062
1337.257, 38.656
1338.459, 34.371
1339.661, 23.071
1340.862, 30.777
1342.064, 2.532
1343.265, 32.678
1344.466, 23.362
1345.667, 20.048
1346.868, 50.661
1348.068, 27.067
1349.269, 0.741
1350.469, 68.408
1351.669, 19.052
1352.869, 26.712
1354.069, 44.936
1355.268, 6.589
1356.468, 41.239
1357.667, 46.898
1358.866, 46.543
1360.065, 30.187
1361.263, 1.701
1362.462, 57.339
1363.660, 26.976
1364.858, 72.611
1366.056, 51.245
1367.254, 21.339
1368.451, 32.973
1369.649, 11.607
1370.846, 66.241
1372.043, 30.824
1373.240, 74.827
1374.436, 66.281
1375.633, 62.823
1376.829, 71.814
1378.025, 60.292
1379.221, 41.742
1380.417, 47.170
1381.613, 15.592
1382.808, 22.663
1384.003, 27.450
1385.199, 22.387
1386.393, 39.318
1387.588, 33.245
1388.783, 55.165
1389.977, 50.080
1391.171, 56.990
1392.365, 67.847
1393.559, 90.079
1394.753, 14.910
1395.946, 41.755
1397.140, 68.595
1398.333, 41.364
1399.526, 94.145
1400.719, 76.956
1401.911, 84.761
1403.104, 37.550
1404.296, 41.236
1405.488, 49.912
1406.680, 7.562
1407.872, 61.645
1409.063, 89.442
1410.255, 47.065
1411.446, 88.500
1412.637, 7.614
1413.828, 69.984
1415.018, 39.239
1416.209, 67.656
1417.399, 55.946
1418.589, 66.471
1419.779, 53.994
1420.969, 48.598
1422.159, 55.104
1423.348, 84.175
1424.537, 37.740
1425.726, 27.934
1426.915, 72.726
1428.104, 79.202
1429.293, 79.058
1430.481, 74.011
1431.669, 57.472
1432.857, 74.797
1434.045, 33.086
1435.233, 100.307
1436.420, 79.679
1437.608, 54.293
1438.795, 81.476
1439.982, 45.501
1441.169, 99.926
1442.355, 93.283
1443.542, 104.883
1444.728, 92.164
1445.914, 119.374
1447.100, 88.327
1448.286, 98.579
1449.472, 114.908
1450.657, 136.235
1451.842, 111.560
1453.027, 87.622
1454.212, 110.665
1455.397, 64.761
1456.581, 97.934
1457.766, 113.147
1458.950, 121.367
1460.134, 125.308
1461.318, 105.518
1462.501, 55.714
1463.685, 136.865
1464.868, 50.011
1466.051, 89.853
1467.234, 101.021
1468.417, 76.721
1469.600, 91.919
1470.782, 77.122
1471.965, 51.311
1473.147, 67.480
1474.329, 53.655
1475.510, 28.799
1476.692, 63.980
1477.873, 101.227
1479.055, 24.480
1480.236, 55.743
1481.416, 47.025
1482.597, 101.312
1483.778, 49.603
1484.958, 91.905
1486.138, 47.219
1487.318, 78.530
1488.498, 66.842
1489.678, 64.168
1490.857, 49.504
1492.037, 37.852
1493.216, 30.214
1494.395, 32.588
1495.574, 52.080
1496.752, 33.618
1497.931, 32.184
1499.109, 18.784
1500.287, 57.424
1501.465, 46.103
1502.643, 10.177
1503.820, 54.587
1504.998, 23.404
1506.175, 50.281
1507.352, 54.229
1508.529, 1.738
1509.706, 48.389
1510.882, 43.612
1512.059, 42.805
1513.235, 35.972
1514.411, 16.907
1515.587, 85.522
1516.762, 5.555
1517.938, 38.320
1519.113, 62.217
1520.288, 29.472
1521.463, 14.438
1522.638, 0.000
##END=



