##NAMES=Celestine
##RRUFFID=R050008
##IDEAL CHEMISTRY=SrS^6+^O_4_
##LOCALITY=Scofield Quarry, Maybee, Monroe County, Michigan, USA
##OWNER=RRUFF
##SOURCE=Eugene Schlepp
##DESCRIPTION=Pale blue tabular crystals
##STATUS=The identification of this mineral has been confirmed by X-ray diffraction and chemical analysis
##URL=rruff.info/R050008
##MEASURED CHEMISTRY=Sr_1.00_S_1.00_O_4_
##PIN_ID=M00310
##ORIENTATION=Laser parallel to -a* (-1 0 0). Fiducial mark perpendicular to laser is parallel to b [0 1 0]
50.167, 0.000
51.575, 0.525
52.984, 54.077
54.392, 108.011
55.799, 120.878
57.207, 163.888
58.614, 164.820
60.021, 236.639
61.428, 232.646
62.834, 272.753
64.240, 280.651
65.646, 303.849
67.052, 345.253
68.458, 343.844
69.863, 238.099
71.268, 138.142
72.673, 125.058
74.077, 124.890
75.481, 155.798
76.885, 103.009
78.289, 66.953
79.693, 55.271
81.096, 33.054
82.499, 17.630
83.902, 32.638
85.304, 59.968
86.706, 132.805
88.108, 255.123
89.510, 343.537
90.912, 282.177
92.313, 236.052
93.714, 119.059
95.115, 137.078
96.515, 113.942
97.916, 108.841
99.316, 88.177
100.715, 82.664
102.115, 47.344
103.514, 49.271
104.913, 15.602
106.312, 60.728
107.711, 77.983
109.109, 53.137
110.507, 34.305
111.905, 38.013
113.303, 33.977
114.700, 35.464
116.097, 61.613
117.494, 67.742
118.891, 97.526
120.287, 88.139
121.683, 97.784
123.079, 174.745
124.475, 252.193
125.870, 303.026
127.265, 424.116
128.660, 516.390
130.055, 560.010
131.449, 668.703
132.843, 691.729
134.237, 679.143
135.631, 504.961
137.024, 414.055
138.417, 330.579
139.810, 283.628
141.203, 250.911
142.596, 187.567
143.988, 156.739
145.380, 108.221
146.771, 103.885
148.163, 107.417
149.554, 75.598
150.945, 54.429
152.336, 39.353
153.726, 38.116
155.117, 43.835
156.507, 38.258
157.896, 38.775
159.286, 44.986
160.675, 30.158
162.064, 23.181
163.453, 33.237
164.842, 57.134
166.230, 57.865
167.618, 126.645
169.006, 153.441
170.393, 259.128
171.781, 278.632
173.168, 275.060
174.555, 218.450
175.941, 153.934
177.328, 141.272
178.714, 96.587
180.100, 92.810
181.485, 63.991
182.871, 128.173
184.256, 104.421
185.641, 77.575
187.025, 71.666
188.410, 36.511
189.794, 46.473
191.178, 34.126
192.562, 32.863
193.945, 9.465
195.328, 10.984
196.711, 15.509
198.094, 8.029
199.476, 14.530
200.859, 14.017
202.241, 6.385
203.623, 8.298
205.004, 11.047
206.385, 3.208
207.766, 11.627
209.147, 10.433
210.528, 12.209
211.908, 22.175
213.288, 11.189
214.668, 30.171
216.048, 5.192
217.427, 11.085
218.806, 12.872
220.185, 24.760
221.564, 14.721
222.942, 10.795
224.320, 10.562
225.698, 11.970
227.076, 5.281
228.453, 2.410
229.830, 0.093
231.207, 2.738
232.584, 5.735
233.960, 3.799
235.337, 6.852
236.713, 15.817
238.088, 20.788
239.464, 33.691
240.839, 20.645
242.214, 17.428
243.589, 23.152
244.964, 18.759
246.338, 34.257
247.712, 27.571
249.086, 41.990
250.459, 31.423
251.833, 49.704
253.206, 14.055
254.579, 38.417
255.951, 27.690
257.324, 36.924
258.696, 28.118
260.068, 47.270
261.439, 45.381
262.811, 42.451
264.182, 32.477
265.553, 38.394
266.924, 73.228
268.294, 58.846
269.665, 51.408
271.035, 72.573
272.404, 52.057
273.774, 64.559
275.143, 46.916
276.512, 50.098
277.881, 78.279
279.250, 74.395
280.618, 72.491
281.986, 58.720
283.354, 71.944
284.721, 65.259
286.089, 54.496
287.456, 65.734
288.823, 65.044
290.190, 76.316
291.556, 78.588
292.922, 82.147
294.288, 78.884
295.654, 85.974
297.019, 74.007
298.385, 68.982
299.750, 65.914
301.114, 66.792
302.479, 85.624
303.843, 55.412
305.207, 92.167
306.571, 90.891
307.935, 64.590
309.298, 70.183
310.661, 83.553
312.024, 75.883
313.387, 67.208
314.749, 63.362
316.111, 55.579
317.473, 72.107
318.835, 51.862
320.196, 52.678
321.558, 70.416
322.919, 92.150
324.279, 66.954
325.640, 56.553
327.000, 66.020
328.360, 73.653
329.720, 98.521
331.080, 63.387
332.439, 81.587
333.798, 70.887
335.157, 93.227
336.516, 94.554
337.874, 78.869
339.232, 84.171
340.590, 80.112
341.948, 77.379
343.305, 79.596
344.662, 75.560
346.019, 76.391
347.376, 73.485
348.733, 72.470
350.089, 75.333
351.445, 87.163
352.801, 83.733
354.156, 80.382
355.512, 85.923
356.867, 82.449
358.222, 76.602
359.576, 78.802
360.931, 74.095
362.285, 90.224
363.639, 61.503
364.992, 83.775
366.346, 59.870
367.699, 64.136
369.052, 85.241
370.405, 67.232
371.757, 69.322
373.110, 73.497
374.462, 66.573
375.814, 48.035
377.165, 56.200
378.516, 44.637
379.868, 63.753
381.218, 38.936
382.569, 51.992
383.920, 51.284
385.270, 64.191
386.620, 19.329
387.969, 39.465
389.319, 45.501
390.668, 22.945
392.017, 52.847
393.366, 34.594
394.714, 46.492
396.063, 56.460
397.411, 36.377
398.759, 50.349
400.106, 32.440
401.454, 37.580
402.801, 13.817
404.148, 47.933
405.495, 47.008
406.841, 58.129
408.187, 43.206
409.533, 52.403
410.879, 43.538
412.224, 47.807
413.570, 46.010
414.915, 52.314
416.260, 24.355
417.604, 51.595
418.949, 45.737
420.293, 37.952
421.637, 61.087
422.980, 55.332
424.324, 62.562
425.667, 55.772
427.010, 73.918
428.353, 69.095
429.695, 78.410
431.037, 91.659
432.379, 104.871
433.721, 114.353
435.063, 104.377
436.404, 138.634
437.745, 149.813
439.086, 170.001
440.427, 219.304
441.767, 248.586
443.108, 323.857
444.448, 415.068
445.787, 528.330
447.127, 753.559
448.466, 948.740
449.805, 1483.964
451.144, 2018.180
452.482, 3300.439
453.821, 5158.704
455.159, 6799.981
456.497, 7568.240
457.834, 5532.527
459.172, 3965.764
460.509, 2647.978
461.846, 1888.176
463.183, 1585.376
464.519, 1307.653
465.856, 1328.807
467.192, 1055.113
468.527, 838.413
469.863, 614.603
471.198, 440.815
472.534, 336.084
473.868, 236.322
475.203, 210.524
476.538, 186.711
477.872, 165.868
479.206, 135.099
480.540, 101.248
481.873, 87.405
483.206, 71.694
484.539, 48.969
485.872, 61.199
487.205, 55.390
488.537, 57.626
489.869, 32.903
491.201, 44.287
492.533, 28.527
493.864, 34.844
495.196, 43.118
496.527, 24.485
497.857, 36.859
499.188, 49.168
500.518, 19.500
501.848, 53.816
503.178, 11.122
504.508, 27.439
505.837, 10.742
507.166, 4.051
508.495, 20.349
509.824, 43.645
511.153, 47.956
512.481, 39.322
513.809, 8.678
515.137, 43.023
516.464, 16.396
517.792, 32.037
519.119, 55.383
520.446, 30.746
521.772, 12.096
523.099, 25.517
524.425, 31.827
525.751, 27.237
527.077, 18.554
528.402, 29.903
529.728, 31.345
531.053, 12.731
532.377, 6.141
533.702, 7.648
535.027, 25.080
536.351, 1.454
537.675, 1.882
538.998, 36.281
540.322, 29.771
541.645, 20.172
542.968, 25.643
544.291, 44.168
545.613, 14.732
546.936, 35.129
548.258, 33.272
549.580, 18.012
550.902, 20.463
552.223, 1.063
553.544, 23.419
554.865, 14.999
556.186, 1.649
557.507, 16.200
558.827, 22.812
560.147, 34.332
561.467, 9.944
562.786, 42.462
564.106, 31.120
565.425, 29.872
566.744, 43.189
568.063, 25.885
569.381, 38.016
570.700, 36.674
572.018, 33.326
573.335, 27.966
574.653, 32.609
575.970, 34.101
577.288, 45.772
578.604, 47.130
579.921, 48.161
581.238, 16.812
582.554, 50.023
583.870, 32.678
585.186, 44.335
586.501, 71.003
587.817, 27.704
589.132, 62.366
590.447, 54.029
591.761, 62.693
593.076, 86.300
594.390, 85.327
595.704, 89.075
597.018, 87.744
598.331, 92.453
599.645, 116.149
600.958, 131.822
602.271, 159.931
603.583, 171.606
604.896, 194.297
606.208, 236.159
607.520, 247.864
608.832, 304.564
610.143, 349.245
611.455, 430.001
612.766, 552.684
614.077, 681.748
615.387, 940.476
616.698, 1227.796
618.008, 1762.496
619.318, 2550.183
620.628, 3095.901
621.937, 3891.590
623.247, 4502.162
624.556, 5813.957
625.865, 7021.677
627.173, 5890.389
628.482, 4522.082
629.790, 2619.775
631.098, 1647.470
632.405, 1138.176
633.713, 769.872
635.020, 673.569
636.327, 576.267
637.634, 617.976
638.941, 711.676
640.247, 753.383
641.553, 704.084
642.859, 466.175
644.165, 338.877
645.471, 226.586
646.776, 152.294
648.081, 132.998
649.386, 109.706
650.691, 107.417
651.995, 91.129
653.299, 100.834
654.603, 87.615
655.907, 106.320
657.210, 115.033
658.514, 95.737
659.817, 81.481
661.120, 86.216
662.422, 44.921
663.725, 54.626
665.027, 24.331
666.329, 30.036
667.630, 17.741
668.932, 14.193
670.233, 14.898
671.534, 19.602
672.835, 20.306
674.136, 8.971
675.436, 25.743
676.737, 5.765
678.036, 36.532
679.336, 9.231
680.636, 16.007
681.935, 11.706
683.234, 19.404
684.533, 18.102
685.832, 7.815
687.130, 16.512
688.428, 15.208
689.726, 1.548
691.024, 23.146
692.322, 6.843
693.619, 5.535
694.916, 23.227
696.213, 9.917
697.510, 17.607
698.806, 13.296
700.102, 0.005
701.398, 2.823
702.694, 7.935
703.990, 13.146
705.285, 4.470
706.580, 14.203
707.875, 4.502
709.170, 15.279
710.464, 12.381
711.758, 0.041
713.052, 19.697
714.346, 17.648
715.640, 16.655
716.933, 3.057
718.226, 4.522
719.519, 2.072
720.812, 17.461
722.105, 9.832
723.397, 1.775
724.689, 6.221
725.981, 10.377
727.272, 11.972
728.564, 26.564
729.855, 15.154
731.146, 12.258
732.437, 9.320
733.727, 9.105
735.017, 3.538
736.308, 21.023
737.597, 6.419
738.887, 32.488
740.176, 29.036
741.466, 13.581
742.755, 6.124
744.043, 15.664
745.332, 20.202
746.620, 26.737
747.908, 11.730
749.196, 2.209
750.484, 3.307
751.771, 25.820
753.059, 6.330
754.346, 9.837
755.633, 23.341
756.919, 3.157
758.206, 23.339
759.492, 11.831
760.778, 1.322
762.063, 8.807
763.349, 10.290
764.634, 26.770
765.919, 4.248
767.204, 25.722
768.489, 1.806
769.773, 5.660
771.057, 5.878
772.341, 11.577
773.625, 17.029
774.909, 7.478
776.192, 24.924
777.475, 9.632
778.758, 3.801
780.041, 7.602
781.323, 9.508
782.605, 17.082
783.887, 29.503
785.169, 15.922
786.451, 11.339
787.732, 28.752
789.013, 26.164
790.294, 13.572
791.575, 10.978
792.856, 25.381
794.136, 11.782
795.416, 21.978
796.696, 1.425
797.976, 21.965
799.255, 11.351
800.534, 11.265
801.813, 26.108
803.092, 11.478
804.371, 10.845
805.649, 10.210
806.927, 18.572
808.205, 4.932
809.483, 18.288
810.760, 9.642
812.037, 27.993
813.315, 6.341
814.591, 6.687
815.868, 23.029
817.144, 14.369
818.421, 11.707
819.697, 22.042
820.972, 10.374
822.248, 7.296
823.523, 27.025
824.798, 20.344
826.073, 20.659
827.348, 6.973
828.623, 7.006
829.897, 0.686
831.171, 4.616
832.445, 21.916
833.718, 4.213
834.992, 14.507
836.265, 9.798
837.538, 12.087
838.811, 6.374
840.083, 13.658
841.356, 12.940
842.628, 4.780
843.900, 11.430
845.171, 6.700
846.443, 29.968
847.714, 13.228
848.985, 26.491
850.256, 10.753
851.527, 8.012
852.797, 5.269
854.067, 14.513
855.337, 3.294
856.607, 0.061
857.876, 21.521
859.146, 8.545
860.415, 7.226
861.684, 6.029
862.953, 12.350
864.221, 9.562
865.489, 17.712
866.757, 15.920
868.025, 3.889
869.293, 0.342
870.560, 12.495
871.828, 6.337
873.095, 20.198
874.361, 16.157
875.628, 9.314
876.894, 6.592
878.160, 15.065
879.426, 2.197
880.692, 131.334
881.958, 416.483
883.223, 594.631
884.488, 345.881
885.753, 437.002
887.018, 0.436
888.282, 11.199
889.546, 12.343
890.810, 8.074
892.074, 20.064
893.338, 6.201
894.601, 16.329
895.864, 10.424
897.127, 35.559
898.390, 43.693
899.652, 17.830
900.915, 61.024
902.177, 18.799
903.439, 15.858
904.700, 32.997
905.962, 25.096
907.223, 37.211
908.484, 30.349
909.745, 26.053
911.006, 49.192
912.266, 15.316
913.526, 25.274
914.786, 32.391
916.046, 20.514
917.306, 25.657
918.565, 13.725
919.824, 36.870
921.083, 56.634
922.342, 20.736
923.600, 49.247
924.859, 25.379
926.117, 28.525
927.375, 32.641
928.632, 33.787
929.890, 26.052
931.147, 33.094
932.404, 30.350
933.661, 45.341
934.918, 32.488
936.174, 42.637
937.430, 47.785
938.686, 37.924
939.942, 56.074
941.198, 47.224
942.453, 73.375
943.708, 42.516
944.963, 41.668
946.218, 48.815
947.472, 45.968
948.727, 59.733
949.981, 62.888
951.235, 40.037
952.488, 66.189
953.742, 70.346
954.995, 57.500
956.248, 80.653
957.501, 61.804
958.754, 76.965
960.006, 92.050
961.258, 111.213
962.510, 107.369
963.762, 101.534
965.014, 102.661
966.265, 117.798
967.516, 110.966
968.767, 113.136
970.018, 130.307
971.269, 166.479
972.519, 210.653
973.769, 244.081
975.019, 312.258
976.269, 341.437
977.518, 293.617
978.767, 317.779
980.017, 377.951
981.265, 404.816
982.514, 491.938
983.762, 460.127
985.011, 627.243
986.259, 653.436
987.507, 740.636
988.754, 913.839
990.002, 1044.028
991.249, 1449.237
992.496, 1797.447
993.743, 2405.114
994.989, 3741.331
996.236, 5849.547
997.482, 11439.768
998.728, 25228.990
999.974, 47118.211
1001.219, 60347.457
1002.464, 38596.676
1003.710, 17855.883
1004.954, 9763.989
1006.199, 5256.797
1007.444, 3494.802
1008.688, 2485.045
1009.932, 1721.292
1011.176, 1456.913
1012.420, 1077.617
1013.663, 943.875
1014.906, 819.135
1016.149, 676.398
1017.392, 648.664
1018.635, 538.587
1019.877, 418.789
1021.120, 463.237
1022.362, 358.069
1023.603, 370.055
1024.845, 331.342
1026.086, 291.648
1027.328, 270.566
1028.569, 259.888
1029.809, 222.215
1031.050, 217.546
1032.290, 202.212
1033.530, 179.217
1034.770, 188.561
1036.010, 162.908
1037.250, 165.260
1038.489, 141.619
1039.728, 158.981
1040.967, 135.991
1042.206, 144.362
1043.444, 144.735
1044.683, 122.111
1045.921, 127.491
1047.159, 155.874
1048.396, 130.011
1049.634, 141.401
1050.871, 126.802
1052.108, 129.021
1053.345, 147.430
1054.582, 139.987
1055.818, 107.404
1057.054, 113.025
1058.290, 81.597
1059.526, 77.330
1060.762, 91.479
1061.997, 79.152
1063.232, 71.594
1064.467, 101.039
1065.702, 124.487
1066.937, 113.939
1068.171, 119.799
1069.405, 111.261
1070.639, 92.870
1071.873, 82.340
1073.107, 139.816
1074.340, 119.295
1075.573, 120.777
1076.806, 155.262
1078.039, 114.751
1079.272, 186.246
1080.504, 168.744
1081.736, 208.246
1082.968, 262.751
1084.200, 269.323
1085.431, 384.834
1086.663, 448.348
1087.894, 628.866
1089.125, 818.386
1090.355, 1096.909
1091.586, 1746.436
1092.816, 2422.965
1094.046, 2641.500
1095.276, 2714.038
1096.506, 1951.578
1097.735, 1369.124
1098.965, 1027.673
1100.194, 685.225
1101.423, 634.785
1102.651, 526.348
1103.880, 495.913
1105.108, 600.482
1106.336, 608.053
1107.564, 739.628
1108.792, 863.206
1110.019, 878.788
1111.246, 987.373
1112.473, 826.961
1113.700, 669.552
1114.927, 593.147
1116.153, 408.744
1117.380, 346.345
1118.606, 283.948
1119.831, 212.554
1121.057, 189.476
1122.283, 201.972
1123.508, 145.594
1124.733, 146.219
1125.958, 124.848
1127.182, 64.606
1128.407, 56.240
1129.631, 56.879
1130.855, 61.521
1132.079, 47.166
1133.302, 51.715
1134.526, 49.643
1135.749, 47.617
1136.972, 40.273
1138.195, 30.379
1139.417, 33.041
1140.640, 51.297
1141.862, 34.132
1143.084, 16.805
1144.305, 61.481
1145.527, 34.158
1146.748, 53.839
1147.970, 17.522
1149.191, 46.208
1150.411, 85.896
1151.632, 58.586
1152.852, 135.284
1154.072, 134.986
1155.292, 170.692
1156.512, 185.400
1157.732, 202.110
1158.951, 192.825
1160.170, 194.739
1161.389, 167.277
1162.608, 168.002
1163.826, 137.742
1165.045, 103.471
1166.263, 99.204
1167.481, 55.939
1168.699, 52.680
1169.916, 72.672
1171.134, 38.425
1172.351, 35.184
1173.568, 28.765
1174.784, 12.530
1176.001, 28.534
1177.217, 18.564
1178.433, 10.334
1179.649, 31.252
1180.865, 10.026
1182.081, 15.800
1183.296, 20.577
1184.511, 10.452
1185.726, 12.231
1186.941, 37.012
1188.155, 52.796
1189.370, 30.581
1190.584, 28.368
1191.798, 12.156
1193.011, 3.945
1194.225, 19.264
1195.438, 6.808
1196.651, 22.410
1197.864, 19.803
1199.077, 7.007
1200.290, 6.031
1201.502, 24.751
1202.714, 7.394
1203.926, 5.732
1205.138, 0.951
1206.349, 6.831
1207.561, 25.334
1208.772, 24.439
1209.983, 41.212
1211.194, 19.008
1212.404, 42.838
1213.614, 10.431
1214.825, 16.342
1216.034, 4.884
1217.244, 25.889
1218.454, 40.663
1219.663, 12.458
1220.872, 14.252
1222.081, 26.028
1223.290, 19.804
1224.498, 22.453
1225.707, 22.360
1226.915, 11.139
1228.123, 18.947
1229.331, 2.258
1230.538, 22.535
1231.746, 24.322
1232.953, 36.121
1234.160, 16.902
1235.366, 4.683
1236.573, 18.565
1237.779, 18.345
1238.986, 31.573
1240.192, 33.356
1241.397, 41.140
1242.603, 40.693
1243.808, 38.833
1245.013, 40.620
1246.218, 26.409
1247.423, 34.199
1248.628, 47.990
1249.832, 15.781
1251.036, 13.574
1252.240, 27.366
1253.444, 55.209
1254.648, 24.030
1255.851, 24.978
1257.054, 39.773
1258.257, 52.569
1259.460, 51.358
1260.663, 24.144
1261.865, 13.929
1263.067, 13.712
1264.269, 29.522
1265.471, 2.694
1266.673, 14.041
1267.874, 13.825
1269.075, 11.609
1270.276, 13.395
1271.477, 0.820
1272.678, 7.998
1273.878, 9.783
1275.078, 18.568
1276.278, 26.383
1277.478, 5.175
1278.678, 17.024
1279.877, 3.253
1281.077, 7.503
1282.276, 5.069
1283.475, 29.043
1284.673, 7.205
1285.872, 0.302
1287.070, 16.446
1288.268, 37.194
1289.466, 42.934
1290.664, 33.674
1291.861, 8.466
1293.058, 35.196
1294.255, 19.926
1295.452, 25.655
1296.649, 17.383
1297.846, 23.103
1299.042, 28.822
1300.238, 29.541
1301.434, 41.258
1302.630, 26.975
1303.825, 14.691
1305.020, 6.406
1306.216, 32.119
1307.411, 5.832
1308.605, 22.543
1309.800, 17.253
1310.994, 12.957
1312.188, 29.661
1313.382, 15.638
1314.576, 18.056
1315.770, 43.749
1316.963, 24.560
1318.156, 14.121
1319.349, 0.799
1320.542, 0.474
1321.735, 16.146
1322.927, 2.815
1324.119, 15.473
1325.311, 31.128
1326.503, 33.781
1327.695, 4.432
1328.886, 27.080
1330.077, 19.724
1331.268, 26.367
1332.459, 24.007
1333.650, 22.646
1334.840, 22.119
1336.030, 15.940
1337.220, 14.568
1338.410, 0.448
1339.600, 7.929
1340.789, 17.689
1341.979, 7.492
1343.168, 2.106
1344.357, 37.573
1345.545, 5.182
1346.734, 9.413
1347.922, 19.041
1349.110, 16.624
1350.298, 6.220
1351.486, 31.580
1352.674, 22.172
1353.861, 8.762
1355.048, 5.351
1356.235, 11.062
1357.422, 19.118
1358.608, 27.698
1359.795, 26.133
1360.981, 15.710
1362.167, 9.286
1363.353, 9.860
1364.538, 28.485
1365.724, 25.133
1366.909, 14.630
1368.094, 29.409
1369.279, 20.981
1370.463, 8.553
1371.648, 12.221
1372.832, 12.727
1374.016, 14.320
1375.200, 11.866
1376.384, 26.393
1377.567, 35.994
1378.750, 4.481
1379.933, 48.849
1381.116, 2.378
1382.299, 24.391
1383.481, 32.158
1384.664, 31.923
1385.846, 4.687
1387.028, 25.450
1388.210, 23.211
1389.391, 20.969
1390.572, 22.724
1391.754, 31.478
1392.935, 23.359
1394.115, 25.771
1395.296, 10.509
1396.476, 14.245
1397.656, 4.833
1398.837, 28.563
1400.016, 41.291
1401.196, 38.786
1402.375, 48.428
1403.555, 32.415
1404.734, 39.902
1405.912, 13.585
1407.091, 24.265
1408.270, 10.058
1409.448, 20.617
1410.626, 22.291
1411.804, 23.962
1412.982, 41.630
1414.159, 13.285
1415.336, 21.931
1416.514, 22.592
1417.690, 11.550
1418.867, 17.187
1420.044, 10.279
1421.220, 15.175
1422.396, 26.557
1423.572, 43.144
1424.748, 10.584
1425.924, 62.162
1427.099, 1.738
1428.274, 47.311
1429.449, 27.881
1430.624, 28.736
1431.799, 52.249
1432.973, 6.522
1434.147, 18.532
1435.322, 35.070
1436.495, 34.528
1437.669, 32.042
1438.843, 37.604
1440.016, 42.353
1441.189, 40.902
1442.362, 51.351
1443.535, 52.868
1444.707, 39.376
1445.880, 48.827
1447.052, 62.274
1448.224, 37.722
1449.396, 45.214
1450.567, 18.502
1451.739, 70.071
1452.910, 23.522
1454.081, 55.705
1455.252, 36.124
1456.422, 37.528
1457.593, 47.920
1458.763, 65.126
1459.933, 37.130
1461.103, 34.488
1462.273, 60.867
1463.442, 41.182
1464.611, 32.152
1465.781, 18.446
1466.949, 22.898
1468.118, 49.886
1469.287, 36.038
1470.455, 38.183
1471.623, 40.462
1472.791, 32.668
1473.959, 51.489
1475.127, 45.744
1476.294, 5.028
1477.461, 44.148
1478.628, 11.449
1479.795, 28.761
1480.962, 29.085
1482.128, 34.396
1483.295, 41.347
1484.461, 29.975
1485.627, 48.246
1486.792, 28.537
1487.958, 27.825
1489.123, 35.100
1490.288, 48.379
1491.453, 45.961
1492.618, 37.974
1493.783, 51.346
1494.947, 37.730
1496.111, 45.131
1497.275, 13.557
1498.439, 23.809
1499.603, 41.248
1500.766, 29.722
1501.930, 44.212
1503.093, 52.724
1504.256, 3.262
1505.418, 19.834
1506.581, 35.446
1507.743, 1.905
1508.905, 36.782
1510.067, 67.535
1511.229, 1.345
1512.391, 38.286
1513.552, 12.071
1514.713, 48.380
1515.874, 72.297
1517.035, 0.011
1518.196, 10.964
1519.356, 0.000
##END=



