##NAMES=Celestine
##RRUFFID=R040007
##IDEAL CHEMISTRY=SrS^6+^O_4_
##LOCALITY=Coahuila, Mexico
##OWNER=RRUFF
##SOURCE=University of Arizona Mineral Museum
##DESCRIPTION=Blue tabular crystals
##STATUS=The identification of this mineral has been confirmed by X-ray diffraction and chemical analysis
##URL=rruff.info/R040007
##MEASURED CHEMISTRY=(Sr_0.95_Ba_0.04_Ca_0.01_)_Σ=1_S_1.00_O_4_; = Light bands. (Sr_0.99_Ba_0.01_)_Σ=1_S_1.00_O_4_; trace amounts of Ca = Dark bands
##PIN_ID=M00014
##ORIENTATION=Laser parallel to a* (1 0 0). Fiducial mark perpendicular to laser is parallel to b [0 1 0]
51.466, 0.000
52.866, 13.848
54.266, 18.870
55.666, 20.522
57.065, 9.880
58.464, 5.918
59.863, 3.035
61.262, 7.022
62.661, 4.287
64.059, 0.014
65.458, 1.749
66.856, 17.930
68.253, 15.472
69.651, 40.330
71.048, 54.466
72.445, 100.851
73.842, 156.457
75.239, 217.263
76.635, 297.248
78.031, 438.393
79.427, 669.686
80.823, 1014.113
82.218, 1447.665
83.614, 1951.332
85.009, 2176.106
86.404, 2080.980
87.798, 1629.947
89.193, 1169.002
90.587, 826.140
91.981, 535.356
93.375, 421.644
94.768, 328.000
96.161, 288.416
97.554, 250.888
98.947, 218.410
100.340, 195.980
101.732, 181.595
103.124, 162.251
104.516, 162.854
105.908, 196.694
107.300, 170.469
108.691, 174.279
110.082, 180.136
111.473, 164.034
112.864, 208.970
114.254, 226.938
115.644, 264.944
117.034, 287.978
118.424, 311.038
119.813, 317.125
121.203, 311.236
122.592, 292.380
123.981, 328.568
125.369, 328.773
126.758, 285.010
128.146, 250.272
129.534, 230.553
130.922, 204.857
132.309, 178.178
133.696, 145.527
135.083, 132.887
136.470, 116.468
137.857, 130.612
139.243, 106.970
140.630, 110.327
142.016, 124.684
143.401, 105.044
144.787, 94.408
146.172, 101.783
147.557, 92.164
148.942, 116.551
150.327, 100.944
151.711, 100.345
153.096, 93.753
154.480, 80.168
155.863, 104.829
157.247, 94.257
158.630, 107.694
160.013, 120.139
161.396, 155.592
162.779, 195.096
164.161, 240.566
165.544, 293.044
166.926, 328.094
168.308, 360.618
169.689, 341.114
171.070, 295.533
172.452, 251.036
173.833, 209.548
175.213, 191.068
176.594, 142.094
177.974, 155.797
179.354, 101.525
180.734, 100.068
182.114, 90.945
183.493, 88.501
184.872, 95.064
186.251, 63.908
187.630, 45.483
189.008, 63.157
190.387, 41.793
191.765, 64.455
193.143, 59.229
194.520, 57.515
195.898, 62.115
197.275, 45.721
198.652, 59.454
200.029, 56.732
201.405, 62.541
202.782, 56.572
204.158, 49.199
205.534, 51.148
206.909, 45.472
208.285, 50.807
209.660, 42.639
211.035, 41.290
212.410, 43.342
213.784, 31.675
215.159, 31.336
216.533, 43.002
217.907, 32.753
219.281, 22.833
220.654, 50.751
222.027, 30.950
223.400, 37.184
224.773, 55.461
226.146, 26.776
227.518, 39.124
228.891, 34.419
230.263, 32.858
231.634, 26.193
233.006, 23.742
234.377, 24.844
235.748, 16.705
237.119, 30.216
238.490, 28.171
239.860, 33.625
241.231, 31.274
242.601, 31.848
243.970, 32.604
245.340, 27.584
246.709, 28.648
248.079, 22.272
249.448, 12.907
250.816, 18.553
252.185, 20.209
253.553, 13.874
254.921, 4.550
256.289, 17.234
257.657, 5.072
259.024, 16.629
260.391, 10.339
261.758, 11.056
263.125, 6.780
264.492, 11.512
265.858, 13.253
267.224, 23.001
268.590, 21.755
269.956, 11.518
271.321, 18.287
272.687, 0.938
274.052, 1.844
275.416, 12.630
276.781, 16.423
278.146, 12.220
279.510, 9.977
280.874, 9.830
282.237, 21.641
283.601, 0.543
284.964, 6.277
286.327, 15.102
287.690, 16.932
289.053, 15.235
290.416, 0.600
291.778, 3.439
293.140, 31.282
294.502, 5.128
295.863, 20.979
297.225, 5.833
298.586, 16.690
299.947, 8.449
301.308, 5.414
302.668, 2.719
304.029, 14.150
305.389, 2.978
306.749, 15.898
308.108, 13.777
309.468, 5.341
310.827, 14.544
312.186, 3.432
313.545, 6.324
314.903, 21.219
316.262, 12.117
317.620, 9.019
318.978, 4.076
320.336, 14.830
321.693, 9.740
323.051, 16.652
324.408, 0.432
325.765, 0.486
327.121, 8.407
328.478, 19.331
329.834, 0.259
331.190, 10.814
332.546, 7.887
333.902, 20.042
335.257, 11.031
336.612, 17.897
337.967, 21.827
339.322, 7.760
340.677, 14.694
342.031, 15.630
343.385, 0.432
344.739, 10.492
346.093, 6.446
347.446, 1.613
348.799, 3.330
350.153, 8.275
351.505, 5.778
352.858, 14.169
354.210, 5.119
355.563, 15.070
356.915, 3.980
358.267, 5.970
359.618, 12.925
360.969, 5.111
362.321, 26.853
363.672, 16.821
365.022, 1.208
366.373, 7.761
367.723, 10.734
369.073, 5.293
370.423, 19.681
371.773, 9.345
373.122, 1.629
374.471, 38.605
375.821, 34.581
377.169, 15.559
378.518, 13.539
379.866, 12.478
381.215, 23.504
382.563, 12.508
383.910, 23.517
385.258, 24.508
386.605, 18.636
387.952, 7.650
389.299, 7.168
390.646, 15.674
391.992, 3.686
393.339, 13.705
394.685, 22.727
396.031, 56.758
397.376, 24.791
398.722, 14.828
400.067, 5.131
401.412, 50.909
402.757, 43.952
404.101, 35.998
405.446, 45.051
406.790, 46.107
408.134, 62.165
409.478, 39.225
410.821, 45.288
412.165, 33.353
413.508, 57.420
414.851, 48.490
416.193, 63.652
417.536, 60.726
418.878, 50.903
420.220, 84.856
421.562, 84.960
422.904, 96.048
424.245, 101.138
425.586, 105.267
426.927, 146.763
428.268, 158.859
429.609, 147.956
430.949, 143.596
432.289, 203.698
433.629, 213.801
434.969, 263.879
436.309, 313.989
437.648, 409.100
438.987, 503.213
440.326, 619.328
441.665, 779.051
443.003, 1115.169
444.342, 1551.288
445.680, 2276.384
447.018, 3371.505
448.355, 5184.628
449.693, 7714.754
451.030, 10133.219
452.367, 11392.350
453.704, 9852.481
455.041, 7324.614
456.377, 4896.748
457.713, 3287.882
459.049, 2298.018
460.385, 1599.155
461.721, 1206.917
463.056, 955.056
464.391, 715.064
465.726, 593.205
467.061, 476.200
468.395, 382.345
469.730, 333.493
471.064, 265.384
472.398, 250.534
473.731, 201.685
475.065, 176.836
476.398, 133.990
477.731, 130.146
479.064, 107.301
480.397, 102.236
481.729, 73.394
483.062, 103.554
484.394, 61.714
485.725, 80.799
487.057, 56.922
488.389, 66.084
489.720, 25.246
491.051, 81.354
492.382, 41.945
493.712, 45.679
495.043, 56.844
496.373, 34.414
497.703, 30.582
499.032, 26.751
500.362, 44.920
501.691, 34.089
503.020, 31.260
504.349, 21.323
505.678, 22.901
507.007, 24.072
508.335, 32.075
509.663, 31.249
510.991, 21.430
512.319, 9.236
513.646, 24.426
514.973, 31.604
516.300, 12.786
517.627, 48.283
518.954, 40.133
520.280, 42.586
521.607, 18.620
522.933, 28.716
524.259, 36.997
525.584, 31.999
526.910, 45.179
528.235, 32.359
529.560, 28.155
530.885, 14.335
532.209, 7.922
533.534, 16.096
534.858, 34.372
536.182, 10.018
537.506, 33.247
538.829, 23.599
540.152, 14.131
541.476, 19.310
542.799, 3.956
544.121, 13.279
545.444, 0.533
546.766, 5.736
548.088, 5.913
549.410, 29.093
550.732, 11.318
552.053, 15.419
553.375, 30.598
554.696, 28.799
556.017, 23.977
557.337, 18.354
558.658, 17.049
559.978, 13.552
561.298, 14.733
562.618, 13.010
563.938, 18.126
565.257, 14.508
566.576, 17.406
567.895, 10.665
569.214, 20.847
570.533, 23.024
571.851, 24.210
573.170, 17.406
574.488, 3.581
575.805, 21.754
577.123, 3.463
578.440, 8.369
579.758, 8.537
581.075, 21.741
582.391, 43.908
583.708, 7.113
585.024, 2.610
586.341, 26.549
587.657, 23.707
588.972, 4.886
590.288, 12.265
591.603, 25.414
592.918, 19.627
594.233, 20.433
595.548, 33.578
596.863, 18.746
598.177, 31.609
599.491, 37.098
600.805, 47.310
602.119, 73.449
603.432, 87.587
604.746, 86.724
606.059, 98.859
607.372, 151.180
608.685, 197.343
609.997, 250.918
611.309, 331.211
612.621, 470.353
613.933, 709.481
615.245, 1056.607
616.557, 1397.746
617.868, 1520.873
619.179, 1440.009
620.490, 1269.129
621.801, 1219.248
623.111, 1027.366
624.421, 815.482
625.731, 582.966
627.041, 417.646
628.351, 259.757
629.660, 236.867
630.970, 183.975
632.279, 157.081
633.588, 151.619
634.896, 168.721
636.205, 196.851
637.513, 197.994
638.821, 176.320
640.129, 159.425
641.437, 83.520
642.744, 58.611
644.051, 74.699
645.358, 71.786
646.665, 79.871
647.972, 74.031
649.278, 61.112
650.584, 43.193
651.890, 83.273
653.196, 77.363
654.502, 107.883
655.807, 109.960
657.113, 73.034
658.418, 72.106
659.722, 71.176
661.027, 54.244
662.331, 15.310
663.636, 46.376
664.940, 22.439
666.244, 43.692
667.547, 14.752
668.851, 32.810
670.154, 13.866
671.457, 35.921
672.760, 14.972
674.062, 3.974
675.365, 4.931
676.667, 14.513
677.969, 3.125
679.271, 8.857
680.572, 7.224
681.874, 28.229
683.175, 30.232
684.476, 41.885
685.777, 41.613
687.077, 40.227
688.378, 36.222
689.678, 9.216
690.978, 7.208
692.278, 1.804
693.577, 10.178
694.877, 4.158
696.176, 6.133
697.475, 16.107
698.774, 2.126
700.072, 5.058
701.371, 8.025
702.669, 12.127
703.967, 21.075
705.265, 19.763
706.562, 10.719
707.860, 9.328
709.157, 31.615
710.454, 10.445
711.751, 23.675
713.047, 4.958
714.344, 3.939
715.640, 12.856
716.936, 19.772
718.232, 8.685
719.527, 8.405
720.823, 19.637
722.118, 27.534
723.413, 38.629
724.708, 16.520
726.002, 19.409
727.297, 15.295
728.591, 13.640
729.885, 17.059
731.179, 18.847
732.472, 2.277
733.766, 5.508
735.059, 29.333
736.352, 11.172
737.645, 19.253
738.937, 11.105
740.230, 6.916
741.522, 16.360
742.814, 18.203
744.106, 2.043
745.397, 18.340
746.689, 28.173
747.980, 8.004
749.271, 5.168
750.562, 59.652
751.853, 10.470
753.143, 7.285
754.433, 33.098
755.723, 6.908
757.013, 27.715
758.303, 14.520
759.592, 20.323
760.881, 14.123
762.170, 1.921
763.459, 8.716
764.748, 2.492
766.036, 2.293
767.325, 10.075
768.613, 16.855
769.901, 23.633
771.188, 9.408
772.476, 11.182
773.763, 8.953
775.050, 30.722
776.337, 35.489
777.624, 29.254
778.910, 15.016
780.196, 2.223
781.482, 5.467
782.768, 17.281
784.054, 41.028
785.339, 25.773
786.625, 18.516
787.910, 3.743
789.195, 15.992
790.479, 5.725
791.764, 4.456
793.048, 0.815
794.332, 6.910
795.616, 8.633
796.900, 19.354
798.183, 22.074
799.467, 20.791
800.750, 18.507
802.033, 1.222
803.316, 32.934
804.598, 9.644
805.880, 39.352
807.163, 5.059
808.445, 5.236
809.726, 11.464
811.008, 29.162
812.289, 24.858
813.570, 12.553
814.851, 22.246
816.132, 25.938
817.413, 41.629
818.693, 16.318
819.973, 17.995
821.253, 14.681
822.533, 43.351
823.813, 19.024
825.092, 28.684
826.371, 10.355
827.650, 3.021
828.929, 31.077
830.208, 3.072
831.486, 4.464
832.764, 23.914
834.042, 2.339
835.320, 15.221
836.598, 27.881
837.875, 20.540
839.152, 15.199
840.429, 33.856
841.706, 8.513
842.983, 11.168
844.259, 18.761
845.536, 11.318
846.812, 13.446
848.088, 8.111
849.363, 8.591
850.639, 2.125
851.914, 2.223
853.189, 13.188
854.464, 25.694
855.739, 7.732
857.013, 8.891
858.288, 15.462
859.562, 27.178
860.836, 13.772
862.110, 23.455
863.383, 16.094
864.656, 7.291
865.930, 26.654
867.203, 3.223
868.475, 19.174
869.748, 33.766
871.020, 9.390
872.292, 3.919
873.564, 6.391
874.836, 20.232
876.108, 8.144
877.379, 18.478
878.650, 28.099
879.922, 22.732
881.192, 23.357
882.463, 35.969
883.733, 16.602
885.004, 23.236
886.274, 1.333
887.544, 24.237
888.813, 21.878
890.083, 9.517
891.352, 30.124
892.621, 22.726
893.890, 39.255
895.159, 38.899
896.427, 36.543
897.695, 45.939
898.964, 49.587
900.232, 30.238
901.499, 55.828
902.767, 67.825
904.034, 37.483
905.301, 43.117
906.568, 77.708
907.835, 52.368
909.102, 50.958
910.368, 32.620
911.634, 62.283
912.900, 30.947
914.166, 44.613
915.432, 36.090
916.697, 47.726
917.962, 44.954
919.227, 32.463
920.492, 56.122
921.757, 27.795
923.021, 80.469
924.285, 48.130
925.550, 55.805
926.813, 45.469
928.077, 57.151
929.341, 77.835
930.604, 67.521
931.867, 79.486
933.130, 73.531
934.393, 76.656
935.655, 78.351
936.918, 63.047
938.180, 89.745
939.442, 40.445
940.703, 82.711
941.965, 57.414
943.226, 79.088
944.488, 49.749
945.749, 86.227
947.009, 61.926
948.270, 35.635
949.530, 72.348
950.791, 92.063
952.051, 109.779
953.311, 106.498
954.570, 127.140
955.830, 112.863
957.089, 125.587
958.348, 159.312
959.607, 139.029
960.866, 156.318
962.124, 139.050
963.383, 148.213
964.641, 180.520
965.899, 170.258
967.156, 164.998
968.414, 188.741
969.671, 206.485
970.928, 262.232
972.185, 254.790
973.442, 355.540
974.699, 357.293
975.955, 341.049
977.211, 347.806
978.468, 408.566
979.723, 421.323
980.979, 464.090
982.234, 568.862
983.490, 620.642
984.745, 671.426
986.000, 826.142
987.254, 908.934
988.509, 1175.730
989.763, 1489.527
991.017, 2017.327
992.271, 2738.130
993.525, 4013.934
994.779, 6490.741
996.032, 11662.553
997.285, 24076.363
998.538, 44500.586
999.791, 58201.410
1001.044, 45864.238
1002.296, 23887.066
1003.548, 11359.845
1004.800, 6263.677
1006.052, 3854.513
1007.304, 2654.083
1008.555, 1912.924
1009.807, 1463.025
1011.058, 1171.872
1012.309, 938.720
1013.559, 801.576
1014.810, 695.436
1016.060, 624.113
1017.310, 494.627
1018.560, 484.443
1019.810, 415.322
1021.060, 384.407
1022.309, 348.309
1023.558, 283.320
1024.807, 274.077
1026.056, 258.979
1027.305, 260.682
1028.553, 245.431
1029.801, 231.992
1031.049, 214.092
1032.297, 193.823
1033.545, 171.745
1034.793, 157.469
1036.040, 138.600
1037.287, 130.705
1038.534, 122.647
1039.781, 113.595
1041.027, 113.360
1042.274, 92.316
1043.520, 87.274
1044.766, 90.235
1046.012, 95.225
1047.257, 95.195
1048.503, 94.693
1049.748, 98.503
1050.993, 79.068
1052.238, 88.431
1053.483, 56.419
1054.727, 85.411
1055.971, 79.411
1057.216, 80.413
1058.459, 48.418
1059.703, 54.425
1060.947, 57.435
1062.190, 51.447
1063.433, 62.462
1064.676, 52.478
1065.919, 76.498
1067.162, 79.737
1068.404, 62.763
1069.646, 61.793
1070.888, 73.825
1072.130, 71.861
1073.372, 66.899
1074.613, 79.436
1075.855, 100.479
1077.096, 80.524
1078.337, 77.809
1079.578, 100.861
1080.818, 89.997
1082.059, 77.696
1083.299, 104.756
1084.539, 105.820
1085.779, 166.887
1087.018, 169.956
1088.258, 214.030
1089.497, 292.105
1090.736, 368.184
1091.975, 532.265
1093.213, 681.348
1094.452, 723.434
1095.690, 592.523
1096.928, 467.613
1098.166, 409.705
1099.404, 337.800
1100.642, 309.896
1101.879, 325.993
1103.116, 382.093
1104.353, 464.195
1105.590, 587.299
1106.827, 780.405
1108.063, 954.512
1109.299, 1166.683
1110.536, 1258.798
1111.771, 1196.914
1113.007, 1070.034
1114.243, 790.155
1115.478, 626.277
1116.713, 463.401
1117.948, 390.528
1119.183, 282.656
1120.418, 237.785
1121.652, 211.922
1122.886, 178.060
1124.120, 144.937
1125.354, 87.341
1126.588, 97.484
1127.821, 56.628
1129.055, 61.775
1130.288, 85.922
1131.521, 46.071
1132.753, 28.222
1133.986, 53.374
1135.218, 32.587
1136.450, 29.759
1137.682, 36.916
1138.914, 26.073
1140.146, 31.232
1141.377, 30.130
1142.609, 21.554
1143.840, 17.737
1145.071, 19.901
1146.301, 12.836
1147.532, 11.326
1148.762, 21.490
1149.992, 50.654
1151.222, 30.819
1152.452, 47.985
1153.682, 54.152
1154.911, 60.337
1156.140, 68.218
1157.369, 92.662
1158.598, 66.837
1159.827, 93.013
1161.055, 72.189
1162.284, 62.711
1163.512, 67.361
1164.740, 32.541
1165.967, 21.727
1167.195, 37.913
1168.422, 6.900
1169.650, 0.524
1170.877, 4.338
1172.103, 25.847
1173.330, 3.033
1174.557, 18.243
1175.783, 17.570
1177.009, 30.295
1178.235, 5.872
1179.461, 5.037
1180.686, 30.233
1181.912, 26.400
1183.137, 8.959
1184.362, 21.412
1185.587, 11.745
1186.811, 12.665
1188.036, 1.132
1189.260, 44.492
1190.484, 21.689
1191.708, 25.846
1192.932, 0.255
1194.155, 14.035
1195.378, 1.791
1196.602, 5.521
1197.825, 10.363
1199.047, 7.005
1200.270, 9.967
1201.492, 16.702
1202.715, 22.022
1203.937, 49.156
1205.159, 18.295
1206.380, 27.433
1207.602, 28.590
1208.823, 1.775
1210.044, 28.912
1211.265, 15.047
1212.486, 33.182
1213.707, 2.627
1214.927, 28.504
1216.147, 20.635
1217.367, 29.764
1218.587, 34.256
1219.807, 40.386
1221.027, 6.484
1222.246, 28.640
1223.465, 30.763
1224.684, 2.115
1225.903, 19.708
1227.121, 0.826
1228.340, 8.057
1229.558, 9.053
1230.776, 15.162
1231.994, 17.381
1233.212, 14.489
1234.429, 54.089
1235.646, 30.194
1236.864, 39.298
1238.081, 18.400
1239.297, 10.502
1240.514, 8.602
1241.730, 11.701
1242.947, 30.820
1244.163, 20.919
1245.378, 18.018
1246.594, 48.115
1247.810, 17.213
1249.025, 37.309
1250.240, 31.405
1251.455, 49.501
1252.670, 16.595
1253.885, 39.690
1255.099, 4.160
1256.313, 20.253
1257.527, 40.344
1258.741, 37.615
1259.955, 13.705
1261.168, 12.794
1262.382, 29.882
1263.595, 41.015
1264.808, 49.140
1266.021, 26.225
1267.233, 23.309
1268.446, 25.392
1269.658, 21.474
1270.870, 29.555
1272.082, 20.635
1273.294, 15.714
1274.505, 44.790
1275.716, 35.862
1276.928, 31.880
1278.139, 52.995
1279.349, 16.057
1280.560, 7.117
1281.770, 12.175
1282.981, 26.226
1284.191, 21.275
1285.401, 23.317
1286.610, 61.354
1287.820, 23.508
1289.029, 12.537
1290.239, 31.560
1291.448, 6.580
1292.656, 55.186
1293.865, 18.198
1295.073, 28.201
1296.282, 20.202
1297.490, 31.200
1298.698, 22.197
1299.906, 26.192
1301.113, 51.185
1302.320, 33.173
1303.528, 46.160
1304.735, 44.145
1305.942, 26.122
1307.148, 1.098
1308.355, 0.930
1309.561, 68.037
1310.767, 45.998
1311.973, 23.956
1313.179, 38.913
1314.384, 12.336
1315.590, 32.599
1316.795, 24.425
1318.000, 21.368
1319.205, 14.308
1320.410, 26.242
1321.614, 7.332
1322.819, 24.611
1324.023, 10.465
1325.227, 11.452
1326.431, 35.365
1327.634, 0.724
1328.838, 1.818
1330.041, 17.916
1331.244, 7.186
1332.447, 8.707
1333.650, 2.445
1334.852, 9.439
1336.055, 21.321
1337.257, 6.802
1338.459, 4.048
1339.661, 12.916
1340.862, 4.701
1342.064, 15.477
1343.265, 8.564
1344.466, 19.043
1345.667, 5.100
1346.868, 14.248
1348.068, 15.598
1349.269, 41.441
1350.469, 33.283
1351.669, 12.123
1352.869, 7.961
1354.069, 25.797
1355.268, 34.631
1356.468, 48.464
1357.667, 7.297
1358.866, 24.911
1360.065, 17.741
1361.263, 40.569
1362.462, 1.228
1363.660, 39.672
1364.858, 18.498
1366.056, 16.827
1367.254, 22.653
1368.451, 19.479
1369.649, 6.932
1370.846, 18.893
1372.043, 26.639
1373.240, 45.001
1374.436, 23.804
1375.633, 3.606
1376.829, 27.407
1378.025, 3.794
1379.221, 18.978
1380.417, 58.745
1381.613, 42.504
1382.808, 65.261
1384.003, 28.030
1385.199, 22.010
1386.393, 11.987
1387.588, 40.962
1388.783, 25.934
1389.977, 48.903
1391.171, 35.869
1392.365, 47.765
1393.559, 18.720
1394.753, 54.671
1395.946, 45.619
1397.140, 40.563
1398.333, 1.497
1399.526, 42.440
1400.719, 53.373
1401.911, 2.304
1403.104, 19.230
1404.296, 43.084
1405.488, 40.983
1406.680, 9.899
1407.872, 10.811
1409.063, 23.694
1410.255, 38.481
1411.446, 59.387
1412.637, 39.289
1413.828, 27.189
1415.018, 33.086
1416.209, 40.980
1417.399, 43.422
1418.589, 42.579
1419.779, 42.915
1420.969, 35.824
1422.159, 33.680
1423.348, 30.500
1424.537, 22.223
1425.726, 39.686
1426.915, 26.503
1428.104, 51.120
1429.293, 43.853
1430.481, 0.929
1431.669, 40.695
1432.857, 102.183
1434.045, 31.781
1435.233, 43.510
1436.420, 62.386
1437.608, 42.305
1438.795, 82.080
1439.982, 39.741
1441.169, 52.510
1442.355, 58.180
1443.542, 56.946
1444.728, 72.075
1445.914, 51.819
1447.100, 70.566
1448.286, 65.030
1449.472, 104.756
1450.657, 98.488
1451.842, 45.005
1453.027, 94.766
1454.212, 103.469
1455.397, 39.169
1456.581, 60.820
1457.766, 59.499
1458.950, 80.166
1460.134, 78.823
1461.318, 57.468
1462.501, 64.259
1463.685, 50.863
1464.868, 47.036
1466.051, 57.604
1467.234, 69.956
1468.417, 48.491
1469.600, 43.011
1470.782, 64.513
1471.965, 85.001
1473.147, 53.492
1474.329, 28.001
1475.510, 25.494
1476.692, 44.006
1477.873, 46.547
1479.055, 52.976
1480.236, 54.313
1481.416, 59.893
1482.597, 51.527
1483.778, 41.154
1484.958, 35.774
1486.138, 54.405
1487.318, 46.047
1488.498, 85.702
1489.678, 50.375
1490.857, 26.061
1492.037, 60.746
1493.216, 65.430
1494.395, 10.131
1495.574, 58.865
1496.752, 48.623
1497.931, 49.403
1499.109, 18.205
1500.287, 23.033
1501.465, 3.198
1502.643, 28.788
1503.820, 6.272
1504.998, 1.299
1506.175, 42.711
1507.352, 5.764
1508.529, 52.863
1509.706, 29.016
1510.882, 56.232
1512.059, 55.518
1513.235, 25.883
1514.411, 0.660
1515.587, 50.598
1516.762, 28.437
1517.938, 37.161
1519.113, 58.657
1520.288, 49.015
1521.463, 63.789
1522.638, 27.700
1523.813, 28.112
1524.987, 0.000
##END=



