##NAMES=Cerussite
##RRUFFID=R040069
##IDEAL CHEMISTRY=Pb^2+^CO_3_
##LOCALITY=Broken Hill, New South Wales, Australia
##OWNER=RRUFF
##SOURCE=University of Arizona Mineral Museum
##DESCRIPTION=Reticulated composite of colorless tabular crystals
##STATUS=The identification of this mineral has been confirmed by X-ray diffraction and chemical analysis
##URL=rruff.info/R040069
##MEASURED CHEMISTRY=Pb_1.04_C_0.98_O_3_
##PIN_ID=M00419
##ORIENTATION=Laser parallel to -b* (0 -1 0). Fiducial mark perpendicular to laser is parallel to c [0 0 1]
50.930, 0.000
52.334, 27.342
53.738, 53.159
55.142, 69.314
56.546, 89.141
57.949, 65.463
59.352, 73.831
60.755, 15.494
62.158, 4.219
63.560, 3.169
64.962, 1.195
66.364, 41.204
67.766, 135.775
69.168, 265.838
70.569, 493.337
71.970, 647.223
73.371, 825.455
74.771, 875.996
76.172, 924.818
77.572, 886.895
78.972, 851.205
80.371, 865.730
81.771, 822.452
83.170, 912.357
84.569, 955.430
85.968, 1027.659
87.367, 1092.035
88.765, 1231.548
90.163, 1315.185
91.561, 1380.934
92.959, 1542.788
94.356, 1595.739
95.753, 1679.781
97.150, 1792.911
98.547, 1905.125
99.943, 2055.420
101.340, 2142.792
102.736, 2221.238
104.132, 2421.755
105.527, 2513.339
106.923, 2736.987
108.318, 2964.697
109.713, 3419.465
111.107, 3721.287
112.502, 4070.163
113.896, 4488.087
115.290, 4709.060
116.684, 4898.077
118.077, 4932.137
119.471, 4826.239
120.864, 4629.382
122.257, 4638.563
123.649, 4472.785
125.042, 4344.047
126.434, 4576.334
127.826, 4349.614
129.218, 4455.894
130.609, 4175.186
132.001, 3997.497
133.392, 3522.826
134.782, 3175.168
136.173, 2835.534
137.564, 2414.916
138.954, 2257.328
140.344, 1925.771
141.733, 1766.253
143.123, 1615.773
144.512, 1516.325
145.901, 1377.906
147.290, 1324.511
148.679, 1329.137
150.067, 1171.784
151.455, 1129.453
152.843, 1076.147
154.231, 1050.871
155.618, 1000.619
157.005, 924.384
158.392, 940.167
159.779, 861.963
161.166, 859.770
162.552, 827.592
163.938, 820.428
165.324, 829.277
166.710, 819.135
168.095, 853.004
169.480, 838.881
170.865, 844.767
172.250, 872.663
173.635, 812.566
175.019, 865.478
176.403, 900.398
177.787, 923.328
179.171, 912.264
180.554, 942.207
181.937, 979.157
183.320, 992.116
184.703, 1076.080
186.086, 1083.050
187.468, 1197.027
188.850, 1204.124
190.232, 1301.109
191.614, 1392.102
192.995, 1413.095
194.376, 1586.166
195.757, 1647.331
197.138, 1789.525
198.518, 1907.720
199.899, 2087.832
201.279, 2288.596
202.659, 2372.738
204.038, 2558.047
205.418, 2678.169
206.797, 3010.758
208.176, 3112.281
209.554, 3223.872
210.933, 3372.711
212.311, 3406.677
213.689, 3457.441
215.067, 3294.035
216.445, 3246.637
217.822, 3116.371
219.199, 2964.654
220.576, 2900.330
221.953, 2714.013
223.330, 2621.094
224.706, 2440.436
226.082, 2353.460
227.458, 2242.928
228.833, 2045.281
230.209, 1890.891
231.584, 1716.549
232.959, 1594.209
234.334, 1448.752
235.708, 1297.318
237.082, 1219.485
238.456, 1113.906
239.830, 1073.487
241.204, 948.716
242.577, 890.730
243.951, 864.993
245.323, 804.295
246.696, 760.383
248.069, 662.813
249.441, 679.050
250.813, 618.353
252.185, 565.649
253.557, 504.426
254.928, 502.195
256.299, 454.605
257.670, 414.099
259.041, 375.513
260.411, 344.621
261.782, 355.087
263.152, 301.254
264.522, 251.519
265.891, 278.676
267.261, 227.831
268.630, 201.905
269.999, 229.005
271.368, 206.209
272.736, 238.597
274.104, 230.737
275.473, 230.175
276.840, 186.324
278.208, 213.437
279.576, 187.533
280.943, 183.630
282.310, 188.831
283.677, 169.932
285.043, 164.037
286.409, 147.174
287.776, 138.278
289.141, 143.383
290.507, 109.531
291.873, 141.713
293.238, 112.820
294.603, 96.942
295.968, 107.083
297.332, 81.256
298.697, 100.372
300.061, 95.476
301.425, 99.765
302.788, 69.867
304.152, 60.969
305.515, 62.086
306.878, 60.224
308.241, 51.402
309.603, 38.504
310.966, 47.666
312.328, 47.862
313.690, 32.993
315.052, 31.127
316.413, 16.212
317.774, 21.331
319.136, 19.481
320.496, 7.608
321.857, 13.705
323.217, 6.778
324.578, 9.152
325.938, 10.914
327.297, 20.977
328.657, 21.038
330.016, 1.095
331.375, 6.192
332.734, 5.242
334.093, 12.289
335.451, 5.647
336.810, 7.609
338.168, 4.531
339.525, 4.499
340.883, 12.475
342.240, 12.454
343.597, 17.581
344.954, 7.409
346.311, 2.594
347.668, 11.593
349.024, 13.405
350.380, 15.405
351.736, 6.594
353.091, 19.407
354.447, 13.404
355.802, 13.412
357.157, 21.391
358.512, 24.409
359.866, 14.433
361.221, 3.462
362.575, 1.441
363.928, 6.464
365.282, 28.430
366.636, 0.522
367.989, 5.597
369.342, 15.276
370.695, 25.191
372.047, 10.261
373.400, 28.148
374.752, 22.043
376.104, 31.986
377.455, 33.093
378.807, 32.174
380.158, 26.246
381.509, 26.343
382.860, 8.377
384.211, 18.476
385.561, 24.588
386.911, 8.714
388.261, 1.275
389.611, 8.740
390.961, 9.628
392.310, 0.159
393.659, 13.869
395.008, 5.037
396.357, 7.272
397.705, 6.463
399.053, 26.608
400.401, 25.732
401.749, 9.802
403.097, 12.951
404.444, 8.892
405.791, 5.975
407.138, 10.328
408.485, 3.413
409.832, 0.908
411.178, 4.960
412.524, 5.749
413.870, 16.653
415.216, 12.385
416.561, 4.284
417.906, 3.994
419.251, 9.692
420.596, 5.579
421.941, 10.098
423.285, 15.690
424.629, 25.510
425.973, 21.128
427.317, 7.823
428.661, 26.420
430.004, 21.988
431.347, 15.598
432.690, 30.141
434.032, 29.676
435.375, 15.387
436.717, 11.908
438.059, 29.441
439.401, 21.964
440.743, 18.541
442.084, 14.031
443.425, 24.514
444.766, 29.003
446.107, 5.496
447.447, 39.954
448.788, 42.415
450.128, 24.858
451.468, 20.307
452.807, 14.735
454.147, 28.190
455.486, 16.640
456.825, 13.060
458.164, 21.454
459.502, 20.848
460.841, 41.249
462.179, 23.672
463.517, 18.126
464.855, 21.532
466.192, 27.891
467.530, 35.257
468.867, 44.598
470.204, 43.841
471.540, 39.170
472.877, 37.477
474.213, 34.777
475.549, 25.063
476.885, 55.346
478.221, 46.622
479.556, 30.889
480.891, 47.077
482.226, 26.227
483.561, 58.411
484.895, 67.647
486.230, 52.686
487.564, 31.715
488.898, 47.927
490.232, 37.023
491.565, 46.220
492.898, 45.409
494.231, 47.362
495.564, 42.255
496.897, 40.420
498.229, 35.191
499.562, 39.086
500.894, 29.966
502.225, 42.658
503.557, 49.254
504.888, 39.111
506.220, 25.147
507.550, 34.216
508.881, 21.250
510.212, 36.678
511.542, 14.750
512.872, 9.837
514.202, 12.550
515.532, 38.020
516.861, 8.807
518.191, 8.265
519.520, 10.775
520.848, 42.998
522.177, 26.182
523.505, 21.373
524.834, 23.689
526.162, 11.989
527.489, 19.692
528.817, 20.148
530.144, 20.448
531.472, 6.104
532.798, 5.978
534.125, 1.395
535.452, 38.194
536.778, 4.999
538.104, 18.463
539.430, 31.120
540.756, 19.713
542.081, 11.313
543.406, 7.431
544.731, 2.556
546.056, 7.038
547.381, 4.509
548.705, 4.232
550.030, 27.032
551.354, 15.747
552.677, 27.460
554.001, 2.131
555.324, 6.909
556.647, 0.375
557.970, 11.419
559.293, 0.606
560.616, 11.112
561.938, 14.683
563.260, 8.655
564.582, 13.152
565.904, 37.841
567.225, 0.585
568.546, 21.317
569.868, 8.111
571.188, 22.931
572.509, 27.643
573.829, 17.346
575.150, 33.010
576.470, 36.703
577.790, 3.390
579.109, 39.027
580.429, 25.625
581.748, 26.291
583.067, 12.936
584.385, 32.556
585.704, 34.137
587.022, 26.769
588.340, 24.405
589.658, 37.851
590.976, 27.476
592.294, 34.094
593.611, 26.690
594.928, 38.257
596.245, 21.777
597.562, 21.366
598.878, 25.887
600.194, 44.366
601.510, 27.903
602.826, 24.429
604.142, 17.997
605.457, 10.524
606.773, 18.012
608.088, 26.514
609.402, 23.038
610.717, 26.580
612.031, 23.115
613.346, 25.646
614.660, 47.172
615.973, 42.693
617.287, 58.208
618.600, 33.676
619.913, 49.181
621.226, 57.682
622.539, 58.158
623.852, 76.650
625.164, 58.094
626.476, 69.578
627.788, 76.058
629.100, 68.534
630.411, 75.987
631.722, 62.455
633.033, 73.920
634.344, 66.384
635.655, 60.844
636.965, 68.300
638.276, 58.753
639.586, 49.202
640.896, 44.639
642.205, 39.082
643.515, 24.490
644.824, 28.927
646.133, 17.364
647.442, 35.797
648.750, 24.173
650.059, 9.587
651.367, 29.936
652.675, 23.356
653.983, 22.648
655.290, 20.878
656.598, 20.144
657.905, 23.553
659.212, 4.771
660.518, 16.991
661.825, 33.298
663.131, 54.710
664.437, 104.075
665.743, 151.420
667.049, 270.777
668.354, 387.060
669.660, 539.433
670.965, 682.773
672.270, 917.117
673.574, 969.360
674.879, 676.573
676.183, 357.648
677.487, 204.039
678.791, 122.293
680.095, 83.617
681.398, 81.000
682.701, 86.328
684.005, 52.600
685.307, 42.838
686.610, 51.010
687.912, 11.249
689.215, 4.731
690.517, 18.470
691.818, 6.170
693.120, 51.135
694.421, 10.492
695.723, 9.648
697.024, 32.874
698.324, 21.975
699.625, 2.762
700.925, 8.325
702.226, 2.577
703.526, 5.146
704.825, 4.077
706.125, 22.340
707.424, 16.679
708.723, 32.782
710.022, 7.077
711.321, 2.715
712.620, 32.580
713.918, 45.894
715.216, 40.158
716.514, 42.478
717.812, 57.796
719.109, 72.929
720.407, 74.243
721.704, 68.534
723.001, 87.826
724.297, 68.053
725.594, 98.358
726.890, 78.661
728.186, 100.947
729.482, 96.220
730.778, 79.517
732.073, 77.802
733.369, 66.095
734.664, 72.372
735.959, 66.661
737.253, 53.912
738.548, 60.186
739.842, 54.478
741.136, 46.761
742.430, 32.035
743.724, 51.598
745.017, 69.872
746.310, 29.056
747.603, 59.363
748.896, 37.623
750.189, 46.035
751.481, 43.293
752.774, 54.533
754.066, 29.783
755.357, 50.046
756.649, 35.357
757.941, 35.624
759.232, 22.934
760.523, 40.238
761.814, 25.493
763.104, 25.747
764.395, 23.999
765.685, 42.465
766.975, 38.949
768.265, 41.197
769.554, 30.497
770.844, 45.780
772.133, 46.220
773.422, 43.189
774.711, 40.429
775.999, 40.668
777.288, 52.905
778.576, 49.141
779.864, 75.375
781.152, 48.608
782.439, 57.842
783.727, 55.085
785.014, 37.313
786.301, 40.496
787.588, 66.722
788.874, 27.935
790.161, 43.113
791.447, 67.335
792.733, 26.570
794.019, 25.773
795.304, 20.125
796.590, 22.316
797.875, 50.522
799.160, 16.625
800.445, 5.801
801.729, 16.017
803.014, 36.231
804.298, 35.444
805.582, 21.656
806.865, 23.867
808.149, 10.077
809.432, 30.286
810.716, 37.516
811.999, 11.753
813.281, 33.960
814.564, 24.166
815.846, 29.435
817.128, 4.639
818.410, 35.844
819.692, 57.125
820.974, 35.425
822.255, 75.664
823.536, 86.865
824.817, 58.064
826.098, 72.263
827.379, 72.405
828.659, 47.534
829.939, 122.710
831.219, 129.609
832.499, 255.839
833.779, 451.976
835.058, 908.109
836.337, 1397.304
837.616, 1484.496
838.895, 1139.477
840.173, 700.606
841.452, 409.693
842.730, 273.642
844.008, 175.743
845.286, 109.935
846.563, 104.374
847.841, 71.565
849.118, 75.686
850.395, 67.672
851.672, 54.861
852.948, 46.048
854.225, 47.235
855.501, 41.421
856.777, 33.606
858.053, 42.790
859.328, 31.974
860.604, 24.157
861.879, 50.339
863.154, 42.520
864.429, 31.700
865.703, 22.880
866.978, 25.058
868.252, 41.236
869.526, 16.412
870.800, 36.588
872.073, 19.763
873.347, 17.937
874.620, 22.110
875.893, 8.282
877.166, 8.454
878.438, 25.624
879.711, 16.793
880.983, 10.038
882.255, 3.127
883.527, 26.292
884.798, 0.543
886.070, 24.620
887.341, 4.217
888.612, 36.943
889.883, 21.103
891.154, 37.263
892.424, 21.423
893.694, 2.581
894.964, 11.738
896.234, 1.894
897.504, 3.049
898.773, 16.202
900.042, 16.356
901.312, 36.509
902.580, 6.339
903.849, 7.189
905.118, 22.958
906.386, 1.104
907.654, 4.249
908.922, 5.607
910.189, 28.466
911.457, 22.667
912.724, 13.800
913.991, 17.934
915.258, 19.066
916.525, 12.198
917.791, 18.329
919.058, 11.460
920.324, 6.591
921.590, 23.722
922.855, 24.852
924.121, 13.981
925.386, 18.109
926.651, 4.237
927.916, 28.364
929.181, 5.490
930.446, 38.617
931.710, 4.257
932.974, 39.868
934.238, 14.992
935.502, 44.117
936.765, 28.235
938.029, 27.305
939.292, 43.423
940.555, 43.549
941.818, 29.675
943.080, 26.800
944.343, 39.926
945.605, 15.017
946.867, 6.141
948.129, 4.267
949.390, 21.368
950.652, 38.494
951.913, 0.379
953.174, 34.746
954.435, 25.813
955.695, 1.063
956.956, 1.941
958.216, 2.180
959.476, 14.299
960.736, 34.418
961.995, 26.535
963.255, 26.652
964.514, 6.231
965.773, 12.884
967.032, 17.998
968.291, 3.115
969.549, 13.231
970.807, 16.346
972.066, 20.460
973.323, 22.574
974.581, 13.687
975.839, 11.801
977.096, 12.913
978.353, 5.026
979.610, 35.139
980.867, 39.251
982.123, 9.638
983.380, 21.471
984.636, 17.578
985.892, 57.685
987.147, 47.792
988.403, 48.898
989.658, 45.003
990.914, 47.108
992.169, 23.212
993.423, 52.315
994.678, 33.417
995.932, 50.518
997.187, 32.619
998.441, 48.718
999.694, 42.817
1000.948, 46.915
1002.201, 73.012
1003.455, 64.109
1004.708, 71.204
1005.961, 40.299
1007.213, 63.393
1008.466, 48.486
1009.718, 79.579
1010.970, 51.670
1012.222, 32.746
1013.474, 60.811
1014.725, 48.900
1015.976, 73.989
1017.227, 82.775
1018.478, 74.150
1019.729, 84.236
1020.980, 67.235
1022.230, 96.320
1023.480, 122.233
1024.730, 125.581
1025.980, 109.694
1027.229, 172.775
1028.479, 238.856
1029.728, 413.886
1030.977, 462.959
1032.226, 363.985
1033.474, 251.016
1034.723, 223.236
1035.971, 232.433
1037.219, 239.507
1038.467, 335.486
1039.714, 393.339
1040.962, 439.412
1042.209, 515.430
1043.456, 681.462
1044.703, 799.340
1045.950, 1135.682
1047.196, 1557.031
1048.443, 2461.169
1049.689, 4494.239
1050.935, 12299.306
1052.180, 43708.383
1053.426, 64587.562
1054.671, 61986.855
1055.916, 28315.922
1057.161, 11524.982
1058.406, 5010.045
1059.651, 2371.107
1060.895, 1407.167
1062.139, 925.192
1063.383, 679.256
1064.627, 548.679
1065.871, 423.736
1067.114, 360.842
1068.357, 331.898
1069.600, 269.020
1070.843, 237.118
1072.086, 219.726
1073.328, 187.780
1074.570, 172.247
1075.813, 187.299
1077.054, 154.350
1078.296, 177.629
1079.538, 132.679
1080.779, 164.727
1082.020, 134.518
1083.261, 116.648
1084.502, 123.694
1085.742, 120.179
1086.983, 92.160
1088.223, 100.204
1089.463, 118.246
1090.703, 99.210
1091.942, 111.153
1093.182, 113.154
1094.421, 88.193
1095.660, 103.232
1096.899, 114.269
1098.137, 108.306
1099.376, 97.157
1100.614, 116.192
1101.852, 108.578
1103.090, 86.578
1104.328, 108.610
1105.565, 94.642
1106.803, 92.673
1108.040, 87.702
1109.277, 74.731
1110.513, 98.760
1111.750, 64.787
1112.986, 57.791
1114.223, 47.817
1115.459, 66.842
1116.694, 55.593
1117.930, 64.616
1119.165, 13.638
1120.401, 54.660
1121.636, 49.681
1122.871, 59.701
1124.105, 41.720
1125.340, 58.739
1126.574, 46.757
1127.808, 46.774
1129.042, 27.790
1130.276, 30.806
1131.509, 60.821
1132.743, 36.835
1133.976, 45.849
1135.209, 26.862
1136.442, 61.874
1137.674, 27.885
1138.906, 52.896
1140.139, 40.906
1141.371, 30.916
1142.603, 55.925
1143.834, 23.933
1145.066, 2.940
1146.297, 21.947
1147.528, 16.954
1148.759, 19.959
1149.990, 3.965
1151.220, 13.029
1152.450, 12.973
1153.681, 40.974
1154.910, 8.976
1156.140, 6.977
1157.370, 10.022
1158.599, 0.024
1159.828, 5.973
1161.057, 18.969
1162.286, 4.965
1163.515, 12.961
1164.743, 20.956
1165.972, 23.950
1167.200, 5.055
1168.427, 4.063
1169.655, 11.927
1170.883, 4.083
1172.110, 0.906
1173.337, 13.896
1174.564, 12.885
1175.791, 11.874
1177.017, 2.863
1178.244, 17.851
1179.470, 11.156
1180.696, 2.168
1181.922, 2.820
1183.147, 17.807
1184.373, 0.793
1185.598, 4.221
1186.823, 9.236
1188.048, 0.255
1189.273, 6.726
1190.497, 2.707
1191.722, 15.687
1192.946, 15.667
1194.170, 3.646
1195.393, 1.626
1196.617, 16.396
1197.840, 5.579
1199.064, 8.446
1200.287, 2.527
1201.509, 2.500
1202.732, 1.529
1203.954, 23.558
1205.177, 34.407
1206.399, 17.628
1207.621, 9.332
1208.842, 47.293
1210.064, 9.747
1211.285, 8.210
1212.506, 17.168
1213.727, 32.875
1214.948, 4.925
1216.169, 6.024
1217.389, 19.028
1218.609, 22.916
1219.829, 7.861
1221.049, 4.805
1222.269, 12.749
1223.488, 23.694
1224.708, 26.639
1225.927, 7.584
1227.146, 5.529
1228.364, 4.475
1229.583, 38.420
1230.801, 0.635
1232.019, 36.311
1233.237, 15.742
1234.455, 60.201
1235.673, 37.144
1236.890, 41.087
1238.107, 53.030
1239.324, 6.974
1240.541, 30.918
1241.758, 64.862
1242.975, 35.806
1244.191, 24.751
1245.407, 57.696
1246.623, 21.641
1247.839, 44.587
1249.054, 17.534
1250.270, 40.483
1251.485, 62.431
1252.700, 44.380
1253.915, 39.330
1255.129, 61.280
1256.344, 49.231
1257.558, 54.183
1258.772, 77.136
1259.986, 38.089
1261.200, 101.043
1262.413, 53.998
1263.627, 87.954
1264.840, 87.910
1266.053, 71.867
1267.266, 103.824
1268.478, 84.782
1269.691, 81.740
1270.903, 114.698
1272.115, 113.656
1273.327, 125.615
1274.539, 104.573
1275.750, 84.531
1276.961, 128.478
1278.173, 101.437
1279.384, 103.396
1280.594, 130.354
1281.805, 130.308
1283.015, 113.930
1284.226, 134.890
1285.436, 133.849
1286.646, 157.810
1287.855, 165.770
1289.065, 168.466
1290.274, 249.396
1291.483, 158.357
1292.692, 211.318
1293.901, 221.281
1295.109, 199.243
1296.318, 268.206
1297.526, 268.169
1298.734, 271.989
1299.942, 254.833
1301.150, 290.798
1302.357, 284.643
1303.564, 379.595
1304.771, 352.562
1305.978, 373.530
1307.185, 405.498
1308.392, 368.463
1309.598, 412.433
1310.804, 422.124
1312.010, 418.026
1313.216, 476.996
1314.422, 493.969
1315.627, 514.932
1316.832, 549.792
1318.037, 510.537
1319.242, 535.490
1320.447, 559.468
1321.652, 529.447
1322.856, 592.428
1324.060, 578.410
1325.264, 628.393
1326.468, 643.373
1327.672, 628.966
1328.875, 609.953
1330.078, 642.734
1331.281, 619.723
1332.484, 636.647
1333.687, 672.595
1334.890, 667.033
1336.092, 726.027
1337.294, 706.607
1338.496, 686.604
1339.698, 804.603
1340.900, 788.373
1342.101, 828.374
1343.302, 875.377
1344.503, 893.617
1345.704, 1023.510
1346.905, 1063.518
1348.106, 1125.089
1349.306, 1252.101
1350.506, 1349.115
1351.706, 1496.131
1352.906, 1762.150
1354.106, 1870.170
1355.305, 2136.193
1356.504, 2411.218
1357.703, 2590.245
1358.902, 2930.275
1360.101, 3213.307
1361.300, 3392.329
1362.498, 3769.366
1363.696, 3763.055
1364.894, 3628.097
1366.092, 3607.143
1367.290, 3289.191
1368.487, 2957.243
1369.684, 2742.297
1370.881, 2287.355
1372.078, 2092.417
1373.275, 1790.482
1374.472, 1505.550
1375.668, 1479.622
1376.864, 1259.698
1378.060, 1131.855
1379.256, 1040.940
1380.452, 925.029
1381.647, 848.123
1382.842, 786.221
1384.038, 623.325
1385.233, 682.573
1386.427, 583.688
1387.622, 492.847
1388.816, 533.969
1390.010, 394.096
1391.204, 409.254
1392.398, 331.377
1393.592, 228.496
1394.785, 242.640
1395.979, 228.743
1397.172, 201.803
1398.365, 258.809
1399.558, 164.817
1400.750, 140.826
1401.943, 197.837
1403.135, 136.849
1404.327, 184.861
1405.519, 178.879
1406.710, 155.898
1407.902, 192.920
1409.093, 197.946
1410.284, 140.972
1411.475, 160.001
1412.666, 181.032
1413.857, 185.067
1415.047, 215.105
1416.238, 147.145
1417.428, 217.187
1418.617, 207.232
1419.807, 171.282
1420.997, 148.334
1422.186, 159.391
1423.375, 176.451
1424.564, 225.514
1425.753, 188.579
1426.942, 162.649
1428.130, 189.724
1429.318, 153.804
1430.507, 82.891
1431.694, 164.987
1432.882, 116.089
1434.070, 138.196
1435.257, 111.311
1436.444, 124.437
1437.631, 119.571
1438.818, 92.709
1440.005, 102.850
1441.191, 140.995
1442.378, 63.143
1443.564, 106.294
1444.750, 82.451
1445.936, 74.615
1447.121, 93.781
1448.307, 95.951
1449.492, 60.124
1450.677, 67.300
1451.862, 132.478
1453.047, 96.658
1454.231, 97.840
1455.415, 83.024
1456.600, 86.207
1457.784, 74.391
1458.967, 87.576
1460.151, 84.763
1461.335, 107.951
1462.518, 62.146
1463.701, 135.347
1464.884, 102.557
1466.067, 72.773
1467.249, 122.998
1468.432, 93.231
1469.614, 96.472
1470.796, 141.721
1471.978, 75.980
1473.159, 105.247
1474.341, 146.524
1475.522, 103.811
1476.703, 127.108
1477.884, 106.415
1479.065, 101.731
1480.246, 132.058
1481.426, 80.395
1482.607, 100.742
1483.787, 97.099
1484.967, 102.467
1486.146, 101.846
1487.326, 115.237
1488.505, 90.639
1489.685, 99.055
1490.864, 101.484
1492.042, 35.930
1493.221, 58.392
1494.400, 34.873
1495.578, 3.373
1496.756, 66.894
1497.934, 25.436
1499.112, 13.000
1500.289, 38.587
1501.467, 10.200
1502.644, 2.838
1503.821, 18.505
1504.998, 3.798
1506.175, 42.932
1507.351, 9.698
1508.528, 7.503
1509.704, 43.351
1510.880, 9.245
1512.056, 4.812
1513.232, 31.185
1514.407, 0.242
1515.582, 15.264
1516.758, 27.287
1517.933, 2.321
1519.107, 34.005
1520.282, 33.932
1521.456, 0.159
1522.631, 5.186
1523.805, 0.000
##END=



