##NAMES=Cerussite
##RRUFFID=R040069
##IDEAL CHEMISTRY=Pb^2+^CO_3_
##LOCALITY=Broken Hill, New South Wales, Australia
##OWNER=RRUFF
##SOURCE=University of Arizona Mineral Museum
##DESCRIPTION=Reticulated composite of colorless tabular crystals
##STATUS=The identification of this mineral has been confirmed by X-ray diffraction and chemical analysis
##URL=rruff.info/R040069
##MEASURED CHEMISTRY=Pb_1.04_C_0.98_O_3_
##PIN_ID=M00419
##ORIENTATION=Laser parallel to -b* (0 -1 0). Fiducial mark perpendicular to laser is parallel to c [0 0 1]
50.930, 0.000
52.334, 6.602
53.738, 46.056
55.142, 69.085
56.546, 77.168
57.949, 99.754
59.352, 105.450
60.755, 64.153
62.158, 16.693
63.560, 7.064
64.962, 15.218
66.364, 16.146
67.766, 103.963
69.168, 206.178
70.569, 372.747
71.970, 520.631
73.371, 645.799
74.771, 644.221
76.172, 712.873
77.572, 647.734
78.972, 655.787
80.371, 627.016
81.771, 677.405
83.170, 695.942
84.569, 735.617
85.968, 827.418
87.367, 927.339
88.765, 1043.374
90.163, 1082.515
91.561, 1180.752
92.959, 1331.077
94.356, 1398.485
95.753, 1533.969
97.150, 1672.527
98.547, 1782.155
99.943, 2014.848
101.340, 2188.603
102.736, 2316.418
104.132, 2506.289
105.527, 2760.212
106.923, 3071.186
108.318, 3467.207
109.713, 4135.272
111.107, 4568.380
112.502, 5215.528
113.896, 5796.714
115.290, 6221.936
116.684, 6417.192
118.077, 6259.480
119.471, 6060.800
120.864, 5587.153
122.257, 5256.550
123.649, 4952.991
125.042, 4561.483
126.434, 4528.011
127.826, 4223.542
129.218, 4275.078
130.609, 4014.626
132.001, 3770.184
133.392, 3464.757
134.782, 3080.342
136.173, 2816.940
137.564, 2478.556
138.954, 2278.188
140.344, 1998.846
141.733, 1853.525
143.123, 1762.227
144.512, 1606.948
145.901, 1580.688
147.290, 1483.440
148.679, 1440.207
150.067, 1324.994
151.455, 1280.795
152.843, 1203.610
154.231, 1134.434
155.618, 1104.269
157.005, 1007.116
158.392, 1000.973
159.779, 908.837
161.166, 920.709
162.552, 875.587
163.938, 857.472
165.324, 842.364
166.710, 818.262
168.095, 836.166
169.480, 862.077
170.865, 830.995
172.250, 845.918
173.635, 845.845
175.019, 854.776
176.403, 842.712
177.787, 917.653
179.171, 843.598
180.554, 837.547
181.937, 844.499
183.320, 825.461
184.703, 890.420
186.086, 828.383
187.468, 883.349
188.850, 887.366
190.232, 881.420
191.614, 984.951
192.995, 986.199
194.376, 1048.645
195.757, 1065.054
197.138, 1164.913
198.518, 1181.240
199.899, 1290.155
201.279, 1392.220
202.659, 1492.245
204.038, 1577.754
205.418, 1683.380
206.797, 1874.142
208.176, 1956.922
209.554, 2093.898
210.933, 2196.672
212.311, 2258.469
213.689, 2324.470
215.067, 2290.300
216.445, 2429.222
217.822, 2443.228
219.199, 2446.058
220.576, 2527.873
221.953, 2445.113
223.330, 2483.057
224.706, 2463.191
226.082, 2340.189
227.458, 2243.723
228.833, 2093.072
230.209, 1897.234
231.584, 1717.604
232.959, 1533.831
234.334, 1418.312
235.708, 1247.582
237.082, 1145.513
238.456, 978.823
239.830, 930.199
241.204, 843.121
242.577, 770.128
243.951, 749.558
245.323, 641.506
246.696, 641.016
248.069, 551.473
249.441, 522.558
250.813, 445.557
252.185, 432.994
253.557, 387.999
254.928, 338.026
256.299, 338.053
257.670, 293.122
259.041, 274.521
260.411, 234.598
261.782, 230.604
263.152, 173.858
264.522, 170.894
265.891, 149.957
267.261, 132.968
268.630, 135.009
269.999, 154.049
271.368, 140.076
272.736, 143.111
274.104, 133.146
275.473, 141.190
276.840, 118.233
278.208, 128.249
279.576, 107.309
280.943, 122.325
282.310, 104.439
283.677, 113.472
285.043, 92.543
286.409, 105.620
287.776, 95.721
289.141, 65.745
290.507, 63.757
291.873, 83.769
293.238, 76.779
294.603, 47.789
295.968, 38.836
297.332, 52.843
298.697, 72.848
300.061, 32.851
301.425, 45.852
302.788, 38.892
304.152, 28.928
305.515, 43.985
306.878, 43.977
308.241, 28.009
309.603, 36.001
310.966, 12.986
312.328, 1.041
313.690, 39.019
315.052, 15.995
316.413, 16.056
317.774, 13.042
319.136, 21.044
320.496, 201.008
321.857, 34.167
323.217, 2.852
324.578, 20.136
325.938, 4.904
327.297, 1.061
328.657, 0.041
330.016, 23.974
331.375, 13.042
332.734, 4.885
334.093, 3.193
335.451, 18.236
336.810, 8.325
338.168, 11.420
339.525, 31.523
340.883, 6.614
342.240, 15.685
343.597, 19.213
344.954, 18.925
346.311, 21.021
347.668, 1.820
349.024, 35.338
350.380, 9.505
351.736, 11.659
353.091, 14.834
354.447, 14.014
355.802, 20.124
357.157, 9.316
358.512, 8.426
359.866, 17.599
361.221, 11.768
362.575, 8.983
363.928, 11.199
365.282, 2.417
366.636, 0.525
367.989, 17.674
369.342, 3.885
370.695, 11.070
372.047, 4.327
373.400, 26.539
374.752, 17.649
376.104, 8.875
377.455, 16.978
378.807, 10.185
380.158, 20.407
381.509, 10.692
382.860, 6.040
384.211, 11.257
385.561, 13.589
386.911, 14.121
388.261, 3.982
389.611, 14.369
390.961, 14.430
392.310, 16.915
393.659, 14.231
395.008, 2.392
396.357, 10.041
397.705, 12.300
399.053, 11.341
400.401, 8.954
401.749, 9.679
403.097, 6.286
404.444, 9.050
405.791, 6.651
407.138, 18.416
408.485, 2.007
409.832, 13.828
411.178, 10.685
412.524, 21.379
413.870, 15.901
415.216, 16.455
416.561, 19.943
417.906, 18.473
419.251, 18.955
420.596, 17.478
421.941, 17.945
423.285, 28.490
424.629, 15.023
425.973, 26.460
427.317, 8.928
428.661, 21.418
430.004, 13.924
431.347, 13.394
432.690, 10.910
434.032, 24.318
435.375, 26.776
436.717, 29.156
438.059, 27.580
439.401, 38.252
440.743, 19.632
442.084, 37.102
443.425, 38.448
444.766, 34.840
446.107, 42.207
447.447, 20.532
448.788, 20.875
450.128, 16.254
451.468, 37.576
452.807, 20.888
454.147, 29.298
455.486, 35.641
456.825, 15.914
458.164, 43.174
459.502, 39.432
460.841, 14.793
462.179, 28.123
463.517, 24.358
464.855, 35.663
466.192, 5.957
467.530, 27.217
468.867, 25.378
470.204, 30.574
471.540, 28.689
472.877, 24.868
474.213, 23.029
475.549, 51.682
476.885, 32.576
478.221, 34.728
479.556, 24.815
480.891, 39.550
482.226, 39.503
483.561, 45.371
484.895, 27.760
486.230, 21.715
487.564, 26.447
488.898, 42.541
490.232, 21.173
491.565, 57.744
492.898, 34.817
494.231, 56.031
495.564, 27.835
496.897, 62.577
498.229, 35.234
499.562, 14.898
500.894, 32.420
502.225, 13.185
503.557, 23.943
504.888, 21.477
506.220, 36.134
507.550, 28.845
508.881, 27.494
510.212, 8.406
511.542, 12.279
512.872, 21.809
514.202, 16.133
515.532, 32.742
516.861, 18.519
518.191, 4.742
519.520, 16.148
520.848, 2.748
522.177, 10.146
523.505, 10.691
524.834, 19.987
526.162, 14.499
527.489, 19.353
528.817, 24.831
530.144, 13.244
531.472, 0.115
532.798, 23.900
534.125, 2.264
535.452, 19.109
536.778, 10.393
538.104, 20.728
539.430, 13.435
540.756, 10.228
542.081, 11.579
543.406, 16.361
544.731, 2.120
546.056, 14.875
547.381, 5.584
548.705, 1.962
550.030, 1.343
551.354, 14.419
552.677, 5.070
554.001, 6.348
555.324, 0.343
556.647, 20.089
557.970, 11.793
559.293, 24.511
560.616, 14.241
561.938, 22.935
563.260, 12.624
564.582, 23.362
565.904, 7.084
567.225, 7.806
568.546, 25.459
569.868, 17.227
571.188, 10.857
572.509, 7.646
573.829, 12.253
575.150, 4.847
576.470, 22.410
577.790, 10.046
579.109, 30.685
580.429, 14.319
581.748, 5.053
583.067, 20.568
584.385, 4.144
585.704, 26.754
587.022, 13.358
588.340, 16.958
589.658, 32.552
590.976, 19.101
592.294, 9.645
593.611, 20.161
594.928, 20.735
596.245, 3.261
597.562, 10.819
598.878, 45.377
600.194, 26.858
601.510, 44.408
602.826, 3.953
604.142, 6.406
605.457, 26.925
606.773, 7.421
608.088, 7.947
609.402, 13.271
610.717, 24.764
612.031, 32.244
613.346, 36.743
614.660, 23.230
615.973, 37.694
617.287, 37.146
618.600, 29.643
619.913, 50.136
621.226, 36.627
622.539, 64.076
623.852, 59.561
625.164, 61.043
626.476, 45.523
627.788, 83.981
629.100, 28.408
630.411, 46.888
631.722, 51.359
633.033, 54.777
634.344, 70.246
635.655, 48.711
636.965, 38.176
638.276, 45.623
639.586, 39.083
640.896, 44.542
642.205, 18.925
643.515, 18.381
644.824, 28.748
646.133, 26.170
647.442, 21.592
648.750, 29.041
650.059, 24.484
651.367, 5.919
652.675, 23.237
653.983, 6.589
655.290, 18.008
656.598, 17.359
657.905, 12.789
659.212, 18.165
660.518, 43.449
661.825, 45.890
663.131, 76.126
664.437, 121.457
665.743, 207.792
667.049, 359.181
668.354, 496.544
669.660, 533.927
670.965, 521.335
672.270, 639.865
673.574, 713.062
674.879, 479.461
676.183, 237.786
677.487, 114.161
678.791, 61.497
680.095, 87.913
681.398, 102.265
682.701, 79.599
684.005, 63.940
685.307, 22.302
686.610, 38.541
687.912, 36.891
689.215, 21.174
690.517, 23.410
691.818, 32.573
693.120, 58.914
694.421, 46.989
695.723, 40.032
697.024, 16.229
698.324, 23.590
699.625, 13.910
700.925, 13.287
702.226, 21.614
703.526, 30.980
704.825, 4.296
706.125, 6.661
707.424, 10.938
708.723, 15.220
710.022, 0.588
711.321, 5.915
712.620, 1.788
713.918, 34.483
715.216, 21.781
716.514, 29.024
717.812, 21.367
719.109, 50.650
720.407, 44.002
721.704, 80.302
723.001, 71.345
724.297, 76.671
725.594, 75.898
726.890, 60.333
728.186, 77.621
729.482, 51.924
730.778, 62.262
732.073, 58.573
733.369, 51.871
734.664, 59.184
735.959, 47.524
737.253, 42.732
738.548, 52.040
739.842, 41.517
741.136, 36.845
742.430, 38.171
743.724, 44.656
745.017, 33.891
746.310, 30.213
747.603, 59.572
748.896, 27.021
750.189, 24.302
751.481, 31.677
752.774, 31.998
754.066, 31.330
755.357, 20.818
756.649, 23.301
757.941, 32.613
759.232, 17.923
760.523, 30.232
761.814, 22.583
763.104, 25.898
764.395, 19.226
765.685, 24.530
766.975, 33.984
768.265, 46.286
769.554, 8.595
770.844, 31.897
772.133, 40.195
773.422, 24.493
774.711, 33.798
775.999, 15.093
777.288, 30.387
778.576, 34.681
779.864, 25.986
781.152, 50.279
782.439, 37.557
783.727, 43.873
785.014, 17.162
786.301, 12.480
787.588, 34.767
788.874, 24.072
790.161, 36.356
791.447, 37.569
792.733, 16.852
794.019, 38.068
795.304, 18.797
796.590, 31.062
797.875, 43.305
799.160, 9.573
800.445, 0.143
801.729, 20.135
803.014, 34.412
804.298, 32.690
805.582, 21.151
806.865, 21.427
808.149, 27.702
809.432, 34.012
810.716, 4.714
811.999, 23.557
813.281, 18.828
814.564, 0.841
815.846, 26.428
817.128, 28.697
818.410, 6.965
819.692, 29.648
820.974, 50.914
822.255, 48.180
823.536, 57.445
824.817, 39.710
826.098, 39.974
827.379, 31.238
828.659, 54.501
829.939, 53.764
831.219, 79.028
832.499, 138.290
833.779, 270.554
835.058, 498.818
836.337, 786.073
837.616, 859.336
838.895, 689.580
840.173, 422.820
841.452, 268.081
842.730, 135.512
844.008, 118.016
845.286, 87.223
846.563, 75.450
847.841, 54.697
849.118, 55.866
850.395, 40.107
851.672, 30.224
852.948, 50.526
854.225, 16.780
855.501, 27.035
856.777, 38.288
858.053, 42.541
859.328, 29.794
860.604, 44.045
861.879, 37.297
863.154, 17.549
864.429, 1.200
865.703, 35.049
866.978, 20.298
868.252, 27.546
869.526, 18.794
870.800, 6.040
872.073, 23.286
873.347, 7.531
874.620, 15.775
875.893, 4.018
877.166, 3.736
878.438, 12.508
879.711, 14.750
880.983, 9.007
882.255, 47.233
883.527, 19.473
884.798, 2.288
886.070, 6.050
887.341, 10.184
888.612, 0.419
889.883, 11.653
891.154, 8.886
892.424, 4.881
893.694, 4.651
894.964, 19.579
896.234, 17.809
897.504, 25.037
898.773, 3.266
900.042, 10.494
901.312, 7.721
902.580, 13.947
903.849, 3.829
905.118, 21.394
906.386, 10.616
907.654, 11.806
908.922, 31.028
910.189, 14.253
911.457, 10.479
912.724, 70.704
913.991, 349.930
915.258, 12.157
916.525, 9.383
917.791, 11.610
919.058, 31.839
920.324, 3.066
921.590, 30.295
922.855, 5.523
924.121, 48.741
925.386, 7.971
926.651, 30.201
927.916, 49.433
929.181, 24.663
930.446, 35.894
931.710, 30.124
932.974, 42.357
934.238, 18.589
935.502, 35.820
936.765, 11.029
938.029, 25.185
939.292, 42.413
940.555, 29.642
941.818, 5.128
943.080, 42.099
944.343, 26.324
945.605, 4.549
946.867, 33.773
948.129, 24.820
949.390, 12.042
950.652, 0.263
951.913, 16.398
953.174, 22.617
954.435, 12.834
955.695, 14.981
956.956, 21.231
958.216, 19.442
959.476, 17.652
960.736, 31.861
961.995, 25.069
963.255, 40.276
964.514, 19.482
965.773, 18.686
967.032, 35.890
968.291, 13.093
969.549, 25.294
970.807, 28.495
972.066, 21.694
973.323, 28.893
974.581, 22.090
975.839, 16.286
977.096, 27.480
978.353, 4.326
979.610, 10.135
980.867, 38.051
982.123, 16.237
983.380, 46.422
984.636, 25.605
985.892, 3.787
987.147, 28.969
988.403, 2.149
989.658, 44.328
990.914, 35.506
992.169, 45.682
993.423, 51.857
994.678, 61.031
995.932, 53.203
997.187, 62.374
998.441, 42.544
999.694, 71.712
1000.948, 43.788
1002.201, 54.953
1003.455, 55.118
1004.708, 66.281
1005.961, 46.442
1007.213, 52.571
1008.466, 29.730
1009.718, 54.862
1010.970, 58.019
1012.222, 49.773
1013.474, 49.782
1014.725, 68.932
1015.976, 67.305
1017.227, 66.218
1018.478, 76.366
1019.729, 78.539
1020.980, 64.568
1022.230, 76.508
1023.480, 89.639
1024.730, 83.061
1025.980, 113.196
1027.229, 143.327
1028.479, 177.419
1029.728, 324.700
1030.977, 393.988
1032.226, 265.129
1033.474, 182.485
1034.723, 158.571
1035.971, 180.689
1037.219, 214.793
1038.467, 240.930
1039.714, 299.968
1040.962, 349.089
1042.209, 395.244
1043.456, 487.683
1044.703, 642.589
1045.950, 898.075
1047.196, 1211.180
1048.443, 1874.968
1049.689, 3373.197
1050.935, 8683.305
1052.180, 30920.822
1053.426, 55400.320
1054.671, 51219.430
1055.916, 23719.146
1057.161, 9114.245
1058.406, 3643.628
1059.651, 1775.319
1060.895, 1077.502
1062.139, 738.006
1063.383, 549.096
1064.627, 453.321
1065.871, 342.640
1067.114, 286.724
1068.357, 248.812
1069.600, 209.913
1070.843, 226.991
1072.086, 181.062
1073.328, 184.142
1074.570, 172.484
1075.813, 131.036
1077.054, 149.920
1078.296, 128.986
1079.538, 115.051
1080.779, 143.078
1082.020, 112.159
1083.261, 117.219
1084.502, 96.400
1085.742, 101.396
1086.983, 73.449
1088.223, 91.501
1089.463, 102.551
1090.703, 103.183
1091.942, 93.461
1093.182, 90.505
1094.421, 89.547
1095.660, 75.586
1096.899, 82.624
1098.137, 90.660
1099.376, 77.694
1100.614, 105.726
1101.852, 102.867
1103.090, 75.895
1104.328, 101.921
1105.565, 92.945
1106.803, 85.967
1108.040, 97.987
1109.277, 50.006
1110.513, 81.022
1111.750, 85.036
1112.986, 57.877
1114.223, 68.582
1115.459, 57.590
1116.694, 55.597
1117.930, 26.602
1119.165, 45.604
1120.401, 60.567
1121.636, 34.566
1122.871, 19.517
1124.105, 50.513
1125.340, 27.507
1126.574, 18.499
1127.808, 25.489
1129.042, 24.477
1130.276, 41.464
1131.509, 43.448
1132.743, 13.431
1133.976, 32.413
1135.209, 12.393
1136.442, 40.371
1137.674, 45.348
1138.906, 16.323
1140.139, 21.296
1141.371, 30.268
1142.603, 25.238
1143.834, 35.206
1145.066, 23.827
1146.297, 10.133
1147.528, 26.091
1148.759, 5.952
1149.990, 3.001
1151.220, 40.953
1152.450, 4.904
1153.681, 23.852
1154.910, 18.800
1156.140, 26.747
1157.370, 11.307
1158.599, 23.634
1159.828, 7.573
1161.057, 2.489
1162.286, 10.553
1163.515, 3.621
1164.743, 7.308
1165.972, 6.765
1167.200, 14.158
1168.427, 12.080
1169.655, 20.001
1170.883, 5.920
1172.110, 0.162
1173.337, 24.754
1174.564, 0.669
1175.791, 11.418
1177.017, 31.510
1178.244, 13.610
1179.470, 25.284
1180.696, 26.823
1181.922, 2.938
1183.147, 23.945
1184.373, 16.174
1185.598, 15.298
1186.823, 15.573
1188.048, 26.558
1189.273, 33.304
1190.497, 11.835
1191.722, 23.978
1192.946, 3.129
1194.170, 16.281
1195.393, 22.561
1196.617, 4.598
1197.840, 8.759
1199.064, 11.076
1200.287, 3.910
1201.509, 0.743
1202.732, 39.574
1203.954, 7.405
1205.177, 3.235
1206.399, 10.937
1207.621, 20.112
1208.842, 14.708
1210.064, 12.527
1211.285, 17.346
1212.506, 5.163
1213.727, 0.019
1214.948, 22.797
1216.169, 5.388
1217.389, 6.425
1218.609, 24.238
1219.829, 24.050
1221.049, 2.861
1222.269, 12.672
1223.488, 10.516
1224.708, 24.294
1225.927, 39.102
1227.146, 16.911
1228.364, 4.718
1229.583, 7.526
1230.801, 15.333
1232.019, 30.139
1233.237, 6.055
1234.455, 42.750
1235.673, 24.554
1236.890, 30.358
1238.107, 49.162
1239.324, 5.966
1240.541, 21.770
1241.758, 47.573
1242.975, 21.377
1244.191, 40.180
1245.407, 33.984
1246.623, 16.790
1247.839, 47.596
1249.054, 12.402
1250.270, 58.209
1251.485, 62.016
1252.700, 57.823
1253.915, 72.630
1255.129, 49.438
1256.344, 51.247
1257.558, 60.056
1258.772, 79.866
1259.986, 77.677
1261.200, 54.488
1262.413, 61.300
1263.627, 90.114
1264.840, 102.928
1266.053, 97.744
1267.266, 109.562
1268.478, 88.381
1269.691, 110.202
1270.903, 111.022
1272.115, 132.842
1273.327, 78.662
1274.539, 125.482
1275.750, 105.302
1276.961, 136.480
1278.173, 141.295
1279.384, 113.114
1280.594, 153.711
1281.805, 190.494
1283.015, 136.313
1284.226, 171.106
1285.436, 187.925
1286.646, 208.745
1287.855, 203.564
1289.065, 196.045
1290.274, 230.864
1291.483, 217.674
1292.692, 190.364
1293.901, 239.868
1295.109, 233.535
1296.318, 262.347
1297.526, 295.944
1298.734, 294.768
1299.942, 294.592
1301.150, 301.417
1302.357, 334.230
1303.564, 356.991
1304.771, 370.819
1305.978, 387.604
1307.185, 415.111
1308.392, 407.153
1309.598, 446.614
1310.804, 491.448
1312.010, 462.607
1313.216, 529.324
1314.422, 508.163
1315.627, 559.578
1316.832, 586.018
1318.037, 580.860
1319.242, 605.044
1320.447, 620.890
1321.652, 605.424
1322.856, 615.678
1324.060, 620.421
1325.264, 612.862
1326.468, 660.718
1327.672, 706.438
1328.875, 678.066
1330.078, 692.928
1331.281, 678.786
1332.484, 704.632
1333.687, 779.500
1334.890, 740.371
1336.092, 790.238
1337.294, 835.843
1338.496, 854.240
1339.698, 900.119
1340.900, 911.002
1342.101, 954.887
1343.302, 1028.774
1344.503, 1031.644
1345.704, 1179.537
1346.905, 1252.308
1348.106, 1315.208
1349.306, 1502.110
1350.506, 1680.015
1351.706, 1799.924
1352.906, 2082.836
1354.106, 2223.521
1355.305, 2576.440
1356.504, 2944.363
1357.703, 3110.290
1358.902, 3623.220
1360.101, 3928.155
1361.300, 4215.094
1362.498, 4698.037
1363.696, 4770.874
1364.894, 4524.826
1366.092, 4565.782
1367.290, 4070.744
1368.487, 3697.710
1369.684, 3417.682
1370.881, 2863.659
1372.078, 2600.642
1373.275, 2225.630
1374.472, 1937.625
1375.668, 1714.626
1376.864, 1492.633
1378.060, 1333.648
1379.256, 1192.669
1380.452, 1041.698
1381.647, 956.735
1382.842, 885.780
1384.038, 768.834
1385.233, 745.897
1386.427, 659.969
1387.622, 577.059
1388.816, 566.154
1390.010, 428.260
1391.204, 398.407
1392.398, 376.539
1393.592, 297.687
1394.785, 340.115
1395.979, 266.292
1397.172, 253.486
1398.365, 248.701
1399.558, 243.663
1400.750, 224.556
1401.943, 227.452
1403.135, 200.353
1404.327, 197.258
1405.519, 208.169
1406.710, 161.083
1407.902, 201.999
1409.093, 200.919
1410.284, 185.844
1411.475, 222.774
1412.666, 187.712
1413.857, 196.654
1415.047, 271.600
1416.238, 204.549
1417.428, 217.503
1418.617, 219.468
1419.807, 217.445
1420.997, 240.435
1422.186, 220.432
1423.375, 170.440
1424.564, 225.461
1425.753, 176.494
1426.942, 199.539
1428.130, 229.592
1429.318, 182.656
1430.507, 172.724
1431.694, 193.798
1432.882, 150.880
1434.070, 176.975
1435.257, 146.077
1436.444, 135.184
1437.631, 150.299
1438.818, 144.421
1440.005, 139.549
1441.191, 131.685
1442.378, 120.829
1443.564, 142.979
1444.750, 138.136
1445.936, 107.300
1447.121, 128.472
1448.307, 141.650
1449.492, 106.834
1450.677, 178.024
1451.862, 155.220
1453.047, 161.422
1454.231, 202.630
1455.415, 170.843
1456.600, 183.060
1457.784, 171.282
1458.967, 179.508
1460.151, 217.736
1461.335, 217.964
1462.518, 197.189
1463.701, 266.417
1464.884, 248.656
1466.067, 242.909
1467.249, 293.175
1468.432, 273.456
1469.614, 273.751
1470.796, 289.062
1471.978, 272.388
1473.159, 329.731
1474.341, 337.090
1475.522, 309.465
1476.703, 349.856
1477.884, 324.264
1479.065, 300.688
1480.246, 368.129
1481.426, 326.587
1482.607, 310.062
1483.787, 356.556
1484.967, 271.069
1486.146, 248.601
1487.326, 273.153
1488.505, 224.726
1489.685, 222.322
1490.864, 205.941
1492.042, 161.585
1493.221, 179.256
1494.400, 178.957
1495.578, 116.690
1496.756, 150.459
1497.934, 95.266
1499.112, 103.111
1500.289, 96.999
1501.467, 41.930
1502.644, 64.907
1503.821, 79.935
1504.998, 26.016
1506.175, 51.156
1507.351, 75.359
1508.528, 30.632
1509.704, 43.982
1510.880, 46.417
1512.056, 55.946
1513.232, 53.579
1514.407, 4.328
1515.582, 26.208
1516.758, 35.237
1517.933, 4.438
1519.107, 33.836
1520.282, 21.467
1521.456, 5.788
1522.631, 63.525
1523.805, 68.700
1524.979, 1.139
1526.152, 0.000
##END=



