##NAMES=Cerussite
##RRUFFID=R060017
##IDEAL CHEMISTRY=Pb^2+^CO_3_
##LOCALITY=Gonessa, Sardinia, Italy
##OWNER=RRUFF
##SOURCE=American Museum of Natural History
##DESCRIPTION=White reticulated composite
##STATUS=The identification of this mineral has been confirmed by X-ray diffraction and chemical analysis
##URL=rruff.info/R060017
##MEASURED CHEMISTRY=Pb_1.00_CO_3_ C not measured but estimated by difference and stoichiometry
##PIN_ID=M00240
##ORIENTATION=Laser parallel to b* (0 1 0). Fiducial mark perpendicular to laser is parallel to c [0 0 1]
51.43100, 0.0000000E+00
52.67100, 69.34241
53.91000, 138.7798
55.14900, 168.1665
56.38700, 22.36316
57.62600, 80.16479
58.86400, 28.06750
60.10300, 226.0272
61.34100, 716.3317
62.57900, 1283.679
63.81700, 2177.341
65.05400, 3227.921
66.29200, 4385.278
67.52900, 5582.476
68.76700, 6716.746
70.00400, 7380.456
71.24100, 7740.069
72.47700, 7708.096
73.71400, 7119.110
74.95100, 6614.736
76.18700, 6060.651
77.42300, 5400.566
78.65900, 5076.233
79.89500, 4775.435
81.13100, 4692.977
82.36700, 4569.595
83.60200, 4513.446
84.83700, 4639.131
86.07200, 4826.646
87.30800, 5080.897
88.54200, 5394.802
89.77700, 6012.226
91.01200, 6480.021
92.24600, 6999.075
93.48000, 7402.788
94.71400, 7627.606
95.94800, 8145.935
97.18200, 8517.226
98.41600, 8919.424
99.64900, 9398.482
100.8830, 9733.359
102.1160, 9857.008
103.3490, 10142.40
104.5820, 10150.50
105.8150, 10446.27
107.0470, 10555.69
108.2800, 10516.73
109.5120, 10973.37
110.7440, 11201.59
111.9760, 11639.40
113.2080, 11875.80
114.4400, 12174.84
115.6710, 12227.54
116.9030, 12296.97
118.1340, 12137.95
119.3650, 11746.57
120.5960, 11237.79
121.8270, 10711.62
123.0580, 10066.05
124.2880, 9572.087
125.5190, 9194.517
126.7490, 8772.862
127.9790, 8307.138
129.2090, 8074.309
130.4390, 7705.551
131.6680, 7416.945
132.8980, 6948.480
134.1270, 6476.157
135.3560, 6132.929
136.5850, 5831.863
137.8140, 5414.951
139.0430, 5099.226
140.2710, 4953.680
141.5000, 4577.345
142.7280, 4491.178
143.9560, 4398.186
145.1840, 4208.383
146.4120, 4135.733
147.6390, 3884.247
148.8670, 3768.938
150.0940, 3695.817
151.3210, 3444.853
152.5490, 3295.060
153.7750, 3046.434
155.0020, 2823.991
156.2290, 2783.722
157.4550, 2522.598
158.6810, 2377.642
159.9080, 2330.839
161.1340, 2267.174
162.3590, 2199.646
163.5850, 2082.259
164.8110, 2088.012
166.0360, 2084.883
167.2610, 2208.161
168.4860, 2210.740
169.7110, 2289.087
170.9360, 2173.718
172.1610, 2332.624
173.3850, 2190.624
174.6100, 2175.957
175.8340, 2087.858
177.0580, 2063.835
178.2820, 2040.629
179.5050, 2049.197
180.7290, 1953.815
181.9520, 1909.505
183.1760, 1851.827
184.3990, 1862.177
185.6220, 1842.067
186.8450, 1856.070
188.0670, 1908.219
189.2900, 1917.321
190.5120, 1963.704
191.7340, 2023.306
192.9560, 2140.178
194.1780, 2244.364
195.4000, 2330.569
196.6220, 2457.442
197.8430, 2559.669
199.0640, 2688.702
200.2860, 2869.400
201.5070, 3019.212
202.7270, 3192.649
203.9480, 3283.838
205.1690, 3445.425
206.3890, 3583.237
207.6090, 3702.722
208.8290, 3851.525
210.0490, 3917.557
211.2690, 3996.163
212.4890, 4107.557
213.7080, 4167.147
214.9280, 4281.059
216.1470, 4250.725
217.3660, 4254.451
218.5850, 4310.126
219.8030, 4262.183
221.0220, 4232.291
222.2400, 4162.237
223.4590, 4075.672
224.6770, 3921.291
225.8950, 3853.523
227.1120, 3649.828
228.3300, 3482.884
229.5480, 3206.761
230.7650, 3022.463
231.9820, 2689.259
233.1990, 2430.349
234.4160, 2282.346
235.6330, 2128.017
236.8490, 1906.041
238.0660, 1752.721
239.2820, 1650.218
240.4980, 1475.017
241.7140, 1338.773
242.9300, 1350.002
244.1460, 1186.754
245.3610, 1019.429
246.5770, 1014.055
247.7920, 892.3784
249.0070, 814.9619
250.2220, 725.7590
251.4370, 708.6562
252.6510, 584.5649
253.8660, 547.4202
255.0800, 577.4392
256.2940, 508.2783
257.5080, 476.8853
258.7220, 374.4043
259.9360, 343.4067
261.1490, 293.4253
262.3630, 224.7393
263.5760, 199.8003
264.7890, 213.9585
266.0020, 180.7668
267.2150, 160.2124
268.4270, 91.67871
269.6400, 98.13843
270.8520, 72.08496
272.0640, 86.86377
273.2760, 64.87646
274.4880, 49.00366
275.7000, 70.21606
276.9120, 47.68042
278.1230, 44.16895
279.3340, 25.80981
280.5450, 32.47144
281.7560, 19.23462
282.9670, 57.70044
284.1780, 28.68726
285.3880, 76.94336
286.5980, 4.368164
287.8090, 8.297363
289.0190, 17.50537
290.2290, 24.80835
291.4380, 50.12964
292.6480, 22.40942
293.8570, 49.41260
295.0670, 33.67456
296.2760, 46.63599
297.4850, 27.22656
298.6930, 31.47363
299.9020, 86.62451
301.1110, 122.8232
302.3190, 59.68262
303.5270, 47.67554
304.7350, 108.9370
305.9430, 26.21265
307.1510, 48.49072
308.3580, 161.4307
309.5660, 96.74268
310.7730, 57.07227
311.9800, 57.34277
313.1870, 9.127441
314.3940, 6.490479
315.6010, 73.26440
316.8070, 126.6565
318.0130, 44.08887
319.2200, 92.54492
320.4260, 23.03711
321.6310, 55.55054
322.8370, 80.11792
324.0430, 23.72778
325.2480, 90.37598
326.4540, 54.07153
327.6590, 97.84277
328.8640, 41.66064
330.0680, 88.51807
331.2730, 96.44531
332.4780, 50.43530
333.6820, 30.48071
334.8860, 60.03052
336.0900, 58.19604
337.2940, 99.42725
338.4980, 73.50024
339.7010, 74.87549
340.9050, 8.267334
342.1080, 78.79053
343.3110, 67.35889
344.5140, 10.95093
345.7170, 58.51953
346.9200, 25.82910
348.1220, 26.61084
349.3240, 11.91797
350.5270, 15.76636
351.7290, 52.66406
352.9310, 4.170410
354.1320, 32.68921
355.3340, 84.04639
356.5350, 21.40845
357.7370, 10.84912
358.9380, 7.463623
360.1390, 55.89917
361.3400, 76.31641
362.5400, 49.70557
363.7410, 3.604736
364.9410, 31.93164
366.1410, 44.25195
367.3410, 53.54492
368.5410, 34.82300
369.7410, 2.880371
370.9400, 74.40405
372.1400, 34.83252
373.3390, 0.3742680
374.5380, 90.77905
375.7370, 97.94897
376.9360, 33.05615
378.1350, 112.1062
379.3330, 54.22437
380.5310, 51.32153
381.7300, 104.1599
382.9280, 135.5042
384.1260, 117.4795
385.3230, 133.1118
386.5210, 73.29126
387.7180, 94.13110
388.9160, 103.9399
390.1130, 51.80298
391.3100, 141.5754
392.5060, 131.3379
393.7030, 126.8667
394.9000, 89.59521
396.0960, 134.5767
397.2920, 100.6030
398.4880, 141.6353
399.6840, 79.22119
400.8800, 89.86743
402.0750, 96.38843
403.2710, 177.2239
404.4660, 193.8518
405.6610, 115.1658
406.8560, 94.47412
408.0510, 229.7327
409.2450, 108.9583
410.4400, 173.3276
411.6340, 176.7317
412.8280, 163.9014
414.0220, 153.3735
415.2160, 203.3772
416.4100, 161.3481
417.6030, 118.8250
418.7970, 158.7532
419.9900, 256.6931
421.1830, 238.5137
422.3760, 206.0342
423.5690, 150.7446
424.7610, 97.07715
425.9540, 145.1375
427.1460, 265.8596
428.3380, 247.2930
429.5300, 230.9392
430.7220, 247.3823
431.9140, 195.1040
433.1050, 264.4971
434.2970, 172.8862
435.4880, 315.8816
436.6790, 219.3157
437.8700, 275.6851
439.0610, 219.3826
440.2510, 194.6946
441.4420, 260.3950
442.6320, 242.2839
443.8220, 248.6946
445.0120, 212.8999
446.2020, 223.4397
447.3910, 290.2883
448.5810, 257.9331
449.7700, 286.2510
450.9600, 216.9036
452.1490, 269.8904
453.3370, 252.2981
454.5260, 238.2734
455.7150, 191.4531
456.9030, 261.0020
458.0910, 191.3862
459.2800, 274.1938
460.4670, 259.2490
461.6550, 247.1030
462.8430, 256.5669
464.0300, 253.0503
465.2180, 262.2183
466.4050, 249.9148
467.5920, 253.1116
468.7790, 233.9429
469.9650, 254.4658
471.1520, 235.5999
472.3380, 251.4707
473.5250, 303.7925
474.7110, 260.5298
475.8970, 261.0120
477.0820, 159.9207
478.2680, 251.1794
479.4540, 257.3916
480.6390, 177.2278
481.8240, 240.3306
483.0090, 190.2234
484.1940, 228.5273
485.3780, 194.9360
486.5630, 224.8350
487.7470, 274.8301
488.9320, 151.9487
490.1160, 200.7136
491.3000, 215.9531
492.4830, 156.2168
493.6670, 173.7866
494.8500, 182.5938
496.0340, 183.8918
497.2170, 147.5112
498.4000, 163.0547
499.5820, 122.2673
500.7650, 170.6980
501.9480, 194.1909
503.1300, 155.2834
504.3120, 162.6443
505.4940, 99.35889
506.6760, 199.9731
507.8580, 162.7939
509.0390, 201.0618
510.2210, 177.6235
511.4020, 67.22119
512.5830, 142.9915
513.7640, 119.9668
514.9450, 84.21680
516.1250, 147.5259
517.3060, 139.3037
518.4860, 150.1328
519.6660, 250.8022
520.8460, 55.69238
522.0260, 128.0244
523.2060, 63.11279
524.3850, 89.65186
525.5650, 136.4712
526.7440, 170.0815
527.9230, 139.8208
529.1020, 162.1704
530.2810, 191.0742
531.4590, 126.1284
532.6380, 134.2998
533.8160, 48.83789
534.9940, 20.17773
536.1720, 123.3530
537.3500, 85.48145
538.5270, 62.64746
539.7050, 98.91064
540.8820, 120.0537
542.0590, 99.41699
543.2360, 109.5869
544.4130, 71.80762
545.5900, 85.11182
546.7660, 137.4272
547.9430, 121.4736
549.1190, 119.7959
550.2950, 119.6914
551.4710, 84.65234
552.6470, 78.63916
553.8220, 102.6157
554.9980, 66.31152
556.1730, 155.7295
557.3480, 143.7915
558.5230, 56.27490
559.6980, 107.6226
560.8730, 94.07520
562.0470, 114.4434
563.2220, 40.43018
564.3960, 28.39795
565.5700, 44.86475
566.7440, 42.54199
567.9170, 78.11328
569.0910, 69.97168
570.2640, 77.81006
571.4380, 99.58887
572.6110, 63.38721
573.7840, 68.65039
574.9570, 56.40869
576.1290, 41.17871
577.3020, 45.89844
578.4740, 102.3340
579.6460, 94.02002
580.8180, 112.3979
581.9900, 193.3955
583.1620, 50.04150
584.3330, 6.420410
585.5040, 88.14697
586.6760, 172.3623
587.8470, 109.6982
589.0180, 52.28857
590.1880, 96.87744
591.3590, 68.45410
592.5290, 24.67480
593.7000, 97.24854
594.8700, 133.8228
596.0400, 41.34863
597.2090, 53.33887
598.3790, 85.88428
599.5490, 79.81982
600.7180, 105.2778
601.8870, 74.89307
603.0560, 119.4287
604.2250, 85.96973
605.3940, 45.69775
606.5620, 61.39307
607.7300, 151.7598
608.8990, 64.28467
610.0670, 108.8716
611.2350, 149.5420
612.4020, 81.09033
613.5700, 163.6338
614.7370, 102.9326
615.9050, 16.69238
617.0720, 128.2637
618.2390, 184.2856
619.4060, 90.87939
620.5720, 148.1064
621.7390, 107.4653
622.9050, 127.9404
624.0710, 136.5098
625.2370, 97.15137
626.4030, 136.7812
627.5690, 39.44775
628.7340, 116.1123
629.9000, 186.5259
631.0650, 54.20410
632.2300, 152.8750
633.3950, 72.36328
634.5600, 53.04004
635.7240, 93.82568
636.8890, 72.51514
638.0530, 106.0298
639.2170, 135.7041
640.3810, 108.1943
641.5450, 87.81055
642.7080, 66.54248
643.8720, 91.21338
645.0350, 61.91602
646.1980, 51.09521
647.3610, 89.82373
648.5240, 39.53906
649.6870, 29.26318
650.8490, 68.98193
652.0120, 23.65771
653.1740, 12.31201
654.3360, 62.80078
655.4980, 50.89697
656.6600, 83.59814
657.8210, 135.2603
658.9830, 108.9614
660.1440, 197.7734
661.3050, 291.4492
662.4660, 298.0737
663.6270, 451.5044
664.7870, 602.8921
665.9480, 713.5522
667.1080, 723.2861
668.2680, 730.0732
669.4280, 871.7793
670.5880, 839.4858
671.7480, 900.1060
672.9070, 778.7773
674.0670, 743.4824
675.2260, 524.4053
676.3850, 566.0298
677.5440, 470.3647
678.7030, 508.3423
679.8610, 571.8364
681.0200, 532.4639
682.1780, 489.9893
683.3360, 336.6118
684.4940, 232.8892
685.6520, 183.3525
686.8090, 150.0977
687.9670, 104.8110
689.1240, 66.53125
690.2810, 158.2500
691.4380, 87.78369
692.5950, 183.2471
693.7520, 134.9087
694.9080, 200.2319
696.0650, 92.98535
697.2210, 28.73828
698.3770, 33.94775
699.5330, 4.662598
700.6880, 7.056641
701.8440, 45.07129
702.9990, 11.08154
704.1550, 7.864258
705.3100, 71.98291
706.4650, 25.11768
707.6190, 66.75732
708.7740, 58.30762
709.9290, 53.51270
711.0830, 80.59521
712.2370, 64.17676
713.3910, 111.7793
714.5450, 143.2051
715.6980, 157.9722
716.8520, 191.0835
718.0050, 129.5449
719.1580, 213.2935
720.3110, 138.0596
721.4640, 93.40332
722.6170, 203.8408
723.7700, 126.9717
724.9220, 137.7207
726.0740, 156.6660
727.2260, 111.4360
728.3780, 116.9609
729.5300, 147.7300
730.6810, 161.4185
731.8330, 82.62109
732.9840, 121.3911
734.1350, 22.29541
735.2860, 62.80029
736.4370, 172.4009
737.5880, 71.17285
738.7380, 103.9468
739.8880, 106.7207
741.0390, 108.4844
742.1890, 45.25830
743.3380, 2.968262
744.4880, 121.7686
745.6380, 38.48682
746.7870, 137.2578
747.9360, 9.999512
749.0850, 0.8159180
750.2340, 27.69971
751.3830, 38.61035
752.5310, 23.61377
753.6800, 2.186035
754.8280, 41.13428
755.9760, 153.9004
757.1240, 25.66846
758.2720, 57.56445
759.4190, 33.17871
760.5670, 24.44678
761.7140, 117.2891
762.8610, 135.1987
764.0080, 105.9585
765.1550, 84.73779
766.3020, 46.34814
767.4480, 87.07910
768.5950, 60.21436
769.7410, 35.57471
770.8870, 56.09424
772.0330, 21.82129
773.1780, 11.52832
774.3240, 47.25195
775.4690, 128.9751
776.6140, 60.71387
777.7590, 103.4712
778.9040, 61.24463
780.0490, 101.1938
781.1940, 118.1484
782.3380, 129.4985
783.4820, 117.2554
784.6260, 114.7964
785.7700, 119.7559
786.9140, 101.3125
788.0580, 108.9375
789.2010, 136.6470
790.3450, 94.16357
791.4880, 84.58691
792.6310, 113.4062
793.7730, 135.6812
794.9160, 85.39209
796.0590, 98.10205
797.2010, 20.92822
798.3430, 31.67236
799.4850, 57.77686
800.6270, 34.51611
801.7690, 25.17969
802.9100, 62.89648
804.0520, 37.00293
805.1930, 13.57617
806.3340, 56.26465
807.4750, 100.3252
808.6160, 131.0107
809.7560, 56.81152
810.8970, 24.50635
812.0370, 28.15918
813.1770, 167.8398
814.3170, 46.85547
815.4570, 69.53516
816.5960, 143.2163
817.7360, 102.9580
818.8750, 96.74414
820.0140, 96.32129
821.1530, 85.37256
822.2920, 145.6440
823.4310, 131.7334
824.5690, 225.7319
825.7070, 126.4829
826.8460, 384.1489
827.9840, 363.8125
829.1220, 581.4751
830.2590, 807.1553
831.3970, 773.0830
832.5340, 955.7900
833.6710, 1187.927
834.8080, 1253.735
835.9450, 1292.375
837.0820, 1236.839
838.2190, 1006.124
839.3550, 698.7695
840.4910, 624.4155
841.6270, 349.9082
842.7630, 263.5557
843.8990, 186.2676
845.0350, 159.0591
846.1700, 88.70264
847.3060, 139.3428
848.4410, 171.9819
849.5760, 48.77393
850.7100, 161.4072
851.8450, 153.2349
852.9800, 121.8647
854.1140, 137.5303
855.2480, 153.1553
856.3820, 88.77637
857.5160, 7.606445
858.6500, 133.0020
859.7830, 144.6074
860.9170, 131.2168
862.0500, 17.82227
863.1830, 81.42627
864.3160, 123.0269
865.4480, 95.62500
866.5810, 81.21875
867.7130, 100.8091
868.8460, 84.39746
869.9780, 27.98145
871.1100, 48.18066
872.2410, 125.1069
873.3730, 78.67822
874.5050, 85.24561
875.6360, 174.8232
876.7670, 105.3960
877.8980, 88.96436
879.0290, 148.5347
880.1590, 24.90332
881.2900, 124.4639
882.4200, 120.0200
883.5500, 81.57178
884.6800, 52.04053
885.8100, 39.25537
886.9400, 32.78809
888.0690, 101.3193
889.1990, 22.89355
890.3280, 143.4390
891.4570, 83.96289
892.5860, 137.4814
893.7140, 122.9883
894.8430, 110.8628
895.9710, 54.61865
897.1000, 75.01074
898.2280, 31.49902
899.3560, 57.96777
900.4830, 53.42920
901.6110, 54.88477
902.7380, 73.33545
903.8660, 57.78125
904.9930, 58.22070
906.1200, 24.33545
907.2460, 82.08691
908.3730, 146.4736
909.5000, 102.8105
910.6260, 75.24854
911.7520, 62.68066
912.8780, 58.11719
914.0040, 11.43555
915.1290, 19.01318
916.2550, 18.45459
917.3800, 36.10693
918.5050, 58.30273
919.6300, 89.70850
920.7550, 95.11084
921.8800, 78.51514
923.0040, 50.91748
924.1290, 107.3135
925.2530, 150.7285
926.3770, 82.14209
927.5010, 44.56543
928.6250, 1.018066
929.7480, 93.38574
930.8720, 89.78418
931.9950, 43.17480
933.1180, 62.47217
934.2410, 4.806641
935.3640, 111.1729
936.4860, 151.9580
937.6090, 66.24658
938.7310, 15.60205
939.8530, 74.92822
940.9750, 138.1489
942.0970, 7.483398
943.2180, 209.8071
944.3400, 45.12402
945.4610, 156.4390
946.5820, 6.305664
947.7030, 127.9233
948.8240, 12.21143
949.9450, 97.49609
951.0650, 152.7744
952.1860, 59.04492
953.3060, 48.31055
954.4260, 35.43164
955.5460, 26.91943
956.6650, 30.26221
957.7850, 7.155273
958.9040, 15.30957
960.0230, 55.45312
961.1420, 106.7583
962.2610, 152.9004
963.3800, 118.6826
964.4990, 71.28271
965.6170, 23.40723
966.7350, 64.52100
967.8530, 5.765625
968.9710, 33.28174
970.0890, 122.9546
971.2070, 74.03711
972.3240, 86.11230
973.4410, 114.7896
974.5580, 45.85010
975.6750, 135.9009
976.7920, 150.9434
977.9090, 54.32568
979.0250, 43.35010
980.1410, 113.3887
981.2580, 96.39404
982.3740, 125.6714
983.4890, 41.65869
984.6050, 151.6040
985.7200, 35.57275
986.8360, 84.53027
987.9510, 70.47852
989.0660, 154.4170
990.1810, 177.3462
991.2950, 146.2666
992.4100, 84.60205
993.5240, 165.5034
994.6390, 145.3955
995.7530, 212.2783
996.8660, 170.9399
997.9800, 177.2500
999.0940, 191.8008
1000.207, 148.6450
1001.320, 140.4805
1002.433, 119.3057
1003.546, 205.1206
1004.659, 204.7920
1005.772, 168.5371
1006.884, 220.3579
1007.996, 174.3213
1009.108, 122.1870
1010.220, 140.9434
1011.332, 127.6904
1012.444, 147.8335
1013.555, 106.5596
1014.666, 213.1206
1015.777, 106.8911
1016.888, 185.5913
1017.999, 116.2773
1019.110, 8.765625
1020.220, 200.7773
1021.331, 128.2822
1022.441, 172.6011
1023.551, 315.6606
1024.661, 321.0884
1025.770, 395.6899
1026.880, 452.9561
1027.989, 356.5361
1029.098, 400.7896
1030.207, 370.7720
1031.316, 428.5039
1032.425, 398.8809
1033.533, 440.4932
1034.642, 370.9775
1035.750, 469.4805
1036.858, 473.9912
1037.966, 487.4585
1039.073, 798.1133
1040.181, 852.7979
1041.288, 1135.799
1042.396, 1730.253
1043.503, 2683.698
1044.610, 4984.129
1045.716, 10623.88
1046.823, 15950.79
1047.929, 30269.36
1049.036, 31907.55
1050.142, 41719.71
1051.248, 52415.43
1052.353, 57225.21
1053.459, 53172.11
1054.564, 40660.03
1055.670, 24581.24
1056.775, 11467.47
1057.880, 4841.630
1058.985, 2457.621
1060.089, 1418.468
1061.194, 1154.611
1062.298, 804.2876
1063.402, 596.5137
1064.506, 689.7271
1065.610, 499.8096
1066.713, 367.9600
1067.817, 406.7402
1068.920, 331.4199
1070.023, 298.5781
1071.126, 352.2891
1072.229, 225.6631
1073.332, 324.7832
1074.435, 188.8916
1075.537, 184.6143
1076.639, 284.6973
1077.741, 230.0586
1078.843, 231.2061
1079.945, 247.7969
1081.046, 213.2524
1082.148, 220.8550
1083.249, 200.1562
1084.350, 191.1562
1085.451, 214.6689
1086.551, 174.5352
1087.652, 230.5972
1088.752, 201.1880
1089.853, 156.5400
1090.953, 105.0483
1092.053, 159.6338
1093.152, 62.63232
1094.252, 124.5195
1095.351, 65.39502
1096.451, 282.2573
1097.550, 184.5913
1098.649, 169.1597
1099.748, 63.02393
1100.846, 160.3721
1101.945, 227.6860
1103.043, 135.4741
1104.141, 211.2388
1105.239, 35.00342
1106.337, 145.7505
1107.434, 147.3525
1108.532, 159.0762
1109.629, 43.78760
1110.726, 135.3838
1111.823, 80.92188
1112.920, 214.5952
1114.017, 45.25684
1115.113, 147.9038
1116.210, 160.3833
1117.306, 251.0078
1118.402, 200.4253
1119.498, 154.0269
1120.593, 254.5811
1121.689, 86.16016
1122.784, 235.7285
1123.879, 97.28564
1124.974, 263.8345
1126.069, 188.3721
1127.164, 96.89893
1128.259, 17.41455
1129.353, 89.91162
1130.447, 45.39844
1131.541, 77.87207
1132.635, 107.3359
1133.729, 102.7896
1134.822, 77.23193
1135.916, 93.25098
1137.009, 126.0869
1138.102, 57.49951
1139.195, 65.90137
1140.288, 25.70703
1141.380, 148.6465
1142.473, 125.9897
1143.565, 3.323242
1144.657, 122.6338
1145.749, 73.93506
1146.841, 42.22705
1147.932, 55.50830
1149.024, 99.78076
1150.115, 25.04297
1151.206, 93.48340
1152.297, 87.72510
1153.388, 5.041992
1154.479, 4.166992
1155.569, 7.813965
1156.659, 54.53613
1157.750, 22.30078
1158.839, 70.83105
1159.929, 9.953125
1161.019, 31.06104
1162.108, 31.82471
1163.198, 88.25391
1164.287, 23.33350
1165.376, 93.40430
1166.465, 29.46729
1167.553, 33.52197
1168.642, 130.5693
1169.730, 19.39062
1170.818, 78.62207
1171.906, 105.3643
1172.994, 67.57764
1174.082, 25.51172
1175.170, 26.43945
1176.257, 24.63965
1177.344, 50.74707
1178.431, 48.89502
1179.518, 14.92188
1180.605, 5.729980
1181.691, 38.52783
1182.778, 2.329102
1183.864, 0.1181640
1184.950, 17.10449
1186.036, 6.347656
1187.122, 47.39404
1188.207, 86.86816
1189.292, 5.187500
1190.378, 51.51855
1191.463, 20.11279
1192.548, 54.74023
1193.632, 90.36523
1194.717, 100.9209
1195.801, 54.60156
1196.886, 68.21338
1197.970, 45.29541
1199.054, 23.57275
1200.137, 28.01514
1201.221, 9.401855
1202.305, 8.829102
1203.388, 27.73584
1204.471, 10.29688
1205.554, 42.85449
1206.637, 75.41016
1207.719, 27.03711
1208.802, 1.500488
1209.884, 11.96875
1210.966, 28.55908
1212.048, 28.91650
1213.130, 7.116699
1214.212, 4.099121
1215.293, 15.39844
1216.374, 33.09619
1217.456, 14.58838
1218.536, 9.1309004E-02
1219.617, 0.6025390
1220.698, 21.12305
1221.778, 65.64307
1222.859, 64.83594
1223.939, 56.50000
1225.019, 139.9897
1226.099, 88.35498
1227.178, 39.15723
1228.258, 73.31641
1229.337, 5.209473
1230.417, 30.87549
1231.496, 24.41064
1232.574, 5.047363
1233.653, 5.017578
1234.732, 20.59180
1235.810, 44.81396
