##NAMES=Cerussite
##RRUFFID=R050298
##IDEAL CHEMISTRY=Pb^2+^CO_3_
##LOCALITY=Bunker Hill mine, Shoshone County, Idaho, USA
##OWNER=RRUFF
##SOURCE=Eugene Schlepp
##DESCRIPTION=Group of colorless tabular crystals
##STATUS=The identification of this mineral has been confirmed by X-ray diffraction and chemical analysis
##URL=rruff.info/R050298
##MEASURED CHEMISTRY=Pb_1.00_CO_3_
##PIN_ID=L01724
##ORIENTATION=Laser parallel to c* (0 0 1). Fiducial mark perpendicular to laser is parallel to a [1 0 0]
51.43100, 0.0000000E+00
52.67100, 115.8447
53.91000, 3.193176
55.14900, 15.79565
56.38700, 53.81842
57.62600, 41.36548
58.86400, 1.380493
60.10300, 65.09265
61.34100, 60.76184
62.57900, 222.2882
63.81700, 630.1902
65.05400, 1317.435
66.29200, 2236.189
67.52900, 3378.775
68.76700, 4847.638
70.00400, 6480.325
71.24100, 8299.445
72.47700, 9783.655
73.71400, 10803.65
74.95100, 11014.16
76.18700, 10671.97
77.42300, 9784.867
78.65900, 8691.685
79.89500, 7494.273
81.13100, 6566.494
82.36700, 5826.233
83.60200, 5181.393
84.83700, 4677.896
86.07200, 4181.680
87.30800, 4061.674
88.54200, 3692.811
89.77700, 3496.990
91.01200, 3347.113
92.24600, 3196.105
93.48000, 3147.907
94.71400, 3105.465
95.94800, 3011.734
97.18200, 2940.675
98.41600, 2899.248
99.64900, 2956.425
100.8830, 2950.178
102.1160, 2940.482
103.3490, 3000.311
104.5820, 2945.641
105.8150, 3040.451
107.0470, 3134.720
108.2800, 3149.439
109.5120, 3386.593
110.7440, 3456.173
111.9760, 3509.151
113.2080, 3562.522
114.4400, 3822.311
115.6710, 4008.542
116.9030, 4372.270
118.1340, 4515.552
119.3650, 4629.307
120.5960, 4794.444
121.8270, 4716.949
123.0580, 4741.828
124.2880, 4672.015
125.5190, 4520.409
126.7490, 4651.687
127.9790, 4715.923
129.2090, 4677.208
130.4390, 4892.508
131.6680, 5003.931
132.8980, 4983.456
134.1270, 4908.109
135.3560, 4843.890
136.5850, 4650.806
137.8140, 4319.868
139.0430, 3948.028
140.2710, 3746.338
141.5000, 3457.778
142.7280, 3207.352
143.9560, 3053.060
145.1840, 2856.896
146.4120, 2780.860
147.6390, 2796.023
148.8670, 2571.348
150.0940, 2640.816
151.3210, 2763.431
152.5490, 2689.168
153.7750, 2566.025
155.0020, 2510.999
156.2290, 2416.087
157.4550, 2253.286
158.6810, 2206.606
159.9080, 2102.041
161.1340, 1933.591
162.3590, 1820.258
163.5850, 1711.042
164.8110, 1689.647
166.0360, 1633.310
167.2610, 1681.731
168.4860, 1628.162
169.7110, 1708.177
170.9360, 1770.531
172.1610, 1740.044
173.3850, 1855.605
174.6100, 1935.555
175.8340, 1986.272
177.0580, 2002.818
178.2820, 1993.872
179.5050, 1962.311
180.7290, 1859.735
181.9520, 1804.461
183.1760, 1805.271
184.3990, 1721.083
185.6220, 1685.229
186.8450, 1611.660
188.0670, 1491.426
189.2900, 1606.906
190.5120, 1501.165
191.7340, 1434.615
192.9560, 1485.534
194.1780, 1546.651
195.4000, 1501.837
196.6220, 1598.233
197.8430, 1590.975
199.0640, 1630.438
200.2860, 1722.653
201.5070, 1805.134
202.7270, 1880.475
203.9480, 1897.313
205.1690, 1992.326
206.3890, 2060.161
207.6090, 2168.058
208.8290, 2325.526
210.0490, 2431.650
211.2690, 2535.458
212.4890, 2732.719
213.7080, 2810.006
214.9280, 2822.017
216.1470, 2774.622
217.3660, 2891.819
218.5850, 2781.735
219.8030, 2786.717
221.0220, 2584.589
222.2400, 2531.256
223.4590, 2389.940
224.6770, 2208.798
225.8950, 2190.821
227.1120, 2004.810
228.3300, 2019.622
229.5480, 1833.743
230.7650, 1680.013
231.9820, 1624.923
233.1990, 1575.802
234.4160, 1341.882
235.6330, 1180.414
236.8490, 1094.739
238.0660, 1091.729
239.2820, 1001.590
240.4980, 1026.053
241.7140, 894.9978
242.9300, 874.1045
244.1460, 862.9175
245.3610, 711.1111
246.5770, 762.5142
247.7920, 674.4468
249.0070, 674.5098
250.2220, 634.4873
251.4370, 581.1033
252.6510, 500.2905
253.8660, 444.2568
255.0800, 383.5708
256.2940, 424.2673
257.5080, 359.3525
258.7220, 250.8955
259.9360, 318.3936
261.1490, 214.9617
262.3630, 173.4707
263.5760, 177.4265
264.7890, 170.3149
266.0020, 126.2393
267.2150, 123.4070
268.4270, 111.5251
269.6400, 59.50439
270.8520, 92.32275
272.0640, 85.68921
273.2760, 25.05078
274.4880, 85.95020
275.7000, 75.04834
276.9120, 38.00049
278.1230, 46.17261
279.3340, 36.17896
280.5450, 46.38037
281.7560, 1.566406
282.9670, 12.14819
284.1780, 6.051270
285.3880, 36.26172
286.5980, 36.22168
287.8090, 27.71509
289.0190, 26.43335
290.2290, 35.97998
291.4380, 3.751709
292.6480, 0.3068850
293.8570, 19.96680
295.0670, 47.35986
296.2760, 1.083740
297.4850, 16.79321
298.6930, 28.36157
299.9020, 14.96558
301.1110, 45.71191
302.3190, 87.38525
303.5270, 14.65625
304.7350, 6.774414
305.9430, 16.43774
307.1510, 54.82080
308.3580, 105.4033
309.5660, 32.07568
310.7730, 46.75146
311.9800, 53.19458
313.1870, 104.8757
314.3940, 116.5747
315.6010, 76.29712
316.8070, 34.03101
318.0130, 62.76978
319.2200, 53.94214
320.4260, 4.291504
321.6310, 30.52051
322.8370, 27.20044
324.0430, 67.00781
325.2480, 20.56104
326.4540, 21.13989
327.6590, 10.97632
328.8640, 31.94092
330.0680, 84.57861
331.2730, 69.58667
332.4780, 39.37402
333.6820, 7.319336
334.8860, 26.76050
336.0900, 27.26343
337.2940, 8.724854
338.4980, 56.68604
339.7010, 41.82495
340.9050, 17.03003
342.1080, 34.72559
343.3110, 9.529785
344.5140, 16.24146
345.7170, 34.95020
346.9200, 6.874756
348.1220, 31.27539
349.3240, 58.42041
350.5270, 17.42407
351.7290, 33.35913
352.9310, 53.34033
354.1320, 38.16968
355.3340, 5.313477
356.5350, 6.458008
357.7370, 0.3935550
358.9380, 6.710205
360.1390, 29.73022
361.3400, 26.09668
362.5400, 5.653320
363.7410, 1.605225
364.9410, 30.18896
366.1410, 22.82153
367.3410, 80.51660
368.5410, 84.80127
369.7410, 74.56934
370.9400, 11.66284
372.1400, 42.07812
373.3390, 37.81226
374.5380, 39.07275
375.7370, 26.42114
376.9360, 72.18237
378.1350, 31.09668
379.3330, 53.06665
380.5310, 70.03809
381.7300, 47.74707
382.9280, 57.37671
384.1260, 126.0222
385.3230, 25.25293
386.5210, 8.323730
387.7180, 84.41016
388.9160, 4.867188
390.1130, 65.69946
391.3100, 146.3091
392.5060, 24.10986
393.7030, 56.76221
394.9000, 74.25220
396.0960, 131.6421
397.2920, 68.01978
398.4880, 109.3772
399.6840, 87.72095
400.8800, 74.04712
402.0750, 106.3965
403.2710, 133.0886
404.4660, 116.9119
405.6610, 70.26172
406.8560, 98.52661
408.0510, 63.74365
409.2450, 107.9348
410.4400, 97.10742
411.6340, 103.2593
412.8280, 70.43896
414.0220, 135.5796
415.2160, 37.14282
416.4100, 101.4724
417.6030, 140.4988
418.7970, 124.7117
419.9900, 150.9812
421.1830, 80.31812
422.3760, 150.3433
423.5690, 131.2705
424.7610, 191.1748
425.9540, 121.2542
427.1460, 195.9734
428.3380, 107.7429
429.5300, 53.04785
430.7220, 126.0708
431.9140, 118.8022
433.1050, 129.7461
434.2970, 156.5508
435.4880, 141.3787
436.6790, 162.2800
437.8700, 131.9023
439.0610, 171.0801
440.2510, 174.1521
441.4420, 153.7539
442.6320, 169.7158
443.8220, 191.6208
445.0120, 233.9404
446.2020, 135.5571
447.3910, 127.8281
448.5810, 203.1572
449.7700, 146.1978
450.9600, 161.8643
452.1490, 186.2180
453.3370, 204.6177
454.5260, 145.4895
455.7150, 227.4272
456.9030, 171.4231
458.0910, 201.7290
459.2800, 179.9534
460.4670, 181.9067
461.6550, 68.53125
462.8430, 183.4636
464.0300, 54.65283
465.2180, 144.4465
466.4050, 164.9690
467.5920, 128.9326
468.7790, 127.9399
469.9650, 200.8560
471.1520, 206.8647
472.3380, 124.1516
473.5250, 212.7695
474.7110, 181.0500
475.8970, 152.9819
477.0820, 154.6960
478.2680, 135.5833
479.4540, 134.1169
480.6390, 129.5918
481.8240, 143.0166
483.0090, 150.1074
484.1940, 180.3652
485.3780, 192.1450
486.5630, 211.6255
487.7470, 187.1328
488.9320, 203.1831
490.1160, 165.2249
491.3000, 190.3071
492.4830, 228.8323
493.6670, 131.0718
494.8500, 99.65552
496.0340, 105.1824
497.2170, 162.4419
498.4000, 213.3738
499.5820, 150.1753
500.7650, 125.2493
501.9480, 112.8699
503.1300, 128.2285
504.3120, 84.15039
505.4940, 97.53906
506.6760, 210.2056
507.8580, 100.0596
509.0390, 68.32837
510.2210, 71.70752
511.4020, 188.0764
512.5830, 158.4275
513.7640, 139.9495
514.9450, 140.7776
516.1250, 67.45581
517.3060, 61.06006
518.4860, 110.1292
519.6660, 91.33130
520.8460, 27.42798
522.0260, 83.24170
523.2060, 112.2627
524.3850, 39.69897
525.5650, 120.3364
526.7440, 104.4463
527.9230, 74.14258
529.1020, 85.74146
530.2810, 85.69531
531.4590, 96.32666
532.6380, 88.80493
533.8160, 67.80688
534.9940, 76.72949
536.1720, 92.78516
537.3500, 121.2476
538.5270, 131.1829
539.7050, 148.7959
540.8820, 135.0100
542.0590, 157.8137
543.2360, 98.00415
544.4130, 56.76929
545.5900, 45.60913
546.7660, 88.40576
547.9430, 100.2881
549.1190, 109.7480
550.2950, 121.4880
551.4710, 118.9021
552.6470, 111.4958
553.8220, 92.70190
554.9980, 94.22852
556.1730, 43.92798
557.3480, 57.08984
558.5230, 139.2671
559.6980, 64.91992
560.8730, 55.38525
562.0470, 6.990967
563.2220, 77.41357
564.3960, 96.08594
565.5700, 103.4849
566.7440, 58.09351
567.9170, 124.3438
569.0910, 132.8743
570.2640, 71.73877
571.4380, 52.07568
572.6110, 11.76465
573.7840, 54.16333
574.9570, 67.26831
576.1290, 142.6558
577.3020, 94.87134
578.4740, 30.26172
579.6460, 18.25342
580.8180, 24.33569
581.9900, 38.01392
583.1620, 112.2451
584.3330, 32.58130
585.5040, 131.9197
586.6760, 85.25342
587.8470, 58.18335
589.0180, 74.95776
590.1880, 121.2751
591.3590, 110.3091
592.5290, 83.53857
593.7000, 83.85425
594.8700, 57.16479
596.0400, 17.23877
597.2090, 85.54468
598.3790, 94.87085
599.5490, 63.20996
600.7180, 98.55298
601.8870, 114.8933
603.0560, 97.65918
604.2250, 57.02295
605.3940, 102.4175
606.5620, 2.664551
607.7300, 129.0090
608.8990, 70.08716
610.0670, 78.15063
611.2350, 71.49561
612.4020, 90.83301
613.5700, 65.84106
614.7370, 82.18994
615.9050, 74.63477
617.0720, 120.9978
618.2390, 106.3447
619.4060, 93.57300
620.5720, 173.7725
621.7390, 174.9170
622.9050, 157.2185
624.0710, 184.6875
625.2370, 163.8245
626.4030, 160.3906
627.5690, 133.7385
628.7340, 157.0815
629.9000, 127.4307
631.0650, 141.7773
632.2300, 175.1294
633.3950, 120.5525
634.5600, 184.0396
635.7240, 227.9822
636.8890, 97.04932
638.0530, 107.4265
639.2170, 116.8059
640.3810, 114.1875
641.5450, 76.52295
642.7080, 34.77246
643.8720, 97.16333
645.0350, 35.12939
646.1980, 48.28809
647.3610, 119.8181
648.5240, 42.02124
649.6870, 83.86792
650.8490, 89.44678
652.0120, 58.84985
653.1740, 75.24805
654.3360, 49.65430
655.4980, 40.09912
656.6600, 67.97046
657.8210, 55.74341
658.9830, 126.0933
660.1440, 85.28052
661.3050, 20.56372
662.4660, 49.53467
663.6270, 103.9397
664.7870, 57.35352
665.9480, 213.1084
667.1080, 287.4004
668.2680, 297.4573
669.4280, 302.6802
670.5880, 446.9016
671.7480, 521.2498
672.9070, 749.5386
674.0670, 821.0427
675.2260, 928.2505
676.3850, 871.6035
677.5440, 704.0806
678.7030, 445.5176
679.8610, 215.9553
681.0200, 229.3911
682.1780, 84.83105
683.3360, 137.2402
684.4940, 203.2842
685.6520, 89.17969
686.8090, 101.5317
687.9670, 135.9473
689.1240, 3.390869
690.2810, 61.83643
691.4380, 112.2812
692.5950, 112.7327
693.7520, 183.1365
694.9080, 184.5554
696.0650, 222.5334
697.2210, 218.7151
698.3770, 192.1829
699.5330, 158.4453
700.6880, 86.63135
701.8440, 67.16797
702.9990, 8.554688
704.1550, 33.01904
705.3100, 15.48682
706.4650, 15.72290
707.6190, 42.18994
708.7740, 22.54224
709.9290, 0.9726560
711.0830, 25.26099
712.2370, 43.76465
713.3910, 82.03320
714.5450, 36.41968
715.6980, 87.90088
716.8520, 51.38306
718.0050, 47.42407
719.1580, 31.26025
720.3110, 51.23413
721.4640, 78.40112
722.6170, 104.8862
723.7700, 124.0044
724.9220, 61.49097
726.0740, 103.9780
727.2260, 58.35889
728.3780, 103.8223
729.5300, 163.3147
730.6810, 64.80884
731.8330, 130.3042
732.9840, 73.79956
734.1350, 69.61768
735.2860, 163.0508
736.4370, 142.9727
737.5880, 108.4705
738.7380, 46.91357
739.8880, 158.4114
741.0390, 148.9143
742.1890, 135.9202
743.3380, 130.3579
744.4880, 64.87085
745.6380, 80.74561
746.7870, 73.25903
747.9360, 63.77344
749.0850, 79.28955
750.2340, 29.80542
751.3830, 28.32153
752.5310, 53.83618
753.6800, 5.354004
754.8280, 16.87085
755.9760, 47.97803
757.1240, 19.49463
758.2720, 94.01855
759.4190, 103.5432
760.5670, 44.06860
761.7140, 1.594482
762.8610, 75.77710
764.0080, 126.3015
765.1550, 53.82568
766.3020, 70.34985
767.4480, 31.08374
768.5950, 49.60767
769.7410, 84.13135
770.8870, 8.654785
772.0330, 3.822754
773.1780, 56.72559
774.3240, 121.2529
775.4690, 57.95435
776.6140, 62.47754
777.7590, 23.00049
778.9040, 52.52344
780.0490, 62.66602
781.1940, 72.11279
782.3380, 121.6355
783.4820, 115.6226
784.6260, 0.6013180
785.7700, 105.1248
786.9140, 14.61328
788.0580, 50.86084
789.2010, 39.33569
790.3450, 24.83984
791.4880, 205.3433
792.6310, 10.84644
793.7730, 162.4961
794.9160, 33.04272
796.0590, 70.44727
797.2010, 74.04980
798.3430, 12.55688
799.4850, 35.13428
800.6270, 9.646484
801.7690, 70.15869
802.9100, 9.325684
804.0520, 59.18555
805.1930, 47.69678
806.3340, 28.20947
807.4750, 46.84912
808.6160, 38.36182
809.7560, 42.88965
810.8970, 10.56055
812.0370, 50.94873
813.1770, 16.45850
814.3170, 11.04834
815.4570, 34.96973
816.5960, 42.47705
817.7360, 25.12305
818.8750, 46.68555
820.0140, 17.79395
821.1530, 38.08594
822.2920, 35.02295
823.4310, 81.21387
824.5690, 39.71875
825.7070, 36.22217
826.8460, 40.53418
827.9840, 94.03516
829.1220, 109.9126
830.2590, 126.4131
831.3970, 178.9121
832.5340, 301.4102
833.6710, 344.9092
834.8080, 457.0386
835.9450, 519.7710
837.0820, 695.2686
838.2190, 843.7651
839.3550, 1031.269
840.4910, 868.6826
841.6270, 759.1841
842.7630, 525.6318
843.8990, 310.0820
845.0350, 122.5801
846.1700, 154.0581
847.3060, 186.3770
848.4410, 186.8682
849.5760, 188.0474
850.7100, 86.90723
851.8450, 141.4434
852.9800, 119.9424
854.1140, 57.44043
855.2480, 76.93848
856.3820, 53.43848
857.5160, 120.9390
858.6500, 104.4399
859.7830, 83.93896
860.9170, 84.68018
862.0500, 82.22705
863.1830, 114.7231
864.3160, 100.2183
865.4480, 52.71191
866.5810, 107.2842
867.7130, 88.77490
868.8460, 95.26367
869.9780, 6.249023
871.1100, 6.765137
872.2410, 39.28467
873.3730, 70.17285
874.5050, 120.6294
875.6360, 34.08398
876.7670, 25.53711
877.8980, 72.01074
879.0290, 60.40723
880.1590, 82.82568
881.2900, 22.24219
882.4200, 58.72900
883.5500, 49.14404
884.6800, 56.55713
885.8100, 105.9849
886.9400, 92.48730
888.0690, 100.9204
889.1990, 51.35156
890.3280, 60.69434
891.4570, 8.892578
892.5860, 45.52686
893.7140, 88.50537
894.8430, 30.92041
895.9710, 51.33350
897.1000, 61.74316
898.2280, 8.966309
899.3560, 58.43701
900.4830, 47.83838
901.6110, 96.23682
902.7380, 0.6333010
903.8660, 50.02539
904.9930, 91.41455
906.1200, 45.80127
907.2460, 78.12793
908.3730, 23.31348
909.5000, 28.70068
910.6260, 3.090820
911.7520, 146.4849
912.8780, 38.88525
914.0040, 82.28223
915.1290, 7.322266
916.2550, 40.06396
917.3800, 50.44971
918.5050, 57.83301
919.6300, 69.21436
920.7550, 33.46777
921.8800, 94.85010
923.0040, 83.22998
924.1290, 9.075195
925.2530, 46.30225
926.3770, 67.67676
927.5010, 66.04834
928.6250, 16.60938
929.7480, 18.76709
930.8720, 11.86035
931.9950, 11.50146
933.1180, 39.85986
934.2410, 5.177246
935.3640, 90.53369
936.4860, 105.8311
937.6090, 56.18115
938.7310, 43.15820
939.8530, 84.50293
940.9750, 53.84424
942.0970, 8.182129
943.2180, 46.51611
944.3400, 38.84717
945.4610, 17.17529
946.5820, 40.07910
947.7030, 43.40088
948.8240, 13.71729
949.9450, 19.01221
951.0650, 34.28711
952.1860, 6.764648
953.3060, 13.12646
954.4260, 5.847656
955.5460, 8.719727
956.6650, 18.67334
957.7850, 14.93018
958.9040, 35.18311
960.0230, 47.43213
961.1420, 57.67871
962.2610, 65.92285
963.3800, 17.66455
964.4990, 63.56836
965.6170, 65.79834
966.7350, 118.0249
967.8530, 52.25928
968.9710, 8.509766
970.0890, 18.71045
971.2070, 73.92676
972.3240, 90.13916
973.4410, 102.3740
974.5580, 120.1880
975.6750, 102.7588
976.7920, 118.9580
977.9090, 113.9321
979.0250, 94.76562
980.1410, 94.53516
981.2580, 34.72070
982.3740, 30.90332
983.4890, 24.08740
984.6050, 27.26758
985.7200, 21.44434
986.8360, 50.64697
987.9510, 139.8462
989.0660, 97.05859
990.1810, 102.2676
991.2950, 78.47266
992.4100, 191.6738
993.5240, 115.8706
994.6390, 2.070801
995.7530, 18.26562
996.8660, 148.4551
997.9800, 159.6411
999.0940, 65.82275
1000.207, 14.00049
1001.320, 89.17383
1002.433, 73.34277
1003.546, 82.50732
1004.659, 101.2749
1005.772, 79.68604
1006.884, 91.16455
1007.996, 68.31348
1009.108, 38.47363
1010.220, 69.61426
1011.332, 44.87744
1012.444, 36.94580
1013.555, 28.38818
1014.666, 28.51318
1015.777, 10.61426
1016.888, 91.72998
1017.999, 54.84277
1019.110, 53.81299
1020.220, 16.10352
1021.331, 59.20312
1022.441, 30.29736
1023.551, 99.38867
1024.661, 82.47510
1025.770, 129.9668
1026.880, 17.95557
1027.989, 186.1040
1029.098, 166.1597
1030.207, 336.2109
1031.316, 300.2578
1032.425, 350.4775
1033.533, 408.5166
1034.642, 328.5503
1035.750, 289.5801
1036.858, 256.3955
1037.966, 256.0757
1039.073, 271.6846
1040.181, 313.5718
1041.288, 370.7847
1042.396, 438.9741
1043.503, 550.3911
1044.610, 680.7168
1045.716, 1061.803
1046.823, 1488.790
1047.929, 2607.771
1049.036, 5029.127
1050.142, 9097.352
1051.248, 13084.32
1052.353, 21973.28
1053.459, 35511.86
1054.564, 51077.61
1055.670, 60558.73
1056.775, 54334.69
1057.880, 35447.93
1058.985, 17183.89
1060.089, 6880.829
1061.194, 3219.956
1062.298, 1697.911
1063.402, 1025.797
1064.506, 754.8203
1065.610, 642.6396
1066.713, 462.5562
1067.817, 315.3115
1068.920, 303.2129
1070.023, 266.1089
1071.126, 173.0000
1072.229, 218.8877
1073.332, 185.7710
1074.435, 136.6484
1075.537, 164.3950
1076.639, 123.2627
1077.741, 144.1255
1078.843, 148.9316
1079.945, 164.7866
1081.046, 124.6367
1082.148, 96.40186
1083.249, 122.8291
1084.350, 98.66553
1085.451, 138.3569
1086.551, 101.1260
1087.652, 149.4976
1088.752, 164.5264
1089.853, 61.31396
1090.953, 130.0498
1092.053, 63.85352
1093.152, 68.65283
1094.252, 132.5146
1095.351, 10.99316
1096.451, 133.4009
1097.550, 87.18018
1098.649, 40.95508
1099.748, 136.4072
1100.846, 114.1729
1101.945, 159.1147
1103.043, 164.8247
1104.141, 98.57666
1105.239, 215.4307
1106.337, 159.1738
1107.434, 123.9131
1108.532, 97.64746
1109.629, 33.37744
1110.726, 166.1030
1111.823, 62.82422
1112.920, 98.54102
1114.017, 176.2534
1115.113, 80.22217
1116.210, 82.90234
1117.306, 85.59082
1118.402, 116.2666
1119.498, 137.8003
1120.593, 152.7012
1121.689, 164.3823
1122.784, 171.0586
1123.879, 159.0918
1124.974, 116.3979
1126.069, 124.7573
1127.164, 120.1729
1128.259, 96.77686
1129.353, 117.4258
1130.447, 97.06885
1131.541, 123.7080
1132.635, 111.2617
1133.729, 57.89209
1134.822, 81.51758
1135.916, 9.138184
1137.009, 129.7524
1138.102, 107.3643
1139.195, 71.98193
1140.288, 24.59570
1141.380, 42.20459
1142.473, 12.80859
1143.565, 6.593262
1144.657, 11.00732
1145.749, 45.60010
1146.841, 29.18945
1147.932, 48.70459
1149.024, 133.2866
1150.115, 48.13623
1151.206, 21.59619
1152.297, 50.85303
1153.388, 84.36670
1154.479, 72.87549
1155.569, 88.38135
1156.659, 79.55957
1157.750, 54.38379
1158.839, 36.31738
1159.929, 79.81104
1161.019, 32.30127
1162.108, 112.7881
1163.198, 2.728027
1164.287, 59.74756
1165.376, 59.21973
1166.465, 38.68848
1167.553, 50.15430
1168.642, 34.61865
1169.730, 41.07959
1170.818, 8.538086
1171.906, 6.444824
1172.994, 10.56055
1174.082, 14.12598
1175.170, 15.70703
1176.257, 25.30371
1177.344, 29.07861
1178.431, 67.45850
1179.518, 20.83594
1180.605, 3.214355
1181.691, 86.58691
1182.778, 51.95703
1183.864, 3.674805
1184.950, 6.314941
1186.036, 28.96436
1187.122, 48.36377
1188.207, 51.69092
1189.292, 77.01953
1190.378, 29.34521
1191.463, 46.33008
1192.548, 15.03564
1193.632, 7.251465
1194.717, 12.53760
1195.801, 35.82520
1196.886, 6.112305
1197.970, 53.39648
1199.054, 22.68115
1200.137, 58.96387
1201.221, 57.24512
1202.305, 6.525391
1203.388, 77.80371
1204.471, 48.08203
1205.554, 44.35840
1206.637, 62.63525
1207.719, 35.91016
1208.802, 27.18506
1209.884, 28.45850
1210.966, 41.73145
1212.048, 59.00342
1213.130, 33.27588
1214.212, 30.55273
1215.293, 12.82959
1216.374, 17.10645
1217.456, 2.149902
1218.536, 10.66895
1219.617, 0.9541020
1220.698, 23.23779
1221.778, 104.5225
1222.859, 109.8062
1223.939, 0.9101560
1225.019, 31.62744
1226.099, 92.47559
1227.178, 19.74902
1228.258, 79.02295
1229.337, 48.70312
1230.417, 31.54736
1231.496, 7.798828
1232.574, 6.054199
1233.653, 80.31055
1234.732, 3.432617
1235.810, 73.82324
1236.888, 62.08008
1237.966, 17.33789
1239.044, 48.59668
