##NAMES=Cerussite
##RRUFFID=R050023
##IDEAL CHEMISTRY=Pb^2+^CO_3_
##LOCALITY=Mammoth - St Anthony mine, Tiger, Pinal County, Arizona, USA
##OWNER=RRUFF
##SOURCE=Eugene Schlepp
##DESCRIPTION=Prismatic white single crystals
##STATUS=The identification of this mineral has been confirmed by X-ray diffraction and chemical analysis
##URL=rruff.info/R050023
##MEASURED CHEMISTRY=Pb_1.00_CO_3_ ; CO_2_ not measured but estimated by difference and stoichiometry
##PIN_ID=L00263
##ORIENTATION=Laser parallel to -c* (0 0 -1). Fiducial mark perpendicular to laser is parallel to a [1 0 0]
54.275, 0.000
55.677, 10.044
57.079, 29.903
58.480, 26.961
59.882, 66.546
61.283, 56.668
62.683, 36.968
64.084, 16.486
65.484, 2.283
66.884, 7.598
68.284, 2.253
69.684, 9.660
71.083, 42.283
72.482, 69.047
73.881, 129.542
75.280, 128.697
76.678, 133.445
78.076, 135.730
79.474, 151.497
80.872, 168.698
82.270, 161.293
83.667, 191.245
85.064, 218.521
86.461, 259.092
87.858, 317.936
89.254, 416.037
90.650, 505.387
92.046, 645.977
93.442, 755.796
94.838, 882.834
96.233, 1012.078
97.628, 1216.509
99.023, 1380.106
100.418, 1617.853
101.812, 1790.736
103.206, 2068.744
104.600, 2295.865
105.994, 2665.092
107.387, 3051.418
108.781, 3504.833
110.174, 4193.334
111.566, 4946.913
112.959, 5697.565
114.351, 6287.287
115.744, 7066.073
117.136, 7381.918
118.527, 7304.821
119.919, 7160.779
121.310, 6687.817
122.701, 6231.966
124.092, 5833.248
125.482, 5492.885
126.873, 5170.135
128.263, 4955.721
129.653, 4721.405
131.042, 4429.195
132.432, 4155.813
133.821, 3850.045
135.210, 3520.073
136.599, 3156.149
137.987, 2784.240
139.376, 2462.306
140.764, 2234.349
142.152, 2014.380
143.539, 1854.392
144.927, 1627.396
146.314, 1581.389
147.701, 1457.381
149.088, 1382.369
150.474, 1253.351
151.861, 1182.334
153.247, 1116.319
154.633, 1023.303
156.018, 988.289
157.404, 913.276
158.789, 869.264
160.174, 837.255
161.559, 798.247
162.943, 780.241
164.327, 741.236
165.711, 762.233
167.095, 724.232
168.479, 740.233
169.862, 741.235
171.246, 736.105
172.628, 747.550
174.011, 746.248
175.394, 752.254
176.776, 759.261
178.158, 748.268
179.540, 796.274
180.922, 776.279
182.303, 761.282
183.684, 821.283
185.065, 820.302
186.446, 830.596
187.826, 875.379
189.207, 911.169
190.587, 935.253
191.967, 1003.316
193.346, 1080.361
194.726, 1121.290
196.105, 1160.917
197.484, 1312.025
198.862, 1387.907
200.241, 1488.034
201.619, 1637.854
202.997, 1743.299
204.375, 1898.130
205.753, 2007.111
207.130, 2176.442
208.507, 2339.625
209.884, 2475.004
211.261, 2645.049
212.638, 2725.132
214.014, 2841.536
215.390, 2927.022
216.766, 2919.839
218.141, 2873.427
219.517, 2993.186
220.892, 2980.610
222.267, 3023.643
223.642, 2995.279
225.016, 3008.582
226.391, 2892.724
227.765, 2756.775
229.139, 2570.023
230.512, 2336.342
231.886, 2135.026
233.259, 1915.673
234.632, 1653.289
236.005, 1484.844
237.377, 1348.490
238.749, 1188.445
240.122, 1083.249
241.493, 1019.918
242.865, 885.625
244.237, 824.278
245.608, 703.034
246.979, 651.949
248.350, 597.722
249.720, 538.042
251.090, 508.893
252.461, 454.336
253.830, 446.164
255.200, 394.145
256.570, 350.968
257.939, 308.809
259.308, 280.722
260.677, 279.509
262.045, 240.427
263.414, 228.376
264.782, 220.232
266.150, 201.071
267.517, 176.919
268.885, 177.769
270.252, 122.634
271.619, 161.497
272.986, 132.409
274.353, 142.295
275.719, 110.148
277.085, 104.048
278.451, 104.938
279.817, 96.782
281.182, 94.693
282.548, 69.526
283.913, 84.366
285.278, 69.191
286.642, 58.009
288.007, 60.871
289.371, 48.741
290.735, 36.617
292.099, 55.457
293.462, 52.300
294.826, 39.133
296.189, 25.955
297.552, 22.266
298.914, 14.749
300.277, 15.366
301.639, 10.125
303.001, 16.889
304.363, 19.631
305.724, 22.387
307.086, 30.102
308.447, 13.805
309.808, 20.504
311.168, 11.151
312.529, 0.186
313.889, 5.460
315.249, 2.145
316.609, 4.245
317.969, 0.641
319.328, 22.051
320.687, 4.478
322.046, 4.916
323.405, 17.366
324.764, 7.831
326.122, 10.309
327.480, 13.801
328.838, 2.693
330.196, 24.823
331.553, 1.358
332.910, 5.880
334.267, 12.426
335.624, 16.973
336.981, 17.558
338.337, 4.165
339.693, 6.746
341.049, 3.620
342.405, 12.999
343.760, 7.594
345.116, 7.251
346.471, 12.096
347.826, 7.594
349.180, 16.256
350.535, 1.073
351.889, 15.637
353.243, 20.341
354.597, 25.105
355.950, 7.866
357.304, 1.325
358.657, 1.491
360.010, 2.356
361.362, 1.247
362.715, 5.088
364.067, 4.054
365.419, 12.012
366.771, 12.908
368.123, 18.899
369.474, 14.132
370.825, 1.125
372.176, 0.854
373.527, 21.848
374.877, 5.926
376.228, 16.923
377.578, 0.080
378.928, 10.763
380.277, 6.576
381.627, 0.570
382.976, 1.769
384.325, 11.035
385.674, 0.227
387.023, 9.509
388.371, 20.251
389.719, 3.020
391.067, 21.730
392.415, 22.517
393.762, 5.196
395.110, 4.845
396.457, 14.510
397.804, 12.167
399.150, 20.826
400.497, 9.466
401.843, 17.090
403.189, 28.698
404.535, 28.290
405.881, 41.868
407.226, 29.412
408.571, 19.923
409.916, 33.374
411.261, 15.825
412.605, 40.315
413.950, 39.792
415.294, 36.189
416.638, 23.622
417.981, 43.029
419.325, 41.431
420.668, 45.832
422.011, 40.160
423.354, 34.526
424.697, 31.869
426.039, 48.224
427.381, 53.497
428.723, 52.808
430.065, 53.072
431.406, 50.397
432.748, 51.659
434.089, 40.924
435.430, 47.175
436.770, 55.383
438.111, 44.603
439.451, 46.850
440.791, 58.054
442.131, 42.253
443.471, 60.409
444.810, 58.640
446.149, 61.748
447.488, 62.980
448.827, 52.078
450.166, 49.153
451.504, 46.647
452.842, 54.332
454.180, 52.353
455.518, 53.370
456.855, 54.410
458.193, 55.346
459.530, 56.294
460.867, 54.227
462.203, 62.147
463.540, 59.054
464.876, 62.197
466.212, 56.827
467.548, 64.693
468.883, 65.545
470.219, 64.385
471.554, 76.211
472.889, 69.024
474.224, 70.807
475.558, 59.594
476.892, 79.363
478.227, 73.890
479.561, 78.578
480.894, 84.923
482.228, 86.334
483.561, 88.147
484.894, 78.212
486.227, 87.309
487.559, 78.212
488.892, 77.861
490.224, 88.459
491.556, 79.356
492.888, 63.683
494.220, 65.789
495.551, 61.405
496.882, 65.698
498.213, 71.921
499.544, 55.936
500.874, 65.748
502.205, 58.101
503.535, 47.466
504.865, 58.109
506.194, 52.739
507.524, 59.157
508.853, 47.703
510.182, 43.674
511.511, 47.703
512.840, 39.653
514.168, 45.277
515.496, 35.574
516.824, 39.925
518.152, 36.824
519.480, 41.520
520.807, 43.135
522.134, 35.794
523.461, 33.186
524.788, 39.618
526.114, 18.526
527.441, 31.354
528.767, 16.781
530.093, 19.917
531.418, 12.555
532.744, 11.047
534.069, 16.201
535.394, 25.331
536.719, 2.389
538.044, 15.845
539.368, 18.734
540.693, 8.477
542.017, 11.844
543.340, 9.116
544.664, 19.981
545.987, 16.332
547.311, 12.193
548.634, 13.478
549.956, 6.835
551.279, 1.817
552.601, 15.816
553.923, 19.621
555.245, 12.100
556.567, 10.901
557.889, 7.616
559.210, 8.475
560.531, 8.061
561.852, 8.822
563.173, 9.416
564.493, 9.644
565.813, 14.621
567.133, 19.510
568.453, 30.257
569.773, 27.159
571.092, 13.795
572.412, 13.718
573.731, 29.628
575.049, 17.510
576.368, 20.244
577.686, 18.141
579.005, 15.022
580.323, 29.912
581.640, 16.770
582.958, 18.577
584.275, 12.351
585.593, 29.219
586.909, 16.100
588.226, 23.972
589.543, 5.838
590.859, 17.686
592.175, 13.532
593.491, 13.325
594.807, 20.138
596.122, 13.977
597.438, 3.765
598.753, 10.555
600.068, 8.383
601.382, 15.136
602.697, 1.040
604.011, 19.767
605.325, 2.419
606.639, 15.391
607.952, 17.149
609.266, 12.888
610.579, 3.610
611.892, 19.361
613.205, 16.740
614.518, 13.829
615.830, 27.559
617.142, 33.287
618.454, 37.013
619.766, 31.723
621.078, 40.462
622.389, 56.181
623.700, 39.907
625.011, 50.605
626.322, 50.330
627.632, 46.053
628.943, 58.765
630.253, 41.516
631.563, 47.236
632.872, 50.960
634.182, 50.631
635.491, 53.369
636.800, 47.092
638.109, 41.818
639.418, 30.544
640.726, 39.267
642.035, 26.988
643.343, 16.710
644.651, 31.431
645.958, 20.152
647.266, 14.878
648.573, 14.596
649.880, 16.318
651.187, 1.986
652.494, 3.718
653.800, 4.410
655.106, 4.125
656.412, 7.849
657.718, 9.572
659.024, 17.296
660.329, 7.009
661.634, 13.688
662.939, 55.430
664.244, 111.133
665.549, 233.845
666.853, 410.513
668.157, 574.173
669.461, 646.850
670.765, 674.503
672.069, 817.190
673.372, 906.851
674.675, 710.536
675.978, 377.209
677.281, 198.904
678.583, 115.610
679.886, 99.287
681.188, 84.959
682.490, 64.662
683.792, 33.277
685.093, 19.964
686.394, 2.598
687.696, 16.248
688.997, 13.851
690.297, 10.447
691.598, 30.104
692.898, 22.805
694.198, 40.343
695.498, 14.008
696.798, 17.686
698.097, 14.305
699.397, 9.959
700.696, 0.599
701.995, 5.339
703.293, 3.976
704.592, 10.308
705.890, 8.638
707.188, 4.008
708.486, 0.391
709.784, 9.709
711.081, 10.988
712.378, 0.657
713.675, 3.405
714.972, 9.083
716.269, 7.764
717.565, 25.421
718.862, 16.083
720.158, 54.746
721.453, 47.420
722.749, 67.105
724.045, 55.139
725.340, 64.325
726.635, 54.687
727.930, 75.371
729.224, 66.054
730.519, 72.811
731.813, 49.721
733.107, 59.433
734.401, 57.185
735.694, 40.875
736.988, 44.707
738.281, 43.476
739.574, 24.232
740.867, 38.468
742.160, 25.261
743.452, 32.432
744.744, 23.596
746.036, 40.518
747.328, 25.639
748.620, 30.514
749.911, 24.474
751.202, 19.394
752.493, 18.475
753.784, 16.152
755.075, 18.827
756.365, 14.512
757.655, 21.588
758.945, 11.201
760.235, 10.938
761.525, 14.541
762.814, 17.431
764.103, 14.163
765.392, 20.278
766.681, 13.629
767.969, 26.353
769.258, 19.071
770.546, 24.805
771.834, 26.540
773.122, 35.278
774.409, 29.013
775.697, 40.862
776.984, 26.596
778.271, 41.329
779.558, 17.062
780.844, 26.795
782.131, 27.527
783.417, 37.259
784.703, 25.991
785.989, 25.730
787.274, 24.463
788.560, 26.194
789.845, 8.929
791.130, 13.659
792.415, 10.337
793.699, 14.127
794.983, 10.863
796.268, 16.591
797.552, 17.319
798.835, 12.042
800.119, 23.988
801.402, 9.718
802.686, 14.436
803.969, 25.202
805.251, 10.948
806.534, 21.598
807.816, 10.271
809.098, 21.991
810.380, 15.037
811.662, 1.999
812.944, 21.754
814.225, 8.180
815.506, 6.942
816.787, 3.684
818.068, 8.410
819.349, 21.136
820.629, 26.854
821.909, 47.604
823.189, 50.321
824.469, 61.053
825.749, 20.769
827.028, 41.484
828.307, 48.207
829.586, 59.928
830.865, 69.642
832.144, 151.355
833.422, 269.067
834.700, 508.778
835.978, 837.489
837.256, 977.200
838.534, 842.910
839.811, 559.619
841.088, 350.292
842.365, 208.000
843.642, 147.708
844.919, 108.414
846.195, 72.121
847.472, 47.827
848.748, 41.533
850.023, 33.238
851.299, 41.943
852.575, 26.647
853.850, 21.351
855.125, 2.015
856.400, 24.698
857.674, 36.288
858.949, 23.672
860.223, 9.119
861.497, 8.796
862.771, 16.451
864.045, 20.856
865.318, 17.553
866.591, 0.785
867.864, 5.889
869.137, 6.587
870.410, 14.280
871.682, 15.976
872.955, 19.671
874.227, 10.366
875.499, 26.062
876.770, 5.243
878.042, 7.449
879.313, 4.140
880.584, 16.829
881.855, 13.520
883.126, 11.212
884.396, 3.097
885.667, 17.594
886.937, 1.284
888.207, 15.977
889.476, 0.330
890.746, 0.013
892.015, 1.061
893.284, 8.245
894.553, 2.446
895.822, 6.862
897.090, 6.170
898.359, 3.480
899.627, 5.789
900.895, 2.100
902.163, 3.410
903.430, 7.279
904.698, 8.030
905.965, 6.657
907.232, 14.344
908.499, 2.031
909.765, 4.281
911.032, 12.402
912.298, 9.087
913.564, 7.770
914.830, 1.543
916.095, 8.144
917.361, 5.171
918.626, 9.491
919.891, 13.182
921.156, 11.853
922.420, 5.522
923.685, 26.190
924.949, 13.856
926.213, 18.520
927.477, 0.183
928.740, 22.843
930.004, 20.501
931.267, 28.158
932.530, 18.813
933.793, 20.466
935.056, 17.118
936.318, 19.706
937.581, 13.416
938.843, 14.763
940.104, 22.706
941.366, 14.349
942.628, 16.983
943.889, 16.622
945.150, 13.258
946.411, 13.893
947.672, 23.527
948.932, 19.159
950.193, 20.789
951.453, 0.583
952.713, 15.041
953.973, 16.659
955.232, 4.279
956.491, 10.898
957.751, 10.514
959.010, 23.128
960.268, 5.739
961.527, 2.650
962.785, 1.045
964.044, 3.518
965.302, 7.883
966.559, 2.754
967.817, 10.259
969.075, 14.810
970.332, 14.379
971.589, 17.961
972.846, 8.541
974.102, 26.119
975.359, 12.695
976.615, 20.269
977.871, 23.841
979.127, 14.410
980.383, 14.978
981.638, 21.543
982.893, 31.107
984.149, 25.668
985.404, 29.227
986.658, 51.784
987.913, 44.339
989.167, 51.892
990.421, 35.443
991.675, 43.992
992.929, 57.539
994.183, 35.084
995.436, 47.626
996.689, 77.167
997.942, 39.705
999.195, 42.250
1000.448, 67.784
1001.700, 50.316
1002.952, 66.846
1004.204, 55.374
1005.456, 56.920
1006.708, 59.398
1007.959, 57.079
1009.210, 48.599
1010.461, 60.118
1011.712, 49.621
1012.963, 64.121
1014.213, 81.635
1015.464, 75.167
1016.714, 64.677
1017.964, 80.651
1019.214, 88.410
1020.463, 84.890
1021.712, 85.412
1022.962, 99.911
1024.210, 106.422
1025.459, 117.477
1026.708, 126.969
1027.956, 185.155
1029.204, 310.723
1030.452, 405.305
1031.700, 344.022
1032.948, 274.285
1034.195, 206.765
1035.442, 216.591
1036.689, 230.177
1037.936, 271.381
1039.183, 319.427
1040.429, 400.561
1041.676, 411.437
1042.922, 542.004
1044.168, 674.236
1045.413, 855.463
1046.659, 1245.683
1047.904, 1826.425
1049.149, 3186.379
1050.394, 7412.294
1051.639, 23936.355
1052.884, 58126.266
1054.128, 62336.270
1055.372, 36745.586
1056.616, 16555.359
1057.860, 7810.095
1059.104, 4059.831
1060.347, 2199.944
1061.590, 1210.819
1062.833, 776.213
1064.076, 578.792
1065.319, 455.564
1066.561, 362.945
1067.803, 330.922
1069.046, 280.622
1070.287, 240.014
1071.529, 228.397
1072.771, 188.751
1074.012, 171.140
1075.253, 169.522
1076.494, 161.906
1077.735, 156.315
1078.975, 148.548
1080.216, 150.923
1081.456, 146.295
1082.696, 144.119
1083.936, 127.031
1085.175, 126.395
1086.415, 115.756
1087.654, 100.106
1088.893, 100.459
1090.132, 81.812
1091.371, 101.157
1092.609, 120.504
1093.847, 122.849
1095.085, 107.181
1096.323, 110.513
1097.561, 104.849
1098.799, 116.183
1100.036, 118.515
1101.273, 118.624
1102.510, 110.946
1103.747, 108.270
1104.983, 120.541
1106.220, 106.838
1107.456, 108.130
1108.692, 92.443
1109.928, 91.709
1111.163, 86.647
1112.399, 75.681
1113.634, 76.104
1114.869, 74.523
1116.104, 62.747
1117.339, 62.017
1118.573, 55.144
1119.808, 49.586
1121.042, 45.874
1122.276, 51.127
1123.509, 52.410
1124.743, 44.675
1125.976, 32.953
1127.210, 48.229
1128.443, 45.494
1129.675, 34.759
1130.908, 25.028
1132.141, 24.528
1133.373, 31.559
1134.605, 25.820
1135.837, 29.080
1137.068, 39.337
1138.300, 32.592
1139.531, 42.844
1140.762, 50.095
1141.993, 22.343
1143.224, 34.589
1144.455, 15.832
1145.685, 20.074
1146.915, 12.313
1148.145, 34.550
1149.375, 19.785
1150.605, 32.017
1151.834, 24.248
1153.063, 8.476
1154.292, 37.702
1155.521, 2.926
1156.750, 22.147
1157.978, 21.365
1159.207, 15.582
1160.435, 23.797
1161.663, 12.009
1162.891, 7.220
1164.118, 15.428
1165.345, 4.365
1166.573, 0.165
1167.800, 12.030
1169.026, 6.224
1170.253, 16.416
1171.480, 6.606
1172.706, 5.206
1173.932, 10.975
1175.158, 5.154
1176.383, 2.333
1177.609, 1.509
1178.834, 0.318
1180.059, 9.149
1181.284, 6.011
1182.509, 5.830
1183.734, 1.323
1184.958, 9.526
1186.182, 6.384
1187.406, 9.249
1188.630, 5.121
1189.854, 0.002
1191.077, 2.879
1192.301, 10.761
1193.524, 17.652
1194.747, 9.553
1195.969, 10.459
1197.192, 12.373
1198.414, 11.293
1199.636, 10.221
1200.858, 8.155
1202.080, 6.095
1203.302, 4.753
1204.523, 3.985
1205.744, 4.936
1206.966, 0.110
1208.186, 6.845
1209.407, 16.196
1210.628, 18.764
1211.848, 8.735
1213.068, 13.290
1214.288, 2.315
1215.508, 8.341
1216.727, 20.371
1217.947, 9.400
1219.166, 21.430
1220.385, 15.461
1221.604, 15.492
1222.822, 22.524
1224.041, 12.556
1225.259, 17.589
1226.477, 37.624
1227.695, 21.659
1228.913, 16.695
1230.130, 15.732
1231.348, 31.770
1232.565, 25.810
1233.782, 22.851
1234.999, 28.891
1236.215, 24.930
1237.432, 31.968
1238.648, 34.004
1239.864, 25.040
1241.080, 18.076
1242.296, 19.118
1243.511, 35.143
1244.726, 25.176
1245.942, 17.207
1247.156, 35.238
1248.371, 27.452
1249.586, 46.300
1250.800, 42.330
1252.014, 39.359
1253.228, 67.388
1254.442, 64.416
1255.656, 65.444
1256.869, 77.471
1258.083, 84.499
1259.296, 77.528
1260.509, 87.557
1261.722, 102.589
1262.934, 78.620
1264.147, 129.651
1265.359, 105.682
1266.571, 121.713
1267.783, 106.743
1268.994, 147.773
1270.206, 147.803
1271.417, 120.832
1272.628, 160.862
1273.839, 130.891
1275.050, 163.920
1276.260, 158.950
1277.471, 162.979
1278.681, 145.009
1279.891, 157.038
1281.101, 181.068
1282.310, 191.098
1283.520, 191.129
1284.729, 204.160
1285.938, 185.192
1287.147, 216.224
1288.356, 214.257
1289.564, 221.292
1290.773, 279.327
1291.981, 271.364
1293.189, 263.393
1294.397, 304.433
1295.604, 306.474
1296.812, 334.517
1298.019, 372.561
1299.226, 352.587
1300.433, 369.635
1301.640, 410.525
1302.846, 411.577
1304.053, 454.630
1305.259, 453.685
1306.465, 495.743
1307.671, 527.802
1308.876, 493.843
1310.082, 587.906
1311.287, 588.422
1312.492, 608.209
1313.697, 662.279
1314.902, 664.331
1316.106, 670.406
1317.310, 708.470
1318.515, 716.981
1319.719, 717.064
1320.922, 772.127
1322.126, 757.115
1323.329, 765.076
1324.533, 782.939
1325.736, 762.257
1326.939, 839.353
1328.141, 803.900
1329.344, 839.901
1330.546, 896.237
1331.748, 861.782
1332.950, 883.159
1334.152, 927.806
1335.354, 960.788
1336.555, 983.601
1337.757, 997.933
1338.958, 1071.846
1340.159, 1141.280
1341.359, 1095.672
1342.560, 1223.959
1343.760, 1284.329
1344.960, 1298.782
1346.160, 1491.381
1347.360, 1564.127
1348.560, 1683.974
1349.759, 1966.886
1350.959, 2062.758
1352.158, 2304.960
1353.357, 2676.750
1354.555, 2955.014
1355.754, 3339.097
1356.952, 3796.830
1358.151, 4155.131
1359.349, 4807.446
1360.546, 5134.773
1361.744, 5477.117
1362.941, 5822.508
1364.139, 5712.015
1365.336, 5503.408
1366.533, 5287.899
1367.730, 4731.334
1368.926, 4325.790
1370.123, 3769.269
1371.319, 3191.759
1372.515, 2900.263
1373.711, 2422.850
1374.906, 2144.399
1376.102, 1878.952
1377.297, 1553.517
1378.492, 1416.614
1379.687, 1338.713
1380.882, 1090.814
1382.077, 1010.917
1383.271, 944.022
1384.465, 841.129
1385.659, 780.239
1386.853, 698.583
1388.047, 604.465
1389.240, 551.581
1390.434, 480.701
1391.627, 415.822
1392.820, 369.946
1394.013, 323.073
1395.205, 306.203
1396.398, 288.336
1397.590, 261.471
1398.782, 251.779
1399.974, 235.230
1401.166, 226.895
1402.357, 216.043
1403.549, 203.194
1404.740, 203.348
1405.931, 208.506
1407.122, 203.667
1408.313, 205.832
1409.503, 194.000
1410.693, 191.172
1411.883, 207.350
1413.073, 211.531
1414.263, 198.715
1415.453, 229.904
1416.642, 185.105
1417.831, 181.312
1419.020, 203.523
1420.209, 195.746
1421.398, 217.973
1422.587, 171.209
1423.775, 171.462
1424.963, 205.727
1426.151, 148.012
1427.339, 154.320
1428.526, 147.641
1429.714, 141.990
1430.901, 139.368
1432.088, 137.777
1433.275, 132.213
1434.462, 125.311
1435.648, 117.775
1436.835, 105.635
1438.021, 99.144
1439.207, 90.904
1440.393, 83.575
1441.579, 76.762
1442.764, 70.308
1443.949, 63.856
1445.135, 55.406
1446.320, 57.956
1447.504, 56.503
1448.689, 73.049
1449.873, 65.606
1451.058, 83.180
1452.242, 63.770
1453.426, 65.379
1454.609, 67.006
1455.793, 80.653
1456.976, 96.321
1458.159, 98.009
1459.342, 110.163
1460.525, 124.454
1461.708, 120.212
1462.890, 140.996
1464.073, 137.807
1465.255, 138.646
1466.437, 143.514
1467.619, 165.414
1468.800, 144.346
1469.982, 182.312
1471.163, 186.314
1472.344, 167.353
1473.525, 190.429
1474.706, 180.544
1475.886, 199.697
1477.066, 190.888
1478.247, 177.118
1479.427, 190.388
1480.607, 225.699
1481.786, 168.055
1482.966, 155.459
1484.145, 175.918
1485.324, 127.435
1486.503, 157.015
1487.682, 107.661
1488.860, 97.377
1490.039, 121.168
1491.217, 97.038
1492.395, 82.993
1493.573, 57.038
1494.751, 69.180
1495.928, 52.424
1497.106, 57.778
1498.283, 30.251
1499.460, 35.853
1500.637, 8.598
1501.814, 9.499
1502.990, 20.572
1504.166, 2.166
1505.342, 4.695
1506.518, 24.009
1507.694, 2.027
1508.870, 1.230
1510.045, 15.821
1511.221, 5.794
1512.396, 15.666
1513.571, 21.683
1514.745, 0.321
1515.920, 24.872
1517.094, 16.801
1518.269, 0.000
##END=



