##NAMES=Cerussite
##RRUFFID=R050011
##IDEAL CHEMISTRY=Pb^2+^CO_3_
##LOCALITY=Daoping Lead and Zinc mine, Gongcheng, Guangxi, China
##OWNER=RRUFF
##SOURCE=Eugene Schlepp
##DESCRIPTION=Colorless hexagonal bipyramidal crystals
##STATUS=The identification of this mineral has been confirmed by X-ray diffraction and chemical analysis
##URL=rruff.info/R050011
##MEASURED CHEMISTRY=Pb_1.00_CO_3_ ; CO_2_ not measured but estimated by difference and stoichiometry
##PIN_ID=L00519
##ORIENTATION=Laser parallel to -c* (0 0 -1). Fiducial mark perpendicular to laser is parallel to a [1 0 0]
46.637, 0.000
48.043, 22.031
49.450, 31.376
50.856, 165.722
52.261, 223.607
53.667, 238.684
55.072, 297.219
56.477, 359.549
57.882, 346.702
59.287, 440.237
60.691, 439.771
62.095, 444.194
63.499, 445.066
64.903, 450.533
66.306, 334.364
67.709, 194.844
69.112, 114.729
70.515, 101.998
71.917, 89.625
73.319, 81.584
74.721, 50.853
76.123, 3.410
77.525, 52.761
78.926, 75.678
80.327, 21.354
81.728, 6.201
83.128, 8.976
84.529, 75.960
85.929, 94.146
87.329, 230.526
88.728, 278.091
90.128, 479.839
91.527, 637.766
92.926, 819.862
94.324, 1130.117
95.723, 1254.518
97.121, 1645.050
98.519, 1818.695
99.917, 2135.451
101.314, 2438.312
102.712, 2472.277
104.109, 2973.344
105.505, 2906.511
106.902, 3772.776
108.298, 3457.136
109.694, 3788.591
111.090, 4277.139
112.486, 4587.779
113.881, 5563.512
115.277, 5740.335
116.672, 6671.245
118.066, 6658.245
119.461, 6903.330
120.855, 6515.499
122.249, 6038.749
123.643, 5885.082
125.036, 5296.493
126.430, 5403.983
127.823, 5062.550
129.216, 5210.195
130.608, 5083.929
132.001, 4856.792
133.393, 4817.756
134.785, 4227.802
136.176, 4073.916
137.568, 3496.082
138.959, 3261.281
140.350, 3025.499
141.741, 2665.725
143.131, 2680.949
144.521, 2395.171
145.911, 2384.337
147.301, 2186.379
148.691, 2186.408
150.080, 2049.460
151.469, 1932.557
152.858, 1940.701
154.247, 1833.889
155.635, 1789.120
157.024, 1702.403
158.411, 1594.737
159.799, 1645.117
161.187, 1493.542
162.574, 1604.019
163.961, 1453.540
165.348, 1481.103
166.734, 1444.710
168.121, 1444.371
169.507, 1455.075
170.893, 1416.832
172.278, 1529.631
173.664, 1417.471
175.049, 1445.352
176.434, 1431.302
177.819, 1395.323
179.203, 1514.384
180.587, 1371.510
181.971, 1537.675
183.355, 1471.876
184.739, 1562.116
186.122, 1446.400
187.505, 1469.721
188.888, 1542.078
190.271, 1555.472
191.653, 1648.907
193.035, 1601.379
194.417, 1705.885
195.799, 1740.426
197.180, 1855.001
198.562, 2013.611
199.943, 1936.255
201.324, 2231.938
202.704, 2186.658
204.084, 2378.414
205.465, 2390.211
206.844, 2559.057
208.224, 2889.942
209.603, 2846.858
210.983, 3112.807
212.362, 3177.785
213.740, 3333.664
215.119, 3332.874
216.497, 3200.280
217.875, 3405.511
219.253, 2993.559
220.631, 3221.415
222.008, 2973.103
223.385, 2910.546
224.762, 2950.770
226.139, 2763.809
227.515, 2855.686
228.891, 2518.170
230.267, 2667.276
231.643, 2339.319
233.018, 2088.389
234.394, 2054.131
235.769, 1794.469
237.144, 1720.818
238.518, 1478.178
239.893, 1517.581
241.267, 1392.729
242.641, 1261.767
244.014, 1323.538
245.388, 1097.115
246.761, 1046.794
248.134, 1004.868
249.507, 1021.177
250.879, 927.356
252.252, 837.688
253.624, 832.439
254.996, 765.935
256.367, 843.758
257.739, 727.615
259.110, 712.505
260.481, 728.429
261.852, 625.386
263.222, 680.428
264.592, 586.448
265.962, 620.516
267.332, 570.596
268.702, 492.871
270.071, 530.023
271.440, 464.205
272.809, 528.544
274.178, 435.789
275.546, 481.611
276.915, 476.910
278.283, 440.237
279.650, 436.589
281.018, 353.967
282.385, 475.370
283.752, 373.799
285.119, 309.253
286.486, 337.602
287.852, 327.104
289.218, 414.628
290.584, 277.177
291.950, 338.642
293.316, 333.235
294.681, 308.850
296.046, 311.485
297.411, 192.147
298.775, 265.829
300.140, 164.531
301.504, 273.252
302.868, 231.395
304.231, 266.155
305.595, 266.730
306.958, 202.528
308.321, 227.345
309.684, 210.182
311.047, 223.506
312.409, 265.380
313.771, 227.276
315.133, 238.191
316.495, 160.126
317.856, 248.081
319.217, 201.053
320.578, 174.045
321.939, 200.803
323.299, 143.833
324.660, 145.879
326.020, 156.944
327.380, 138.027
328.739, 154.126
330.099, 83.243
331.458, 165.377
332.817, 96.114
334.176, 142.283
335.534, 139.468
336.892, 93.669
338.251, 115.893
339.608, 54.132
340.966, 149.387
342.323, 87.656
343.681, 175.940
345.037, 117.250
346.394, 83.573
347.751, 150.910
349.107, 23.260
350.463, 100.625
351.819, 108.002
353.174, 51.332
354.530, 106.734
355.885, 113.274
357.240, 92.703
358.594, 67.146
359.949, 96.599
361.303, 102.286
362.657, 70.232
364.011, 82.719
365.365, 53.116
366.718, 55.625
368.071, 55.146
369.424, 81.678
370.777, 106.268
372.129, 2.821
373.481, 100.598
374.833, 61.175
376.185, 20.225
377.537, 38.637
378.888, 42.817
380.239, 39.638
381.590, 11.571
382.941, 85.184
384.291, 7.196
385.642, 66.051
386.992, 154.685
388.341, 90.029
389.691, 19.693
391.040, 82.432
392.389, 61.789
393.738, 114.502
395.087, 44.799
396.435, 114.564
397.784, 1.374
399.132, 15.144
400.479, 82.930
401.827, 14.731
403.174, 93.900
404.521, 54.735
405.868, 23.684
407.215, 43.629
408.561, 22.961
409.908, 32.000
411.254, 55.188
412.599, 24.210
413.945, 12.219
415.290, 43.235
416.636, 29.740
417.980, 34.288
419.325, 48.323
420.670, 56.367
422.014, 56.544
423.358, 6.604
424.702, 3.304
426.045, 35.881
427.389, 36.038
428.732, 98.130
430.075, 8.711
431.417, 42.243
432.760, 67.341
434.102, 6.555
435.444, 100.049
436.786, 20.743
438.127, 81.667
439.469, 143.831
440.810, 6.956
442.151, 49.084
443.492, 53.218
444.832, 60.676
446.172, 105.821
447.512, 26.933
448.852, 82.213
450.192, 23.373
451.531, 25.629
452.870, 26.131
454.209, 21.031
455.548, 25.197
456.887, 38.365
458.225, 8.573
459.563, 12.748
460.901, 82.925
462.238, 15.104
463.576, 52.714
464.913, 14.448
466.250, 58.388
467.587, 73.768
468.923, 34.911
470.259, 33.056
471.596, 50.798
472.931, 92.327
474.267, 110.659
475.603, 19.786
476.938, 110.917
478.273, 32.152
479.608, 33.287
480.942, 107.422
482.276, 15.300
483.611, 144.846
484.944, 20.975
486.278, 20.105
487.612, 135.277
488.945, 44.406
490.278, 32.535
491.611, 25.764
492.943, 9.109
494.276, 46.397
495.608, 34.593
496.940, 110.781
498.271, 55.328
499.603, 94.443
500.934, 86.703
502.265, 38.816
503.596, 115.928
504.927, 92.542
506.257, 33.650
507.587, 80.755
508.917, 18.858
510.247, 102.959
511.577, 36.058
512.906, 8.846
514.235, 97.238
515.564, 8.318
516.892, 37.393
518.221, 14.465
519.549, 112.535
520.877, 27.400
522.205, 2.643
523.533, 65.676
524.860, 4.242
526.187, 64.775
527.514, 55.788
528.841, 48.797
530.167, 16.802
531.493, 44.854
532.820, 12.154
534.145, 45.992
535.471, 24.060
536.796, 90.932
538.122, 32.388
539.447, 13.556
540.771, 38.058
542.096, 71.845
543.420, 82.901
544.744, 121.276
546.068, 98.538
547.392, 9.347
548.715, 61.999
550.039, 26.782
551.362, 101.792
552.684, 128.912
554.007, 13.619
555.329, 41.383
556.652, 35.223
557.973, 49.060
559.295, 76.726
560.617, 59.385
561.938, 1.091
563.259, 51.723
564.580, 36.534
565.901, 46.156
567.221, 21.771
568.541, 81.918
569.861, 30.513
571.181, 52.227
572.501, 58.803
573.820, 87.371
575.139, 83.059
576.458, 85.902
577.777, 76.445
579.095, 147.979
580.414, 37.615
581.732, 127.131
583.049, 58.639
584.367, 40.085
585.685, 88.575
587.002, 44.164
588.319, 48.635
589.636, 18.067
590.952, 67.824
592.268, 127.242
593.585, 4.520
594.900, 46.923
596.216, 32.749
597.532, 59.113
598.847, 106.468
600.162, 96.812
601.477, 119.148
602.792, 33.473
604.106, 180.373
605.420, 50.676
606.734, 74.191
608.048, 75.844
609.361, 54.117
610.675, 59.525
611.988, 113.886
613.301, 77.131
614.614, 100.366
615.926, 16.591
617.238, 104.797
618.550, 82.088
619.862, 108.274
621.174, 181.456
622.485, 84.221
623.797, 127.376
625.108, 72.751
626.418, 143.887
627.729, 186.114
629.039, 99.229
630.349, 184.865
631.659, 37.960
632.969, 128.042
634.279, 113.518
635.588, 52.591
636.897, 146.399
638.206, 83.451
639.515, 45.492
640.823, 74.936
642.131, 100.955
643.439, 149.081
644.747, 70.079
646.055, 108.067
647.362, 111.044
648.669, 57.010
649.976, 129.965
651.283, 32.324
652.589, 63.254
653.896, 65.173
655.202, 6.081
656.508, 107.966
657.814, 47.840
659.119, 88.919
660.424, 180.876
661.729, 11.283
663.034, 134.532
664.339, 87.337
665.643, 147.130
666.947, 164.064
668.251, 204.837
669.555, 480.599
670.859, 439.413
672.162, 570.154
673.465, 795.768
674.768, 972.493
676.071, 810.297
677.373, 360.030
678.676, 85.510
679.978, 140.731
681.280, 70.412
682.581, 272.186
683.883, 87.846
685.184, 91.496
686.485, 238.135
687.786, 70.716
689.087, 33.334
690.387, 15.737
691.687, 63.338
692.987, 48.913
694.287, 30.493
695.586, 108.312
696.886, 14.359
698.185, 95.842
699.484, 40.360
700.783, 94.866
702.081, 107.742
703.379, 17.770
704.677, 11.995
705.975, 126.438
707.273, 40.088
708.570, 91.649
709.868, 60.035
711.165, 42.840
712.462, 23.182
713.758, 20.508
715.055, 76.855
716.351, 145.195
717.647, 48.525
718.943, 122.494
720.238, 37.035
721.533, 89.162
722.829, 128.388
724.124, 101.425
725.418, 70.681
726.713, 29.718
728.007, 169.928
729.301, 164.153
730.595, 29.375
731.889, 172.588
733.182, 86.797
734.476, 94.998
735.769, 33.311
737.061, 64.370
738.354, 107.546
739.647, 78.979
740.939, 149.029
742.231, 29.183
743.523, 76.243
744.814, 103.313
746.106, 2.585
747.397, 124.710
748.688, 58.828
749.978, 50.570
751.269, 132.581
752.559, 57.384
753.849, 96.433
755.139, 125.520
756.429, 79.600
757.719, 100.673
759.008, 1.581
760.297, 130.524
761.586, 30.476
762.875, 30.479
764.163, 98.554
765.451, 17.473
766.739, 70.265
768.027, 158.267
769.315, 114.263
770.602, 111.252
771.890, 117.199
773.177, 28.475
774.463, 132.445
775.750, 49.410
777.036, 164.491
778.323, 65.454
779.609, 44.412
780.894, 89.361
782.180, 25.320
783.465, 182.271
784.750, 87.218
786.035, 97.170
787.320, 65.912
788.605, 2.147
789.889, 178.430
791.173, 6.749
792.457, 77.165
793.741, 70.073
795.024, 11.835
796.307, 138.718
797.591, 21.612
798.873, 124.500
800.156, 114.342
801.439, 62.221
802.721, 95.096
804.003, 73.865
805.285, 50.729
806.566, 109.205
807.848, 122.986
809.129, 61.770
810.410, 90.275
811.691, 86.118
812.971, 0.189
814.252, 20.645
815.532, 188.472
816.812, 116.160
818.092, 47.979
819.371, 76.817
820.651, 7.685
821.930, 172.490
823.209, 124.469
824.488, 92.266
825.766, 203.078
827.045, 64.176
828.323, 110.969
829.601, 24.164
830.878, 39.270
832.156, 163.051
833.433, 228.923
834.710, 352.711
835.987, 611.513
837.264, 1003.297
838.540, 1584.094
839.817, 1109.887
841.093, 632.677
842.369, 491.413
843.644, 260.899
844.920, 146.837
846.195, 161.537
847.470, 71.173
848.745, 15.579
850.020, 56.364
851.294, 118.698
852.568, 138.493
853.842, 115.126
855.116, 236.917
856.390, 121.739
857.663, 108.254
858.936, 184.524
860.209, 13.349
861.482, 87.521
862.755, 119.417
864.027, 56.260
865.299, 113.098
866.571, 28.787
867.843, 155.465
869.115, 106.328
870.386, 69.189
871.657, 117.996
872.928, 24.138
874.199, 194.537
875.470, 31.413
876.740, 4.713
878.010, 239.159
879.280, 46.035
880.550, 83.782
881.820, 37.660
883.089, 86.535
884.358, 144.280
885.627, 77.171
886.896, 105.059
888.164, 2.944
889.433, 76.721
890.701, 171.604
891.969, 6.497
893.236, 152.398
894.504, 177.292
895.771, 82.079
897.038, 98.987
898.305, 71.896
899.572, 77.351
900.838, 92.268
902.105, 2.186
903.371, 70.093
904.637, 108.014
905.902, 75.949
907.168, 232.883
908.433, 96.814
909.698, 71.758
910.963, 135.698
912.228, 21.055
913.492, 214.998
914.757, 71.846
916.021, 27.418
917.285, 146.357
918.548, 21.850
919.812, 261.080
921.075, 47.008
922.338, 85.936
923.601, 121.862
924.864, 7.210
926.126, 53.621
927.388, 198.546
928.650, 3.463
929.912, 163.386
931.174, 83.306
932.435, 103.253
933.697, 187.203
934.958, 50.048
936.218, 67.994
937.479, 39.938
938.739, 152.880
940.000, 186.824
941.260, 52.638
942.520, 160.280
943.779, 67.451
945.039, 100.365
946.298, 70.279
947.557, 75.032
948.816, 149.943
950.074, 196.737
951.333, 65.648
952.591, 228.913
953.849, 97.821
955.107, 141.728
956.365, 208.643
957.622, 43.554
958.879, 177.467
960.136, 52.378
961.393, 17.287
962.650, 100.201
963.906, 43.113
965.162, 152.162
966.418, 96.967
967.674, 32.118
968.930, 160.920
970.185, 34.840
971.441, 26.857
972.696, 63.646
973.950, 0.564
975.205, 163.479
976.459, 38.397
977.714, 30.685
978.968, 100.701
980.222, 32.386
981.475, 6.404
982.729, 138.479
983.982, 23.370
985.235, 127.581
986.488, 27.469
987.740, 86.354
988.993, 97.774
990.245, 83.656
991.497, 119.818
992.749, 71.820
994.000, 56.305
995.252, 209.619
996.503, 63.471
997.754, 177.319
999.005, 131.215
1000.256, 97.945
1001.506, 221.814
1002.756, 82.666
1004.006, 125.517
1005.256, 105.670
1006.506, 94.516
1007.755, 216.557
1009.005, 121.912
1010.254, 79.760
1011.502, 233.857
1012.751, 44.829
1014.000, 191.683
1015.248, 40.627
1016.496, 149.473
1017.744, 188.574
1018.991, 191.576
1020.239, 260.412
1021.486, 209.643
1022.733, 138.881
1023.980, 356.588
1025.227, 180.938
1026.473, 209.764
1027.719, 238.381
1028.965, 298.772
1030.211, 477.585
1031.457, 637.187
1032.702, 355.989
1033.948, 384.840
1035.193, 247.860
1036.438, 396.681
1037.682, 325.507
1038.927, 424.471
1040.171, 563.352
1041.415, 575.890
1042.659, 524.873
1043.903, 733.630
1045.146, 736.642
1046.390, 1055.386
1047.633, 1324.124
1048.876, 1803.047
1050.118, 3221.774
1051.361, 6181.008
1052.603, 24030.051
1053.845, 55288.766
1055.087, 55280.570
1056.329, 30759.264
1057.571, 10508.064
1058.812, 4119.756
1060.053, 2298.432
1061.294, 1357.494
1062.535, 1076.592
1063.775, 815.247
1065.016, 544.430
1066.256, 653.065
1067.496, 451.708
1068.736, 509.484
1069.975, 558.114
1071.214, 317.024
1072.454, 385.639
1073.693, 464.244
1074.931, 342.915
1076.170, 471.506
1077.408, 220.193
1078.647, 189.215
1079.885, 387.782
1081.122, 103.961
1082.360, 402.512
1083.597, 311.054
1084.835, 249.604
1086.072, 428.128
1087.308, 176.729
1088.545, 325.545
1089.781, 234.045
1091.018, 270.399
1092.254, 448.896
1093.490, 267.375
1094.725, 166.179
1095.961, 444.640
1097.196, 153.093
1098.431, 282.232
1099.666, 170.667
1100.900, 29.497
1102.135, 327.911
1103.369, 226.331
1104.603, 196.839
1105.837, 365.225
1107.071, 193.743
1108.304, 392.266
1109.538, 260.622
1110.771, 128.983
1112.004, 317.380
1113.236, 35.740
1114.469, 204.633
1115.701, 294.298
1116.933, 91.259
1118.165, 241.958
1119.397, 100.245
1120.629, 118.700
1121.860, 367.924
1123.091, 246.026
1124.322, 205.919
1125.553, 244.185
1126.783, 21.150
1128.014, 372.181
1129.244, 89.019
1130.474, 127.139
1131.704, 335.708
1132.933, 53.834
1134.163, 142.203
1135.392, 270.318
1136.621, 41.505
1137.850, 206.975
1139.079, 65.101
1140.307, 103.214
1141.535, 331.871
1142.763, 3.049
1143.991, 315.647
1145.219, 143.704
1146.446, 121.750
1147.674, 290.258
1148.901, 128.331
1150.128, 136.393
1151.354, 244.749
1152.581, 62.788
1153.807, 211.070
1155.033, 89.104
1156.259, 27.106
1157.485, 205.147
1158.710, 53.122
1159.936, 111.083
1161.161, 278.990
1162.386, 116.927
1163.611, 234.789
1164.835, 72.702
1166.060, 49.397
1167.284, 158.454
1168.508, 46.295
1169.732, 44.120
1170.955, 131.931
1172.179, 70.265
1173.402, 167.479
1174.625, 135.212
1175.848, 7.066
1177.070, 170.630
1178.293, 8.312
1179.515, 145.976
1180.737, 133.629
1181.959, 48.731
1183.181, 138.858
1184.402, 136.437
1185.624, 74.001
1186.845, 121.552
1188.066, 40.910
1189.286, 36.590
1190.507, 274.075
1191.727, 48.453
1192.947, 208.971
1194.167, 186.381
1195.387, 103.778
1196.607, 201.160
1197.826, 38.530
1199.045, 45.882
1200.264, 323.217
1201.483, 29.462
1202.702, 197.820
1203.920, 125.089
1205.138, 27.658
1206.356, 229.557
1207.574, 56.757
1208.792, 43.941
1210.009, 241.107
1211.227, 38.261
1212.444, 195.396
1213.661, 212.518
1214.877, 189.625
1216.094, 266.723
1217.310, 83.808
1218.526, 230.876
1219.742, 327.931
1220.958, 64.972
1222.173, 301.997
1223.389, 129.009
1224.604, 36.006
1225.819, 212.985
1227.034, 100.049
1228.248, 156.818
1229.463, 223.692
1230.677, 150.556
1231.891, 227.405
1233.105, 134.243
1234.318, 81.067
1235.532, 427.874
1236.745, 44.667
1237.958, 151.458
1239.171, 348.236
1240.384, 75.004
1241.596, 281.759
1242.809, 208.500
1244.021, 25.222
1245.233, 261.929
1246.444, 58.626
1247.656, 264.955
1248.867, 151.627
1250.079, 11.720
1251.290, 204.901
1252.500, 121.507
1253.711, 118.091
1254.921, 304.665
1256.132, 131.214
1257.342, 155.133
1258.552, 301.654
1259.761, 47.811
1260.971, 4.305
1262.180, 280.778
1263.389, 12.679
1264.598, 193.765
1265.807, 110.095
1267.015, 16.706
1268.223, 373.104
1269.432, 0.511
1270.640, 211.008
1271.847, 297.362
1273.055, 16.771
1274.262, 319.552
1275.470, 115.701
1276.677, 82.118
1277.883, 398.411
1279.090, 124.371
1280.296, 210.641
1281.503, 236.899
1282.709, 79.609
1283.915, 226.357
1285.120, 182.295
1286.326, 48.380
1287.531, 304.578
1288.736, 39.703
1289.941, 175.890
1291.146, 402.067
1292.350, 58.185
1293.555, 245.825
1294.759, 291.943
1295.963, 98.077
1297.167, 434.266
1298.370, 110.071
1299.574, 166.172
1300.777, 492.063
1301.980, 157.638
1303.183, 343.787
1304.386, 449.494
1305.588, 275.432
1306.790, 391.528
1307.993, 567.469
1309.195, 213.496
1310.396, 619.230
1311.598, 451.077
1312.799, 477.079
1314.000, 592.673
1315.201, 518.249
1316.402, 524.182
1317.603, 484.636
1318.803, 410.601
1320.003, 606.448
1321.203, 420.750
1322.403, 486.617
1323.603, 631.685
1324.802, 547.534
1326.002, 633.269
1327.201, 594.818
1328.400, 420.556
1329.599, 746.271
1330.797, 561.719
1331.995, 467.355
1333.194, 741.144
1334.392, 486.354
1335.589, 552.070
1336.787, 853.519
1337.985, 419.058
1339.182, 764.584
1340.379, 859.907
1341.576, 535.409
1342.772, 1030.385
1343.969, 895.406
1345.165, 830.867
1346.361, 1213.203
1347.557, 968.637
1348.753, 1183.945
1349.949, 1316.337
1351.144, 1261.727
1352.339, 1716.704
1353.534, 1631.582
1354.729, 1806.932
1355.924, 2451.731
1357.118, 2517.003
1358.312, 2832.258
1359.506, 3317.498
1360.700, 3172.729
1361.894, 3867.659
1363.088, 3772.872
1364.281, 3428.074
1365.474, 3912.898
1366.667, 3138.084
1367.860, 2813.160
1369.052, 2977.767
1370.245, 2132.945
1371.437, 2040.508
1372.629, 1985.699
1373.821, 1311.848
1375.013, 1577.056
1376.204, 1312.308
1377.395, 1047.354
1378.586, 1262.060
1379.777, 886.979
1380.968, 812.467
1382.159, 998.124
1383.349, 654.104
1384.539, 669.352
1385.729, 784.881
1386.919, 338.575
1388.109, 744.328
1389.298, 400.051
1390.487, 315.755
1391.676, 760.953
1392.865, 185.271
1394.054, 238.374
1395.242, 482.798
1396.431, 226.645
1397.619, 432.250
1398.807, 384.642
1399.995, 100.455
1401.182, 314.877
1402.370, 120.395
1403.557, 135.518
1404.744, 290.360
1405.931, 65.096
1407.118, 210.586
1408.304, 305.409
1409.490, 60.354
1410.676, 335.338
1411.862, 300.604
1413.048, 64.188
1414.234, 441.078
1415.419, 196.327
1416.604, 111.559
1417.789, 586.825
1418.974, 82.080
1420.159, 277.354
1421.343, 332.644
1422.528, 147.942
1423.712, 323.235
1424.896, 328.543
1426.079, 23.866
1427.263, 429.183
1428.446, 194.516
1429.629, 219.869
1430.812, 335.247
1431.995, 200.620
1433.178, 226.000
1434.360, 351.401
1435.543, 163.176
1436.725, 222.290
1437.907, 247.768
1439.088, 93.253
1440.270, 468.748
1441.451, 154.247
1442.632, 149.757
1443.813, 465.277
1444.994, 90.808
1446.175, 286.356
1447.355, 412.039
1448.535, 97.717
1449.715, 333.407
1450.895, 409.119
1452.075, 204.842
1453.255, 630.562
1454.434, 196.307
1455.613, 242.068
1456.792, 597.836
1457.971, 203.663
1459.149, 369.562
1460.328, 635.523
1461.506, 184.071
1462.684, 399.765
1463.862, 454.988
1465.040, 150.724
1466.217, 495.928
1467.395, 318.175
1468.572, 233.670
1469.749, 669.175
1470.925, 354.346
1472.102, 389.854
1473.278, 685.371
1474.455, 10.668
1475.631, 564.816
1476.807, 530.300
1477.982, 155.784
1479.158, 502.593
1480.333, 356.714
1481.508, 230.984
1482.683, 545.168
1483.858, 318.963
1485.033, 262.729
1486.207, 556.564
1487.381, 180.260
1488.555, 413.795
1489.729, 657.148
1490.903, 60.290
1492.076, 293.916
1493.250, 447.368
1494.423, 100.933
1495.596, 484.613
1496.769, 268.111
1497.941, 100.230
1499.114, 412.716
1500.286, 65.947
1501.458, 120.180
1502.630, 434.394
1503.802, 98.627
1504.973, 252.896
