##NAMES=Cerussite
##RRUFFID=R050023
##IDEAL CHEMISTRY=Pb^2+^CO_3_
##LOCALITY=Mammoth - St Anthony mine, Tiger, Pinal County, Arizona, USA
##OWNER=RRUFF
##SOURCE=Eugene Schlepp
##DESCRIPTION=Prismatic white single crystals
##STATUS=The identification of this mineral has been confirmed by X-ray diffraction and chemical analysis
##URL=rruff.info/R050023
##MEASURED CHEMISTRY=Pb_1.00_CO_3_ ; CO_2_ not measured but estimated by difference and stoichiometry
##PIN_ID=L00220
##ORIENTATION=Laser parallel to b* (0 1 0). Fiducial mark perpendicular to laser is parallel to c [0 0 1]
51.717, 0.000
53.126, 0.661
54.534, 90.188
55.942, 116.199
57.350, 154.439
58.758, 213.303
60.165, 248.874
61.572, 295.938
62.979, 320.589
64.386, 323.551
65.792, 344.796
67.198, 250.227
68.604, 178.547
70.010, 133.842
71.415, 102.424
72.820, 58.271
74.225, 31.362
75.630, 2.320
77.034, 8.793
78.438, 10.074
79.842, 34.178
81.246, 6.881
82.649, 12.090
84.053, 47.440
85.455, 120.920
86.858, 168.521
88.260, 285.238
89.663, 351.062
91.065, 514.992
92.466, 673.022
93.868, 950.148
95.269, 1214.368
96.670, 1653.678
98.070, 2187.073
99.471, 2709.546
100.871, 3246.088
102.271, 3586.693
103.670, 3618.355
105.070, 3378.073
106.469, 2989.843
107.868, 2588.662
109.267, 2377.528
110.665, 2159.438
112.063, 2014.391
113.461, 2064.384
114.859, 2208.415
116.256, 2264.483
117.653, 2451.589
119.050, 2721.731
120.447, 3032.907
121.843, 3399.116
123.240, 3960.365
124.636, 4478.651
126.031, 5302.967
127.427, 6103.330
128.822, 6633.730
130.217, 7410.189
131.612, 7573.680
133.006, 7570.203
134.400, 7087.750
135.794, 6647.356
137.188, 5996.024
138.581, 5387.727
139.975, 5020.459
141.368, 4553.220
142.760, 4212.996
144.153, 4016.780
145.545, 3921.572
146.937, 3729.363
148.329, 3610.124
149.720, 3539.832
151.112, 3308.531
152.503, 3138.238
153.893, 2988.967
155.284, 2754.710
156.674, 2512.462
158.064, 2269.221
159.454, 2113.986
160.843, 1927.763
162.233, 1818.548
163.622, 1713.341
165.011, 1662.144
166.399, 1637.953
167.787, 1647.769
169.175, 1675.592
170.563, 1650.422
171.951, 1662.258
173.338, 1700.100
174.725, 1706.948
176.112, 1680.801
177.499, 1605.660
178.885, 1600.525
180.271, 1485.449
181.657, 1393.324
183.043, 1333.365
184.428, 1217.343
185.813, 1155.228
187.198, 1064.177
188.583, 1018.141
189.967, 936.134
191.351, 905.168
192.735, 819.380
194.119, 855.594
195.502, 813.721
196.885, 743.883
198.268, 758.922
199.651, 708.826
201.033, 679.404
202.415, 694.231
203.797, 646.151
205.179, 672.750
206.561, 612.959
207.942, 612.496
209.323, 613.523
210.703, 562.152
212.084, 584.335
213.464, 542.689
214.844, 540.743
216.224, 523.799
217.603, 536.013
218.983, 517.557
220.362, 484.764
221.741, 497.793
223.119, 483.506
224.497, 477.146
225.875, 450.836
227.253, 471.328
228.631, 455.402
230.008, 458.546
231.385, 474.506
232.762, 425.398
234.139, 487.068
235.515, 446.932
236.891, 456.642
238.267, 444.640
239.643, 462.066
241.018, 510.270
242.393, 466.783
243.768, 499.445
245.143, 433.583
246.517, 424.439
247.891, 389.130
249.265, 399.436
250.639, 365.123
252.012, 339.066
253.386, 356.544
254.759, 301.505
256.131, 271.737
257.504, 240.000
258.876, 227.955
260.248, 233.911
261.620, 244.834
262.991, 213.787
264.363, 178.800
265.734, 166.821
267.104, 174.867
268.475, 157.072
269.845, 124.109
271.215, 115.126
272.585, 143.062
273.955, 133.357
275.324, 97.402
276.693, 116.462
278.062, 90.417
279.431, 117.413
280.799, 103.458
282.167, 88.429
283.535, 108.482
284.903, 81.582
286.270, 72.641
287.638, 69.700
289.005, 76.692
290.371, 64.759
291.738, 47.755
293.104, 90.754
294.470, 76.755
295.836, 33.785
297.201, 63.788
298.567, 78.853
299.932, 45.871
301.296, 44.875
302.661, 54.989
304.025, 69.993
305.389, 60.937
306.753, 16.020
308.117, 35.022
309.480, 41.094
310.843, 0.906
312.206, 27.093
313.569, 11.103
314.931, 23.100
316.293, 33.126
317.655, 39.122
319.017, 27.117
320.378, 15.111
321.740, 18.103
323.101, 21.095
324.461, 13.085
325.822, 21.074
327.182, 16.061
328.542, 10.451
329.902, 21.031
331.261, 4.986
332.621, 6.994
333.980, 3.028
335.339, 2.948
336.697, 4.921
338.056, 0.108
339.414, 2.861
340.772, 5.839
342.129, 20.804
343.487, 35.770
344.844, 31.055
346.201, 11.293
347.557, 20.672
348.914, 1.635
350.270, 13.404
351.626, 23.550
352.982, 36.527
354.337, 39.476
355.693, 11.578
357.048, 19.640
358.402, 13.290
359.757, 6.784
361.111, 2.865
362.465, 24.080
363.819, 2.032
365.173, 21.978
366.526, 11.124
367.879, 21.787
369.232, 3.276
370.585, 1.400
371.937, 3.481
373.290, 7.437
374.642, 11.295
375.993, 11.238
377.345, 7.163
378.696, 18.900
380.047, 6.934
381.398, 26.165
382.748, 5.344
384.099, 3.432
385.449, 8.374
386.799, 2.227
388.148, 3.003
389.497, 1.185
390.847, 12.383
392.196, 16.458
393.544, 11.248
394.893, 18.016
396.241, 13.766
397.589, 1.406
398.936, 10.311
400.284, 20.968
401.631, 10.773
402.978, 14.533
404.325, 0.769
405.672, 7.906
407.018, 4.792
408.364, 0.506
409.710, 22.739
411.055, 9.957
412.401, 5.651
413.746, 14.657
415.091, 6.979
416.435, 2.753
417.780, 2.552
419.124, 2.814
420.468, 10.835
421.812, 12.520
423.155, 22.188
424.498, 17.019
425.842, 4.575
427.184, 4.242
428.527, 3.101
429.869, 0.208
431.211, 5.784
432.553, 13.217
433.895, 40.834
435.236, 0.491
436.577, 10.177
437.918, 7.803
439.259, 36.686
440.599, 25.306
441.940, 14.876
443.280, 39.015
444.619, 18.086
445.959, 9.787
447.298, 20.350
448.637, 20.974
449.976, 44.590
451.315, 20.127
452.653, 42.001
453.991, 39.597
455.329, 39.598
456.667, 32.151
458.004, 71.750
459.341, 24.257
460.678, 35.758
462.015, 50.266
463.352, 12.757
464.688, 46.296
466.024, 39.776
467.360, 34.253
468.695, 50.682
470.031, 22.150
471.366, 58.612
472.701, 45.975
474.035, 36.426
475.370, 89.808
476.704, 32.235
478.038, 67.670
479.372, 42.099
480.705, 58.524
482.038, 84.911
483.371, 56.301
484.704, 63.719
486.037, 103.064
487.369, 69.442
488.701, 71.789
490.033, 61.107
491.365, 59.502
492.696, 56.686
494.027, 58.972
495.358, 67.156
496.689, 49.451
498.019, 77.710
499.350, 62.018
500.680, 37.258
502.009, 55.568
503.339, 68.696
504.668, 69.797
505.997, 57.438
507.326, 77.181
508.655, 76.715
509.983, 48.925
511.311, 51.496
512.639, 35.768
513.967, 50.055
515.295, 65.337
516.622, 83.967
517.949, 40.077
519.276, 41.276
520.602, 42.146
521.929, 33.177
523.255, 30.403
524.581, 30.585
525.906, 45.735
527.232, 35.284
528.557, 27.476
529.882, 39.436
531.207, 27.464
532.531, 26.396
533.855, 45.504
535.179, 17.622
536.503, 20.733
537.827, 16.821
539.150, 53.764
540.473, 19.839
541.796, 32.301
543.119, 10.054
544.441, 30.925
545.764, 17.983
547.086, 38.009
548.407, 22.848
549.729, 24.777
551.050, 12.056
552.371, 23.167
553.692, 43.211
555.013, 20.068
556.333, 9.104
557.653, 50.967
558.973, 31.978
560.293, 22.606
561.612, 17.608
562.932, 33.622
564.251, 5.464
565.569, 36.901
566.888, 38.858
568.206, 17.688
569.524, 33.129
570.842, 38.093
572.160, 34.034
573.477, 34.951
574.795, 13.341
576.112, 21.253
577.428, 8.903
578.745, 30.528
580.061, 18.466
581.377, 21.406
582.693, 33.382
584.009, 4.332
585.324, 18.224
586.639, 1.110
587.954, 9.971
589.269, 1.325
590.583, 8.454
591.897, 23.433
593.212, 8.404
594.525, 8.029
595.839, 16.889
597.152, 0.266
598.465, 15.685
599.778, 30.592
601.091, 20.548
602.403, 3.624
603.716, 13.785
605.028, 25.071
606.339, 8.897
607.651, 9.723
608.962, 8.300
610.273, 0.578
611.584, 10.300
612.895, 2.827
614.205, 18.038
615.515, 5.871
616.825, 39.728
618.135, 30.524
619.444, 23.359
620.754, 31.205
622.063, 12.937
623.372, 35.774
624.680, 45.084
625.989, 43.894
627.297, 29.006
628.605, 49.758
629.912, 17.577
631.220, 63.393
632.527, 62.193
633.834, 53.001
635.141, 27.777
636.447, 48.581
637.754, 30.324
639.060, 21.177
640.366, 21.970
641.671, 16.757
642.977, 37.546
644.282, 23.329
645.587, 25.109
646.892, 33.885
648.196, 14.659
649.501, 12.429
650.805, 53.196
652.109, 22.961
653.412, 14.723
654.716, 41.483
656.019, 4.239
657.322, 35.992
658.625, 7.732
659.927, 9.521
661.230, 8.784
662.532, 17.537
663.834, 48.656
665.135, 0.632
666.437, 18.076
667.738, 52.780
669.039, 38.486
670.340, 76.163
671.640, 54.862
672.940, 198.559
674.241, 204.256
675.540, 203.954
676.840, 135.651
678.139, 140.347
679.439, 233.013
680.738, 414.665
682.036, 388.734
683.335, 376.259
684.633, 386.672
685.931, 225.307
687.229, 112.992
688.527, 72.625
689.824, 69.253
691.121, 45.933
692.418, 46.520
693.715, 153.118
695.012, 166.699
696.308, 165.375
697.604, 76.974
698.900, 61.636
700.195, 12.197
701.491, 29.854
702.786, 40.456
704.081, 24.132
705.376, 14.752
706.670, 9.380
707.964, 5.960
709.259, 15.584
710.552, 26.256
711.846, 45.874
713.139, 14.441
714.433, 22.115
715.726, 44.780
717.018, 27.520
718.311, 54.170
719.603, 60.845
720.895, 8.526
722.187, 43.202
723.479, 44.993
724.770, 49.609
726.061, 71.289
727.352, 20.968
728.643, 43.646
729.934, 35.327
731.224, 33.948
732.514, 30.332
733.804, 33.829
735.094, 34.131
736.383, 33.776
737.672, 44.432
738.961, 24.115
740.250, 21.679
741.539, 38.320
742.827, 46.765
744.115, 33.424
745.403, 30.724
746.691, 38.577
747.978, 38.241
749.265, 10.842
750.552, 54.443
751.839, 20.081
753.126, 39.716
754.412, 72.397
755.698, 35.075
756.984, 16.178
758.270, 45.345
759.555, 18.125
760.840, 46.534
762.125, 10.125
763.410, 19.720
764.695, 38.387
765.979, 14.714
767.263, 15.312
768.547, 17.500
769.831, 28.135
771.114, 26.715
772.398, 8.381
773.681, 25.064
774.964, 22.856
776.246, 29.521
777.529, 39.134
778.811, 9.200
780.093, 64.461
781.375, 5.878
782.656, 18.817
783.937, 36.479
785.219, 28.104
786.499, 36.786
787.780, 44.445
789.060, 46.103
790.341, 17.159
791.621, 25.818
792.901, 31.477
794.180, 18.120
795.459, 47.767
796.739, 32.393
798.017, 18.052
799.296, 35.706
800.575, 40.376
801.853, 35.036
803.131, 55.656
804.409, 28.268
805.686, 10.961
806.964, 46.619
808.241, 57.242
809.518, 33.903
810.795, 28.481
812.071, 71.142
813.347, 19.740
814.623, 47.577
815.899, 100.464
817.175, 77.820
818.450, 98.483
819.726, 95.891
821.001, 128.537
822.275, 198.202
823.550, 229.866
824.824, 283.531
826.098, 222.197
827.372, 186.863
828.646, 257.530
829.920, 276.197
831.193, 409.864
832.466, 623.532
833.739, 1036.201
835.011, 2061.870
836.284, 3502.539
837.556, 4670.209
838.828, 4007.880
840.100, 2192.552
841.371, 1148.230
842.642, 618.908
843.914, 369.587
845.184, 243.266
846.455, 158.946
847.726, 126.627
848.996, 96.309
850.266, 55.992
851.536, 58.676
852.805, 59.361
854.075, 34.022
855.344, 43.709
856.613, 42.398
857.881, 66.099
859.150, 42.790
860.418, 15.458
861.686, 32.114
862.954, 19.811
864.222, 9.517
865.489, 12.235
866.756, 14.946
868.023, 29.675
869.290, 3.590
870.557, 0.856
871.823, 18.888
873.089, 5.357
874.355, 57.366
875.621, 3.878
876.886, 7.886
878.152, 34.657
879.417, 9.430
880.682, 28.203
881.946, 6.994
883.211, 15.790
884.475, 15.414
885.739, 11.610
887.003, 5.191
888.266, 26.995
889.530, 21.800
890.793, 29.405
892.056, 58.409
893.318, 22.215
894.581, 8.021
895.843, 1.171
897.105, 45.638
898.367, 25.449
899.629, 17.264
900.890, 17.078
902.152, 7.878
903.413, 45.692
904.673, 6.493
905.934, 0.680
907.194, 35.133
908.454, 21.947
909.714, 44.768
910.974, 23.590
912.234, 8.346
913.493, 32.173
914.752, 24.996
916.011, 31.822
917.270, 19.648
918.528, 33.477
919.786, 51.306
921.044, 8.137
922.302, 39.969
923.560, 25.800
924.817, 5.626
926.074, 3.545
927.331, 37.282
928.588, 18.108
929.844, 61.934
931.101, 25.282
932.357, 29.106
933.613, 1.642
934.868, 9.463
936.124, 43.284
937.379, 5.104
938.634, 35.927
939.889, 63.749
941.144, 8.431
942.398, 45.392
943.652, 34.213
944.906, 38.033
946.160, 55.859
947.414, 67.685
948.667, 31.511
949.920, 16.343
951.173, 10.174
952.426, 25.011
953.678, 26.846
954.931, 23.176
956.183, 5.513
957.435, 16.344
958.686, 30.173
959.938, 30.000
961.189, 49.826
962.440, 29.655
963.691, 42.483
964.941, 49.309
966.192, 53.136
967.442, 11.965
968.692, 38.798
969.942, 36.628
971.191, 63.458
972.441, 37.285
973.690, 22.110
974.939, 65.933
976.187, 41.753
977.436, 36.571
978.684, 30.387
979.932, 41.200
981.180, 41.011
982.428, 44.839
983.675, 36.664
984.922, 63.476
986.169, 47.276
987.416, 39.093
988.663, 63.016
989.909, 31.812
991.155, 53.800
992.401, 41.587
993.647, 85.371
994.893, 72.242
996.138, 83.020
997.383, 78.892
998.628, 73.755
999.873, 93.547
1001.117, 96.512
1002.362, 41.371
1003.606, 123.130
1004.850, 66.043
1006.093, 92.187
1007.337, 87.731
1008.580, 50.672
1009.823, 114.413
1011.066, 97.208
1012.308, 101.968
1013.551, 130.882
1014.793, 68.577
1016.035, 92.658
1017.277, 120.215
1018.518, 126.267
1019.760, 77.985
1021.001, 108.876
1022.242, 148.178
1023.483, 181.927
1024.723, 109.781
1025.964, 192.404
1027.204, 179.768
1028.444, 332.789
1029.683, 458.589
1030.923, 415.284
1032.162, 303.160
1033.401, 246.007
1034.640, 260.170
1035.879, 314.666
1037.117, 315.061
1038.355, 388.815
1039.593, 463.524
1040.831, 414.252
1042.069, 597.961
1043.306, 702.797
1044.544, 911.632
1045.781, 1265.452
1047.017, 1646.283
1048.254, 2847.930
1049.490, 5642.537
1050.726, 20045.162
1051.962, 54803.773
1053.198, 59102.402
1054.434, 34210.891
1055.669, 12529.475
1056.904, 4692.475
1058.139, 2318.026
1059.374, 1381.647
1060.608, 864.240
1061.843, 712.809
1063.077, 522.377
1064.311, 432.954
1065.544, 403.525
1066.778, 352.643
1068.011, 364.274
1069.244, 315.150
1070.477, 277.559
1071.710, 250.074
1072.942, 229.541
1074.174, 199.021
1075.406, 226.333
1076.638, 179.880
1077.870, 192.352
1079.101, 179.781
1080.332, 133.238
1081.563, 157.655
1082.794, 133.042
1084.025, 157.719
1085.255, 139.117
1086.485, 118.425
1087.715, 151.810
1088.945, 193.188
1090.175, 134.869
1091.404, 154.233
1092.633, 117.597
1093.862, 137.548
1095.091, 134.454
1096.319, 111.837
1097.548, 140.853
1098.776, 122.173
1100.004, 132.475
1101.231, 156.781
1102.459, 104.079
1103.686, 144.369
1104.913, 144.619
1106.140, 118.968
1107.367, 152.235
1108.593, 100.495
1109.819, 119.934
1111.046, 108.179
1112.271, 80.416
1113.497, 134.699
1114.722, 76.921
1115.948, 87.121
1117.173, 73.327
1118.398, 62.525
1119.622, 85.715
1120.847, 89.897
1122.071, 115.072
1123.295, 117.238
1124.519, 101.141
1125.742, 94.082
1126.966, 61.691
1128.189, 56.826
1129.412, 51.953
1130.635, 52.072
1131.857, 54.183
1133.080, 65.286
1134.302, 51.381
1135.524, 27.468
1136.746, 54.546
1137.967, 2.384
1139.188, 75.667
1140.410, 76.711
1141.631, 32.746
1142.851, 65.773
1144.072, 30.793
1145.292, 31.803
1146.512, 47.805
1147.732, 19.799
1148.952, 29.783
1150.172, 55.759
1151.391, 21.726
1152.610, 11.685
1153.829, 29.368
1155.048, 18.547
1156.266, 59.453
1157.484, 37.351
1158.702, 44.241
1159.920, 18.123
1161.138, 33.004
1162.356, 10.835
1163.573, 15.336
1164.790, 7.531
1166.007, 22.255
1167.224, 21.968
1168.440, 28.217
1169.656, 27.595
1170.872, 16.217
1172.088, 20.079
1173.304, 14.401
1174.519, 8.256
1175.735, 16.903
1176.950, 52.459
1178.165, 7.863
1179.379, 11.716
1180.594, 40.715
1181.808, 5.823
1183.022, 1.647
1184.236, 13.869
1185.449, 20.377
1186.663, 14.483
1187.876, 16.418
1189.089, 6.855
1190.302, 6.331
1191.515, 4.798
1192.727, 5.257
1193.939, 20.706
1195.151, 28.149
1196.363, 21.585
1197.575, 22.506
1198.786, 16.109
1199.997, 3.855
1201.208, 13.265
1202.419, 1.331
1203.630, 26.062
1204.840, 7.450
1206.051, 11.873
1207.261, 16.208
1208.470, 14.578
1209.680, 9.943
1210.889, 9.248
1212.099, 6.344
1213.308, 1.016
1214.516, 4.089
1215.725, 1.331
1216.933, 10.994
1218.142, 20.315
1219.350, 10.632
1220.557, 41.946
1221.765, 0.257
1222.972, 9.564
1224.180, 44.868
1225.387, 9.170
1226.593, 43.470
1227.800, 12.771
1229.006, 4.929
1230.213, 43.367
1231.419, 16.336
1232.624, 23.949
1233.830, 31.229
1235.035, 29.505
1236.241, 37.743
1237.446, 7.981
1238.650, 28.794
1239.855, 12.591
1241.059, 0.397
1242.264, 31.210
1243.468, 29.964
1244.671, 36.873
1245.875, 12.274
1247.078, 38.416
1248.282, 16.552
1249.485, 63.683
1250.687, 3.193
1251.890, 31.926
1253.092, 11.040
1254.295, 26.852
1255.497, 52.245
1256.699, 62.337
1257.900, 3.577
1259.102, 56.504
1260.303, 16.580
1261.504, 54.650
1262.705, 1.716
1263.905, 14.776
1265.106, 59.832
1266.306, 62.883
1267.506, 38.929
1268.706, 97.971
1269.905, 62.008
1271.105, 70.041
1272.304, 67.070
1273.503, 41.095
1274.702, 66.097
1275.900, 91.097
1277.099, 41.103
1278.297, 71.115
1279.495, 70.106
1280.693, 48.985
1281.891, 96.986
1283.088, 45.791
1284.285, 68.791
1285.482, 77.790
1286.679, 61.697
1287.876, 114.692
1289.072, 81.590
1290.268, 33.491
1291.464, 125.459
1292.660, 68.250
1293.856, 128.143
1295.051, 153.131
1296.247, 78.962
1297.442, 140.558
1298.637, 129.749
1299.831, 105.540
1301.026, 146.525
1302.220, 103.454
1303.414, 116.414
1304.608, 150.215
1305.802, 141.231
1306.995, 218.858
1308.188, 145.005
1309.381, 132.655
1310.574, 206.530
1311.767, 177.299
1312.960, 158.690
1314.152, 216.460
1315.344, 192.296
1316.536, 208.244
1317.728, 196.566
1318.919, 169.230
1320.110, 211.114
1321.301, 170.102
1322.492, 187.909
1323.683, 225.745
1324.874, 187.533
1326.064, 184.214
1327.254, 162.499
1328.444, 124.430
1329.634, 190.409
1330.823, 213.370
1332.013, 155.353
1333.202, 253.210
1334.391, 203.073
1335.580, 182.902
1336.768, 238.776
1337.956, 201.839
1339.145, 220.947
1340.333, 258.043
1341.520, 217.158
1342.708, 369.263
1343.895, 354.253
1345.083, 332.382
1346.270, 430.144
1347.456, 355.365
1348.643, 420.529
1349.829, 610.734
1351.016, 571.980
1352.202, 746.244
1353.387, 769.515
1354.573, 847.811
1355.759, 1083.579
1356.944, 1119.855
1358.129, 1199.224
1359.314, 1403.455
1360.498, 1398.925
1361.683, 1603.477
1362.867, 1805.031
1364.051, 1826.672
1365.235, 2117.258
1366.419, 2392.966
1367.602, 2572.771
1368.785, 2981.611
1369.968, 3356.237
1371.151, 3554.260
1372.334, 3883.158
1373.517, 3817.315
1374.699, 3836.095
1375.881, 3628.146
1377.063, 3122.458
1378.245, 2948.842
1379.426, 2479.228
1380.608, 2127.477
1381.789, 1799.367
1382.970, 1469.343
1384.150, 1262.241
1385.331, 1117.215
1386.511, 897.895
1387.691, 826.798
1388.871, 727.760
1390.051, 552.723
1391.231, 587.685
1392.410, 489.649
1393.589, 387.613
1394.768, 408.578
1395.947, 364.545
1397.126, 291.514
1398.304, 362.484
1399.483, 267.457
1400.661, 366.445
1401.838, 270.436
1403.016, 280.431
1404.194, 298.429
1405.371, 259.434
1406.548, 279.442
1407.725, 328.475
1408.901, 289.530
1410.078, 327.590
1411.254, 382.673
1412.430, 298.794
1413.606, 342.949
1414.782, 343.153
1415.958, 330.385
1417.133, 370.662
1418.308, 318.964
1419.483, 333.334
1420.658, 409.748
1421.832, 326.204
1423.007, 310.680
1424.181, 384.173
1425.355, 308.684
1426.529, 345.216
1427.702, 312.765
1428.876, 237.327
1430.049, 296.906
1431.222, 256.503
1432.395, 249.118
1433.567, 248.745
1434.740, 192.385
1435.912, 195.041
1437.084, 279.714
1438.256, 173.400
1439.428, 282.091
1440.599, 223.785
1441.770, 176.478
1442.942, 259.158
1444.112, 271.822
1445.283, 232.480
1446.454, 314.180
1447.624, 261.959
1448.794, 356.829
1449.964, 326.754
1451.134, 286.732
1452.303, 407.766
1453.473, 397.844
1454.642, 358.968
1455.811, 508.141
1456.980, 503.366
1458.148, 460.646
1459.317, 584.982
1460.485, 539.379
1461.653, 627.839
1462.821, 731.365
1463.989, 587.959
1465.156, 714.623
1466.323, 711.358
1467.490, 691.164
1468.657, 858.042
1469.824, 813.994
1470.991, 752.023
1472.157, 878.133
1473.323, 792.330
1474.489, 858.617
1475.655, 908.001
1476.820, 702.490
1477.986, 814.091
1479.151, 771.815
1480.316, 596.676
1481.481, 643.687
1482.645, 582.849
1483.810, 476.172
1484.974, 497.664
1486.138, 409.337
1487.302, 327.205
1488.465, 361.280
1489.629, 251.578
1490.792, 264.116
1491.955, 245.916
1493.118, 95.000
1494.281, 146.396
1495.443, 174.136
1496.606, 66.256
1497.768, 139.798
1498.930, 32.807
1500.091, 27.337
1501.253, 94.452
1502.414, 61.231
1503.575, 28.772
1504.736, 43.192
1505.897, 21.641
1507.058, 13.318
1508.218, 39.431
1509.379, 6.659
1510.539, 56.470
1511.698, 47.373
1512.858, 12.554
1514.018, 0.000
##END=



