##NAMES=Cerussite
##RRUFFID=R050298
##IDEAL CHEMISTRY=Pb^2+^CO_3_
##LOCALITY=Bunker Hill mine, Shoshone County, Idaho, USA
##OWNER=RRUFF
##SOURCE=Eugene Schlepp
##DESCRIPTION=Group of colorless tabular crystals
##STATUS=The identification of this mineral has been confirmed by X-ray diffraction and chemical analysis
##URL=rruff.info/R050298
##MEASURED CHEMISTRY=Pb_1.00_CO_3_
##PIN_ID=L01888
##ORIENTATION=Laser parallel to b* (0 1 0). Fiducial mark perpendicular to laser is parallel to -c [0 0 -1]
51.43100, 0.0000000E+00
52.67100, 7.771881
53.91000, 30.16663
55.14900, 37.56812
56.38700, 65.31143
57.62600, 46.63480
58.86400, 12.94034
60.10300, 4.889709
61.34100, 10.64151
62.57900, 9.622131
63.81700, 1.848938
65.05400, 5.157837
66.29200, 24.27631
67.52900, 46.42261
68.76700, 71.44269
70.00400, 91.32172
71.24100, 109.9694
72.47700, 107.3203
73.71400, 152.3151
74.95100, 204.9012
76.18700, 251.0335
77.42300, 328.6725
78.65900, 358.7841
79.89500, 439.3381
81.13100, 488.3077
82.36700, 574.6688
83.60200, 697.3995
84.83700, 799.9071
86.07200, 882.8926
87.30800, 1070.621
88.54200, 1235.651
89.77700, 1394.961
91.01200, 1661.526
92.24600, 1791.327
93.48000, 1945.346
94.71400, 2179.572
95.94800, 2290.993
97.18200, 2473.603
98.41600, 2731.395
99.64900, 3120.362
100.8830, 3509.501
102.1160, 3895.805
103.3490, 4410.272
104.5820, 4837.897
105.8150, 5016.673
107.0470, 4992.598
108.2800, 4726.669
109.5120, 4164.879
110.7440, 3630.226
111.9760, 3221.706
113.2080, 2984.316
114.4400, 2900.051
115.6710, 2796.909
116.9030, 2849.887
118.1340, 2918.981
119.3650, 3002.187
120.5960, 3189.346
121.8270, 3416.618
123.0580, 3683.468
124.2880, 4056.123
125.5190, 4463.864
126.7490, 4926.609
127.9790, 5689.360
129.2090, 6550.130
130.4390, 7321.907
131.6680, 8222.695
132.8980, 8772.518
134.1270, 9342.378
135.3560, 9558.280
136.5850, 9189.230
137.8140, 8854.227
139.0430, 8170.276
140.2710, 7439.404
141.5000, 6878.583
142.7280, 6021.833
143.9560, 5557.157
145.1840, 5105.548
146.4120, 4769.000
147.6390, 4372.526
148.8670, 4144.120
150.0940, 3821.782
151.3210, 3738.521
152.5490, 3464.336
153.7750, 3281.202
155.0020, 3077.133
156.2290, 2872.121
157.4550, 2632.189
158.6810, 2369.310
159.9080, 2275.484
161.1340, 2113.711
162.3590, 2037.004
163.5850, 1834.352
164.8110, 1747.747
166.0360, 1691.186
167.2610, 1599.681
168.4860, 1577.226
169.7110, 1439.820
170.9360, 1446.461
172.1610, 1439.161
173.3850, 1373.906
174.6100, 1400.692
175.8340, 1306.520
177.0580, 1354.404
178.2820, 1252.329
179.5050, 1217.293
180.7290, 1201.299
181.9520, 1203.342
183.1760, 1169.422
184.3990, 1150.543
185.6220, 1153.693
186.8450, 1089.883
188.0670, 1026.245
189.2900, 986.5033
190.5120, 984.7961
191.7340, 954.1335
192.9560, 968.6814
194.1780, 944.0791
195.4000, 903.5156
196.6220, 902.9741
197.8430, 893.9604
199.0640, 898.3118
200.2860, 793.3289
201.5070, 866.4565
202.7270, 808.7341
203.9480, 809.0415
205.1690, 847.3291
206.3890, 801.5747
207.6090, 715.3551
208.8290, 697.3599
210.0490, 671.7754
211.2690, 707.5613
212.4890, 657.5045
213.7080, 628.9225
214.9280, 607.0052
216.1470, 592.2664
217.3660, 574.8871
218.5850, 532.0330
219.8030, 554.4307
221.0220, 536.3915
222.2400, 531.9266
223.4590, 558.5261
224.6770, 523.5618
225.8950, 541.2834
227.1120, 477.0875
228.3300, 522.9229
229.5480, 454.8115
230.7650, 465.9980
231.9820, 480.4203
233.1990, 423.4658
234.4160, 479.6587
235.6330, 452.5057
236.8490, 389.2251
238.0660, 428.1537
239.2820, 358.4226
240.4980, 332.1665
241.7140, 393.6973
242.9300, 361.6632
244.1460, 384.0911
245.3610, 389.4299
246.5770, 324.9343
247.7920, 356.3623
249.0070, 325.8191
250.2220, 317.7003
251.4370, 358.7581
252.6510, 316.4318
253.8660, 291.1384
255.0800, 277.9446
256.2940, 268.1855
257.5080, 233.3774
258.7220, 242.6000
259.9360, 231.4905
261.1490, 247.0109
262.3630, 233.9673
263.5760, 225.9124
264.7890, 222.8851
266.0020, 196.8828
267.2150, 201.9429
268.4270, 227.9890
269.6400, 175.0586
270.8520, 207.9048
272.0640, 169.0226
273.2760, 190.7705
274.4880, 125.3313
275.7000, 183.5171
276.9120, 159.7252
278.1230, 168.9554
279.3340, 131.2079
280.5450, 161.3336
281.7560, 110.9415
282.9670, 114.2969
284.1780, 136.5599
285.3880, 107.9198
286.5980, 143.3351
287.8090, 111.8069
289.0190, 88.94409
290.2290, 103.5693
291.4380, 109.0414
292.6480, 113.9041
293.8570, 106.4110
295.0670, 101.9563
296.2760, 90.50024
297.4850, 29.06177
298.6930, 53.90198
299.9020, 118.9041
301.1110, 66.52063
302.3190, 64.33337
303.5270, 81.10938
304.7350, 41.77405
305.9430, 35.45422
307.1510, 66.41870
308.3580, 53.13147
309.5660, 14.85889
310.7730, 66.60059
311.9800, 33.35681
313.1870, 33.12830
314.3940, 44.92676
315.6010, 50.81360
316.8070, 65.63647
318.0130, 40.46216
319.2200, 34.30054
320.4260, 10.17261
321.6310, 9.963501
322.8370, 97.91309
324.0430, 50.80151
325.2480, 49.70166
326.4540, 51.61304
327.6590, 12.53638
328.8640, 0.4709470
330.0680, 11.95801
331.2730, 0.9284670
332.4780, 11.11658
333.6820, 1.861328
334.8860, 30.84924
336.0900, 6.847168
337.2940, 36.40845
338.4980, 11.60303
339.7010, 11.62390
340.9050, 21.35071
342.1080, 0.3186040
343.3110, 22.71985
344.5140, 23.77795
345.7170, 12.85706
346.9200, 8.042969
348.1220, 10.86816
349.3240, 5.226929
350.5270, 37.07092
351.7290, 12.09668
352.9310, 4.286377
354.1320, 18.49695
355.3340, 0.7265630
356.5350, 2.026855
357.7370, 15.76428
358.9380, 12.50989
360.1390, 4.200073
361.3400, 10.10376
362.5400, 7.577271
363.7410, 31.82996
364.9410, 15.82495
366.1410, 9.529053
367.3410, 32.91296
368.5410, 11.70667
369.7410, 19.76465
370.9400, 47.79065
372.1400, 12.60510
373.3390, 3.012817
374.5380, 6.545288
375.7370, 33.74023
376.9360, 5.685669
378.1350, 25.87793
379.3330, 16.88403
380.5310, 12.44336
381.7300, 15.99695
382.9280, 32.45276
384.1260, 9.032837
385.3230, 25.20837
386.5210, 11.74512
387.7180, 62.72119
388.9160, 37.75610
390.1130, 27.51038
391.3100, 17.01477
392.5060, 16.54016
393.7030, 24.05493
394.9000, 26.52100
396.0960, 7.161133
397.2920, 13.98779
398.4880, 4.552612
399.6840, 4.922607
400.8800, 23.36877
402.0750, 6.111694
403.2710, 36.59753
404.4660, 33.90686
405.6610, 14.93274
406.8560, 15.56274
408.0510, 17.49841
409.2450, 51.98596
410.4400, 13.51831
411.6340, 26.97021
412.8280, 13.46387
414.0220, 26.03735
415.2160, 16.05994
416.4100, 3.221436
417.6030, 1.270142
418.7970, 28.76184
419.9900, 35.25818
421.1830, 26.75879
422.3760, 41.26746
423.5690, 6.219849
424.7610, 5.302246
425.9540, 14.81262
427.1460, 6.666748
428.3380, 28.84827
429.5300, 16.38501
430.7220, 14.97778
431.9140, 1.453369
433.1050, 9.697388
434.2970, 20.01599
435.4880, 6.786621
436.6790, 55.59766
437.8700, 21.19250
439.0610, 24.78857
440.2510, 47.31592
441.4420, 12.47229
442.6320, 10.74548
443.8220, 26.77258
445.0120, 16.29224
446.2020, 18.81165
447.3910, 37.33179
448.5810, 33.17725
449.7700, 14.82898
450.9600, 46.41101
452.1490, 41.93469
453.3370, 52.20032
454.5260, 31.02527
455.7150, 50.87720
456.9030, 29.40430
458.0910, 24.93188
459.2800, 30.62805
460.4670, 47.15552
461.6550, 44.68335
462.8430, 31.21155
464.0300, 57.93420
465.2180, 54.75745
466.4050, 45.14490
467.5920, 64.67346
468.7790, 53.20215
469.9650, 38.83496
471.1520, 51.41602
472.3380, 13.94690
473.5250, 79.75305
474.7110, 76.32166
475.8970, 46.97058
477.0820, 80.49036
478.2680, 117.0112
479.4540, 10.53162
480.6390, 78.05859
481.8240, 46.57312
483.0090, 62.08691
484.1940, 66.11658
485.3780, 76.97290
486.5630, 115.1364
487.7470, 97.65417
488.9320, 79.17078
490.1160, 36.54370
491.3000, 17.84070
492.4830, 111.2587
493.6670, 58.03528
494.8500, 103.5396
496.0340, 117.0419
497.2170, 52.54248
498.4000, 66.03381
499.5820, 79.48682
500.7650, 67.55688
501.9480, 113.0548
503.1300, 70.45044
504.3120, 72.93811
505.4940, 38.22864
506.6760, 53.71033
507.8580, 56.69653
509.0390, 43.94312
510.2210, 56.64648
511.4020, 38.75342
512.5830, 42.22034
513.7640, 45.65942
514.9450, 80.20947
516.1250, 6.747681
517.3060, 23.95215
518.4860, 70.96594
519.6660, 112.4041
520.8460, 16.73828
522.0260, 59.58325
523.2060, 52.75171
524.3850, 59.53259
525.5650, 38.15051
526.7440, 22.13025
527.9230, 47.43555
529.1020, 59.26343
530.2810, 37.66406
531.4590, 7.186890
532.6380, 81.57349
533.8160, 68.06812
534.9940, 39.56519
536.1720, 32.66833
537.3500, 22.62390
538.5270, 17.21228
539.7050, 17.64771
540.8820, 34.63196
542.0590, 31.50330
543.2360, 72.44958
544.4130, 52.73242
545.5900, 39.05786
546.7660, 10.37927
547.9430, 33.65625
549.1190, 10.96716
550.2950, 45.27075
551.4710, 37.57104
552.6470, 64.83032
553.8220, 43.12402
554.9980, 40.45007
556.1730, 5.014526
557.3480, 18.35181
558.5230, 37.01782
559.6980, 41.89014
560.8730, 47.21472
562.0470, 39.47766
563.2220, 38.82434
564.3960, 38.95227
565.5700, 33.50342
566.7440, 38.15271
567.9170, 34.92053
569.0910, 43.76392
570.2640, 35.90527
571.4380, 30.10559
572.6110, 32.27344
573.7840, 18.93030
574.9570, 19.89465
576.1290, 17.10071
577.3020, 8.069824
578.4740, 28.12500
579.6460, 28.29590
580.8180, 79.48206
581.9900, 3.664673
583.1620, 16.57959
584.3330, 62.34497
585.5040, 47.50891
586.6760, 59.48938
587.8470, 79.64990
589.0180, 62.80322
590.1880, 7.204346
591.3590, 28.07947
592.5290, 47.21716
593.7000, 80.35132
594.8700, 30.48193
596.0400, 11.60828
597.2090, 36.72827
598.3790, 39.83154
599.5490, 19.85632
600.7180, 60.95959
601.8870, 40.06934
603.0560, 66.17542
604.2250, 18.25671
605.3940, 13.35376
606.5620, 51.44531
607.7300, 62.53333
608.8990, 67.63635
610.0670, 24.75623
611.2350, 29.83228
612.4020, 34.90649
613.5700, 12.43298
614.7370, 29.49487
615.9050, 11.55298
617.0720, 65.60559
618.2390, 63.65466
619.4060, 76.70020
620.5720, 52.55579
621.7390, 50.60034
622.9050, 58.64160
624.0710, 41.67908
625.2370, 93.90845
626.4030, 104.9777
627.5690, 72.51965
628.7340, 68.54529
629.9000, 114.5671
631.0650, 53.53064
632.2300, 82.06702
633.3950, 4.081177
634.5600, 98.09668
635.7240, 75.10583
636.8890, 62.11133
638.0530, 71.11316
639.2170, 63.11145
640.3810, 67.10657
641.5450, 37.10034
642.7080, 63.09033
643.8720, 91.07727
645.0350, 44.06067
646.1980, 40.96558
647.3610, 54.94287
648.5240, 69.91931
649.6870, 68.87537
650.8490, 35.84473
652.0120, 87.73035
653.1740, 81.65381
654.3360, 23.62646
655.4980, 24.59497
656.6600, 58.55835
657.8210, 79.14380
658.9830, 74.49072
660.1440, 49.45496
661.3050, 17.86853
662.4660, 6.838013
663.6270, 24.80444
664.7870, 11.46960
665.9480, 44.67761
667.1080, 22.27832
668.2680, 43.24023
669.4280, 58.20190
670.5880, 55.11279
671.7480, 76.27661
672.9070, 93.23743
674.0670, 188.1992
675.2260, 154.1511
676.3850, 244.0557
677.5440, 229.8105
678.7030, 106.4249
679.8610, 124.3055
681.0200, 122.2292
682.1780, 324.1257
683.3360, 577.0929
684.4940, 720.0579
685.6520, 543.0164
686.8090, 326.4910
687.9670, 160.4425
689.1240, 57.95691
690.2810, 100.9224
691.4380, 68.88257
692.5950, 60.84766
693.7520, 17.81067
694.9080, 55.77039
696.0650, 18.12610
697.2210, 29.86255
698.3770, 51.82532
699.5330, 17.78760
700.6880, 42.74707
701.8440, 11.29578
702.9990, 39.65173
704.1550, 7.604248
705.3100, 4.547729
706.4650, 14.50159
707.6190, 20.55420
708.7740, 26.61389
709.9290, 37.29736
711.0830, 94.15332
712.2370, 62.03357
713.3910, 13.72412
714.5450, 32.45251
715.6980, 52.12366
716.8520, 39.75330
718.0050, 47.59924
719.1580, 55.44434
720.3110, 61.35828
721.4640, 33.64343
722.6170, 34.30151
723.7700, 57.21753
724.9220, 48.13171
726.0740, 5.044922
727.2260, 61.95605
728.3780, 1.134521
729.5300, 48.31885
730.6810, 65.16455
731.8330, 50.06787
732.9840, 49.96960
734.1350, 55.27563
735.2860, 53.20886
736.4370, 57.29980
737.5880, 57.25891
738.7380, 52.28638
739.8880, 40.17981
741.0390, 50.07141
742.1890, 25.96155
743.3380, 33.04199
744.4880, 58.26233
745.6380, 34.14844
746.7870, 19.03308
747.9360, 14.04895
749.0850, 70.72400
750.2340, 22.55139
751.3830, 71.41980
752.5310, 76.01660
753.6800, 59.84375
754.8280, 62.42334
755.9760, 43.30444
757.1240, 50.40918
758.2720, 7.559204
759.4190, 62.31458
760.5670, 73.23694
761.7140, 79.10681
762.8610, 18.01270
764.0080, 12.84473
765.1550, 7.275146
766.3020, 62.57520
767.4480, 21.42456
768.5950, 46.41052
769.7410, 15.25830
770.8870, 28.61646
772.0330, 19.50635
773.1780, 41.51184
774.3240, 48.35815
775.4690, 26.20386
776.6140, 26.04846
777.7590, 23.89246
778.9040, 38.73547
780.0490, 76.57227
781.1940, 72.41382
782.3380, 38.25464
783.4820, 75.09485
784.6260, 53.93481
785.7700, 64.77405
786.9140, 45.61267
788.0580, 49.45081
789.2010, 56.31018
790.3450, 71.61792
791.4880, 47.57581
792.6310, 49.32275
793.7730, 13.09753
794.9160, 47.93701
796.0590, 6.222412
797.2010, 32.96619
798.3430, 55.85315
799.4850, 22.56628
800.6270, 37.12378
801.7690, 33.66541
802.9100, 69.55505
804.0520, 41.39087
805.1930, 64.14990
806.3340, 87.98633
807.4750, 69.82214
808.6160, 38.65771
809.7560, 36.49634
810.8970, 58.33435
812.0370, 84.17188
813.1770, 60.67371
814.3170, 98.51074
815.4570, 102.3481
816.5960, 131.1868
817.7360, 112.0338
818.8750, 145.8804
820.0140, 161.7268
821.1530, 131.5729
822.2920, 165.4185
823.4310, 177.2634
824.5690, 273.1102
825.7070, 360.9565
826.8460, 287.8046
827.9840, 282.6520
829.1220, 237.4990
830.2590, 324.3728
831.3970, 409.1521
832.5340, 453.9976
833.6710, 643.7865
834.8080, 935.6350
835.9450, 1383.483
837.0820, 2301.272
838.2190, 3737.119
839.3550, 5091.256
840.4910, 4895.803
841.6270, 3559.263
842.7630, 2083.918
843.8990, 1221.683
845.0350, 666.0023
846.1700, 436.9441
847.3060, 284.7885
848.4410, 229.6328
849.5760, 163.4771
850.7100, 63.24170
851.8450, 83.08716
852.9800, 93.93372
854.1140, 123.7855
855.2480, 101.6372
856.3820, 157.4890
857.5160, 74.34045
858.6500, 15.19446
859.7830, 95.04919
860.9170, 12.90344
862.0500, 60.75732
863.1830, 60.48010
864.3160, 48.33350
865.4480, 17.94055
866.5810, 34.48022
867.7130, 37.67297
868.8460, 43.53333
869.9780, 60.39343
871.1100, 44.25342
872.2410, 30.11438
873.3730, 0.9754640
874.5050, 22.16455
875.6360, 52.68445
876.7670, 69.53308
877.8980, 58.38147
879.0290, 38.22937
880.1590, 79.07800
881.2900, 24.92993
882.4200, 66.78162
883.5500, 4.614136
884.6800, 12.42603
885.8100, 43.28625
886.9400, 23.14392
888.0690, 34.00366
889.1990, 14.92944
890.3280, 57.80444
891.4570, 8.688599
892.5860, 44.57239
893.7140, 7.544189
894.8430, 8.786377
895.9710, 1.665161
897.1000, 28.54358
898.2280, 6.421509
899.3560, 31.10596
900.4830, 3.946533
901.6110, 47.31030
902.7380, 50.18640
903.8660, 2.937866
904.9930, 39.93640
906.1200, 21.78674
907.2460, 17.66406
908.3730, 3.460571
909.5000, 32.41882
910.6260, 58.29773
911.7520, 37.17615
912.8780, 13.05676
914.0040, 18.93665
915.1290, 22.82190
916.2550, 32.70691
917.3800, 39.59937
918.5050, 23.49121
919.6300, 37.38269
920.7550, 44.27368
921.8800, 15.16443
923.0040, 14.05493
924.1290, 2.945068
925.2530, 9.159180
926.3770, 2.214355
927.5010, 34.62073
928.6250, 4.509644
929.7480, 19.38184
930.8720, 14.27454
931.9950, 7.204590
933.1180, 18.30652
934.2410, 51.58191
935.3640, 70.47534
936.4860, 4.369263
937.6090, 67.26257
938.7310, 60.15625
939.8530, 36.04907
940.9750, 35.94153
942.0970, 12.83606
943.2180, 18.57092
944.3400, 8.517944
945.4610, 19.54175
946.5820, 12.44617
947.7030, 11.64697
948.8240, 20.25305
949.9450, 60.15222
951.0650, 67.05029
952.1860, 47.94775
953.3060, 102.8516
954.4260, 35.75439
955.5460, 115.6594
956.6650, 36.56335
957.7850, 75.46643
958.9040, 38.36841
960.0230, 61.26929
961.1420, 47.16931
962.2610, 53.07300
963.3800, 44.97559
964.4990, 4.883423
965.6170, 74.78979
966.7350, 10.70068
967.8530, 23.61060
968.9710, 43.51941
970.0890, 74.42700
971.2070, 46.33350
972.3240, 37.23889
973.4410, 3.856812
974.5580, 26.95215
975.6750, 11.90955
976.7920, 57.97180
977.9090, 22.85278
979.0250, 44.73267
980.1410, 63.61804
981.2580, 17.50989
982.3740, 111.4008
983.4890, 40.28992
984.6050, 56.17773
985.7200, 60.06445
986.8360, 52.00415
987.9510, 59.88794
989.0660, 33.77026
990.1810, 72.65088
991.2950, 59.53027
992.4100, 42.40771
993.5240, 59.28418
994.6390, 36.15869
995.7530, 72.04541
996.8660, 53.91675
997.9800, 80.78687
999.0940, 65.97461
1000.207, 9.842773
1001.320, 76.79248
1002.433, 22.65698
1003.546, 113.5403
1004.659, 119.4084
1005.772, 84.26733
1006.884, 92.16040
1007.996, 34.95215
1009.108, 45.50366
1010.220, 52.35498
1011.332, 55.20483
1012.444, 59.30957
1013.555, 58.06177
1014.666, 55.32251
1015.777, 50.16455
1016.888, 35.00464
1017.999, 22.87988
1019.110, 70.79126
1020.220, 124.6257
1021.331, 82.45776
1022.441, 5.394043
1023.551, 41.48853
1024.661, 108.2312
1025.770, 42.06128
1026.880, 105.9023
1027.989, 32.33398
1029.098, 147.1497
1030.207, 208.9429
1031.316, 230.7551
1032.425, 274.0823
1033.533, 274.2236
1034.642, 269.1604
1035.750, 245.9702
1036.858, 193.7776
1037.966, 149.4915
1039.073, 236.2935
1040.181, 192.9050
1041.288, 271.7017
1042.396, 365.8413
1043.503, 376.6331
1044.610, 444.4216
1045.716, 518.6897
1046.823, 840.4729
1047.929, 1141.559
1049.036, 1943.336
1050.142, 2977.927
1051.248, 4300.699
1052.353, 7567.468
1053.459, 15304.23
1054.564, 37123.01
1055.670, 63425.83
1056.775, 61577.59
1057.880, 35335.75
1058.985, 14378.03
1060.089, 5677.656
1061.194, 2757.399
1062.298, 1387.214
1063.402, 880.9514
1064.506, 605.9849
1065.610, 518.3660
1066.713, 355.0447
1067.817, 249.9309
1068.920, 276.6541
1070.023, 165.3533
1071.126, 185.0698
1072.229, 129.7830
1073.332, 146.4927
1074.435, 132.7788
1075.537, 89.60327
1076.639, 123.4014
1077.741, 114.3599
1078.843, 85.33423
1079.945, 135.6787
1081.046, 143.6990
1082.148, 76.38037
1083.249, 110.0581
1084.350, 69.73242
1085.451, 131.0796
1086.551, 85.74634
1087.652, 111.0396
1088.752, 127.6987
1089.853, 149.3545
1090.953, 108.0066
1092.053, 126.6545
1093.152, 111.2988
1094.252, 70.00903
1095.351, 151.6460
1096.451, 106.6841
1097.550, 123.2859
1098.649, 77.08789
1099.748, 106.7092
1100.846, 136.3264
1101.945, 45.93994
1103.043, 65.54932
1104.141, 99.15479
1105.239, 112.7563
1106.337, 114.8289
1107.434, 15.99634
1108.532, 96.82300
1109.629, 79.40747
1110.726, 55.98828
1111.823, 93.56543
1112.920, 57.13843
1114.017, 37.70801
1115.113, 81.27368
1116.210, 104.8354
1117.306, 97.39331
1118.402, 19.94775
1119.498, 78.49756
1120.593, 56.04370
1121.689, 106.5859
1122.784, 112.1245
1123.879, 75.65967
1124.974, 31.19116
1126.069, 84.71875
1127.164, 23.24268
1128.259, 74.76245
1129.353, 35.27905
1130.447, 9.208008
1131.541, 28.30493
1132.635, 15.78760
1133.729, 30.27710
1134.822, 20.76270
1135.916, 22.98804
1137.009, 33.03027
1138.102, 18.19849
1139.195, 48.66943
1140.288, 35.13721
1141.380, 36.60718
1142.473, 25.07373
1143.565, 51.53662
1144.657, 34.99634
1145.749, 1.452393
1146.841, 36.89966
1147.932, 42.34399
1149.024, 13.78467
1150.115, 22.77905
1151.206, 29.63672
1152.297, 36.04883
1153.388, 11.45752
1154.479, 42.20288
1155.569, 20.82910
1156.659, 16.52417
1157.750, 14.87427
1158.839, 27.22095
1159.929, 36.67261
1161.019, 12.90894
1162.108, 45.24829
1163.198, 54.58423
1164.287, 64.76538
1165.376, 14.24780
1166.465, 59.57520
1167.553, 36.89941
1168.642, 10.22119
1169.730, 34.53979
1170.818, 5.144531
1171.906, 32.16113
1172.994, 0.5358890
1174.082, 27.76001
1175.170, 75.05347
1176.257, 0.6557620
1177.344, 18.62793
1178.431, 14.09131
1179.518, 39.17529
1180.605, 22.56055
1181.691, 39.68530
1182.778, 70.92896
1183.864, 14.17017
1184.950, 7.408936
1186.036, 5.645020
1187.122, 26.87769
1188.207, 17.89160
1189.292, 82.32446
1190.378, 11.54004
1191.463, 38.75439
1192.548, 13.03296
1193.632, 16.16772
1194.717, 32.63354
1195.801, 28.54346
1196.886, 17.71997
1197.970, 15.10059
1199.054, 19.06641
1200.137, 24.23169
1201.221, 24.39502
1202.305, 20.29468
1203.388, 7.774902
1204.471, 7.124756
1205.554, 15.97339
1206.637, 15.83374
1207.719, 2.705811
1208.802, 3.247314
1209.884, 9.463135
1210.966, 10.64819
1212.048, 7.760986
1213.130, 12.87256
1214.212, 14.98315
1215.293, 26.90796
1216.374, 5.185059
1217.456, 10.72290
1218.536, 38.36182
1219.617, 11.44531
1220.698, 18.52783
1221.778, 92.60962
1222.859, 13.68994
1223.939, 19.22998
1225.019, 77.83911
1226.099, 25.09229
1227.178, 73.96289
1228.258, 21.98242
1229.337, 29.06104
1230.417, 21.10352
1231.496, 35.14575
1232.574, 35.18774
1233.653, 8.229004
1234.732, 22.26978
1235.810, 14.31055
1236.888, 10.35229
1237.966, 3.247070
1239.044, 42.29907
