##NAMES=Cerussite
##RRUFFID=R040069
##IDEAL CHEMISTRY=Pb^2+^CO_3_
##LOCALITY=Broken Hill, New South Wales, Australia
##OWNER=RRUFF
##SOURCE=University of Arizona Mineral Museum
##DESCRIPTION=Reticulated composite of colorless tabular crystals
##STATUS=The identification of this mineral has been confirmed by X-ray diffraction and chemical analysis
##URL=rruff.info/R040069
##MEASURED CHEMISTRY=Pb_1.04_C_0.98_O_3_
##PIN_ID=M00046
##ORIENTATION=Laser parallel to -c* (0 0 -1). Fiducial mark perpendicular to laser is parallel to a [1 0 0]
83.170, 0.000
84.569, 18.143
85.968, 12.229
87.367, 99.287
88.765, 209.945
90.163, 318.484
91.561, 456.313
92.959, 516.419
94.356, 695.112
95.753, 743.889
97.150, 918.380
98.547, 1091.310
99.943, 1238.471
101.340, 1368.695
102.736, 1594.839
104.132, 1742.783
105.527, 1880.421
106.923, 2176.666
108.318, 2549.446
109.713, 3077.708
111.107, 3665.422
112.502, 4110.555
113.896, 4558.077
115.290, 4767.956
116.684, 4904.163
118.077, 4806.666
119.471, 4628.435
120.864, 4207.438
122.257, 3966.646
123.649, 3707.029
125.042, 3463.568
126.434, 3466.246
127.826, 3240.048
129.218, 3215.965
130.609, 2954.988
132.001, 2709.107
133.392, 2432.325
134.782, 2127.680
136.173, 1916.216
137.564, 1560.947
138.954, 1414.820
140.344, 1206.848
141.733, 1082.008
143.123, 1034.294
144.512, 949.665
145.901, 893.131
147.290, 805.710
148.679, 808.365
150.067, 752.049
151.455, 688.745
152.843, 642.467
154.231, 568.216
155.618, 523.961
157.005, 457.697
158.392, 408.399
159.779, 392.031
161.166, 345.613
162.552, 343.161
163.938, 309.677
165.324, 331.165
166.710, 304.639
168.095, 330.101
169.480, 389.563
170.865, 359.019
172.250, 398.466
173.635, 394.908
175.019, 447.347
176.403, 425.844
177.787, 470.268
179.171, 437.687
180.554, 397.235
181.937, 436.635
183.320, 419.566
184.703, 444.640
186.086, 424.602
187.468, 490.016
188.850, 522.418
190.232, 603.709
191.614, 636.101
192.995, 693.567
194.376, 731.106
195.757, 804.705
197.138, 861.122
198.518, 927.967
199.899, 1033.376
201.279, 1167.924
202.659, 1256.316
204.038, 1419.928
205.418, 1461.454
206.797, 1678.480
208.176, 1734.462
209.554, 1886.978
210.933, 2013.859
212.311, 2103.709
213.689, 2133.281
215.067, 2098.955
216.445, 2112.011
217.822, 2138.456
219.199, 2093.279
220.576, 2150.511
221.953, 2097.416
223.330, 2105.962
224.706, 1986.352
226.082, 1985.818
227.458, 1888.949
228.833, 1664.273
230.209, 1555.501
231.584, 1352.575
232.959, 1208.691
234.334, 1054.623
235.708, 937.496
237.082, 916.639
238.456, 742.039
239.830, 712.483
241.204, 628.910
242.577, 541.389
243.951, 500.772
245.323, 451.285
246.696, 458.899
248.069, 365.804
249.441, 368.677
250.813, 286.448
252.185, 264.644
253.557, 258.939
254.928, 186.956
256.299, 206.973
257.670, 119.025
259.041, 112.928
260.411, 126.814
261.782, 73.818
263.152, 64.857
264.522, 29.930
265.891, 13.174
267.261, 4.953
268.630, 13.938
269.999, 13.735
271.368, 28.750
272.736, 41.772
274.104, 14.669
275.473, 18.487
276.840, 9.705
278.208, 14.202
279.576, 11.004
280.943, 22.229
282.310, 3.427
283.677, 16.740
285.043, 15.769
286.409, 33.042
287.776, 24.302
289.141, 15.623
290.507, 54.020
291.873, 26.508
293.238, 41.951
294.603, 31.459
295.968, 63.700
297.332, 20.221
298.697, 46.618
300.061, 34.137
301.425, 24.617
302.788, 6.148
304.152, 41.777
305.515, 33.414
306.878, 38.131
308.241, 48.752
309.603, 49.569
310.966, 35.326
312.328, 11.094
313.690, 37.988
315.052, 26.907
316.413, 36.853
317.774, 32.782
319.136, 35.681
320.496, 28.706
321.857, 17.757
323.217, 19.477
324.578, 14.854
325.938, 18.943
327.297, 22.096
328.657, 29.206
330.016, 52.414
331.375, 33.629
332.734, 41.841
334.093, 28.153
335.451, 54.445
336.810, 29.807
338.168, 14.241
339.525, 32.712
340.883, 10.220
342.240, 26.763
343.597, 14.655
344.954, 13.944
346.311, 13.570
347.668, 4.265
349.024, 2.008
350.380, 4.241
351.736, 4.643
353.091, 13.119
354.447, 14.970
355.802, 10.764
357.157, 1.711
358.512, 11.696
359.866, 14.593
361.221, 25.497
362.575, 5.437
363.928, 1.391
365.282, 7.362
366.636, 3.785
367.989, 11.175
369.342, 8.086
370.695, 18.819
372.047, 6.447
373.400, 18.392
374.752, 2.810
376.104, 11.811
377.455, 8.405
378.807, 34.043
380.158, 4.596
381.509, 29.202
382.860, 22.844
384.211, 16.395
385.561, 22.910
386.911, 36.365
388.261, 41.807
389.611, 79.210
390.961, 65.756
392.310, 56.120
393.659, 23.466
395.008, 30.884
396.357, 50.171
397.705, 11.576
399.053, 7.812
400.401, 29.208
401.749, 31.494
403.097, 29.815
404.444, 51.012
405.791, 57.235
407.138, 39.344
408.485, 36.525
409.832, 33.554
411.178, 19.571
412.524, 65.574
413.870, 61.482
415.216, 81.405
416.561, 40.371
417.906, 39.338
419.251, 57.187
420.596, 73.083
421.941, 73.946
423.285, 50.680
424.629, 71.518
425.973, 77.250
427.317, 66.631
428.661, 89.419
430.004, 36.865
431.347, 74.379
432.690, 67.337
434.032, 76.510
435.375, 88.833
436.717, 103.176
438.059, 88.119
439.401, 96.661
440.743, 40.406
442.084, 87.359
443.425, 55.282
444.766, 75.549
446.107, 61.066
447.447, 66.763
448.788, 82.849
450.128, 78.091
451.468, 89.464
452.807, 62.689
454.147, 107.627
455.486, 78.508
456.825, 74.682
458.164, 104.382
459.502, 97.419
460.841, 116.677
462.179, 85.667
463.517, 72.715
464.855, 101.731
466.192, 100.800
467.530, 75.121
468.867, 99.334
470.204, 83.619
471.540, 92.774
472.877, 75.822
474.213, 104.669
475.549, 83.942
476.885, 75.617
478.221, 103.068
479.556, 74.804
480.891, 79.896
482.226, 102.528
483.561, 88.491
484.895, 90.992
486.230, 93.986
487.564, 95.565
488.898, 77.986
490.232, 75.804
491.565, 99.600
492.898, 80.584
494.231, 82.684
495.564, 37.797
496.897, 65.888
498.229, 76.551
499.562, 55.144
500.894, 95.807
502.225, 87.654
503.557, 51.242
504.888, 44.736
506.220, 71.950
507.550, 60.840
508.881, 50.628
510.212, 69.502
511.542, 39.120
512.872, 43.012
514.202, 73.824
515.532, 67.775
516.861, 38.233
518.191, 41.130
519.520, 100.624
520.848, 89.384
522.177, 57.061
523.505, 85.032
524.834, 55.593
526.162, 43.477
527.489, 58.280
528.817, 60.971
530.144, 68.731
531.472, 66.600
532.798, 71.713
534.125, 34.535
535.452, 68.499
536.778, 67.401
538.104, 46.044
539.430, 76.744
540.756, 37.566
542.081, 69.978
543.406, 26.367
544.731, 44.026
546.056, 30.712
547.381, 51.439
548.705, 40.288
550.030, 59.151
551.354, 37.807
552.677, 64.468
554.001, 61.054
555.324, 57.784
556.647, 74.510
557.970, 70.355
559.293, 49.138
560.616, 42.767
561.938, 62.794
563.260, 48.147
564.582, 50.318
565.904, 53.446
567.225, 45.420
568.546, 63.424
569.868, 64.219
571.188, 32.082
572.509, 55.821
573.829, 36.182
575.150, 69.842
576.470, 49.480
577.790, 51.063
579.109, 78.651
580.429, 66.300
581.748, 72.874
583.067, 74.485
584.385, 102.797
585.704, 98.360
587.022, 101.300
588.340, 99.265
589.658, 83.693
590.976, 83.142
592.294, 51.656
593.611, 96.147
594.928, 136.688
596.245, 99.102
597.562, 91.680
598.878, 65.170
600.194, 106.667
601.510, 125.232
602.826, 104.795
604.142, 97.352
605.457, 87.864
606.773, 37.329
608.088, 87.877
609.402, 45.421
610.717, 98.908
612.031, 99.443
613.346, 106.010
614.660, 176.537
615.973, 138.989
617.287, 161.510
618.600, 180.005
619.913, 205.463
621.226, 257.982
622.539, 280.441
623.852, 278.930
625.164, 275.446
626.476, 274.959
627.788, 256.471
629.100, 208.980
630.411, 180.599
631.722, 163.078
633.033, 133.548
634.344, 134.075
635.655, 130.541
636.965, 144.040
638.276, 132.327
639.586, 148.741
640.896, 193.206
642.205, 184.573
643.515, 201.052
644.824, 162.528
646.133, 219.878
647.442, 223.201
648.750, 172.654
650.059, 171.054
651.367, 137.406
652.675, 153.845
653.983, 174.144
655.290, 105.459
656.598, 126.917
657.905, 102.344
659.212, 91.636
660.518, 67.940
661.825, 59.393
663.131, 62.843
664.437, 121.222
665.743, 219.667
667.049, 340.038
668.354, 463.351
669.660, 505.732
670.965, 518.125
672.270, 518.635
673.574, 428.949
674.879, 418.399
676.183, 214.691
677.487, 120.110
678.791, 57.523
680.095, 103.836
681.398, 78.252
682.701, 72.524
684.005, 20.937
685.307, 24.160
686.610, 18.465
687.912, 2.707
689.215, 7.044
690.517, 6.328
691.818, 23.697
693.120, 13.094
694.421, 19.360
695.723, 9.262
697.024, 26.098
698.324, 0.512
699.625, 22.875
700.925, 5.192
702.226, 16.520
703.526, 26.145
704.825, 15.848
706.125, 14.547
707.424, 13.290
708.723, 11.123
710.022, 1.622
711.321, 7.279
712.620, 7.918
713.918, 22.224
715.216, 4.441
716.514, 0.774
717.812, 19.052
719.109, 41.337
720.407, 39.666
721.704, 38.993
723.001, 34.319
724.297, 32.643
725.594, 64.967
726.890, 59.290
728.186, 69.613
729.482, 75.273
730.778, 83.256
732.073, 74.577
733.369, 58.874
734.664, 54.193
735.959, 59.511
737.253, 28.828
738.548, 72.145
739.842, 18.461
741.136, 65.776
742.430, 57.089
743.724, 34.402
745.017, 61.714
746.310, 20.025
747.603, 44.262
748.896, 31.572
750.189, 15.848
751.481, 33.156
752.774, 5.463
754.066, 21.768
755.357, 34.072
756.649, 36.376
757.941, 62.680
759.232, 22.982
760.523, 41.285
761.814, 59.586
763.104, 20.887
764.395, 28.188
765.685, 40.488
766.975, 25.787
768.265, 42.086
769.554, 1.617
770.844, 25.680
772.133, 20.975
773.422, 17.270
774.711, 58.565
775.999, 15.859
777.288, 37.152
778.576, 27.446
779.864, 44.740
781.152, 45.033
782.439, 38.327
783.727, 56.620
785.014, 78.912
786.301, 41.204
787.588, 38.497
788.874, 19.790
790.161, 40.082
791.447, 49.375
792.733, 46.667
794.019, 67.960
795.304, 70.254
796.590, 67.547
797.875, 84.840
799.160, 68.234
800.445, 52.427
801.729, 36.721
803.014, 34.896
804.298, 26.308
805.582, 35.205
806.865, 41.895
808.149, 42.189
809.432, 50.484
810.716, 57.778
811.999, 21.072
813.281, 59.367
814.564, 5.661
815.846, 67.955
817.128, 51.250
818.410, 52.545
819.692, 79.840
820.974, 65.135
822.255, 68.431
823.536, 91.659
824.817, 65.905
826.098, 69.125
827.379, 97.271
828.659, 105.442
829.939, 133.612
831.219, 122.864
832.499, 233.069
833.779, 390.384
835.058, 672.291
836.337, 1031.990
837.616, 1079.107
838.895, 826.364
840.173, 562.541
841.452, 377.293
842.730, 241.828
844.008, 239.601
845.286, 176.680
846.563, 191.654
847.841, 187.547
849.118, 184.675
850.395, 143.663
851.672, 155.869
852.948, 194.143
854.225, 153.337
855.501, 239.550
856.777, 217.816
858.053, 244.126
859.328, 249.436
860.604, 247.748
861.879, 244.059
863.154, 214.371
864.429, 178.684
865.703, 166.997
866.978, 133.311
868.252, 125.625
869.526, 116.040
870.800, 130.255
872.073, 118.572
873.347, 95.892
874.620, 119.214
875.893, 81.539
877.166, 74.868
878.438, 76.171
879.711, 112.502
880.983, 101.833
882.255, 91.166
883.527, 88.499
884.798, 73.821
886.070, 100.157
887.341, 79.498
888.612, 58.812
889.883, 103.155
891.154, 67.429
892.424, 95.779
893.694, 50.130
894.964, 106.485
896.234, 60.840
897.504, 108.198
898.773, 107.557
900.042, 99.919
901.312, 82.281
902.580, 87.644
903.849, 110.011
905.118, 75.379
906.386, 94.747
907.654, 83.006
908.922, 54.375
910.189, 63.745
911.457, 116.112
912.724, 40.483
913.991, 72.847
915.258, 32.220
916.525, 52.594
917.791, 62.968
919.058, 40.342
920.324, 92.718
921.590, 23.095
922.855, 10.472
924.121, 65.849
925.386, 23.233
926.651, 17.619
927.916, 50.008
929.181, 57.399
930.446, 40.791
931.710, 50.186
932.974, 53.581
934.238, 64.976
935.502, 48.372
936.765, 59.768
938.029, 68.166
939.292, 35.565
940.555, 53.965
941.818, 48.372
943.080, 82.779
944.343, 21.187
945.605, 31.594
946.867, 3.002
948.129, 30.411
949.390, 41.819
950.652, 74.228
951.913, 38.608
953.174, 44.017
954.435, 30.426
955.695, 18.836
956.956, 29.246
958.216, 31.657
959.476, 3.067
960.736, 31.478
961.995, 44.891
963.255, 83.305
964.514, 68.706
965.773, 58.135
967.032, 39.550
968.291, 12.967
969.549, 5.617
970.807, 29.799
972.066, 21.783
973.323, 14.631
974.581, 9.046
975.839, 25.461
977.096, 26.877
978.353, 0.296
979.610, 10.718
980.867, 14.858
982.123, 8.434
983.380, 29.990
984.636, 0.583
985.892, 39.845
987.147, 53.273
988.403, 35.702
989.658, 66.131
990.914, 2.439
992.169, 50.991
993.423, 58.420
994.678, 53.849
995.932, 98.304
997.187, 90.733
998.441, 131.161
999.694, 239.590
1000.948, 270.018
1002.201, 299.446
1003.455, 218.874
1004.708, 116.301
1005.961, 123.728
1007.213, 77.326
1008.466, 66.173
1009.718, 88.129
1010.970, 27.799
1012.222, 6.159
1013.474, 45.584
1014.725, 65.039
1015.976, 101.565
1017.227, 120.765
1018.478, 110.524
1019.729, 149.170
1020.980, 141.591
1022.230, 134.084
1023.480, 159.663
1024.730, 162.082
1025.980, 169.509
1027.229, 196.968
1028.479, 288.638
1029.728, 361.441
1030.977, 339.856
1032.226, 264.902
1033.474, 224.315
1034.723, 169.209
1035.971, 213.620
1037.219, 197.030
1038.467, 244.208
1039.714, 284.615
1040.962, 302.022
1042.209, 421.476
1043.456, 473.880
1044.703, 633.284
1045.950, 873.742
1047.196, 1183.143
1048.443, 1867.714
1049.689, 3482.113
1050.935, 9576.510
1052.180, 32574.908
1053.426, 54703.305
1054.671, 45201.887
1055.916, 19700.281
1057.161, 7699.672
1058.406, 3358.067
1059.651, 1643.562
1060.895, 998.446
1062.139, 647.278
1063.383, 478.082
1064.627, 380.464
1065.871, 337.372
1067.114, 242.751
1068.357, 208.128
1069.600, 209.504
1070.843, 175.878
1072.086, 186.549
1073.328, 177.919
1074.570, 147.649
1075.813, 193.257
1077.054, 178.622
1078.296, 206.986
1079.538, 198.348
1080.779, 162.707
1082.020, 188.065
1083.261, 177.422
1084.502, 164.465
1085.742, 119.129
1086.983, 138.479
1088.223, 112.879
1089.463, 89.226
1090.703, 116.571
1091.942, 109.915
1093.182, 132.256
1094.421, 123.596
1095.660, 61.305
1096.899, 88.641
1098.137, 136.975
1099.376, 56.307
1100.614, 88.637
1101.852, 77.965
1103.090, 85.292
1104.328, 121.537
1105.565, 71.859
1106.803, 93.750
1108.040, 114.069
1109.277, 78.386
1110.513, 90.700
1111.750, 51.014
1112.986, 53.321
1114.223, 120.630
1115.459, 51.666
1116.694, 67.836
1117.930, 33.140
1119.165, 14.429
1120.401, 48.729
1121.636, 75.027
1122.871, 44.322
1124.105, 72.616
1125.340, 22.872
1126.574, 42.162
1127.808, 30.450
1129.042, 4.736
1130.276, 61.021
1131.509, 46.303
1132.743, 36.583
1133.976, 28.862
1135.209, 15.139
1136.442, 14.918
1137.674, 12.687
1138.906, 9.958
1140.139, 4.772
1141.371, 15.506
1142.603, 20.246
1143.834, 7.993
1145.066, 37.745
1146.297, 26.493
1147.528, 2.730
1148.759, 2.036
1149.990, 47.195
1151.220, 2.576
1152.450, 7.349
1153.681, 17.873
1154.910, 43.906
1156.140, 4.698
1157.370, 18.507
1158.599, 41.290
1159.828, 0.902
1161.057, 8.908
1162.286, 14.722
1163.515, 33.457
1164.743, 25.364
1165.972, 12.806
1167.200, 19.025
1168.427, 25.137
1169.655, 20.298
1170.883, 31.542
1172.110, 29.608
1173.337, 37.757
1174.564, 0.096
1175.791, 22.049
1177.017, 25.192
1178.244, 0.666
1179.470, 38.474
1180.696, 6.387
1181.922, 10.748
1183.147, 31.881
1184.373, 17.014
1185.598, 12.145
1186.823, 7.726
1188.048, 12.400
1189.273, 38.525
1190.497, 4.649
1191.722, 47.229
1192.946, 21.119
1194.170, 19.014
1195.393, 17.916
1196.617, 20.177
1197.840, 22.731
1199.064, 6.355
1200.287, 9.439
1201.509, 17.523
1202.732, 46.605
1203.954, 13.313
1205.177, 47.764
1206.399, 16.159
1207.621, 54.088
1208.842, 26.971
1210.064, 4.029
1211.285, 10.087
1212.506, 45.143
1213.727, 26.199
1214.948, 52.254
1216.169, 38.308
1217.389, 26.362
1218.609, 83.415
1219.829, 2.533
1221.049, 23.518
1222.269, 51.569
1223.488, 10.619
1224.708, 47.669
1225.927, 20.718
1227.146, 18.233
1228.364, 5.812
1229.583, 10.856
1230.801, 20.900
1232.019, 39.521
1233.237, 67.988
1234.455, 63.032
1235.673, 77.076
1236.890, 71.120
1238.107, 123.164
1239.324, 80.210
1240.541, 54.257
1241.758, 119.303
1242.975, 79.350
1244.191, 94.397
1245.407, 73.445
1246.623, 47.492
1247.839, 153.542
1249.054, 79.593
1250.270, 79.644
1251.485, 163.697
1252.700, 78.750
1253.915, 101.803
1255.129, 61.858
1256.344, 112.913
1257.558, 128.970
1258.772, 120.028
1259.986, 72.087
1261.200, 170.123
1262.413, 112.185
1263.627, 116.250
1264.840, 175.316
1266.053, 135.385
1267.266, 180.457
1268.478, 156.530
1269.691, 185.608
1270.903, 253.686
1272.115, 188.592
1273.327, 212.249
1274.539, 191.796
1275.750, 188.629
1276.961, 232.770
1278.173, 244.847
1279.384, 181.894
1280.594, 182.868
1281.805, 219.946
1283.015, 188.911
1284.226, 227.767
1285.436, 224.846
1286.646, 211.854
1287.855, 178.776
1289.065, 185.858
1290.274, 251.932
1291.483, 239.974
1292.692, 217.806
1293.901, 307.505
1295.109, 294.592
1296.318, 324.048
1297.526, 315.137
1298.734, 310.747
1299.942, 318.839
1301.150, 350.933
1302.357, 298.260
1303.564, 342.357
1304.771, 306.456
1305.978, 407.509
1307.185, 415.613
1308.392, 386.718
1309.598, 464.770
1310.804, 504.880
1312.010, 534.820
1313.216, 555.935
1314.422, 563.051
1315.627, 544.170
1316.832, 597.292
1318.037, 532.222
1319.242, 579.349
1320.447, 651.479
1321.652, 580.606
1322.856, 612.635
1324.060, 651.276
1325.264, 612.970
1326.468, 653.695
1327.672, 608.843
1328.875, 594.466
1330.078, 687.621
1331.281, 618.778
1332.484, 623.939
1333.687, 651.104
1334.890, 638.973
1336.092, 697.144
1337.294, 637.958
1338.496, 713.895
1339.698, 781.077
1340.900, 756.262
1342.101, 780.452
1343.302, 908.645
1344.503, 852.843
1345.704, 957.045
1346.905, 1028.251
1348.106, 1019.462
1349.306, 1298.677
1350.506, 1391.847
1351.706, 1491.073
1352.906, 1810.303
1354.106, 1818.538
1355.305, 2153.779
1356.504, 2527.025
1357.703, 2599.905
1358.902, 3119.162
1360.101, 3278.426
1361.300, 3541.694
1362.498, 3872.970
1363.696, 3842.252
1364.894, 3771.540
1366.092, 3799.835
1367.290, 3421.136
1368.487, 3110.446
1369.684, 2766.762
1370.881, 2360.086
1372.078, 2183.417
1373.275, 1875.757
1374.472, 1631.106
1375.668, 1583.463
1376.864, 1297.830
1378.060, 1135.206
1379.256, 1077.592
1380.452, 885.988
1381.647, 930.395
1382.842, 791.813
1384.038, 660.243
1385.233, 669.686
1386.427, 529.141
1387.622, 516.627
1388.816, 526.151
1390.010, 392.651
1391.204, 389.327
1392.398, 374.862
1393.592, 291.452
1394.785, 267.478
1395.979, 257.069
1397.172, 180.659
1398.365, 263.722
1399.558, 170.175
1400.750, 112.015
1401.943, 197.223
1403.135, 173.443
1404.327, 236.677
1405.519, 234.916
1406.710, 163.159
1407.902, 226.410
1409.093, 248.677
1410.284, 176.955
1411.475, 272.245
1412.666, 196.545
1413.857, 174.857
1415.047, 233.180
1416.238, 176.513
1417.428, 235.855
1418.617, 230.205
1419.807, 186.561
1420.997, 300.924
1422.186, 174.294
1423.375, 189.671
1424.564, 217.057
1425.753, 225.449
1426.942, 188.865
1428.130, 212.299
1429.318, 210.746
1430.507, 249.205
1431.694, 244.671
1432.882, 242.091
1434.070, 256.649
1435.257, 227.166
1436.444, 260.691
1437.631, 269.225
1438.818, 303.768
1440.005, 303.320
1441.191, 433.883
1442.378, 361.454
1443.564, 378.038
1444.750, 436.634
1445.936, 328.239
1447.121, 460.854
1448.307, 459.478
1449.492, 381.112
1450.677, 527.754
1451.862, 487.406
1453.047, 531.067
1454.231, 545.736
1455.415, 486.414
1456.600, 559.100
1457.784, 607.792
1458.967, 537.491
1460.151, 618.194
1461.335, 648.900
1462.518, 502.600
1463.701, 602.298
1464.884, 560.003
1466.067, 573.730
1467.249, 601.476
1468.432, 525.243
1469.614, 490.029
1470.796, 603.836
1471.978, 483.664
1473.159, 501.512
1474.341, 630.382
1475.522, 511.274
1476.703, 560.189
1477.884, 609.128
1479.065, 522.090
1480.246, 615.075
1481.426, 547.085
1482.607, 516.119
1483.787, 552.177
1484.967, 473.261
1486.146, 470.371
1487.326, 413.509
1488.505, 391.675
1489.685, 380.871
1490.864, 333.098
1492.042, 281.357
1493.221, 344.652
1494.400, 213.985
1495.578, 141.358
1496.756, 229.778
1497.934, 130.248
1499.112, 188.769
1500.289, 199.344
1501.467, 93.977
1502.644, 91.671
1503.821, 115.429
1504.998, 34.256
1506.175, 113.157
1507.351, 89.139
1508.528, 68.208
1509.704, 77.372
1510.880, 63.642
1512.056, 43.027
1513.232, 100.541
1514.407, 35.196
1515.582, 32.008
1516.758, 139.996
1517.933, 12.184
1519.107, 121.600
1520.282, 43.278
1521.456, 3.048
1522.631, 142.249
1523.805, 105.721
1524.979, 4.683
1526.152, 90.465
1527.326, 0.000
##END=



