##NAMES=Cerussite
##RRUFFID=R050011
##IDEAL CHEMISTRY=Pb^2+^CO_3_
##LOCALITY=Daoping Lead and Zinc mine, Gongcheng, Guangxi, China
##OWNER=RRUFF
##SOURCE=Eugene Schlepp
##DESCRIPTION=Colorless hexagonal bipyramidal crystals
##STATUS=The identification of this mineral has been confirmed by X-ray diffraction and chemical analysis
##URL=rruff.info/R050011
##MEASURED CHEMISTRY=Pb_1.00_CO_3_ ; CO_2_ not measured but estimated by difference and stoichiometry
##PIN_ID=L00519
##ORIENTATION=Laser parallel to -c* (0 0 -1). Fiducial mark perpendicular to laser is parallel to a [1 0 0]
46.637, 0.000
48.043, 0.531
49.450, 22.049
50.856, 91.500
52.261, 104.825
53.667, 127.745
55.072, 251.594
56.477, 373.233
57.882, 486.989
59.287, 598.838
60.691, 596.560
62.095, 675.163
63.499, 668.651
64.903, 671.059
66.306, 600.303
67.709, 465.312
69.112, 393.910
70.515, 380.858
71.917, 384.133
73.319, 289.712
74.721, 236.571
76.123, 164.689
77.525, 190.050
78.926, 24.639
80.327, 9.443
81.728, 53.551
83.128, 45.353
84.529, 34.972
85.929, 29.418
87.329, 9.302
88.728, 105.181
90.128, 251.215
91.527, 414.399
92.926, 476.728
94.324, 678.194
95.723, 874.788
97.121, 1081.503
98.519, 1209.321
99.917, 1472.231
101.314, 1672.229
102.712, 1762.313
104.109, 2042.482
105.505, 2148.734
106.902, 2444.069
108.298, 2560.483
109.694, 2816.978
111.090, 3249.550
112.486, 3583.196
113.881, 4307.916
115.277, 4544.707
116.672, 5246.568
118.066, 5263.498
119.461, 5204.493
120.855, 5116.554
122.249, 4787.680
123.643, 4638.869
125.036, 4234.122
126.430, 4351.436
127.823, 4058.812
129.216, 4303.247
130.608, 4212.748
132.001, 4144.343
133.393, 4033.023
134.785, 3609.777
136.176, 3516.594
137.568, 3093.471
138.959, 2881.398
140.350, 2781.348
141.741, 2450.311
143.131, 2443.293
144.521, 2184.307
145.911, 2179.335
147.301, 2023.339
148.691, 1989.237
150.080, 1994.041
151.469, 1885.828
152.858, 1869.653
154.247, 1740.510
155.635, 1693.409
157.024, 1572.354
158.411, 1489.337
159.799, 1550.362
161.187, 1393.433
162.574, 1419.563
163.961, 1332.725
165.348, 1378.918
166.734, 1360.143
168.121, 1356.418
169.507, 1370.734
170.893, 1335.091
172.278, 1436.477
173.664, 1357.892
175.049, 1420.336
176.434, 1334.810
177.819, 1363.311
179.203, 1338.841
180.587, 1308.398
181.971, 1371.983
183.355, 1249.596
184.739, 1337.236
186.122, 1227.904
187.505, 1234.598
188.888, 1233.320
190.271, 1233.067
191.653, 1309.842
193.035, 1239.643
194.417, 1325.494
195.799, 1323.371
197.180, 1433.287
198.562, 1489.231
199.943, 1463.199
201.324, 1583.193
202.704, 1542.209
204.084, 1709.262
205.465, 1710.351
206.844, 1753.464
208.224, 2049.599
209.603, 2025.768
210.983, 2212.958
212.362, 2233.181
213.740, 2409.689
215.119, 2277.233
216.497, 2417.735
217.875, 2489.154
219.253, 2215.463
220.631, 2308.659
222.008, 2160.750
223.385, 2178.664
224.762, 2164.422
226.139, 2073.156
227.515, 2181.309
228.891, 1929.791
230.267, 1901.057
231.643, 1687.875
233.018, 1591.415
234.394, 1450.931
235.769, 1341.489
237.144, 1289.285
238.518, 1085.928
239.893, 1054.635
241.267, 1019.282
242.641, 995.699
244.014, 885.277
245.388, 801.215
246.761, 825.024
248.134, 752.904
249.507, 765.307
250.879, 669.706
252.252, 633.633
253.624, 566.988
254.996, 582.559
256.367, 570.622
257.739, 502.712
259.110, 470.831
260.481, 450.974
261.852, 463.142
263.222, 388.669
264.592, 388.882
265.962, 414.412
267.332, 398.670
268.702, 329.617
270.071, 353.917
271.440, 346.719
272.809, 329.741
274.178, 379.104
275.546, 298.646
276.915, 196.065
278.283, 342.503
279.650, 274.959
281.018, 294.433
282.385, 347.925
283.752, 218.433
285.119, 214.959
286.486, 254.648
287.852, 266.039
289.218, 254.613
290.584, 253.813
291.950, 182.918
293.316, 285.541
294.681, 255.178
296.046, 191.830
297.411, 175.496
298.775, 258.176
300.140, 162.869
301.504, 253.574
302.868, 141.292
304.231, 146.023
305.595, 189.766
306.958, 146.521
308.321, 187.289
309.684, 144.068
311.047, 150.859
312.409, 181.662
313.771, 150.478
315.133, 102.306
316.495, 123.153
317.856, 81.060
319.217, 106.933
320.578, 91.818
321.939, 51.722
323.299, 81.638
324.660, 116.565
326.020, 59.506
327.380, 115.480
328.739, 67.512
330.099, 93.487
331.458, 59.472
332.817, 112.468
334.176, 124.509
335.534, 77.561
336.892, 60.587
338.251, 93.063
339.608, 5.111
340.966, 59.168
342.323, 34.819
343.681, 113.259
345.037, 77.310
346.394, 73.414
347.751, 97.526
349.107, 83.646
350.463, 40.774
351.819, 54.132
353.174, 117.274
354.530, 72.424
355.885, 38.642
357.240, 76.840
358.594, 73.677
359.949, 56.854
361.303, 33.358
362.657, 28.642
364.011, 67.837
365.365, 40.038
366.718, 101.352
368.071, 47.079
369.424, 33.296
370.777, 70.607
372.129, 7.835
373.481, 75.460
374.833, 20.715
376.185, 41.661
377.537, 25.033
378.888, 90.054
380.239, 40.341
381.590, 72.328
382.941, 54.669
384.291, 0.038
385.642, 99.690
386.992, 70.002
388.341, 6.589
389.691, 26.333
391.040, 63.270
392.389, 25.860
393.738, 27.291
395.087, 48.831
396.435, 48.383
397.784, 12.678
399.132, 11.032
400.479, 85.296
401.827, 34.288
403.174, 143.186
404.521, 0.588
405.868, 73.111
407.215, 3.507
408.561, 12.085
409.908, 57.357
411.254, 28.237
412.599, 38.201
413.945, 0.698
415.290, 71.163
416.636, 29.074
417.980, 23.610
419.325, 42.153
420.670, 7.496
422.014, 30.977
423.358, 66.461
424.702, 35.973
426.045, 18.503
427.389, 11.861
428.732, 45.718
430.075, 20.802
431.417, 96.676
432.760, 15.846
434.102, 20.371
435.444, 36.385
436.786, 48.142
438.127, 88.648
439.469, 29.107
440.810, 27.607
442.151, 58.068
443.492, 15.528
444.832, 33.115
446.172, 81.577
447.512, 25.935
448.852, 19.424
450.192, 26.018
451.531, 14.191
452.870, 11.532
454.209, 15.897
455.548, 22.326
456.887, 38.945
458.225, 102.549
459.563, 72.975
460.901, 32.413
462.238, 29.835
463.576, 46.256
464.913, 20.674
466.250, 19.092
467.587, 46.716
468.923, 84.129
470.259, 55.541
471.596, 26.951
472.931, 19.357
474.267, 28.876
475.603, 35.279
476.938, 74.339
478.273, 8.735
479.608, 23.238
480.942, 33.646
482.276, 25.659
483.611, 109.140
484.944, 103.538
486.278, 33.274
487.612, 21.006
488.945, 10.375
490.278, 62.884
491.611, 95.442
492.943, 48.799
494.276, 21.229
495.608, 21.852
496.940, 62.266
498.271, 34.394
499.603, 52.550
500.934, 82.031
502.265, 2.047
503.596, 2.294
504.927, 8.153
506.257, 69.119
507.587, 101.563
508.917, 146.824
510.247, 61.078
511.577, 7.334
512.906, 59.581
514.235, 51.822
515.564, 28.057
516.892, 35.287
518.221, 32.491
519.549, 75.703
520.877, 6.890
522.205, 23.067
523.533, 71.238
524.860, 47.402
526.187, 21.560
527.514, 12.240
528.841, 115.005
530.167, 28.373
531.493, 119.493
532.820, 9.250
534.145, 50.861
535.471, 12.855
536.796, 25.320
538.122, 2.418
539.447, 46.455
540.771, 3.485
542.096, 34.500
543.420, 28.507
544.744, 22.504
546.068, 43.466
547.392, 21.428
548.715, 72.434
550.039, 3.786
551.362, 16.140
552.684, 25.167
554.007, 17.927
555.329, 1.864
556.652, 103.135
557.973, 2.984
559.295, 62.167
560.617, 43.063
561.938, 28.010
563.259, 46.815
564.580, 26.210
565.901, 56.994
567.221, 57.770
568.541, 52.400
569.861, 69.157
571.181, 65.085
572.501, 3.854
573.820, 101.575
575.139, 22.325
576.458, 25.111
577.777, 54.805
579.095, 7.594
580.414, 104.260
581.732, 71.957
583.049, 53.632
584.367, 94.072
585.685, 34.698
587.002, 48.168
588.319, 88.772
589.636, 71.698
590.952, 77.525
592.268, 76.618
593.585, 21.654
594.900, 72.205
596.216, 50.370
597.532, 87.587
598.847, 63.085
600.162, 75.557
601.477, 106.020
602.792, 43.603
604.106, 102.144
605.420, 67.584
606.734, 58.868
608.048, 83.562
609.361, 18.978
610.675, 23.771
611.988, 109.665
613.301, 84.045
614.614, 27.416
615.926, 30.931
617.238, 105.277
618.550, 70.614
619.862, 80.940
621.174, 99.256
622.485, 99.562
623.797, 149.856
625.108, 26.196
626.418, 143.469
627.729, 132.775
629.039, 92.027
630.349, 90.268
631.659, 48.499
632.969, 82.718
634.279, 7.073
635.588, 114.110
636.897, 50.237
638.206, 72.431
639.515, 6.418
640.823, 53.708
642.131, 72.849
643.439, 20.108
644.747, 20.198
646.055, 95.354
647.362, 43.350
648.669, 30.404
649.976, 118.452
651.283, 60.029
652.589, 24.014
653.896, 61.984
655.202, 78.979
656.508, 10.666
657.814, 35.692
659.119, 23.188
660.424, 65.162
661.729, 21.720
663.034, 90.685
664.339, 32.595
665.643, 111.545
666.947, 166.433
668.251, 249.609
669.555, 336.254
670.859, 368.144
672.162, 471.990
673.465, 685.770
674.768, 721.657
676.071, 576.811
677.373, 316.621
678.676, 133.131
679.978, 214.826
681.280, 166.605
682.581, 88.376
683.883, 62.028
685.184, 45.265
686.485, 19.006
687.786, 71.646
689.087, 37.364
690.387, 17.319
691.687, 23.354
692.987, 42.329
694.287, 58.922
695.586, 71.921
696.886, 70.525
698.185, 103.420
699.484, 69.952
700.783, 92.531
702.081, 134.734
703.379, 78.270
704.677, 32.701
705.975, 42.722
707.273, 95.484
708.570, 37.697
709.868, 84.063
711.165, 18.317
712.462, 27.558
713.758, 65.052
715.055, 15.451
716.351, 42.998
717.647, 22.469
718.943, 104.762
720.238, 32.876
721.533, 82.352
722.829, 67.778
724.124, 35.230
725.418, 106.546
726.713, 87.872
728.007, 55.229
729.301, 143.543
730.595, 51.905
731.889, 164.970
733.182, 86.107
734.476, 33.382
735.769, 131.852
737.061, 48.178
738.354, 50.496
739.647, 23.728
740.939, 158.037
742.231, 21.182
743.523, 108.418
744.814, 148.706
746.106, 3.987
747.397, 108.262
748.688, 19.532
749.978, 183.510
751.269, 44.767
752.559, 19.310
753.849, 47.931
755.139, 75.125
756.429, 82.353
757.719, 23.720
759.008, 30.809
760.297, 116.072
761.586, 113.246
762.875, 26.386
764.163, 64.221
765.451, 121.064
766.739, 67.180
768.027, 154.365
769.315, 57.543
770.602, 14.524
771.890, 95.512
773.177, 107.671
774.463, 102.944
775.750, 84.093
777.036, 64.235
778.323, 67.372
779.609, 37.503
780.894, 53.421
782.180, 39.541
783.465, 75.728
784.750, 77.836
786.035, 76.940
787.320, 127.923
788.605, 135.016
789.889, 95.501
791.173, 108.584
792.457, 39.604
793.741, 89.659
795.024, 78.101
796.307, 39.066
797.591, 8.106
798.873, 76.798
800.156, 20.488
801.439, 106.531
802.721, 92.427
804.003, 42.264
805.285, 8.705
806.566, 54.240
807.848, 107.984
809.129, 72.928
810.410, 8.938
811.691, 28.323
812.971, 3.162
814.252, 130.550
815.532, 101.508
816.812, 96.203
818.092, 53.206
819.371, 31.027
820.651, 49.023
821.930, 21.984
823.209, 132.994
824.488, 34.969
825.766, 60.940
827.045, 79.708
828.323, 20.776
829.601, 81.813
830.878, 96.813
832.156, 34.783
833.433, 138.751
834.710, 216.717
835.987, 277.681
837.264, 596.987
838.540, 893.973
839.817, 668.837
841.093, 338.552
842.369, 311.507
843.644, 244.462
844.920, 128.402
846.195, 146.162
847.470, 26.010
848.745, 9.952
850.020, 107.061
851.294, 68.047
852.568, 83.132
853.842, 18.116
855.116, 73.100
856.390, 105.090
857.663, 49.079
858.936, 85.928
860.209, 47.487
861.482, 66.479
862.755, 180.356
864.027, 78.347
865.299, 91.165
866.571, 120.030
867.843, 109.036
869.115, 137.508
870.386, 6.447
871.657, 88.302
872.928, 46.336
874.199, 116.762
875.470, 13.795
876.740, 5.826
878.010, 145.752
879.280, 40.222
880.550, 65.787
881.820, 81.772
883.089, 76.785
884.358, 39.764
885.627, 82.787
886.896, 54.811
888.164, 44.728
889.433, 88.754
890.701, 126.739
891.969, 65.734
893.236, 67.617
894.504, 76.641
895.771, 21.515
897.038, 95.538
898.305, 37.563
899.572, 89.344
900.838, 90.366
902.105, 119.235
903.371, 44.267
904.637, 42.251
905.902, 40.858
907.168, 60.913
908.433, 70.982
909.698, 44.949
910.963, 127.978
912.228, 17.936
913.492, 89.014
914.757, 40.091
916.021, 36.939
917.285, 107.138
918.548, 0.784
919.812, 84.292
921.075, 62.366
922.338, 60.440
923.601, 94.358
924.864, 103.434
926.126, 1.506
927.388, 95.576
928.650, 48.645
929.912, 96.713
931.174, 63.777
932.435, 115.787
933.697, 90.859
934.958, 16.886
936.218, 63.957
937.479, 82.026
938.739, 123.096
940.000, 189.171
941.260, 21.246
942.520, 126.328
943.779, 23.407
945.039, 169.453
946.298, 129.530
947.557, 164.613
948.816, 121.670
950.074, 183.605
951.333, 151.698
952.591, 194.896
953.849, 80.985
955.107, 142.075
956.365, 54.157
957.622, 128.698
958.879, 77.784
960.136, 103.867
961.393, 147.948
962.650, 93.888
963.906, 68.911
965.162, 104.829
966.418, 134.003
967.674, 88.886
968.930, 53.183
970.185, 57.439
971.441, 97.483
972.696, 73.721
973.950, 104.494
975.205, 59.564
976.459, 100.601
977.714, 20.331
978.968, 18.055
980.222, 25.021
981.475, 36.168
982.729, 198.801
983.982, 88.822
985.235, 49.029
986.488, 162.369
987.740, 7.584
988.993, 26.725
990.245, 41.762
991.497, 131.915
992.749, 120.326
994.000, 11.372
995.252, 190.207
996.503, 57.255
997.754, 99.301
999.005, 92.369
1000.256, 25.293
1001.506, 206.354
1002.756, 31.391
1004.006, 64.424
1005.256, 158.667
1006.506, 129.695
1007.755, 212.719
1009.005, 146.022
1010.254, 154.290
1011.502, 251.317
1012.751, 66.653
1014.000, 124.672
1015.248, 99.096
1016.496, 106.156
1017.744, 176.266
1018.991, 116.463
1020.239, 107.468
1021.486, 234.998
1022.733, 212.383
1023.980, 196.374
1025.227, 91.534
1026.473, 222.453
1027.719, 205.333
1028.965, 324.467
1030.211, 381.492
1031.457, 480.904
1032.702, 299.969
1033.948, 221.926
1035.193, 183.018
1036.438, 299.964
1037.682, 309.371
1038.927, 388.672
1040.171, 357.599
1041.415, 416.700
1042.659, 486.015
1043.903, 574.924
1045.146, 674.207
1046.390, 903.372
1047.633, 1162.974
1048.876, 1551.857
1050.118, 2710.995
1051.361, 4970.012
1052.603, 19451.164
1053.845, 45540.027
1055.087, 45834.648
1056.329, 23493.494
1057.571, 8752.377
1058.812, 3471.594
1060.053, 1868.277
1061.294, 1167.503
1062.535, 743.721
1063.775, 702.525
1065.016, 461.388
1066.256, 532.781
1067.496, 391.561
1068.736, 370.283
1069.975, 429.044
1071.214, 388.412
1072.454, 387.297
1073.693, 356.060
1074.931, 344.869
1076.170, 383.456
1077.408, 222.441
1078.647, 221.142
1079.885, 279.835
1081.122, 268.913
1082.360, 179.300
1083.597, 288.135
1084.835, 157.264
1086.072, 266.148
1087.308, 304.784
1088.545, 205.494
1089.781, 284.111
1091.018, 253.088
1092.254, 311.948
1093.490, 310.483
1094.725, 179.268
1095.961, 368.180
1097.196, 226.737
1098.431, 137.765
1099.666, 326.562
1100.900, 65.279
1102.135, 333.794
1103.369, 232.434
1104.603, 301.158
1105.837, 299.641
1107.071, 178.115
1108.304, 316.579
1109.538, 265.033
1110.771, 223.818
1112.004, 162.439
1113.236, 170.861
1114.469, 99.272
1115.701, 213.194
1116.933, 156.621
1118.165, 75.455
1119.397, 113.817
1120.629, 84.840
1121.860, 303.491
1123.091, 141.833
1124.322, 220.329
1125.553, 238.997
1126.783, 46.508
1128.014, 295.334
1129.244, 103.561
1130.474, 12.057
1131.704, 280.970
1132.933, 89.230
1134.163, 57.763
1135.392, 246.296
1136.621, 64.172
1137.850, 202.739
1139.079, 100.926
1140.307, 39.116
1141.535, 250.671
1142.763, 8.826
1143.991, 236.967
1145.219, 175.270
1146.446, 76.615
1147.674, 152.553
1148.901, 130.738
1150.128, 138.765
1151.354, 227.143
1152.581, 65.145
1153.807, 283.459
1155.033, 181.733
1156.259, 69.692
1157.485, 77.680
1158.710, 215.614
1159.936, 63.534
1161.161, 181.439
1162.386, 0.645
1163.611, 127.222
1164.835, 115.299
1166.060, 3.136
1167.284, 150.947
1168.508, 18.745
1169.732, 63.474
1170.955, 154.246
1172.179, 101.951
1173.402, 159.643
1174.625, 177.320
1175.848, 104.985
1177.070, 142.635
1178.293, 40.278
1179.515, 117.904
1180.737, 185.516
1181.959, 26.887
1183.181, 170.670
1184.402, 38.212
1185.624, 55.735
1186.845, 183.241
1188.066, 100.733
1189.286, 48.210
1190.507, 175.668
1191.727, 53.112
1192.947, 70.539
1194.167, 17.949
1195.387, 245.338
1196.607, 82.713
1197.826, 110.069
1199.045, 12.589
1200.264, 144.719
1201.483, 67.988
1202.702, 159.240
1203.920, 136.453
1205.138, 53.652
1206.356, 180.834
1207.574, 48.010
1208.792, 94.831
1210.009, 172.249
1211.227, 129.315
1212.444, 43.632
1213.661, 153.375
1214.877, 120.367
1216.094, 197.347
1217.310, 24.311
1218.526, 111.255
1219.742, 138.186
1220.958, 125.101
1222.173, 202.002
1223.389, 78.890
1224.604, 155.762
1225.819, 242.621
1227.034, 49.467
1228.248, 3.703
1229.463, 103.099
1230.677, 29.891
1231.891, 86.667
1233.105, 233.426
1234.318, 9.837
1235.532, 336.877
1236.745, 43.579
1237.958, 80.263
1239.171, 256.924
1240.384, 93.570
1241.596, 60.204
1242.809, 166.822
1244.021, 16.572
1245.233, 80.010
1246.444, 96.576
1247.656, 222.899
1248.867, 109.411
1250.079, 85.898
1251.290, 162.369
1252.500, 168.825
1253.711, 165.593
1254.921, 222.018
1256.132, 58.427
1257.342, 94.902
1258.552, 261.276
1259.761, 147.638
1260.971, 66.116
1262.180, 240.174
1263.389, 36.526
1264.598, 172.690
1265.807, 21.081
1267.015, 67.309
1268.223, 293.524
1269.432, 99.726
1270.640, 56.401
1271.847, 192.572
1273.055, 18.404
1274.262, 298.713
1275.470, 84.750
1276.677, 20.938
1277.883, 357.038
1279.090, 72.966
1280.296, 68.745
1281.503, 224.803
1282.709, 40.580
1283.915, 248.821
1285.120, 194.722
1286.326, 29.652
1287.531, 106.325
1288.736, 141.496
1289.941, 97.595
1291.146, 203.533
1292.350, 3.380
1293.555, 69.595
1294.759, 375.486
1295.963, 31.370
1297.167, 157.243
1298.370, 52.806
1299.574, 58.653
1300.777, 304.490
1301.980, 120.030
1303.183, 197.027
1304.386, 242.830
1305.588, 178.310
1306.790, 124.090
1307.993, 368.451
1309.195, 74.161
1310.396, 349.810
1311.598, 284.353
1312.799, 270.082
1314.000, 425.160
1315.201, 265.480
1316.402, 351.179
1317.603, 426.705
1318.803, 292.386
1320.003, 548.060
1321.203, 503.569
1322.403, 279.199
1323.603, 524.379
1324.802, 429.886
1326.002, 315.436
1327.201, 487.829
1328.400, 403.355
1329.599, 538.406
1330.797, 533.520
1331.995, 328.990
1333.194, 714.274
1334.392, 469.326
1335.589, 554.766
1336.787, 839.817
1337.985, 564.932
1339.182, 629.637
1340.379, 725.019
1341.576, 570.134
1342.772, 765.354
1343.969, 778.422
1345.165, 663.771
1346.361, 1053.339
1347.557, 1038.670
1348.753, 1243.957
1349.949, 1318.890
1351.144, 1184.197
1352.339, 1689.095
1353.534, 1686.933
1354.729, 1862.229
1355.924, 2307.459
1357.118, 2378.512
1358.312, 2753.808
1359.506, 3219.006
1360.700, 3074.312
1361.894, 3669.012
1363.088, 3634.194
1364.281, 3469.502
1365.474, 3804.770
1366.667, 3120.138
1367.860, 2645.255
1369.052, 2850.676
1370.245, 2096.199
1371.437, 1931.302
1372.629, 1785.143
1373.821, 1341.690
1375.013, 1416.831
1376.204, 1261.249
1377.395, 984.922
1378.586, 1010.224
1379.777, 855.674
1380.968, 820.804
1382.159, 803.896
1383.349, 549.064
1384.539, 624.545
1385.729, 579.903
1386.919, 205.492
1388.109, 470.689
1389.298, 376.032
1390.487, 255.430
1391.676, 440.379
1392.865, 162.799
1394.054, 127.830
1395.242, 342.596
1396.431, 2.811
1397.619, 122.181
1398.807, 326.670
1399.995, 41.197
1401.182, 255.872
1402.370, 261.035
1403.557, 121.825
1404.744, 176.704
1405.931, 40.402
1407.118, 35.168
1408.304, 199.658
1409.490, 46.103
1410.676, 58.881
1411.862, 333.892
1413.048, 11.146
1414.234, 153.542
1415.419, 208.525
1416.604, 76.497
1417.789, 288.532
1418.974, 16.452
1420.159, 48.547
1421.343, 153.536
1422.528, 148.514
1423.712, 223.519
1424.896, 158.519
1426.079, 46.492
1427.263, 208.493
1428.446, 103.474
1429.629, 108.452
1430.812, 253.427
1431.995, 8.423
1433.178, 63.492
1434.360, 288.557
1435.543, 6.380
1436.725, 38.790
1437.907, 163.987
1439.088, 69.216
1440.270, 204.445
1441.451, 149.677
1442.632, 174.905
1443.813, 290.131
1444.994, 34.651
1446.175, 140.577
1447.355, 325.800
1448.535, 111.054
1449.715, 246.305
1450.895, 361.597
1452.075, 176.885
1453.255, 422.168
1454.434, 267.504
1455.613, 142.935
1456.792, 428.409
1457.971, 243.137
1459.149, 278.455
1460.328, 624.004
1461.506, 219.665
1462.684, 455.033
1463.862, 494.704
1465.040, 170.378
1466.217, 584.742
1467.395, 448.742
1468.572, 392.325
1469.749, 477.761
1470.925, 493.215
1472.102, 511.830
1473.278, 647.145
1474.455, 302.475
1475.631, 687.323
1476.807, 421.605
1477.982, 406.873
1479.158, 572.188
1480.333, 617.505
1481.508, 377.204
1482.683, 582.331
1483.858, 657.442
1485.033, 502.533
1486.207, 567.600
1487.381, 312.629
1488.555, 397.652
1489.729, 642.620
1490.903, 147.668
1492.076, 312.824
1493.250, 518.596
1494.423, 44.437
1495.596, 300.699
1496.769, 297.062
1497.941, 103.617
1499.114, 340.310
1500.286, 97.589
1501.458, 85.157
1502.630, 393.093
1503.802, 191.495
1504.973, 60.485
1506.145, 210.114
1507.316, 110.459
1508.487, 231.696
1509.657, 283.999
1510.828, 57.630
1511.999, 302.939
1513.169, 200.445
