##NAMES=Cerussite
##RRUFFID=R060017
##IDEAL CHEMISTRY=Pb^2+^CO_3_
##LOCALITY=Gonessa, Sardinia, Italy
##OWNER=RRUFF
##SOURCE=American Museum of Natural History
##DESCRIPTION=White reticulated composite
##STATUS=The identification of this mineral has been confirmed by X-ray diffraction and chemical analysis
##URL=rruff.info/R060017
##MEASURED CHEMISTRY=Pb_1.00_CO_3_ C not measured but estimated by difference and stoichiometry
##PIN_ID=M00240
##ORIENTATION=Laser parallel to b* (0 1 0). Fiducial mark perpendicular to laser is parallel to c [0 0 1]
51.43100, 0.0000000E+00
52.67100, 81.07605
53.91000, 215.8723
55.14900, 127.1871
56.38700, 24.13788
57.62600, 15.53320
58.86400, 54.13678
60.10300, 7.490967
61.34100, 70.85522
62.57900, 175.6169
63.81700, 291.7239
65.05400, 449.9186
66.29200, 587.5469
67.52900, 817.9099
68.76700, 1009.600
70.00400, 1226.928
71.24100, 1395.764
72.47700, 1620.011
73.71400, 1764.359
74.95100, 1891.542
76.18700, 2074.326
77.42300, 2259.511
78.65900, 2601.923
79.89500, 2930.408
81.13100, 3216.830
82.36700, 3692.068
83.60200, 4131.014
84.83700, 4705.567
86.07200, 5312.644
87.30800, 6072.164
88.54200, 6961.055
89.77700, 7848.211
91.01200, 8610.520
92.24600, 9283.890
93.48000, 9922.259
94.71400, 10398.56
95.94800, 10789.76
97.18200, 11011.81
98.41600, 11060.68
99.64900, 10899.33
100.8830, 10799.76
102.1160, 10179.92
103.3490, 9555.794
104.5820, 9182.369
105.8150, 8661.613
107.0470, 8044.508
108.2800, 7689.041
109.5120, 7328.182
110.7440, 7391.922
111.9760, 7533.242
113.2080, 7819.120
114.4400, 8178.686
115.6710, 8843.500
116.9030, 9222.973
118.1340, 9761.952
119.3650, 10528.43
120.5960, 11055.41
121.8270, 11547.89
123.0580, 11827.83
124.2880, 12179.25
125.5190, 12512.99
126.7490, 12678.70
127.9790, 12500.42
129.2090, 12405.16
130.4390, 12008.02
131.6680, 11943.04
132.8980, 11311.22
134.1270, 10851.58
135.3560, 10500.12
136.5850, 10101.85
137.8140, 9757.830
139.0430, 9600.085
140.2710, 9221.609
141.5000, 9211.408
142.7280, 9000.502
143.9560, 8818.908
145.1840, 8557.562
146.4120, 8211.447
147.6390, 8066.623
148.8670, 7813.063
150.0940, 7389.799
151.3210, 7042.823
152.5490, 6692.147
153.7750, 6353.312
155.0020, 6036.631
156.2290, 5740.773
157.4550, 5366.154
158.6810, 5086.750
159.9080, 5017.559
161.1340, 5056.610
162.3590, 4999.917
163.5850, 4915.445
164.8110, 5000.211
166.0360, 4837.212
167.2610, 4859.422
168.4860, 4831.840
169.7110, 4935.456
170.9360, 4779.262
172.1610, 4711.255
173.3850, 4733.441
174.6100, 4551.836
175.8340, 4348.410
177.0580, 4128.156
178.2820, 3871.112
179.5050, 3829.287
180.7290, 3536.627
181.9520, 3482.189
183.1760, 3223.893
184.3990, 2991.836
185.6220, 2908.949
186.8450, 2786.214
188.0670, 2645.142
189.2900, 2577.700
190.5120, 2522.889
191.7340, 2404.412
192.9560, 2252.630
194.1780, 2234.818
195.4000, 2211.181
196.6220, 2187.481
197.8430, 2172.006
199.0640, 2123.082
200.2860, 2095.961
201.5070, 2059.653
202.7270, 1980.250
203.9480, 1816.154
205.1690, 1847.967
206.3890, 1737.451
207.6090, 1823.444
208.8290, 1770.336
210.0490, 1675.800
211.2690, 1729.767
212.4890, 1642.640
213.7080, 1679.438
214.9280, 1675.221
216.1470, 1542.172
217.3660, 1527.345
218.5850, 1563.952
219.8030, 1472.881
221.0220, 1543.415
222.2400, 1472.702
223.4590, 1488.275
224.6770, 1464.492
225.8950, 1326.771
227.1120, 1471.754
228.3300, 1453.809
229.5480, 1313.002
230.7650, 1323.798
231.9820, 1339.126
233.1990, 1306.783
234.4160, 1339.269
235.6330, 1332.807
236.8490, 1363.123
238.0660, 1307.807
239.2820, 1253.492
240.4980, 1258.354
241.7140, 1220.746
242.9300, 1111.598
244.1460, 1183.959
245.3610, 1107.926
246.5770, 990.6230
247.7920, 1029.441
249.0070, 841.6089
250.2220, 882.2114
251.4370, 840.2729
252.6510, 756.5142
253.8660, 742.4243
255.0800, 690.4600
256.2940, 754.5298
257.5080, 645.0864
258.7220, 605.8242
259.9360, 485.2241
261.1490, 431.9146
262.3630, 453.9653
263.5760, 439.7812
264.7890, 505.3647
266.0020, 332.3213
267.2150, 243.1597
268.4270, 409.0508
269.6400, 314.1528
270.8520, 336.2363
272.0640, 389.9990
273.2760, 304.2710
274.4880, 317.3345
275.7000, 256.8604
276.9120, 169.9722
278.1230, 228.4062
279.3340, 152.4492
280.5450, 374.6372
281.7560, 280.4824
282.9670, 251.6479
284.1780, 228.9365
285.3880, 151.3232
286.5980, 172.0137
287.8090, 81.39648
289.0190, 79.86377
290.2290, 108.2881
291.4380, 82.41357
292.6480, 95.75293
293.8570, 103.1704
295.0670, 93.87598
296.2760, 99.16650
297.4850, 86.19238
298.6930, 72.30762
299.9020, 61.98779
301.1110, 144.8306
302.3190, 55.32764
303.5270, 79.27490
304.7350, 133.8325
305.9430, 98.35645
307.1510, 23.03857
308.3580, 88.70654
309.5660, 12.83887
310.7730, 2.776367
311.9800, 72.65039
313.1870, 17.03760
314.3940, 1.867676
315.6010, 8.279785
316.8070, 30.94824
318.0130, 59.08398
319.2200, 39.27148
320.4260, 7.329102
321.6310, 42.77148
322.8370, 82.66260
324.0430, 56.63184
325.2480, 67.06494
326.4540, 9.018066
327.6590, 34.45166
328.8640, 81.05078
330.0680, 90.33057
331.2730, 57.06641
332.4780, 44.04395
333.6820, 1.773438
334.8860, 123.7837
336.0900, 49.40527
337.2940, 18.15869
338.4980, 44.28516
339.7010, 17.62158
340.9050, 64.56494
342.1080, 39.54199
343.3110, 14.72168
344.5140, 68.82568
345.7170, 1.978516
346.9200, 93.38135
348.1220, 100.0229
349.3240, 28.59326
350.5270, 80.91943
351.7290, 115.4805
352.9310, 31.83301
354.1320, 33.10840
355.3340, 119.3281
356.5350, 8.512695
357.7370, 29.62988
358.9380, 11.65137
360.1390, 0.3452150
361.3400, 34.93164
362.5400, 21.79883
363.7410, 51.96436
364.9410, 9.792480
366.1410, 54.97119
367.3410, 79.66113
368.5410, 62.32617
369.7410, 55.40918
370.9400, 65.77637
372.1400, 1.854492
373.3390, 56.39062
374.5380, 87.82373
375.7370, 45.75391
376.9360, 71.23047
378.1350, 84.21924
379.3330, 55.97412
380.5310, 15.28320
381.7300, 23.11523
382.9280, 25.66699
384.1260, 40.13477
385.3230, 69.82227
386.5210, 52.83154
387.7180, 68.29346
388.9160, 66.96582
390.1130, 34.22559
391.3100, 54.02979
392.5060, 35.22998
393.7030, 40.07373
394.9000, 45.42041
396.0960, 66.65381
397.2920, 11.35596
398.4880, 53.58545
399.6840, 28.28857
400.8800, 10.47852
402.0750, 34.64307
403.2710, 23.31982
404.4660, 21.46191
405.6610, 15.26123
406.8560, 27.77832
408.0510, 103.0469
409.2450, 33.89502
410.4400, 46.85645
411.6340, 60.01221
412.8280, 109.0889
414.0220, 69.76611
415.2160, 16.24170
416.4100, 88.78613
417.6030, 30.68115
418.7970, 20.71631
419.9900, 39.73975
421.1830, 12.37109
422.3760, 20.50635
423.5690, 52.60889
424.7610, 34.38086
425.9540, 29.76562
427.1460, 66.83447
428.3380, 68.25488
429.5300, 27.79980
430.7220, 99.98535
431.9140, 116.3784
433.1050, 103.1514
434.2970, 47.77686
435.4880, 57.86963
436.6790, 110.8110
437.8700, 4.720703
439.0610, 76.77344
440.2510, 103.7070
441.4420, 191.6089
442.6320, 101.5288
443.8220, 165.4756
445.0120, 56.97998
446.2020, 34.97900
447.3910, 33.98193
448.5810, 150.0405
449.7700, 111.9551
450.9600, 163.2949
452.1490, 99.18359
453.3370, 92.10400
454.5260, 33.40820
455.7150, 101.2646
456.9030, 47.17920
458.0910, 25.32080
459.2800, 2.865723
460.4670, 153.8965
461.6550, 194.6567
462.8430, 129.2158
464.0300, 250.4683
465.2180, 239.2974
466.4050, 95.92822
467.5920, 280.6660
468.7790, 52.06201
469.9650, 171.7734
471.1520, 102.1494
472.3380, 309.7612
473.5250, 76.01221
474.7110, 92.68213
475.8970, 263.5884
477.0820, 144.2168
478.2680, 312.1206
479.4540, 134.9419
480.6390, 223.7632
481.8240, 207.6509
483.0090, 216.8101
484.1940, 233.0029
485.3780, 74.98047
486.5630, 259.5537
487.7470, 261.1562
488.9320, 154.6650
490.1160, 222.8403
491.3000, 236.3320
492.4830, 266.3423
493.6670, 302.8638
494.8500, 228.1787
496.0340, 186.1831
497.2170, 202.2461
498.4000, 223.0005
499.5820, 188.3218
500.7650, 180.0986
501.9480, 197.3374
503.1300, 137.7852
504.3120, 65.67041
505.4940, 225.2231
506.6760, 192.3262
507.8580, 149.3818
509.0390, 258.9614
510.2210, 269.5229
511.4020, 67.87158
512.5830, 241.3584
513.7640, 133.3237
514.9450, 265.7441
516.1250, 180.8442
517.3060, 94.54980
518.4860, 195.9131
519.6660, 144.4692
520.8460, 178.1924
522.0260, 151.2378
523.2060, 196.5220
524.3850, 70.42041
525.5650, 122.4692
526.7440, 100.4937
527.9230, 156.1318
529.1020, 144.4575
530.2810, 228.4141
531.4590, 216.9932
532.6380, 139.7988
533.8160, 175.7021
534.9940, 205.3828
536.1720, 92.75293
537.3500, 201.7788
538.5270, 122.7422
539.7050, 222.1499
540.8820, 75.54199
542.0590, 174.0015
543.2360, 92.07959
544.4130, 118.0747
545.5900, 314.5054
546.7660, 179.7417
547.9430, 211.7129
549.1190, 151.0107
550.2950, 249.6299
551.4710, 157.9629
552.6470, 137.4985
553.8220, 186.0620
554.9980, 214.4946
556.1730, 151.0229
557.3480, 143.9473
558.5230, 169.1494
559.6980, 5.733887
560.8730, 112.1074
562.0470, 174.9668
563.2220, 238.5781
564.3960, 134.0781
565.5700, 49.12207
566.7440, 63.53223
567.9170, 137.8252
569.0910, 140.0996
570.2640, 191.1680
571.4380, 130.1553
572.6110, 115.3838
573.7840, 49.96289
574.9570, 105.1104
576.1290, 143.3633
577.3020, 169.7939
578.4740, 88.22559
579.6460, 144.4512
580.8180, 204.5215
581.9900, 22.46191
583.1620, 85.49805
584.3330, 199.4795
585.5040, 111.3955
586.6760, 150.1855
587.8470, 149.5068
589.0180, 134.6270
590.1880, 153.4727
591.3590, 18.60059
592.5290, 174.4473
593.7000, 74.78711
594.8700, 110.9121
596.0400, 173.0332
597.2090, 147.3301
598.3790, 116.1328
599.5490, 68.64941
600.7180, 65.23535
601.8870, 155.2725
603.0560, 76.84961
604.2250, 97.21484
605.3940, 138.0938
606.5620, 113.7695
607.7300, 224.3691
608.8990, 32.32031
610.0670, 156.3896
611.2350, 131.9971
612.4020, 64.50000
613.5700, 106.1973
614.7370, 230.8516
615.9050, 111.1045
617.0720, 244.9863
618.2390, 42.09473
619.4060, 152.4150
620.5720, 94.31348
621.7390, 252.9521
622.9050, 27.23047
624.0710, 80.47656
625.2370, 96.85742
626.4030, 203.9951
627.5690, 136.1855
628.7340, 149.4180
629.9000, 179.2822
631.0650, 75.45020
632.2300, 195.6328
633.3950, 216.8027
634.5600, 112.9551
635.7240, 117.2529
636.8890, 102.3877
638.0530, 149.2451
639.2170, 137.9980
640.3810, 170.4883
641.5450, 131.6250
642.7080, 128.7129
643.8720, 87.88281
645.0350, 110.8799
646.1980, 56.35547
647.3610, 166.3701
648.5240, 177.8281
649.6870, 207.0039
650.8490, 108.0186
652.0120, 109.4766
653.1740, 117.4805
654.3360, 77.74023
655.4980, 181.7236
656.6600, 161.6230
657.8210, 151.0312
658.9830, 83.01562
660.1440, 104.5234
661.3050, 80.63184
662.4660, 98.26855
663.6270, 180.2275
664.7870, 216.0215
665.9480, 328.1523
667.1080, 394.7285
668.2680, 262.3623
669.4280, 364.8672
670.5880, 433.7754
671.7480, 591.6855
672.9070, 718.1484
674.0670, 744.0166
675.2260, 685.9209
676.3850, 839.5410
677.5440, 694.4443
678.7030, 753.8213
679.8610, 750.7363
681.0200, 607.1201
682.1780, 539.0332
683.3360, 403.8428
684.4940, 354.2061
685.6520, 368.1084
686.8090, 359.0000
687.9670, 352.5400
689.1240, 408.6113
690.2810, 357.4717
691.4380, 351.2236
692.5950, 348.7861
693.7520, 416.6143
694.9080, 301.4600
696.0650, 254.1748
697.2210, 24.84570
698.3770, 18.65234
699.5330, 122.7461
700.6880, 183.9766
701.8440, 117.7734
702.9990, 41.57129
704.1550, 101.1377
705.3100, 112.0322
706.4650, 74.31152
707.6190, 66.89941
708.7740, 142.4980
709.9290, 69.24512
711.0830, 99.70410
712.2370, 28.04492
713.3910, 121.8145
714.5450, 88.81836
715.6980, 123.3486
716.8520, 40.02441
718.0050, 112.7256
719.1580, 35.26855
720.3110, 134.9229
721.4640, 120.6035
722.6170, 63.26172
723.7700, 125.9971
724.9220, 76.12207
726.0740, 95.79102
727.2260, 28.35449
728.3780, 69.82812
729.5300, 59.41211
730.6810, 31.88281
731.8330, 112.7344
732.9840, 141.2881
734.1350, 87.40332
735.2860, 59.99121
736.4370, 30.08789
737.5880, 104.5898
738.7380, 171.6689
739.8880, 128.3750
741.0390, 98.23828
742.1890, 126.0771
743.3380, 20.15332
744.4880, 40.93359
745.6380, 154.6221
746.7870, 12.81738
747.9360, 59.70312
749.0850, 38.25000
750.2340, 158.7393
751.3830, 23.35742
752.5310, 129.6553
753.6800, 37.83398
754.8280, 4.474609
755.9760, 73.11719
757.1240, 103.3643
758.2720, 73.86719
759.4190, 15.94043
760.5670, 69.42969
761.7140, 95.55273
762.8610, 30.44141
764.0080, 43.87012
765.1550, 120.4141
766.3020, 15.94727
767.4480, 77.50195
768.5950, 160.9473
769.7410, 172.1748
770.8870, 118.6895
772.0330, 109.2812
773.1780, 40.38086
774.3240, 88.63379
775.4690, 5.016602
776.6140, 164.3799
777.7590, 85.75977
778.9040, 51.14355
780.0490, 94.46289
781.1940, 7.236328
782.3380, 75.73926
783.4820, 71.93652
784.6260, 62.63086
785.7700, 73.18262
786.9140, 35.59961
788.0580, 137.8408
789.2010, 127.1211
790.3450, 181.7129
791.4880, 154.1055
792.6310, 66.22461
793.7730, 123.7275
794.9160, 97.30664
796.0590, 145.9502
797.2010, 162.9521
798.3430, 36.13770
799.4850, 68.11914
800.6270, 94.40820
801.7690, 150.7188
802.9100, 131.2021
804.0520, 172.5146
805.1930, 111.1680
806.3340, 123.4785
807.4750, 76.82422
808.6160, 122.2285
809.7560, 175.7031
810.8970, 58.99805
812.0370, 136.3994
813.1770, 239.6904
814.3170, 341.1445
815.4570, 237.4814
816.5960, 326.6953
817.7360, 234.9727
818.8750, 312.3271
820.0140, 359.5996
821.1530, 329.8711
822.2920, 397.1416
823.4310, 485.4062
824.5690, 672.6641
825.7070, 685.9180
826.8460, 1112.170
827.9840, 1734.416
829.1220, 2536.663
830.2590, 3294.210
831.3970, 3643.441
832.5340, 3684.051
833.6710, 3788.375
834.8080, 3770.883
835.9450, 3237.296
837.0820, 2809.569
838.2190, 2012.790
839.3550, 1543.006
840.4910, 949.8066
841.6270, 529.9707
842.7630, 419.1797
843.8990, 199.2500
845.0350, 250.3203
846.1700, 203.5215
847.3060, 103.5635
848.4410, 226.7314
849.5760, 83.52441
850.7100, 125.7178
851.8450, 281.8525
852.9800, 228.0400
854.1140, 176.8750
855.2480, 205.0576
856.3820, 126.8633
857.5160, 66.03516
858.6500, 62.22363
859.7830, 37.83691
860.9170, 43.78906
862.0500, 32.58105
863.1830, 91.75586
864.3160, 51.56836
865.4480, 93.65137
866.5810, 12.68945
867.7130, 19.73340
868.8460, 78.91113
869.9780, 77.10742
871.1100, 61.30176
872.2410, 5.603516
873.3730, 17.82617
874.5050, 2.777344
875.6360, 37.65234
876.7670, 17.83691
877.8980, 46.01367
879.0290, 95.19043
880.1590, 30.98242
881.2900, 103.0146
882.4200, 29.75000
883.5500, 75.92578
884.6800, 82.98828
885.8100, 45.95703
886.9400, 101.0801
888.0690, 37.91406
889.1990, 7.957031
890.3280, 6.008789
891.4570, 34.60742
892.5860, 94.71973
893.7140, 122.8398
894.8430, 119.9561
895.9710, 100.7178
897.1000, 27.83008
898.2280, 65.94629
899.3560, 9.900391
900.4830, 43.90918
901.6110, 69.99219
902.7380, 83.02441
903.8660, 269.0771
904.9930, 88.84668
906.1200, 42.19043
907.2460, 30.22754
908.3730, 32.74219
909.5000, 187.1426
910.6260, 23.16016
911.7520, 190.4463
912.8780, 56.46094
914.0040, 99.51660
915.1290, 134.9785
916.2550, 131.5498
917.3800, 143.8311
918.5050, 118.8730
919.6300, 46.93945
920.7550, 26.98828
921.8800, 34.95215
923.0040, 48.08594
924.1290, 36.91797
925.2530, 4.396484
926.3770, 33.88672
927.5010, 29.88867
928.6250, 30.86426
929.7480, 21.42285
930.8720, 38.20605
931.9950, 89.72754
933.1180, 89.67090
934.2410, 181.4258
935.3640, 32.35938
936.4860, 92.28516
937.6090, 31.20801
938.7310, 97.12207
939.8530, 11.02930
940.9750, 104.9277
942.0970, 57.81836
943.2180, 42.70020
944.3400, 31.06934
945.4610, 72.93555
946.5820, 43.91406
947.7030, 80.04590
948.8240, 33.89062
949.9450, 32.27441
951.0650, 13.00098
952.1860, 110.3623
953.3060, 52.19531
954.4260, 128.0391
955.5460, 116.8750
956.6650, 108.7031
957.7850, 98.52344
958.9040, 101.0000
960.0230, 147.1699
961.1420, 108.5645
962.2610, 73.36035
963.3800, 70.92676
964.4990, 17.92578
965.6170, 96.69434
966.7350, 9.551758
967.8530, 48.36719
968.9710, 124.1064
970.0890, 70.86230
971.2070, 61.61426
972.3240, 200.3574
973.4410, 176.0918
974.5580, 70.81738
975.6750, 206.5371
976.7920, 172.2656
977.9090, 124.9854
979.0250, 65.69629
980.1410, 101.4004
981.2580, 158.2227
982.3740, 120.9102
983.4890, 143.5879
984.6050, 124.2969
985.7200, 119.9971
986.8360, 123.8516
987.9510, 110.3770
989.0660, 124.0537
990.1810, 85.75781
991.2950, 90.36328
992.4100, 151.1396
993.5240, 138.8154
994.6390, 197.3711
995.7530, 257.9922
996.8660, 159.5098
997.9800, 175.2559
999.0940, 185.8867
1000.207, 221.5322
1001.320, 46.33496
1002.433, 191.7021
1003.546, 76.31738
1004.659, 160.6914
1005.772, 181.2842
1006.884, 176.2891
1007.996, 197.9482
1009.108, 232.8652
1010.220, 167.6748
1011.332, 183.0049
1012.444, 126.8223
1013.555, 214.3564
1014.666, 156.4346
1015.777, 67.94727
1016.888, 230.8096
1017.999, 184.3018
1019.110, 247.7812
1020.220, 149.4521
1021.331, 183.9102
1022.441, 298.5654
1023.551, 321.3506
1024.661, 406.6309
1025.770, 359.6406
1026.880, 517.5479
1027.989, 353.9395
1029.098, 532.5371
1030.207, 473.7393
1031.316, 415.9277
1032.425, 422.2715
1033.533, 435.2656
1034.642, 466.5127
1035.750, 419.8086
1036.858, 495.1914
1037.966, 644.9121
1039.073, 790.1084
1040.181, 1154.676
1041.288, 1481.760
1042.396, 2113.245
1043.503, 3473.468
1044.610, 6700.607
1045.716, 15468.69
1046.823, 33376.42
1047.929, 44311.16
1049.036, 42713.43
1050.142, 47110.57
1051.248, 46767.70
1052.353, 40722.66
1053.459, 32033.79
1054.564, 22382.50
1055.670, 13733.51
1056.775, 6830.684
1057.880, 3093.650
1058.985, 1584.299
1060.089, 961.1777
1061.194, 781.0088
1062.298, 570.8330
1063.402, 520.5635
1064.506, 311.2148
1065.610, 387.6689
1066.713, 323.6006
1067.817, 200.5186
1068.920, 268.2646
1070.023, 307.7227
1071.126, 405.4277
1072.229, 266.2861
1073.332, 293.7900
1074.435, 203.6201
1075.537, 154.3955
1076.639, 32.09180
1077.741, 268.6963
1078.843, 2.461914
1079.945, 269.0947
1081.046, 166.8174
1082.148, 201.3643
1083.249, 96.00684
1084.350, 213.7529
1085.451, 135.1582
1086.551, 153.1211
1087.652, 198.7529
1088.752, 142.3701
1089.853, 284.9717
1090.953, 275.1074
1092.053, 109.6777
1093.152, 34.64648
1094.252, 207.1797
1095.351, 336.6973
1096.451, 211.1943
1097.550, 346.3711
1098.649, 88.84277
1099.748, 95.91602
1100.846, 318.2520
1101.945, 389.7998
1103.043, 154.1973
1104.141, 117.5381
1105.239, 228.9141
1106.337, 118.2734
1107.434, 162.6045
1108.532, 167.9600
1109.629, 191.2725
1110.726, 141.5693
1111.823, 217.8105
1112.920, 83.24512
1114.017, 155.4922
1115.113, 389.7246
1116.210, 351.6533
1117.306, 334.8516
1118.402, 259.6621
1119.498, 419.8291
1120.593, 359.9805
1121.689, 333.2715
1122.784, 424.3887
1123.879, 219.4902
1124.974, 183.5742
1126.069, 193.6426
1127.164, 263.3535
1128.259, 167.3877
1129.353, 33.40723
1130.447, 175.3994
1131.541, 143.3750
1132.635, 22.33398
1133.729, 130.1211
1134.822, 149.0352
1135.916, 34.08594
1137.009, 196.7549
1138.102, 115.5791
1139.195, 108.3896
1140.288, 74.18359
1141.380, 13.03711
1142.473, 104.1270
1143.565, 59.84473
1144.657, 134.5430
1145.749, 63.22559
1146.841, 139.8975
1147.932, 131.4697
1149.024, 203.1152
1150.115, 179.7461
1151.206, 59.35938
1152.297, 239.9570
1153.388, 2.538086
1154.479, 210.0811
1155.569, 22.61426
1156.659, 35.12012
1157.750, 15.60547
1158.839, 116.0605
1159.929, 55.50000
1161.019, 7.921875
1162.108, 90.31348
1163.198, 103.6885
1164.287, 125.0508
1165.376, 123.3975
1166.465, 50.73047
1167.553, 68.06543
1168.642, 68.61426
1169.730, 3.365234
1170.818, 11.87012
1171.906, 179.0811
1172.994, 17.72266
1174.082, 150.4404
1175.170, 45.58887
1176.257, 0.7246090
1177.344, 138.1719
1178.431, 4.827148
1179.518, 44.79883
1180.605, 82.75488
1181.691, 69.69824
1182.778, 81.37109
1183.864, 39.48828
1184.950, 15.33301
1186.036, 137.1582
1187.122, 98.98047
1188.207, 50.80273
1189.292, 64.61328
1190.378, 55.33301
1191.463, 69.20215
1192.548, 61.98047
1193.632, 94.74805
1194.717, 48.50586
1195.801, 35.73828
1196.886, 68.97559
1197.970, 125.6787
1199.054, 52.37207
1200.137, 9.054688
1201.221, 123.7197
1202.305, 112.3750
1203.388, 143.0195
1204.471, 132.6553
1205.554, 140.2812
1206.637, 172.8965
1207.719, 27.00977
1208.802, 143.6064
1209.884, 107.7891
1210.966, 136.3691
1212.048, 260.9375
1213.130, 180.4980
1214.212, 38.02637
1215.293, 163.4160
1216.374, 62.96191
1217.456, 40.44629
1218.536, 113.8467
1219.617, 75.23828
1220.698, 3.377930
1221.778, 127.9912
1222.859, 1.669922
1223.939, 134.0859
1225.019, 114.4258
1226.099, 42.75879
1227.178, 33.08594
1228.258, 146.4062
1229.337, 91.62109
1230.417, 101.8613
1231.496, 85.83594
1232.574, 74.41309
1233.653, 164.6582
1234.732, 19.89648
1235.810, 83.12891
1236.888, 167.3555
