##NAMES=Cerussite
##RRUFFID=R050298
##IDEAL CHEMISTRY=Pb^2+^CO_3_
##LOCALITY=Bunker Hill mine, Shoshone County, Idaho, USA
##OWNER=RRUFF
##SOURCE=Eugene Schlepp
##DESCRIPTION=Group of colorless tabular crystals
##STATUS=The identification of this mineral has been confirmed by X-ray diffraction and chemical analysis
##URL=rruff.info/R050298
##MEASURED CHEMISTRY=Pb_1.00_CO_3_
##PIN_ID=L00742
##ORIENTATION=Laser parallel to -a* (-1 0 0). Fiducial mark perpendicular to laser is parallel to b [0 1 0]
51.43100, 0.0000000E+00
52.67100, 30.56503
53.91000, 24.47363
55.14900, 53.30032
56.38700, 24.09439
57.62600, 4.729614
58.86400, 15.13544
60.10300, 10.73386
61.34100, 17.94666
62.57900, 113.4662
63.81700, 225.4578
65.05400, 400.6151
66.29200, 697.6828
67.52900, 1025.447
68.76700, 1528.729
70.00400, 2002.376
71.24100, 2773.262
72.47700, 3559.268
73.71400, 4150.292
74.95100, 4888.241
76.18700, 5105.039
77.42300, 5059.613
78.65900, 4674.905
79.89500, 4393.860
81.13100, 4050.432
82.36700, 3668.577
83.60200, 3466.258
84.83700, 3231.442
86.07200, 3095.099
87.30800, 3036.206
88.54200, 2839.745
89.77700, 2721.686
91.01200, 2639.993
92.24600, 2580.637
93.48000, 2425.592
94.71400, 2344.840
95.94800, 2205.363
97.18200, 2102.148
98.41600, 2032.179
99.64900, 1838.448
100.8830, 1779.945
102.1160, 1633.660
103.3490, 1590.584
104.5820, 1486.708
105.8150, 1441.022
107.0470, 1319.518
108.2800, 1263.188
109.5120, 1280.039
110.7440, 1245.049
111.9760, 1164.213
113.2080, 1147.531
114.4400, 1127.003
115.6710, 1142.622
116.9030, 1117.387
118.1340, 1152.286
119.3650, 1186.321
120.5960, 1266.512
121.8270, 1367.846
123.0580, 1491.385
124.2880, 1613.090
125.5190, 1854.922
126.7490, 2030.780
127.9790, 2333.648
129.2090, 2647.527
130.4390, 2934.411
131.6680, 3326.319
132.8980, 3588.268
134.1270, 3785.262
135.3560, 3903.311
136.5850, 3828.406
137.8140, 3603.560
139.0430, 3374.759
140.2710, 2981.012
141.5000, 2695.316
142.7280, 2312.685
143.9560, 2124.105
145.1840, 1948.610
146.4120, 1714.185
147.6390, 1733.857
148.8670, 1551.584
150.0940, 1459.377
151.3210, 1416.224
152.5490, 1269.120
153.7750, 1248.075
155.0020, 1174.075
156.2290, 1079.120
157.4550, 1090.204
158.6810, 1034.328
159.9080, 1004.494
161.1340, 879.7005
162.3590, 855.9460
163.5850, 834.2275
164.8110, 807.5443
166.0360, 788.4439
167.2610, 781.8286
168.4860, 793.2521
169.7110, 773.7113
170.9360, 803.2078
172.1610, 767.7333
173.3850, 757.2938
174.6100, 758.5345
175.8340, 770.1456
177.0580, 773.1909
178.2820, 777.9387
179.5050, 762.0565
180.7290, 794.9529
181.9520, 768.4323
183.1760, 777.2560
184.3990, 783.0432
185.6220, 753.9363
186.8450, 757.2061
188.0670, 811.8718
189.2900, 787.8652
190.5120, 784.4909
191.7340, 776.0854
192.9560, 861.9178
194.1780, 863.3398
195.4000, 905.7355
196.6220, 923.7897
197.8430, 981.5408
199.0640, 1056.520
200.2860, 1122.649
201.5070, 1208.048
202.7270, 1248.205
203.9480, 1280.282
205.1690, 1394.348
206.3890, 1444.174
207.6090, 1533.083
208.8290, 1622.461
210.0490, 1707.519
211.2690, 1829.220
212.4890, 1937.938
213.7080, 2065.147
214.9280, 2112.481
216.1470, 2184.409
217.3660, 2165.855
218.5850, 2064.468
219.8030, 2021.411
221.0220, 1871.648
222.2400, 1769.848
223.4590, 1544.216
224.6770, 1379.626
225.8950, 1256.409
227.1120, 1128.265
228.3300, 981.6896
229.5480, 837.6354
230.7650, 813.6011
231.9820, 772.9835
233.1990, 679.1636
234.4160, 623.0448
235.6330, 573.9218
236.8490, 503.0055
238.0660, 463.6249
239.2820, 431.5286
240.4980, 394.3065
241.7140, 369.1364
242.9300, 358.1805
244.1460, 287.2450
245.3610, 307.7344
246.5770, 258.6437
247.7920, 287.8673
249.0070, 288.9535
250.2220, 259.6542
251.4370, 256.8870
252.6510, 210.5034
253.8660, 201.7430
255.0800, 185.9486
256.2940, 197.3135
257.5080, 164.2029
258.7220, 170.4689
259.9360, 149.7529
261.1490, 144.0553
262.3630, 117.4075
263.5760, 75.74414
264.7890, 98.19135
266.0020, 62.80530
267.2150, 67.18652
268.4270, 109.6259
269.6400, 107.3746
270.8520, 25.79431
272.0640, 44.22443
273.2760, 29.66455
274.4880, 35.11487
275.7000, 44.57605
276.9120, 61.05841
278.1230, 34.88483
279.3340, 27.62518
280.5450, 23.91547
281.7560, 6.421082
282.9670, 3.115173
284.1780, 22.19977
285.3880, 24.72998
286.5980, 50.27203
287.8090, 1.820740
289.0190, 11.37237
290.2290, 24.22937
291.4380, 6.793762
292.6480, 8.405884
293.8570, 2.107971
295.0670, 17.73969
296.2760, 27.67590
297.4850, 12.90985
298.6930, 14.49933
299.9020, 2.092285
301.1110, 19.26593
302.3190, 5.354370
303.5270, 5.735962
304.7350, 19.13434
305.9430, 16.76904
307.1510, 6.372742
308.3580, 9.770325
309.5660, 5.1819000E-02
310.7730, 25.44458
311.9800, 1.840881
313.1870, 1.236633
314.3940, 15.36768
315.6010, 10.03662
316.8070, 0.6411740
318.0130, 3.745728
319.2200, 3.340454
320.4260, 37.04358
321.6310, 3.451233
322.8370, 21.84564
324.0430, 10.03796
325.2480, 23.30554
326.4540, 3.729858
327.6590, 17.94299
328.8640, 15.35895
330.0680, 4.666565
331.2730, 48.11127
332.4780, 35.57526
333.6820, 41.05316
334.8860, 13.54828
336.0900, 14.95996
337.2940, 18.47473
338.4980, 26.01434
339.7010, 18.57458
340.9050, 35.14966
342.1080, 1.253784
343.3110, 36.35541
344.5140, 40.97083
345.7170, 10.59467
346.9200, 22.21277
348.1220, 36.83105
349.3240, 22.45715
350.5270, 13.08362
351.7290, 2.707458
352.9310, 4.327271
354.1320, 9.124573
355.3340, 22.48859
356.5350, 1.110901
357.7370, 7.733398
358.9380, 7.359924
360.1390, 3.008728
361.3400, 4.623474
362.5400, 23.26074
363.7410, 28.09717
364.9410, 6.445862
366.1410, 10.18909
367.3410, 8.157410
368.5410, 9.593079
369.7410, 2.929810
370.9400, 3.253418
372.1400, 20.58185
373.3390, 4.896606
374.5380, 6.204224
375.7370, 0.4744260
376.9360, 4.815796
378.1350, 14.12793
379.3330, 16.41656
380.5310, 24.28754
381.7300, 1.958984
382.9280, 1.773926
384.1260, 1.529602
385.3230, 32.03876
386.5210, 0.8624270
387.7180, 24.30267
388.9160, 12.45715
390.1130, 4.723083
391.3100, 4.5288000E-02
392.5060, 42.53137
393.7030, 12.63916
394.9000, 28.73511
396.0960, 17.29407
397.2920, 4.509155
398.4880, 48.57904
399.6840, 29.63330
400.8800, 15.02667
402.0750, 41.06940
403.2710, 44.15057
404.4660, 45.38928
405.6610, 39.73315
406.8560, 43.73535
408.0510, 36.79156
409.2450, 31.19720
410.4400, 63.36609
411.6340, 42.51111
412.8280, 30.04211
414.0220, 71.04718
415.2160, 58.09589
416.4100, 55.02588
417.6030, 53.03589
418.7970, 75.21527
419.9900, 51.19910
421.1830, 34.09375
422.3760, 55.97626
423.5690, 49.46698
424.7610, 77.33081
425.9540, 43.18567
427.1460, 29.13464
428.3380, 58.98169
429.5300, 57.82513
430.7220, 58.64465
431.9140, 73.45020
433.1050, 41.31177
434.2970, 69.10040
435.4880, 56.87933
436.6790, 51.69745
437.8700, 57.45441
439.0610, 68.20355
440.2510, 75.39392
441.4420, 75.12317
442.6320, 90.84235
443.8220, 60.54932
445.0120, 62.90167
446.2020, 45.58972
447.3910, 70.19342
448.5810, 46.48804
449.7700, 73.13983
450.9600, 49.78149
452.1490, 58.25439
453.3370, 80.98608
454.5260, 78.33478
455.7150, 83.90131
456.9030, 79.46393
458.0910, 64.04004
459.2800, 82.61584
460.4670, 71.16193
461.6550, 43.67920
462.8430, 71.20831
464.0300, 85.40265
465.2180, 71.70264
466.4050, 54.51489
467.5920, 58.77130
468.7790, 80.44373
469.9650, 54.80957
471.1520, 70.68616
472.3380, 59.59790
473.5250, 87.87964
474.7110, 115.0773
475.8970, 90.90833
477.0820, 84.39349
478.2680, 58.22333
479.4540, 71.95319
480.6390, 88.48218
481.8240, 104.5937
483.0090, 91.04053
484.1940, 79.57202
485.3780, 86.84302
486.5630, 68.22290
487.7470, 75.30768
488.9320, 81.97217
490.1160, 88.99548
491.3000, 96.17676
492.4830, 90.10437
493.6670, 82.50122
494.8500, 96.38629
496.0340, 48.15540
497.2170, 96.38879
498.4000, 62.11139
499.5820, 85.93793
500.7650, 98.38324
501.9480, 81.80927
503.1300, 64.73535
504.3120, 58.23187
505.4940, 52.64465
506.6760, 67.80347
507.8580, 50.73981
509.0390, 51.77997
510.2210, 40.71753
511.4020, 52.66986
512.5830, 79.30389
513.7640, 50.91724
514.9450, 72.01086
516.1250, 60.62933
517.3060, 48.35071
518.4860, 82.61670
519.6660, 45.23792
520.8460, 49.07965
522.0260, 45.95996
523.2060, 51.75696
524.3850, 41.95685
525.5650, 36.90125
526.7440, 26.99792
527.9230, 49.06738
529.1020, 42.94684
530.2810, 60.82916
531.4590, 29.30804
532.6380, 24.38745
533.8160, 15.17169
534.9940, 49.11011
536.1720, 59.45142
537.3500, 11.27704
538.5270, 25.73376
539.7050, 37.58105
540.8820, 42.47632
542.0590, 14.22491
543.2360, 36.45966
544.4130, 30.32904
545.5900, 19.19025
546.7660, 14.04749
547.9430, 40.87244
549.1190, 29.76965
550.2950, 10.55829
551.4710, 20.12634
552.6470, 21.00696
553.8220, 5.759460
554.9980, 29.20447
556.1730, 24.98187
557.3480, 48.75116
558.5230, 26.51343
559.6980, 15.26788
560.8730, 27.01294
562.0470, 43.73932
563.2220, 38.12421
564.3960, 29.87421
565.5700, 44.54926
566.7440, 43.33258
567.9170, 24.22119
569.0910, 32.68872
570.2640, 33.74188
571.4380, 50.45508
572.6110, 39.12891
573.7840, 27.97906
574.9570, 37.34460
576.1290, 40.00238
577.3020, 28.61145
578.4740, 47.60492
579.6460, 37.19275
580.8180, 36.82617
581.9900, 53.45612
583.1620, 41.08002
584.3330, 35.69781
585.5040, 67.26385
586.6760, 48.84833
587.8470, 44.14014
589.0180, 54.73657
590.1880, 45.02863
591.3590, 33.61658
592.5290, 51.94727
593.7000, 18.41211
594.8700, 4.983215
596.0400, 39.54865
597.2090, 58.10895
598.3790, 36.66412
599.5490, 29.14948
600.7180, 38.69385
601.8870, 25.22412
603.0560, 34.27557
604.2250, 53.78815
605.3940, 5.681580
606.5620, 27.82349
607.7300, 24.11963
608.8990, 42.48248
610.0670, 29.99469
611.2350, 22.28601
612.4020, 34.77271
613.5700, 41.14453
614.7370, 38.65118
615.9050, 38.16333
617.0720, 63.67834
618.2390, 46.20013
619.4060, 44.63702
620.5720, 71.24524
621.7390, 50.76892
622.9050, 72.28973
624.0710, 28.81061
625.2370, 44.33557
626.4030, 75.85712
627.5690, 85.38342
628.7340, 89.91571
629.9000, 79.44727
631.0650, 71.98224
632.2300, 54.52142
633.3950, 89.06311
634.5600, 75.60522
635.7240, 49.14575
636.8890, 42.61481
638.0530, 87.15082
639.2170, 56.69037
640.3810, 44.23212
641.5450, 28.77429
642.7080, 46.31671
643.8720, 55.85736
645.0350, 42.39813
646.1980, 57.93359
647.3610, 62.47583
648.5240, 24.99738
649.6870, 22.52905
650.8490, 46.96661
652.0120, 30.49811
653.1740, 32.03607
654.3360, 22.56189
655.4980, 22.09656
656.6600, 9.630737
657.8210, 23.14319
658.9830, 5.677124
660.1440, 51.18005
661.3050, 38.69946
662.4660, 7.204041
663.6270, 21.74072
664.7870, 44.24622
665.9480, 43.70337
667.1080, 40.02216
668.2680, 56.58331
669.4280, 56.13599
670.5880, 118.6912
671.7480, 144.1248
672.9070, 289.6294
674.0670, 540.8174
675.2260, 932.3757
676.3850, 1019.935
677.5440, 691.2749
678.7030, 319.7268
679.8610, 164.2792
681.0200, 93.83887
682.1780, 40.05078
683.3360, 59.60138
684.4940, 41.10443
685.6520, 16.44098
686.8090, 13.66315
687.9670, 6.217224
689.1240, 6.707642
690.2810, 27.83832
691.4380, 4.195068
692.5950, 51.56958
693.7520, 31.54834
694.9080, 39.04181
696.0650, 63.48212
697.2210, 109.0313
698.3770, 95.49054
699.5330, 48.77057
700.6880, 22.23633
701.8440, 25.78113
702.9990, 8.330994
704.1550, 28.83691
705.3100, 2.384949
706.4650, 7.068481
707.6190, 6.628784
708.7740, 23.10077
709.9290, 6.414856
711.0830, 16.94403
712.2370, 3.527527
713.3910, 26.93835
714.5450, 38.46564
715.6980, 33.99408
716.8520, 9.255920
718.0050, 41.26825
719.1580, 42.79248
720.3110, 35.31909
721.4640, 40.84546
722.6170, 91.37097
723.7700, 70.89612
724.9220, 88.42291
726.0740, 53.94751
727.2260, 119.4731
728.3780, 105.2449
729.5300, 110.7711
730.6810, 110.2970
731.8330, 90.82367
732.9840, 88.22375
734.1350, 73.36798
735.2860, 80.89441
736.4370, 70.42072
737.5880, 57.94690
738.7380, 40.46265
739.8880, 62.98895
741.0390, 46.47601
742.1890, 46.00500
743.3380, 54.53406
744.4880, 33.20020
745.6380, 36.72131
746.7870, 62.21698
747.9360, 24.74805
749.0850, 34.41199
750.2340, 23.90265
751.3830, 51.44495
752.5310, 28.21472
753.6800, 25.74927
754.8280, 31.29010
755.9760, 34.39905
757.1240, 8.932251
758.2720, 1.534241
759.4190, 10.02283
760.5670, 20.55530
761.7140, 19.08777
762.8610, 39.62024
764.0080, 43.15265
765.1550, 11.68506
766.3020, 53.21741
767.4480, 33.74969
768.5950, 10.28198
769.7410, 17.81421
770.8870, 39.35809
772.0330, 35.89014
773.1780, 28.42212
774.3240, 28.95404
775.4690, 24.52313
776.6140, 35.09015
777.7590, 23.47949
778.9040, 44.01709
780.0490, 14.55249
781.1940, 43.08984
782.3380, 62.62158
783.4820, 45.15308
784.6260, 33.68457
785.7700, 45.21600
786.9140, 45.74744
788.0580, 54.27710
789.2010, 54.82532
790.3450, 60.35724
791.4880, 42.88910
792.6310, 36.42102
793.7730, 22.95270
794.9160, 33.40558
796.0590, 31.93762
797.2010, 37.35529
798.3430, 9.887390
799.4850, 19.41956
800.6270, 30.86023
801.7690, 30.39252
802.9100, 36.92499
804.0520, 15.71869
805.1930, 8.252502
806.3340, 50.78613
807.4750, 23.31964
808.6160, 20.85303
809.7560, 3.613098
810.8970, 33.92023
812.0370, 32.45496
813.1770, 43.98956
814.3170, 6.453186
815.4570, 2.124695
816.5960, 39.69495
817.7360, 23.33936
818.8750, 14.06287
820.0140, 38.59827
821.1530, 14.13361
822.2920, 11.66907
823.4310, 24.19995
824.5690, 30.72192
825.7070, 52.19543
826.8460, 46.67444
827.9840, 73.21381
829.1220, 26.53723
830.2590, 25.13916
831.3970, 50.68219
832.5340, 72.26343
833.6710, 121.8069
834.8080, 134.3502
835.9450, 226.8936
837.0820, 285.4381
838.2190, 564.9990
839.3550, 775.5757
840.4910, 732.1061
841.6270, 587.6505
842.7630, 367.1234
843.8990, 230.3148
845.0350, 143.6621
846.1700, 90.84399
847.3060, 98.39392
848.4410, 34.93787
849.5760, 17.37830
850.7100, 30.97552
851.8450, 26.92102
852.9800, 6.472473
854.1140, 17.62250
855.2480, 28.22839
856.3820, 20.44360
857.5160, 9.984558
858.6500, 32.52539
859.7830, 17.06604
860.9170, 9.606506
862.0500, 32.14709
863.1830, 29.68744
864.3160, 5.772400
865.4480, 62.76526
866.5810, 54.30273
867.7130, 60.83997
868.8460, 20.37903
869.9780, 24.91840
871.1100, 19.46185
872.2410, 16.00500
873.3730, 19.55341
874.5050, 17.11664
875.6360, 25.66449
876.7670, 14.31104
877.8980, 42.86548
879.0290, 23.41425
880.1590, 16.96277
881.2900, 19.51465
882.4200, 21.06622
883.5500, 27.61743
884.6800, 2.831299
885.8100, 12.71808
886.9400, 8.267334
888.0690, 21.18359
889.1990, 10.35431
890.3280, 8.891785
891.4570, 10.57135
892.5860, 24.95996
893.7140, 11.48108
894.8430, 4.922363
895.9710, 35.44751
897.1000, 15.97668
898.2280, 16.50531
899.3560, 39.03412
900.4830, 18.56812
901.6110, 26.10291
902.7380, 11.64307
903.8660, 28.18494
904.9930, 12.72485
906.1200, 8.265381
907.2460, 11.80530
908.3730, 19.34454
909.5000, 17.88892
910.6260, 2.432678
911.7520, 2.975464
912.8780, 14.48279
914.0040, 10.05072
915.1290, 10.58344
916.2550, 10.11731
917.3800, 20.65033
918.5050, 13.18463
919.6300, 17.71814
920.7550, 22.25763
921.8800, 17.80054
923.0040, 20.34619
924.1290, 7.890991
925.2530, 15.43970
926.3770, 24.98798
927.5010, 40.53546
928.6250, 48.08197
929.7480, 32.62762
930.8720, 23.17261
931.9950, 31.71716
933.1180, 14.26111
934.2410, 16.80652
935.3640, 26.35596
936.4860, 36.90485
937.6090, 43.45270
938.7310, 4.000549
939.8530, 40.54694
940.9750, 53.08618
942.0970, 35.63141
943.2180, 14.17548
944.3400, 13.71851
945.4610, 45.12091
946.5820, 40.66162
947.7030, 43.20111
948.8240, 7.739380
949.9450, 3.027405
951.0650, 4.535278
952.1860, 0.9246220
953.3060, 2.382935
954.4260, 25.15552
955.5460, 16.69720
956.6650, 42.23767
957.7850, 15.77679
958.9040, 19.31458
960.0230, 25.85107
961.1420, 26.38641
962.2610, 44.92194
963.3800, 12.54401
964.4990, 1.981445
965.6170, 17.50580
966.7350, 5.028625
967.8530, 25.54968
968.9710, 32.06915
970.0890, 35.58783
971.2070, 44.10571
972.3240, 10.62225
973.4410, 14.85712
974.5580, 11.65570
975.6750, 57.16687
976.7920, 14.67712
977.9090, 12.18604
979.0250, 0.3051760
980.1410, 20.21021
981.2580, 5.729797
982.3740, 22.24731
983.4890, 1.763184
984.6050, 4.280273
985.7200, 4.204102
986.8360, 3.307129
987.9510, 8.544800
989.0660, 3.055115
990.1810, 8.436584
991.2950, 68.06396
992.4100, 27.56244
993.5240, 62.05927
994.6390, 16.55426
995.7530, 69.10608
996.8660, 37.59766
997.9800, 78.08728
999.0940, 40.32849
1000.207, 42.81543
1001.320, 49.30029
1002.433, 18.23743
1003.546, 47.73242
1004.659, 78.80066
1005.772, 36.27734
1006.884, 20.00452
1007.996, 14.47687
1009.108, 29.94672
1010.220, 3.558044
1011.332, 17.25610
1012.444, 24.71832
1013.555, 25.18011
1014.666, 31.63763
1015.777, 69.09277
1016.888, 26.54547
1017.999, 33.03802
1019.110, 30.35315
1020.220, 38.79858
1021.331, 34.29968
1022.441, 36.50366
1023.551, 28.94049
1024.661, 58.36871
1025.770, 76.22632
1026.880, 49.65729
1027.989, 52.08594
1029.098, 75.50635
1030.207, 130.9305
1031.316, 207.3523
1032.425, 301.9221
1033.533, 334.6616
1034.642, 255.3691
1035.750, 190.1546
1036.858, 151.0541
1037.966, 115.4603
1039.073, 147.8636
1040.181, 192.2558
1041.288, 218.6537
1042.396, 265.3945
1043.503, 341.7869
1044.610, 370.1393
1045.716, 505.4910
1046.823, 688.0173
1047.929, 1060.393
1049.036, 1645.151
1050.142, 2702.520
1051.248, 3943.331
1052.353, 6710.700
1053.459, 13251.63
1054.564, 32735.93
1055.670, 58860.09
1056.775, 55366.44
1057.880, 31259.90
1058.985, 13351.32
1060.089, 5111.668
1061.194, 2343.011
1062.298, 1301.352
1063.402, 844.6895
1064.506, 574.0753
1065.610, 429.4062
1066.713, 367.3429
1067.817, 288.7153
1068.920, 234.0363
1070.023, 205.3538
1071.126, 150.6678
1072.229, 153.6419
1073.332, 127.9492
1074.435, 143.2530
1075.537, 83.55322
1076.639, 117.8502
1077.741, 95.14355
1078.843, 48.43414
1079.945, 89.72119
1081.046, 75.00488
1082.148, 92.19562
1083.249, 96.42957
1084.350, 82.10223
1085.451, 80.13824
1086.551, 90.21600
1087.652, 68.48456
1088.752, 60.74445
1089.853, 97.00085
1090.953, 76.25348
1092.053, 132.5026
1093.152, 59.74792
1094.252, 72.22729
1095.351, 62.46533
1096.451, 68.84180
1097.550, 78.16498
1098.649, 61.39209
1099.748, 95.57739
1100.846, 108.7973
1101.945, 67.14423
1103.043, 50.49353
1104.141, 31.70264
1105.239, 79.25201
1106.337, 69.98413
1107.434, 78.16974
1108.532, 74.48877
1109.629, 77.67920
1110.726, 41.85522
1111.823, 44.78479
1112.920, 49.96429
1114.017, 89.10107
1115.113, 52.27295
1116.210, 67.97858
1117.306, 57.22955
1118.402, 55.17682
1119.498, 57.27081
1120.593, 84.68726
1121.689, 83.83868
1122.784, 32.31134
1123.879, 72.45428
1124.974, 85.59351
1126.069, 53.73535
1127.164, 17.93701
1128.259, 28.06445
1129.353, 43.18823
1130.447, 40.30835
1131.541, 48.66180
1132.635, 45.77570
1133.729, 4.885925
1134.822, 21.98834
1135.916, 2.087036
1137.009, 25.17676
1138.102, 8.737122
1139.195, 31.33459
1140.288, 25.38745
1141.380, 12.45203
1142.473, 9.413269
1143.565, 24.46185
1144.657, 22.51227
1145.749, 61.55914
1146.841, 22.60254
1147.932, 25.64246
1149.024, 15.67889
1150.115, 31.71149
1151.206, 31.74139
1152.297, 13.76782
1153.388, 32.79028
1154.479, 47.81476
1155.569, 34.83588
1156.659, 36.85382
1157.750, 39.87097
1158.839, 21.88489
1159.929, 14.89563
1161.019, 23.90302
1162.108, 30.90723
1163.198, 8.908264
1164.287, 12.09521
1165.376, 4.886536
1166.465, 13.13751
1167.553, 0.8234860
1168.642, 47.77692
1169.730, 19.72736
1170.818, 14.67487
1171.906, 31.61945
1172.994, 13.43896
1174.082, 25.48822
1175.170, 17.41248
1176.257, 33.33411
1177.344, 26.25323
1178.431, 18.17328
1179.518, 1.090698
1180.605, 38.00177
1181.691, 8.9599997E-02
1182.778, 35.81219
1183.864, 18.28851
1184.950, 8.405273
1186.036, 6.532776
1187.122, 52.33008
1188.207, 11.80951
1189.292, 6.038757
1190.378, 46.88397
1191.463, 18.72681
1192.548, 22.56744
1193.632, 8.406006
1194.717, 5.242249
1195.801, 22.07581
1196.886, 5.092896
1197.970, 12.26917
1199.054, 11.54321
1200.137, 23.35352
1201.221, 53.16187
1202.305, 11.03162
1203.388, 23.76599
1204.471, 26.56165
1205.554, 22.35547
1206.637, 46.14758
1207.719, 34.93787
1208.802, 14.72644
1209.884, 14.51331
1210.966, 28.29846
1212.048, 12.91785
1213.130, 14.85583
1214.212, 5.371826
1215.293, 12.60486
1216.374, 25.15308
1217.456, 15.08948
1218.536, 23.65759
1219.617, 21.40320
1220.698, 10.14746
1221.778, 44.89062
1222.859, 26.63257
1223.939, 3.626831
1225.019, 36.11023
1226.099, 4.846191
1227.178, 2.415161
1228.258, 21.32092
1229.337, 22.05615
1230.417, 28.79041
1231.496, 2.476074
1232.574, 2.744873
1233.653, 0.9838870
1234.732, 24.28821
1235.810, 11.57312
1236.888, 48.14062
1237.966, 3.146118
