##NAMES=Cerussite
##RRUFFID=R050023
##IDEAL CHEMISTRY=Pb^2+^CO_3_
##LOCALITY=Mammoth - St Anthony mine, Tiger, Pinal County, Arizona, USA
##OWNER=RRUFF
##SOURCE=Eugene Schlepp
##DESCRIPTION=Prismatic white single crystals
##STATUS=The identification of this mineral has been confirmed by X-ray diffraction and chemical analysis
##URL=rruff.info/R050023
##MEASURED CHEMISTRY=Pb_1.00_CO_3_ ; CO_2_ not measured but estimated by difference and stoichiometry
##PIN_ID=L00207
##ORIENTATION=Laser parallel to a* (1 0 0). Fiducial mark perpendicular to laser is parallel to b [0 1 0]
64.084, 0.000
65.484, 15.987
66.884, 21.988
68.284, 9.842
69.684, 2.261
71.083, 11.057
72.482, 1.725
73.881, 1.485
75.280, 11.752
76.678, 24.155
78.076, 28.391
79.474, 22.214
80.872, 33.422
82.270, 27.850
83.667, 82.363
85.064, 96.851
86.461, 161.218
87.858, 222.375
89.254, 269.244
90.650, 362.757
92.046, 403.853
93.442, 543.481
94.838, 620.595
96.233, 702.154
97.628, 840.128
99.023, 932.491
100.418, 999.223
101.812, 1090.306
103.206, 1104.720
104.600, 1199.450
105.994, 1198.475
107.387, 1346.768
108.781, 1457.300
110.174, 1464.050
111.566, 1447.001
112.959, 1504.137
114.351, 1524.446
115.744, 1709.918
117.136, 1821.542
118.527, 1958.310
119.919, 2196.215
121.310, 2480.247
122.701, 2739.400
124.092, 3103.667
125.482, 3534.044
126.873, 3912.526
128.263, 4275.117
129.653, 4452.840
131.042, 4669.683
132.432, 4714.655
133.821, 4580.771
135.210, 4486.987
136.599, 4340.351
137.987, 4219.843
139.376, 4128.454
140.764, 4165.864
142.152, 4304.002
143.539, 4398.945
144.927, 4687.965
146.314, 4992.054
147.701, 5349.177
149.088, 5514.259
150.474, 5731.308
151.861, 5727.346
153.247, 5585.386
154.633, 5221.423
156.018, 4917.458
157.404, 4377.519
158.789, 4218.592
160.174, 3854.679
161.559, 3814.788
162.943, 3660.920
164.327, 3729.077
165.711, 3997.259
167.095, 4133.466
168.479, 4485.694
169.862, 4666.944
171.246, 4960.216
172.628, 5143.508
174.011, 5293.823
175.394, 5314.158
176.776, 5070.511
178.158, 4869.880
179.540, 4476.267
180.922, 4199.670
182.303, 3799.088
183.684, 3496.521
185.065, 3051.969
186.446, 2819.434
187.826, 2608.911
189.207, 2333.568
190.587, 2172.333
191.967, 2022.840
193.346, 1856.141
194.726, 1817.369
196.105, 1676.402
197.484, 1664.915
198.862, 1620.747
200.241, 1572.954
201.619, 1578.030
202.997, 1578.872
204.375, 1585.367
205.753, 1600.787
207.130, 1641.468
208.507, 1714.963
209.884, 1745.101
211.261, 1753.197
212.638, 1754.175
214.014, 1723.673
215.390, 1683.942
216.766, 1619.646
218.141, 1557.141
219.517, 1473.880
220.892, 1379.301
222.267, 1307.653
223.642, 1250.615
225.016, 1213.280
226.391, 1204.188
227.765, 1197.540
229.139, 1194.152
230.512, 1193.938
231.886, 1259.548
233.259, 1235.292
234.632, 1293.876
236.005, 1399.346
237.377, 1455.417
238.749, 1453.307
240.122, 1532.144
241.493, 1578.678
242.865, 1559.670
244.237, 1584.344
245.608, 1494.105
246.979, 1439.394
248.350, 1323.114
249.720, 1239.854
251.090, 1072.931
252.461, 994.377
253.830, 845.521
255.200, 777.066
256.570, 690.752
257.939, 598.055
259.308, 549.129
260.677, 476.547
262.045, 421.555
263.414, 397.159
264.782, 340.960
266.150, 317.845
267.517, 265.508
268.885, 250.491
270.252, 216.070
271.619, 201.585
272.986, 210.596
274.353, 163.458
275.719, 180.113
277.085, 148.080
278.451, 156.721
279.817, 141.353
281.182, 119.500
282.548, 90.122
283.913, 117.926
285.278, 93.926
286.642, 107.579
288.007, 86.297
289.371, 77.982
290.735, 76.750
292.099, 63.523
293.462, 64.238
294.826, 80.096
296.189, 62.829
297.552, 60.524
298.914, 62.275
300.277, 32.012
301.639, 34.706
303.001, 33.450
304.363, 20.399
305.724, 11.147
307.086, 15.968
308.447, 12.708
309.808, 18.401
311.168, 18.083
312.529, 7.240
313.889, 9.483
315.249, 9.847
316.609, 8.819
317.969, 7.512
319.328, 15.829
320.687, 8.135
322.046, 13.486
323.405, 26.796
324.764, 4.161
326.122, 11.531
327.480, 9.122
328.838, 2.742
330.196, 20.644
331.553, 9.030
332.910, 22.430
334.267, 12.800
335.624, 20.218
336.981, 11.595
338.337, 3.495
339.693, 21.457
341.049, 7.091
342.405, 1.634
343.760, 15.812
345.116, 17.238
346.471, 18.701
347.826, 17.129
349.180, 17.525
350.535, 14.006
351.889, 16.449
353.243, 7.898
354.597, 10.419
355.950, 11.983
357.304, 8.349
358.657, 25.160
360.010, 2.695
361.362, 2.732
362.715, 13.162
364.067, 17.299
365.419, 13.977
366.771, 5.359
368.123, 33.304
369.474, 17.004
370.825, 22.715
372.176, 15.450
373.527, 3.200
374.877, 1.007
376.228, 7.731
377.578, 17.949
378.928, 4.114
380.277, 4.432
381.627, 24.392
382.976, 8.227
384.325, 16.005
385.674, 1.107
387.023, 5.656
388.371, 19.805
389.719, 7.882
391.067, 4.081
392.415, 34.083
393.762, 24.217
395.110, 5.778
396.457, 27.302
397.804, 2.310
399.150, 12.335
400.497, 11.646
401.843, 8.672
403.189, 21.657
404.535, 10.806
405.881, 29.833
407.226, 27.731
408.571, 11.041
409.916, 3.944
411.261, 5.139
412.605, 26.057
413.950, 15.145
415.294, 30.082
416.638, 15.934
417.981, 13.776
419.325, 29.592
420.668, 7.578
422.011, 28.339
423.354, 11.106
424.697, 24.033
426.039, 18.792
427.381, 17.515
428.723, 26.252
430.065, 16.938
431.406, 33.609
432.748, 51.269
434.089, 18.935
435.430, 24.632
436.770, 35.253
438.111, 22.909
439.451, 39.504
440.791, 44.090
442.131, 19.668
443.471, 56.257
444.810, 33.838
446.149, 26.406
447.488, 53.970
448.827, 42.524
450.166, 51.078
451.504, 40.615
452.842, 41.136
454.180, 36.637
455.518, 51.094
456.855, 48.528
458.193, 58.949
459.530, 47.359
460.867, 50.757
462.203, 63.142
463.540, 50.515
464.876, 35.876
466.212, 50.223
467.548, 43.557
468.883, 51.878
470.219, 63.187
471.554, 79.483
472.889, 66.767
474.224, 54.913
475.558, 70.172
476.892, 80.215
478.227, 60.451
479.561, 81.674
480.894, 58.452
482.228, 77.470
483.561, 57.288
484.894, 72.480
486.227, 73.553
487.559, 61.373
488.892, 102.511
490.224, 82.638
491.556, 66.965
492.888, 100.788
494.220, 58.957
495.551, 75.565
496.882, 55.796
498.213, 64.408
499.544, 79.406
500.874, 69.493
502.205, 71.577
503.535, 63.542
504.865, 55.811
506.194, 61.993
507.524, 50.035
508.853, 43.077
510.182, 45.059
511.511, 56.196
512.840, 43.157
514.168, 55.554
515.496, 64.777
516.824, 67.877
518.152, 71.144
519.480, 41.340
520.807, 47.846
522.134, 43.595
523.461, 30.425
524.788, 65.937
526.114, 50.615
527.441, 48.347
528.767, 48.728
530.093, 44.221
531.418, 42.058
532.744, 39.441
534.069, 44.554
535.394, 28.894
536.719, 7.648
538.044, 41.353
539.368, 19.752
540.693, 29.129
542.017, 24.683
543.340, 17.217
544.664, 27.868
545.987, 14.980
547.311, 5.629
548.634, 24.156
549.956, 27.496
551.279, 15.246
552.601, 16.877
553.923, 32.460
555.245, 18.845
556.567, 28.436
557.889, 23.772
559.210, 24.366
560.531, 6.257
561.852, 24.609
563.173, 11.108
564.493, 17.191
565.813, 40.672
567.133, 5.137
568.453, 35.138
569.773, 6.766
571.092, 23.425
572.412, 8.797
573.731, 16.841
575.049, 32.228
576.368, 31.251
577.686, 34.166
579.005, 9.494
580.323, 46.078
581.640, 36.343
582.958, 9.041
584.275, 31.163
585.593, 36.106
586.909, 29.129
588.226, 38.246
589.543, 42.057
590.859, 46.284
592.175, 33.586
593.491, 22.401
594.807, 45.373
596.122, 25.586
597.438, 47.469
598.753, 35.683
600.068, 34.929
601.382, 27.645
602.697, 26.857
604.011, 26.806
605.325, 23.874
606.639, 23.372
607.952, 20.388
609.266, 21.572
610.579, 22.158
611.892, 23.795
613.205, 30.817
614.518, 35.961
615.830, 56.085
617.142, 41.327
618.454, 60.425
619.766, 75.531
621.078, 74.674
622.389, 84.841
623.700, 84.750
625.011, 75.819
626.322, 86.839
627.632, 91.898
628.943, 73.995
630.253, 60.095
631.563, 70.216
632.872, 58.256
634.182, 79.369
635.491, 55.447
636.800, 66.613
638.109, 55.680
639.418, 61.701
640.726, 43.785
642.035, 61.792
643.343, 70.846
644.651, 30.920
645.958, 71.935
647.266, 57.427
648.573, 65.461
649.880, 55.487
651.187, 34.516
652.494, 49.751
653.800, 23.263
655.106, 25.237
656.412, 7.246
657.718, 13.279
659.024, 29.297
660.329, 21.342
661.634, 15.332
662.939, 8.290
664.244, 13.276
665.549, 42.214
666.853, 60.110
668.157, 86.028
669.461, 165.000
670.765, 265.915
672.069, 446.888
673.372, 549.893
674.675, 443.898
675.978, 265.901
677.281, 155.828
678.583, 93.781
679.886, 133.712
681.188, 119.515
682.490, 56.515
683.792, 38.483
685.093, 38.438
686.394, 39.410
687.696, 53.371
688.997, 78.334
690.297, 177.293
691.598, 416.276
692.898, 758.181
694.198, 1040.654
695.498, 809.624
696.798, 418.423
698.097, 210.336
699.397, 98.232
700.696, 47.046
701.995, 3.975
703.293, 4.754
704.592, 16.717
705.890, 8.179
707.188, 20.902
708.486, 5.869
709.784, 14.667
711.081, 17.593
712.378, 7.435
713.675, 10.652
714.972, 6.765
716.269, 18.123
717.565, 6.301
718.862, 4.599
720.158, 47.328
721.453, 34.170
722.749, 45.318
724.045, 33.862
725.340, 29.682
726.635, 48.660
727.930, 18.579
729.224, 35.302
730.519, 35.363
731.813, 41.468
733.107, 41.324
734.401, 43.407
735.694, 33.178
736.988, 34.161
738.281, 29.127
739.574, 14.920
740.867, 18.872
742.160, 2.948
743.452, 22.547
744.744, 24.532
746.036, 33.519
747.328, 15.505
748.620, 16.474
749.911, 17.455
751.202, 5.487
752.493, 25.019
753.784, 27.131
755.075, 8.146
756.365, 19.142
757.655, 5.100
758.945, 6.054
760.235, 34.009
761.525, 3.045
762.814, 20.898
764.103, 19.828
765.392, 3.765
766.681, 40.733
767.969, 7.681
769.258, 24.702
770.546, 34.702
771.834, 1.236
773.122, 53.790
774.409, 29.779
775.697, 31.798
776.984, 1.213
778.271, 2.467
779.558, 42.768
780.844, 2.794
782.131, 20.855
783.417, 24.867
784.703, 12.867
785.989, 3.876
787.274, 19.873
788.560, 2.900
789.845, 30.900
791.130, 3.087
792.415, 18.905
793.699, 31.911
794.983, 3.904
796.268, 29.938
797.552, 11.932
798.835, 3.955
800.119, 45.005
801.402, 12.000
802.686, 30.036
803.969, 34.041
805.251, 16.033
806.534, 6.974
807.816, 12.982
809.098, 39.990
810.380, 23.972
811.662, 5.965
812.944, 40.939
814.225, 2.024
815.506, 20.996
816.787, 10.028
818.068, 39.009
819.349, 36.026
820.629, 70.176
821.909, 78.187
823.189, 75.242
824.469, 103.357
825.749, 72.437
827.028, 74.527
828.307, 67.527
829.586, 111.582
830.865, 185.593
832.144, 312.618
833.422, 485.622
834.700, 908.627
835.978, 1401.634
837.256, 1772.641
838.534, 1520.650
839.811, 1014.698
841.088, 590.708
842.365, 338.719
843.642, 253.732
844.919, 132.747
846.195, 76.762
847.472, 107.779
848.748, 57.798
850.023, 60.819
851.299, 81.841
852.575, 59.865
853.850, 53.891
855.125, 48.918
856.400, 31.887
857.674, 72.864
858.949, 72.989
860.223, 90.987
861.497, 87.714
862.771, 70.862
864.045, 59.903
865.318, 55.953
866.591, 23.967
867.864, 54.508
869.137, 13.238
870.410, 38.296
871.682, 16.058
872.955, 32.076
874.227, 22.149
875.499, 6.775
876.770, 10.302
878.042, 0.390
879.313, 6.519
880.584, 6.579
881.855, 11.684
883.126, 7.210
884.396, 6.098
885.667, 0.015
886.937, 12.132
888.207, 16.254
889.476, 33.378
890.746, 15.516
892.015, 27.656
893.284, 9.797
894.553, 7.058
895.822, 17.057
897.090, 45.089
898.359, 19.240
899.627, 26.397
900.895, 25.559
902.163, 0.725
903.430, 3.889
904.698, 17.966
905.965, 3.799
907.232, 8.367
908.499, 12.522
909.765, 20.696
911.032, 24.990
912.298, 29.670
913.564, 28.155
914.830, 34.176
916.095, 29.344
917.361, 23.002
918.626, 10.649
919.891, 23.820
921.156, 7.974
922.420, 16.144
923.685, 1.312
924.949, 10.397
926.213, 39.568
927.477, 12.737
928.740, 35.907
930.004, 24.996
931.267, 20.129
932.530, 12.297
933.793, 4.430
935.056, 16.595
936.318, 19.758
937.581, 17.919
938.843, 21.298
940.104, 14.220
941.366, 21.351
942.628, 18.510
943.889, 24.541
945.150, 20.694
946.411, 41.846
947.672, 14.974
948.932, 34.133
950.193, 18.290
951.453, 12.418
952.713, 31.569
953.973, 15.265
955.232, 23.347
956.491, 27.553
957.751, 28.695
959.010, 40.589
960.268, 46.244
961.527, 35.381
962.785, 7.518
964.044, 18.635
965.302, 5.765
966.559, 42.860
967.817, 9.061
969.075, 15.305
970.332, 12.422
971.589, 2.314
972.846, 26.803
974.102, 16.915
975.359, 3.150
976.615, 12.414
977.871, 10.432
979.127, 32.749
980.383, 20.029
981.638, 31.201
982.893, 28.417
984.149, 40.659
985.404, 44.871
986.658, 62.019
987.913, 73.242
989.167, 51.427
990.421, 26.479
991.675, 51.641
992.929, 55.967
994.183, 55.408
995.436, 83.644
996.689, 47.818
997.942, 86.132
999.195, 58.283
1000.448, 82.483
1001.700, 115.678
1002.952, 114.868
1004.204, 131.278
1005.456, 84.598
1006.708, 59.780
1007.959, 76.412
1009.210, 78.745
1010.461, 81.974
1011.712, 73.741
1012.963, 61.960
1014.213, 61.219
1015.464, 72.319
1016.714, 77.686
1017.964, 101.850
1019.214, 96.144
1020.463, 125.570
1021.712, 101.176
1022.962, 128.512
1024.210, 148.509
1025.459, 109.922
1026.708, 161.349
1027.956, 206.627
1029.204, 283.203
1030.452, 288.445
1031.700, 390.151
1032.948, 293.222
1034.195, 235.713
1035.442, 202.832
1036.689, 244.843
1037.936, 300.094
1039.183, 323.146
1040.429, 414.351
1041.676, 434.969
1042.922, 511.919
1044.168, 671.876
1045.413, 841.178
1046.659, 1183.683
1047.904, 1793.689
1049.149, 2946.337
1050.394, 7014.249
1051.639, 20879.988
1052.884, 50328.770
1054.128, 59079.504
1055.372, 33677.953
1056.616, 15016.787
1057.860, 7154.302
1059.104, 3724.524
1060.347, 2022.246
1061.590, 1099.905
1062.833, 746.571
1064.076, 543.228
1065.319, 445.162
1066.561, 388.290
1067.803, 304.082
1069.046, 311.615
1070.287, 247.160
1071.529, 214.437
1072.771, 238.028
1074.012, 195.861
1075.253, 250.702
1076.494, 191.214
1077.735, 196.331
1078.975, 194.205
1080.216, 176.681
1081.456, 173.897
1082.696, 163.382
1083.936, 158.247
1085.175, 156.752
1086.415, 160.341
1087.654, 152.845
1088.893, 133.911
1090.132, 123.457
1091.371, 126.773
1092.609, 157.168
1093.847, 137.457
1095.085, 164.152
1096.323, 157.734
1097.561, 129.567
1098.799, 109.176
1100.036, 119.343
1101.273, 140.871
1102.510, 142.053
1103.747, 141.327
1104.983, 129.342
1106.220, 133.723
1107.456, 141.435
1108.692, 151.315
1109.928, 140.428
1111.163, 137.869
1112.399, 117.671
1113.634, 111.972
1114.869, 100.431
1116.104, 80.580
1117.339, 69.933
1118.573, 99.972
1119.808, 62.994
1121.042, 122.181
1122.276, 115.124
1123.509, 71.073
1124.743, 65.099
1125.976, 73.919
1127.210, 98.795
1128.443, 58.006
1129.675, 82.864
1130.908, 70.734
1132.141, 63.573
1133.373, 69.389
1134.605, 83.153
1135.837, 63.898
1137.068, 73.491
1138.300, 110.196
1139.531, 75.842
1140.762, 42.770
1141.993, 29.462
1143.224, 56.083
1144.455, 70.089
1145.685, 41.669
1146.915, 72.228
1148.145, 58.766
1149.375, 58.284
1150.605, 57.913
1151.834, 28.389
1153.063, 35.841
1154.292, 54.272
1155.521, 13.681
1156.750, 32.065
1157.978, 43.427
1159.207, 7.766
1160.435, 43.080
1161.663, 2.628
1162.891, 61.632
1164.118, 25.872
1165.345, 45.089
1166.573, 30.284
1167.800, 20.456
1169.026, 11.604
1170.253, 24.727
1171.480, 15.174
1172.706, 18.886
1173.932, 9.920
1175.158, 20.072
1176.383, 8.893
1177.609, 10.170
1178.834, 8.269
1180.059, 40.595
1181.284, 11.564
1182.509, 20.240
1183.734, 1.981
1184.958, 5.235
1186.182, 34.477
1187.406, 36.835
1188.630, 4.801
1189.854, 41.409
1191.077, 2.007
1192.301, 6.545
1193.524, 3.931
1194.747, 3.437
1195.969, 13.977
1197.192, 2.556
1198.414, 0.167
1199.636, 39.192
1200.858, 17.473
1202.080, 17.823
1203.302, 22.096
1204.523, 14.654
1205.744, 7.558
1206.966, 40.743
1208.186, 51.906
1209.407, 46.047
1210.628, 43.922
1211.848, 14.266
1213.068, 6.341
1214.288, 19.390
1215.508, 2.583
1216.727, 49.414
1217.947, 0.391
1219.166, 29.342
1220.385, 8.272
1221.604, 9.820
1222.822, 35.057
1224.041, 0.916
1225.259, 5.750
1226.477, 29.563
1227.695, 1.641
1228.913, 18.132
1230.130, 1.889
1231.348, 9.626
1232.565, 13.348
1233.782, 8.941
1234.999, 2.252
1236.215, 6.422
1237.432, 23.087
1238.648, 10.744
1239.864, 21.383
1241.080, 0.997
1242.296, 13.419
1243.511, 17.747
1244.726, 2.205
1245.942, 27.443
1247.156, 7.095
1248.371, 37.574
1249.586, 32.680
1250.800, 6.881
1252.014, 28.823
1253.228, 20.616
1254.442, 20.901
1255.656, 42.615
1256.869, 28.607
1258.083, 40.977
1259.296, 41.583
1260.509, 33.193
1261.722, 54.406
1262.934, 34.517
1264.147, 54.563
1265.359, 49.711
1266.571, 6.311
1267.783, 73.791
1268.994, 52.876
1270.206, 11.816
1271.417, 66.705
1272.628, 44.614
1273.839, 30.610
1275.050, 45.416
1276.260, 47.309
1277.471, 45.136
1278.681, 49.916
1279.891, 82.704
1281.101, 70.535
1282.310, 14.270
1283.520, 62.023
1284.729, 58.888
1285.938, 5.623
1287.147, 35.174
1288.356, 90.589
1289.564, 21.191
1290.773, 70.836
1291.981, 53.321
1293.189, 82.951
1294.397, 119.514
1295.604, 26.064
1296.812, 84.601
1298.019, 93.901
1299.226, 33.273
1300.433, 64.766
1301.640, 85.793
1302.846, 66.103
1304.053, 112.505
1305.259, 61.351
1306.465, 95.736
1307.671, 120.066
1308.876, 114.538
1310.082, 164.729
1311.287, 128.106
1312.492, 142.341
1313.697, 228.418
1314.902, 160.270
1316.106, 137.298
1317.310, 227.538
1318.515, 153.276
1319.719, 168.701
1320.922, 196.398
1322.126, 134.724
1323.329, 219.011
1324.533, 149.409
1325.736, 124.221
1326.939, 148.397
1328.141, 142.955
1329.344, 134.719
1330.546, 123.273
1331.748, 157.006
1332.950, 129.568
1334.152, 94.698
1335.354, 120.478
1336.555, 139.220
1337.757, 136.413
1338.958, 145.033
1340.159, 170.683
1341.359, 118.673
1342.560, 170.382
1343.760, 174.243
1344.960, 224.992
1346.160, 294.772
1347.360, 310.277
1348.560, 297.856
1349.759, 460.827
1350.959, 478.099
1352.158, 571.881
1353.357, 686.731
1354.555, 748.578
1355.754, 904.441
1356.952, 1097.038
1358.151, 1170.454
1359.349, 1411.221
1360.546, 1439.239
1361.744, 1558.297
1362.941, 1652.609
1364.139, 1608.676
1365.336, 1581.480
1366.533, 1416.364
1367.730, 1166.674
1368.926, 1084.418
1370.123, 881.515
1371.319, 733.103
1372.515, 712.058
1373.711, 598.838
1374.906, 479.354
1376.102, 448.367
1377.297, 328.040
1378.492, 315.610
1379.687, 214.352
1380.882, 141.429
1382.077, 188.634
1383.271, 146.095
1384.465, 78.865
1385.659, 53.329
1386.853, 30.561
1388.047, 12.155
1389.240, 65.969
1390.434, 93.990
1391.627, 91.548
1392.820, 121.839
1394.013, 124.209
1395.205, 83.499
1396.398, 82.005
1397.590, 128.882
1398.782, 82.075
1399.974, 68.399
1401.166, 32.383
1402.357, 11.335
1403.549, 12.191
1404.740, 69.916
1405.931, 154.522
1407.122, 99.570
1408.313, 230.177
1409.503, 243.274
1410.693, 330.201
1411.883, 453.294
1413.073, 444.387
1414.263, 551.488
1415.453, 579.593
1416.642, 648.710
1417.831, 739.835
1419.020, 744.966
1420.209, 661.107
1421.398, 812.272
1422.587, 780.468
1423.775, 792.714
1424.963, 917.012
1426.151, 770.352
1427.339, 801.736
1428.526, 791.168
1429.714, 744.674
1430.901, 855.221
1432.088, 896.822
1433.275, 788.491
1434.462, 931.230
1435.648, 914.027
1436.835, 903.882
1438.021, 1009.809
1439.207, 1016.783
1440.393, 1152.800
1441.579, 1213.998
1442.764, 1248.993
1443.949, 1395.176
1445.135, 1543.410
1446.320, 1672.708
1447.504, 1832.059
1448.689, 1892.449
1449.873, 2051.876
1451.058, 2338.318
1452.242, 2406.772
1453.426, 2663.205
1454.609, 2949.681
1455.793, 3047.953
1456.976, 3421.918
1458.159, 3706.905
1459.342, 3804.185
1460.525, 4189.614
1461.708, 4307.161
1462.890, 4585.814
1464.073, 5002.411
1465.255, 5087.742
1466.437, 5467.125
1467.619, 5828.544
1468.800, 5973.996
1469.982, 6342.477
1471.163, 6636.990
1472.344, 6629.536
1473.525, 7010.115
1474.706, 7100.724
1475.886, 7114.360
1477.066, 7388.021
1478.247, 7312.701
1479.427, 7253.395
1480.607, 7402.097
1481.786, 6902.797
1482.966, 6968.492
1484.145, 6680.170
1485.324, 6036.825
1486.503, 6001.444
1487.682, 5496.021
1488.860, 5057.548
1490.039, 4641.065
1491.217, 4140.179
1492.395, 3705.963
1493.573, 3409.328
1494.751, 2867.339
1495.928, 2578.756
1497.106, 2339.624
1498.283, 1854.995
1499.460, 1729.937
1500.637, 1510.526
1501.814, 1198.859
1502.990, 1147.058
1504.166, 899.275
1505.342, 707.709
1506.518, 626.616
1507.694, 468.296
1508.870, 404.800
1510.045, 368.170
1511.221, 206.725
1512.396, 147.880
1513.571, 143.158
1514.745, 84.204
1515.920, 96.768
1517.094, 11.803
1518.269, 17.235
1519.443, 86.680
1520.616, 9.379
1521.790, 55.045
1522.964, 0.000
##END=



