##NAMES=Cerussite
##RRUFFID=R050174
##IDEAL CHEMISTRY=Pb^2+^CO_3_
##LOCALITY=Tsumeb mine, Tsumeb, Otavi District, Oshikoto, Namibia
##OWNER=RRUFF
##SOURCE=Marcus Origlieri
##DESCRIPTION=Colorless single crystal
##STATUS=The identification of this mineral has been confirmed by X-ray diffraction and chemical analysis
##URL=rruff.info/R050174
##MEASURED CHEMISTRY=Pb_1.00_CO_3_ ; C not measured but estimated by difference and stoichiometry
##PIN_ID=L01208
##ORIENTATION=Laser parallel to c* (0 0 1). Fiducial mark perpendicular to laser is parallel to a [1 0 0]
51.43100, 0.0000000E+00
52.67100, 78.55591
53.91000, 17.71259
55.14900, 31.03137
56.38700, 149.1326
57.62600, 65.16626
58.86400, 4.424561
60.10300, 15.35962
61.34100, 297.0657
62.57900, 729.9233
63.81700, 1781.074
65.05400, 2916.833
66.29200, 4469.859
67.52900, 6315.092
68.76700, 8323.678
70.00400, 10163.91
71.24100, 11866.20
72.47700, 12835.98
73.71400, 12930.79
74.95100, 12112.22
76.18700, 11220.91
77.42300, 9805.560
78.65900, 8424.897
79.89500, 7355.711
81.13100, 6457.834
82.36700, 5661.137
83.60200, 5040.486
84.83700, 4597.767
86.07200, 4357.863
87.30800, 4060.654
88.54200, 3958.023
89.77700, 3800.814
91.01200, 3873.879
92.24600, 3968.101
93.48000, 4120.381
94.71400, 4027.641
95.94800, 4308.806
97.18200, 4363.818
98.41600, 4577.625
99.64900, 4987.177
100.8830, 5139.432
102.1160, 5287.350
103.3490, 5596.893
104.5820, 5952.027
105.8150, 6313.770
107.0470, 6585.147
108.2800, 7043.269
109.5120, 7426.158
110.7440, 7874.854
111.9760, 8335.238
113.2080, 8738.337
114.4400, 9206.100
115.6710, 9691.496
116.9030, 9760.550
118.1340, 10128.20
119.3650, 9981.338
120.5960, 9884.921
121.8270, 9342.902
123.0580, 8994.238
124.2880, 8412.923
125.5190, 7851.713
126.7490, 7213.243
127.9790, 6720.630
129.2090, 6428.943
130.4390, 6107.229
131.6680, 5735.502
132.8980, 5529.791
134.1270, 5162.109
135.3560, 4933.474
136.5850, 4357.893
137.8140, 4139.380
139.0430, 3612.956
140.2710, 3375.637
141.5000, 3073.415
142.7280, 2940.312
143.9560, 2692.304
145.1840, 2545.395
146.4120, 2495.585
147.6390, 2379.878
148.8670, 2256.271
150.0940, 2123.756
151.3210, 2052.350
152.5490, 1973.052
153.7750, 1835.842
155.0020, 1735.717
156.2290, 1571.674
157.4550, 1416.711
158.6810, 1266.409
159.9080, 1183.791
161.1340, 1092.956
162.3590, 1095.749
163.5850, 1009.399
164.8110, 1021.674
166.0360, 1043.692
167.2610, 1035.361
168.4860, 1103.164
169.7110, 1188.921
170.9360, 1197.009
172.1610, 1357.595
173.3850, 1231.271
174.6100, 1342.377
175.8340, 1287.773
177.0580, 1333.106
178.2820, 1298.483
179.5050, 1303.472
180.7290, 1193.203
181.9520, 1162.489
183.1760, 1151.883
184.3990, 1082.383
185.6220, 1046.200
186.8450, 1022.084
188.0670, 1048.061
189.2900, 1087.680
190.5120, 1081.783
191.7340, 1102.917
192.9560, 1184.837
194.1780, 1251.305
195.4000, 1338.791
196.6220, 1361.502
197.8430, 1465.650
199.0640, 1658.164
200.2860, 1677.646
201.5070, 1807.533
202.7270, 2026.413
203.9480, 2109.474
205.1690, 2237.035
206.3890, 2449.665
207.6090, 2666.223
208.8290, 2780.451
210.0490, 2948.774
211.2690, 3092.705
212.4890, 3206.968
213.7080, 3328.177
214.9280, 3472.037
216.1470, 3517.229
217.3660, 3505.185
218.5850, 3592.495
219.8030, 3589.669
221.0220, 3601.572
222.2400, 3638.698
223.4590, 3604.244
224.6770, 3532.909
225.8950, 3473.213
227.1120, 3350.390
228.3300, 3152.901
229.5480, 2958.375
230.7650, 2788.598
231.9820, 2610.522
233.1990, 2283.455
234.4160, 2103.177
235.6330, 1888.989
236.8490, 1798.026
238.0660, 1525.514
239.2820, 1402.326
240.4980, 1293.227
241.7140, 1127.337
242.9300, 1071.934
244.1460, 870.4363
245.3610, 817.8196
246.5770, 770.9712
247.7920, 648.8013
249.0070, 610.6853
250.2220, 559.4636
251.4370, 489.7498
252.6510, 411.4407
253.8660, 333.0779
255.0800, 270.4553
256.2940, 239.1455
257.5080, 208.9255
258.7220, 194.3477
259.9360, 187.0002
261.1490, 151.5759
262.3630, 63.08362
263.5760, 20.49280
264.7890, 7.176758
266.0020, 30.54480
267.2150, 20.97290
268.4270, 12.21655
269.6400, 45.05823
270.8520, 41.26917
272.0640, 50.71582
273.2760, 61.90625
274.4880, 80.63354
275.7000, 84.56995
276.9120, 64.36560
278.1230, 116.8667
279.3340, 33.94104
280.5450, 105.0402
281.7560, 35.17896
282.9670, 86.34497
284.1780, 105.5488
285.3880, 94.79541
286.5980, 73.05493
287.8090, 78.25293
289.0190, 35.44812
290.2290, 31.84875
291.4380, 98.27881
292.6480, 99.72913
293.8570, 43.26367
295.0670, 113.6569
296.2760, 44.18872
297.4850, 34.71057
298.6930, 72.41931
299.9020, 32.97998
301.1110, 96.78723
302.3190, 64.62207
303.5270, 43.49072
304.7350, 76.46387
305.9430, 33.50281
307.1510, 71.60022
308.3580, 73.77246
309.5660, 67.03223
310.7730, 32.38147
311.9800, 59.78772
313.1870, 49.24817
314.3940, 52.75903
315.6010, 19.48499
316.8070, 13.04590
318.0130, 40.93945
319.2200, 46.68774
320.4260, 16.21326
321.6310, 14.93506
322.8370, 27.21191
324.0430, 9.437012
325.2480, 23.02844
326.4540, 26.60596
327.6590, 11.71375
328.8640, 50.93506
330.0680, 34.92712
331.2730, 2.109863
332.4780, 2.940674
333.6820, 13.91748
334.8860, 36.68811
336.0900, 27.62378
337.2940, 12.97009
338.4980, 41.47644
339.7010, 16.92871
340.9050, 53.27234
342.1080, 46.54126
343.3110, 42.93958
344.5140, 39.22864
345.7170, 37.16431
346.9200, 43.63745
348.1220, 42.96753
349.3240, 54.08875
350.5270, 75.17847
351.7290, 68.23987
352.9310, 71.26672
354.1320, 104.3689
355.3340, 126.3257
356.5350, 101.2524
357.7370, 108.1403
358.9380, 140.9883
360.1390, 143.8820
361.3400, 125.7190
362.5400, 178.5513
363.7410, 145.2937
364.9410, 176.9503
366.1410, 179.7358
367.3410, 125.2626
368.5410, 175.7844
369.7410, 153.2618
370.9400, 129.9937
372.1400, 163.4836
373.3390, 176.1375
374.5380, 151.4094
375.7370, 133.6256
376.9360, 178.8193
378.1350, 199.9678
379.3330, 203.0189
380.5310, 196.4628
381.7300, 181.4666
382.9280, 231.6167
384.1260, 175.4564
385.3230, 222.4347
386.5210, 200.1615
387.7180, 210.0013
388.9160, 222.6306
390.1130, 248.2375
391.3100, 208.7427
392.5060, 210.6639
393.7030, 175.4508
394.9000, 199.7767
396.0960, 234.5111
397.2920, 241.8590
398.4880, 266.0282
399.6840, 261.1543
400.8800, 230.2000
402.0750, 272.1711
403.2710, 257.1287
404.4660, 264.9865
405.6610, 272.8121
406.8560, 281.6384
408.0510, 294.0419
409.2450, 267.8278
410.4400, 273.5524
411.6340, 261.7153
412.8280, 336.1776
414.0220, 303.7654
415.2160, 322.2974
416.4100, 257.4938
417.6030, 294.4156
418.7970, 317.3909
419.9900, 293.8770
421.1830, 268.1752
422.3760, 326.9097
423.5690, 326.0530
424.7610, 344.0012
425.9540, 347.9401
427.1460, 336.1614
428.3380, 323.6819
429.5300, 308.5327
430.7220, 292.2045
431.9140, 285.4615
433.1050, 337.5743
434.2970, 310.6461
435.4880, 300.3748
436.6790, 307.8324
437.8700, 278.0277
439.0610, 283.5328
440.2510, 276.2789
441.4420, 295.5875
442.6320, 266.5417
443.8220, 295.4150
445.0120, 281.6582
446.2020, 276.4612
447.3910, 325.2249
448.5810, 289.0092
449.7700, 277.9462
450.9600, 302.6057
452.1490, 310.9272
453.3370, 289.4580
454.5260, 256.7434
455.7150, 248.2888
456.9030, 238.5291
458.0910, 255.2109
459.2800, 216.6427
460.4670, 263.1404
461.6550, 210.8127
462.8430, 244.2036
464.0300, 230.7784
465.2180, 263.6003
466.4050, 225.4370
467.5920, 273.1638
468.7790, 244.8401
469.9650, 232.1439
471.1520, 265.5759
472.3380, 246.5403
473.5250, 226.8899
474.7110, 235.2535
475.8970, 207.1722
477.0820, 209.8940
478.2680, 265.5632
479.4540, 255.5223
480.6390, 243.7708
481.8240, 189.2352
483.0090, 189.4490
484.1940, 213.0991
485.3780, 158.3842
486.5630, 168.3901
487.7470, 150.1133
488.9320, 192.5942
490.1160, 185.2322
491.3000, 196.6901
492.4830, 207.5114
493.6670, 173.0050
494.8500, 168.1304
496.0340, 146.2389
497.2170, 223.2950
498.4000, 235.7904
499.5820, 189.5366
500.7650, 178.3768
501.9480, 143.8910
503.1300, 145.3167
504.3120, 139.4198
505.4940, 146.2230
506.6760, 155.4519
507.8580, 134.3247
509.0390, 158.9875
510.2210, 174.4177
511.4020, 161.8815
512.5830, 107.8306
513.7640, 128.0348
514.9450, 102.1918
516.1250, 167.4261
517.3060, 158.9507
518.4860, 133.8173
519.6660, 130.7518
520.8460, 148.9679
522.0260, 85.15723
523.2060, 125.1774
524.3850, 98.79517
525.5650, 144.1333
526.7440, 103.4285
527.9230, 148.5490
529.1020, 104.2137
530.2810, 126.9988
531.4590, 117.9247
532.6380, 140.1011
533.8160, 69.61475
534.9940, 74.08423
536.1720, 81.66711
537.3500, 89.74756
538.5270, 94.52112
539.7050, 112.1562
540.8820, 108.1437
542.0590, 112.8358
543.2360, 123.3773
544.4130, 103.2871
545.5900, 128.9485
546.7660, 104.6661
547.9430, 91.42773
549.1190, 101.2461
550.2950, 66.14197
551.4710, 33.68872
552.6470, 123.2585
553.8220, 68.60779
554.9980, 71.51648
556.1730, 79.32324
557.3480, 73.18762
558.5230, 49.32593
559.6980, 59.96143
560.8730, 84.83533
562.0470, 63.52393
563.2220, 86.92017
564.3960, 64.20886
565.5700, 96.14502
566.7440, 117.1074
567.9170, 87.91699
569.0910, 93.72620
570.2640, 68.70911
571.4380, 77.49622
572.6110, 95.18188
573.7840, 61.83130
574.9570, 75.63904
576.1290, 79.43457
577.3020, 126.2090
578.4740, 58.02539
579.6460, 41.65759
580.8180, 87.38489
581.9900, 33.05847
583.1620, 138.8743
584.3330, 56.49744
585.5040, 69.32214
586.6760, 78.12915
587.8470, 110.9248
589.0180, 88.77454
590.1880, 65.63623
591.3590, 101.5009
592.5290, 69.38110
593.7000, 54.27551
594.8700, 78.18298
596.0400, 53.06848
597.2090, 11.93054
598.3790, 28.75000
599.5490, 28.69739
600.7180, 51.40405
601.8870, 63.36145
603.0560, 12.08789
604.2250, 59.07129
605.3940, 19.02332
606.5620, 31.01782
607.7300, 69.06360
608.8990, 79.07812
610.0670, 79.10547
611.2350, 27.14734
612.4020, 68.19836
613.5700, 41.24854
614.7370, 74.31726
615.9050, 48.39587
617.0720, 74.48389
618.2390, 96.58313
619.4060, 44.49292
620.5720, 123.6876
621.7390, 89.89124
622.9050, 97.02722
624.0710, 46.18787
625.2370, 55.35632
626.4030, 90.34192
627.5690, 72.43860
628.7340, 56.41309
629.9000, 114.6201
631.0650, 136.8361
632.2300, 104.0619
633.3950, 91.29590
634.5600, 123.5348
635.7240, 103.7806
636.8890, 87.92017
638.0530, 119.1757
639.2170, 78.43298
640.3810, 70.69446
641.5450, 38.96143
642.7080, 33.14856
643.8720, 76.35608
645.0350, 85.52893
646.1980, 76.95166
647.3610, 4.743286
648.5240, 59.40588
649.6870, 16.67737
650.8490, 15.95398
652.0120, 45.23169
653.1740, 19.20837
654.3360, 6.623291
655.4980, 2.667236
656.6600, 5.623169
657.8210, 21.43848
658.9830, 76.18237
660.1440, 91.44421
661.3050, 100.7550
662.4660, 160.6243
663.6270, 267.8837
664.7870, 297.9445
665.9480, 398.8156
667.1080, 496.9233
668.2680, 724.5792
669.4280, 704.7449
670.5880, 797.0685
671.7480, 889.3630
672.9070, 826.7087
674.0670, 870.5848
675.2260, 809.5577
676.3850, 658.6407
677.5440, 510.8137
678.7030, 311.0432
679.8610, 243.3984
681.0200, 255.7463
682.1780, 139.1226
683.3360, 187.5315
684.4940, 127.9070
685.6520, 169.3293
686.8090, 97.73145
687.9670, 107.0806
689.1240, 63.48767
690.2810, 80.65527
691.4380, 31.41113
692.5950, 82.87366
693.7520, 119.1322
694.9080, 178.4296
696.0650, 107.8079
697.2210, 48.15002
698.3770, 19.29077
699.5330, 5.438965
700.6880, 4.978149
701.8440, 7.647217
702.9990, 23.15576
704.1550, 8.792603
705.3100, 10.27490
706.4650, 19.24536
707.6190, 24.83862
708.7740, 11.69861
709.9290, 39.77100
711.0830, 17.28674
712.2370, 0.1693120
713.3910, 1.301514
714.5450, 6.840088
715.6980, 9.629761
716.8520, 49.96179
718.0050, 32.45679
719.1580, 80.83752
720.3110, 98.41406
721.4640, 114.7540
722.6170, 95.33936
723.7700, 92.87793
724.9220, 114.4810
726.0740, 104.0793
727.2260, 128.6821
728.3780, 100.2889
729.5300, 92.90686
730.6810, 92.43506
731.8330, 107.8152
732.9840, 75.41528
734.1350, 68.04077
735.2860, 55.65234
736.4370, 46.99170
737.5880, 47.03418
738.7380, 39.74597
739.8880, 52.70129
741.0390, 56.42590
742.1890, 64.83948
743.3380, 120.4956
744.4880, 76.69824
745.6380, 5.789673
746.7870, 42.87549
747.9360, 25.55127
749.0850, 42.25281
750.2340, 47.75000
751.3830, 11.51819
752.5310, 56.19409
753.6800, 35.88586
754.8280, 10.57190
755.9760, 14.26074
757.1240, 30.99988
758.2720, 6.236206
759.4190, 4.432739
760.5670, 21.25793
761.7140, 35.95105
762.8610, 18.66309
764.0080, 15.88440
765.1550, 37.65613
766.3020, 6.386597
767.4480, 53.13452
768.5950, 41.84338
769.7410, 36.56604
770.8870, 31.27905
772.0330, 60.99402
773.1780, 32.71082
774.3240, 60.42944
775.4690, 46.18518
776.6140, 67.09814
777.7590, 28.91772
778.9040, 82.96155
780.0490, 62.81836
781.1940, 117.5486
782.3380, 26.35730
783.4820, 38.09143
784.6260, 11.11243
785.7700, 73.45288
786.9140, 23.20508
788.0580, 68.92712
789.2010, 28.65039
790.3450, 63.39331
791.4880, 41.13928
792.6310, 4.718018
793.7730, 32.36438
794.9160, 42.06958
796.0590, 37.82434
797.2010, 35.00952
798.3430, 28.76782
799.4850, 48.52771
800.6270, 55.29126
801.7690, 18.05640
802.9100, 39.17566
804.0520, 12.41980
805.1930, 5.335571
806.3340, 35.09229
807.4750, 47.85132
808.6160, 26.62708
809.7560, 15.38916
810.8970, 31.15247
812.0370, 8.0932997E-02
813.1770, 56.75073
814.3170, 12.52258
815.4570, 14.33838
816.5960, 41.11426
817.7360, 57.09644
818.8750, 78.87488
820.0140, 71.83411
821.1530, 11.43982
822.2920, 63.22131
823.4310, 43.00378
824.5690, 79.78711
825.7070, 115.5714
826.8460, 83.38416
827.9840, 105.2473
829.1220, 129.9656
830.2590, 223.2693
831.3970, 400.0615
832.5340, 504.8547
833.6710, 619.7246
834.8080, 777.5642
835.9450, 929.3606
837.0820, 1074.189
838.2190, 1122.927
839.3550, 989.6250
840.4910, 898.0199
841.6270, 675.9950
842.7630, 440.6525
843.8990, 295.4625
845.0350, 248.9719
846.1700, 134.6013
847.3060, 156.4008
848.4410, 146.3262
849.5760, 92.11841
850.7100, 90.91675
851.8450, 108.0756
852.9800, 31.87366
854.1140, 73.67126
855.2480, 47.46851
856.3820, 30.26624
857.5160, 52.06323
858.6500, 76.86047
859.7830, 43.65710
860.9170, 15.45325
862.0500, 26.24854
863.1830, 85.04285
864.3160, 59.83643
865.4480, 16.62939
866.5810, 13.57874
867.7130, 79.20618
868.8460, 26.99011
869.9780, 81.77295
871.1100, 21.55469
872.2410, 44.33545
873.3730, 17.11621
874.5050, 13.89612
875.6360, 15.67883
876.7670, 2.460083
877.8980, 44.24011
879.0290, 50.01965
880.1590, 12.20227
881.2900, 15.43152
882.4200, 22.27136
883.5500, 20.03113
884.6800, 14.79480
885.8100, 14.42871
886.9400, 2.350830
888.0690, 26.13403
889.1990, 20.91711
890.3280, 35.69861
891.4570, 78.47815
892.5860, 12.25586
893.7140, 20.22510
894.8430, 50.07227
895.9710, 31.62378
897.1000, 52.37341
898.2280, 20.13611
899.3560, 23.10144
900.4830, 7.645874
901.6110, 18.39050
902.7380, 15.13269
903.8660, 33.64526
904.9930, 22.60974
906.1200, 48.34460
907.2460, 40.07727
908.3730, 44.80750
909.5000, 29.53552
910.6260, 18.26099
911.7520, 0.9837650
912.8780, 4.704712
914.0040, 1.577515
915.1290, 3.136475
916.2550, 47.84680
917.3800, 9.554199
918.5050, 33.26331
919.6300, 13.96960
920.7550, 42.44629
921.8800, 25.16211
923.0040, 41.87463
924.1290, 48.59009
925.2530, 56.31641
926.3770, 72.04407
927.5010, 57.76904
928.6250, 48.49512
929.7480, 67.23047
930.8720, 93.96265
931.9950, 1.299316
933.1180, 32.43823
934.2410, 37.17212
935.3640, 63.90430
936.4860, 96.63452
937.6090, 61.36133
938.7310, 92.53564
939.8530, 30.95337
940.9750, 40.67017
942.0970, 68.38452
943.2180, 28.09595
944.3400, 33.80396
945.4610, 54.50830
946.5820, 44.21118
947.7030, 17.90967
948.8240, 57.62085
949.9450, 23.32837
951.0650, 109.0315
952.1860, 4.742432
953.3060, 55.44727
954.4260, 38.85156
955.5460, 9.179932
956.6650, 42.47852
957.7850, 38.13330
958.9040, 61.78345
960.0230, 59.42969
961.1420, 29.08008
962.2610, 17.72559
963.3800, 37.63354
964.4990, 0.9785160
965.6170, 50.58154
966.7350, 53.18457
967.8530, 18.78345
968.9710, 26.37891
970.0890, 59.96948
971.2070, 15.55933
972.3240, 39.14404
973.4410, 79.72510
974.5580, 25.30176
975.6750, 10.12427
976.7920, 91.43945
977.9090, 35.99902
979.0250, 0.4460450
980.1410, 47.09790
981.2580, 60.63770
982.3740, 14.17261
983.4890, 72.70166
984.6050, 63.22632
985.7200, 6.745605
986.8360, 110.2566
987.9510, 92.76294
989.0660, 46.26416
990.1810, 85.76050
991.2950, 64.25171
992.4100, 120.7380
993.5240, 115.2192
994.6390, 134.6951
995.7530, 100.1575
996.8660, 80.62329
997.9800, 87.08374
999.0940, 102.5808
1000.207, 96.05542
1001.320, 106.8391
1002.433, 52.27881
1003.546, 83.71338
1004.659, 64.14282
1005.772, 107.5664
1006.884, 71.98511
1007.996, 115.3867
1009.108, 150.5645
1010.220, 73.94751
1011.332, 84.41284
1012.444, 81.80444
1013.555, 88.19019
1014.666, 93.05884
1015.777, 95.31909
1016.888, 104.6885
1017.999, 112.4058
1019.110, 125.0200
1020.220, 119.3535
1021.331, 96.99634
1022.441, 76.68140
1023.551, 117.0286
1024.661, 130.3574
1025.770, 155.6802
1026.880, 189.9490
1027.989, 283.2502
1029.098, 308.0105
1030.207, 346.3130
1031.316, 464.0959
1032.425, 434.8120
1033.533, 413.5837
1034.642, 325.7905
1035.750, 327.0352
1036.858, 307.2593
1037.966, 371.5181
1039.073, 355.7588
1040.181, 459.0051
1041.288, 606.2451
1042.396, 785.4785
1043.503, 1008.706
1044.610, 1318.892
1045.716, 1999.467
1046.823, 3720.579
1047.929, 7939.879
1049.036, 17807.95
1050.142, 27698.14
1051.248, 32119.27
1052.353, 45429.45
1053.459, 56408.58
1054.564, 61221.98
1055.670, 56009.11
1056.775, 41193.41
1057.880, 24958.74
1058.985, 12125.83
1060.089, 5090.961
1061.194, 2448.835
1062.298, 1471.548
1063.402, 971.6577
1064.506, 701.7839
1065.610, 572.8740
1066.713, 460.9619
1067.817, 375.2251
1068.920, 328.5100
1070.023, 279.5757
1071.126, 180.6338
1072.229, 171.6914
1073.332, 106.7432
1074.435, 225.0417
1075.537, 165.0789
1076.639, 149.0947
1077.741, 164.1169
1078.843, 128.4546
1079.945, 122.2117
1081.046, 169.1497
1082.148, 118.1418
1083.249, 69.08521
1084.350, 127.6182
1085.451, 105.3831
1086.551, 126.3450
1087.652, 144.3711
1088.752, 111.2422
1089.853, 116.1819
1090.953, 86.11426
1092.053, 134.0391
1093.152, 105.6970
1094.252, 181.5796
1095.351, 141.4062
1096.451, 122.4216
1097.550, 136.7969
1098.649, 121.6216
1099.748, 146.4956
1100.846, 149.5686
1101.945, 184.3833
1103.043, 143.0464
1104.141, 163.7927
1105.239, 99.63403
1106.337, 158.4648
1107.434, 158.2356
1108.532, 98.88184
1109.629, 157.6912
1110.726, 138.4834
1111.823, 105.5691
1112.920, 70.35767
1114.017, 117.1394
1115.113, 129.7878
1116.210, 60.55591
1117.306, 88.31689
1118.402, 72.71094
1119.498, 82.45825
1120.593, 93.34717
1121.689, 100.9333
1122.784, 115.6609
1123.879, 122.3816
1124.974, 142.0962
1126.069, 121.8040
1127.164, 57.50488
1128.259, 83.19995
1129.353, 101.8882
1130.447, 35.57007
1131.541, 37.24536
1132.635, 40.91382
1133.729, 55.57910
1134.822, 85.23828
1135.916, 52.89111
1137.009, 42.53784
1138.102, 58.17847
1139.195, 84.81274
1140.288, 7.440918
1141.380, 77.05640
1142.473, 24.66602
1143.565, 73.26782
1144.657, 152.8645
1145.749, 76.45508
1146.841, 92.04297
1147.932, 56.62964
1149.024, 1.789551
1150.115, 37.22534
1151.206, 28.64697
1152.297, 5.193115
1153.388, 14.29248
1154.479, 27.76904
1155.569, 64.23975
1156.659, 74.70557
1157.750, 52.16602
1158.839, 49.62158
1159.929, 10.92798
1161.019, 36.51636
1162.108, 41.04443
1163.198, 8.359863
1164.287, 23.75488
1165.376, 28.15161
1166.465, 36.54395
1167.553, 83.93164
1168.642, 61.31494
1169.730, 65.69385
1170.818, 38.06812
1171.906, 22.43823
1172.994, 30.80371
1174.082, 53.16504
1175.170, 57.52222
1176.257, 1.875732
1177.344, 37.22046
1178.431, 3.561768
1179.518, 19.89624
1180.605, 68.22778
1181.691, 7.444824
1182.778, 29.86987
1183.864, 7.819092
1184.950, 27.52075
1186.036, 27.75415
1187.122, 10.97388
1188.207, 43.71582
1189.292, 8.488770
1190.378, 17.72607
1191.463, 6.062012
1192.548, 35.86035
1193.632, 46.31567
1194.717, 27.51099
1195.801, 18.35864
1196.886, 23.78052
1197.970, 0.9167480
1199.054, 4.7851998E-02
1200.137, 30.17407
1201.221, 23.29785
1202.305, 6.419189
1203.388, 34.53857
1204.471, 2.344482
1205.554, 21.76733
1206.637, 2.876953
1207.719, 23.98413
1208.802, 4.910400
1209.884, 60.81079
1210.966, 81.25488
1212.048, 29.31909
1213.130, 34.38184
1214.212, 43.55688
1215.293, 34.48022
1216.374, 8.517578
1217.456, 80.55347
1218.536, 25.60059
1219.617, 11.65186
1220.698, 110.7021
1221.778, 27.75098
1222.859, 34.20044
1223.939, 51.83105
1225.019, 43.86255
1226.099, 2.106445
1227.178, 12.93579
1228.258, 23.01953
1229.337, 62.01538
1230.417, 9.949463
1231.496, 6.082764
1232.574, 21.88477
1233.653, 41.13965
1234.732, 1.165039
1235.810, 52.19067
