##NAMES=Cerussite
##RRUFFID=R050011
##IDEAL CHEMISTRY=Pb^2+^CO_3_
##LOCALITY=Daoping Lead and Zinc mine, Gongcheng, Guangxi, China
##OWNER=RRUFF
##SOURCE=Eugene Schlepp
##DESCRIPTION=Colorless hexagonal bipyramidal crystals
##STATUS=The identification of this mineral has been confirmed by X-ray diffraction and chemical analysis
##URL=rruff.info/R050011
##MEASURED CHEMISTRY=Pb_1.00_CO_3_ ; CO_2_ not measured but estimated by difference and stoichiometry
##PIN_ID=L00377
##ORIENTATION=Laser parallel to b* (0 1 0). Fiducial mark perpendicular to laser is parallel to -c [0 0 -1]
46.637, 0.000
48.043, 17.809
49.450, 53.796
50.856, 69.906
52.261, 110.669
53.667, 132.273
55.072, 187.633
56.477, 239.748
57.882, 281.319
59.287, 354.119
60.691, 366.489
62.095, 422.542
63.499, 469.623
64.903, 450.164
66.306, 361.835
67.709, 229.598
69.112, 196.343
70.515, 138.455
71.917, 134.910
73.319, 86.686
74.721, 76.758
76.123, 7.108
77.525, 19.282
78.926, 30.427
80.327, 18.339
81.728, 42.031
83.128, 34.513
84.529, 48.206
85.929, 54.116
87.329, 129.210
88.728, 228.480
90.128, 476.923
91.527, 687.530
92.926, 1049.294
94.324, 1596.207
95.723, 2291.257
97.121, 3348.432
98.519, 4669.717
99.917, 6244.104
101.314, 7751.595
102.712, 8603.186
104.109, 8732.871
105.505, 8236.650
106.902, 7249.524
108.298, 6355.490
109.694, 5403.546
111.090, 4772.688
112.486, 4186.917
113.881, 3869.232
115.277, 3647.629
116.672, 3456.107
118.066, 3364.666
119.461, 3454.302
120.855, 3576.015
122.249, 3674.804
123.643, 3789.667
125.036, 4018.603
126.430, 4289.609
127.823, 4483.688
129.216, 4790.837
130.608, 4954.062
132.001, 4948.379
133.393, 5115.781
134.785, 5094.252
136.176, 5231.783
137.568, 5236.361
138.959, 5472.976
140.350, 5724.608
141.741, 5898.258
143.131, 6216.925
144.521, 6381.601
145.911, 6556.245
147.301, 6526.822
148.691, 6579.339
150.080, 6224.866
151.469, 5898.435
152.858, 5447.049
154.247, 5066.700
155.635, 4596.401
157.024, 4181.142
158.411, 3837.931
159.799, 3531.772
161.187, 3255.656
162.574, 3048.581
163.961, 2963.544
165.348, 2776.558
166.734, 2776.625
168.121, 2755.729
169.507, 2758.873
170.893, 2745.061
172.278, 2761.287
173.664, 2846.550
175.049, 2827.854
176.434, 2796.204
177.819, 2692.588
179.203, 2565.009
180.587, 2417.464
181.971, 2369.954
183.355, 2224.478
184.739, 2095.036
186.122, 1953.648
187.505, 1861.704
188.888, 1730.972
190.271, 1721.683
191.653, 1636.426
193.035, 1636.201
194.417, 1546.009
195.799, 1531.848
197.180, 1601.719
198.562, 1608.620
199.943, 1609.552
201.324, 1638.523
202.704, 1703.526
204.084, 1706.567
205.465, 1854.636
206.844, 1848.741
208.224, 1897.894
209.603, 1925.101
210.983, 1974.365
212.362, 1949.693
213.740, 1980.991
215.119, 1861.284
216.497, 1895.501
217.875, 1816.614
219.253, 1674.598
220.631, 1658.459
222.008, 1536.174
223.385, 1535.705
224.762, 1369.106
226.139, 1340.396
227.515, 1323.574
228.891, 1242.483
230.267, 1211.110
231.643, 1142.462
233.018, 1062.831
234.394, 1042.212
235.769, 983.582
237.144, 919.086
238.518, 912.322
239.893, 895.300
241.267, 829.296
242.641, 854.069
244.014, 791.465
245.388, 808.531
246.761, 801.810
248.134, 774.619
249.507, 686.367
250.879, 649.022
252.252, 614.088
253.624, 561.120
254.996, 549.294
256.367, 526.104
257.739, 482.824
259.110, 501.959
260.481, 497.132
261.852, 480.047
263.222, 473.272
264.592, 383.567
265.962, 422.854
267.332, 434.168
268.702, 357.025
270.071, 383.401
271.440, 358.898
272.809, 360.326
274.178, 333.280
275.546, 341.757
276.915, 305.259
278.283, 302.788
279.650, 319.342
281.018, 303.257
282.385, 314.794
283.752, 284.066
285.119, 265.714
286.486, 265.384
287.852, 284.078
289.218, 240.792
290.584, 262.879
291.950, 188.952
293.316, 231.729
294.681, 245.526
296.046, 243.341
297.411, 202.176
298.775, 205.028
300.140, 152.456
301.504, 169.344
302.868, 162.849
304.231, 174.772
305.595, 185.712
306.958, 208.668
308.321, 196.641
309.684, 130.631
311.047, 147.638
312.409, 162.661
313.771, 143.702
315.133, 158.760
316.495, 123.836
317.856, 150.933
319.217, 176.042
320.578, 95.169
321.939, 135.120
323.299, 136.278
324.660, 98.452
326.020, 84.641
327.380, 74.846
328.739, 80.067
330.099, 108.302
331.458, 70.551
332.817, 59.815
334.176, 126.093
335.534, 71.385
336.892, 102.691
338.251, 74.066
339.608, 64.399
340.966, 77.745
342.323, 67.106
343.681, 81.480
345.037, 113.867
346.394, 45.266
347.751, 110.678
349.107, 48.101
350.463, 35.537
351.819, 58.959
353.174, 71.418
354.530, 56.888
355.885, 83.718
357.240, 42.836
358.594, 46.338
359.949, 70.851
361.303, 26.374
362.657, 88.128
364.011, 49.608
365.365, 23.161
366.718, 86.263
368.071, 69.073
369.424, 51.654
370.777, 38.782
372.129, 26.380
373.481, 39.321
374.833, 35.971
376.185, 44.593
377.537, 14.350
378.888, 22.981
380.239, 27.617
381.590, 4.257
382.941, 45.903
384.291, 0.445
385.642, 37.213
386.992, 33.879
388.341, 12.050
389.691, 23.427
391.040, 17.100
392.389, 70.822
393.738, 30.535
395.087, 5.260
396.435, 30.997
397.784, 3.254
399.132, 17.493
400.479, 22.982
401.827, 28.863
403.174, 23.425
404.521, 70.148
405.868, 11.033
407.215, 9.115
408.561, 18.239
409.908, 10.979
411.254, 20.295
412.599, 12.955
413.945, 21.924
415.290, 4.970
416.636, 7.598
417.980, 15.628
419.325, 15.591
420.670, 3.574
422.014, 0.819
423.358, 25.184
424.702, 19.825
426.045, 2.170
427.389, 5.453
428.732, 8.755
430.075, 41.673
431.417, 13.797
432.760, 4.177
434.102, 49.112
435.444, 16.855
436.786, 11.284
438.127, 34.323
439.469, 22.547
440.810, 15.723
442.151, 11.223
443.492, 25.700
444.832, 18.625
446.172, 62.427
447.512, 18.649
448.852, 38.384
450.192, 41.540
451.531, 9.937
452.870, 8.860
454.209, 28.637
455.548, 8.718
456.887, 5.823
458.225, 9.221
459.563, 19.312
460.901, 13.578
462.238, 37.793
463.576, 14.113
464.913, 10.979
466.250, 37.087
467.587, 22.183
468.923, 34.281
470.259, 34.474
471.596, 26.484
472.931, 24.588
474.267, 40.694
475.603, 22.801
476.938, 58.271
478.273, 4.381
479.608, 63.492
480.942, 41.604
482.276, 33.283
483.611, 81.813
484.944, 39.911
486.278, 39.042
487.612, 24.277
488.945, 25.412
490.278, 50.512
491.611, 71.643
492.943, 74.753
494.276, 52.843
495.608, 73.942
496.940, 40.114
498.271, 5.213
499.603, 24.311
500.934, 51.489
502.265, 66.999
503.596, 54.096
504.927, 68.361
506.257, 28.456
507.587, 24.550
508.917, 26.644
510.247, 59.735
511.577, 11.174
512.906, 15.906
514.235, 43.985
515.564, 1.062
516.892, 3.865
518.221, 22.198
519.549, 69.260
520.877, 53.321
522.205, 5.379
523.533, 7.567
524.860, 26.476
526.187, 48.484
527.514, 11.476
528.841, 26.517
530.167, 47.491
531.493, 25.466
532.820, 59.578
534.145, 14.337
535.471, 25.250
536.796, 11.159
538.122, 34.063
539.447, 30.885
540.771, 21.864
542.096, 45.760
543.420, 23.670
544.744, 45.578
546.068, 61.537
547.392, 11.385
548.715, 1.730
550.039, 26.615
551.362, 48.473
552.684, 49.373
554.007, 51.224
555.329, 48.533
556.652, 41.969
557.973, 30.766
559.295, 3.266
560.617, 2.909
561.938, 19.122
563.259, 5.951
564.580, 20.747
565.901, 30.538
567.221, 61.175
568.541, 6.240
569.861, 68.324
571.181, 14.612
572.501, 43.115
573.820, 48.330
575.139, 10.671
576.458, 54.278
577.777, 4.341
579.095, 59.490
580.414, 15.206
581.732, 56.908
583.049, 28.949
584.367, 69.662
585.685, 9.690
587.002, 14.982
588.319, 8.344
589.636, 9.875
590.952, 32.509
592.268, 15.145
593.585, 34.765
594.900, 20.880
596.216, 37.488
597.532, 2.910
598.847, 20.684
600.162, 44.268
601.477, 7.351
602.792, 30.341
604.106, 51.861
605.420, 19.590
606.734, 6.130
608.048, 24.648
609.361, 12.097
610.675, 42.326
611.988, 12.511
613.301, 54.002
614.614, 35.488
615.926, 16.308
617.238, 75.781
618.550, 38.348
619.862, 17.248
621.174, 60.694
622.485, 47.666
623.797, 39.099
625.108, 58.612
626.418, 69.032
627.729, 79.567
629.039, 83.974
630.349, 86.419
631.659, 50.820
632.969, 66.217
634.279, 15.638
635.588, 80.008
636.897, 53.368
638.206, 77.724
639.515, 54.073
640.823, 85.606
642.131, 70.014
643.439, 38.346
644.747, 23.668
646.055, 38.045
647.362, 88.352
648.669, 39.652
649.976, 75.945
651.283, 54.233
652.589, 56.514
653.896, 30.788
655.202, 87.061
656.508, 51.385
657.814, 29.689
659.119, 14.048
660.424, 67.339
661.729, 23.599
663.034, 88.832
664.339, 125.057
665.643, 60.275
666.947, 118.488
668.251, 108.768
669.555, 192.991
670.859, 255.182
672.162, 430.365
673.465, 493.192
674.768, 474.736
676.071, 381.899
677.373, 529.055
678.676, 829.204
679.978, 1442.126
681.280, 1842.324
682.581, 1660.452
683.883, 1164.033
685.184, 669.910
686.485, 382.018
687.786, 277.581
689.087, 130.676
690.387, 145.429
691.687, 60.476
692.987, 110.552
694.287, 60.492
695.586, 157.556
696.886, 115.615
698.185, 45.705
699.484, 35.751
700.783, 32.792
702.081, 22.826
703.379, 11.100
704.677, 7.623
705.975, 33.941
707.273, 66.957
708.570, 28.956
709.868, 149.948
711.165, 27.040
712.462, 100.021
713.758, 89.995
715.055, 63.965
716.351, 109.294
717.647, 6.236
718.943, 33.111
720.238, 65.455
721.533, 116.338
722.829, 47.937
724.124, 6.876
725.418, 52.438
726.713, 55.406
728.007, 82.776
729.301, 78.691
730.595, 4.273
731.889, 130.260
733.182, 87.158
734.476, 11.809
735.769, 78.697
737.061, 73.327
738.354, 24.206
739.647, 34.207
740.939, 67.203
742.231, 60.458
743.523, 34.170
744.814, 15.479
746.106, 65.886
747.397, 10.737
748.688, 51.489
749.978, 74.334
751.269, 40.105
752.559, 75.056
753.849, 33.693
755.139, 73.487
756.429, 3.312
757.719, 17.788
759.008, 7.415
760.297, 16.556
761.586, 33.039
762.875, 13.835
764.163, 63.892
765.451, 74.225
766.739, 48.011
768.027, 81.366
769.315, 105.165
770.602, 4.091
771.890, 31.358
773.177, 7.162
774.463, 99.896
775.750, 39.366
777.036, 1.111
778.323, 34.854
779.609, 11.616
780.894, 89.408
782.180, 3.139
783.465, 113.865
784.750, 21.588
786.035, 30.306
787.320, 20.021
788.605, 63.732
789.889, 63.078
791.173, 55.781
792.457, 69.481
793.741, 39.178
795.024, 68.872
796.307, 14.570
797.591, 31.449
798.873, 41.108
800.156, 16.659
801.439, 48.306
802.721, 37.828
804.003, 53.740
805.285, 42.858
806.566, 38.527
807.848, 47.194
809.129, 30.785
810.410, 3.820
811.691, 20.489
812.971, 8.766
814.252, 22.150
815.532, 27.827
816.812, 38.199
818.092, 44.837
819.371, 44.473
820.651, 52.341
821.930, 15.971
823.209, 123.603
824.488, 96.230
825.766, 126.855
827.045, 60.477
828.323, 110.098
829.601, 113.719
830.878, 113.377
832.156, 262.995
833.433, 417.609
834.710, 806.222
835.987, 1220.838
837.264, 1496.452
838.540, 1547.078
839.817, 1098.708
841.093, 636.334
842.369, 498.980
843.644, 297.624
844.920, 166.283
846.195, 149.941
847.470, 115.741
848.745, 66.399
850.020, 76.201
851.294, 25.853
852.568, 133.501
853.842, 54.130
855.116, 63.746
856.390, 21.682
857.663, 46.760
858.936, 73.162
860.209, 32.789
861.482, 102.438
862.755, 67.057
864.027, 10.718
865.299, 70.329
866.571, 60.990
867.843, 47.648
869.115, 19.313
870.386, 16.979
871.657, 57.440
872.928, 43.116
874.199, 81.821
875.470, 12.461
876.740, 35.254
878.010, 138.772
879.280, 26.489
880.550, 28.796
881.820, 66.903
883.089, 8.600
884.358, 28.625
885.627, 75.324
886.896, 41.021
888.164, 44.612
889.433, 79.318
890.701, 50.025
891.969, 6.672
893.236, 9.357
894.504, 131.055
895.771, 7.757
897.038, 94.448
898.305, 94.069
899.572, 86.772
900.838, 1.372
902.105, 125.069
903.371, 32.765
904.637, 14.456
905.902, 16.849
907.168, 19.847
908.433, 51.543
909.698, 13.094
910.963, 76.724
912.228, 45.802
913.492, 72.309
914.757, 96.999
916.021, 34.698
917.285, 56.386
918.548, 39.218
919.812, 104.755
921.075, 35.446
922.338, 71.133
923.601, 105.475
924.864, 31.151
926.126, 81.723
927.388, 44.396
928.650, 62.066
929.912, 70.603
931.174, 35.264
932.435, 30.835
933.697, 64.506
934.958, 78.052
936.218, 47.716
937.479, 79.331
938.739, 111.978
940.000, 76.591
941.260, 84.250
942.520, 46.906
943.779, 93.558
945.039, 74.204
946.298, 65.846
947.557, 147.482
948.816, 4.041
950.074, 75.663
951.333, 55.283
952.591, 104.834
953.849, 126.443
955.107, 24.048
956.365, 6.354
957.622, 60.235
958.879, 58.917
960.136, 120.583
961.393, 4.849
962.650, 48.596
963.906, 25.892
965.162, 16.545
966.418, 97.171
967.674, 13.299
968.930, 84.368
970.185, 61.965
971.441, 0.646
972.696, 89.289
973.950, 52.836
975.205, 55.343
976.459, 100.071
977.714, 64.565
978.968, 82.331
980.222, 56.813
981.475, 46.576
982.729, 89.444
983.982, 95.907
985.235, 100.536
986.488, 165.490
987.740, 76.961
988.993, 216.643
990.245, 132.825
991.497, 145.015
992.749, 73.925
994.000, 100.347
995.252, 161.118
996.503, 90.529
997.754, 25.972
999.005, 107.667
1000.256, 27.119
1001.506, 159.615
1002.756, 93.094
1004.006, 102.456
1005.256, 106.581
1006.506, 101.372
1007.755, 139.649
1009.005, 150.348
1010.254, 105.811
1011.502, 95.440
1012.751, 143.142
1014.000, 155.580
1015.248, 157.775
1016.496, 154.740
1017.744, 151.012
1018.991, 151.197
1020.239, 99.940
1021.486, 154.451
1022.733, 167.808
1023.980, 185.283
1025.227, 199.985
1026.473, 214.731
1027.719, 230.579
1028.965, 238.131
1030.211, 257.495
1031.457, 257.398
1032.702, 258.890
1033.948, 278.165
1035.193, 236.924
1036.438, 324.475
1037.682, 267.814
1038.927, 298.985
1040.171, 401.932
1041.415, 390.092
1042.659, 495.505
1043.903, 562.562
1045.146, 685.850
1046.390, 912.280
1047.633, 1252.306
1048.876, 1892.536
1050.118, 3811.751
1051.361, 10413.823
1052.603, 30767.092
1053.845, 45990.031
1055.087, 35035.051
1056.329, 16679.664
1057.571, 8542.667
1058.812, 4685.751
1060.053, 2668.723
1061.294, 1491.851
1062.535, 844.965
1063.775, 637.216
1065.016, 433.306
1066.256, 421.249
1067.496, 414.158
1068.736, 283.199
1069.975, 285.209
1071.214, 245.240
1072.454, 292.195
1073.693, 289.985
1074.931, 277.208
1076.170, 206.885
1077.408, 267.666
1078.647, 178.507
1079.885, 187.229
1081.122, 200.103
1082.360, 155.119
1083.597, 209.803
1084.835, 240.924
1086.072, 196.583
1087.308, 172.228
1088.545, 142.094
1089.781, 206.712
1091.018, 155.487
1092.254, 189.079
1093.490, 196.657
1094.725, 112.241
1095.961, 146.793
1097.196, 175.331
1098.431, 110.670
1099.666, 196.181
1100.900, 112.679
1102.135, 161.163
1103.369, 234.637
1104.603, 159.087
1105.837, 161.084
1107.071, 83.513
1108.304, 86.088
1109.538, 199.487
1110.771, 162.498
1112.004, 150.548
1113.236, 125.200
1114.469, 72.395
1115.701, 139.886
1116.933, 78.271
1118.165, 93.575
1119.397, 71.860
1120.629, 78.894
1121.860, 81.882
1123.091, 111.383
1124.322, 53.609
1125.553, 130.818
1126.783, 43.013
1128.014, 134.192
1129.244, 41.356
1130.474, 29.464
1131.704, 166.594
1132.933, 64.709
1134.163, 23.129
1135.392, 99.209
1136.621, 47.276
1137.850, 68.109
1139.079, 83.143
1140.307, 2.838
1141.535, 207.151
1142.763, 34.115
1143.991, 113.072
1145.219, 97.014
1146.446, 3.796
1147.674, 90.698
1148.901, 77.438
1150.128, 70.309
1151.354, 139.166
1152.581, 14.007
1153.807, 24.829
1155.033, 59.631
1156.259, 14.577
1157.485, 5.180
1158.710, 32.913
1159.936, 47.372
1161.161, 68.292
1162.386, 2.060
1163.611, 60.562
1164.835, 116.167
1166.060, 16.241
1167.284, 74.315
1168.508, 32.142
1169.732, 60.643
1170.955, 0.799
1172.179, 35.784
1173.402, 9.412
1174.625, 78.934
1175.848, 33.265
1177.070, 13.580
1178.293, 43.876
1179.515, 32.165
1180.737, 31.438
1181.959, 8.305
1183.181, 14.925
1184.402, 36.138
1185.624, 15.665
1186.845, 3.501
1188.066, 68.646
1189.286, 10.778
1190.507, 56.892
1191.727, 27.993
1192.947, 8.080
1194.167, 100.149
1195.387, 31.206
1196.607, 31.249
1197.826, 23.277
1199.045, 16.293
1200.264, 82.293
1201.483, 21.718
1202.702, 29.760
1203.920, 39.168
1205.138, 37.084
1206.356, 30.986
1207.574, 18.876
1208.792, 19.206
1210.009, 11.380
1211.227, 18.461
1212.444, 44.291
1213.661, 55.108
1214.877, 16.916
1216.094, 26.288
1217.310, 8.479
1218.526, 28.235
1219.742, 63.980
1220.958, 14.717
1222.173, 13.443
1223.389, 54.160
1224.604, 35.868
1225.819, 140.568
1227.034, 11.262
1228.248, 65.052
1229.463, 99.590
1230.677, 2.768
1231.891, 100.866
1233.105, 100.491
1234.318, 48.909
1235.532, 101.666
1236.745, 11.229
1237.958, 50.779
1239.171, 97.319
1240.384, 43.848
1241.596, 85.365
1242.809, 89.871
1244.021, 68.177
1245.233, 113.849
1246.444, 43.318
1247.656, 53.751
1248.867, 40.174
1250.079, 15.585
1251.290, 68.986
1252.500, 63.377
1253.711, 0.660
1254.921, 123.941
1256.132, 80.299
1257.342, 15.353
1258.552, 126.966
1259.761, 58.282
1260.971, 89.556
1262.180, 110.712
1263.389, 26.845
1264.598, 30.032
1265.807, 52.118
1267.015, 31.227
1268.223, 124.338
1269.432, 82.549
1270.640, 70.525
1271.847, 128.719
1273.055, 99.608
1274.262, 233.800
1275.470, 121.404
1276.677, 76.439
1277.883, 109.590
1279.090, 11.440
1280.296, 18.190
1281.503, 27.289
1282.709, 60.835
1283.915, 102.099
1285.120, 137.091
1286.326, 83.470
1287.531, 31.449
1288.736, 13.268
1289.941, 65.332
1291.146, 122.350
1292.350, 39.104
1293.555, 89.087
1294.759, 171.013
1295.963, 53.906
1297.167, 83.940
1298.370, 89.198
1299.574, 132.779
1300.777, 237.615
1301.980, 78.264
1303.183, 78.138
1304.386, 181.822
1305.588, 137.434
1306.790, 89.295
1307.993, 238.768
1309.195, 110.596
1310.396, 225.588
1311.598, 187.202
1312.799, 148.087
1314.000, 272.728
1315.201, 263.593
1316.402, 147.331
1317.603, 244.789
1318.803, 220.920
1320.003, 289.840
1321.203, 354.571
1322.403, 204.021
1323.603, 215.812
1324.802, 342.558
1326.002, 217.309
1327.201, 333.656
1328.400, 180.243
1329.599, 202.037
1330.797, 337.995
1331.995, 175.173
1333.194, 390.132
1334.392, 274.701
1335.589, 356.632
1336.787, 414.457
1337.985, 233.002
1339.182, 337.084
1340.379, 488.963
1341.576, 340.856
1342.772, 486.734
1343.969, 559.579
1345.165, 361.727
1346.361, 545.713
1347.557, 526.234
1348.753, 658.278
1349.949, 770.336
1351.144, 826.395
1352.339, 876.429
1353.534, 976.493
1354.729, 1074.691
1355.924, 1164.565
1357.118, 1352.907
1358.312, 1499.709
1359.506, 1713.412
1360.700, 1831.710
1361.894, 2077.989
1363.088, 2208.406
1364.281, 2299.028
1365.474, 2529.503
1366.667, 2610.038
1367.860, 2710.814
1369.052, 3171.596
1370.245, 3312.569
1371.437, 3683.439
1372.629, 4340.250
1373.821, 4482.574
1375.013, 4913.609
1376.204, 4994.252
1377.395, 4981.002
1378.586, 4890.807
1379.777, 4560.774
1380.968, 3910.714
1382.159, 3530.666
1383.349, 2990.611
1384.539, 2570.546
1385.729, 2160.368
1386.919, 1750.120
1388.109, 1580.041
1389.298, 1324.195
1390.487, 1073.361
1391.676, 1022.203
1392.865, 757.048
1394.054, 701.890
1395.242, 619.729
1396.431, 478.568
1397.619, 465.404
1398.807, 488.241
1399.995, 369.697
1401.182, 333.157
1402.370, 266.961
1403.557, 275.556
1404.744, 267.365
1405.931, 260.179
1407.118, 158.997
1408.304, 374.819
1409.490, 250.649
1410.676, 256.498
1411.862, 349.374
1413.048, 188.305
1414.234, 415.256
1415.419, 337.225
1416.604, 242.232
1417.789, 408.334
1418.974, 345.505
1420.159, 268.695
1421.343, 370.905
1422.528, 369.129
1423.712, 325.389
1424.896, 403.677
1426.079, 261.000
1427.263, 341.344
1428.446, 397.704
1429.629, 266.080
1430.812, 354.473
1431.995, 287.880
1433.178, 229.348
1434.360, 307.849
1435.543, 201.363
1436.725, 210.902
1437.907, 295.463
1439.088, 178.032
1440.270, 221.645
1441.451, 137.262
1442.632, 130.882
1443.813, 151.498
1444.994, 154.102
1446.175, 245.752
1447.355, 242.379
1448.535, 274.784
1449.715, 215.817
1450.895, 315.584
1452.075, 208.385
1453.255, 222.226
1454.434, 263.177
1455.613, 176.229
1456.792, 322.331
1457.971, 348.486
1459.149, 259.704
1460.328, 463.060
1461.506, 350.514
1462.684, 406.041
1463.862, 452.645
1465.040, 418.331
1466.217, 615.100
1467.395, 617.956
1468.572, 541.898
1469.749, 656.930
1470.925, 607.053
1472.102, 626.271
1473.278, 787.590
1474.455, 615.015
1475.631, 680.552
1476.807, 750.206
1477.982, 583.985
1479.158, 590.897
1480.333, 692.952
1481.508, 589.165
1482.683, 608.550
1483.858, 578.120
1485.033, 513.890
1486.207, 555.874
1487.381, 388.082
1488.555, 404.528
1489.729, 539.229
1490.903, 275.196
1492.076, 314.453
1493.250, 428.021
1494.423, 168.929
1495.596, 213.208
1496.769, 294.894
1497.941, 159.030
1499.114, 188.666
1500.286, 156.856
1501.458, 28.665
1502.630, 187.163
1503.802, 25.439
1504.973, 22.603
1506.145, 159.788
1507.316, 30.162
1508.487, 124.939
1509.657, 168.394
1510.828, 54.889
1511.999, 189.935
1513.169, 191.249
1514.339, 3.104
1515.509, 325.364
1516.678, 0.000
##END=



