##NAMES=Cerussite
##RRUFFID=R050298
##IDEAL CHEMISTRY=Pb^2+^CO_3_
##LOCALITY=Bunker Hill mine, Shoshone County, Idaho, USA
##OWNER=RRUFF
##SOURCE=Eugene Schlepp
##DESCRIPTION=Group of colorless tabular crystals
##STATUS=The identification of this mineral has been confirmed by X-ray diffraction and chemical analysis
##URL=rruff.info/R050298
##MEASURED CHEMISTRY=Pb_1.00_CO_3_
##PIN_ID=L01724
##ORIENTATION=Laser parallel to c* (0 0 1). Fiducial mark perpendicular to laser is parallel to a [1 0 0]
51.43100, 0.0000000E+00
52.67100, 51.36557
53.91000, 12.31580
55.14900, 11.71429
56.38700, 12.12531
57.62600, 21.85889
58.86400, 6.687500
60.10300, 4.761841
61.34100, 46.03064
62.57900, 60.70349
63.81700, 365.7051
65.05400, 851.9702
66.29200, 1494.689
67.52900, 2292.201
68.76700, 3209.962
70.00400, 4469.521
71.24100, 5641.501
72.47700, 6546.555
73.71400, 7176.389
74.95100, 7493.745
76.18700, 7296.399
77.42300, 6768.156
78.65900, 6099.853
79.89500, 5380.335
81.13100, 4876.472
82.36700, 4343.147
83.60200, 4070.260
84.83700, 3799.721
86.07200, 3572.461
87.30800, 3531.412
88.54200, 3419.515
89.77700, 3445.673
91.01200, 3492.791
92.24600, 3479.791
93.48000, 3659.616
94.71400, 3716.214
95.94800, 3838.542
97.18200, 3905.567
98.41600, 4177.258
99.64900, 4454.582
100.8830, 4553.513
102.1160, 4757.024
103.3490, 5022.090
104.5820, 5114.689
105.8150, 5306.796
107.0470, 5520.391
108.2800, 5700.455
109.5120, 5956.968
110.7440, 6078.917
111.9760, 6400.506
113.2080, 6593.068
114.4400, 7068.271
115.6710, 7475.911
116.9030, 7939.935
118.1340, 8454.348
119.3650, 8689.247
120.5960, 8681.587
121.8270, 8504.272
123.0580, 8289.354
124.2880, 7752.951
125.5190, 7189.718
126.7490, 6841.400
127.9790, 6396.065
129.2090, 6107.716
130.4390, 5885.432
131.6680, 5537.320
132.8980, 5427.336
134.1270, 5204.504
135.3560, 5138.774
136.5850, 4798.160
137.8140, 4547.711
139.0430, 4092.461
140.2710, 3894.417
141.5000, 3600.588
142.7280, 3329.962
143.9560, 3097.533
145.1840, 3028.260
146.4120, 2816.147
147.6390, 2843.192
148.8670, 2738.440
150.0940, 2685.832
151.3210, 2710.372
152.5490, 2576.058
153.7750, 2486.920
155.0020, 2468.920
156.2290, 2423.064
157.4550, 2159.336
158.6810, 2047.727
159.9080, 1901.237
161.1340, 1828.868
162.3590, 1854.636
163.5850, 1587.517
164.8110, 1593.512
166.0360, 1605.620
167.2610, 1480.864
168.4860, 1458.228
169.7110, 1507.694
170.9360, 1675.262
172.1610, 1600.933
173.3850, 1659.824
174.6100, 1665.104
175.8340, 1739.323
177.0580, 1665.783
178.2820, 1806.350
179.5050, 1706.901
180.7290, 1657.201
181.9520, 1604.908
183.1760, 1551.347
184.3990, 1510.056
185.6220, 1493.523
186.8450, 1474.177
188.0670, 1478.886
189.2900, 1392.507
190.5120, 1364.224
191.7340, 1367.072
192.9560, 1397.240
194.1780, 1447.060
195.4000, 1473.030
196.6220, 1635.892
197.8430, 1718.035
199.0640, 1752.832
200.2860, 1833.251
201.5070, 1817.176
202.7270, 1924.720
203.9480, 1924.113
205.1690, 1983.184
206.3890, 2156.093
207.6090, 2285.719
208.8290, 2423.644
210.0490, 2486.295
211.2690, 2695.049
212.4890, 2796.791
213.7080, 3018.347
214.9280, 3077.753
216.1470, 3239.590
217.3660, 3390.708
218.5850, 3217.973
219.8030, 3360.497
221.0220, 3390.047
222.2400, 3254.468
223.4590, 3218.461
224.6770, 3256.320
225.8950, 3186.827
227.1120, 3204.043
228.3300, 3158.600
229.5480, 3016.092
230.7650, 3028.985
231.9820, 2730.785
233.1990, 2599.032
234.4160, 2305.706
235.6330, 2115.527
236.8490, 2001.328
238.0660, 1770.156
239.2820, 1668.313
240.4980, 1625.009
241.7140, 1366.155
242.9300, 1310.125
244.1460, 1160.245
245.3610, 1172.336
246.5770, 1008.788
247.7920, 971.7744
249.0070, 759.7141
250.2220, 817.2317
251.4370, 729.1143
252.6510, 639.8088
253.8660, 611.7861
255.0800, 575.7759
256.2940, 565.8320
257.5080, 498.3171
258.7220, 349.4946
259.9360, 342.8792
261.1490, 333.1721
262.3630, 315.5586
263.5760, 324.9570
264.7890, 253.4307
266.0020, 260.0862
267.2150, 259.6323
268.4270, 168.2241
269.6400, 178.8738
270.8520, 206.0029
272.0640, 95.86670
273.2760, 145.6299
274.4880, 164.4421
275.7000, 169.5415
276.9120, 177.6729
278.1230, 74.65112
279.3340, 57.29321
280.5450, 84.52905
281.7560, 148.4292
282.9670, 88.12573
284.1780, 26.23071
285.3880, 102.3701
286.5980, 145.5469
287.8090, 27.91040
289.0190, 68.19971
290.2290, 115.9014
291.4380, 61.27344
292.6480, 7.987549
293.8570, 36.33887
295.0670, 12.12427
296.2760, 56.48291
297.4850, 16.07202
298.6930, 32.52490
299.9020, 21.89331
301.1110, 10.73071
302.3190, 45.19922
303.5270, 16.69067
304.7350, 21.39331
305.9430, 63.85083
307.1510, 50.81836
308.3580, 18.01562
309.5660, 15.26196
310.7730, 25.15747
311.9800, 35.47900
313.1870, 38.54370
314.3940, 2.061768
315.6010, 62.23267
316.8070, 8.577393
318.0130, 112.5581
319.2200, 76.90137
320.4260, 33.25537
321.6310, 78.60376
322.8370, 27.65356
324.0430, 10.01270
325.2480, 15.33691
326.4540, 5.432129
327.6590, 17.61011
328.8640, 42.96948
330.0680, 3.301514
331.2730, 68.56128
332.4780, 1.942871
333.6820, 37.24438
334.8860, 47.64307
336.0900, 100.0967
337.2940, 125.5776
338.4980, 8.398682
339.7010, 36.50977
340.9050, 5.962891
342.1080, 17.36499
343.3110, 48.76880
344.5140, 44.77783
345.7170, 16.29541
346.9200, 59.25366
348.1220, 23.28003
349.3240, 17.85278
350.5270, 14.51147
351.7290, 17.88379
352.9310, 25.24023
354.1320, 96.58398
355.3340, 51.83740
356.5350, 4.489990
357.7370, 37.86938
358.9380, 41.23413
360.1390, 23.39282
361.3400, 24.03540
362.5400, 30.69043
363.7410, 30.76367
364.9410, 7.038330
366.1410, 5.278564
367.3410, 11.59692
368.5410, 23.92358
369.7410, 31.26416
370.9400, 39.88379
372.1400, 17.54175
373.3390, 36.51685
374.5380, 39.93115
375.7370, 2.624756
376.9360, 20.56519
378.1350, 24.85376
379.3330, 44.80713
380.5310, 53.30127
381.7300, 17.66602
382.9280, 49.80127
384.1260, 35.26587
385.3230, 26.08154
386.5210, 35.52734
387.7180, 45.03613
388.9160, 40.35596
390.1130, 106.4333
391.3100, 23.85571
392.5060, 61.37842
393.7030, 43.74243
394.9000, 76.08545
396.0960, 19.42188
397.2920, 3.864990
398.4880, 92.80444
399.6840, 94.74146
400.8800, 13.34253
402.0750, 138.1589
403.2710, 46.62817
404.4660, 116.8513
405.6610, 99.05762
406.8560, 108.2551
408.0510, 104.7808
409.2450, 94.67993
410.4400, 120.9817
411.6340, 140.5442
412.8280, 62.13208
414.0220, 49.34448
415.2160, 103.8455
416.4100, 170.2681
417.6030, 121.3513
418.7970, 102.6382
419.9900, 104.6956
421.1830, 119.9197
422.3760, 86.76001
423.5690, 66.77246
424.7610, 50.06152
425.9540, 93.83472
427.1460, 163.7805
428.3380, 224.9978
429.5300, 141.2097
430.7220, 126.1152
431.9140, 136.0051
433.1050, 111.4592
434.2970, 137.3159
435.4880, 115.2913
436.6790, 90.46045
437.8700, 118.2932
439.0610, 179.0720
440.2510, 252.8403
441.4420, 138.3679
442.6320, 90.66943
443.8220, 142.1560
445.0120, 114.8433
446.2020, 188.5464
447.3910, 107.9888
448.5810, 163.3005
449.7700, 148.5540
450.9600, 116.1741
452.1490, 149.0107
453.3370, 110.0791
454.5260, 114.3806
455.7150, 131.7095
456.9030, 110.2185
458.0910, 164.7197
459.2800, 177.2830
460.4670, 137.5447
461.6550, 171.7134
462.8430, 213.4343
464.0300, 223.4690
465.2180, 134.9395
466.4050, 170.4014
467.5920, 161.4453
468.7790, 139.2280
469.9650, 146.2725
471.1520, 173.8848
472.3380, 163.4727
473.5250, 152.4673
474.7110, 163.5930
475.8970, 94.70483
477.0820, 162.2354
478.2680, 191.2371
479.4540, 173.6365
480.6390, 115.6748
481.8240, 108.7388
483.0090, 147.9639
484.1940, 209.8879
485.3780, 177.9299
486.5630, 180.9563
487.7470, 187.5671
488.9320, 114.3772
490.1160, 165.0576
491.3000, 162.0132
492.4830, 155.9363
493.6670, 194.5503
494.8500, 201.9407
496.0340, 173.9468
497.2170, 136.1577
498.4000, 49.63184
499.5820, 197.7642
500.7650, 211.7622
501.9480, 154.5127
503.1300, 148.0994
504.3120, 213.6526
505.4940, 219.2915
506.6760, 198.8882
507.8580, 206.7510
509.0390, 203.3882
510.2210, 182.0884
511.4020, 198.3257
512.5830, 158.8569
513.7640, 87.81616
514.9450, 103.5771
516.1250, 151.5361
517.3060, 185.2356
518.4860, 101.2639
519.6660, 104.8345
520.8460, 105.0881
522.0260, 129.3110
523.2060, 75.65454
524.3850, 182.0640
525.5650, 137.2344
526.7440, 85.95410
527.9230, 142.3042
529.1020, 134.9126
530.2810, 128.4458
531.4590, 16.08057
532.6380, 112.4194
533.8160, 97.28955
534.9940, 117.2695
536.1720, 175.7334
537.3500, 137.8906
538.5270, 73.29297
539.7050, 3.535645
540.8820, 52.66650
542.0590, 75.85547
543.2360, 55.66211
544.4130, 81.81982
545.5900, 111.8125
546.7660, 171.9380
547.9430, 151.0098
549.1190, 72.10791
550.2950, 45.25537
551.4710, 93.27100
552.6470, 66.31641
553.8220, 63.34375
554.9980, 98.33838
556.1730, 12.87891
557.3480, 14.70264
558.5230, 147.6475
559.6980, 80.56689
560.8730, 133.2236
562.0470, 83.87256
563.2220, 0.1293950
564.3960, 206.2251
565.5700, 67.83057
566.7440, 30.79297
567.9170, 126.1987
569.0910, 67.05127
570.2640, 65.83105
571.4380, 113.6724
572.6110, 146.2944
573.7840, 41.97656
574.9570, 138.3970
576.1290, 121.0239
577.3020, 40.29883
578.4740, 97.99707
579.6460, 123.2485
580.8180, 73.90479
581.9900, 120.5527
583.1620, 37.02637
584.3330, 78.52148
585.5040, 153.9829
586.6760, 106.0068
587.8470, 88.59961
589.0180, 87.41064
590.1880, 53.98242
591.3590, 93.43262
592.5290, 56.35986
593.7000, 16.76562
594.8700, 67.47510
596.0400, 49.60254
597.2090, 89.35449
598.3790, 79.97217
599.5490, 81.40674
600.7180, 84.89258
601.8870, 91.01514
603.0560, 84.50000
604.2250, 16.98828
605.3940, 168.4663
606.5620, 99.64209
607.7300, 77.11914
608.8990, 149.5503
610.0670, 134.7500
611.2350, 113.0288
612.4020, 81.48047
613.5700, 125.8916
614.7370, 168.2041
615.9050, 92.61572
617.0720, 131.9248
618.2390, 183.4180
619.4060, 148.9683
620.5720, 198.0605
621.7390, 212.0029
622.9050, 196.2725
624.0710, 101.2446
625.2370, 156.7031
626.4030, 141.1533
627.5690, 71.59521
628.7340, 224.0410
629.9000, 128.9653
631.0650, 112.4204
632.2300, 73.86816
633.3950, 97.34521
634.5600, 161.7861
635.7240, 70.23535
636.8890, 183.6865
638.0530, 203.0410
639.2170, 76.86963
640.3810, 131.3936
641.5450, 125.8730
642.7080, 158.3599
643.8720, 147.9136
645.0350, 97.39795
646.1980, 150.8979
647.3610, 50.37061
648.5240, 2.840820
649.6870, 84.30811
650.8490, 28.02539
652.0120, 66.50049
653.1740, 91.98340
654.3360, 69.92969
655.4980, 99.09229
656.6600, 64.59961
657.8210, 37.11865
658.9830, 67.59814
660.1440, 83.80420
661.3050, 103.9448
662.4660, 100.6108
663.6270, 100.6460
664.7870, 167.1396
665.9480, 191.7817
667.1080, 252.9556
668.2680, 386.8350
669.4280, 493.3667
670.5880, 634.9150
671.7480, 688.8843
672.9070, 698.3843
674.0670, 835.7695
675.2260, 863.3027
676.3850, 929.8447
677.5440, 770.3999
678.7030, 601.5439
679.8610, 377.9282
681.0200, 189.4756
682.1780, 206.6992
683.3360, 283.6904
684.4940, 212.0259
685.6520, 234.6084
686.8090, 113.1963
687.9670, 88.79639
689.1240, 33.05566
690.2810, 27.45703
691.4380, 206.3867
692.5950, 95.57080
693.7520, 140.7163
694.9080, 245.2197
696.0650, 229.4155
697.2210, 155.6738
698.3770, 196.2583
699.5330, 107.6255
700.6880, 113.2065
701.8440, 12.60498
702.9990, 10.37207
704.1550, 87.94775
705.3100, 107.2266
706.4650, 24.00195
707.6190, 30.85010
708.7740, 49.86133
709.9290, 24.13965
711.0830, 35.70850
712.2370, 88.27881
713.3910, 11.26855
714.5450, 120.8364
715.6980, 132.4038
716.8520, 42.39697
718.0050, 49.94238
719.1580, 71.52344
720.3110, 93.92188
721.4640, 47.50000
722.6170, 120.5078
723.7700, 140.9668
724.9220, 100.5493
726.0740, 44.13330
727.2260, 164.6602
728.3780, 106.1895
729.5300, 97.47363
730.6810, 103.0303
731.8330, 77.44482
732.9840, 69.13867
734.1350, 82.56836
735.2860, 70.86035
736.4370, 110.4277
737.5880, 45.35400
738.7380, 124.8975
739.8880, 119.4570
741.0390, 75.04688
742.1890, 83.61035
743.3380, 47.54004
744.4880, 54.31104
745.6380, 51.71143
746.7870, 69.86621
747.9360, 64.46338
749.0850, 69.06299
750.2340, 91.66357
751.3830, 97.51221
752.5310, 43.83398
753.6800, 98.43408
754.8280, 77.03467
755.9760, 7.639648
757.1240, 6.242676
758.2720, 34.15430
759.4190, 23.39795
760.5670, 123.0137
761.7140, 29.59668
762.8610, 68.18018
764.0080, 121.7627
765.1550, 44.34521
766.3020, 49.88428
767.4480, 134.2402
768.5950, 37.99609
769.7410, 49.57959
770.8870, 12.45654
772.0330, 35.03906
773.1780, 116.5884
774.3240, 88.13770
775.4690, 63.71924
776.6140, 15.30029
777.7590, 15.88770
778.9040, 97.56445
780.0490, 69.18896
781.1940, 12.95117
782.3380, 70.98145
783.4820, 22.56445
784.6260, 50.14746
785.7700, 29.63965
786.9140, 129.8037
788.0580, 3.467773
789.2010, 135.8804
790.3450, 40.44336
791.4880, 25.02051
792.6310, 119.5986
793.7730, 91.24463
794.9160, 36.81104
796.0590, 48.26270
797.2010, 9.840820
798.3430, 50.58154
799.4850, 4.972168
800.6270, 83.52344
801.7690, 25.07715
802.9100, 7.645508
804.0520, 57.26562
805.1930, 7.160156
806.3340, 27.38721
807.4750, 26.94336
808.6160, 6.480957
809.7560, 37.03271
810.8970, 53.61279
812.0370, 54.16406
813.1770, 61.71484
814.3170, 19.26416
815.4570, 136.8140
816.5960, 0.9340820
817.7360, 31.37646
818.8750, 59.16846
820.0140, 61.60449
821.1530, 91.15186
822.2920, 112.8140
823.4310, 119.4351
824.5690, 133.3281
825.7070, 142.0244
826.8460, 122.4761
827.9840, 132.1265
829.1220, 95.66943
830.2590, 82.21338
831.3970, 178.7568
832.5340, 291.2988
833.6710, 329.8462
834.8080, 452.3975
835.9450, 489.9473
837.0820, 664.4966
838.2190, 833.0444
839.3550, 1003.419
840.4910, 1064.795
841.6270, 962.3477
842.7630, 633.8994
843.8990, 401.2305
845.0350, 254.7256
846.1700, 143.2783
847.3060, 142.7485
848.4410, 168.7651
849.5760, 132.3135
850.7100, 144.7251
851.8450, 125.2729
852.9800, 102.8188
854.1140, 99.43066
855.2480, 97.07178
856.3820, 99.61523
857.5160, 74.15771
858.6500, 80.69873
859.7830, 119.2397
860.9170, 99.78027
862.0500, 53.31836
863.1830, 106.8550
864.3160, 94.38965
865.4480, 136.9229
866.5810, 161.4556
867.7130, 57.98633
868.8460, 66.51562
869.9780, 90.04736
871.1100, 43.57666
872.2410, 107.1060
873.3730, 2.367188
874.5050, 69.15430
875.6360, 46.67383
876.7670, 35.19141
877.8980, 146.7070
879.0290, 90.22021
880.1590, 66.73438
881.2900, 19.25293
882.4200, 4.224121
883.5500, 63.29199
884.6800, 99.03076
885.8100, 113.5425
886.9400, 133.5591
888.0690, 122.2891
889.1990, 118.0659
890.3280, 91.57568
891.4570, 50.08301
892.5860, 50.49268
893.7140, 117.8892
894.8430, 82.37061
895.9710, 106.1924
897.1000, 85.80176
898.2280, 90.30615
899.3560, 99.80762
900.4830, 40.30664
901.6110, 126.8091
902.7380, 9.690918
903.8660, 10.80029
904.9930, 69.28809
906.1200, 0.2255860
907.2460, 57.19141
908.3730, 28.33057
909.5000, 86.12842
910.6260, 78.58398
911.7520, 84.03760
912.8780, 122.4395
914.0040, 20.84326
915.1290, 27.30420
916.2550, 15.23730
917.3800, 2.859863
918.5050, 105.5771
919.6300, 136.0059
920.7550, 82.45361
921.8800, 16.90625
923.0040, 14.35693
924.1290, 54.55713
925.2530, 120.0015
926.3770, 117.4434
927.5010, 53.87744
928.6250, 12.68652
929.7480, 70.73633
930.8720, 121.1621
931.9950, 163.6040
933.1180, 127.9697
934.2410, 135.6992
935.3640, 99.99609
936.4860, 92.46582
937.6090, 31.93311
938.7310, 22.30615
939.8530, 30.78418
940.9750, 60.91260
942.0970, 137.3843
943.2180, 40.86328
944.3400, 119.2222
945.4610, 29.69434
946.5820, 94.16309
947.7030, 40.62939
948.8240, 63.09229
949.9450, 54.53711
951.0650, 38.00293
952.1860, 72.22119
953.3060, 123.0015
954.4260, 9.572754
955.5460, 27.15820
956.6650, 60.76465
957.7850, 135.5986
958.9040, 52.04199
960.0230, 39.28320
961.1420, 53.60547
962.2610, 4.924805
963.3800, 53.23926
964.4990, 111.5498
965.6170, 70.87158
966.7350, 58.20117
967.8530, 61.52734
968.9710, 66.85059
970.0890, 66.17090
971.2070, 86.48730
972.3240, 72.79980
973.4410, 82.10840
974.5580, 71.41504
975.6750, 102.7178
976.7920, 47.01758
977.9090, 55.31348
979.0250, 42.61084
980.1410, 95.90479
981.2580, 117.1953
982.3740, 1.518066
983.4890, 102.7598
984.6050, 113.0337
985.7200, 47.31104
986.8360, 115.5835
987.9510, 26.14746
989.0660, 19.95508
990.1810, 45.34082
991.2950, 45.57861
992.4100, 108.8130
993.5240, 137.0430
994.6390, 64.26855
995.7530, 62.49072
996.8660, 106.7085
997.9800, 182.9219
999.0940, 191.1323
1000.207, 180.3374
1001.320, 188.8530
1002.433, 94.73633
1003.546, 125.9297
1004.659, 162.1191
1005.772, 91.30371
1006.884, 151.4849
1007.996, 55.27100
1009.108, 158.4429
1010.220, 40.61133
1011.332, 62.77539
1012.444, 54.93506
1013.555, 83.09082
1014.666, 54.67725
1015.777, 172.4170
1016.888, 88.07959
1017.999, 7.218262
1019.110, 91.34961
1020.220, 171.4766
1021.331, 39.68311
1022.441, 140.8018
1023.551, 194.3784
1024.661, 133.4878
1025.770, 80.95947
1026.880, 151.0752
1027.989, 268.1719
1029.098, 216.3311
1030.207, 274.4302
1031.316, 367.5244
1032.425, 358.6133
1033.533, 352.6982
1034.642, 288.9365
1035.750, 353.0171
1036.858, 173.5693
1037.966, 223.4629
1039.073, 194.7178
1040.181, 323.4565
1041.288, 436.5083
1042.396, 424.5874
1043.503, 517.6289
1044.610, 608.6665
1045.716, 1031.821
1046.823, 1474.850
1047.929, 2586.330
1049.036, 5216.310
1050.142, 8993.146
1051.248, 12183.71
1052.353, 18051.30
1053.459, 27522.30
1054.564, 39289.79
1055.670, 52938.65
1056.775, 54251.49
1057.880, 40882.47
1058.985, 21471.45
1060.089, 8802.416
1061.194, 3753.382
1062.298, 1863.275
1063.402, 1159.362
1064.506, 773.5449
1065.610, 604.8120
1066.713, 386.7520
1067.817, 399.7046
1068.920, 259.6460
1070.023, 294.5820
1071.126, 182.5229
1072.229, 213.3794
1073.332, 175.2764
1074.435, 139.1909
1075.537, 186.2422
1076.639, 215.1445
1077.741, 147.0415
1078.843, 140.9043
1079.945, 227.7896
1081.046, 192.6689
1082.148, 173.8931
1083.249, 256.9839
1084.350, 107.1436
1085.451, 60.00000
1086.551, 91.85791
1087.652, 166.8193
1088.752, 215.6650
1089.853, 124.0005
1090.953, 83.83594
1092.053, 104.0884
1093.152, 117.4585
1094.252, 227.7334
1095.351, 191.3306
1096.451, 213.1401
1097.550, 151.2725
1098.649, 158.5444
1099.748, 153.0264
1100.846, 172.2627
1101.945, 153.0449
1103.043, 122.8223
1104.141, 124.5938
1105.239, 133.3604
1106.337, 124.1206
1107.434, 139.8765
1108.532, 112.6270
1109.629, 152.3726
1110.726, 78.11230
1111.823, 155.8472
1112.920, 80.57617
1114.017, 148.2998
1115.113, 128.5215
1116.210, 80.23486
1117.306, 151.1719
1118.402, 100.8750
1119.498, 94.57373
1120.593, 103.2031
1121.689, 141.7954
1122.784, 195.4795
1123.879, 139.1587
1124.974, 143.8320
1126.069, 151.5020
1127.164, 94.16602
1128.259, 90.82617
1129.353, 120.4810
1130.447, 155.1318
1131.541, 49.77734
1132.635, 99.41895
1133.729, 93.05566
1134.822, 174.6880
1135.916, 104.3159
1137.009, 73.93896
1138.102, 120.5576
1139.195, 100.1724
1140.288, 68.78467
1141.380, 122.3921
1142.473, 73.99561
1143.565, 70.59521
1144.657, 125.1904
1145.749, 8.218262
1146.841, 12.64404
1147.932, 59.91211
1149.024, 127.4653
1150.115, 109.7905
1151.206, 82.33643
1152.297, 16.87891
1153.388, 63.41650
1154.479, 10.04980
1155.569, 70.46680
1156.659, 7.979980
1157.750, 22.48584
1158.839, 29.98828
1159.929, 20.51318
1161.019, 66.96436
1162.108, 37.43750
1163.198, 85.90869
1164.287, 66.37549
1165.376, 7.160645
1166.465, 20.28906
1167.553, 7.735840
1168.642, 45.17969
1169.730, 8.622070
1170.818, 43.05859
1171.906, 37.49365
1172.994, 28.62744
1174.082, 34.36426
1175.170, 41.79932
1176.257, 8.767578
1177.344, 45.65186
1178.431, 31.93115
1179.518, 73.46094
1180.605, 42.85156
1181.691, 55.24414
1182.778, 49.36279
1183.864, 14.99658
1184.950, 16.64648
1186.036, 91.69531
1187.122, 75.37158
1188.207, 132.3740
1189.292, 76.71045
1190.378, 118.0454
1191.463, 101.3784
1192.548, 72.70947
1193.632, 12.95557
1194.717, 62.63379
1195.801, 64.35059
1196.886, 34.89404
1197.970, 75.86230
1199.054, 117.3359
1200.137, 80.53271
1201.221, 61.27100
1202.305, 57.88818
1203.388, 122.0464
1204.471, 103.2041
1205.554, 32.63916
1206.637, 5.497070
1207.719, 165.6323
1208.802, 52.76611
1209.884, 135.8999
1210.966, 105.0327
1212.048, 9.835449
1213.130, 56.29053
1214.212, 15.41504
1215.293, 16.55127
1216.374, 132.6870
1217.456, 124.8223
1218.536, 100.9614
1219.617, 28.89062
1220.698, 120.2603
1221.778, 31.41064
1222.859, 21.57617
1223.939, 104.7417
1225.019, 74.90771
1226.099, 20.07471
1227.178, 58.75781
1228.258, 45.50195
1229.337, 172.4980
1230.417, 4.384277
1231.496, 28.73145
1232.574, 119.8486
1233.653, 11.96631
1234.732, 55.08496
1235.810, 40.20410
1236.888, 54.32471
1237.966, 28.44580
1239.044, 35.41406
