##NAMES=Cerussite
##RRUFFID=R050174
##IDEAL CHEMISTRY=Pb^2+^CO_3_
##LOCALITY=Tsumeb mine, Tsumeb, Otavi District, Oshikoto, Namibia
##OWNER=RRUFF
##SOURCE=Marcus Origlieri
##DESCRIPTION=Colorless single crystal
##STATUS=The identification of this mineral has been confirmed by X-ray diffraction and chemical analysis
##URL=rruff.info/R050174
##MEASURED CHEMISTRY=Pb_1.00_CO_3_ ; C not measured but estimated by difference and stoichiometry
##PIN_ID=L01208
##ORIENTATION=Laser parallel to c* (0 0 1). Fiducial mark perpendicular to laser is parallel to a [1 0 0]
51.43100, 0.0000000E+00
52.67100, 62.96332
53.91000, 3.312439
55.14900, 17.48975
56.38700, 30.20050
57.62600, 2.830933
58.86400, 8.710815
60.10300, 47.55164
61.34100, 234.9779
62.57900, 673.2192
63.81700, 1476.907
65.05400, 2362.961
66.29200, 3509.514
67.52900, 4880.866
68.76700, 6488.449
70.00400, 8165.800
71.24100, 9776.529
72.47700, 10665.29
73.71400, 11194.76
74.95100, 10752.70
76.18700, 9836.860
77.42300, 8738.049
78.65900, 7600.087
79.89500, 6415.824
81.13100, 5564.122
82.36700, 4938.870
83.60200, 4345.976
84.83700, 3826.375
86.07200, 3520.996
87.30800, 3268.777
88.54200, 3045.651
89.77700, 2851.525
91.01200, 2707.989
92.24600, 2598.827
93.48000, 2523.268
94.71400, 2492.345
95.94800, 2496.085
97.18200, 2521.448
98.41600, 2535.398
99.64900, 2612.905
100.8830, 2638.938
102.1160, 2757.471
103.3490, 2821.477
104.5820, 3027.932
105.8150, 3103.815
107.0470, 3284.104
108.2800, 3454.781
109.5120, 3554.837
110.7440, 3839.269
111.9760, 4016.066
113.2080, 4276.305
114.4400, 4618.968
115.6710, 5037.079
116.9030, 5241.722
118.1340, 5586.791
119.3650, 5899.257
120.5960, 5929.149
121.8270, 5943.420
123.0580, 5778.998
124.2880, 5593.922
125.5190, 5452.074
126.7490, 5138.130
127.9790, 4995.091
129.2090, 4890.057
130.4390, 4854.059
131.6680, 4732.113
132.8980, 4625.222
134.1270, 4456.423
135.3560, 4142.714
136.5850, 3857.097
137.8140, 3474.565
139.0430, 3065.116
140.2710, 2702.753
141.5000, 2382.484
142.7280, 2070.683
143.9560, 1744.309
145.1840, 1564.390
146.4120, 1376.604
147.6390, 1220.552
148.8670, 1196.329
150.0940, 1017.828
151.3210, 939.4087
152.5490, 953.0774
153.7750, 796.8364
155.0020, 745.6792
156.2290, 706.6030
157.4550, 595.6074
158.6810, 566.6887
159.9080, 556.8445
161.1340, 527.0791
162.3590, 480.3904
163.5850, 419.7820
164.8110, 421.2336
166.0360, 376.9993
167.2610, 363.5715
168.4860, 389.7725
169.7110, 368.8101
170.9360, 375.9082
172.1610, 356.5696
173.3850, 369.4270
174.6100, 443.7563
175.8340, 433.1328
177.0580, 506.8022
178.2820, 453.8889
179.5050, 576.1340
180.7290, 491.8540
181.9520, 592.7175
183.1760, 599.8325
184.3990, 681.1865
185.6220, 696.6353
186.8450, 707.2261
188.0670, 763.3396
189.2900, 805.9644
190.5120, 863.4072
191.7340, 941.1252
192.9560, 1007.334
194.1780, 1102.192
195.4000, 1199.913
196.6220, 1346.193
197.8430, 1476.656
199.0640, 1563.027
200.2860, 1763.829
201.5070, 1809.730
202.7270, 2106.300
203.9480, 2111.292
205.1690, 2275.309
206.3890, 2486.342
207.6090, 2680.970
208.8290, 2839.064
210.0490, 2955.568
211.2690, 3180.697
212.4890, 3426.156
213.7080, 3354.825
214.9280, 3509.744
216.1470, 3597.880
217.3660, 3612.213
218.5850, 3452.819
219.8030, 3504.586
221.0220, 3262.836
222.2400, 3223.333
223.4590, 3072.624
224.6770, 3046.265
225.8950, 2757.610
227.1120, 2691.238
228.3300, 2596.178
229.5480, 2438.904
230.7650, 2336.768
231.9820, 2091.525
233.1990, 2041.606
234.4160, 1773.377
235.6330, 1672.945
236.8490, 1513.850
238.0660, 1404.260
239.2820, 1209.222
240.4980, 1080.057
241.7140, 1014.784
242.9300, 951.4717
244.1460, 814.3237
245.3610, 798.9404
246.5770, 678.3633
247.7920, 702.0701
249.0070, 639.6069
250.2220, 528.7654
251.4370, 566.5618
252.6510, 485.8301
253.8660, 385.0574
255.0800, 355.3058
256.2940, 342.4548
257.5080, 294.4755
258.7220, 277.3870
259.9360, 291.9673
261.1490, 223.8544
262.3630, 209.4072
263.5760, 142.5670
264.7890, 163.4110
266.0020, 142.7839
267.2150, 109.0262
268.4270, 96.90857
269.6400, 69.78967
270.8520, 38.89612
272.0640, 60.78271
273.2760, 49.45020
274.4880, 20.39404
275.7000, 39.38293
276.9120, 10.91980
278.1230, 3.029663
279.3340, 13.85889
280.5450, 13.10767
281.7560, 18.34497
282.9670, 26.56799
284.1780, 9.335083
285.3880, 0.7634280
286.5980, 15.68726
287.8090, 12.79065
289.0190, 5.898560
290.2290, 19.54309
291.4380, 18.00952
292.6480, 34.09595
293.8570, 34.23425
295.0670, 36.32471
296.2760, 98.34314
297.4850, 1.528687
298.6930, 61.56885
299.9020, 17.68579
301.1110, 7.911499
302.3190, 49.05786
303.5270, 70.18799
304.7350, 38.43835
305.9430, 59.73865
307.1510, 84.06299
308.3580, 55.18542
309.5660, 85.56433
310.7730, 85.97546
311.9800, 22.42139
313.1870, 40.88770
314.3940, 27.34473
315.6010, 35.82092
316.8070, 27.35242
318.0130, 50.82629
319.2200, 44.44226
320.4260, 49.23218
321.6310, 51.79700
322.8370, 45.57764
324.0430, 48.38391
325.2480, 30.24304
326.4540, 29.16150
327.6590, 39.08875
328.8640, 28.12207
330.0680, 43.20178
331.2730, 15.66333
332.4780, 21.36157
333.6820, 27.60144
334.8860, 23.89746
336.0900, 54.14465
337.2940, 3.559692
338.4980, 29.01318
339.7010, 24.52051
340.9050, 9.089111
342.1080, 39.71289
343.3110, 23.35217
344.5140, 35.99524
345.7170, 8.344604
346.9200, 22.64685
348.1220, 4.045044
349.3240, 26.74854
350.5270, 51.52148
351.7290, 0.2067870
352.9310, 33.75696
354.1320, 20.45581
355.3340, 40.65271
356.5350, 41.83850
357.7370, 15.89807
358.9380, 22.23511
360.1390, 24.34473
361.3400, 26.42908
362.5400, 26.48767
363.7410, 28.88770
364.9410, 48.90063
366.1410, 48.31970
367.3410, 61.83801
368.5410, 56.79297
369.7410, 74.75806
370.9400, 70.64539
372.1400, 65.50879
373.3390, 80.34656
374.5380, 47.16028
375.7370, 28.94019
376.9360, 49.67920
378.1350, 63.38843
379.3330, 75.12891
380.5310, 67.78223
381.7300, 30.41040
382.9280, 44.05615
384.1260, 50.59570
385.3230, 92.10303
386.5210, 98.61719
387.7180, 95.38123
388.9160, 69.77649
390.1130, 133.1802
391.3100, 116.5055
392.5060, 134.1215
393.7030, 100.9961
394.9000, 124.6685
396.0960, 102.8726
397.2920, 108.1603
398.4880, 110.3712
399.6840, 119.0203
400.8800, 130.1289
402.0750, 142.1661
403.2710, 106.1731
404.4660, 151.5974
405.6610, 112.5713
406.8560, 136.8085
408.0510, 175.6777
409.2450, 128.8969
410.4400, 138.8920
411.6340, 109.1201
412.8280, 195.9312
414.0220, 104.6315
415.2160, 201.2909
416.4100, 89.27954
417.6030, 177.8615
418.7970, 175.5166
419.9900, 169.0348
421.1830, 135.5260
422.3760, 168.0780
423.5690, 185.3138
424.7610, 160.7024
425.9540, 174.0566
427.1460, 217.9202
428.3380, 217.2124
429.5300, 178.4387
430.7220, 223.8513
431.9140, 240.9014
433.1050, 192.9659
434.2970, 200.7164
435.4880, 200.4569
436.6790, 243.6960
437.8700, 199.0239
439.0610, 189.2493
440.2510, 212.5673
441.4420, 186.4386
442.6320, 192.2969
443.8220, 214.8647
445.0120, 194.4740
446.2020, 189.5322
447.3910, 202.5356
448.5810, 267.8666
449.7700, 248.3210
450.9600, 171.1194
452.1490, 245.4169
453.3370, 221.0669
454.5260, 206.5627
455.7150, 232.0659
456.9030, 188.6371
458.0910, 186.7410
459.2800, 192.3473
460.4670, 174.2659
461.6550, 202.0936
462.8430, 220.9458
464.0300, 223.4451
465.2180, 238.9468
466.4050, 186.0995
467.5920, 233.2664
468.7790, 209.5015
469.9650, 165.9780
471.1520, 199.3102
472.3380, 192.1293
473.5250, 223.0204
474.7110, 146.9087
475.8970, 188.7753
477.0820, 179.1995
478.2680, 145.7322
479.4540, 207.4160
480.6390, 189.8569
481.8240, 159.7833
483.0090, 199.8607
484.1940, 181.7166
485.3780, 141.6851
486.5630, 138.5050
487.7470, 136.4783
488.9320, 152.9008
490.1160, 155.8665
491.3000, 155.3962
492.4830, 202.4923
493.6670, 173.0837
494.8500, 110.5291
496.0340, 164.9053
497.2170, 169.2256
498.4000, 197.2397
499.5820, 115.2128
500.7650, 197.2366
501.9480, 151.2491
503.1300, 135.2634
504.3120, 139.2783
505.4940, 83.45142
506.6760, 120.3820
507.8580, 122.9847
509.0390, 140.4827
510.2210, 115.3192
511.4020, 107.9562
512.5830, 134.9730
513.7640, 143.8115
514.9450, 120.5448
516.1250, 143.4731
517.3060, 161.3472
518.4860, 140.4058
519.6660, 111.2126
520.8460, 99.39502
522.0260, 107.8397
523.2060, 105.0039
524.3850, 93.71399
525.5650, 100.9194
526.7440, 97.29663
527.9230, 91.82104
529.1020, 65.42090
530.2810, 99.89136
531.4590, 90.62830
532.6380, 106.5870
533.8160, 64.28833
534.9940, 45.18164
536.1720, 54.47192
537.3500, 111.1418
538.5270, 79.35681
539.7050, 83.62732
540.8820, 44.88977
542.0590, 86.26050
543.2360, 116.7690
544.4130, 91.39465
545.5900, 47.35693
546.7660, 84.01416
547.9430, 54.00671
549.1190, 98.39001
550.2950, 49.08606
551.4710, 63.24622
552.6470, 42.63623
553.8220, 73.26843
554.9980, 88.89136
556.1730, 92.45312
557.3480, 45.04553
558.5230, 104.8433
559.6980, 7.352295
560.8730, 88.79968
562.0470, 93.45667
563.2220, 63.28149
564.3960, 121.6532
565.5700, 113.0870
566.7440, 90.22156
567.9170, 101.5588
569.0910, 78.55493
570.2640, 75.98230
571.4380, 30.34619
572.6110, 62.74561
573.7840, 118.1333
574.9570, 91.42249
576.1290, 76.75256
577.3020, 66.06665
578.4740, 46.41431
579.6460, 42.69434
580.8180, 111.8821
581.9900, 141.2173
583.1620, 83.38733
584.3330, 35.61328
585.5040, 88.92615
586.6760, 110.1383
587.8470, 66.31299
589.0180, 63.58533
590.1880, 87.88550
591.3590, 93.18677
592.5290, 80.26318
593.7000, 99.57422
594.8700, 95.86450
596.0400, 69.22192
597.2090, 98.54626
598.3790, 116.8335
599.5490, 111.1125
600.7180, 66.41895
601.8870, 27.63733
603.0560, 72.96167
604.2250, 46.28931
605.3940, 59.62195
606.5620, 64.96057
607.7300, 52.30432
608.8990, 22.65430
610.0670, 1.005371
611.2350, 73.29651
612.4020, 90.65186
613.5700, 58.01172
614.7370, 31.37915
615.9050, 103.5840
617.0720, 47.94971
618.2390, 63.17419
619.4060, 92.45618
620.5720, 101.8547
621.7390, 89.25476
622.9050, 98.65930
624.0710, 110.0737
625.2370, 101.4919
626.4030, 107.7091
627.5690, 112.5500
628.7340, 101.6672
629.9000, 129.1179
631.0650, 120.5673
632.2300, 140.0219
633.3950, 122.4877
634.5600, 135.9492
635.7240, 119.2183
636.8890, 68.69946
638.0530, 81.18506
639.2170, 38.67029
640.3810, 137.0677
641.5450, 36.89258
642.7080, 66.39526
643.8720, 63.90100
645.0350, 1.409546
646.1980, 65.55164
647.3610, 59.05591
648.5240, 94.56958
649.6870, 76.08398
650.8490, 24.57690
652.0120, 52.03503
653.1740, 72.54736
654.3360, 12.06689
655.4980, 52.58569
656.6600, 46.10706
657.8210, 35.63184
658.9830, 34.17908
660.1440, 51.71179
661.3050, 67.18347
662.4660, 104.7134
663.6270, 76.23828
664.7870, 162.7083
665.9480, 183.2725
667.1080, 256.8270
668.2680, 411.3296
669.4280, 428.8586
670.5880, 582.4236
671.7480, 687.9471
672.9070, 802.5211
674.0670, 846.7747
675.2260, 901.7406
676.3850, 842.8774
677.5440, 706.4524
678.7030, 504.9120
679.8610, 210.4163
681.0200, 153.4507
682.1780, 151.9940
683.3360, 184.5933
684.4940, 102.1858
685.6520, 113.3323
686.8090, 73.89893
687.9670, 90.16919
689.1240, 68.77551
690.2810, 48.00183
691.4380, 0.5800780
692.5950, 44.57251
693.7520, 33.10767
694.9080, 5.276611
696.0650, 55.34314
697.2210, 41.60364
698.3770, 68.23279
699.5330, 20.75818
700.6880, 31.61023
701.8440, 54.01147
702.9990, 1.470215
704.1550, 9.157104
705.3100, 17.78601
706.4650, 0.5825200
707.6190, 18.94861
708.7740, 33.68164
709.9290, 4.678467
711.0830, 68.52002
712.2370, 55.10071
713.3910, 44.74683
714.5450, 49.39502
715.6980, 30.04517
716.8520, 58.68750
718.0050, 69.17346
719.1580, 101.6295
720.3110, 82.28845
721.4640, 53.94922
722.6170, 79.61255
723.7700, 84.03284
724.9220, 58.70068
726.0740, 145.3711
727.2260, 64.04431
728.3780, 129.7195
729.5300, 141.3969
730.6810, 140.0760
731.8330, 126.1252
732.9840, 96.80981
734.1350, 118.4961
735.2860, 71.18433
736.4370, 93.87451
737.5880, 91.56665
738.7380, 48.26099
739.8880, 48.95752
741.0390, 44.63062
742.1890, 53.33130
743.3380, 37.01221
744.4880, 46.71655
745.6380, 15.42310
746.7870, 62.13147
747.9360, 28.64478
749.0850, 61.86389
750.2340, 18.57800
751.3830, 23.47241
752.5310, 26.19019
753.6800, 18.86768
754.8280, 69.68835
755.9760, 42.58765
757.1240, 75.43091
758.2720, 79.14282
759.4190, 10.91345
760.5670, 26.62842
761.7140, 50.34497
762.8610, 57.09912
764.0080, 46.81873
765.1550, 69.54919
766.3020, 74.27197
767.4480, 49.99634
768.5950, 32.72192
769.7410, 52.48865
770.8870, 75.21716
772.0330, 100.9467
773.1780, 84.57764
774.3240, 34.41064
775.4690, 65.76013
776.6140, 32.72620
777.7590, 63.36902
778.9040, 12.84204
780.0490, 40.89429
781.1940, 42.63159
782.3380, 14.37000
783.4820, 65.86133
784.6260, 88.60339
785.7700, 36.34656
786.9140, 18.09082
788.0580, 39.83618
789.2010, 94.55371
790.3450, 89.30164
791.4880, 99.98792
792.6310, 89.47949
793.7730, 77.99243
794.9160, 32.74805
796.0590, 4.928711
797.2010, 57.68201
798.3430, 22.44458
799.4850, 95.20007
800.6270, 9.956421
801.7690, 57.71350
802.9100, 2.471924
804.0520, 4.230713
805.1930, 10.99048
806.3340, 10.49756
807.4750, 40.26245
808.6160, 43.08521
809.7560, 28.92041
810.8970, 48.68250
812.0370, 62.44653
813.1770, 73.21399
814.3170, 71.98389
815.4570, 67.64075
816.5960, 64.58252
817.7360, 39.38123
818.8750, 29.15662
820.0140, 4.937134
821.1530, 27.77124
822.2920, 63.68774
823.4310, 84.46704
824.5690, 85.24707
825.7070, 48.02893
826.8460, 99.81128
827.9840, 86.59521
829.1220, 80.27368
830.2590, 141.1089
831.3970, 192.8971
832.5340, 302.5090
833.6710, 331.2976
834.8080, 537.0879
835.9450, 688.8923
837.0820, 1005.688
838.2190, 1327.191
839.3550, 1425.987
840.4910, 1401.698
841.6270, 1157.532
842.7630, 744.3282
843.8990, 476.2327
845.0350, 305.4741
846.1700, 224.1796
847.3060, 163.2788
848.4410, 142.0775
849.5760, 48.87634
850.7100, 108.6752
851.8450, 62.49866
852.9800, 139.2971
854.1140, 88.09558
855.2480, 93.89954
856.3820, 60.74329
857.5160, 108.5428
858.6500, 76.34192
859.7830, 80.17761
860.9170, 93.97729
862.0500, 74.65112
863.1830, 33.61597
864.3160, 62.41492
865.4480, 54.21326
866.5810, 50.01123
867.7130, 8.191040
868.8460, 18.60278
869.9780, 32.39624
871.1100, 19.19153
872.2410, 47.98633
873.3730, 59.78052
874.5050, 16.57434
875.6360, 15.38269
876.7670, 2.822144
877.8980, 45.97168
879.0290, 61.76489
880.1590, 59.55762
881.2900, 50.36145
882.4200, 59.10156
883.5500, 24.96704
884.6800, 54.77075
885.8100, 18.57593
886.9400, 2.617798
888.0690, 63.18604
889.1990, 3.994751
890.3280, 0.1976320
891.4570, 18.60999
892.5860, 38.43445
893.7140, 33.35388
894.8430, 1.141479
895.9710, 16.92749
897.1000, 24.71265
898.2280, 6.497070
899.3560, 70.28003
900.4830, 13.06201
901.6110, 24.84302
902.7380, 84.62317
903.8660, 39.40198
904.9930, 6.184448
906.1200, 28.97192
907.2460, 75.75818
908.3730, 27.54358
909.5000, 54.32776
910.6260, 9.889282
911.7520, 3.107300
912.8780, 14.32556
914.0040, 4.446899
915.1290, 50.89270
916.2550, 74.66602
917.3800, 54.43811
918.5050, 25.20923
919.6300, 52.97986
920.7550, 44.75732
921.8800, 42.54053
923.0040, 43.32227
924.1290, 68.10278
925.2530, 23.88196
926.3770, 27.34033
927.5010, 59.42676
928.6250, 10.80713
929.7480, 16.95105
930.8720, 5.290405
931.9950, 70.44958
933.1180, 16.20105
934.2410, 38.95105
935.3640, 108.6993
936.4860, 22.44958
937.6090, 62.19824
938.7310, 38.92224
939.8530, 52.65576
940.9750, 9.594116
942.0970, 31.84509
943.2180, 4.585205
944.3400, 3.323975
945.4610, 37.06055
946.5820, 62.79724
947.7030, 55.53235
948.8240, 54.26892
949.9450, 6.003784
951.0650, 41.73621
952.1860, 13.46680
953.3060, 91.19763
954.4260, 18.93457
955.5460, 29.34338
956.6650, 14.62769
957.7850, 34.07751
958.9040, 82.78088
960.0230, 30.48193
961.1420, 24.18103
962.2610, 20.87817
963.3800, 32.57324
964.4990, 9.266602
965.6170, 22.55127
966.7350, 33.64697
967.8530, 30.33521
968.9710, 22.02112
970.0890, 17.70496
971.2070, 42.38647
972.3240, 67.06567
973.4410, 91.74829
974.5580, 29.42859
975.6750, 9.107178
976.7920, 65.78308
977.9090, 2.456543
979.0250, 60.12683
980.1410, 25.20264
981.2580, 1.551025
982.3740, 57.10938
983.4890, 83.75281
984.6050, 58.39380
985.7200, 16.03223
986.8360, 27.66797
987.9510, 23.30151
989.0660, 20.93237
990.1810, 11.56079
991.2950, 80.18616
992.4100, 62.80908
993.5240, 13.42957
994.6390, 73.04724
995.7530, 12.66223
996.8660, 38.27429
997.9800, 44.91785
999.0940, 67.52454
1000.207, 50.12891
1001.320, 65.73047
1002.433, 51.50342
1003.546, 90.58582
1004.659, 31.68542
1005.772, 63.27637
1006.884, 75.86475
1007.996, 48.45032
1009.108, 19.03333
1010.220, 93.21094
1011.332, 54.62317
1012.444, 54.19775
1013.555, 32.76953
1014.666, 83.12036
1015.777, 77.68628
1016.888, 91.24951
1017.999, 43.06201
1019.110, 111.6191
1020.220, 43.60840
1021.331, 95.98096
1022.441, 70.80859
1023.551, 39.30371
1024.661, 90.11646
1025.770, 114.1323
1026.880, 93.36694
1027.989, 211.9075
1029.098, 195.3877
1030.207, 269.9219
1031.316, 309.4531
1032.425, 391.9456
1033.533, 391.4707
1034.642, 328.9834
1035.750, 255.5024
1036.858, 264.0183
1037.966, 250.5234
1039.073, 309.4722
1040.181, 328.9785
1041.288, 450.4814
1042.396, 460.9814
1043.503, 657.4780
1044.610, 731.6362
1045.716, 1037.596
1046.823, 1655.177
1047.929, 3019.610
1049.036, 6144.939
1050.142, 10556.42
1051.248, 15063.89
1052.353, 24680.37
1053.459, 37411.69
1054.564, 52278.75
1055.670, 61709.21
1056.775, 56728.68
1057.880, 39885.14
1058.985, 19761.58
1060.089, 7559.644
1061.194, 3230.088
1062.298, 1722.789
1063.402, 1142.651
1064.506, 812.6567
1065.610, 596.0869
1066.713, 451.5056
1067.817, 355.9290
1068.920, 274.0928
1070.023, 321.5095
1071.126, 212.9226
1072.229, 194.1655
1073.332, 202.1426
1074.435, 173.7939
1075.537, 132.1948
1076.639, 86.73633
1077.741, 88.51855
1078.843, 125.8162
1079.945, 100.2312
1081.046, 86.29248
1082.148, 109.6724
1083.249, 75.99219
1084.350, 64.36475
1085.451, 165.1685
1086.551, 72.41113
1087.652, 31.76904
1088.752, 114.0977
1089.853, 66.59644
1090.953, 65.94800
1092.053, 90.29614
1093.152, 79.64062
1094.252, 80.98193
1095.351, 94.05396
1096.451, 106.6545
1097.550, 118.9375
1098.649, 120.4216
1099.748, 147.7458
1100.846, 126.0669
1101.945, 105.3845
1103.043, 106.6848
1104.141, 111.9958
1105.239, 81.30371
1106.337, 127.6082
1107.434, 103.9092
1108.532, 89.15503
1109.629, 42.44922
1110.726, 59.69141
1111.823, 92.97925
1112.920, 47.35522
1114.017, 20.20801
1115.113, 97.48657
1116.210, 88.76196
1117.306, 109.0342
1118.402, 51.27881
1119.498, 73.54834
1120.593, 74.81177
1121.689, 88.06714
1122.784, 94.28052
1123.879, 125.5347
1124.974, 111.7864
1126.069, 105.9980
1127.164, 37.24390
1128.259, 65.44653
1129.353, 13.68652
1130.447, 39.92310
1131.541, 33.15723
1132.635, 23.38867
1133.729, 13.61719
1134.822, 22.84473
1135.916, 1.069092
1137.009, 19.28613
1138.102, 72.50073
1139.195, 41.71265
1140.288, 52.92188
1141.380, 0.8869630
1142.473, 49.31177
1143.565, 33.50879
1144.657, 25.70312
1145.749, 36.10498
1146.841, 33.06055
1147.932, 39.22412
1149.024, 4.385010
1150.115, 50.54077
1151.206, 0.6945800
1152.297, 17.84204
1153.388, 13.01221
1154.479, 49.12036
1155.569, 1.250732
1156.659, 0.6237790
1157.750, 56.49463
1158.839, 39.62109
1159.929, 19.74585
1161.019, 28.86841
1162.108, 40.98926
1163.198, 20.10815
1164.287, 72.22510
1165.376, 45.79321
1166.465, 51.45386
1167.553, 25.56543
1168.642, 10.32471
1169.730, 18.22559
1170.818, 25.85889
1171.906, 23.94214
1172.994, 77.02344
1174.082, 29.10303
1175.170, 15.81885
1176.257, 6.750732
1177.344, 34.31055
1178.431, 22.37427
1179.518, 9.562744
1180.605, 47.49048
1181.691, 8.542969
1182.778, 51.59375
1183.864, 26.35669
1184.950, 22.32422
1186.036, 7.692627
1187.122, 6.708496
1188.207, 35.72363
1189.292, 33.54272
1190.378, 20.24902
1191.463, 28.75854
1192.548, 2.765137
1193.632, 5.226074
1194.717, 16.77734
1195.801, 7.781982
1196.886, 51.78613
1197.970, 49.78906
1199.054, 11.20874
1200.137, 13.78613
1201.221, 49.78027
1202.305, 13.22607
1203.388, 9.240967
1204.471, 11.73853
1205.554, 9.720703
1206.637, 3.297607
1207.719, 5.681641
1208.802, 6.783203
1209.884, 0.1569820
1210.966, 12.38989
1212.048, 1.577881
1213.130, 22.54492
1214.212, 1.512207
1215.293, 9.520996
1216.374, 32.55835
1217.456, 12.38794
1218.536, 0.6684570
1219.617, 6.714355
1220.698, 45.24219
1221.778, 62.19873
1222.859, 40.15552
1223.939, 65.11255
1225.019, 34.06934
1226.099, 63.02686
1227.178, 53.98462
1228.258, 5.056885
1229.337, 34.90015
1230.417, 69.85767
1231.496, 123.8157
1232.574, 53.77441
1233.653, 18.73364
1234.732, 33.69336
1235.810, 38.65430
