##NAMES=Cerussite
##RRUFFID=R050174
##IDEAL CHEMISTRY=Pb^2+^CO_3_
##LOCALITY=Tsumeb mine, Tsumeb, Otavi District, Oshikoto, Namibia
##OWNER=RRUFF
##SOURCE=Marcus Origlieri
##DESCRIPTION=Colorless single crystal
##STATUS=The identification of this mineral has been confirmed by X-ray diffraction and chemical analysis
##URL=rruff.info/R050174
##MEASURED CHEMISTRY=Pb_1.00_CO_3_ ; C not measured but estimated by difference and stoichiometry
##PIN_ID=L01208
##ORIENTATION=Laser parallel to c* (0 0 1). Fiducial mark perpendicular to laser is parallel to a [1 0 0]
51.43100, 0.0000000E+00
52.67100, 41.22861
53.91000, 7.163757
55.14900, 43.67944
56.38700, 42.47900
57.62600, 22.84540
58.86400, 38.92401
60.10300, 31.21533
61.34100, 68.18335
62.57900, 289.9050
63.81700, 681.8715
65.05400, 1238.219
66.29200, 1913.248
67.52900, 2978.386
68.76700, 3896.165
70.00400, 5104.200
71.24100, 6080.165
72.47700, 6820.766
73.71400, 7174.743
74.95100, 7272.875
76.18700, 6712.960
77.42300, 6017.835
78.65900, 5397.350
79.89500, 4803.372
81.13100, 4251.788
82.36700, 3815.497
83.60200, 3468.418
84.83700, 3185.484
86.07200, 3013.633
87.30800, 2920.813
88.54200, 2870.975
89.77700, 2729.037
91.01200, 2704.910
92.24600, 2653.526
93.48000, 2767.832
94.71400, 2795.780
95.94800, 2850.331
97.18200, 2819.451
98.41600, 2878.112
99.64900, 2960.288
100.8830, 3101.953
102.1160, 3268.083
103.3490, 3316.656
104.5820, 3476.651
105.8150, 3614.049
107.0470, 3612.833
108.2800, 3759.986
109.5120, 3880.491
110.7440, 3913.340
111.9760, 4099.542
113.2080, 4315.111
114.4400, 4497.038
115.6710, 4743.376
116.9030, 5009.055
118.1340, 5247.117
119.3650, 5530.526
120.5960, 5516.304
121.8270, 5546.478
123.0580, 5567.020
124.2880, 5312.901
125.5190, 5179.025
126.7490, 4947.068
127.9790, 4880.039
129.2090, 4834.976
130.4390, 4739.947
131.6680, 4700.969
132.8980, 4659.044
134.1270, 4681.231
135.3560, 4355.503
136.5850, 4228.867
137.8140, 4053.329
139.0430, 3746.884
140.2710, 3574.574
141.5000, 3357.376
142.7280, 3237.477
143.9560, 3193.387
145.1840, 3107.602
146.4120, 3126.938
147.6390, 3157.387
148.8670, 3073.945
150.0940, 3120.594
151.3210, 3180.345
152.5490, 3114.190
153.7750, 3114.143
155.0020, 2982.185
156.2290, 2873.323
157.4550, 2714.557
158.6810, 2490.881
159.9080, 2416.286
161.1340, 2313.776
162.3590, 2129.342
163.5850, 2112.980
164.8110, 2134.693
166.0360, 2033.477
167.2610, 2174.392
168.4860, 2115.362
169.7110, 2144.354
170.9360, 2364.455
172.1610, 2450.039
173.3850, 2432.269
174.6100, 2401.676
175.8340, 2471.727
177.0580, 2480.606
178.2820, 2489.390
179.5050, 2432.474
180.7290, 2378.986
181.9520, 2282.524
183.1760, 2189.155
184.3990, 2078.354
185.6220, 1938.697
186.8450, 1843.609
188.0670, 1729.134
189.2900, 1631.278
190.5120, 1619.107
191.7340, 1583.045
192.9560, 1616.979
194.1780, 1604.662
195.4000, 1597.069
196.6220, 1711.910
197.8430, 1675.297
199.0640, 1660.007
200.2860, 1797.463
201.5070, 1838.594
202.7270, 1880.388
203.9480, 1999.040
205.1690, 2052.485
206.3890, 2163.104
207.6090, 2192.099
208.8290, 2368.615
210.0490, 2447.673
211.2690, 2578.914
212.4890, 2586.623
213.7080, 2686.483
214.9280, 2811.831
216.1470, 2805.944
217.3660, 2743.123
218.5850, 2773.458
219.8030, 2690.768
221.0220, 2627.725
222.2400, 2536.581
223.4590, 2420.159
224.6770, 2415.497
225.8950, 2333.219
227.1120, 2227.331
228.3300, 2108.854
229.5480, 2060.916
230.7650, 1983.984
231.9820, 1884.618
233.1990, 1705.250
234.4160, 1673.617
235.6330, 1519.410
236.8490, 1412.171
238.0660, 1338.707
239.2820, 1233.320
240.4980, 1171.282
241.7140, 1152.962
242.9300, 1146.689
244.1460, 1061.766
245.3610, 1032.886
246.5770, 959.1846
247.7920, 893.7710
249.0070, 829.7622
250.2220, 705.3506
251.4370, 618.8967
252.6510, 563.8254
253.8660, 476.5913
255.0800, 472.0522
256.2940, 426.0063
257.5080, 405.8235
258.7220, 388.6887
259.9360, 351.3450
261.1490, 280.6780
262.3630, 234.4556
263.5760, 191.8721
264.7890, 165.6345
266.0020, 130.3843
267.2150, 108.7715
268.4270, 128.0210
269.6400, 75.83276
270.8520, 77.77588
272.0640, 87.61987
273.2760, 28.49683
274.4880, 77.37378
275.7000, 38.47729
276.9120, 31.60962
278.1230, 50.54126
279.3340, 20.53857
280.5450, 0.3334960
281.7560, 0.3303220
282.9670, 0.3220210
284.1780, 2.409912
285.3880, 7.511475
286.5980, 48.53882
287.8090, 1.197266
289.0190, 33.30688
290.2290, 68.63525
291.4380, 14.57617
292.6480, 3.410889
293.8570, 3.660889
295.0670, 57.26147
296.2760, 17.55615
297.4850, 24.47705
298.6930, 11.20337
299.9020, 5.009521
301.1110, 44.92383
302.3190, 51.22363
303.5270, 47.04370
304.7350, 56.97241
305.9430, 43.49683
307.1510, 23.36353
308.3580, 15.30835
309.5660, 21.44678
310.7730, 11.66846
311.9800, 58.35327
313.1870, 17.32117
314.3940, 54.19031
315.6010, 74.06177
316.8070, 19.06763
318.0130, 17.59631
319.2200, 49.44751
320.4260, 9.492676
321.6310, 25.17786
322.8370, 52.26392
324.0430, 33.38342
325.2480, 70.37866
326.4540, 64.94336
327.6590, 12.76562
328.8640, 69.99841
330.0680, 37.28259
331.2730, 40.59143
332.4780, 29.92920
333.6820, 28.30176
334.8860, 51.71619
336.0900, 6.827026
337.2940, 74.66736
338.4980, 14.20972
339.7010, 42.78979
340.9050, 41.40601
342.1080, 41.07007
343.3110, 32.78186
344.5140, 11.48889
345.7170, 3.818726
346.9200, 10.04810
348.1220, 3.488159
349.3240, 25.84229
350.5270, 11.78821
351.7290, 1.416138
352.9310, 48.04126
354.1320, 32.30920
355.3340, 7.716309
356.5350, 33.23975
357.7370, 10.21973
358.9380, 13.69299
360.1390, 4.171021
361.3400, 21.18201
362.5400, 23.59351
363.7410, 31.46680
364.9410, 1.773682
366.1410, 27.77283
367.3410, 44.54553
368.5410, 25.24744
369.7410, 56.55420
370.9400, 20.84888
372.1400, 35.35730
373.3390, 63.71802
374.5380, 11.09644
375.7370, 0.9063720
376.9360, 53.39233
378.1350, 31.83582
379.3330, 4.290039
380.5310, 7.444824
381.7300, 14.48022
382.9280, 39.55212
384.1260, 33.44763
385.3230, 44.63965
386.5210, 46.57617
387.7180, 39.51611
388.9160, 73.40894
390.1130, 98.42896
391.3100, 66.47070
392.5060, 54.48059
393.7030, 74.31750
394.9000, 81.12268
396.0960, 66.16321
397.2920, 41.93018
398.4880, 125.6737
399.6840, 74.55664
400.8800, 84.32129
402.0750, 85.08667
403.2710, 56.83557
404.4660, 70.73828
405.6610, 102.3510
406.8560, 72.59985
408.0510, 113.1696
409.2450, 175.7468
410.4400, 80.65405
411.6340, 89.16357
412.8280, 127.7029
414.0220, 111.2642
415.2160, 144.7687
416.4100, 126.3472
417.6030, 149.0149
418.7970, 111.1307
419.9900, 111.8579
421.1830, 180.9579
422.3760, 128.8801
423.5690, 85.18823
424.7610, 136.9806
425.9540, 150.2194
427.1460, 130.4420
428.3380, 131.6626
429.5300, 155.9802
430.7220, 123.2299
431.9140, 110.6141
433.1050, 152.7747
434.2970, 181.4620
435.4880, 136.3516
436.6790, 173.3973
437.8700, 157.4379
439.0610, 103.9241
440.2510, 193.6237
441.4420, 80.13562
442.6320, 139.9161
443.8220, 167.7561
445.0120, 106.4043
446.2020, 140.7352
447.3910, 183.1735
448.5810, 116.4796
449.7700, 142.9299
450.9600, 184.0887
452.1490, 94.55444
453.3370, 204.7197
454.5260, 159.1484
455.7150, 174.5754
456.9030, 140.6912
458.0910, 138.1570
459.2800, 178.5525
460.4670, 106.4810
461.6550, 129.3586
462.8430, 208.7214
464.0300, 111.4276
465.2180, 156.1232
466.4050, 213.1273
467.5920, 127.9553
468.7790, 154.8048
469.9650, 153.8541
471.1520, 153.5107
472.3380, 178.1006
473.5250, 170.4156
474.7110, 150.4102
475.8970, 153.8651
477.0820, 162.3281
478.2680, 133.4680
479.4540, 142.4915
480.6390, 178.2153
481.8240, 133.1056
483.0090, 125.4015
484.1940, 182.6938
485.3780, 128.9274
486.5630, 171.5356
487.7470, 154.2271
488.9320, 174.6332
490.1160, 143.2500
491.3000, 141.5173
492.4830, 131.5101
493.6670, 141.8126
494.8500, 125.0479
496.0340, 123.7516
497.2170, 102.6837
498.4000, 87.72986
499.5820, 86.23914
500.7650, 84.43799
501.9480, 80.89221
503.1300, 99.32996
504.3120, 89.58484
505.4940, 98.86194
506.6760, 113.3315
507.8580, 69.30835
509.0390, 51.52905
510.2210, 55.16064
511.4020, 91.22900
512.5830, 61.15332
513.7640, 108.0227
514.9450, 75.16406
516.1250, 116.9587
517.3060, 90.74365
518.4860, 69.04858
519.6660, 54.43457
520.8460, 51.16040
522.0260, 75.52856
523.2060, 90.99487
524.3850, 74.74951
525.5650, 64.48486
526.7440, 91.92725
527.9230, 92.70337
529.1020, 81.96533
530.2810, 93.95752
531.4590, 61.26367
532.6380, 56.77173
533.8160, 57.87207
534.9940, 81.60400
536.1720, 99.77612
537.3500, 47.02319
538.5270, 96.91748
539.7050, 81.00342
540.8820, 54.42139
542.0590, 66.37061
543.2360, 62.48022
544.4130, 61.56299
545.5900, 40.87476
546.7660, 80.52686
547.9430, 19.75098
549.1190, 85.34692
550.2950, 70.61084
551.4710, 31.89771
552.6470, 87.55469
553.8220, 62.35718
554.9980, 54.60254
556.1730, 60.72046
557.3480, 46.93994
558.5230, 36.12939
559.6980, 12.32104
560.8730, 29.28711
562.0470, 10.22656
563.2220, 16.19678
564.3960, 77.44214
565.5700, 17.72217
566.7440, 77.80054
567.9170, 67.88599
569.0910, 64.87622
570.2640, 43.85376
571.4380, 49.97217
572.6110, 29.78662
573.7840, 58.35889
574.9570, 20.37598
576.1290, 62.38745
577.3020, 56.48364
578.4740, 104.4763
579.6460, 67.45947
580.8180, 78.81030
581.9900, 56.78271
583.1620, 55.55518
584.3330, 104.4021
585.5040, 76.35083
586.6760, 62.67798
587.8470, 110.5186
589.0180, 15.46143
590.1880, 72.99023
591.3590, 68.85303
592.5290, 33.78540
593.7000, 42.90234
594.8700, 45.03052
596.0400, 89.73608
597.2090, 76.65234
598.3790, 74.45850
599.5490, 100.2561
600.7180, 38.17676
601.8870, 84.59668
603.0560, 54.32642
604.2250, 20.24731
605.3940, 6.760742
606.5620, 35.66821
607.7300, 49.58008
608.8990, 88.33667
610.0670, 60.25854
611.2350, 24.93188
612.4020, 55.86304
613.5700, 23.80737
614.7370, 64.75488
615.9050, 66.70703
617.0720, 57.66162
618.2390, 67.78003
619.4060, 87.74780
620.5720, 98.83862
621.7390, 109.8164
622.9050, 121.7952
624.0710, 113.3694
625.2370, 77.76855
626.4030, 113.7705
627.5690, 67.77856
628.7340, 110.7886
629.9000, 60.79736
631.0650, 64.26099
632.2300, 136.2668
633.3950, 99.26855
634.5600, 152.2737
635.7240, 82.28394
636.8890, 51.30298
638.0530, 63.26978
639.2170, 48.11841
640.3810, 39.28491
641.5450, 43.53101
642.7080, 31.66089
643.8720, 43.65991
645.0350, 55.59351
646.1980, 56.59204
647.3610, 38.63110
648.5240, 36.98145
649.6870, 42.93726
650.8490, 12.53394
652.0120, 0.5136720
653.1740, 8.843994
654.3360, 63.23706
655.4980, 8.113281
656.6600, 56.15308
657.8210, 82.16406
658.9830, 47.04370
660.1440, 23.76538
661.3050, 119.4587
662.4660, 83.42822
663.6270, 151.5442
664.7870, 138.5513
665.9480, 145.4817
667.1080, 275.5659
668.2680, 348.6584
669.4280, 387.7288
670.5880, 594.8259
671.7480, 697.7815
672.9070, 669.2983
674.0670, 784.2380
675.2260, 839.9619
676.3850, 737.0601
677.5440, 532.9050
678.7030, 332.0066
679.8610, 228.1082
681.0200, 229.0530
682.1780, 164.0952
683.3360, 111.1182
684.4940, 155.1384
685.6520, 153.9814
686.8090, 83.09277
687.9670, 96.54883
689.1240, 111.6621
690.2810, 110.7488
691.4380, 107.4868
692.5950, 142.6008
693.7520, 189.6631
694.9080, 263.6846
696.0650, 287.7432
697.2210, 188.7090
698.3770, 152.5662
699.5330, 116.9680
700.6880, 63.73804
701.8440, 16.11426
702.9990, 61.64941
704.1550, 30.78149
705.3100, 52.38379
706.4650, 25.52026
707.6190, 21.65283
708.7740, 54.77612
709.9290, 0.2060550
711.0830, 35.86011
712.2370, 58.73755
713.3910, 17.84937
714.5450, 19.59351
715.6980, 7.272217
716.8520, 21.84033
718.0050, 40.98560
719.1580, 38.40625
720.3110, 74.28052
721.4640, 69.41187
722.6170, 90.54980
723.7700, 98.54272
724.9220, 114.8660
726.0740, 104.0283
727.2260, 97.36279
728.3780, 86.17749
729.5300, 87.34521
730.6810, 70.51440
731.8330, 86.59595
732.9840, 85.73633
734.1350, 62.88110
735.2860, 75.05786
736.4370, 52.23584
737.5880, 113.4155
738.7380, 95.59668
739.8880, 132.7324
741.0390, 45.93921
742.1890, 29.19067
743.3380, 75.21362
744.4880, 26.05981
745.6380, 12.21118
746.7870, 24.40503
747.9360, 61.60107
749.0850, 21.45825
750.2340, 85.65454
751.3830, 90.46875
752.5310, 11.59473
753.6800, 33.78882
754.8280, 16.98364
755.9760, 6.261719
757.1240, 95.78247
758.2720, 5.016602
759.4190, 10.22949
760.5670, 59.42505
761.7140, 30.64282
762.8610, 31.84009
764.0080, 62.03784
765.1550, 5.236328
766.3020, 83.43506
767.4480, 32.63477
768.5950, 15.16528
769.7410, 19.03125
770.8870, 17.22827
772.0330, 42.42627
773.1780, 2.637451
774.3240, 88.83643
775.4690, 26.10742
776.6140, 76.44336
777.7590, 36.66187
778.9040, 1.864990
780.0490, 48.18994
781.1940, 87.82007
782.3380, 7.026123
783.4820, 64.23462
784.6260, 26.90503
785.7700, 42.11328
786.9140, 90.32324
788.0580, 84.53589
789.2010, 67.67920
790.3450, 54.70020
791.4880, 78.49829
792.6310, 89.71704
793.7730, 79.88550
794.9160, 15.06274
796.0590, 70.28442
797.2010, 48.50757
798.3430, 49.73291
799.4850, 64.96045
800.6270, 0.8110350
801.7690, 61.41772
802.9100, 46.64697
804.0520, 25.87744
805.1930, 104.6052
806.3340, 104.8367
807.4750, 13.06860
808.6160, 8.893555
809.7560, 47.84473
810.8970, 6.367432
812.0370, 16.41919
813.1770, 108.7886
814.3170, 13.99658
815.4570, 15.85767
816.5960, 110.0874
817.7360, 62.29736
818.8750, 34.51562
820.0140, 50.74268
821.1530, 51.01929
822.2920, 90.23242
823.4310, 54.44702
824.5690, 108.6616
825.7070, 84.88086
826.8460, 97.52002
827.9840, 138.3196
829.1220, 112.5413
830.2590, 156.7634
831.3970, 162.9856
832.5340, 303.2173
833.6710, 289.5781
834.8080, 451.8025
835.9450, 623.9268
837.0820, 737.1768
838.2190, 931.4075
839.3550, 985.7488
840.4910, 904.6055
841.6270, 694.8711
842.7630, 485.1096
843.8990, 262.3484
845.0350, 179.5916
846.1700, 101.8347
847.3060, 103.0117
848.4410, 148.2556
849.5760, 48.50024
850.7100, 22.74731
851.8450, 77.99365
852.9800, 48.32568
854.1140, 83.57153
855.2480, 62.81738
856.3820, 63.06250
857.5160, 80.30786
858.6500, 70.55273
859.7830, 29.79736
860.9170, 97.04126
862.0500, 50.28516
863.1830, 2.423340
864.3160, 39.81763
865.4480, 52.06030
866.5810, 48.30249
867.7130, 27.54419
868.8460, 13.78564
869.9780, 59.02637
871.1100, 52.26660
872.2410, 58.53467
873.3730, 34.77368
874.5050, 40.01172
875.6360, 72.24951
876.7670, 11.48657
877.8980, 18.27759
879.0290, 58.94824
880.1590, 62.24829
881.2900, 24.47437
882.4200, 45.80884
883.5500, 31.03369
884.6800, 12.74146
885.8100, 82.73706
886.9400, 11.04639
888.0690, 14.18701
889.1990, 69.39624
890.3280, 50.60449
891.4570, 7.185791
892.5860, 59.86279
893.7140, 16.07178
894.8430, 6.151611
895.9710, 22.35815
897.1000, 12.56323
898.2280, 42.76660
899.3560, 27.96875
900.4830, 33.29883
901.6110, 35.63843
902.7380, 36.57349
903.8660, 31.77319
904.9930, 44.52148
906.1200, 48.72559
907.2460, 24.93018
908.3730, 15.13745
909.5000, 66.34424
910.6260, 4.562012
911.7520, 0.2221680
912.8780, 32.00098
914.0040, 31.20190
915.1290, 0.3913570
916.2550, 6.404053
917.3800, 88.79565
918.5050, 19.01514
919.6300, 6.767334
920.7550, 53.44507
921.8800, 51.66187
923.0040, 77.87646
924.1290, 81.16528
925.2530, 75.31055
926.3770, 57.54834
927.5010, 55.80542
928.6250, 21.06934
929.7480, 30.41455
930.8720, 24.50293
931.9950, 31.85010
933.1180, 36.10620
934.2410, 23.36035
935.3640, 39.61206
936.4860, 61.81177
937.6090, 27.05933
938.7310, 34.30884
939.8530, 21.44385
940.9750, 53.79761
942.0970, 26.04370
943.2180, 6.712402
944.3400, 16.52344
945.4610, 71.15796
946.5820, 37.38135
947.7030, 85.97070
948.8240, 22.19678
949.9450, 8.579590
951.0650, 16.64355
952.1860, 67.86377
953.3060, 20.09619
954.4260, 18.32568
955.5460, 8.552490
956.6650, 28.77686
957.7850, 66.99951
958.9040, 70.21973
960.0230, 83.65308
961.1420, 84.79443
962.2610, 83.40283
963.3800, 58.32080
964.4990, 72.55054
965.6170, 34.77759
966.7350, 22.00146
967.8530, 2.222168
968.9710, 83.43848
970.0890, 42.34814
971.2070, 19.83716
972.3240, 94.01880
973.4410, 6.197754
974.5580, 5.627197
975.6750, 18.54712
976.7920, 81.71753
977.9090, 52.88672
979.0250, 46.00928
980.1410, 45.21509
981.2580, 75.37402
982.3740, 100.5293
983.4890, 67.68115
984.6050, 26.82959
985.7200, 65.97412
986.8360, 1.114990
987.9510, 73.25000
989.0660, 66.38110
990.1810, 53.50830
991.2950, 107.6367
992.4100, 78.76099
993.5240, 52.88159
994.6390, 98.99805
995.7530, 31.11108
996.8660, 17.21924
997.9800, 30.15308
999.0940, 75.33691
1000.207, 122.4329
1001.320, 82.52490
1002.433, 57.61255
1003.546, 123.6877
1004.659, 99.76685
1005.772, 22.84204
1006.884, 86.91260
1007.996, 54.97876
1009.108, 117.0403
1010.220, 83.09790
1011.332, 45.12988
1012.444, 33.11450
1013.555, 14.19800
1014.666, 107.1982
1015.777, 10.25879
1016.888, 48.28809
1017.999, 75.58081
1019.110, 43.85767
1020.220, 72.87695
1021.331, 23.27002
1022.441, 114.2683
1023.551, 39.27393
1024.661, 81.73633
1025.770, 161.0786
1026.880, 182.4548
1027.989, 196.4373
1029.098, 190.3704
1030.207, 285.3491
1031.316, 376.3022
1032.425, 383.2720
1033.533, 405.2366
1034.642, 335.7212
1035.750, 281.6760
1036.858, 293.6484
1037.966, 276.0996
1039.073, 250.0559
1040.181, 356.4583
1041.288, 441.0840
1042.396, 487.1604
1043.503, 695.9763
1044.610, 887.8213
1045.716, 1242.512
1046.823, 2171.469
1047.929, 4212.742
1049.036, 9387.517
1050.142, 15169.09
1051.248, 18019.93
1052.353, 25735.80
1053.459, 36809.36
1054.564, 49362.48
1055.670, 54008.34
1056.775, 47149.19
1057.880, 31320.26
1058.985, 14667.19
1060.089, 5871.478
1061.194, 2618.235
1062.298, 1385.058
1063.402, 996.8733
1064.506, 700.6831
1065.610, 475.4854
1066.713, 399.2812
1067.817, 342.0703
1068.920, 307.8525
1070.023, 262.4954
1071.126, 188.3462
1072.229, 207.1084
1073.332, 229.4878
1074.435, 210.8457
1075.537, 146.5872
1076.639, 109.7290
1077.741, 196.4282
1078.843, 249.1599
1079.945, 170.8848
1081.046, 142.6055
1082.148, 150.3191
1083.249, 162.1038
1084.350, 106.7837
1085.451, 101.7588
1086.551, 108.4373
1087.652, 115.1006
1088.752, 55.70752
1089.853, 95.71265
1090.953, 101.3696
1092.053, 30.01929
1093.152, 92.40308
1094.252, 140.1318
1095.351, 190.3645
1096.451, 99.70947
1097.550, 184.3206
1098.649, 178.9238
1099.748, 105.5112
1100.846, 169.9626
1101.945, 92.54370
1103.043, 120.2183
1104.141, 94.76343
1105.239, 111.3225
1106.337, 184.8687
1107.434, 90.53613
1108.532, 75.04443
1109.629, 94.96558
1110.726, 9.488037
1111.823, 43.99487
1112.920, 76.49390
1114.017, 171.9858
1115.113, 65.47021
1116.210, 133.9475
1117.306, 193.4158
1118.402, 133.8787
1119.498, 123.0549
1120.593, 167.5034
1121.689, 173.9453
1122.784, 72.37671
1123.879, 53.80420
1124.974, 84.22461
1126.069, 110.6377
1127.164, 72.04395
1128.259, 83.44312
1129.353, 67.78711
1130.447, 34.17285
1131.541, 69.55103
1132.635, 88.92236
1133.729, 58.28638
1134.822, 82.64404
1135.916, 115.9949
1137.009, 54.33887
1138.102, 135.6479
1139.195, 74.97852
1140.288, 49.30200
1141.380, 76.61914
1142.473, 86.92969
1143.565, 47.23364
1144.657, 89.53564
1145.749, 49.75684
1146.841, 35.04590
1147.932, 53.21997
1149.024, 20.49609
1150.115, 56.76294
1151.206, 60.02686
1152.297, 113.2847
1153.388, 63.51611
1154.479, 103.7642
1155.569, 13.00635
1156.659, 6.237793
1157.750, 14.45825
1158.839, 40.66870
1159.929, 34.33813
1161.019, 79.07202
1162.108, 35.26489
1163.198, 58.45190
1164.287, 47.63330
1165.376, 8.808838
1166.465, 43.97388
1167.553, 24.68994
1168.642, 8.713623
1169.730, 25.42090
1170.818, 8.549561
1171.906, 3.667969
1172.994, 4.225586
1174.082, 16.13501
1175.170, 32.93359
1176.257, 17.00269
1177.344, 17.03955
1178.431, 8.915527
1179.518, 33.11182
1180.605, 14.13477
1181.691, 66.84644
1182.778, 48.12500
1183.864, 12.09155
1184.950, 8.945801
1186.036, 31.00073
1187.122, 36.94238
1188.207, 25.12036
1189.292, 55.20654
1190.378, 61.33252
1191.463, 21.50098
1192.548, 14.30933
1193.632, 54.11572
1194.717, 26.91821
1195.801, 17.71680
1196.886, 62.51172
1197.970, 40.30273
1199.054, 36.14014
1200.137, 18.87378
1201.221, 9.346191
1202.305, 14.42163
1203.388, 28.81445
1204.471, 21.06592
1205.554, 75.66455
1206.637, 30.39209
1207.719, 43.11890
1208.802, 50.84302
1209.884, 12.56421
1210.966, 18.28223
1212.048, 61.99756
1213.130, 26.29004
1214.212, 22.40674
1215.293, 51.89893
1216.374, 67.76416
1217.456, 48.42505
1218.536, 67.08325
1219.617, 5.261230
1220.698, 12.38892
1221.778, 37.03711
1222.859, 30.53320
1223.939, 0.9052730
1225.019, 29.28052
1226.099, 31.67236
1227.178, 33.91797
1228.258, 33.50684
1229.337, 69.09424
1230.417, 70.18701
1231.496, 52.26489
1232.574, 57.84888
1233.653, 56.44409
1234.732, 56.03809
1235.810, 3.368896
