##NAMES=Cerussite
##RRUFFID=R040069
##IDEAL CHEMISTRY=Pb^2+^CO_3_
##LOCALITY=Broken Hill, New South Wales, Australia
##OWNER=RRUFF
##SOURCE=University of Arizona Mineral Museum
##DESCRIPTION=Reticulated composite of colorless tabular crystals
##STATUS=The identification of this mineral has been confirmed by X-ray diffraction and chemical analysis
##URL=rruff.info/R040069
##MEASURED CHEMISTRY=Pb_1.04_C_0.98_O_3_
##PIN_ID=M00046
##ORIENTATION=Laser parallel to -c* (0 0 -1). Fiducial mark perpendicular to laser is parallel to a [1 0 0]
50.930, 0.000
52.334, 3.530
53.738, 11.088
55.142, 7.244
56.546, 2.401
57.949, 5.215
59.352, 7.115
60.755, 0.031
62.158, 4.264
63.560, 31.609
64.962, 71.904
66.364, 123.023
67.766, 236.862
69.168, 425.339
70.569, 657.384
71.970, 881.938
73.371, 1111.946
74.771, 1185.363
76.172, 1240.152
77.572, 1224.280
78.972, 1242.718
80.371, 1205.443
81.771, 1248.434
83.170, 1319.673
84.569, 1393.144
85.968, 1477.833
87.367, 1622.725
88.765, 1739.810
90.163, 1914.069
91.561, 1951.486
92.959, 2047.047
94.356, 2150.741
95.753, 2162.564
97.150, 2275.507
98.547, 2323.565
99.943, 2412.733
101.340, 2464.005
102.736, 2543.379
104.132, 2626.850
105.527, 2723.415
106.923, 2892.072
108.318, 3097.818
109.713, 3504.652
111.107, 3735.570
112.502, 4005.570
113.896, 4290.650
115.290, 4518.808
116.684, 4687.041
118.077, 4657.346
119.471, 4574.721
120.864, 4484.162
122.257, 4519.669
123.649, 4475.239
125.042, 4357.869
126.434, 4569.542
127.826, 4435.200
129.218, 4645.857
130.609, 4232.520
132.001, 4110.197
133.392, 3711.894
134.782, 3325.619
136.173, 3008.375
137.564, 2664.163
138.954, 2445.987
140.344, 2178.845
141.733, 2043.740
143.123, 1894.672
144.512, 1757.642
145.901, 1703.646
147.290, 1570.685
148.679, 1553.754
150.067, 1470.856
151.455, 1451.989
152.843, 1373.155
154.231, 1293.359
155.618, 1295.605
157.005, 1186.895
158.392, 1224.224
159.779, 1153.588
161.166, 1195.991
162.552, 1159.434
163.938, 1107.915
165.324, 1120.435
166.710, 1085.990
168.095, 1114.575
169.480, 1092.197
170.865, 1099.855
172.250, 1150.546
173.635, 1106.269
175.019, 1141.024
176.403, 1145.802
177.787, 1175.606
179.171, 1112.436
180.554, 1216.290
181.937, 1217.166
183.320, 1219.063
184.703, 1324.981
186.086, 1309.920
187.468, 1399.880
188.850, 1444.859
190.232, 1508.859
191.614, 1635.877
192.995, 1666.915
194.376, 1832.971
195.757, 1854.045
197.138, 2054.138
198.518, 2163.249
199.899, 2272.377
201.279, 2469.786
202.659, 2583.128
204.038, 2818.725
205.418, 2920.438
206.797, 3168.261
208.176, 3341.153
209.554, 3386.164
210.933, 3608.247
212.311, 3576.475
213.689, 3558.706
215.067, 3417.037
216.445, 3314.646
217.822, 3197.297
219.199, 2945.839
220.576, 2905.469
221.953, 2726.124
223.330, 2660.887
224.706, 2447.762
226.082, 2315.637
227.458, 2222.406
228.833, 2059.328
230.209, 1875.244
231.584, 1740.404
232.959, 1644.304
234.334, 1525.263
235.708, 1433.473
237.082, 1343.491
238.456, 1253.406
239.830, 1179.602
241.204, 1101.674
242.577, 1028.696
243.951, 970.742
245.323, 959.811
246.696, 908.901
248.069, 833.014
249.441, 806.151
250.813, 740.307
252.185, 758.484
253.557, 697.854
254.928, 676.224
256.299, 616.812
257.670, 556.400
259.041, 566.040
260.411, 495.846
261.782, 469.590
263.152, 432.203
264.522, 397.724
265.891, 403.287
267.261, 387.753
268.630, 366.567
269.999, 370.268
271.368, 367.375
272.736, 353.254
274.104, 355.681
275.473, 339.668
276.840, 326.501
278.208, 334.554
279.576, 315.073
280.943, 275.933
282.310, 265.492
283.677, 247.310
285.043, 248.291
286.409, 248.268
287.776, 224.335
289.141, 226.230
290.507, 204.165
291.873, 219.940
293.238, 217.840
294.603, 190.848
295.968, 192.906
297.332, 200.563
298.697, 176.206
300.061, 162.914
301.425, 159.727
302.788, 147.398
304.152, 153.236
305.515, 159.162
306.878, 159.858
308.241, 152.563
309.603, 118.276
310.966, 117.997
312.328, 133.725
313.690, 111.460
315.052, 127.203
316.413, 100.952
317.774, 110.708
319.136, 98.471
320.496, 86.240
321.857, 77.015
323.217, 108.796
324.578, 90.583
325.938, 99.375
327.297, 97.173
328.657, 57.977
330.016, 57.785
331.375, 70.599
332.734, 57.418
334.093, 57.241
335.451, 56.069
336.810, 67.902
338.168, 67.739
339.525, 41.581
340.883, 58.427
342.240, 29.277
343.597, 50.254
344.954, 63.112
346.311, 40.973
347.668, 71.034
349.024, 44.011
350.380, 33.912
351.736, 11.814
353.091, 36.728
354.447, 42.652
355.802, 20.756
357.157, 27.700
358.512, 7.348
359.866, 8.660
361.221, 4.340
362.575, 23.364
363.928, 22.344
365.282, 9.360
366.636, 13.369
367.989, 11.374
369.342, 16.370
370.695, 21.366
372.047, 18.359
373.400, 6.348
374.752, 16.329
376.104, 13.312
377.455, 28.291
378.807, 6.269
380.158, 9.244
381.509, 25.116
382.860, 8.087
384.211, 0.973
385.561, 15.992
386.911, 6.894
388.261, 14.366
389.611, 15.408
390.961, 16.711
392.310, 13.759
393.659, 33.049
395.008, 4.841
396.357, 3.915
397.705, 12.057
399.053, 12.679
400.401, 11.028
401.749, 22.819
403.097, 21.564
404.444, 23.024
405.791, 30.632
407.138, 25.934
408.485, 17.772
409.832, 11.674
411.178, 12.890
412.524, 5.380
413.870, 24.302
415.216, 17.235
416.561, 38.141
417.906, 6.077
419.251, 17.976
420.596, 28.833
421.941, 19.660
423.285, 30.493
424.629, 0.571
425.973, 18.366
427.317, 0.306
428.661, 14.246
430.004, 22.187
431.347, 21.130
432.690, 25.078
434.032, 15.031
435.375, 16.403
436.717, 6.950
438.059, 12.916
439.401, 17.885
440.743, 19.860
442.084, 3.160
443.425, 8.177
444.766, 1.193
446.107, 3.793
447.447, 16.217
448.788, 3.775
450.128, 7.770
451.468, 15.231
452.807, 15.229
454.147, 25.225
455.486, 29.829
456.825, 26.403
458.164, 30.200
459.502, 22.187
460.841, 17.172
462.179, 22.154
463.517, 32.133
464.855, 28.949
466.192, 36.121
467.530, 30.055
468.867, 33.023
470.204, 31.989
471.540, 28.481
472.877, 21.911
474.213, 23.868
475.549, 22.822
476.885, 22.772
478.221, 18.720
479.556, 20.663
480.891, 16.604
482.226, 18.541
483.561, 49.474
484.895, 25.404
486.230, 48.330
487.564, 4.253
488.898, 46.170
490.232, 21.084
491.565, 0.994
492.898, 6.898
494.231, 16.796
495.564, 34.691
496.897, 22.581
498.229, 27.467
499.562, 4.348
500.894, 22.224
502.225, 41.094
503.557, 13.896
504.888, 15.757
506.220, 28.574
507.550, 15.167
508.881, 42.767
510.212, 23.521
511.542, 40.230
512.872, 21.954
514.202, 51.607
515.532, 41.183
516.861, 30.793
518.191, 22.541
519.520, 51.164
520.848, 30.822
522.177, 43.263
523.505, 44.987
524.834, 12.679
526.162, 34.140
527.489, 18.828
528.817, 29.587
530.144, 16.152
531.472, 5.832
532.798, 30.578
534.125, 4.319
535.452, 36.051
536.778, 5.778
538.104, 16.504
539.430, 23.202
540.756, 16.901
542.081, 8.594
543.406, 9.351
544.731, 13.229
546.056, 9.879
547.381, 4.550
548.705, 2.038
550.030, 11.557
551.354, 16.430
552.677, 23.537
554.001, 12.957
555.324, 43.834
556.647, 28.097
557.970, 54.627
559.293, 26.743
560.616, 42.183
561.938, 26.480
563.260, 22.673
564.582, 19.400
565.904, 20.453
567.225, 52.018
568.546, 52.696
569.868, 68.009
571.188, 49.709
572.509, 70.498
573.829, 58.202
575.150, 61.386
576.470, 44.429
577.790, 74.629
579.109, 56.755
580.429, 68.048
581.748, 86.218
583.067, 73.284
584.385, 89.303
585.704, 85.725
587.022, 62.165
588.340, 75.543
589.658, 97.819
590.976, 80.238
592.294, 87.493
593.611, 108.662
594.928, 73.062
596.245, 108.455
597.562, 89.841
598.878, 83.220
600.194, 83.593
601.510, 98.959
602.826, 114.318
604.142, 130.671
605.457, 124.703
606.773, 125.099
608.088, 108.687
609.402, 113.012
610.717, 107.331
612.031, 116.642
613.346, 123.018
614.660, 144.316
615.973, 160.785
617.287, 192.691
618.600, 215.203
619.913, 271.474
621.226, 322.738
622.539, 375.995
623.852, 423.246
625.164, 396.490
626.476, 412.727
627.788, 339.957
629.100, 331.180
630.411, 277.273
631.722, 232.483
633.033, 223.686
634.344, 199.687
635.655, 185.778
636.965, 173.951
638.276, 208.127
639.586, 195.297
640.896, 213.459
642.205, 253.446
643.515, 269.596
644.824, 248.739
646.133, 301.828
647.442, 274.926
648.750, 271.050
650.059, 271.129
651.367, 245.243
652.675, 271.351
653.983, 210.453
655.290, 191.545
656.598, 174.635
657.905, 111.721
659.212, 111.801
660.518, 96.871
661.825, 71.940
663.131, 104.004
664.437, 137.754
665.743, 173.116
667.049, 285.064
668.354, 392.107
669.660, 533.116
670.965, 644.147
672.270, 947.112
673.574, 1022.911
674.879, 629.925
676.183, 312.676
677.487, 109.678
678.791, 84.435
680.095, 79.687
681.398, 87.653
682.701, 50.547
684.005, 5.684
685.307, 28.690
686.610, 3.502
687.912, 9.259
689.215, 4.724
690.517, 6.329
691.818, 17.379
693.120, 16.562
694.421, 25.691
695.723, 3.960
697.024, 16.075
698.324, 0.788
699.625, 19.346
700.925, 7.518
702.226, 19.671
703.526, 24.868
704.825, 14.117
706.125, 21.406
707.424, 9.701
708.723, 13.097
710.022, 15.889
711.321, 8.676
712.620, 8.544
713.918, 11.773
715.216, 18.989
716.514, 26.747
717.812, 30.429
719.109, 47.254
720.407, 38.002
721.704, 51.747
723.001, 59.488
724.297, 72.227
725.594, 89.963
726.890, 101.694
728.186, 95.421
729.482, 89.144
730.778, 98.863
732.073, 97.577
733.369, 89.288
734.664, 96.995
735.959, 63.698
737.253, 100.396
738.548, 70.090
739.842, 58.780
741.136, 68.466
742.430, 70.146
743.724, 68.823
745.017, 77.496
746.310, 47.165
747.603, 68.829
748.896, 76.490
750.189, 41.146
751.481, 41.798
752.774, 19.447
754.066, 50.091
755.357, 26.731
756.649, 35.367
757.941, 55.999
759.232, 34.627
760.523, 51.252
761.814, 71.873
763.104, 76.490
764.395, 78.733
765.685, 81.836
766.975, 69.322
768.265, 69.925
769.554, 65.525
770.844, 48.122
772.133, 58.946
773.422, 54.307
774.711, 69.895
775.999, 70.481
777.288, 72.063
778.576, 79.560
779.864, 80.219
781.152, 79.792
782.439, 71.363
783.727, 54.931
785.014, 58.215
786.301, 39.058
787.588, 58.618
788.874, 67.174
790.161, 72.729
791.447, 76.280
792.733, 80.453
794.019, 81.868
795.304, 82.917
796.590, 81.458
797.875, 77.996
799.160, 73.531
800.445, 76.064
801.729, 67.594
803.014, 82.122
804.298, 65.648
805.582, 91.171
806.865, 71.692
808.149, 80.210
809.432, 64.727
810.716, 69.242
811.999, 54.754
813.281, 74.266
814.564, 64.775
815.846, 78.284
817.128, 91.791
818.410, 82.296
819.692, 98.804
820.974, 108.309
822.255, 143.813
823.536, 165.772
824.817, 131.215
826.098, 154.382
827.379, 134.637
828.659, 168.832
829.939, 179.053
831.219, 258.761
832.499, 322.488
833.779, 636.002
835.058, 974.052
836.337, 1527.792
837.616, 1637.923
838.895, 1249.586
840.173, 840.559
841.452, 564.676
842.730, 401.471
844.008, 325.455
845.286, 266.105
846.563, 233.998
847.841, 233.318
849.118, 219.664
850.395, 283.931
851.672, 250.854
852.948, 286.704
854.225, 285.081
855.501, 266.514
856.777, 323.966
858.053, 380.454
859.328, 386.940
860.604, 374.427
861.879, 306.914
863.154, 315.400
864.429, 313.886
865.703, 254.372
866.978, 232.857
868.252, 198.342
869.526, 187.827
870.800, 169.311
872.073, 192.796
873.347, 144.281
874.620, 160.766
875.893, 141.252
877.166, 156.738
878.438, 141.227
879.711, 152.718
880.983, 148.089
882.255, 130.702
883.527, 148.195
884.798, 130.691
886.070, 145.187
887.341, 125.686
888.612, 115.187
889.883, 138.692
891.154, 147.126
892.424, 129.631
893.694, 141.104
894.964, 151.611
896.234, 169.118
897.504, 154.625
898.773, 164.273
900.042, 150.641
901.312, 155.149
902.580, 153.658
903.849, 133.167
905.118, 134.676
906.386, 130.186
907.654, 113.696
908.922, 149.207
910.189, 111.718
911.457, 114.230
912.724, 122.742
913.991, 104.255
915.258, 61.769
916.525, 92.283
917.791, 77.798
919.058, 53.314
920.324, 61.830
921.590, 40.346
922.855, 30.864
924.121, 57.382
925.386, 54.902
926.651, 83.423
927.916, 93.949
929.181, 99.476
930.446, 72.003
931.710, 86.534
932.974, 86.066
934.238, 80.598
935.502, 111.131
936.765, 71.667
938.029, 96.204
939.292, 52.743
940.555, 85.284
941.818, 56.828
943.080, 75.375
944.343, 46.927
945.605, 66.481
946.867, 43.035
948.129, 18.590
949.390, 85.146
950.652, 69.703
951.913, 53.262
953.174, 73.821
954.435, 68.380
955.695, 39.941
956.956, 67.503
958.216, 68.066
959.476, 47.630
960.736, 30.198
961.995, 31.766
963.255, 32.338
964.514, 38.911
965.773, 45.487
967.032, 23.066
968.291, 31.649
969.549, 16.237
970.807, 3.169
972.066, 29.427
973.323, 6.028
974.581, 3.632
975.839, 3.759
977.096, 23.146
978.353, 14.534
979.610, 11.918
980.867, 3.304
982.123, 11.056
983.380, 19.949
984.636, 42.577
985.892, 37.207
987.147, 49.840
988.403, 29.476
989.658, 28.116
990.914, 60.758
992.169, 55.401
993.423, 18.046
994.678, 64.692
995.932, 93.339
997.187, 116.987
998.441, 170.636
999.694, 285.286
1000.948, 368.937
1002.201, 387.590
1003.455, 286.243
1004.708, 214.898
1005.961, 137.603
1007.213, 85.260
1008.466, 75.069
1009.718, 62.728
1010.970, 64.511
1012.222, 66.340
1013.474, 77.266
1014.725, 82.533
1015.976, 111.221
1017.227, 120.303
1018.478, 139.085
1019.729, 181.180
1020.980, 155.874
1022.230, 180.146
1023.480, 215.192
1024.730, 228.594
1025.980, 199.266
1027.229, 226.939
1028.479, 295.874
1029.728, 442.549
1030.977, 491.225
1032.226, 407.902
1033.474, 273.580
1034.723, 229.259
1035.971, 220.938
1037.219, 238.619
1038.467, 299.300
1039.714, 337.514
1040.962, 444.664
1042.209, 505.348
1043.456, 635.032
1044.703, 803.718
1045.950, 1091.404
1047.196, 1507.091
1048.443, 2454.882
1049.689, 4596.570
1050.935, 12442.261
1052.180, 42420.949
1053.426, 64149.641
1054.671, 61068.332
1055.916, 25887.027
1057.161, 9645.721
1058.406, 3960.415
1059.651, 1991.421
1060.895, 1191.117
1062.139, 810.718
1063.383, 611.415
1064.627, 532.114
1065.871, 398.291
1067.114, 320.033
1068.357, 296.734
1069.600, 274.435
1070.843, 242.344
1072.086, 240.222
1073.328, 208.268
1074.570, 177.973
1075.813, 199.130
1077.054, 214.457
1078.296, 238.836
1079.538, 240.934
1080.779, 239.343
1082.020, 244.051
1083.261, 208.759
1084.502, 206.467
1085.742, 199.177
1086.983, 163.886
1088.223, 150.596
1089.463, 131.307
1090.703, 153.019
1091.942, 151.730
1093.182, 139.443
1094.421, 130.156
1095.660, 147.869
1096.899, 130.583
1098.137, 122.298
1099.376, 114.013
1100.614, 100.728
1101.852, 116.444
1103.090, 63.161
1104.328, 106.878
1105.565, 103.567
1106.803, 100.285
1108.040, 139.003
1109.277, 98.722
1110.513, 138.407
1111.750, 116.667
1112.986, 71.129
1114.223, 131.652
1115.459, 58.343
1116.694, 25.065
1117.930, 67.787
1119.165, 25.510
1120.401, 47.233
1121.636, 50.956
1122.871, 24.680
1124.105, 26.404
1125.340, 13.129
1126.574, 46.854
1127.808, 57.580
1129.042, 37.306
1130.276, 34.033
1131.509, 35.760
1132.743, 19.488
1133.976, 61.216
1135.209, 38.945
1136.442, 5.674
1137.674, 27.404
1138.906, 2.866
1140.139, 34.865
1141.371, 8.405
1142.603, 13.325
1143.834, 6.945
1145.066, 12.215
1146.297, 22.488
1147.528, 16.765
1148.759, 1.044
1149.990, 20.324
1151.220, 6.607
1152.450, 20.891
1153.681, 1.178
1154.910, 28.466
1156.140, 18.759
1157.370, 34.055
1158.599, 2.643
1159.828, 7.341
1161.057, 13.961
1162.286, 21.736
1163.515, 38.433
1164.743, 8.131
1165.972, 29.829
1167.200, 19.528
1168.427, 34.228
1169.655, 44.928
1170.883, 16.630
1172.110, 35.331
1173.337, 49.034
1174.564, 39.737
1175.791, 28.441
1177.017, 14.146
1178.244, 22.851
1179.470, 45.558
1180.696, 6.735
1181.922, 15.971
1183.147, 20.679
1184.373, 8.387
1185.598, 14.259
1186.823, 30.806
1188.048, 4.516
1189.273, 5.228
1190.497, 6.940
1191.722, 17.346
1192.946, 13.365
1194.170, 42.923
1195.393, 8.781
1196.617, 10.486
1197.840, 24.809
1199.064, 3.107
1200.287, 12.596
1201.509, 2.299
1202.732, 12.996
1203.954, 11.293
1205.177, 19.364
1206.399, 5.109
1207.621, 24.190
1208.842, 31.492
1210.064, 33.800
1211.285, 7.113
1212.506, 40.574
1213.727, 21.262
1214.948, 41.951
1216.169, 23.641
1217.389, 64.333
1218.609, 37.026
1219.829, 53.720
1221.049, 55.416
1222.269, 49.113
1223.488, 52.106
1224.708, 45.141
1225.927, 46.211
1227.146, 37.914
1228.364, 42.618
1229.583, 51.323
1230.801, 31.030
1232.019, 56.739
1233.237, 54.449
1234.455, 64.161
1235.673, 109.874
1236.890, 97.589
1238.107, 99.305
1239.324, 150.024
1240.541, 67.744
1241.758, 126.466
1242.975, 81.191
1244.191, 109.919
1245.407, 119.650
1246.623, 89.385
1247.839, 109.122
1249.054, 119.863
1250.270, 104.607
1251.485, 129.352
1252.700, 140.100
1253.915, 115.850
1255.129, 123.602
1256.344, 109.356
1257.558, 117.113
1258.772, 131.872
1259.986, 88.634
1261.200, 177.398
1262.413, 163.166
1263.627, 135.936
1264.840, 234.708
1266.053, 164.484
1267.266, 217.263
1268.478, 258.043
1269.691, 215.827
1270.903, 264.562
1272.115, 249.349
1273.327, 254.987
1274.539, 297.776
1275.750, 236.444
1276.961, 275.006
1278.173, 258.331
1279.384, 222.792
1280.594, 261.565
1281.805, 276.947
1283.015, 241.633
1284.226, 255.008
1285.436, 249.787
1286.646, 212.990
1287.855, 267.423
1289.065, 241.502
1290.274, 282.314
1291.483, 293.128
1292.692, 286.685
1293.901, 357.503
1295.109, 377.324
1296.318, 355.146
1297.526, 370.971
1298.734, 338.799
1299.942, 357.628
1301.150, 356.461
1302.357, 331.295
1303.564, 391.132
1304.771, 368.972
1305.978, 412.814
1307.185, 433.660
1308.392, 482.508
1309.598, 514.359
1310.804, 555.212
1312.010, 485.966
1313.216, 551.825
1314.422, 592.688
1315.627, 589.554
1316.832, 656.422
1318.037, 646.294
1319.242, 703.169
1320.447, 716.048
1321.652, 654.929
1322.856, 699.503
1324.060, 720.392
1325.264, 653.380
1326.468, 680.275
1327.672, 639.173
1328.875, 666.597
1330.078, 690.460
1331.281, 631.369
1332.484, 659.281
1333.687, 660.990
1334.890, 586.734
1336.092, 709.314
1337.294, 638.241
1338.496, 656.718
1339.698, 782.031
1340.900, 714.296
1342.101, 764.144
1343.302, 859.090
1344.503, 842.041
1345.704, 1008.995
1346.905, 966.954
1348.106, 1059.917
1349.306, 1192.885
1350.506, 1220.857
1351.706, 1363.834
1352.906, 1622.816
1354.106, 1676.803
1355.305, 2029.795
1356.504, 2230.792
1357.703, 2334.793
1358.902, 2736.800
1360.101, 2976.813
1361.300, 3081.831
1362.498, 3427.854
1363.696, 3351.883
1364.894, 3305.918
1366.092, 3308.959
1367.290, 2903.006
1368.487, 2706.059
1369.684, 2398.118
1370.881, 2061.184
1372.078, 1898.257
1373.275, 1587.337
1374.472, 1386.423
1375.668, 1321.517
1376.864, 1097.619
1378.060, 1032.280
1379.256, 944.397
1380.452, 789.523
1381.647, 812.657
1382.842, 691.800
1384.038, 628.952
1385.233, 641.115
1386.427, 587.286
1387.622, 501.508
1388.816, 505.701
1390.010, 389.876
1391.204, 380.316
1392.398, 324.513
1393.592, 262.711
1394.785, 221.050
1395.979, 214.257
1397.172, 161.432
1398.365, 201.606
1399.558, 163.711
1400.750, 109.750
1401.943, 187.728
1403.135, 198.712
1404.327, 181.705
1405.519, 232.709
1406.710, 170.722
1407.902, 212.745
1409.093, 221.781
1410.284, 181.832
1411.475, 213.890
1412.666, 200.954
1413.857, 197.024
1415.047, 247.099
1416.238, 222.179
1417.428, 247.265
1418.617, 228.356
1419.807, 192.453
1420.997, 235.557
1422.186, 176.666
1423.375, 162.781
1424.564, 237.902
1425.753, 218.029
1426.942, 177.165
1428.130, 273.318
1429.318, 177.481
1430.507, 184.654
1431.694, 263.835
1432.882, 216.029
1434.070, 191.235
1435.257, 242.464
1436.444, 244.707
1437.631, 325.957
1438.818, 344.215
1440.005, 332.481
1441.191, 421.754
1442.378, 416.034
1443.564, 418.323
1444.750, 486.618
1445.936, 462.922
1447.121, 477.233
1448.307, 501.551
1449.492, 501.431
1450.677, 571.210
1451.862, 547.550
1453.047, 553.897
1454.231, 613.242
1455.415, 594.593
1456.600, 544.949
1457.784, 669.311
1458.967, 553.677
1460.151, 561.045
1461.335, 568.416
1462.518, 449.788
1463.701, 522.166
1464.884, 475.552
1466.067, 360.952
1467.249, 470.367
1468.432, 368.798
1469.614, 362.243
1470.796, 407.704
1471.978, 318.181
1473.159, 325.673
1474.341, 401.182
1475.522, 270.708
1476.703, 359.252
1477.884, 296.814
1479.065, 271.394
1480.246, 276.992
1481.426, 297.608
1482.607, 248.243
1483.787, 322.896
1484.967, 247.567
1486.146, 215.257
1487.326, 252.966
1488.505, 208.697
1489.685, 216.448
1490.864, 222.222
1492.042, 93.019
1493.221, 148.842
1494.400, 112.693
1495.578, 44.573
1496.756, 106.487
1497.934, 68.435
1499.112, 40.420
1500.289, 105.442
1501.467, 22.504
1502.644, 29.608
1503.821, 51.755
1504.998, 23.052
1506.175, 60.190
1507.351, 18.485
1508.528, 7.837
1509.704, 82.250
1510.880, 21.730
1512.056, 18.283
1513.232, 42.915
1514.407, 5.631
1515.582, 16.440
1516.758, 74.101
1517.933, 6.615
1519.107, 12.593
1520.282, 50.645
1521.456, 0.371
1522.631, 47.329
