##NAMES=Cerussite
##RRUFFID=R050023
##IDEAL CHEMISTRY=Pb^2+^CO_3_
##LOCALITY=Mammoth - St Anthony mine, Tiger, Pinal County, Arizona, USA
##OWNER=RRUFF
##SOURCE=Eugene Schlepp
##DESCRIPTION=Prismatic white single crystals
##STATUS=The identification of this mineral has been confirmed by X-ray diffraction and chemical analysis
##URL=rruff.info/R050023
##MEASURED CHEMISTRY=Pb_1.00_CO_3_ ; CO_2_ not measured but estimated by difference and stoichiometry
##PIN_ID=L00207
##ORIENTATION=Laser parallel to a* (1 0 0). Fiducial mark perpendicular to laser is parallel to b [0 1 0]
59.882, 0.000
61.283, 5.464
62.683, 21.948
64.084, 27.038
65.484, 46.883
66.884, 39.551
68.284, 65.662
69.684, 18.068
71.083, 17.384
72.482, 29.380
73.881, 11.999
75.280, 3.810
76.678, 13.896
78.076, 10.925
79.474, 0.315
80.872, 12.691
82.270, 34.063
83.667, 71.770
85.064, 102.786
86.461, 126.087
87.858, 193.651
89.254, 239.458
90.650, 371.492
92.046, 439.737
93.442, 572.181
94.838, 744.810
96.233, 972.614
97.628, 1227.583
99.023, 1549.708
100.418, 1825.984
101.812, 2029.405
103.206, 2081.961
104.600, 2103.641
105.994, 1984.436
107.387, 1999.338
108.781, 2027.341
110.174, 2045.440
111.566, 1943.631
112.959, 2023.908
114.351, 2055.268
115.744, 2266.707
117.136, 2465.223
118.527, 2705.812
119.919, 3147.472
121.310, 3539.199
122.701, 4064.994
124.092, 4679.850
125.482, 5370.769
126.873, 5963.746
128.263, 6594.779
129.653, 6863.866
131.042, 7003.010
132.432, 6914.205
133.821, 6470.454
135.210, 6199.751
136.599, 5702.105
137.987, 5234.521
139.376, 4904.004
140.764, 4480.542
142.152, 4362.125
143.539, 4087.759
144.927, 4041.413
146.314, 3845.076
147.701, 3670.751
149.088, 3585.441
150.474, 3381.149
151.861, 3170.855
153.247, 3017.570
154.633, 2760.325
156.018, 2590.104
157.404, 2349.903
158.789, 2217.736
160.174, 2030.594
161.559, 1934.469
162.943, 1885.361
164.327, 1852.270
165.711, 1860.197
167.095, 1865.145
168.479, 1862.123
169.862, 1875.125
171.246, 1911.150
172.628, 1899.193
174.011, 1936.264
175.394, 1895.364
176.776, 1800.481
178.158, 1730.616
179.540, 1615.769
180.922, 1586.939
182.303, 1432.135
183.684, 1388.350
185.065, 1292.582
186.446, 1152.829
187.826, 1117.092
189.207, 1019.371
190.587, 1007.664
191.967, 959.972
193.346, 946.295
194.726, 883.632
196.105, 834.983
197.484, 802.348
198.862, 770.726
200.241, 763.268
201.619, 741.671
202.997, 710.088
204.375, 726.517
205.753, 660.162
207.130, 699.690
208.507, 655.156
209.884, 646.691
211.261, 607.180
212.638, 619.619
214.014, 636.232
215.390, 594.408
216.766, 618.847
218.141, 566.463
219.517, 593.300
220.892, 564.728
222.267, 561.287
223.642, 537.076
225.016, 529.526
226.391, 566.846
227.765, 516.037
229.139, 553.488
230.512, 521.449
231.886, 500.318
233.259, 558.951
234.632, 524.332
236.005, 578.121
237.377, 544.773
238.749, 542.204
240.122, 561.868
241.493, 546.966
242.865, 546.918
244.237, 533.744
245.608, 527.191
246.979, 459.116
248.350, 493.897
249.720, 459.074
251.090, 390.319
252.461, 389.566
253.830, 355.113
255.200, 354.684
256.570, 313.999
257.939, 309.910
259.308, 307.290
260.677, 271.731
262.045, 267.155
263.414, 204.586
264.782, 254.036
266.150, 189.508
267.517, 178.997
268.885, 207.502
270.252, 184.024
271.619, 188.849
272.986, 154.402
274.353, 128.705
275.719, 154.402
277.085, 154.998
278.451, 165.331
279.817, 108.957
281.182, 135.661
282.548, 103.312
283.913, 116.974
285.278, 131.232
286.642, 100.155
288.007, 111.536
289.371, 79.241
290.735, 102.999
292.099, 70.723
293.462, 83.460
294.826, 102.300
296.189, 71.055
297.552, 109.817
298.914, 46.588
300.277, 54.366
301.639, 55.946
303.001, 34.739
304.363, 49.699
305.724, 27.505
307.086, 39.404
308.447, 31.221
309.808, 46.045
311.168, 19.874
312.529, 27.708
313.889, 68.549
315.249, 29.394
316.609, 40.246
317.969, 24.102
319.328, 13.964
320.687, 26.830
322.046, 11.702
323.405, 31.578
324.764, 15.459
326.122, 18.345
327.480, 37.234
328.838, 11.129
330.196, 50.027
331.553, 10.929
332.910, 20.835
334.267, 18.745
335.624, 23.658
336.981, 37.575
338.337, 7.505
339.693, 45.418
341.049, 19.345
342.405, 4.276
343.760, 8.209
345.116, 3.145
346.471, 18.083
347.826, 8.725
349.180, 40.218
350.535, 1.163
351.889, 3.891
353.243, 19.058
354.597, 2.008
355.950, 15.960
357.304, 3.086
358.657, 19.869
360.010, 21.864
361.362, 24.178
362.715, 5.778
364.067, 2.104
365.419, 3.148
366.771, 19.810
368.123, 17.958
369.474, 31.998
370.825, 22.620
372.176, 12.332
373.527, 3.500
374.877, 9.346
376.228, 8.602
377.578, 21.301
378.928, 40.639
380.277, 3.539
381.627, 25.476
382.976, 6.590
384.325, 3.789
385.674, 18.719
387.023, 19.761
388.371, 12.219
389.719, 12.140
391.067, 8.929
392.415, 24.004
393.762, 3.057
395.110, 23.993
396.457, 31.067
397.804, 9.767
399.150, 1.828
400.497, 30.203
401.843, 19.728
403.189, 13.325
404.535, 25.615
405.881, 7.442
407.226, 7.593
408.571, 14.607
409.916, 27.635
411.261, 5.301
412.605, 1.301
413.950, 2.351
415.294, 3.723
416.638, 20.799
417.981, 29.446
419.325, 8.640
420.668, 3.241
422.011, 2.150
423.354, 3.923
424.697, 24.832
426.039, 10.741
427.381, 22.309
428.723, 30.216
430.065, 7.163
431.406, 28.069
432.748, 1.025
434.089, 35.001
435.430, 8.098
436.770, 2.907
438.111, 15.797
439.451, 7.268
440.791, 62.554
442.131, 5.437
443.471, 39.507
444.810, 29.424
446.149, 3.686
447.488, 2.217
448.827, 4.916
450.166, 33.993
451.504, 7.853
452.842, 17.707
454.180, 31.387
455.518, 7.236
456.855, 56.155
458.193, 14.001
459.530, 48.844
460.867, 17.699
462.203, 4.463
463.540, 48.366
464.876, 7.191
466.212, 61.012
467.548, 9.830
468.883, 27.645
470.219, 60.457
471.554, 44.266
472.889, 46.072
474.224, 39.874
475.558, 67.674
476.892, 64.470
478.227, 38.263
479.561, 69.052
480.894, 49.839
482.228, 49.622
483.561, 32.423
484.894, 76.199
486.227, 59.972
487.559, 39.740
488.892, 65.505
490.224, 63.273
491.556, 61.031
492.888, 85.785
494.220, 45.535
495.551, 83.281
496.882, 45.044
498.213, 41.782
499.544, 47.396
500.874, 39.477
502.205, 73.204
503.535, 58.964
504.865, 50.683
506.194, 46.409
507.524, 12.119
508.853, 65.646
510.182, 42.384
511.511, 45.078
512.840, 71.705
514.168, 46.392
515.496, 63.074
516.824, 28.752
518.152, 69.373
519.480, 22.043
520.807, 37.707
522.134, 60.499
523.461, 16.155
524.788, 42.765
526.114, 40.348
527.441, 12.989
528.767, 59.000
530.093, 8.704
531.418, 45.455
532.744, 14.071
534.069, 14.598
535.394, 62.915
536.719, 16.514
538.044, 32.250
539.368, 2.162
540.693, 33.414
542.017, 64.986
543.340, 7.335
544.664, 37.893
545.987, 4.447
547.311, 20.122
548.634, 47.661
549.956, 40.690
551.279, 31.873
552.601, 18.399
553.923, 33.972
555.245, 36.490
556.567, 10.162
557.889, 60.224
559.210, 2.691
560.531, 50.552
561.852, 31.035
563.173, 36.344
564.493, 37.820
565.813, 18.050
567.133, 21.973
568.453, 23.605
569.773, 27.476
571.092, 16.910
572.412, 14.301
573.731, 93.713
575.049, 38.848
576.368, 6.158
577.686, 60.564
579.005, 5.607
580.323, 56.769
581.640, 3.898
582.958, 48.770
584.275, 51.140
585.593, 0.486
586.909, 53.872
588.226, 21.226
589.543, 62.575
590.859, 39.920
592.175, 12.973
593.491, 71.365
594.807, 12.959
596.122, 41.213
597.438, 19.532
598.753, 5.866
600.068, 46.407
601.382, 9.638
602.697, 22.344
604.011, 28.630
605.325, 23.328
606.639, 58.366
607.952, 17.952
609.266, 29.244
610.579, 32.468
611.892, 4.268
613.205, 35.983
614.518, 14.135
615.830, 74.051
617.142, 45.293
618.454, 27.530
619.766, 78.824
621.078, 43.257
622.389, 102.481
623.700, 54.540
625.011, 70.755
626.322, 101.041
627.632, 48.249
628.943, 94.452
630.253, 65.650
631.563, 60.845
632.872, 72.035
634.182, 42.220
635.491, 55.401
636.800, 65.578
638.109, 53.751
639.418, 87.919
640.726, 25.083
642.035, 71.243
643.343, 48.398
644.651, 80.549
645.958, 63.696
647.266, 28.839
648.573, 82.977
649.880, 46.111
651.187, 51.242
652.494, 43.369
653.800, 25.491
655.106, 61.609
656.412, 28.724
657.718, 1.834
659.024, 66.938
660.329, 21.037
661.634, 59.132
662.939, 27.223
664.244, 38.312
665.549, 43.146
666.853, 20.227
668.157, 68.306
669.461, 59.382
670.765, 96.453
672.069, 165.522
673.372, 156.586
674.675, 164.651
675.978, 94.712
677.281, 129.732
678.583, 269.786
679.886, 379.840
681.188, 385.729
682.490, 246.776
683.792, 141.820
685.093, 84.587
686.394, 10.627
687.696, 82.237
688.997, 53.273
690.297, 76.091
691.598, 166.920
692.898, 225.948
694.198, 293.823
695.498, 222.849
696.798, 156.907
698.097, 101.926
699.397, 27.942
700.696, 57.506
701.995, 38.517
703.293, 32.933
704.592, 58.881
705.890, 20.114
707.188, 21.876
708.486, 32.860
709.784, 11.726
711.081, 23.708
712.378, 25.312
713.675, 48.294
714.972, 8.262
716.269, 19.544
717.565, 63.514
718.862, 4.995
720.158, 38.968
721.453, 12.928
722.749, 63.007
724.045, 37.922
725.340, 4.865
726.635, 75.817
727.930, 31.705
729.224, 24.541
730.519, 84.500
731.813, 1.542
733.107, 104.086
734.401, 34.044
735.694, 30.744
736.988, 71.701
738.281, 4.210
739.574, 29.740
740.867, 16.688
742.160, 26.875
743.452, 49.819
744.744, 39.721
746.036, 50.702
747.328, 57.641
748.620, 4.454
749.911, 43.391
751.202, 7.216
752.493, 30.153
753.784, 15.043
755.075, 15.742
756.365, 42.185
757.655, 7.078
758.945, 44.835
760.235, 37.744
761.525, 43.693
762.814, 60.614
764.103, 10.486
765.392, 57.523
766.681, 47.443
767.969, 30.533
769.258, 51.451
770.546, 11.706
771.834, 47.151
773.122, 68.065
774.409, 1.958
775.697, 75.864
776.984, 25.772
778.271, 29.912
779.558, 49.819
780.844, 2.275
782.131, 81.739
783.417, 21.642
784.703, 30.544
785.989, 34.445
787.274, 42.345
788.560, 68.244
789.845, 33.142
791.130, 39.040
792.415, 44.937
793.699, 41.833
794.983, 43.729
796.268, 34.601
797.552, 32.495
798.835, 62.389
800.119, 35.282
801.402, 40.174
802.686, 48.060
803.969, 37.951
805.251, 106.991
806.534, 43.882
807.816, 74.772
809.098, 59.641
810.380, 40.531
811.662, 90.431
812.944, 46.969
814.225, 58.857
815.506, 91.719
816.787, 70.607
818.068, 119.817
819.349, 82.704
820.629, 167.593
821.909, 255.805
823.189, 212.694
824.469, 255.582
825.749, 225.471
827.028, 239.359
828.307, 310.254
829.586, 424.141
830.865, 548.029
832.144, 803.943
833.422, 1381.832
834.700, 2486.720
835.978, 3800.610
837.256, 4386.500
838.534, 3361.407
839.811, 2073.300
841.088, 1232.118
842.365, 699.013
843.642, 430.909
844.919, 296.833
846.195, 187.732
847.472, 213.631
848.748, 64.531
850.023, 110.433
851.299, 113.341
852.575, 56.249
853.850, 120.159
855.125, 19.070
856.400, 108.982
857.674, 78.899
858.949, 46.816
860.223, 106.245
861.497, 25.184
862.771, 59.111
864.045, 101.987
865.318, 19.914
866.591, 70.051
867.864, 40.984
869.137, 39.852
870.410, 89.779
871.682, 14.277
872.955, 87.167
874.227, 20.110
875.499, 5.012
876.770, 84.966
878.042, 6.922
879.313, 69.810
880.584, 31.768
881.855, 15.730
883.126, 63.693
884.396, 21.656
885.667, 41.441
886.937, 62.407
888.207, 18.626
889.476, 62.339
890.746, 11.307
892.015, 15.973
893.284, 58.945
894.553, 22.077
895.822, 40.905
897.090, 48.889
898.359, 1.878
899.627, 87.866
900.895, 39.856
902.163, 71.792
903.430, 69.787
904.698, 38.742
905.965, 33.743
907.232, 7.267
908.499, 24.768
909.765, 40.773
911.032, 4.365
912.298, 48.372
913.564, 0.621
914.830, 20.394
916.095, 58.408
917.361, 26.602
918.626, 53.404
919.891, 43.410
921.156, 22.420
922.420, 18.430
923.685, 24.233
924.949, 10.776
926.213, 30.786
927.477, 22.733
928.740, 67.749
930.004, 8.235
931.267, 43.781
932.530, 65.798
933.793, 3.348
935.056, 58.676
936.318, 31.700
937.581, 52.723
938.843, 64.757
940.104, 20.789
941.366, 52.823
942.628, 24.857
943.889, 26.890
945.150, 42.928
946.411, 32.966
947.672, 46.004
948.932, 57.049
950.193, 19.094
951.453, 74.168
952.713, 37.215
953.973, 49.260
955.232, 37.306
956.491, 4.650
957.751, 66.408
959.010, 45.453
960.268, 26.496
961.527, 77.587
962.785, 13.636
964.044, 71.683
965.302, 31.740
966.559, 15.795
967.817, 83.959
969.075, 10.978
970.332, 27.081
971.589, 41.138
972.846, 11.804
974.102, 51.249
975.359, 32.304
976.615, 20.356
977.871, 65.498
979.127, 24.452
980.383, 62.593
981.638, 57.685
982.893, 15.720
984.149, 50.041
985.404, 25.104
986.658, 53.165
987.913, 70.434
989.167, 19.547
990.421, 80.737
991.675, 52.852
992.929, 46.955
994.183, 88.202
995.436, 18.239
996.689, 103.523
997.942, 45.681
999.195, 37.771
1000.448, 140.449
1001.700, 115.699
1002.952, 133.736
1004.204, 116.155
1005.456, 69.185
1006.708, 133.350
1007.959, 71.761
1009.210, 68.811
1010.461, 131.553
1011.712, 24.949
1012.963, 135.118
1014.213, 118.535
1015.464, 94.573
1016.714, 132.734
1017.964, 64.973
1019.214, 128.016
1020.463, 146.307
1021.712, 116.682
1022.962, 173.154
1024.210, 148.223
1025.459, 185.323
1026.708, 199.585
1027.956, 201.928
1029.204, 367.031
1030.452, 457.265
1031.700, 350.204
1032.948, 334.149
1034.195, 210.317
1035.442, 261.369
1036.689, 264.448
1037.936, 302.793
1039.183, 400.050
1040.429, 407.560
1041.676, 442.670
1042.922, 546.590
1044.168, 630.911
1045.413, 954.074
1046.659, 1246.648
1047.904, 1814.474
1049.149, 3226.412
1050.394, 7722.671
1051.639, 24253.527
1052.884, 55612.547
1054.128, 58252.824
1055.372, 30351.752
1056.616, 12730.883
1057.860, 5653.840
1059.104, 2951.723
1060.347, 1601.971
1061.590, 1005.964
1062.833, 717.875
1064.076, 503.453
1065.319, 460.400
1066.561, 373.365
1067.803, 309.390
1069.046, 330.200
1070.287, 240.389
1071.529, 255.359
1072.771, 231.229
1074.012, 177.975
1075.253, 218.734
1076.494, 152.635
1077.735, 152.129
1078.975, 216.911
1080.216, 112.221
1081.456, 165.313
1082.696, 147.047
1083.936, 137.993
1085.175, 181.742
1086.415, 116.583
1087.654, 181.774
1088.893, 145.423
1090.132, 131.733
1091.371, 177.543
1092.609, 131.159
1093.847, 133.502
1095.085, 154.170
1096.323, 89.971
1097.561, 135.786
1098.799, 138.344
1100.036, 64.390
1101.273, 146.626
1102.510, 83.228
1103.747, 135.134
1104.983, 166.752
1106.220, 69.213
1107.456, 163.859
1108.692, 106.416
1109.928, 63.117
1111.163, 125.289
1112.399, 79.946
1113.634, 95.544
1114.869, 120.053
1116.104, 52.472
1117.339, 145.719
1118.573, 94.900
1119.808, 83.476
1121.042, 109.558
1122.276, 89.555
1123.509, 121.795
1124.743, 122.152
1125.976, 61.469
1127.210, 125.408
1128.443, 81.690
1129.675, 70.094
1130.908, 122.596
1132.141, 22.815
1133.373, 76.514
1134.605, 77.150
1135.837, 29.348
1137.068, 63.780
1138.300, 45.060
1139.531, 62.349
1140.762, 68.697
1141.993, 33.901
1143.224, 89.117
1144.455, 33.988
1145.685, 60.053
1146.915, 78.816
1148.145, 7.846
1149.375, 38.855
1150.605, 91.142
1151.834, 22.116
1153.063, 91.239
1154.292, 60.471
1155.521, 23.390
1156.750, 86.631
1157.978, 11.463
1159.207, 24.387
1160.435, 56.192
1161.663, 22.003
1162.891, 84.794
1164.118, 57.165
1165.345, 40.920
1166.573, 84.655
1167.800, 3.627
1169.026, 25.061
1170.253, 91.482
1171.480, 0.134
1172.706, 65.760
1173.932, 31.487
1175.158, 26.073
1176.383, 56.637
1177.609, 35.362
1178.834, 1.886
1180.059, 106.365
1181.284, 41.844
1182.509, 66.302
1183.734, 61.202
1184.958, 24.621
1186.182, 83.019
1187.406, 18.251
1188.630, 51.609
1189.854, 113.655
1191.077, 32.346
1192.301, 63.926
1193.524, 20.520
1194.747, 12.036
1195.969, 85.350
1197.192, 40.765
1198.414, 13.928
1199.636, 76.219
1200.858, 5.496
1202.080, 98.582
1203.302, 54.658
1204.523, 47.704
1205.744, 120.731
1206.966, 39.739
1208.186, 68.725
1209.407, 92.692
1210.628, 1.360
1211.848, 78.555
1213.068, 71.451
1214.288, 41.328
1215.508, 113.190
1216.727, 36.036
1217.947, 58.860
1219.166, 79.667
1220.385, 4.542
1221.604, 112.219
1222.822, 63.966
1224.041, 2.304
1225.259, 86.396
1226.477, 16.083
1227.695, 32.750
1228.913, 88.401
1230.130, 12.958
1231.348, 78.652
1232.565, 53.257
1233.782, 16.147
1234.999, 92.417
1236.215, 17.964
1237.432, 47.493
1238.648, 101.999
1239.864, 4.521
1241.080, 70.935
1242.296, 39.372
1243.511, 13.208
1244.726, 102.180
1245.942, 20.553
1247.156, 15.225
1248.371, 67.542
1249.586, 25.055
1250.800, 59.852
1252.014, 58.101
1253.228, 6.937
1254.442, 69.806
1255.656, 37.080
1256.869, 0.304
1258.083, 40.837
1259.296, 7.972
1260.509, 69.602
1261.722, 90.670
1262.934, 19.410
1264.147, 55.582
1265.359, 38.560
1266.571, 16.513
1267.783, 112.437
1268.994, 11.345
1270.206, 71.232
1271.417, 88.104
1272.628, 15.857
1273.839, 102.685
1275.050, 41.494
1276.260, 26.232
1277.471, 97.009
1278.681, 17.481
1279.891, 18.191
1281.101, 83.878
1282.310, 22.329
1283.520, 32.917
1284.729, 29.391
1285.938, 16.103
1287.147, 39.374
1288.356, 31.316
1289.564, 5.156
1290.773, 72.344
1291.981, 10.376
1293.189, 65.953
1294.397, 64.675
1295.604, 5.193
1296.812, 79.132
1298.019, 15.057
1299.226, 6.648
1300.433, 91.493
1301.640, 8.370
1302.846, 35.590
1304.053, 76.098
1305.259, 50.940
1306.465, 121.991
1307.671, 53.773
1308.876, 16.083
1310.082, 164.917
1311.287, 63.830
1312.492, 50.919
1313.697, 121.728
1314.902, 5.569
1316.106, 105.473
1317.310, 99.397
1318.515, 5.233
1319.719, 135.861
1320.922, 63.407
1322.126, 2.158
1323.329, 102.775
1324.533, 14.330
1325.736, 19.539
1326.939, 45.168
1328.141, 24.104
1329.344, 77.579
1330.546, 5.980
1331.748, 48.263
1332.950, 77.940
1334.152, 31.472
1335.354, 31.704
1336.555, 54.651
1337.757, 60.748
1338.958, 6.667
1340.159, 1.850
1341.359, 77.193
1342.560, 32.173
1343.760, 4.065
1344.960, 46.477
1346.160, 62.855
1347.360, 45.472
1348.560, 7.996
1349.759, 57.421
1350.959, 27.149
1352.158, 110.519
1353.357, 127.126
1354.555, 107.856
1355.754, 231.875
1356.952, 227.603
1358.151, 266.334
1359.349, 422.914
1360.546, 268.857
1361.744, 448.459
1362.941, 481.322
1364.139, 427.333
1365.336, 440.583
1366.533, 501.827
1367.730, 478.010
1368.926, 526.691
1370.123, 481.186
1371.319, 558.041
1372.515, 651.490
1373.711, 608.599
1374.906, 750.460
1376.102, 762.700
1377.297, 712.312
1378.492, 736.972
1379.687, 609.755
1380.882, 517.008
1382.077, 488.570
1383.271, 364.412
1384.465, 285.246
1385.659, 276.759
1386.853, 146.526
1388.047, 202.432
1389.240, 142.325
1390.434, 45.592
1391.627, 58.095
1392.820, 12.971
1394.013, 51.268
1395.205, 16.954
1396.398, 76.092
1397.590, 28.845
1398.782, 6.034
1399.974, 94.370
1401.166, 51.505
1402.357, 4.877
1403.549, 23.297
1404.740, 70.779
1405.931, 59.774
1407.122, 52.439
1408.313, 217.226
1409.503, 111.356
1410.693, 203.232
1411.883, 277.531
1413.073, 234.247
1414.263, 393.007
1415.453, 344.611
1416.642, 304.349
1417.831, 429.095
1419.020, 408.802
1420.209, 388.391
1421.398, 497.160
1422.587, 389.678
1423.775, 469.034
1424.963, 509.654
1426.151, 403.426
1427.339, 532.875
1428.526, 457.399
1429.714, 391.916
1430.901, 484.980
1432.088, 420.894
1433.275, 383.761
1434.462, 540.054
1435.648, 428.624
1436.835, 540.202
1438.021, 572.789
1439.207, 513.406
1440.393, 695.028
1441.579, 704.654
1442.764, 649.281
1443.949, 819.928
1445.135, 856.576
1446.320, 890.222
1447.504, 1022.844
1448.689, 1039.445
1449.873, 1168.996
1451.058, 1362.551
1452.242, 1324.143
1453.426, 1600.758
1454.609, 1708.389
1455.793, 1821.075
1456.976, 1958.265
1458.159, 2146.515
1459.342, 2325.585
1460.525, 2559.677
1461.708, 2608.935
1462.890, 2841.209
1464.073, 3036.792
1465.255, 3200.424
1466.437, 3393.136
1467.619, 3533.867
1468.800, 3756.661
1469.982, 3940.487
1471.163, 4068.349
1472.344, 4136.260
1473.525, 4360.273
1474.706, 4384.510
1475.886, 4477.025
1477.066, 4581.865
1478.247, 4593.953
1479.427, 4635.141
1480.607, 4612.436
1481.786, 4416.850
1482.966, 4381.386
1484.145, 4205.062
1485.324, 3821.894
1486.503, 3821.900
1487.682, 3437.096
1488.860, 3212.638
1490.039, 2891.746
1491.217, 2525.714
1492.395, 2326.149
1493.573, 2106.026
1494.751, 1702.395
1495.928, 1698.317
1497.106, 1436.863
1498.283, 1147.094
1499.460, 1128.052
1500.637, 876.818
1501.814, 722.512
1502.990, 689.283
1504.166, 489.311
1505.342, 460.784
1506.518, 372.826
1507.694, 219.654
1508.870, 270.573
1510.045, 175.956
1511.221, 57.302
1512.396, 200.240
1513.571, 30.577
1514.745, 10.546
1515.920, 113.505
1517.094, 0.056
1518.269, 87.680
1519.443, 0.000
##END=



