##NAMES=Cerussite
##RRUFFID=R040069
##IDEAL CHEMISTRY=Pb^2+^CO_3_
##LOCALITY=Broken Hill, New South Wales, Australia
##OWNER=RRUFF
##SOURCE=University of Arizona Mineral Museum
##DESCRIPTION=Reticulated composite of colorless tabular crystals
##STATUS=The identification of this mineral has been confirmed by X-ray diffraction and chemical analysis
##URL=rruff.info/R040069
##MEASURED CHEMISTRY=Pb_1.04_C_0.98_O_3_
##PIN_ID=M00046
##ORIENTATION=Laser parallel to -c* (0 0 -1). Fiducial mark perpendicular to laser is parallel to a [1 0 0]
73.371, 0.000
74.771, 15.603
76.172, 19.499
77.572, 32.553
78.972, 11.205
80.371, 23.402
81.771, 36.824
83.170, 78.685
84.569, 133.712
85.968, 209.700
87.367, 329.491
88.765, 467.963
90.163, 545.025
91.561, 676.603
92.959, 783.635
94.356, 835.065
95.753, 925.844
97.150, 1019.929
98.547, 1086.285
99.943, 1184.154
101.340, 1241.701
102.736, 1363.724
104.132, 1450.942
105.527, 1543.345
106.923, 1685.925
108.318, 1964.667
109.713, 2258.555
111.107, 2680.573
112.502, 2981.705
113.896, 3306.933
115.290, 3577.247
116.684, 3794.636
118.077, 3836.091
119.471, 3858.604
120.864, 3698.170
122.257, 3665.786
123.649, 3718.465
125.042, 3637.188
126.434, 3834.954
127.826, 3930.783
129.218, 4078.678
130.609, 3905.667
132.001, 3774.725
133.392, 3456.883
134.782, 3176.136
136.173, 2779.456
137.564, 2372.854
138.954, 2193.329
140.344, 1921.847
141.733, 1716.402
143.123, 1547.960
144.512, 1460.524
145.901, 1409.102
147.290, 1258.672
148.679, 1289.223
150.067, 1131.734
151.455, 1137.219
152.843, 1082.680
154.231, 1024.123
155.618, 932.546
157.005, 851.953
158.392, 831.341
159.779, 728.712
161.166, 775.066
162.552, 661.407
163.938, 688.734
165.324, 706.048
166.710, 649.353
168.095, 661.645
169.480, 694.925
170.865, 696.408
172.250, 737.121
173.635, 777.495
175.019, 774.872
176.403, 722.139
177.787, 778.585
179.171, 718.073
180.554, 705.258
181.937, 729.694
183.320, 649.596
184.703, 771.009
186.086, 694.751
187.468, 799.144
188.850, 788.406
190.232, 802.491
191.614, 892.001
192.995, 922.974
194.376, 988.181
195.757, 995.966
197.138, 1061.235
198.518, 1166.104
199.899, 1260.095
201.279, 1354.644
202.659, 1421.240
204.038, 1585.950
205.418, 1731.223
206.797, 1907.285
208.176, 1995.735
209.554, 2130.721
210.933, 2225.937
212.311, 2303.453
213.689, 2258.043
215.067, 2232.526
216.445, 2213.551
217.822, 2154.080
219.199, 1969.963
220.576, 1943.506
221.953, 1830.552
223.330, 1837.822
224.706, 1676.197
226.082, 1574.937
227.458, 1516.646
228.833, 1379.370
230.209, 1256.156
231.584, 1117.913
232.959, 1023.871
234.334, 908.702
235.708, 809.464
237.082, 730.209
238.456, 647.518
239.830, 625.918
241.204, 520.596
242.577, 500.372
243.951, 460.108
245.323, 400.812
246.696, 410.552
248.069, 386.340
249.441, 287.184
250.813, 276.967
252.185, 287.683
253.557, 223.406
254.928, 215.189
256.299, 191.140
257.670, 171.889
259.041, 136.789
260.411, 110.473
261.782, 83.683
263.152, 59.559
264.522, 32.780
265.891, 20.516
267.261, 6.028
268.630, 6.298
269.999, 23.336
271.368, 11.120
272.736, 38.755
274.104, 16.410
275.473, 28.073
276.840, 27.634
278.208, 34.216
279.576, 9.747
280.943, 26.254
282.310, 24.734
283.677, 5.120
285.043, 10.592
286.409, 16.053
287.776, 21.308
289.141, 14.670
290.507, 5.049
291.873, 2.322
293.238, 18.306
294.603, 1.013
295.968, 13.742
297.332, 16.564
298.697, 1.689
300.061, 21.108
301.425, 18.216
302.788, 22.560
304.152, 16.508
305.515, 13.518
306.878, 39.432
308.241, 19.379
309.603, 25.330
310.966, 16.394
312.328, 31.470
313.690, 19.580
315.052, 8.713
316.413, 28.867
317.774, 23.025
319.136, 30.087
320.496, 9.226
321.857, 33.419
323.217, 30.563
324.578, 17.806
325.938, 27.110
327.297, 20.416
328.657, 24.712
330.016, 35.114
331.375, 17.506
332.734, 24.967
334.093, 14.461
335.451, 12.844
336.810, 13.396
338.168, 6.973
339.525, 14.537
340.883, 22.184
342.240, 23.865
343.597, 4.421
344.954, 12.679
346.311, 0.908
347.668, 8.105
349.024, 9.728
350.380, 7.431
351.736, 13.435
353.091, 3.360
354.447, 1.197
355.802, 25.177
357.157, 3.088
358.512, 5.126
359.866, 4.143
361.221, 4.866
362.575, 21.752
363.928, 7.611
365.282, 18.479
366.636, 18.331
367.989, 3.883
369.342, 17.879
370.695, 17.622
372.047, 1.652
373.400, 4.059
374.752, 1.741
376.104, 7.447
377.455, 13.086
378.807, 2.749
380.158, 13.344
381.509, 23.933
382.860, 29.485
384.211, 20.107
385.561, 19.751
386.911, 55.269
388.261, 36.870
389.611, 47.363
390.961, 55.968
392.310, 49.540
393.659, 40.088
395.008, 28.631
396.357, 42.020
397.705, 56.486
399.053, 54.874
400.401, 41.293
401.749, 16.836
403.097, 47.071
404.444, 21.334
405.791, 58.758
407.138, 33.978
408.485, 39.225
409.832, 38.369
411.178, 40.624
412.524, 86.728
413.870, 49.685
415.216, 55.531
416.561, 25.523
417.906, 50.606
419.251, 43.697
420.596, 39.635
421.941, 58.581
423.285, 51.678
424.629, 59.715
425.973, 61.464
427.317, 64.360
428.661, 81.131
430.004, 58.842
431.347, 80.529
432.690, 74.721
434.032, 70.415
435.375, 84.041
436.717, 60.383
438.059, 55.884
439.401, 67.860
440.743, 68.209
442.084, 83.235
443.425, 62.168
444.766, 68.497
446.107, 37.268
447.447, 54.670
448.788, 86.351
450.128, 96.147
451.468, 77.457
452.807, 70.667
454.147, 66.327
455.486, 88.812
456.825, 82.480
458.164, 92.771
459.502, 99.314
460.841, 84.084
462.179, 67.361
463.517, 63.516
464.855, 62.714
466.192, 69.372
467.530, 52.443
468.867, 67.555
470.204, 74.940
471.540, 69.086
472.877, 60.362
474.213, 87.516
475.549, 67.404
476.885, 85.679
478.221, 89.759
479.556, 44.060
480.891, 89.376
482.226, 72.658
483.561, 62.068
484.895, 91.280
486.230, 77.293
487.564, 89.247
488.898, 87.825
490.232, 76.488
491.565, 79.958
492.898, 83.531
494.231, 63.714
495.564, 62.239
496.897, 68.298
498.229, 42.573
499.562, 66.879
500.894, 44.610
502.225, 69.835
503.557, 55.995
504.888, 44.160
506.220, 75.500
507.550, 70.016
508.881, 48.364
510.212, 80.126
511.542, 77.561
512.872, 73.630
514.202, 63.029
515.532, 71.410
516.861, 60.483
518.191, 69.659
519.520, 51.776
520.848, 64.012
522.177, 51.274
523.505, 73.363
524.834, 56.598
526.162, 81.917
527.489, 40.263
528.817, 30.517
530.144, 52.753
531.472, 30.175
532.798, 48.498
534.125, 19.856
535.452, 22.239
536.778, 22.578
538.104, 18.858
539.430, 47.071
540.756, 25.347
542.081, 37.767
543.406, 26.122
544.731, 3.820
546.056, 65.960
547.381, 45.311
548.705, 8.523
550.030, 44.842
551.354, 34.010
552.677, 51.158
554.001, 22.273
555.324, 42.386
556.647, 53.702
557.970, 36.943
559.293, 52.297
560.616, 14.406
561.938, 28.766
563.260, 40.202
564.582, 44.494
565.904, 7.865
567.225, 20.245
568.546, 62.562
569.868, 31.852
571.188, 52.221
572.509, 39.484
573.829, 44.620
575.150, 45.824
576.470, 43.238
577.790, 45.517
579.109, 53.467
580.429, 44.483
581.748, 68.471
583.067, 69.510
584.385, 85.545
585.704, 81.645
587.022, 65.644
588.340, 77.666
589.658, 66.540
590.976, 67.488
592.294, 68.581
593.611, 52.674
594.928, 67.717
596.245, 43.730
597.562, 77.722
598.878, 53.800
600.194, 64.864
601.510, 70.936
602.826, 77.005
604.142, 60.069
605.457, 63.063
606.773, 66.052
608.088, 62.281
609.402, 70.737
610.717, 68.975
612.031, 84.015
613.346, 94.042
614.660, 101.004
615.973, 118.219
617.287, 137.113
618.600, 140.114
619.913, 171.189
621.226, 164.241
622.539, 239.136
623.852, 230.170
625.164, 221.245
626.476, 224.224
627.788, 205.251
629.100, 173.277
630.411, 167.303
631.722, 145.325
633.033, 123.344
634.344, 119.359
635.655, 119.371
636.965, 109.355
638.276, 120.331
639.586, 102.391
640.896, 170.276
642.205, 128.274
643.515, 171.173
644.824, 140.174
646.133, 148.126
647.442, 145.025
648.750, 151.019
650.059, 144.011
651.367, 135.924
652.675, 117.914
653.983, 114.900
655.290, 86.885
656.598, 75.684
657.905, 49.848
659.212, 42.818
660.518, 39.795
661.825, 24.726
663.131, 41.699
664.437, 81.626
665.743, 144.597
667.049, 232.572
668.354, 338.550
669.660, 462.423
670.965, 628.250
672.270, 941.180
673.574, 939.002
674.879, 601.909
676.183, 269.681
677.487, 114.463
678.791, 61.245
680.095, 50.009
681.398, 25.903
682.701, 6.157
684.005, 15.543
685.307, 15.664
686.610, 4.978
687.912, 0.096
689.215, 2.223
690.517, 11.467
691.818, 16.335
693.120, 23.036
694.421, 26.725
695.723, 26.812
697.024, 26.669
698.324, 2.579
699.625, 4.591
700.925, 0.692
702.226, 6.969
703.526, 12.182
704.825, 7.345
706.125, 7.491
707.424, 9.818
708.723, 6.084
710.022, 5.079
711.321, 8.418
712.620, 1.456
713.918, 4.272
715.216, 9.111
716.514, 10.045
717.812, 18.784
719.109, 51.623
720.407, 34.484
721.704, 44.319
723.001, 57.178
724.297, 57.037
725.594, 55.894
726.890, 91.750
728.186, 93.606
729.482, 80.460
730.778, 73.315
732.073, 60.168
733.369, 57.021
734.664, 46.704
735.959, 61.723
737.253, 25.563
738.548, 44.412
739.842, 26.260
741.136, 47.107
742.430, 33.953
743.724, 20.798
745.017, 44.642
746.310, 13.486
747.603, 56.328
748.896, 14.170
750.189, 12.012
751.481, 6.853
752.774, 19.692
754.066, 17.531
755.357, 33.370
756.649, 2.208
757.941, 19.044
759.232, 7.880
760.523, 12.715
761.814, 24.548
763.104, 26.382
764.395, 5.215
765.685, 20.047
766.975, 42.878
768.265, 50.708
769.554, 21.538
770.844, 25.367
772.133, 30.196
773.422, 50.023
774.711, 56.850
775.999, 43.677
777.288, 57.503
778.576, 1.328
779.864, 27.153
781.152, 29.977
782.439, 18.801
783.727, 34.625
785.014, 28.448
786.301, 18.271
787.588, 20.094
788.874, 17.944
790.161, 28.738
791.447, 25.560
792.733, 29.381
794.019, 41.202
795.304, 27.023
796.590, 29.843
797.875, 65.663
799.160, 14.483
800.445, 32.302
801.729, 50.085
803.014, 22.904
804.298, 24.723
805.582, 4.541
806.865, 6.805
808.149, 34.177
809.432, 12.995
810.716, 39.814
811.999, 41.632
813.281, 37.451
814.564, 15.270
815.846, 61.090
817.128, 52.910
818.410, 47.731
819.692, 67.553
820.974, 35.362
822.255, 68.080
823.536, 72.843
824.817, 78.186
826.098, 83.904
827.379, 76.749
828.659, 96.417
829.939, 108.171
831.219, 115.948
832.499, 176.759
833.779, 304.586
835.058, 547.692
836.337, 878.531
837.616, 915.251
838.895, 682.877
840.173, 471.727
841.452, 300.307
842.730, 202.938
844.008, 186.509
845.286, 160.079
846.563, 103.598
847.841, 80.206
849.118, 121.840
850.395, 111.399
851.672, 110.133
852.948, 148.881
854.225, 140.654
855.501, 165.183
856.777, 179.004
858.053, 170.842
859.328, 192.680
860.604, 193.519
861.879, 141.358
863.154, 160.198
864.429, 146.038
865.703, 122.878
866.978, 113.719
868.252, 91.560
869.526, 81.402
870.800, 63.245
872.073, 93.088
873.347, 57.932
874.620, 75.776
875.893, 83.621
877.166, 77.470
878.438, 93.319
879.711, 80.763
880.983, 47.024
882.255, 64.878
883.527, 36.732
884.798, 35.568
886.070, 51.425
887.341, 54.268
888.612, 76.104
889.883, 42.918
891.154, 59.781
892.424, 75.645
893.694, 40.510
894.964, 78.310
896.234, 93.175
897.504, 73.007
898.773, 65.863
900.042, 56.733
901.312, 74.603
902.580, 54.427
903.849, 48.299
905.118, 51.172
906.386, 40.045
907.654, 34.918
908.922, 60.792
910.189, 36.668
911.457, 52.544
912.724, 36.420
913.991, 43.299
915.258, 52.179
916.525, 2.005
917.791, 43.887
919.058, 14.770
920.324, 0.653
921.590, 26.537
922.855, 23.421
924.121, 38.306
925.386, 33.195
926.651, 18.087
927.916, 52.979
929.181, 33.874
930.446, 19.771
931.710, 38.672
932.974, 29.573
934.238, 37.476
935.502, 49.380
936.765, 41.669
938.029, 35.192
939.292, 34.099
940.555, 32.012
941.818, 22.927
943.080, 15.821
944.343, 41.727
945.605, 6.648
946.867, 7.570
948.129, 32.493
949.390, 19.417
950.652, 27.340
951.913, 24.264
953.174, 41.188
954.435, 26.112
955.695, 40.038
956.956, 52.963
958.216, 57.889
959.476, 9.815
960.736, 44.742
961.995, 18.673
963.255, 9.396
964.514, 0.465
965.773, 2.467
967.032, 26.400
968.291, 14.333
969.549, 18.266
970.807, 14.802
972.066, 0.872
973.323, 11.058
974.581, 19.989
975.839, 9.080
977.096, 0.149
978.353, 10.218
979.610, 5.714
980.867, 13.646
982.123, 24.580
983.380, 17.515
984.636, 15.452
985.892, 19.389
987.147, 45.327
988.403, 29.266
989.658, 38.204
990.914, 58.144
992.169, 27.084
993.423, 52.024
994.678, 4.964
995.932, 50.904
997.187, 85.844
998.441, 82.783
999.694, 178.722
1000.948, 216.661
1002.201, 244.599
1003.455, 156.537
1004.708, 106.475
1005.961, 81.525
1007.213, 53.462
1008.466, 53.543
1009.718, 87.480
1010.970, 43.416
1012.222, 87.020
1013.474, 83.956
1014.725, 46.243
1015.976, 76.534
1017.227, 61.468
1018.478, 104.401
1019.729, 113.449
1020.980, 91.617
1022.230, 125.766
1023.480, 100.897
1024.730, 119.828
1025.980, 160.223
1027.229, 156.152
1028.479, 223.231
1029.728, 390.158
1030.977, 399.092
1032.226, 386.556
1033.474, 258.482
1034.723, 243.407
1035.971, 238.331
1037.219, 253.255
1038.467, 300.393
1039.714, 345.315
1040.962, 428.236
1042.209, 481.249
1043.456, 564.168
1044.703, 714.282
1045.950, 1035.200
1047.196, 1391.116
1048.443, 2172.454
1049.689, 3925.448
1050.935, 10444.361
1052.180, 38523.602
1053.426, 64302.512
1054.671, 58401.422
1055.916, 25500.414
1057.161, 10349.355
1058.406, 4660.262
1059.651, 2261.970
1060.895, 1202.333
1062.139, 836.236
1063.383, 600.586
1064.627, 480.825
1065.871, 388.557
1067.114, 339.455
1068.357, 266.546
1069.600, 237.490
1070.843, 205.647
1072.086, 223.916
1073.328, 176.807
1074.570, 192.552
1075.813, 196.930
1077.054, 189.329
1078.296, 206.214
1079.538, 145.492
1080.779, 200.636
1082.020, 191.646
1083.261, 147.524
1084.502, 174.400
1085.742, 135.274
1086.983, 133.146
1088.223, 153.017
1089.463, 123.060
1090.703, 124.927
1091.942, 161.792
1093.182, 116.656
1094.421, 159.554
1095.660, 89.601
1096.899, 97.459
1098.137, 80.343
1099.376, 85.191
1100.614, 124.044
1101.852, 116.894
1103.090, 90.743
1104.328, 109.590
1105.565, 89.157
1106.803, 106.991
1108.040, 123.832
1109.277, 76.671
1110.513, 126.360
1111.750, 72.191
1112.986, 41.851
1114.223, 118.683
1115.459, 69.513
1116.694, 56.341
1117.930, 63.168
1119.165, 46.993
1120.401, 44.815
1121.636, 56.636
1122.871, 33.455
1124.105, 58.273
1125.340, 19.088
1126.574, 42.902
1127.808, 55.713
1129.042, 38.523
1130.276, 81.331
1131.509, 53.138
1132.743, 41.942
1133.976, 26.745
1135.209, 55.546
1136.442, 38.345
1137.674, 52.143
1138.906, 2.061
1140.139, 60.732
1141.371, 3.477
1142.603, 19.311
1143.834, 34.097
1145.066, 26.119
1146.297, 18.657
1147.528, 12.568
1148.759, 12.799
1149.990, 10.965
1151.220, 7.728
1152.450, 2.511
1153.681, 7.753
1154.910, 7.000
1156.140, 6.250
1157.370, 27.496
1158.599, 17.760
1159.828, 24.979
1161.057, 4.285
1162.286, 7.448
1163.515, 5.180
1164.743, 21.090
1165.972, 31.633
1167.200, 13.354
1168.427, 19.074
1169.655, 32.792
1170.883, 7.491
1172.110, 22.222
1173.337, 5.934
1174.564, 2.357
1175.791, 15.351
1177.017, 6.944
1178.244, 12.759
1179.470, 40.459
1180.696, 16.842
1181.922, 2.148
1183.147, 44.543
1184.373, 12.767
1185.598, 57.918
1186.823, 36.602
1188.048, 2.716
1189.273, 0.036
1190.497, 22.642
1191.722, 33.681
1192.946, 19.013
1194.170, 4.649
1195.393, 18.690
1196.617, 14.035
1197.840, 35.385
1199.064, 46.257
1200.287, 8.103
1201.509, 1.466
1202.732, 1.831
1203.954, 25.198
1205.177, 2.429
1206.399, 36.946
1207.621, 21.330
1208.842, 22.406
1210.064, 10.885
1211.285, 17.511
1212.506, 11.913
1213.727, 6.318
1214.948, 24.275
1216.169, 1.866
1217.389, 37.458
1218.609, 29.048
1219.829, 44.637
1221.049, 8.774
1222.269, 45.813
1223.488, 7.398
1224.708, 25.984
1225.927, 2.431
1227.146, 9.848
1228.364, 20.734
1229.583, 9.686
1230.801, 24.894
1232.019, 76.473
1233.237, 15.052
1234.455, 33.630
1235.673, 68.209
1236.890, 50.787
1238.107, 60.366
1239.324, 67.946
1240.541, 51.526
1241.758, 80.106
1242.975, 41.687
1244.191, 56.268
1245.407, 81.850
1246.623, 34.432
1247.839, 96.015
1249.054, 90.599
1250.270, 63.182
1251.485, 99.767
1252.700, 51.352
1253.915, 93.938
1255.129, 86.524
1256.344, 63.112
1257.558, 124.700
1258.772, 104.289
1259.986, 46.880
1261.200, 136.472
1262.413, 88.066
1263.627, 112.662
1264.840, 171.260
1266.053, 102.859
1267.266, 212.461
1268.478, 153.064
1269.691, 182.672
1270.903, 201.169
1272.115, 231.777
1273.327, 185.241
1274.539, 227.849
1275.750, 177.457
1276.961, 209.396
1278.173, 226.004
1279.384, 213.260
1280.594, 245.511
1281.805, 212.120
1283.015, 185.728
1284.226, 223.222
1285.436, 189.594
1286.646, 183.986
1287.855, 265.397
1289.065, 218.007
1290.274, 253.153
1291.483, 260.764
1292.692, 301.227
1293.901, 323.840
1295.109, 335.448
1296.318, 303.525
1297.526, 316.140
1298.734, 283.757
1299.942, 350.375
1301.150, 357.994
1302.357, 345.398
1303.564, 421.020
1304.771, 395.643
1305.978, 470.175
1307.185, 467.802
1308.392, 447.233
1309.598, 507.863
1310.804, 534.495
1312.010, 501.706
1313.216, 567.262
1314.422, 580.900
1315.627, 587.216
1316.832, 676.858
1318.037, 657.503
1319.242, 673.065
1320.447, 699.681
1321.652, 646.333
1322.856, 714.187
1324.060, 694.385
1325.264, 654.046
1326.468, 741.261
1327.672, 670.589
1328.875, 666.426
1330.078, 732.098
1331.281, 681.578
1332.484, 743.208
1333.687, 747.835
1334.890, 656.933
1336.092, 815.621
1337.294, 771.456
1338.496, 770.660
1339.698, 901.844
1340.900, 862.545
1342.101, 931.854
1343.302, 990.300
1344.503, 983.883
1345.704, 1120.599
1346.905, 1213.320
1348.106, 1265.046
1349.306, 1470.776
1350.506, 1559.510
1351.706, 1745.075
1352.906, 2088.820
1354.106, 2210.569
1355.305, 2524.323
1356.504, 2903.047
1357.703, 3021.625
1358.902, 3628.396
1360.101, 3839.994
1361.300, 4056.776
1362.498, 4585.566
1363.696, 4541.361
1364.894, 4272.163
1366.092, 4347.971
1367.290, 3822.787
1368.487, 3518.610
1369.684, 3181.440
1370.881, 2647.278
1372.078, 2407.124
1373.275, 2090.978
1374.472, 1776.841
1375.668, 1688.712
1376.864, 1355.594
1378.060, 1248.485
1379.256, 1138.386
1380.452, 925.297
1381.647, 926.220
1382.842, 806.155
1384.038, 714.102
1385.233, 737.062
1386.427, 608.035
1387.622, 521.023
1388.816, 553.027
1390.010, 475.047
1391.204, 410.359
1392.398, 338.416
1393.592, 291.493
1394.785, 309.722
1395.979, 297.846
1397.172, 193.954
1398.365, 261.541
1399.558, 213.624
1400.750, 197.202
1401.943, 226.933
1403.135, 196.668
1404.327, 229.412
1405.519, 250.166
1406.710, 186.925
1407.902, 222.691
1409.093, 244.465
1410.284, 229.247
1411.475, 280.037
1412.666, 229.832
1413.857, 197.638
1415.047, 238.448
1416.238, 224.265
1417.428, 248.088
1418.617, 245.917
1419.807, 218.754
1420.997, 257.599
1422.186, 221.453
1423.375, 215.317
1424.564, 252.187
1425.753, 244.065
1426.942, 179.961
1428.130, 254.869
1429.318, 208.796
1430.507, 201.737
1431.694, 274.688
1432.882, 191.654
1434.070, 228.642
1435.257, 267.649
1436.444, 216.672
1437.631, 321.707
1438.818, 280.752
1440.005, 298.805
1441.191, 365.871
1442.378, 269.945
1443.564, 381.032
1444.750, 432.130
1445.936, 362.240
1447.121, 397.359
1448.307, 425.488
1449.492, 340.626
1450.677, 484.773
1451.862, 422.929
1453.047, 499.094
1454.231, 530.268
1455.415, 442.449
1456.600, 518.638
1457.784, 556.835
1458.967, 507.038
1460.151, 558.244
1461.335, 599.451
1462.518, 471.658
1463.701, 551.863
1464.884, 561.070
1466.067, 548.297
1467.249, 626.543
1468.432, 517.809
1469.614, 536.096
1470.796, 663.403
1471.978, 572.731
1473.159, 614.082
1474.341, 642.455
1475.522, 546.852
1476.703, 627.274
1477.884, 652.720
1479.065, 585.193
1480.246, 652.690
1481.426, 585.214
1482.607, 539.763
1483.787, 611.338
1484.967, 489.940
1486.146, 533.569
1487.326, 509.228
1488.505, 415.916
1489.685, 452.635
1490.864, 379.387
1492.042, 315.173
1493.221, 326.997
1494.400, 298.860
1495.578, 203.767
1496.756, 238.723
1497.934, 185.731
1499.112, 148.795
1500.289, 208.917
1501.467, 125.100
1502.644, 118.349
1503.821, 152.667
1504.998, 73.060
1506.175, 153.531
1507.351, 95.089
1508.528, 73.741
1509.704, 90.496
1510.880, 54.364
1512.056, 44.357
1513.232, 89.489
1514.407, 27.774
1515.582, 48.229
1516.758, 85.875
1517.933, 3.263
1519.107, 86.847
1520.282, 84.241
1521.456, 13.963
1522.631, 72.065
1523.805, 60.172
1524.979, 4.818
1526.152, 120.849
1527.326, 0.000
##END=



