##NAMES=Cerussite
##RRUFFID=R060017
##IDEAL CHEMISTRY=Pb^2+^CO_3_
##LOCALITY=Gonessa, Sardinia, Italy
##OWNER=RRUFF
##SOURCE=American Museum of Natural History
##DESCRIPTION=White reticulated composite
##STATUS=The identification of this mineral has been confirmed by X-ray diffraction and chemical analysis
##URL=rruff.info/R060017
##MEASURED CHEMISTRY=Pb_1.00_CO_3_ C not measured but estimated by difference and stoichiometry
##PIN_ID=M00261
##ORIENTATION=Laser parallel to a* (1 0 0). Fiducial mark perpendicular to laser is parallel to b [0 1 0]
51.43100, 0.0000000E+00
52.67100, 89.98413
53.91000, 216.2615
55.14900, 188.6091
56.38700, 39.43274
57.62600, 69.91296
58.86400, 68.17139
60.10300, 113.3185
61.34100, 349.8145
62.57900, 874.0920
63.81700, 1443.326
65.05400, 2291.012
66.29200, 3066.910
67.52900, 3962.990
68.76700, 4800.392
70.00400, 5292.391
71.24100, 5491.367
72.47700, 5564.755
73.71400, 5616.057
74.95100, 5144.838
76.18700, 4930.723
77.42300, 4960.385
78.65900, 4864.539
79.89500, 4931.934
81.13100, 4998.347
82.36700, 5250.583
83.60200, 5475.464
84.83700, 5859.836
86.07200, 6250.562
87.30800, 6832.522
88.54200, 7622.605
89.77700, 8470.652
91.01200, 9264.482
92.24600, 10119.22
93.48000, 10931.97
94.71400, 11828.44
95.94800, 12690.29
97.18200, 13545.45
98.41600, 14283.86
99.64900, 14831.48
100.8830, 14929.98
102.1160, 15039.14
103.3490, 14455.09
104.5820, 13806.09
105.8150, 12899.09
107.0470, 11864.06
108.2800, 10724.96
109.5120, 9951.785
110.7440, 9330.479
111.9760, 8953.029
113.2080, 9018.403
114.4400, 8813.591
115.6710, 8825.599
116.9030, 8757.355
118.1340, 8659.326
119.3650, 8829.186
120.5960, 8569.233
121.8270, 8668.080
123.0580, 8741.679
124.2880, 8649.973
125.5190, 8776.797
126.7490, 8988.680
127.9790, 9147.493
129.2090, 9409.321
130.4390, 9463.267
131.6680, 9256.563
132.8980, 9505.011
134.1270, 9378.753
135.3560, 9210.791
136.5850, 9495.183
137.8140, 9406.002
139.0430, 9443.222
140.2710, 9590.791
141.5000, 9874.674
142.7280, 10183.91
143.9560, 10316.51
145.1840, 10565.50
146.4120, 10775.87
147.6390, 10878.57
148.8670, 10819.69
150.0940, 10778.23
151.3210, 10424.07
152.5490, 10206.24
153.7750, 9658.800
155.0020, 9099.729
156.2290, 8581.029
157.4550, 7991.708
158.6810, 7701.742
159.9080, 7164.117
161.1340, 6984.803
162.3590, 6976.792
163.5850, 6859.119
164.8110, 6832.750
166.0360, 7052.657
167.2610, 7229.830
168.4860, 7264.307
169.7110, 7512.082
170.9360, 7510.138
172.1610, 7524.461
173.3850, 7678.058
174.6100, 7716.910
175.8340, 7592.044
177.0580, 7098.326
178.2820, 6777.175
179.5050, 6470.023
180.7290, 6116.126
181.9520, 5758.476
183.1760, 5331.296
184.3990, 5020.722
185.6220, 4672.165
186.8450, 4243.490
188.0670, 4036.580
189.2900, 3742.701
190.5120, 3664.455
191.7340, 3394.095
192.9560, 3305.414
194.1780, 3350.755
195.4000, 3241.460
196.6220, 3039.273
197.8430, 3010.281
199.0640, 2965.470
200.2860, 2981.938
201.5070, 2930.319
202.7270, 2840.173
203.9480, 2775.577
205.1690, 2635.955
206.3890, 2704.616
207.6090, 2740.011
208.8290, 2884.899
210.0490, 2778.775
211.2690, 2700.501
212.4890, 2858.269
213.7080, 2713.064
214.9280, 2692.230
216.1470, 2645.514
217.3660, 2778.085
218.5850, 2778.035
219.8030, 2681.684
221.0220, 2529.614
222.2400, 2810.166
223.4590, 2566.883
224.6770, 2591.355
225.8950, 2545.064
227.1120, 2474.283
228.3300, 2589.500
229.5480, 2555.026
230.7650, 2271.911
231.9820, 2342.087
233.1990, 2370.581
234.4160, 2211.329
235.6330, 2311.747
236.8490, 2167.820
238.0660, 2193.582
239.2820, 2275.385
240.4980, 2211.468
241.7140, 2138.824
242.9300, 2116.445
244.1460, 1920.497
245.3610, 1936.772
246.5770, 1927.302
247.7920, 1593.712
249.0070, 1599.326
250.2220, 1413.135
251.4370, 1364.283
252.6510, 1230.970
253.8660, 1148.674
255.0800, 1168.212
256.2940, 1083.092
257.5080, 1002.509
258.7220, 950.5820
259.9360, 809.1934
261.1490, 664.8828
262.3630, 555.9658
263.5760, 478.2246
264.7890, 436.1543
266.0020, 451.5801
267.2150, 309.8799
268.4270, 479.2412
269.6400, 267.5088
270.8520, 297.2568
272.0640, 339.3965
273.2760, 305.4092
274.4880, 308.0254
275.7000, 242.9102
276.9120, 265.9824
278.1230, 264.1738
279.3340, 289.7607
280.5450, 307.1904
281.7560, 241.7344
282.9670, 95.36621
284.1780, 210.1338
285.3880, 113.7471
286.5980, 184.3740
287.8090, 143.6553
289.0190, 331.4863
290.2290, 64.96094
291.4380, 78.62598
292.6480, 85.97754
293.8570, 264.0254
295.0670, 99.72363
296.2760, 42.24512
297.4850, 83.72852
298.6930, 47.70996
299.9020, 65.91504
301.1110, 5.292969
302.3190, 84.14160
303.5270, 33.91602
304.7350, 78.30762
305.9430, 165.1240
307.1510, 84.03223
308.3580, 27.16895
309.5660, 17.64551
310.7730, 51.56543
311.9800, 45.59082
313.1870, 94.67676
314.3940, 9.431641
315.6010, 51.53027
316.8070, 18.35059
318.0130, 14.67090
319.2200, 15.23828
320.4260, 7.724609
321.6310, 71.41797
322.8370, 86.19238
324.0430, 61.76270
325.2480, 136.6592
326.4540, 85.05371
327.6590, 28.49414
328.8640, 110.7207
330.0680, 95.09180
331.2730, 104.5723
332.4780, 125.5752
333.6820, 104.1582
334.8860, 54.08398
336.0900, 60.32324
337.2940, 48.18359
338.4980, 2.930664
339.7010, 86.13281
340.9050, 72.25684
342.1080, 23.24902
343.3110, 154.7686
344.5140, 133.3916
345.7170, 130.3096
346.9200, 26.60547
348.1220, 87.92871
349.3240, 118.6650
350.5270, 97.42773
351.7290, 151.8398
352.9310, 34.04492
354.1320, 93.68164
355.3340, 39.72363
356.5350, 48.39258
357.7370, 7.026367
358.9380, 75.35059
360.1390, 134.1699
361.3400, 25.09277
362.5400, 84.63379
363.7410, 76.01074
364.9410, 138.7676
366.1410, 118.5273
367.3410, 87.85840
368.5410, 94.36914
369.7410, 64.98535
370.9400, 42.48730
372.1400, 68.88086
373.3390, 3.488281
374.5380, 50.97266
375.7370, 49.49316
376.9360, 48.27930
378.1350, 21.12793
379.3330, 94.57910
380.5310, 13.02246
381.7300, 42.74707
382.9280, 36.05078
384.1260, 78.60254
385.3230, 13.08984
386.5210, 51.19043
387.7180, 96.92090
388.9160, 53.88379
390.1130, 73.16602
391.3100, 82.53418
392.5060, 125.5186
393.7030, 149.5898
394.9000, 63.37695
396.0960, 3.359375
397.2920, 59.54785
398.4880, 86.85352
399.6840, 51.29980
400.8800, 66.73438
402.0750, 7.182617
403.2710, 29.31543
404.4660, 15.05273
405.6610, 8.470703
406.8560, 6.265625
408.0510, 34.70801
409.2450, 20.50977
410.4400, 55.75293
411.6340, 60.51758
412.8280, 70.43848
414.0220, 60.84180
415.2160, 90.12207
416.4100, 15.27734
417.6030, 6.868164
418.7970, 82.57715
419.9900, 159.3711
421.1830, 157.4180
422.3760, 79.63867
423.5690, 152.5049
424.7610, 177.2529
425.9540, 17.46582
427.1460, 160.1982
428.3380, 78.08594
429.5300, 31.24512
430.7220, 146.2832
431.9140, 88.32324
433.1050, 153.5098
434.2970, 105.8828
435.4880, 88.42383
436.6790, 145.2422
437.8700, 183.4990
439.0610, 99.16113
440.2510, 53.10352
441.4420, 239.7383
442.6320, 121.8037
443.8220, 189.8936
445.0120, 171.4570
446.2020, 151.0205
447.3910, 237.6016
448.5810, 72.17773
449.7700, 132.8213
450.9600, 173.4307
452.1490, 124.0547
453.3370, 148.5176
454.5260, 227.9893
455.7150, 351.3545
456.9030, 210.3145
458.0910, 340.7510
459.2800, 219.5205
460.4670, 146.7500
461.6550, 142.9912
462.8430, 116.3711
464.0300, 295.5908
465.2180, 244.9307
466.4050, 286.7090
467.5920, 197.0342
468.7790, 235.3652
469.9650, 273.0332
471.1520, 227.9141
472.3380, 281.7266
473.5250, 348.9375
474.7110, 235.1885
475.8970, 278.3066
477.0820, 282.5371
478.2680, 187.6855
479.4540, 223.6279
480.6390, 227.8467
481.8240, 249.9961
483.0090, 264.9941
484.1940, 246.3750
485.3780, 166.0244
486.5630, 131.2686
487.7470, 300.2119
488.9320, 199.1787
490.1160, 257.2227
491.3000, 189.2480
492.4830, 202.4023
493.6670, 271.2217
494.8500, 238.7461
496.0340, 116.6240
497.2170, 237.2852
498.4000, 120.8145
499.5820, 212.9580
500.7650, 152.6934
501.9480, 73.63574
503.1300, 285.9893
504.3120, 150.5645
505.4940, 243.2422
506.6760, 358.6748
507.8580, 175.2578
509.0390, 211.6328
510.2210, 227.2295
511.4020, 161.0713
512.5830, 155.5430
513.7640, 269.7012
514.9450, 54.41699
516.1250, 329.8838
517.3060, 250.6768
518.4860, 154.1787
519.6660, 123.5459
520.8460, 125.7979
522.0260, 392.2139
523.2060, 187.7246
524.3850, 241.7822
525.5650, 273.0225
526.7440, 126.1982
527.9230, 144.3047
529.1020, 157.3428
530.2810, 206.1445
531.4590, 267.9111
532.6380, 293.6094
533.8160, 141.6064
534.9940, 201.5752
536.1720, 258.5342
537.3500, 190.3174
538.5270, 281.7188
539.7050, 122.2578
540.8820, 105.1045
542.0590, 58.74707
543.2360, 199.1426
544.4130, 226.6914
545.5900, 169.9971
546.7660, 197.3516
547.9430, 253.4355
549.1190, 202.1260
550.2950, 220.9404
551.4710, 169.0342
552.6470, 226.3594
553.8220, 196.5605
554.9980, 156.2959
556.1730, 166.4756
557.3480, 177.3584
558.5230, 142.4629
559.6980, 235.0557
560.8730, 77.47852
562.0470, 178.9961
563.2220, 167.0928
564.3960, 124.8535
565.5700, 242.5186
566.7440, 171.8154
567.9170, 292.0010
569.0910, 199.1982
570.2640, 171.3799
571.4380, 175.8428
572.6110, 106.7324
573.7840, 162.2090
574.9570, 147.6680
576.1290, 132.9277
577.3020, 194.1602
578.4740, 153.1494
579.6460, 221.1133
580.8180, 25.26172
581.9900, 207.4990
583.1620, 91.72656
584.3330, 182.1963
585.5040, 254.2920
586.6760, 204.6895
587.8470, 266.3047
589.0180, 286.9912
590.1880, 196.6533
591.3590, 55.92969
592.5290, 194.0186
593.7000, 111.8174
594.8700, 229.2158
596.0400, 82.87988
597.2090, 309.3711
598.3790, 287.7178
599.5490, 255.1719
600.7180, 222.5244
601.8870, 219.6279
603.0560, 215.7979
604.2250, 103.4697
605.3940, 217.0098
606.5620, 300.5645
607.7300, 259.1006
608.8990, 183.8037
610.0670, 332.4873
611.2350, 290.7578
612.4020, 346.0059
613.5700, 245.2480
614.7370, 309.6572
615.9050, 250.2461
617.0720, 365.4512
618.2390, 235.6543
619.4060, 236.4209
620.5720, 360.5566
621.7390, 283.4189
622.9050, 330.4531
624.0710, 474.5693
625.2370, 331.5635
626.4030, 237.0879
627.5690, 257.3584
628.7340, 285.4482
629.9000, 211.0010
631.0650, 280.0381
632.2300, 199.2744
633.3950, 235.3701
634.5600, 229.4082
635.7240, 269.3623
636.8890, 235.5098
638.0530, 230.3955
639.2170, 235.9590
640.3810, 246.5518
641.5450, 258.3916
642.7080, 241.2812
643.8720, 236.3076
645.0350, 234.7129
646.1980, 206.7139
647.3610, 253.6855
648.5240, 360.5684
649.6870, 258.1514
650.8490, 94.72656
652.0120, 157.7168
653.1740, 193.9346
654.3360, 138.9365
655.4980, 257.7920
656.6600, 115.7871
657.8210, 160.7373
658.9830, 53.14160
660.1440, 111.0986
661.3050, 199.0771
662.4660, 209.4619
663.6270, 243.7998
664.7870, 213.6777
665.9480, 292.6074
667.1080, 397.7236
668.2680, 436.2383
669.4280, 559.9854
670.5880, 680.6348
671.7480, 689.2559
672.9070, 781.4453
674.0670, 739.5420
675.2260, 806.0869
676.3850, 853.0186
677.5440, 909.4170
678.7030, 1010.266
679.8610, 1152.510
681.0200, 1123.575
682.1780, 989.1846
683.3360, 791.7510
684.4940, 669.5225
685.6520, 568.0703
686.8090, 568.3955
687.9670, 435.2432
689.1240, 517.9443
690.2810, 536.7314
691.4380, 580.0684
692.5950, 758.8770
693.7520, 626.5420
694.9080, 649.6895
696.0650, 422.9707
697.2210, 337.3760
698.3770, 182.3281
699.5330, 204.1436
700.6880, 105.8662
701.8440, 32.33105
702.9990, 27.38477
704.1550, 69.23145
705.3100, 128.9570
706.4650, 15.78809
707.6190, 138.9141
708.7740, 28.45410
709.9290, 184.7031
711.0830, 226.0488
712.2370, 129.3838
713.3910, 143.5537
714.5450, 108.5273
715.6980, 113.3145
716.8520, 9.193359
718.0050, 125.8398
719.1580, 172.4541
720.3110, 229.7695
721.4640, 55.49316
722.6170, 177.6426
723.7700, 56.00781
724.9220, 146.5938
726.0740, 15.87891
727.2260, 197.6777
728.3780, 59.22559
729.5300, 303.6738
730.6810, 282.1348
731.8330, 195.5625
732.9840, 170.1582
734.1350, 92.70996
735.2860, 194.8027
736.4370, 123.3184
737.5880, 264.8252
738.7380, 187.3242
739.8880, 72.81348
741.0390, 44.30176
742.1890, 0.7744140
743.3380, 73.28613
744.4880, 10.24609
745.6380, 64.22363
746.7870, 109.6621
747.9360, 30.96191
749.0850, 151.3838
750.2340, 75.14062
751.3830, 119.6318
752.5310, 9.969727
753.6800, 19.18750
754.8280, 136.1709
755.9760, 5.477539
757.1240, 21.85645
758.2720, 66.81641
759.4190, 106.4668
760.5670, 167.7451
761.7140, 119.5049
762.8610, 193.7695
764.0080, 168.0283
765.1550, 23.28613
766.3020, 157.5430
767.4480, 57.79199
768.5950, 108.3877
769.7410, 64.62598
770.8870, 3.820313
772.0330, 107.0439
773.1780, 89.25977
774.3240, 11.44824
775.4690, 105.6562
776.6140, 110.1738
777.7590, 92.37988
778.9040, 32.58105
780.0490, 97.77930
781.1940, 114.1494
782.3380, 120.3525
783.4820, 62.55664
784.6260, 123.8955
785.7700, 1.914063
786.9140, 124.2666
788.0580, 3.443359
789.2010, 9.624023
790.3450, 40.96289
791.4880, 125.6074
792.6310, 95.07324
793.7730, 114.2266
794.9160, 133.0195
796.0590, 20.38965
797.2010, 130.5088
798.3430, 173.4746
799.4850, 37.72852
800.6270, 127.8574
801.7690, 185.0000
802.9100, 142.1182
804.0520, 166.2314
805.1930, 226.3447
806.3340, 115.4590
807.4750, 85.57129
808.6160, 102.6787
809.7560, 125.7793
810.8970, 17.08496
812.0370, 60.00391
813.1770, 82.75293
814.3170, 247.8867
815.4570, 138.9180
816.5960, 229.9414
817.7360, 59.44531
818.8750, 295.4717
820.0140, 234.5176
821.1530, 109.5469
822.2920, 189.5703
823.4310, 311.6064
824.5690, 97.62305
825.7070, 322.0117
826.8460, 493.0166
827.9840, 400.0146
829.1220, 621.0088
830.2590, 818.9971
831.3970, 979.9424
832.5340, 1198.053
833.6710, 1389.833
834.8080, 1718.806
835.9450, 1952.774
837.0820, 1861.963
838.2190, 1717.847
839.3550, 1151.057
840.4910, 985.2412
841.6270, 613.8770
842.7630, 413.7373
843.8990, 176.7051
845.0350, 257.8408
846.1700, 123.9893
847.3060, 346.9199
848.4410, 302.8447
849.5760, 202.7051
850.7100, 381.6240
851.8450, 298.3975
852.9800, 500.1934
854.1140, 267.6006
855.2480, 136.4473
856.3820, 339.3486
857.5160, 64.25781
858.6500, 208.7393
859.7830, 299.6426
860.9170, 289.1426
862.0500, 173.0342
863.1830, 211.2686
864.3160, 127.1504
865.4480, 204.6943
866.5810, 147.5811
867.7130, 105.4697
868.8460, 74.35547
869.9780, 78.24316
871.1100, 209.9854
872.2410, 147.8711
873.3730, 207.7520
874.5050, 217.8545
875.6360, 228.2607
876.7670, 229.6826
877.8980, 264.6094
879.0290, 175.5107
880.1590, 150.2109
881.2900, 76.83105
882.4200, 93.48145
883.5500, 118.3193
884.6800, 213.6992
885.8100, 33.56348
886.9400, 64.24414
888.0690, 127.0947
889.1990, 25.76562
890.3280, 163.1221
891.4570, 87.99121
892.5860, 109.8350
893.7140, 142.1162
894.8430, 159.6445
895.9710, 126.4707
897.1000, 58.68848
898.2280, 171.1172
899.3560, 117.9209
900.4830, 253.7168
901.6110, 115.9756
902.7380, 243.7891
903.8660, 26.38184
904.9930, 283.1807
906.1200, 208.8164
907.2460, 94.84277
908.3730, 162.6465
909.5000, 97.61719
910.6260, 146.3945
911.7520, 30.14648
912.8780, 222.9346
914.0040, 271.6709
915.1290, 182.0117
916.2550, 48.79980
917.3800, 85.61621
918.5050, 161.4268
919.6300, 51.05469
920.7550, 186.9043
921.8800, 122.9131
923.0040, 135.8066
924.1290, 20.90332
925.2530, 82.29785
926.3770, 31.84570
927.5010, 89.04102
928.6250, 197.6523
929.7480, 72.39746
930.8720, 19.86426
931.9950, 140.1855
933.1180, 41.90332
934.2410, 54.61426
935.3640, 107.8926
936.4860, 76.62305
937.6090, 173.3066
938.7310, 142.0127
939.8530, 105.7100
940.9750, 208.4072
942.0970, 213.1260
943.2180, 183.0576
944.3400, 179.4980
945.4610, 73.21191
946.5820, 124.4609
947.7030, 4.817383
948.8240, 55.80078
949.9450, 162.4785
951.0650, 174.1484
952.1860, 22.16504
953.3060, 140.2490
954.4260, 77.91992
955.5460, 113.5830
956.6650, 126.2383
957.7850, 77.88477
958.9040, 109.6992
960.0230, 22.33203
961.1420, 185.9521
962.2610, 126.5635
963.3800, 111.1680
964.4990, 211.7637
965.6170, 9.648438
966.7350, 52.92188
967.8530, 5.508789
968.9710, 95.04492
970.0890, 105.5898
971.2070, 42.12598
972.3240, 56.65137
973.4410, 72.16797
974.5580, 122.6797
975.6750, 58.19727
976.7920, 199.7061
977.9090, 167.2051
979.0250, 41.70605
980.1410, 244.2705
981.2580, 281.7588
982.3740, 307.2363
983.4890, 205.7061
984.6050, 242.1680
985.7200, 292.6191
986.8360, 150.0615
987.9510, 331.4951
989.0660, 390.9268
990.1810, 144.3486
991.2950, 243.7607
992.4100, 219.0410
993.5240, 357.4482
994.6390, 229.8506
995.7530, 275.2510
996.8660, 331.6406
997.9800, 303.0312
999.0940, 434.1123
1000.207, 354.1719
1001.320, 387.9639
1002.433, 263.3164
1003.546, 284.0332
1004.659, 295.6162
1005.772, 152.9814
1006.884, 92.29102
1007.996, 284.5898
1009.108, 219.8789
1010.220, 188.1562
1011.332, 106.4238
1012.444, 114.7227
1013.555, 83.19141
1014.666, 150.5850
1015.777, 163.9707
1016.888, 227.1953
1017.999, 156.4092
1019.110, 213.6133
1020.220, 274.4619
1021.331, 241.8633
1022.441, 367.9355
1023.551, 404.0693
1024.661, 416.2266
1025.770, 359.3857
1026.880, 337.6973
1027.989, 437.8242
1029.098, 488.9580
1030.207, 460.0801
1031.316, 368.7002
1032.425, 351.4346
1033.533, 349.5186
1034.642, 361.8105
1035.750, 419.0254
1036.858, 464.0742
1037.966, 463.7568
1039.073, 571.9258
1040.181, 586.0713
1041.288, 844.0703
1042.396, 1048.176
1043.503, 1493.168
1044.610, 2610.783
1045.716, 5229.492
1046.823, 9686.596
1047.929, 13277.51
1049.036, 17788.82
1050.142, 26054.55
1051.248, 33255.43
1052.353, 37755.29
1053.459, 38203.68
1054.564, 33109.99
1055.670, 22245.15
1056.775, 10129.95
1057.880, 4221.348
1058.985, 2127.016
1060.089, 1226.826
1061.194, 778.0176
1062.298, 653.7520
1063.402, 559.4336
1064.506, 475.8066
1065.610, 350.4922
1066.713, 304.9434
1067.817, 309.7734
1068.920, 234.7656
1070.023, 343.0234
1071.126, 232.4805
1072.229, 337.0742
1073.332, 487.8730
1074.435, 324.7422
1075.537, 436.3262
1076.639, 371.4609
1077.741, 205.9707
1078.843, 316.4590
1079.945, 345.9414
1081.046, 416.7109
1082.148, 176.0781
1083.249, 179.5273
1084.350, 343.5781
1085.451, 211.5156
1086.551, 281.6016
1087.652, 203.9707
1088.752, 316.3379
1089.853, 251.6836
1090.953, 118.0000
1092.053, 216.3105
1093.152, 302.2246
1094.252, 271.5020
1095.351, 318.5918
1096.451, 394.0039
1097.550, 280.2285
1098.649, 290.4746
1099.748, 214.2148
1100.846, 284.5820
1101.945, 289.7383
1103.043, 299.8770
1104.141, 225.7734
1105.239, 222.7617
1106.337, 280.9395
1107.434, 221.0098
1108.532, 310.9512
1109.629, 259.9883
1110.726, 297.3770
1111.823, 128.7754
1112.920, 340.4082
1114.017, 317.3770
1115.113, 303.3281
1116.210, 741.2637
1117.306, 492.1816
1118.402, 709.0820
1119.498, 589.9648
1120.593, 721.8340
1121.689, 684.6836
1122.784, 723.5176
1123.879, 540.1074
1124.974, 414.3496
1126.069, 359.3125
1127.164, 144.2305
1128.259, 189.9844
1129.353, 201.3086
1130.447, 5.972656
1131.541, 108.6934
1132.635, 246.3438
1133.729, 133.9766
1134.822, 36.59180
1135.916, 83.17969
1137.009, 120.7500
1138.102, 215.3027
1139.195, 139.8301
1140.288, 177.0469
1141.380, 248.8535
1142.473, 128.3398
1143.565, 142.8105
1144.657, 76.26562
1145.749, 15.65430
1146.841, 81.94336
1147.932, 122.3711
1149.024, 122.6699
1150.115, 361.9551
1151.206, 124.2246
1152.297, 63.47852
1153.388, 40.71680
1154.479, 87.85938
1155.569, 158.2656
1156.659, 105.4473
1157.750, 71.54492
1158.839, 157.6250
1159.929, 190.6934
1161.019, 157.0137
1162.108, 136.7812
1163.198, 41.81836
1164.287, 113.8359
1165.376, 60.16211
1166.465, 83.77148
1167.553, 150.6914
1168.642, 146.5957
1169.730, 43.50977
1170.818, 58.32422
1171.906, 89.14453
1172.994, 21.95117
1174.082, 130.7344
1175.170, 54.47070
1176.257, 77.73828
1177.344, 32.07812
1178.431, 98.53125
1179.518, 100.8711
1180.605, 130.6406
1181.691, 176.1426
1182.778, 137.6328
1183.864, 171.8906
1184.950, 169.5332
1186.036, 29.70703
1187.122, 65.92969
1188.207, 101.1445
1189.292, 104.3477
1190.378, 116.2051
1191.463, 114.5176
1192.548, 82.00781
1193.632, 121.2227
1194.717, 48.42969
1195.801, 102.6367
1196.886, 150.8320
1197.970, 32.98242
1199.054, 36.16406
1200.137, 150.3027
1201.221, 12.56836
1202.305, 42.53125
1203.388, 4.375000
1204.471, 86.30273
1205.554, 3.294922
1206.637, 29.12695
1207.719, 143.6484
1208.802, 16.59570
1209.884, 146.5332
1210.966, 144.4629
1212.048, 64.39062
1213.130, 184.3086
1214.212, 83.77734
1215.293, 253.0781
1216.374, 39.06641
1217.456, 115.7559
1218.536, 103.5742
1219.617, 88.38477
1220.698, 94.18945
1221.778, 80.81250
1222.859, 172.6055
1223.939, 117.3945
1225.019, 167.7578
1226.099, 8.957031
1227.178, 173.7305
1228.258, 71.50000
1229.337, 33.73242
1230.417, 21.01758
1231.496, 68.76562
1232.574, 68.51172
1233.653, 56.86133
1234.732, 66.23828
1235.810, 2.275391
1236.888, 62.45508
