##NAMES=Cerussite
##RRUFFID=R050298
##IDEAL CHEMISTRY=Pb^2+^CO_3_
##LOCALITY=Bunker Hill mine, Shoshone County, Idaho, USA
##OWNER=RRUFF
##SOURCE=Eugene Schlepp
##DESCRIPTION=Group of colorless tabular crystals
##STATUS=The identification of this mineral has been confirmed by X-ray diffraction and chemical analysis
##URL=rruff.info/R050298
##MEASURED CHEMISTRY=Pb_1.00_CO_3_
##PIN_ID=L01888
##ORIENTATION=Laser parallel to b* (0 1 0). Fiducial mark perpendicular to laser is parallel to -c [0 0 -1]
51.43100, 0.0000000E+00
52.67100, 56.19672
53.91000, 51.57953
55.14900, 100.1443
56.38700, 79.78815
57.62600, 21.32794
58.86400, 9.039734
60.10300, 39.38654
61.34100, 17.62091
62.57900, 17.26941
63.81700, 45.13416
65.05400, 203.1288
66.29200, 334.3207
67.52900, 552.3741
68.76700, 835.0048
70.00400, 1123.974
71.24100, 1505.070
72.47700, 1920.104
73.71400, 2412.900
74.95100, 2729.308
76.18700, 2971.195
77.42300, 2890.441
78.65900, 2863.947
79.89500, 2711.619
81.13100, 2663.378
82.36700, 2667.151
83.60200, 2629.875
84.83700, 2739.498
86.07200, 2923.976
87.30800, 3221.273
88.54200, 3503.345
89.77700, 3925.131
91.01200, 4519.570
92.24600, 5181.609
93.48000, 5805.207
94.71400, 6715.333
95.94800, 7700.956
97.18200, 9154.051
98.41600, 10816.60
99.64900, 12996.57
100.8830, 15609.96
102.1160, 18703.74
103.3490, 22133.90
104.5820, 24959.42
105.8150, 26439.29
107.0470, 25586.50
108.2800, 22702.04
109.5120, 19083.88
110.7440, 15147.02
111.9760, 11933.46
113.2080, 9663.171
114.4400, 7669.181
115.6710, 6507.485
116.9030, 5419.092
118.1340, 4936.022
119.3650, 4390.221
120.5960, 4259.748
121.8270, 4022.621
123.0580, 3958.737
124.2880, 3965.063
125.5190, 4150.555
126.7490, 4237.057
127.9790, 4619.584
129.2090, 5037.109
130.4390, 5402.680
131.6680, 5798.336
132.8980, 6251.071
134.1270, 6510.878
135.3560, 6701.806
136.5850, 6708.838
137.8140, 6630.976
139.0430, 6526.237
140.2710, 6493.623
141.5000, 6430.136
142.7280, 6571.745
143.9560, 6568.507
145.1840, 6881.373
146.4120, 7241.352
147.6390, 7613.434
148.8670, 7761.611
150.0940, 7949.882
151.3210, 8014.250
152.5490, 8030.730
153.7750, 7588.319
155.0020, 7237.074
156.2290, 6690.939
157.4550, 6119.897
158.6810, 5439.946
159.9080, 4867.092
161.1340, 4441.338
162.3590, 3965.669
163.5850, 3609.081
164.8110, 3242.573
166.0360, 3103.147
167.2610, 2853.809
168.4860, 2768.578
169.7110, 2646.449
170.9360, 2504.395
172.1610, 2506.414
173.3850, 2520.507
174.6100, 2455.672
175.8340, 2495.365
177.0580, 2633.446
178.2820, 2671.889
179.5050, 2628.060
180.7290, 2583.827
181.9520, 2515.648
183.1760, 2389.226
184.3990, 2362.547
185.6220, 2074.297
186.8450, 2023.830
188.0670, 1801.707
189.2900, 1789.021
190.5120, 1678.230
191.7340, 1481.982
192.9560, 1473.906
194.1780, 1362.044
195.4000, 1380.137
196.6220, 1342.787
197.8430, 1439.447
199.0640, 1357.521
200.2860, 1380.674
201.5070, 1371.476
202.7270, 1362.610
203.9480, 1449.375
205.1690, 1406.073
206.3890, 1484.573
207.6090, 1565.574
208.8290, 1631.784
210.0490, 1594.619
211.2690, 1775.882
212.4890, 1727.312
213.7080, 1869.331
214.9280, 1809.864
216.1470, 1933.540
217.3660, 1847.544
218.5850, 1835.108
219.8030, 1724.121
221.0220, 1544.855
222.2400, 1425.232
223.4590, 1411.237
224.6770, 1252.203
225.8950, 1150.935
227.1120, 1103.526
228.3300, 1016.763
229.5480, 869.8743
230.7650, 810.1250
231.9820, 735.9749
233.1990, 771.4287
234.4160, 728.2300
235.6330, 673.8979
236.8490, 569.6299
238.0660, 580.0139
239.2820, 571.8955
240.4980, 490.2903
241.7140, 506.3208
242.9300, 489.4324
244.1460, 486.6035
245.3610, 391.8726
246.5770, 391.1741
247.7920, 339.7686
249.0070, 395.3083
250.2220, 340.7886
251.4370, 291.5542
252.6510, 317.9219
253.8660, 289.6411
255.0800, 262.4009
256.2940, 337.1707
257.5080, 280.6333
258.7220, 254.6833
259.9360, 283.9294
261.1490, 222.8613
262.3630, 198.8650
263.5760, 193.9998
264.7890, 118.5718
266.0020, 139.1838
267.2150, 194.6372
268.4270, 121.7656
269.6400, 169.0371
270.8520, 110.3416
272.0640, 95.60229
273.2760, 128.8943
274.4880, 105.2192
275.7000, 111.5776
276.9120, 113.9658
278.1230, 44.51953
279.3340, 117.9883
280.5450, 81.73242
281.7560, 190.4993
282.9670, 152.7551
284.1780, 15.75000
285.3880, 75.56250
286.5980, 127.2065
287.8090, 13.83691
289.0190, 75.75244
290.2290, 26.42920
291.4380, 77.13086
292.6480, 20.05151
293.8570, 73.79492
295.0670, 53.68481
296.2760, 7.667725
297.4850, 16.47070
298.6930, 25.70581
299.9020, 36.86621
301.1110, 18.77661
302.3190, 5.352051
303.5270, 21.30981
304.7350, 19.59619
305.9430, 51.17700
307.1510, 16.11597
308.3580, 12.00146
309.5660, 39.06787
310.7730, 46.10425
311.9800, 62.13354
313.1870, 35.94678
314.3940, 54.06543
315.6010, 13.92603
316.8070, 2.906738
318.0130, 4.187012
319.2200, 1.370361
320.4260, 52.30859
321.6310, 35.74146
322.8370, 6.289795
324.0430, 94.42041
325.2480, 85.39844
326.4540, 33.37598
327.6590, 37.37207
328.8640, 8.371582
330.0680, 44.37988
331.2730, 6.926270
332.4780, 28.45239
333.6820, 31.47095
334.8860, 2.475830
336.0900, 1.478271
337.2940, 6.794678
338.4980, 7.272217
339.7010, 6.238770
340.9050, 6.308838
342.1080, 4.380859
343.3110, 44.90552
344.5140, 3.810059
345.7170, 43.84912
346.9200, 28.87744
348.1220, 42.88989
349.3240, 7.714111
350.5270, 22.68994
351.7290, 56.64282
352.9310, 44.59668
354.1320, 47.96411
355.3340, 4.496826
356.5350, 23.43701
357.7370, 9.326172
358.9380, 7.745850
360.1390, 13.16846
361.3400, 35.07910
362.5400, 21.99634
363.7410, 6.913818
364.9410, 3.171143
366.1410, 6.456299
367.3410, 15.35742
368.5410, 11.10034
369.7410, 3.118652
370.9400, 17.03589
372.1400, 6.882568
373.3390, 20.81250
374.5380, 35.24536
375.7370, 10.61694
376.9360, 32.68018
378.1350, 59.25122
379.3330, 30.31934
380.5310, 33.35767
381.7300, 7.537598
382.9280, 39.64966
384.1260, 3.245117
385.3230, 72.85400
386.5210, 39.10400
387.7180, 45.44556
388.9160, 39.81274
390.1130, 52.83350
391.3100, 31.92798
392.5060, 37.94482
393.7030, 82.95923
394.9000, 35.34277
396.0960, 1.647705
397.2920, 45.16162
398.4880, 14.51611
399.6840, 38.51001
400.8800, 14.57471
402.0750, 42.78125
403.2710, 37.76733
404.4660, 66.06177
405.6610, 57.13794
406.8560, 52.02295
408.0510, 36.90186
409.2450, 37.82397
410.4400, 45.68213
411.6340, 26.62183
412.8280, 60.98779
414.0220, 62.00269
415.2160, 74.82275
416.4100, 82.26440
417.6030, 76.50537
418.7970, 82.15161
419.9900, 77.09155
421.1830, 64.87769
422.3760, 74.66138
423.5690, 60.43774
424.7610, 29.20410
425.9540, 47.03687
427.1460, 4.800049
428.3380, 32.54077
429.5300, 79.44897
430.7220, 134.1272
431.9140, 67.79712
433.1050, 97.54956
434.2970, 89.53467
435.4880, 74.17505
436.6790, 97.80396
437.8700, 80.42310
439.0610, 77.03076
440.2510, 113.6262
441.4420, 116.5791
442.6320, 117.7637
443.8220, 54.94971
445.0120, 131.4961
446.2020, 57.04883
447.3910, 82.58936
448.5810, 68.28955
449.7700, 86.92847
450.9600, 84.16162
452.1490, 52.70776
453.3370, 106.3179
454.5260, 129.6135
455.7150, 89.25464
456.9030, 104.1201
458.0910, 114.9922
459.2800, 85.37646
460.4670, 92.68945
461.6550, 87.04663
462.8430, 81.00073
464.0300, 68.81006
465.2180, 165.2422
466.4050, 82.54321
467.5920, 175.4866
468.7790, 98.58545
469.9650, 136.9358
471.1520, 99.00171
472.3380, 113.0159
473.5250, 72.68652
474.7110, 58.89893
475.8970, 110.1047
477.0820, 145.2031
478.2680, 86.35913
479.4540, 72.40967
480.6390, 132.5540
481.8240, 88.37109
483.0090, 154.1926
484.1940, 141.9834
485.3780, 63.81006
486.5630, 83.83398
487.7470, 103.6094
488.9320, 105.5671
490.1160, 176.1863
491.3000, 79.10962
492.4830, 168.5784
493.6670, 96.73413
494.8500, 106.7554
496.0340, 111.3235
497.2170, 90.66553
498.4000, 95.06445
499.5820, 82.52441
500.7650, 92.60571
501.9480, 120.3701
503.1300, 100.1765
504.3120, 124.8276
505.4940, 87.56641
506.6760, 113.5217
507.8580, 59.89868
509.0390, 83.76587
510.2210, 97.13257
511.4020, 74.68896
512.5830, 145.6116
513.7640, 71.73511
514.9450, 90.32300
516.1250, 100.1284
517.3060, 12.88770
518.4860, 98.13013
519.6660, 92.00806
520.8460, 35.47241
522.0260, 111.3433
523.2060, 69.02002
524.3850, 58.11353
525.5650, 66.89307
526.7440, 65.10449
527.9230, 51.74023
529.1020, 45.35254
530.2810, 43.95947
531.4590, 104.5208
532.6380, 67.10059
533.8160, 81.43628
534.9940, 85.87476
536.1720, 42.41821
537.3500, 78.71851
538.5270, 20.45825
539.7050, 40.88257
540.8820, 102.3037
542.0590, 93.75171
543.2360, 29.54199
544.4130, 57.77734
545.5900, 31.84888
546.7660, 5.264160
547.9430, 88.63208
549.1190, 122.8970
550.2950, 60.75146
551.4710, 87.59058
552.6470, 55.61230
553.8220, 2.019775
554.9980, 44.21924
556.1730, 72.44409
557.3480, 32.83398
558.5230, 15.10767
559.6980, 11.36353
560.8730, 47.60083
562.0470, 97.82617
563.2220, 89.41602
564.3960, 135.8096
565.5700, 112.1169
566.7440, 53.78540
567.9170, 61.32349
569.0910, 59.15259
570.2640, 36.14307
571.4380, 89.35913
572.6110, 84.65186
573.7840, 48.50586
574.9570, 26.77954
576.1290, 82.02954
577.3020, 75.91235
578.4740, 89.98364
579.6460, 113.9182
580.8180, 68.77026
581.9900, 23.81128
583.1620, 79.84009
584.3330, 27.86035
585.5040, 82.08374
586.6760, 46.08545
587.8470, 56.30298
589.0180, 15.09399
590.1880, 20.88452
591.3590, 76.39453
592.5290, 43.17383
593.7000, 48.14404
594.8700, 99.08447
596.0400, 65.02148
597.2090, 13.85229
598.3790, 78.77686
599.5490, 68.69995
600.7180, 86.44971
601.8870, 63.27417
603.0560, 5.129395
604.2250, 34.72852
605.3940, 32.07837
606.5620, 55.96411
607.7300, 14.58984
608.8990, 29.51343
610.0670, 31.40308
611.2350, 43.29785
612.4020, 87.18506
613.5700, 45.07129
614.7370, 90.64014
615.9050, 55.97925
617.0720, 35.85376
618.2390, 90.73413
619.4060, 144.4927
620.5720, 72.01489
621.7390, 74.86890
622.9050, 76.61304
624.0710, 99.77271
625.2370, 115.6106
626.4030, 134.8933
627.5690, 93.64258
628.7340, 176.4729
629.9000, 103.3057
631.0650, 38.13916
632.2300, 92.79761
633.3950, 5.629395
634.5600, 90.45288
635.7240, 79.28931
636.8890, 87.12988
638.0530, 95.97095
639.2170, 88.37012
640.3810, 78.60913
641.5450, 84.47729
642.7080, 56.31226
643.8720, 56.21753
645.0350, 0.9443360
646.1980, 84.89062
647.3610, 52.72412
648.5240, 99.27246
649.6870, 87.09375
650.8490, 33.92334
652.0120, 29.68530
653.1740, 61.51343
654.3360, 38.26514
655.4980, 78.56714
656.6600, 92.40088
657.8210, 76.92798
658.9830, 16.75293
660.1440, 35.61011
661.3050, 13.27319
662.4660, 89.09888
663.6270, 72.85571
664.7870, 19.51953
665.9480, 90.26147
667.1080, 96.99951
668.2680, 81.58276
669.4280, 104.0698
670.5880, 107.5269
671.7480, 181.3403
672.9070, 282.0593
674.0670, 411.9702
675.2260, 598.7554
676.3850, 738.1658
677.5440, 607.9424
678.7030, 562.9045
679.8610, 625.3145
681.0200, 971.0923
682.1780, 1913.888
683.3360, 3059.243
684.4940, 3112.960
685.6520, 2015.358
686.8090, 1089.966
687.9670, 540.7642
689.1240, 340.5601
690.2810, 116.3013
691.4380, 114.0945
692.5950, 61.79590
693.7520, 79.05688
694.9080, 97.65942
696.0650, 12.46167
697.2210, 38.92847
698.3770, 95.00049
699.5330, 53.95312
700.6880, 40.60205
701.8440, 26.60522
702.9990, 0.1721190
704.1550, 5.944824
705.3100, 26.71582
706.4650, 19.40381
707.6190, 21.85352
708.7740, 12.88428
709.9290, 7.437500
711.0830, 2.208008
712.2370, 30.97510
713.3910, 1.646484
714.5450, 2.072754
715.6980, 29.83105
716.8520, 29.58765
718.0050, 34.34204
719.1580, 50.09473
720.3110, 29.84570
721.4640, 20.28271
722.6170, 40.02954
723.7700, 23.50903
724.9220, 72.25537
726.0740, 154.9172
727.2260, 45.64160
728.3780, 22.89185
729.5300, 120.2756
730.6810, 90.02148
731.8330, 80.68359
732.9840, 87.38599
734.1350, 46.13184
735.2860, 39.89648
736.4370, 46.40259
737.5880, 23.49268
738.7380, 32.11255
739.8880, 19.85181
741.0390, 3.246338
742.1890, 28.35864
743.3380, 58.98145
744.4880, 29.64209
745.6380, 48.37793
746.7870, 11.74072
747.9360, 44.96655
749.0850, 70.57788
750.2340, 95.26733
751.3830, 53.10986
752.5310, 52.80591
753.6800, 6.534424
754.8280, 42.27686
755.9760, 18.94067
757.1240, 21.66650
758.2720, 49.07324
759.4190, 50.92847
760.5670, 66.65210
761.7140, 6.512939
762.8610, 57.20557
764.0080, 67.92285
765.1550, 8.748779
766.3020, 75.58643
767.4480, 74.30249
768.5950, 75.17871
769.7410, 81.85742
770.8870, 74.02612
772.0330, 59.35425
773.1780, 57.06494
774.3240, 49.77466
775.4690, 30.48267
776.6140, 81.23730
777.7590, 47.94336
778.9040, 14.64819
780.0490, 55.35181
781.1940, 8.054199
782.3380, 97.75488
783.4820, 71.96802
784.6260, 158.6990
785.7700, 57.44800
786.9140, 99.14526
788.0580, 40.84131
789.2010, 100.5654
790.3450, 55.21167
791.4880, 61.05396
792.6310, 11.26074
793.7730, 38.42676
794.9160, 19.11304
796.0590, 80.80420
797.2010, 11.33936
798.3430, 26.72998
799.4850, 70.74609
800.6270, 61.42261
801.7690, 53.09839
802.9100, 57.65576
804.0520, 41.33057
805.1930, 45.00439
806.3340, 45.67847
807.4750, 29.33154
808.6160, 16.75830
809.7560, 20.70068
810.8970, 0.3779300
812.0370, 34.04858
813.1770, 87.75659
814.3170, 170.4270
815.4570, 154.8604
816.5960, 180.1892
817.7360, 114.4946
818.8750, 153.0930
820.0140, 79.77002
821.1530, 37.44092
822.2920, 120.1113
823.4310, 58.78198
824.5690, 137.4890
825.7070, 210.1626
826.8460, 162.9009
827.9840, 193.5725
829.1220, 160.2717
830.2590, 151.9517
831.3970, 179.6814
832.5340, 186.0615
833.6710, 327.6321
834.8080, 477.8235
835.9450, 780.4985
837.0820, 1206.176
838.2190, 2022.988
839.3550, 2466.215
840.4910, 2509.675
841.6270, 1809.427
842.7630, 1073.098
843.8990, 620.7451
845.0350, 366.2302
846.1700, 318.8594
847.3060, 181.4080
848.4410, 126.9729
849.5760, 186.6763
850.7100, 145.1748
851.8450, 76.68262
852.9800, 102.3484
854.1140, 99.01221
855.2480, 152.6748
856.3820, 70.33618
857.5160, 12.99561
858.6500, 85.65405
859.7830, 20.31152
860.9170, 58.96875
862.0500, 74.62427
863.1830, 70.54321
864.3160, 92.19580
865.4480, 78.84888
866.5810, 85.50195
867.7130, 57.15991
868.8460, 28.81641
869.9780, 35.47119
871.1100, 22.13940
872.2410, 2.194580
873.3730, 23.47070
874.5050, 1.865967
875.6360, 63.79468
876.7670, 11.54248
877.8980, 74.99707
879.0290, 41.65405
880.1590, 17.69067
881.2900, 81.96167
882.4200, 46.63867
883.5500, 42.73853
884.6800, 47.90161
885.8100, 58.54004
886.9400, 6.177002
888.0690, 39.81079
889.1990, 55.45312
890.3280, 24.98608
891.4570, 49.61353
892.5860, 55.23096
893.7140, 11.14478
894.8430, 4.470703
895.9710, 60.08496
897.1000, 6.700439
898.2280, 45.99658
899.3560, 54.60645
900.4830, 7.213867
901.6110, 5.751709
902.7380, 30.36865
903.8660, 0.9934080
904.9930, 42.61401
906.1200, 68.24902
907.2460, 7.116211
908.3730, 43.52319
909.5000, 78.15991
910.6260, 45.79492
911.7520, 18.44067
912.8780, 57.08374
914.0040, 54.72412
915.1290, 36.33423
916.2550, 91.96948
917.3800, 71.53101
918.5050, 46.18140
919.6300, 22.83154
920.7550, 18.47876
921.8800, 39.13110
923.0040, 65.78101
924.1290, 17.43945
925.2530, 47.09985
926.3770, 4.757568
927.5010, 59.41113
928.6250, 53.59033
929.7480, 103.2380
930.8720, 33.87598
931.9950, 54.51782
933.1180, 0.8815920
934.2410, 93.38574
935.3640, 85.01758
936.4860, 52.64624
937.6090, 82.27197
938.7310, 52.89526
939.8530, 51.51514
940.9750, 67.13208
942.0970, 49.74585
943.2180, 75.35620
944.3400, 57.94775
945.4610, 31.56470
946.5820, 75.05713
947.7030, 23.66748
948.8240, 132.3147
949.9450, 57.91797
951.0650, 20.52173
952.1860, 38.12207
953.3060, 11.28174
954.4260, 32.30298
955.5460, 76.88403
956.6650, 43.46143
957.7850, 43.03540
958.9040, 28.39429
960.0230, 79.15454
961.1420, 18.72095
962.2610, 40.28711
963.3800, 27.84888
964.4990, 32.40649
965.6170, 21.96069
966.7350, 54.35327
967.8530, 43.16064
968.9710, 19.32886
970.0890, 95.16406
971.2070, 67.65332
972.3240, 10.13843
973.4410, 20.62036
974.5580, 63.11719
975.6750, 2.610596
976.7920, 97.09863
977.9090, 70.58228
979.0250, 65.06201
980.1410, 27.54272
981.2580, 37.01904
982.3740, 22.67236
983.4890, 29.14087
984.6050, 89.60449
985.7200, 46.06421
986.8360, 76.52051
987.9510, 70.97217
989.0660, 49.41919
990.1810, 45.86182
991.2950, 88.29980
992.4100, 120.6782
993.5240, 44.10693
994.6390, 90.50610
995.7530, 71.92554
996.8660, 3.340576
997.9800, 60.74805
999.0940, 85.15063
1000.207, 83.55151
1001.320, 66.39941
1002.433, 81.78760
1003.546, 83.18481
1004.659, 111.0073
1005.772, 69.36011
1006.884, 68.72290
1007.996, 68.06982
1009.108, 122.4661
1010.220, 96.66162
1011.332, 103.4775
1012.444, 82.88184
1013.555, 62.09082
1014.666, 67.60181
1015.777, 37.47974
1016.888, 62.06592
1017.999, 96.74585
1019.110, 82.06152
1020.220, 80.36548
1021.331, 58.55078
1022.441, 41.87402
1023.551, 116.1609
1024.661, 120.4287
1025.770, 83.70508
1026.880, 152.0674
1027.989, 130.6504
1029.098, 162.1594
1030.207, 135.1167
1031.316, 298.2527
1032.425, 380.4966
1033.533, 388.7346
1034.642, 317.5352
1035.750, 219.5310
1036.858, 242.9807
1037.966, 199.0369
1039.073, 248.0332
1040.181, 255.7290
1041.288, 335.5383
1042.396, 332.7280
1043.503, 425.9744
1044.610, 452.2666
1045.716, 600.3889
1046.823, 799.5520
1047.929, 1160.708
1049.036, 1808.858
1050.142, 2830.009
1051.248, 4269.890
1052.353, 7670.021
1053.459, 15324.11
1054.564, 36154.13
1055.670, 61017.24
1056.775, 57842.99
1057.880, 33140.02
1058.985, 13939.11
1060.089, 5677.039
1061.194, 2599.111
1062.298, 1382.178
1063.402, 838.2373
1064.506, 601.2900
1065.610, 444.3354
1066.713, 448.1216
1067.817, 273.1582
1068.920, 302.1880
1070.023, 176.2102
1071.126, 207.2251
1072.229, 137.2327
1073.332, 223.2332
1074.435, 182.2261
1075.537, 172.2122
1076.639, 159.1909
1077.741, 207.1204
1078.843, 106.0798
1079.945, 80.03711
1081.046, 52.94824
1082.148, 134.8904
1083.249, 151.6680
1084.350, 167.5415
1085.451, 224.4614
1086.551, 167.4473
1087.652, 75.34619
1088.752, 159.2441
1089.853, 134.1348
1090.953, 109.0186
1092.053, 135.8625
1093.152, 206.7292
1094.252, 126.1799
1095.351, 101.0342
1096.451, 199.8521
1097.550, 108.6804
1098.649, 37.45752
1099.748, 58.57544
1100.846, 76.39185
1101.945, 68.68335
1103.043, 89.48535
1104.141, 118.2810
1105.239, 110.3760
1106.337, 114.9939
1107.434, 116.7683
1108.532, 118.1365
1109.629, 96.07764
1110.726, 108.8308
1111.823, 140.5767
1112.920, 97.27905
1114.017, 3.011230
1115.113, 96.66382
1116.210, 76.33643
1117.306, 79.03711
1118.402, 112.7312
1119.498, 130.4182
1120.593, 117.8613
1121.689, 107.7720
1122.784, 88.43872
1123.879, 91.09863
1124.974, 74.75220
1126.069, 67.96924
1127.164, 105.0398
1128.259, 47.67383
1129.353, 103.0361
1130.447, 87.65723
1131.541, 45.27148
1132.635, 4.120605
1133.729, 104.4680
1134.822, 41.05005
1135.916, 36.37427
1137.009, 71.16528
1138.102, 20.69873
1139.195, 82.22485
1140.288, 18.74487
1141.380, 4.257568
1142.473, 22.75610
1143.565, 26.25000
1144.657, 81.73755
1145.749, 9.780762
1146.841, 64.68506
1147.932, 35.88159
1149.024, 49.54419
1150.115, 33.97559
1151.206, 41.40161
1152.297, 35.82178
1153.388, 26.23706
1154.479, 43.63672
1155.569, 105.0408
1156.659, 54.43970
1157.750, 17.83350
1158.839, 62.22095
1159.929, 8.606445
1161.019, 1.983398
1162.108, 48.34814
1163.198, 76.70874
1164.287, 66.06445
1165.376, 14.58472
1166.465, 18.25366
1167.553, 23.94336
1168.642, 22.34253
1169.730, 49.37549
1170.818, 2.868652
1171.906, 22.89624
1172.994, 39.31787
1174.082, 11.52759
1175.170, 40.26782
1176.257, 82.90503
1177.344, 56.07446
1178.431, 28.23975
1179.518, 15.40112
1180.605, 11.55835
1181.691, 68.28809
1182.778, 40.82080
1183.864, 61.92603
1184.950, 24.97192
1186.036, 22.10913
1187.122, 36.81299
1188.207, 10.76196
1189.292, 80.27686
1190.378, 50.31274
1191.463, 50.34595
1192.548, 19.37671
1193.632, 39.40454
1194.717, 38.42944
1195.801, 42.01465
1196.886, 52.47168
1197.970, 36.49023
1199.054, 18.50635
1200.137, 32.52710
1201.221, 12.53149
1202.305, 45.54077
1203.388, 30.54785
1204.471, 27.55273
1205.554, 9.555664
1206.637, 64.55664
1207.719, 49.44434
1208.802, 126.5269
1209.884, 36.49658
1210.966, 139.4644
1212.048, 64.39038
1213.130, 17.64478
1214.212, 19.31079
1215.293, 40.26514
1216.374, 80.21826
1217.456, 66.17456
1218.536, 72.12988
1219.617, 22.08423
1220.698, 137.0376
1221.778, 48.99023
1222.859, 88.04883
1223.939, 17.13159
1225.019, 57.77856
1226.099, 64.68848
1227.178, 55.59814
1228.258, 96.50781
1229.337, 124.2808
1230.417, 14.20605
1231.496, 39.13135
1232.574, 16.06348
1233.653, 73.99609
1234.732, 15.07129
1235.810, 60.14185
1236.888, 31.76270
1237.966, 59.66748
1239.044, 51.57422
