##NAMES=Cerussite
##RRUFFID=R050174
##IDEAL CHEMISTRY=Pb^2+^CO_3_
##LOCALITY=Tsumeb mine, Tsumeb, Otavi District, Oshikoto, Namibia
##OWNER=RRUFF
##SOURCE=Marcus Origlieri
##DESCRIPTION=Colorless single crystal
##STATUS=The identification of this mineral has been confirmed by X-ray diffraction and chemical analysis
##URL=rruff.info/R050174
##MEASURED CHEMISTRY=Pb_1.00_CO_3_ ; C not measured but estimated by difference and stoichiometry
##PIN_ID=L00917
##ORIENTATION=Laser parallel to a* (1 0 0). Fiducial mark perpendicular to laser is parallel to -b [0 -1 0]
51.43100, 0.0000000E+00
52.67100, 9.488892
53.91000, 28.25092
55.14900, 24.15851
56.38700, 44.95895
57.62600, 43.21817
58.86400, 12.05792
60.10300, 7.181976
61.34100, 10.69336
62.57900, 12.65988
63.81700, 30.75128
65.05400, 30.39288
66.29200, 48.13800
67.52900, 67.87784
68.76700, 82.51929
70.00400, 80.98248
71.24100, 86.19727
72.47700, 132.0985
73.71400, 148.6271
74.95100, 187.7311
76.18700, 240.3652
77.42300, 302.4895
78.65900, 308.0699
79.89500, 395.0754
81.13100, 454.4794
82.36700, 562.2579
83.60200, 652.3892
84.83700, 746.8536
86.07200, 862.2844
87.30800, 981.5467
88.54200, 1105.083
89.77700, 1245.718
91.01200, 1399.596
92.24600, 1535.698
93.48000, 1672.009
94.71400, 1806.516
95.94800, 1971.212
97.18200, 2166.035
98.41600, 2311.133
99.64900, 2601.344
100.8830, 2873.713
102.1160, 3116.237
103.3490, 3323.909
104.5820, 3328.510
105.8150, 3330.684
107.0470, 3154.776
108.2800, 2930.001
109.5120, 2663.356
110.7440, 2455.838
111.9760, 2295.442
113.2080, 2206.166
114.4400, 2208.005
115.6710, 2172.956
116.9030, 2248.018
118.1340, 2367.184
119.3650, 2470.458
120.5960, 2640.843
121.8270, 2866.333
123.0580, 3228.924
124.2880, 3546.609
125.5190, 4020.377
126.7490, 4489.160
127.9790, 5141.967
129.2090, 5876.782
130.4390, 6594.593
131.6680, 7269.415
132.8980, 7842.290
134.1270, 8278.202
135.3560, 8308.158
136.5850, 8066.152
137.8140, 7614.181
139.0430, 7014.288
140.2710, 6431.447
141.5000, 5910.661
142.7280, 5384.926
143.9560, 4990.237
145.1840, 4663.602
146.4120, 4406.015
147.6390, 4220.482
148.8670, 3997.004
150.0940, 3801.591
151.3210, 3631.762
152.5490, 3445.818
153.7750, 3313.715
155.0020, 3112.521
156.2290, 2977.379
157.4550, 2810.295
158.6810, 2623.263
159.9080, 2446.276
161.1340, 2165.333
162.3590, 2150.434
163.5850, 1977.610
164.8110, 1890.851
166.0360, 1892.145
167.2610, 1791.486
168.4860, 1766.881
169.7110, 1772.328
170.9360, 1839.810
172.1610, 1787.333
173.3850, 1839.896
174.6100, 1763.495
175.8340, 1861.132
177.0580, 1785.801
178.2820, 1755.505
179.5050, 1718.253
180.7290, 1676.032
181.9520, 1540.855
183.1760, 1454.714
184.3990, 1357.602
185.6220, 1291.671
186.8450, 1220.176
188.0670, 1179.988
189.2900, 1100.254
190.5120, 1084.286
191.7340, 1028.843
192.9560, 972.9766
194.1780, 958.0837
195.4000, 925.2642
196.6220, 900.6069
197.8430, 843.0559
199.0640, 899.8635
200.2860, 743.2808
201.5070, 770.3093
202.7270, 718.8768
203.9480, 774.8252
205.1690, 725.1096
206.3890, 636.3123
207.6090, 666.9221
208.8290, 627.9213
210.0490, 657.1099
211.2690, 645.2723
212.4890, 607.3949
213.7080, 577.2214
214.9280, 552.1309
216.1470, 596.2126
217.3660, 549.4263
218.5850, 547.5630
219.8030, 552.7668
221.0220, 533.0347
222.2400, 533.6006
223.4590, 521.0841
224.6770, 519.0559
225.8950, 493.7020
227.1120, 478.4001
228.3300, 450.9991
229.5480, 488.2990
230.7650, 475.1006
231.9820, 459.3740
233.1990, 505.1547
234.4160, 462.9775
235.6330, 513.8550
236.8490, 487.5381
238.0660, 461.4810
239.2820, 435.5369
240.4980, 444.3015
241.7140, 475.6030
242.9300, 465.1044
244.1460, 489.2223
245.3610, 483.3730
246.5770, 495.8496
247.7920, 462.5485
249.0070, 420.1215
250.2220, 414.4464
251.4370, 388.4844
252.6510, 359.0757
253.8660, 352.7273
255.0800, 330.1106
256.2940, 293.7471
257.5080, 264.1832
258.7220, 301.1523
259.9360, 254.0697
261.1490, 269.6006
262.3630, 186.8647
263.5760, 207.4222
264.7890, 214.0146
266.0020, 186.6145
267.2150, 193.4104
268.4270, 175.3087
269.6400, 173.9692
270.8520, 155.7661
272.0640, 150.4702
273.2760, 131.6376
274.4880, 168.0109
275.7000, 171.7705
276.9120, 120.1588
278.1230, 85.00159
279.3340, 126.8162
280.5450, 112.1539
281.7560, 133.6396
282.9670, 73.47791
284.1780, 66.67505
285.3880, 74.72485
286.5980, 86.65979
287.8090, 91.59668
289.0190, 82.54932
290.2290, 72.51770
291.4380, 77.37512
292.6480, 78.37439
293.8570, 53.61548
295.0670, 64.69531
296.2760, 51.73828
297.4850, 69.00098
298.6930, 58.07129
299.9020, 63.15491
301.1110, 52.32202
302.3190, 61.43140
303.5270, 52.55322
304.7350, 41.84961
305.9430, 41.58740
307.1510, 30.15698
308.3580, 35.32605
309.5660, 4.697998
310.7730, 12.89038
311.9800, 40.49805
313.1870, 17.71118
314.3940, 54.93433
315.6010, 21.16699
316.8070, 32.55286
318.0130, 10.19543
319.2200, 23.06458
320.4260, 12.33362
321.6310, 15.61401
322.8370, 19.09448
324.0430, 12.79749
325.2480, 3.445679
326.4540, 3.865967
327.6590, 1.185303
328.8640, 18.48657
330.0680, 6.862915
331.2730, 3.001709
332.4780, 0.4667970
333.6820, 1.805908
334.8860, 1.439697
336.0900, 0.6064450
337.2940, 3.024292
338.4980, 2.105347
339.7010, 8.268677
340.9050, 5.883301
342.1080, 8.493652
343.3110, 25.10022
344.5140, 14.69751
345.7170, 4.717896
346.9200, 42.85034
348.1220, 18.58374
349.3240, 8.965332
350.5270, 8.500854
351.7290, 0.9776610
352.9310, 3.525879
354.1320, 22.98608
355.3340, 16.48645
356.5350, 35.95105
357.7370, 14.58447
358.9380, 13.13208
360.1390, 28.28394
361.3400, 4.723022
362.5400, 13.84729
363.7410, 38.42798
364.9410, 34.01904
366.1410, 47.61987
367.3410, 5.230469
368.5410, 41.15002
369.7410, 26.53760
370.9400, 2.927368
372.1400, 15.68945
373.3390, 14.68555
374.5380, 1.059082
375.7370, 11.42395
376.9360, 42.21155
378.1350, 12.98816
379.3330, 3.026978
380.5310, 15.31702
381.7300, 27.68933
382.9280, 1.569702
384.1260, 20.24231
385.3230, 11.92078
386.5210, 26.17639
387.7180, 16.50439
388.9160, 29.37195
390.1130, 22.55701
391.3100, 5.862183
392.5060, 2.167480
393.7030, 35.47192
394.9000, 13.30835
396.0960, 23.99609
397.2920, 0.1857910
398.4880, 11.78394
399.6840, 1.963135
400.8800, 15.74988
402.0750, 3.261597
403.2710, 1.395386
404.4660, 10.29993
405.6610, 25.30286
406.8560, 14.48450
408.0510, 12.17212
409.2450, 15.89087
410.4400, 0.5828860
411.6340, 17.27295
412.8280, 16.21423
414.0220, 10.27466
415.2160, 18.96899
416.4100, 34.33496
417.6030, 19.48669
418.7970, 24.17627
419.9900, 35.91382
421.1830, 15.72888
422.3760, 60.37170
423.5690, 3.025879
424.7610, 0.8022460
425.9540, 4.924438
427.1460, 8.711914
428.3380, 7.578979
429.5300, 21.05420
430.7220, 52.80286
431.9140, 41.46094
433.1050, 53.08691
434.2970, 1.104370
435.4880, 58.51172
436.6790, 14.23621
437.8700, 21.85217
439.0610, 44.46704
440.2510, 16.08142
441.4420, 31.71558
442.6320, 34.33289
443.8220, 22.94873
445.0120, 31.55750
446.2020, 57.16541
447.3910, 3.227783
448.5810, 29.36768
449.7700, 63.96155
450.9600, 33.55432
452.1490, 2.515137
453.3370, 40.06421
454.5260, 14.64221
455.7150, 63.22791
456.9030, 68.79895
458.0910, 71.36816
459.2800, 24.98145
460.4670, 61.54578
461.6550, 39.97144
462.8430, 36.54175
464.0300, 41.68250
465.2180, 36.05200
466.4050, 45.80237
467.5920, 32.14709
468.7790, 40.64966
469.9650, 43.20142
471.1520, 50.02869
472.3380, 51.18811
473.5250, 53.68640
474.7110, 93.31519
475.8970, 70.83630
477.0820, 70.36768
478.2680, 75.19690
479.4540, 51.91650
480.6390, 65.39795
481.8240, 71.07178
483.0090, 86.25476
484.1940, 90.66943
485.3780, 116.1646
486.5630, 109.9456
487.7470, 109.0907
488.9320, 107.9158
490.1160, 127.5413
491.3000, 89.04028
492.4830, 70.32471
493.6670, 62.61340
494.8500, 92.09863
496.0340, 51.50476
497.2170, 67.98706
498.4000, 61.94922
499.5820, 56.05298
500.7650, 108.5245
501.9480, 4.992432
503.1300, 89.42798
504.3120, 53.75769
505.4940, 43.22241
506.6760, 54.66589
507.8580, 74.13550
509.0390, 68.57092
510.2210, 80.50562
511.4020, 67.64282
512.5830, 78.91736
513.7640, 67.18774
514.9450, 50.60278
516.1250, 94.36084
517.3060, 41.65894
518.4860, 59.73584
519.6660, 30.13428
520.8460, 19.63196
522.0260, 58.95935
523.2060, 20.56018
524.3850, 27.51147
525.5650, 68.80273
526.7440, 79.16504
527.9230, 28.36877
529.1020, 85.40002
530.2810, 31.24377
531.4590, 22.58374
532.6380, 70.62256
533.8160, 92.46521
534.9940, 56.45825
536.1720, 32.72375
537.3500, 43.03601
538.5270, 31.34338
539.7050, 23.30225
540.8820, 52.64368
542.0590, 12.70557
543.2360, 22.98535
544.4130, 28.75037
545.5900, 72.58557
546.7660, 8.825317
547.9430, 31.34644
549.1190, 50.59143
550.2950, 37.81824
551.4710, 75.05334
552.6470, 46.85022
553.8220, 23.07605
554.9980, 4.705078
556.1730, 68.38574
557.3480, 74.58313
558.5230, 25.33081
559.6980, 67.88550
560.8730, 20.06738
562.0470, 78.63306
563.2220, 92.75769
564.3960, 65.26367
565.5700, 25.91968
566.7440, 5.440186
567.9170, 43.61792
569.0910, 28.44934
570.2640, 34.47217
571.4380, 23.58948
572.6110, 31.71582
573.7840, 35.84131
574.9570, 19.95862
576.1290, 43.19666
577.3020, 24.30359
578.4740, 43.78540
579.6460, 38.83167
580.8180, 40.92456
581.9900, 32.80701
583.1620, 35.02283
584.3330, 35.31738
585.5040, 41.04077
586.6760, 40.11145
587.8470, 52.17786
589.0180, 57.07764
590.1880, 61.13171
591.3590, 56.50940
592.5290, 10.23486
593.7000, 39.08655
594.8700, 37.12463
596.0400, 31.75366
597.2090, 82.78320
598.3790, 40.80884
599.5490, 27.83044
600.7180, 61.70398
601.8870, 39.71692
603.0560, 32.72656
604.2250, 1.732056
605.3940, 54.72815
606.5620, 6.717407
607.7300, 52.70386
608.8990, 39.63965
610.0670, 51.61938
611.2350, 9.595093
612.4020, 56.56445
613.5700, 64.53174
614.7370, 14.49548
615.9050, 35.45410
617.0720, 42.40869
618.2390, 8.454834
619.4060, 13.43567
620.5720, 82.50464
621.7390, 87.50500
622.9050, 42.43982
624.0710, 58.37158
625.2370, 16.30005
626.4030, 56.22437
627.5690, 73.14832
628.7340, 83.07031
629.9000, 69.99487
631.0650, 58.92249
632.2300, 50.84668
633.3950, 58.76807
634.5600, 40.68689
635.7240, 66.60742
636.8890, 79.52466
638.0530, 34.45117
639.2170, 31.36353
640.3810, 65.27856
641.5450, 87.19080
642.7080, 21.07556
643.8720, 26.98547
645.0350, 28.89258
646.1980, 73.79590
647.3610, 25.69592
648.5240, 78.59204
649.6870, 31.48474
650.8490, 20.37390
652.0120, 67.26746
653.1740, 43.16284
654.3360, 64.05566
655.4980, 43.94531
656.6600, 54.83484
657.8210, 8.726196
658.9830, 70.62036
660.1440, 20.37451
661.3050, 66.86975
662.4660, 50.75146
663.6270, 18.71814
664.7870, 78.93481
665.9480, 57.79773
667.1080, 7.342407
668.2680, 14.29199
669.4280, 33.85620
670.5880, 35.80029
671.7480, 60.25562
672.9070, 115.0831
674.0670, 148.9103
675.2260, 169.7394
676.3850, 185.4762
677.5440, 167.3069
678.7030, 120.0087
679.8610, 86.55823
681.0200, 120.3843
682.1780, 276.6324
683.3360, 328.1646
684.4940, 196.8171
685.6520, 139.6392
686.8090, 78.75977
687.9670, 44.48279
689.1240, 67.30566
690.2810, 68.09753
691.4380, 100.6190
692.5950, 85.73438
693.7520, 182.3022
694.9080, 242.7506
696.0650, 269.5643
697.2210, 196.3757
698.3770, 167.0238
699.5330, 89.85010
700.6880, 37.42871
701.8440, 46.26233
702.9990, 34.90234
704.1550, 31.91089
705.3100, 25.59814
706.4650, 39.78442
707.6190, 41.60205
708.7740, 13.34412
709.9290, 35.15552
711.0830, 51.84998
712.2370, 19.63391
713.3910, 52.44849
714.5450, 44.07886
715.6980, 84.89612
716.8520, 8.396851
718.0050, 23.41296
719.1580, 41.22168
720.3110, 26.02905
721.4640, 48.81311
722.6170, 56.61218
723.7700, 7.410645
724.9220, 25.21301
726.0740, 82.01428
727.2260, 24.81396
728.3780, 104.6313
729.5300, 102.4340
730.6810, 56.23523
731.8330, 53.69617
732.9840, 57.50037
734.1350, 65.30334
735.2860, 104.0940
736.4370, 37.93311
737.5880, 65.73474
738.7380, 23.48962
739.8880, 44.28992
741.0390, 60.08923
742.1890, 41.87781
743.3380, 41.09277
744.4880, 80.88940
745.6380, 22.30896
746.7870, 44.10376
747.9360, 26.89819
749.0850, 67.70557
750.2340, 42.21216
751.3830, 45.00427
752.5310, 38.79565
753.6800, 37.39807
754.8280, 31.18823
755.9760, 1.010132
757.1240, 6.790771
758.2720, 0.7587890
759.4190, 3.574707
760.5670, 22.35889
761.7140, 32.14270
762.8610, 27.52405
764.0080, 52.56116
765.1550, 17.34351
766.3020, 37.12561
767.4480, 40.40186
768.5950, 70.18311
769.7410, 42.96387
770.8870, 63.74438
772.0330, 47.52441
773.1780, 53.53442
774.3240, 56.23547
775.4690, 11.09229
776.6140, 49.87061
777.7590, 72.63647
778.9040, 55.62000
780.0490, 21.47571
781.1940, 73.18726
782.3380, 50.94312
783.4820, 79.70715
784.6260, 43.48816
785.7700, 43.23901
786.9140, 40.01965
788.0580, 83.79504
789.2010, 48.50647
790.3450, 28.28662
791.4880, 67.06677
792.6310, 51.84680
793.7730, 14.62659
794.9160, 15.06824
796.0590, 12.62854
797.2010, 21.41699
798.3430, 38.13696
799.4850, 61.91858
800.6270, 95.70007
801.7690, 39.91565
802.9100, 63.69946
804.0520, 31.48340
805.1930, 60.42102
806.3340, 60.10974
807.4750, 54.39795
808.6160, 55.18433
809.7560, 87.97253
810.8970, 57.76111
812.0370, 82.22314
813.1770, 86.01245
814.3170, 58.80237
815.4570, 37.59290
816.5960, 51.38428
817.7360, 53.17725
818.8750, 51.97046
820.0140, 116.7666
821.1530, 98.56445
822.2920, 103.4177
823.4310, 152.2632
824.5690, 216.0660
825.7070, 282.8702
826.8460, 264.6743
827.9840, 210.4814
829.1220, 234.2865
830.2590, 254.2975
831.3970, 355.1305
832.5340, 404.9440
833.6710, 608.7578
834.8080, 860.5719
835.9450, 1376.538
837.0820, 2263.354
838.2190, 3643.171
839.3550, 4568.689
840.4910, 4067.168
841.6270, 2783.985
842.7630, 1562.804
843.8990, 942.6263
845.0350, 558.4489
846.1700, 352.2396
847.3060, 246.0632
848.4410, 214.0217
849.5760, 144.8429
850.7100, 133.6814
851.8450, 130.5079
852.9800, 55.33496
854.1140, 92.55579
855.2480, 10.38391
856.3820, 56.21240
857.5160, 46.04126
858.6500, 41.87061
859.7830, 60.70044
860.9170, 75.46484
862.0500, 62.29565
863.1830, 41.12720
864.3160, 1.958862
865.4480, 19.79077
866.5810, 5.623901
867.7130, 42.45764
868.8460, 45.29321
869.9780, 5.129761
871.1100, 48.96985
872.2410, 0.1890870
873.3730, 14.65173
874.5050, 14.49292
875.6360, 60.33459
876.7670, 24.17664
877.8980, 8.024902
879.0290, 41.87354
880.1590, 14.72546
881.2900, 13.57788
882.4200, 6.432129
883.5500, 34.28711
884.6800, 2.142090
885.8100, 12.99719
886.9400, 48.85376
888.0690, 18.71387
889.1990, 48.57446
890.3280, 60.44092
891.4570, 0.3085940
892.5860, 14.91907
893.7140, 37.91479
894.8430, 19.65649
895.9710, 24.46313
897.1000, 36.95007
898.2280, 35.20251
899.3560, 39.07446
900.4830, 9.951050
901.6110, 7.833008
902.7380, 27.28503
903.8660, 54.58447
904.9930, 37.45679
906.1200, 5.328857
907.2460, 49.20117
908.3730, 22.92676
909.5000, 32.93457
910.6260, 53.80444
911.7520, 70.66797
912.8780, 7.561279
914.0040, 5.544678
915.1290, 1.652954
916.2550, 14.23853
917.3800, 81.13403
918.5050, 21.02942
919.6300, 71.92456
920.7550, 41.81946
921.8800, 54.71509
923.0040, 22.61133
924.1290, 37.50732
925.2530, 23.40454
926.3770, 33.30212
927.5010, 11.19922
928.6250, 32.10181
929.7480, 28.99609
930.8720, 55.89319
931.9950, 45.78052
933.1180, 85.66968
934.2410, 55.55859
935.3640, 61.44714
936.4860, 5.335083
937.6090, 67.23193
938.7310, 24.13220
939.8530, 34.03674
940.9750, 22.94458
942.0970, 51.85327
943.2180, 51.77197
944.3400, 14.69287
945.4610, 18.62000
946.5820, 12.44946
947.7030, 19.48376
948.8240, 39.42090
949.9450, 72.35693
951.0650, 52.29199
952.1860, 50.22595
953.3060, 42.15894
954.4260, 31.09607
955.5460, 11.03223
956.6650, 1.972046
957.7850, 3.117310
958.9040, 35.84668
960.0230, 10.78662
961.1420, 11.72534
962.2610, 10.66260
963.3800, 63.59851
964.4990, 3.464600
965.6170, 6.471069
966.7350, 67.40503
967.8530, 53.33740
968.9710, 47.26831
970.0890, 1.802734
971.2070, 62.12329
972.3240, 32.04761
973.4410, 11.02979
974.5580, 32.88477
975.6750, 56.81433
976.7920, 20.74219
977.9090, 63.66809
979.0250, 75.59290
980.1410, 55.51599
981.2580, 50.44360
982.3740, 0.6309810
983.4890, 48.29126
984.6050, 11.21191
985.7200, 72.13025
986.8360, 59.05359
987.9510, 53.97485
989.0660, 19.89673
990.1810, 28.81738
991.2950, 54.73364
992.4100, 38.64856
993.5240, 43.56128
994.6390, 58.47180
995.7530, 52.42273
996.8660, 40.41504
997.9800, 21.31848
999.0940, 33.91077
1000.207, 31.57422
1001.320, 52.26086
1002.433, 49.15723
1003.546, 48.21191
1004.659, 55.81555
1005.772, 66.84363
1006.884, 68.69250
1007.996, 70.57532
1009.108, 42.49500
1010.220, 73.37195
1011.332, 62.64417
1012.444, 64.52246
1013.555, 105.4771
1014.666, 51.39783
1015.777, 87.26685
1016.888, 34.21802
1017.999, 43.08081
1019.110, 70.92651
1020.220, 92.78271
1021.331, 119.4048
1022.441, 56.29358
1023.551, 42.28845
1024.661, 33.31213
1025.770, 77.11902
1026.880, 88.34680
1027.989, 118.2114
1029.098, 116.0410
1030.207, 177.9521
1031.316, 243.0629
1032.425, 240.0343
1033.533, 301.9064
1034.642, 235.8873
1035.750, 222.6942
1036.858, 156.1178
1037.966, 137.5071
1039.073, 213.3019
1040.181, 252.1063
1041.288, 278.8989
1042.396, 326.4509
1043.503, 371.2329
1044.610, 440.4963
1045.716, 554.3176
1046.823, 707.2147
1047.929, 1104.770
1049.036, 1709.589
1050.142, 2671.216
1051.248, 4087.963
1052.353, 7479.711
1053.459, 16394.45
1054.564, 39520.34
1055.670, 60116.25
1056.775, 50514.98
1057.880, 27089.95
1058.985, 11075.79
1060.089, 4562.498
1061.194, 2097.563
1062.298, 1146.261
1063.402, 762.7056
1064.506, 559.3936
1065.610, 388.0768
1066.713, 310.7546
1067.817, 294.4783
1068.920, 254.1460
1070.023, 259.3632
1071.126, 148.8951
1072.229, 194.7317
1073.332, 115.3783
1074.435, 157.2585
1075.537, 140.8945
1076.639, 113.1934
1077.741, 106.4252
1078.843, 84.96289
1079.945, 100.1338
1081.046, 100.6913
1082.148, 89.38013
1083.249, 113.9758
1084.350, 105.5660
1085.451, 92.15015
1086.551, 84.95129
1087.652, 110.5234
1088.752, 101.1875
1089.853, 100.5681
1090.953, 110.2129
1092.053, 88.78662
1093.152, 120.3275
1094.252, 114.8628
1095.351, 121.3895
1096.451, 109.4250
1097.550, 112.1986
1098.649, 93.68274
1099.748, 111.1868
1100.846, 93.68445
1101.945, 95.17590
1103.043, 88.51013
1104.141, 67.98914
1105.239, 111.4617
1106.337, 79.22717
1107.434, 68.19250
1108.532, 92.64624
1109.629, 83.09375
1110.726, 96.69470
1111.823, 91.12939
1112.920, 105.9519
1114.017, 87.37354
1115.113, 70.65491
1116.210, 75.11243
1117.306, 98.50171
1118.402, 81.49731
1119.498, 56.88684
1120.593, 107.2698
1121.689, 90.64624
1122.784, 75.01611
1123.879, 76.37939
1124.974, 52.87537
1126.069, 48.56689
1127.164, 33.43079
1128.259, 28.76770
1129.353, 55.09753
1130.447, 43.02588
1131.541, 23.34277
1132.635, 28.91760
1133.729, 68.95325
1134.822, 23.24841
1135.916, 6.535645
1137.009, 23.81018
1138.102, 80.07690
1139.195, 62.33752
1140.288, 30.59192
1141.380, 50.84668
1142.473, 5.460815
1143.565, 66.87622
1144.657, 27.09253
1145.749, 29.30164
1146.841, 65.50403
1147.932, 25.70007
1149.024, 57.88916
1150.115, 38.07178
1151.206, 97.24841
1152.297, 4.418823
1153.388, 27.57617
1154.479, 2.265503
1155.569, 18.86902
1156.659, 46.99561
1157.750, 1.883667
1158.839, 26.22437
1159.929, 73.32617
1161.019, 21.42200
1162.108, 13.51099
1163.198, 13.59131
1164.287, 0.3366700
1165.376, 4.279053
1166.465, 53.76233
1167.553, 17.79822
1168.642, 4.833618
1169.730, 60.85791
1170.818, 22.87646
1171.906, 23.88953
1172.994, 46.89673
1174.082, 19.09595
1175.170, 11.11133
1176.257, 52.14539
1177.344, 13.78088
1178.431, 43.70056
1179.518, 12.61584
1180.605, 2.475098
1181.691, 36.42090
1182.778, 17.31189
1183.864, 20.37878
1184.950, 10.07874
1186.036, 8.953125
1187.122, 14.82068
1188.207, 6.683350
1189.292, 9.538818
1190.378, 58.38818
1191.463, 12.76709
1192.548, 76.06116
1193.632, 1.885132
1194.717, 14.70789
1195.801, 12.52637
1196.886, 33.34058
1197.970, 8.150513
1199.054, 54.95544
1200.137, 2.243652
1201.221, 7.452271
1202.305, 12.67297
1203.388, 10.09167
1204.471, 1.852539
1205.554, 22.60657
1206.637, 5.643066
1207.719, 20.90283
1208.802, 10.24463
1209.884, 31.47034
1210.966, 12.78015
1212.048, 58.89697
1213.130, 40.57080
1214.212, 70.27515
1215.293, 17.94214
1216.374, 17.39404
1217.456, 44.25562
1218.536, 16.09814
1219.617, 29.53540
1220.698, 20.16602
1221.778, 16.20605
1222.859, 61.40918
1223.939, 36.02173
1225.019, 18.63159
1226.099, 8.761230
1227.178, 8.112305
1228.258, 33.43213
1229.337, 7.023682
1230.417, 5.612549
1231.496, 37.19922
1232.574, 7.783691
1233.653, 40.36694
1234.732, 30.94800
1235.810, 22.52710
