##NAMES=Cerussite
##RRUFFID=R050011
##IDEAL CHEMISTRY=Pb^2+^CO_3_
##LOCALITY=Daoping Lead and Zinc mine, Gongcheng, Guangxi, China
##OWNER=RRUFF
##SOURCE=Eugene Schlepp
##DESCRIPTION=Colorless hexagonal bipyramidal crystals
##STATUS=The identification of this mineral has been confirmed by X-ray diffraction and chemical analysis
##URL=rruff.info/R050011
##MEASURED CHEMISTRY=Pb_1.00_CO_3_ ; CO_2_ not measured but estimated by difference and stoichiometry
##PIN_ID=L00082
##ORIENTATION=Laser parallel to -a* (-1 0 0). Fiducial mark perpendicular to laser is parallel to -b [0 -1 0]
46.637, 0.000
48.043, 15.519
49.450, 43.117
50.856, 0.635
52.261, 23.452
53.667, 47.756
55.072, 101.758
56.477, 139.201
57.882, 168.981
59.287, 203.494
60.691, 195.663
62.095, 205.556
63.499, 203.401
64.903, 197.584
66.306, 108.907
67.709, 84.713
69.112, 52.975
70.515, 45.669
71.917, 49.767
73.319, 29.243
74.721, 73.075
76.123, 79.242
77.525, 45.725
78.926, 37.490
80.327, 75.420
81.728, 38.074
83.128, 5.534
84.529, 77.396
85.929, 95.501
87.329, 251.843
88.728, 295.412
90.128, 526.197
91.527, 734.185
92.926, 956.363
94.324, 1331.719
95.723, 1617.245
97.121, 2070.929
98.519, 2378.760
99.917, 2863.735
101.314, 3328.850
102.712, 3553.100
104.109, 3857.482
105.505, 3912.995
106.902, 4231.635
108.298, 4355.401
109.694, 4950.289
111.090, 5329.297
112.486, 5889.427
113.881, 6960.673
115.277, 7254.039
116.672, 8278.515
118.066, 8202.108
119.461, 8535.808
120.855, 8039.619
122.249, 7493.540
123.643, 7249.565
125.036, 6544.696
126.430, 6711.934
127.823, 6211.273
129.216, 6442.716
130.608, 6165.249
132.001, 5922.829
133.393, 5872.458
134.785, 5127.133
136.176, 4973.853
137.568, 4215.618
138.959, 4064.424
140.350, 3700.261
141.741, 3392.136
143.131, 3318.046
144.521, 2995.997
145.911, 2983.993
147.301, 2725.976
148.691, 2790.944
150.080, 2647.990
151.469, 2467.111
152.858, 2487.288
154.247, 2290.526
155.635, 2308.822
157.024, 2151.175
158.411, 2024.587
159.799, 2018.056
161.187, 1921.583
162.574, 1969.184
163.961, 1854.844
165.348, 1941.562
166.734, 1831.338
168.121, 1818.173
169.507, 1821.067
170.893, 1769.030
172.278, 1890.052
173.664, 1755.132
175.049, 1868.277
176.434, 1735.496
177.819, 1819.774
179.203, 1866.109
180.587, 1693.500
181.971, 1831.947
183.355, 1736.449
184.739, 1718.007
186.122, 1664.621
187.505, 1715.289
188.888, 1688.012
190.271, 1713.789
191.653, 1788.622
193.035, 1690.508
194.417, 1814.458
195.799, 1719.466
197.180, 1817.525
198.562, 1913.636
199.943, 1824.800
201.324, 1968.015
202.704, 1961.281
204.084, 2029.599
205.465, 2026.966
206.844, 2116.409
208.224, 2259.932
209.603, 2251.515
210.983, 2463.145
212.362, 2458.821
213.740, 2561.261
215.119, 2524.740
216.497, 2545.242
217.875, 2726.751
219.253, 2583.280
220.631, 2882.816
222.008, 2789.344
223.385, 2991.865
224.762, 2992.378
226.139, 3035.900
227.515, 3124.442
228.891, 2732.020
230.267, 2866.327
231.643, 2571.605
233.018, 2376.965
234.394, 2295.396
235.769, 1975.772
237.144, 1972.240
238.518, 1748.886
239.893, 1717.478
241.267, 1584.271
242.641, 1501.128
244.014, 1396.044
245.388, 1285.309
246.761, 1303.352
248.134, 1181.017
249.507, 1200.487
250.879, 1104.707
252.252, 1055.003
253.624, 1063.329
254.996, 915.707
256.367, 993.138
257.739, 831.618
259.110, 885.465
260.481, 822.042
261.852, 787.666
263.222, 821.393
264.592, 688.113
265.962, 751.892
267.332, 638.707
268.702, 640.565
270.071, 642.471
271.440, 560.419
272.809, 665.408
274.178, 539.438
275.546, 577.614
276.915, 581.724
278.283, 562.877
279.650, 566.066
281.018, 475.294
282.385, 534.560
283.752, 430.883
285.119, 475.243
286.486, 477.639
287.852, 439.075
289.218, 512.568
290.584, 366.075
291.950, 426.303
293.316, 405.097
294.681, 410.716
296.046, 387.368
297.411, 373.056
298.775, 390.777
300.140, 332.534
301.504, 322.335
302.868, 304.082
304.231, 358.937
305.595, 387.909
306.958, 243.828
308.321, 362.845
309.684, 282.829
311.047, 333.844
312.409, 300.892
313.771, 235.972
315.133, 339.085
316.495, 260.229
317.856, 307.404
319.217, 279.610
320.578, 227.847
321.939, 289.115
323.299, 166.413
324.660, 228.743
326.020, 227.103
327.380, 174.493
328.739, 197.938
330.099, 169.387
331.458, 199.867
332.817, 173.403
334.176, 180.940
335.534, 221.506
336.892, 208.098
338.251, 180.341
339.608, 146.629
340.966, 269.310
342.323, 183.018
343.681, 198.752
345.037, 151.519
346.394, 108.311
347.751, 191.128
349.107, 96.971
350.463, 202.839
351.819, 191.732
353.174, 146.649
354.530, 173.591
355.885, 91.599
357.240, 128.589
358.594, 89.603
359.949, 75.640
361.303, 69.700
362.657, 115.600
364.011, 157.706
365.365, 54.253
366.718, 119.403
368.071, 50.714
369.424, 89.907
370.777, 91.122
372.129, 58.357
373.481, 94.612
374.833, 76.889
376.185, 96.185
377.537, 107.507
378.888, 56.858
380.239, 114.234
381.590, 9.192
382.941, 110.623
384.291, 20.079
385.642, 55.612
386.992, 67.120
388.341, 46.660
389.691, 76.225
391.040, 100.817
392.389, 78.553
393.738, 97.207
395.087, 35.462
396.435, 134.178
397.784, 26.027
399.132, 75.275
400.479, 30.068
401.827, 9.254
403.174, 81.219
404.521, 25.667
405.868, 112.568
407.215, 54.518
408.561, 29.375
409.908, 55.469
411.254, 21.515
412.599, 55.823
413.945, 101.121
415.290, 61.302
416.636, 65.565
417.980, 31.557
419.325, 66.676
420.670, 21.192
422.014, 39.641
423.358, 7.809
424.702, 4.784
426.045, 62.421
427.389, 0.881
428.732, 55.423
430.075, 84.684
431.417, 24.191
432.760, 49.490
434.102, 53.807
435.444, 125.150
436.786, 45.490
438.127, 43.928
439.469, 2.310
440.810, 21.708
442.151, 100.265
443.492, 21.694
444.832, 46.654
446.172, 20.119
447.512, 71.600
448.852, 55.819
450.192, 0.661
451.531, 69.874
452.870, 28.577
454.209, 11.970
455.548, 69.628
456.887, 20.210
458.225, 64.374
459.563, 18.986
460.901, 22.180
462.238, 35.183
463.576, 32.542
464.913, 140.102
466.250, 4.232
467.587, 94.445
468.923, 2.867
470.259, 54.832
471.596, 53.631
472.931, 24.352
474.267, 105.084
475.603, 58.144
476.938, 32.896
478.273, 44.660
479.608, 63.442
480.942, 95.234
482.276, 64.409
483.611, 100.848
484.944, 47.291
486.278, 22.132
487.612, 104.106
488.945, 0.966
490.278, 38.834
491.611, 31.406
492.943, 1.290
494.276, 15.645
495.608, 16.080
496.940, 5.986
498.271, 15.472
499.603, 15.557
500.934, 27.358
502.265, 29.281
503.596, 86.221
504.927, 11.473
506.257, 56.426
507.587, 21.386
508.917, 17.353
510.247, 57.334
511.577, 21.321
512.906, 64.313
514.235, 25.312
515.564, 4.315
516.892, 166.322
518.221, 15.334
519.549, 98.351
520.877, 16.373
522.205, 51.602
523.533, 94.403
524.860, 61.587
526.187, 46.395
527.514, 17.617
528.841, 35.362
530.167, 48.346
531.493, 22.333
532.820, 25.323
534.145, 33.800
535.471, 13.313
536.796, 56.311
538.122, 29.640
539.447, 40.644
540.771, 21.011
542.096, 50.982
543.420, 30.987
544.744, 64.017
546.068, 89.947
547.392, 30.069
548.715, 34.078
550.039, 21.348
551.362, 44.383
552.684, 99.559
554.007, 15.983
555.329, 30.255
556.652, 24.817
557.973, 6.109
559.295, 82.012
560.617, 62.086
561.938, 17.777
563.259, 5.638
564.580, 24.983
565.901, 26.848
567.221, 36.422
568.541, 21.587
569.861, 52.228
571.181, 13.872
572.501, 107.679
573.820, 10.460
575.139, 16.260
576.458, 0.054
577.777, 26.838
579.095, 143.618
580.414, 5.076
581.732, 33.844
583.049, 4.391
584.367, 126.307
585.685, 3.946
587.002, 16.811
588.319, 96.536
589.636, 2.742
590.952, 81.695
592.268, 52.397
593.585, 39.223
594.900, 116.917
596.216, 30.502
597.532, 101.187
598.847, 43.864
600.162, 27.540
601.477, 75.208
602.792, 54.127
604.106, 191.515
605.420, 43.129
606.734, 11.739
608.048, 96.717
609.361, 53.287
610.675, 83.130
611.988, 38.024
613.301, 10.621
614.614, 104.929
615.926, 18.474
617.238, 212.034
618.550, 19.562
619.862, 100.077
621.174, 120.694
622.485, 65.272
623.797, 166.147
625.108, 112.551
626.418, 129.032
627.729, 173.442
629.039, 40.911
630.349, 200.375
631.659, 80.828
632.969, 31.274
634.279, 150.716
635.588, 75.146
636.897, 248.646
638.206, 154.060
639.515, 90.466
640.823, 96.865
642.131, 24.313
643.439, 152.286
644.747, 46.654
646.055, 130.014
647.362, 165.426
648.669, 24.772
649.976, 193.103
651.283, 67.398
652.589, 119.712
653.896, 128.017
655.202, 5.313
656.508, 161.971
657.814, 91.602
659.119, 77.867
660.424, 141.485
661.729, 12.732
663.034, 157.973
664.339, 87.594
665.643, 99.818
666.947, 288.051
668.251, 290.255
669.555, 649.453
670.859, 475.641
672.162, 513.820
673.465, 368.948
674.768, 358.108
676.071, 398.260
677.373, 193.400
678.676, 161.531
679.978, 198.836
681.280, 205.948
682.581, 206.181
683.883, 212.722
685.184, 190.667
686.485, 134.741
687.786, 130.801
689.087, 83.860
690.387, 90.907
691.687, 114.946
692.987, 115.975
694.287, 41.994
695.586, 71.730
696.886, 41.999
698.185, 68.430
699.484, 63.404
700.783, 67.368
702.081, 71.062
703.379, 12.280
704.677, 56.205
705.975, 40.121
707.273, 7.876
708.570, 93.890
709.868, 28.754
711.165, 6.033
712.462, 95.863
713.758, 53.574
715.055, 75.904
716.351, 84.707
717.647, 138.130
718.943, 160.792
720.238, 25.002
721.533, 209.755
722.829, 88.507
724.124, 137.303
725.418, 237.932
726.713, 37.664
728.007, 186.085
729.301, 118.799
730.595, 115.260
731.889, 188.779
733.182, 98.581
734.476, 170.270
735.769, 160.955
737.061, 151.949
738.354, 121.620
739.647, 61.062
740.939, 206.716
742.231, 43.127
743.523, 111.464
744.814, 151.093
746.106, 7.486
747.397, 197.093
748.688, 16.309
749.978, 119.264
751.269, 104.828
752.559, 67.338
753.849, 178.920
755.139, 100.466
756.429, 83.864
757.719, 182.395
759.008, 1.596
760.297, 106.911
761.586, 112.410
762.875, 23.803
764.163, 184.661
765.451, 20.118
766.739, 158.728
768.027, 190.121
769.315, 59.590
770.602, 221.021
771.890, 4.126
773.177, 157.536
774.463, 143.367
775.750, 26.760
777.036, 222.150
778.323, 26.461
779.609, 57.898
780.894, 91.252
782.180, 121.600
783.465, 131.472
784.750, 47.206
786.035, 87.533
787.320, 111.854
788.605, 46.853
789.889, 261.430
791.173, 23.269
792.457, 167.053
793.741, 78.324
795.024, 106.588
796.307, 35.846
797.591, 32.524
798.873, 187.698
800.156, 90.790
801.439, 29.000
802.721, 163.949
804.003, 51.451
805.285, 65.643
806.566, 95.829
807.848, 89.010
809.129, 137.184
810.410, 70.726
811.691, 70.892
812.971, 130.354
814.252, 30.487
815.532, 244.646
816.812, 131.759
818.092, 2.890
819.371, 211.063
820.651, 24.821
821.930, 140.271
823.209, 187.966
824.488, 95.049
825.766, 220.276
827.045, 103.347
828.323, 157.415
829.601, 165.477
830.878, 143.535
832.156, 210.587
833.433, 265.635
834.710, 419.693
835.987, 681.774
837.264, 994.836
838.540, 917.534
839.817, 1102.100
841.093, 719.156
842.369, 515.208
843.644, 260.836
844.920, 257.888
846.195, 181.105
847.470, 99.147
848.745, 183.873
850.020, 93.922
851.294, 152.629
852.568, 115.677
853.842, 71.712
855.116, 209.761
856.390, 36.823
857.663, 163.724
858.936, 52.733
860.209, 26.480
861.482, 148.225
862.755, 111.515
864.027, 60.050
865.299, 142.813
866.571, 85.866
867.843, 205.908
869.115, 129.039
870.386, 127.095
871.657, 234.175
872.928, 49.747
874.199, 189.827
875.470, 49.883
876.740, 54.936
878.010, 221.003
879.280, 69.077
880.550, 172.012
881.820, 91.089
883.089, 20.162
884.358, 198.232
885.627, 55.319
886.896, 109.408
888.164, 129.500
889.433, 77.589
890.701, 239.677
891.969, 47.774
893.236, 60.874
894.504, 152.970
895.771, 80.037
897.038, 208.137
898.305, 158.235
899.572, 56.604
900.838, 175.701
902.105, 87.691
903.371, 162.807
904.637, 114.918
905.902, 40.055
907.168, 181.187
908.433, 51.317
909.698, 114.446
910.963, 253.573
912.228, 86.695
913.492, 230.838
914.757, 42.979
916.021, 93.743
917.285, 117.885
918.548, 6.768
919.812, 212.905
921.075, 31.039
922.338, 69.192
923.601, 189.342
924.864, 3.537
926.126, 170.609
927.388, 113.753
928.650, 107.778
929.912, 215.921
931.174, 96.681
932.435, 245.820
933.697, 164.957
934.958, 41.090
936.218, 254.221
937.479, 98.345
938.739, 148.470
940.000, 175.596
941.260, 4.288
942.520, 186.848
943.779, 34.899
945.039, 46.028
946.298, 196.169
947.557, 117.306
948.816, 172.384
950.074, 177.923
951.333, 136.056
952.591, 311.195
953.849, 20.757
955.107, 166.370
956.365, 172.511
957.622, 78.647
958.879, 169.781
960.136, 116.916
961.393, 92.048
962.650, 222.185
963.906, 48.682
965.162, 223.533
966.418, 102.411
967.674, 65.481
968.930, 248.502
970.185, 36.197
971.441, 113.278
972.696, 145.338
973.950, 17.586
975.205, 207.896
976.459, 12.964
977.714, 65.026
978.968, 78.312
980.222, 87.373
981.475, 138.645
982.729, 114.767
983.982, 58.838
985.235, 165.516
986.488, 44.582
987.740, 111.643
988.993, 18.395
990.245, 60.454
991.497, 93.765
992.749, 63.956
994.000, 15.987
995.252, 104.005
996.503, 15.052
997.754, 159.093
999.005, 133.810
1000.256, 141.861
1001.506, 338.297
1002.756, 83.342
1004.006, 205.385
1005.256, 74.376
1006.506, 69.423
1007.755, 292.489
1009.005, 120.667
1010.254, 137.729
1011.502, 240.914
1012.751, 8.979
1014.000, 327.035
1015.248, 61.514
1016.496, 173.569
1017.744, 344.837
1018.991, 50.148
1020.239, 191.188
1021.486, 190.236
1022.733, 172.593
1023.980, 356.597
1025.227, 89.409
1026.473, 281.422
1027.719, 393.398
1028.965, 232.679
1030.211, 572.672
1031.457, 645.319
1032.702, 471.301
1033.948, 460.162
1035.193, 212.611
1036.438, 406.572
1037.682, 365.084
1038.927, 349.161
1040.171, 692.102
1041.415, 521.552
1042.659, 620.671
1043.903, 845.590
1045.146, 825.159
1046.390, 1333.062
1047.633, 1513.351
1048.876, 2183.237
1050.118, 3943.118
1051.361, 7418.339
1052.603, 28198.557
1053.845, 56488.430
1055.087, 56484.633
1056.329, 31594.455
1057.571, 10684.333
1058.812, 4284.758
1060.053, 2884.580
1061.294, 1624.854
1062.535, 1254.988
1063.775, 974.786
1065.016, 610.768
1066.256, 756.556
1067.496, 559.614
1068.736, 552.384
1069.975, 573.146
1071.214, 371.951
1072.454, 432.691
1073.693, 446.421
1074.931, 271.099
1076.170, 439.812
1077.408, 203.054
1078.647, 298.150
1079.885, 395.832
1081.122, 202.110
1082.360, 440.797
1083.597, 269.457
1084.835, 183.330
1086.072, 469.969
1087.308, 186.597
1088.545, 380.949
1089.781, 343.556
1091.018, 283.594
1092.254, 450.175
1093.490, 194.710
1094.725, 183.862
1095.961, 427.419
1097.196, 145.964
1098.431, 252.852
1099.666, 253.383
1100.900, 139.835
1102.135, 391.342
1103.369, 219.093
1104.603, 271.666
1105.837, 348.137
1107.071, 168.595
1108.304, 376.960
1109.538, 253.393
1110.771, 188.021
1112.004, 266.439
1113.236, 106.547
1114.469, 101.749
1115.701, 185.223
1116.933, 21.697
1118.165, 226.029
1119.397, 163.308
1120.629, 173.885
1121.860, 347.531
1123.091, 35.244
1124.322, 228.165
1125.553, 314.311
1126.783, 80.590
1128.014, 292.979
1129.244, 85.229
1130.474, 121.036
1131.704, 381.318
1132.933, 18.524
1134.163, 197.112
1135.392, 237.256
1136.621, 10.412
1137.850, 298.855
1139.079, 82.996
1140.307, 111.568
1141.535, 358.066
1142.763, 17.421
1143.991, 296.604
1145.219, 205.478
1146.446, 44.493
1147.674, 337.396
1148.901, 58.379
1150.128, 225.342
1151.354, 285.304
1152.581, 14.763
1153.807, 255.650
1155.033, 134.534
1156.259, 123.401
1157.485, 227.974
1158.710, 106.829
1159.936, 165.666
1161.161, 244.677
1162.386, 61.482
1163.611, 252.249
1164.835, 111.018
1166.060, 99.768
1167.284, 298.428
1168.508, 10.857
1169.732, 85.823
1170.955, 224.485
1172.179, 6.857
1173.402, 271.767
1174.625, 10.375
1175.848, 98.958
1177.070, 277.521
1178.293, 3.932
1179.515, 234.583
1180.737, 243.080
1181.959, 48.439
1183.181, 309.985
1184.402, 1.607
1185.624, 136.770
1186.845, 255.128
1188.066, 16.532
1189.286, 121.769
1190.507, 170.050
1191.727, 38.314
1192.947, 246.555
1194.167, 74.777
1195.387, 182.979
1196.607, 211.162
1197.826, 60.673
1199.045, 87.429
1200.264, 335.508
1201.483, 76.431
1202.702, 251.559
1203.920, 159.530
1205.138, 47.483
1206.356, 365.412
1207.574, 63.324
1208.792, 91.213
1210.009, 309.081
1211.227, 6.932
1212.444, 254.752
1213.661, 102.555
1214.877, 130.338
1216.094, 258.103
1217.310, 24.151
1218.526, 243.550
1219.742, 271.233
1220.958, 118.900
1222.173, 336.549
1223.389, 54.184
1224.604, 71.798
1225.819, 349.393
1227.034, 46.971
1228.248, 164.528
1229.463, 342.073
1230.677, 109.601
1231.891, 397.114
1233.105, 184.611
1234.318, 32.077
1235.532, 319.511
1236.745, 33.071
1237.958, 204.316
1239.171, 251.681
1240.384, 30.983
1241.596, 216.320
1242.809, 243.606
1244.021, 80.877
1245.233, 378.127
1246.444, 4.639
1247.656, 192.566
1248.867, 299.751
1250.079, 23.078
1251.290, 314.064
1252.500, 241.187
1253.711, 18.267
1254.921, 455.327
1256.132, 112.371
1257.342, 202.082
1258.552, 389.074
1259.761, 25.951
1260.971, 142.785
1262.180, 239.709
1263.389, 4.723
1264.598, 271.601
1265.807, 98.463
1267.015, 90.520
1268.223, 387.311
1269.432, 43.672
1270.640, 270.946
1271.847, 267.687
1273.055, 14.183
1274.262, 430.884
1275.470, 47.353
1276.677, 36.049
1277.883, 360.581
1279.090, 66.583
1280.296, 203.178
1281.503, 199.757
1282.709, 5.624
1283.915, 376.557
1285.120, 62.825
1286.326, 9.194
1287.531, 335.678
1288.736, 20.202
1289.941, 176.652
1291.146, 283.088
1292.350, 34.170
1293.555, 305.827
1294.759, 271.812
1295.963, 18.173
1297.167, 474.514
1298.370, 11.111
1299.574, 185.190
1300.777, 411.391
1301.980, 62.473
1303.183, 378.456
1304.386, 364.447
1305.588, 60.654
1306.790, 356.846
1307.993, 352.602
1309.195, 268.767
1310.396, 504.700
1311.598, 250.572
1312.799, 386.700
1314.000, 510.799
1315.201, 256.573
1316.402, 582.635
1317.603, 396.890
1318.803, 202.929
1320.003, 617.986
1321.203, 373.663
1322.403, 359.602
1323.603, 523.870
1324.802, 319.787
1326.002, 545.696
1327.201, 467.114
1328.400, 253.005
1329.599, 667.266
1330.797, 352.943
1331.995, 378.742
1333.194, 662.012
1334.392, 277.537
1335.589, 633.248
1336.787, 718.287
1337.985, 283.975
1339.182, 709.173
1340.379, 614.752
1341.576, 330.315
1342.772, 870.520
1343.969, 555.714
1345.165, 671.236
1346.361, 920.394
1347.557, 625.891
1348.753, 1061.335
1349.949, 1096.217
1351.144, 971.680
1352.339, 1596.674
1353.534, 1161.795
1354.729, 1397.238
1355.924, 2121.466
1357.118, 1666.910
1358.312, 2222.080
1359.506, 2757.377
1360.700, 2332.849
1361.894, 3145.219
1363.088, 2960.731
1364.281, 2906.275
1365.474, 3481.649
1366.667, 2677.846
1367.860, 2633.004
1369.052, 2858.373
1370.245, 2244.127
1371.437, 2379.342
1372.629, 2555.269
1373.821, 2091.386
1375.013, 2517.727
1376.204, 2183.295
1377.395, 2045.750
1378.586, 2408.256
1379.777, 1864.450
1380.968, 1760.252
1382.159, 1724.336
1383.349, 1237.115
1384.539, 1353.184
1385.729, 1268.224
1386.919, 644.002
1388.109, 1059.070
1389.298, 684.928
1390.487, 549.303
1391.676, 824.543
1392.865, 259.676
1394.054, 585.496
1395.242, 639.965
1396.431, 80.175
1397.619, 575.394
1398.807, 411.083
1399.995, 35.057
1401.182, 498.239
1402.370, 242.586
1403.557, 178.136
1404.744, 438.642
1405.931, 102.781
1407.118, 234.903
1408.304, 530.303
1409.490, 82.070
1410.676, 402.572
1411.862, 397.769
1413.048, 7.054
1414.234, 558.108
1415.419, 173.275
1416.604, 148.437
1417.789, 563.594
1418.974, 98.743
1420.159, 263.896
1421.343, 369.061
1422.528, 134.248
1423.712, 459.434
1424.896, 364.640
1426.079, 70.159
1427.263, 505.037
1428.446, 290.225
1429.629, 285.483
1430.812, 510.785
1431.995, 66.127
1433.178, 381.475
1434.360, 446.829
1435.543, 57.807
1436.725, 337.567
1437.907, 322.943
1439.088, 88.367
1440.270, 563.786
1441.451, 149.191
1442.632, 294.594
1443.813, 489.987
1444.994, 74.645
1446.175, 360.738
1447.355, 546.195
1448.535, 151.653
1449.715, 567.173
1450.895, 522.694
1452.075, 98.221
1453.255, 723.771
1454.434, 289.331
1455.613, 404.969
1456.792, 820.674
1457.971, 329.681
1459.149, 505.375
1460.328, 861.206
1461.506, 237.150
1462.684, 818.904
1463.862, 763.324
1465.040, 429.200
1466.217, 1115.109
1467.395, 711.057
1468.572, 637.042
1469.749, 1093.070
1470.925, 634.756
1472.102, 960.468
1473.278, 1176.200
1474.455, 481.953
1475.631, 1134.457
1476.807, 959.828
1477.982, 615.192
1479.158, 1060.548
1480.333, 956.217
1481.508, 640.839
1482.683, 995.389
1483.858, 659.852
1485.033, 584.215
1486.207, 918.606
1487.381, 293.023
1488.555, 727.628
1489.729, 712.545
1490.903, 257.338
1492.076, 621.979
1493.250, 577.301
1494.423, 272.543
1495.596, 598.600
1496.769, 404.715
1497.941, 142.445
1499.114, 450.637
1500.286, 79.434
1501.458, 248.983
1502.630, 519.432
1503.802, 21.070
