##NAMES=Cerussite
##RRUFFID=R050023
##IDEAL CHEMISTRY=Pb^2+^CO_3_
##LOCALITY=Mammoth - St Anthony mine, Tiger, Pinal County, Arizona, USA
##OWNER=RRUFF
##SOURCE=Eugene Schlepp
##DESCRIPTION=Prismatic white single crystals
##STATUS=The identification of this mineral has been confirmed by X-ray diffraction and chemical analysis
##URL=rruff.info/R050023
##MEASURED CHEMISTRY=Pb_1.00_CO_3_ ; CO_2_ not measured but estimated by difference and stoichiometry
##PIN_ID=L00263
##ORIENTATION=Laser parallel to -c* (0 0 -1). Fiducial mark perpendicular to laser is parallel to a [1 0 0]
55.677, 0.000
57.079, 30.762
58.480, 80.769
59.882, 66.598
61.283, 84.878
62.683, 72.549
64.084, 17.551
65.484, 3.916
66.884, 11.514
68.284, 13.880
69.684, 11.691
71.083, 49.090
72.482, 107.219
73.881, 163.999
75.280, 190.366
76.678, 205.268
78.076, 236.658
79.474, 255.492
80.872, 277.038
82.270, 284.322
83.667, 333.248
85.064, 334.473
86.461, 390.971
87.858, 476.719
89.254, 528.697
90.650, 636.891
92.046, 673.299
93.442, 764.914
94.838, 819.734
96.233, 958.748
97.628, 968.945
99.023, 1061.305
100.418, 1124.811
101.812, 1172.445
103.206, 1308.197
104.600, 1344.055
105.994, 1441.012
107.387, 1578.059
108.781, 1782.190
110.174, 2016.399
111.566, 2223.680
112.959, 2469.029
114.351, 2666.443
115.744, 2855.221
117.136, 3036.444
118.527, 3164.025
119.919, 3271.657
121.310, 3325.339
122.701, 3469.074
124.092, 3593.884
125.482, 3772.824
126.873, 4030.889
128.263, 4200.035
129.653, 4337.311
131.042, 4422.722
132.432, 4349.229
133.821, 4076.816
135.210, 3723.468
136.599, 3353.182
137.987, 2960.920
139.376, 2676.655
140.764, 2388.364
142.152, 2174.048
143.539, 1936.711
144.927, 1847.349
146.314, 1719.962
147.701, 1610.571
149.088, 1551.171
150.474, 1427.766
151.861, 1387.357
153.247, 1324.946
154.633, 1228.534
156.018, 1173.121
157.404, 1083.708
158.789, 1042.297
160.174, 1021.886
161.559, 977.477
162.943, 963.334
164.327, 896.667
165.711, 947.265
167.095, 929.864
168.479, 952.465
169.862, 888.069
171.246, 945.674
172.628, 904.281
174.011, 1013.890
175.394, 985.500
176.776, 950.112
178.158, 985.725
179.540, 960.338
180.922, 968.959
182.303, 899.571
183.684, 941.192
185.065, 955.932
186.446, 935.609
187.826, 969.321
189.207, 1008.360
190.587, 991.807
191.967, 1043.906
193.346, 1138.851
194.726, 1186.747
196.105, 1274.063
197.484, 1314.376
198.862, 1416.050
200.241, 1503.037
201.619, 1596.666
202.997, 1690.468
204.375, 1837.250
205.753, 1958.567
207.130, 2133.327
208.507, 2242.425
209.884, 2402.643
211.261, 2503.136
212.638, 2548.372
214.014, 2607.870
215.390, 2588.655
216.766, 2518.295
218.141, 2271.845
219.517, 2199.957
220.892, 2043.542
222.267, 2004.476
223.642, 1811.463
225.016, 1692.428
226.391, 1582.408
227.765, 1470.294
229.139, 1348.905
230.512, 1244.490
231.886, 1108.563
233.259, 999.984
234.632, 882.618
236.005, 810.201
237.377, 753.520
238.749, 706.842
240.122, 642.125
241.493, 597.448
242.865, 541.767
244.237, 499.101
245.608, 480.501
246.979, 433.923
248.350, 408.320
249.720, 374.718
251.090, 346.040
252.461, 315.624
253.830, 295.045
255.200, 281.537
256.570, 254.996
257.939, 245.486
259.308, 206.966
260.677, 178.492
262.045, 175.942
263.414, 156.458
264.782, 152.946
266.150, 137.507
267.517, 124.051
268.885, 118.604
270.252, 111.084
271.619, 109.606
272.986, 106.138
274.353, 84.605
275.719, 74.099
277.085, 81.610
278.451, 95.161
279.817, 65.653
281.182, 46.246
282.548, 56.738
283.913, 64.233
285.278, 67.766
286.642, 71.357
288.007, 29.727
289.371, 59.226
290.735, 52.743
292.099, 17.249
293.462, 45.747
294.826, 45.258
296.189, 20.734
297.552, 34.218
298.914, 9.687
300.277, 14.172
301.639, 31.612
303.001, 20.025
304.363, 8.423
305.724, 12.835
307.086, 32.220
308.447, 10.636
309.808, 14.012
311.168, 1.613
312.529, 12.730
313.889, 21.067
315.249, 3.395
316.609, 11.715
317.969, 3.054
319.328, 8.383
320.687, 6.320
322.046, 10.001
323.405, 1.724
324.764, 1.456
326.122, 4.677
327.480, 17.946
328.838, 12.709
330.196, 18.484
331.553, 24.273
332.910, 18.077
334.267, 7.894
335.624, 5.723
336.981, 9.562
338.337, 4.166
339.693, 6.524
341.049, 5.148
342.405, 9.033
343.760, 15.929
345.116, 19.841
346.471, 18.767
347.826, 20.671
349.180, 17.645
350.535, 20.574
351.889, 13.492
353.243, 17.824
354.597, 12.557
355.950, 10.371
357.304, 11.386
358.657, 1.470
360.010, 15.518
361.362, 13.572
362.715, 4.322
364.067, 6.760
365.419, 2.892
366.771, 11.032
368.123, 12.256
369.474, 5.500
370.825, 3.752
372.176, 2.983
373.527, 5.283
374.877, 14.568
376.228, 13.105
377.578, 7.802
378.928, 8.628
380.277, 1.741
381.627, 6.917
382.976, 13.502
384.325, 15.639
385.674, 12.238
387.023, 13.821
388.371, 13.831
389.719, 17.414
391.067, 5.980
392.415, 11.507
393.762, 10.072
395.110, 16.589
396.457, 13.163
397.804, 3.696
399.150, 12.505
400.497, 14.692
401.843, 22.132
403.189, 21.574
404.535, 26.013
405.881, 29.489
407.226, 22.883
408.571, 23.303
409.916, 31.691
411.261, 36.052
412.605, 31.422
413.950, 27.794
415.294, 43.100
416.638, 29.441
417.981, 40.725
419.325, 36.022
420.668, 41.316
422.011, 32.586
423.354, 52.869
424.697, 39.130
426.039, 47.398
427.381, 31.622
428.723, 36.833
430.065, 36.012
431.406, 54.233
432.748, 45.386
434.089, 43.538
435.430, 59.749
436.770, 53.918
438.111, 50.136
439.451, 41.283
440.791, 55.429
442.131, 31.602
443.471, 55.720
444.810, 54.831
446.149, 45.938
447.488, 65.020
448.827, 52.100
450.166, 53.146
451.504, 48.172
452.842, 50.215
454.180, 51.196
455.518, 47.156
456.855, 54.104
458.193, 51.041
459.530, 52.966
460.867, 47.880
462.203, 56.781
463.540, 61.672
464.876, 63.551
466.212, 58.413
467.548, 63.270
468.883, 54.116
470.219, 61.943
471.554, 60.765
472.889, 69.483
474.224, 66.275
475.558, 77.065
476.892, 82.788
478.227, 60.532
479.561, 61.225
480.894, 72.926
482.228, 59.351
483.561, 77.517
484.894, 77.090
486.227, 83.652
487.559, 73.082
488.892, 84.621
490.224, 67.457
491.556, 69.930
492.888, 73.042
494.220, 79.511
495.551, 74.585
496.882, 78.792
498.213, 74.142
499.544, 71.863
500.874, 66.885
502.205, 68.598
503.535, 63.942
504.865, 68.067
506.194, 59.094
507.524, 50.160
508.853, 52.078
510.182, 41.159
511.511, 33.027
512.840, 37.312
514.168, 27.299
515.496, 31.588
516.824, 32.989
518.152, 41.300
519.480, 27.208
520.807, 22.210
522.134, 28.311
523.461, 18.467
524.788, 22.947
526.114, 17.648
527.441, 29.815
528.767, 26.898
530.093, 22.371
531.418, 11.934
532.744, 21.539
534.069, 12.968
535.394, 15.794
536.719, 5.958
538.044, 0.976
539.368, 12.091
540.693, 3.647
542.017, 15.636
543.340, 7.205
544.664, 8.249
545.987, 10.612
547.311, 5.277
548.634, 6.812
549.956, 8.907
551.279, 15.864
552.601, 5.064
553.923, 14.183
555.245, 2.235
556.567, 7.245
557.889, 12.883
559.210, 8.826
560.531, 20.779
561.852, 17.800
563.173, 15.806
564.493, 4.838
565.813, 21.875
567.133, 12.864
568.453, 17.846
569.773, 21.868
571.092, 16.900
572.412, 13.906
573.731, 26.888
575.049, 15.928
576.368, 26.903
577.686, 20.920
579.005, 18.909
580.323, 21.912
581.640, 15.871
582.958, 18.525
584.275, 13.886
585.593, 21.890
586.909, 21.821
588.226, 26.766
589.543, 13.702
590.859, 36.707
592.175, 24.672
593.491, 7.621
594.807, 14.632
596.122, 0.610
597.438, 14.566
598.753, 11.479
600.068, 2.444
601.382, 12.302
602.697, 11.256
604.011, 9.198
605.325, 12.097
606.639, 10.064
607.952, 14.976
609.266, 16.994
610.579, 9.768
611.892, 21.653
613.205, 28.536
614.518, 26.398
615.830, 42.284
617.142, 33.151
618.454, 38.021
619.766, 42.864
621.078, 37.739
622.389, 46.629
623.700, 49.521
625.011, 48.535
626.322, 56.267
627.632, 48.104
628.943, 46.969
630.253, 44.824
631.563, 52.698
632.872, 69.567
634.182, 62.433
635.491, 55.294
636.800, 37.125
638.109, 36.955
639.418, 30.804
640.726, 37.619
642.035, 27.465
643.343, 28.307
644.651, 12.147
645.958, 20.995
647.266, 20.855
648.573, 10.717
649.880, 2.557
651.187, 2.406
652.494, 3.266
653.800, 6.109
655.106, 5.087
656.412, 3.841
657.718, 6.680
659.024, 4.551
660.329, 9.423
661.634, 28.259
662.939, 34.122
664.244, 56.964
665.549, 114.791
666.853, 172.634
668.157, 249.441
669.461, 350.224
670.765, 511.031
672.069, 866.805
673.372, 1045.603
674.675, 826.413
675.978, 420.264
677.281, 195.057
678.583, 108.838
679.886, 62.653
681.188, 67.425
682.490, 18.221
683.792, 17.998
685.093, 10.833
686.394, 29.663
687.696, 22.479
688.997, 10.255
690.297, 18.075
691.598, 26.864
692.898, 36.674
694.198, 38.935
695.498, 42.059
696.798, 36.852
698.097, 16.605
699.397, 0.416
700.696, 8.337
701.995, 7.563
703.293, 1.216
704.592, 1.560
705.890, 6.322
707.188, 3.897
708.486, 6.099
709.784, 5.318
711.081, 4.476
712.378, 0.241
713.675, 8.028
714.972, 6.847
716.269, 26.649
717.565, 36.630
718.862, 50.480
720.158, 50.280
721.453, 61.031
722.749, 67.961
724.045, 72.741
725.340, 89.586
726.635, 96.423
727.930, 75.705
729.224, 85.493
730.519, 73.599
731.813, 65.434
733.107, 68.824
734.401, 65.634
735.694, 61.846
736.988, 51.305
738.281, 55.591
739.574, 42.029
740.867, 37.151
742.160, 30.997
743.452, 23.955
744.744, 22.824
746.036, 15.826
747.328, 25.340
748.620, 24.185
749.911, 20.986
751.202, 28.765
752.493, 27.734
753.784, 29.656
755.075, 18.474
756.365, 22.443
757.655, 20.240
758.945, 20.012
760.235, 16.874
761.525, 26.673
762.814, 14.470
764.103, 24.250
765.392, 30.069
766.681, 29.872
767.969, 29.681
769.258, 30.045
770.546, 28.868
771.834, 24.736
773.122, 34.551
774.409, 42.367
775.697, 41.181
776.984, 26.995
778.271, 32.808
779.558, 32.621
780.844, 32.433
782.131, 34.244
783.417, 37.055
784.703, 35.865
785.989, 35.674
787.274, 43.483
788.560, 33.291
789.845, 25.098
791.130, 25.905
792.415, 28.711
793.699, 24.517
794.983, 22.322
796.268, 19.163
797.552, 15.580
798.835, 14.972
800.119, 9.650
801.402, 7.478
802.686, 6.814
803.969, 13.075
805.251, 10.816
806.534, 8.551
807.816, 16.293
809.098, 8.043
810.380, 4.789
811.662, 14.559
812.944, 4.355
814.225, 4.098
815.506, 18.862
816.787, 6.654
818.068, 13.445
819.349, 13.236
820.629, 38.048
821.909, 44.848
823.189, 35.636
824.469, 62.424
825.749, 45.211
827.028, 13.998
828.307, 48.784
829.586, 46.576
830.865, 71.361
832.144, 113.163
833.422, 216.946
834.700, 447.728
835.978, 702.510
837.256, 907.291
838.534, 762.072
839.811, 488.839
841.088, 276.618
842.365, 163.395
843.642, 104.159
844.919, 88.936
846.195, 47.711
847.472, 44.486
848.748, 40.260
850.023, 28.034
851.299, 22.808
852.575, 19.624
853.850, 16.301
855.125, 17.729
856.400, 23.196
857.674, 28.923
858.949, 14.654
860.223, 9.405
861.497, 21.034
862.771, 4.575
864.045, 10.149
865.318, 1.890
866.591, 4.613
867.864, 3.368
869.137, 3.118
870.410, 2.116
871.682, 0.649
872.955, 10.413
874.227, 11.176
875.499, 1.060
876.770, 23.704
878.042, 1.472
879.313, 7.238
880.584, 6.996
881.855, 10.766
883.126, 3.469
884.396, 1.294
885.667, 7.943
886.937, 14.818
888.207, 8.579
889.476, 2.341
890.746, 6.895
892.015, 9.135
893.284, 4.379
894.553, 4.376
895.822, 3.133
897.090, 1.108
898.359, 2.345
899.627, 9.585
900.895, 7.173
902.163, 0.932
903.430, 15.689
904.698, 2.555
905.965, 0.796
907.232, 0.961
908.499, 2.280
909.765, 6.479
911.032, 11.237
912.298, 0.005
913.564, 5.754
914.830, 4.512
916.095, 15.269
917.361, 6.025
918.626, 2.780
919.891, 17.534
921.156, 6.713
922.420, 12.034
923.685, 1.779
924.949, 16.522
926.213, 21.265
927.477, 23.006
928.740, 23.746
930.004, 15.485
931.267, 22.221
932.530, 19.437
933.793, 14.691
935.056, 21.423
936.318, 27.154
937.581, 30.883
938.843, 24.611
940.104, 20.337
941.366, 34.062
942.628, 19.785
943.889, 24.506
945.150, 20.226
946.411, 16.944
947.672, 5.660
948.932, 6.656
950.193, 5.088
951.453, 6.799
952.713, 8.254
953.973, 9.984
955.232, 12.863
956.491, 13.567
957.751, 16.262
959.010, 13.946
960.268, 22.645
961.527, 32.324
962.785, 7.988
964.044, 4.682
965.302, 21.341
966.559, 14.996
967.817, 30.685
969.075, 22.348
970.332, 21.034
971.589, 9.717
972.846, 12.399
974.102, 31.079
975.359, 18.756
976.615, 27.432
977.871, 30.107
979.127, 15.779
980.383, 13.449
981.638, 24.118
982.893, 10.784
984.149, 26.449
985.404, 27.111
986.658, 30.772
987.913, 55.431
989.167, 39.088
990.421, 41.742
991.675, 33.395
992.929, 43.047
994.183, 68.696
995.436, 48.343
996.689, 35.988
997.942, 61.631
999.195, 48.272
1000.448, 59.912
1001.700, 50.549
1002.952, 63.184
1004.204, 59.817
1005.456, 56.448
1006.708, 51.079
1007.959, 57.710
1009.210, 57.343
1010.461, 65.969
1011.712, 63.582
1012.963, 80.205
1014.213, 66.795
1015.464, 61.574
1016.714, 70.150
1017.964, 83.742
1019.214, 83.329
1020.463, 93.904
1021.712, 101.671
1022.962, 94.373
1024.210, 102.972
1025.459, 129.822
1026.708, 139.912
1027.956, 187.528
1029.204, 334.081
1030.452, 457.819
1031.700, 379.071
1032.948, 268.641
1034.195, 228.484
1035.442, 230.118
1036.689, 247.003
1037.936, 288.104
1039.183, 351.914
1040.429, 407.176
1041.676, 454.645
1042.922, 586.261
1044.168, 699.961
1045.413, 923.450
1046.659, 1292.660
1047.904, 1888.682
1049.149, 3366.031
1050.394, 7805.033
1051.639, 24829.045
1052.884, 62468.543
1054.128, 65088.094
1055.372, 39408.871
1056.616, 16728.277
1057.860, 7097.650
1059.104, 3655.500
1060.347, 1996.356
1061.590, 1156.904
1062.833, 844.078
1064.076, 590.576
1065.319, 508.214
1066.561, 395.732
1067.803, 347.218
1069.046, 290.974
1070.287, 260.486
1071.529, 242.447
1072.771, 217.945
1074.012, 200.656
1075.253, 188.096
1076.494, 172.592
1077.735, 168.084
1078.975, 160.574
1080.216, 144.061
1081.456, 130.545
1082.696, 123.038
1083.936, 106.517
1085.175, 119.000
1086.415, 114.473
1087.654, 124.943
1088.893, 120.410
1090.132, 112.875
1091.371, 103.336
1092.609, 102.795
1093.847, 111.251
1095.085, 106.335
1096.323, 110.155
1097.561, 105.632
1098.799, 107.044
1100.036, 101.447
1101.273, 106.854
1102.510, 119.265
1103.747, 134.680
1104.983, 119.104
1106.220, 109.528
1107.456, 99.954
1108.692, 93.799
1109.928, 88.016
1111.163, 89.213
1112.399, 80.600
1113.634, 83.970
1114.869, 82.381
1116.104, 67.788
1117.339, 68.194
1118.573, 64.352
1119.808, 65.996
1121.042, 65.371
1122.276, 66.754
1123.509, 75.146
1124.743, 70.245
1125.976, 49.921
1127.210, 62.305
1128.443, 46.686
1129.675, 35.057
1130.908, 57.433
1132.141, 42.788
1133.373, 47.159
1134.605, 49.527
1135.837, 44.892
1137.068, 50.255
1138.300, 36.616
1139.531, 22.974
1140.762, 47.329
1141.993, 29.682
1143.224, 27.032
1144.455, 22.380
1145.685, 31.725
1146.915, 34.068
1148.145, 27.408
1149.375, 24.746
1150.605, 26.660
1151.834, 24.415
1153.063, 25.745
1154.292, 28.074
1155.521, 19.400
1156.750, 13.723
1157.978, 23.044
1159.207, 16.363
1160.435, 27.680
1161.663, 22.938
1162.891, 3.306
1164.118, 17.614
1165.345, 11.921
1166.573, 11.225
1167.800, 14.527
1169.026, 0.174
1170.253, 3.122
1171.480, 22.414
1172.706, 0.704
1173.932, 5.010
1175.158, 11.732
1176.383, 11.536
1177.609, 1.802
1178.834, 2.064
1180.059, 11.675
1181.284, 4.425
1182.509, 2.820
1183.734, 9.938
1184.958, 4.703
1186.182, 0.474
1187.406, 8.250
1188.630, 3.033
1189.854, 7.820
1191.077, 4.612
1192.301, 12.408
1193.524, 8.214
1194.747, 23.027
1195.969, 3.144
1197.192, 15.684
1198.414, 5.522
1199.636, 11.636
1200.858, 6.792
1202.080, 22.053
1203.302, 9.089
1204.523, 12.770
1205.744, 7.637
1206.966, 4.509
1208.186, 0.614
1209.407, 11.264
1210.628, 0.852
1211.848, 2.034
1213.068, 13.078
1214.288, 7.190
1215.508, 4.699
1216.727, 0.409
1217.947, 4.516
1219.166, 12.626
1220.385, 12.736
1221.604, 4.155
1222.822, 10.953
1224.041, 12.062
1225.259, 4.170
1226.477, 22.280
1227.695, 6.391
1228.913, 0.497
1230.130, 8.616
1231.348, 0.270
1232.565, 3.426
1233.782, 0.962
1234.999, 5.076
1236.215, 18.190
1237.432, 16.302
1238.648, 9.413
1239.864, 3.522
1241.080, 24.630
1242.296, 12.736
1243.511, 3.159
1244.726, 19.945
1245.942, 19.048
1247.156, 6.150
1248.371, 19.251
1249.586, 21.351
1250.800, 23.450
1252.014, 47.547
1253.228, 27.644
1254.442, 52.740
1255.656, 36.835
1256.869, 38.929
1258.083, 52.022
1259.296, 57.114
1260.509, 64.206
1261.722, 65.297
1262.934, 57.387
1264.147, 70.476
1265.359, 70.564
1266.571, 69.652
1267.783, 93.739
1268.994, 85.826
1270.206, 86.912
1271.417, 91.997
1272.628, 94.082
1273.839, 96.166
1275.050, 101.250
1276.260, 105.334
1277.471, 111.417
1278.681, 118.500
1279.891, 124.583
1281.101, 128.665
1282.310, 135.748
1283.520, 145.831
1284.729, 133.914
1285.938, 135.998
1287.147, 146.081
1288.356, 172.166
1289.564, 175.251
1290.773, 174.338
1291.981, 193.425
1293.189, 197.513
1294.397, 215.602
1295.604, 232.693
1296.812, 265.785
1298.019, 273.879
1299.226, 247.974
1300.433, 308.070
1301.640, 309.168
1302.846, 321.263
1304.053, 361.364
1305.259, 350.467
1306.465, 365.572
1307.671, 405.678
1308.876, 415.620
1310.082, 450.729
1311.287, 466.835
1312.492, 481.844
1313.697, 507.057
1314.902, 518.853
1316.106, 526.832
1317.310, 565.956
1318.515, 534.832
1319.719, 585.359
1320.922, 588.474
1322.126, 586.609
1323.329, 616.583
1324.533, 594.579
1325.736, 568.737
1326.939, 653.362
1328.141, 617.422
1329.344, 644.723
1330.546, 655.364
1331.748, 640.284
1332.950, 698.727
1334.152, 740.512
1335.354, 720.009
1336.555, 764.721
1337.757, 809.958
1338.958, 783.473
1340.159, 864.073
1341.359, 872.269
1342.560, 933.362
1343.760, 989.109
1344.960, 1005.345
1346.160, 1159.589
1347.360, 1238.352
1348.560, 1319.614
1349.759, 1495.997
1350.959, 1642.722
1352.158, 1900.665
1353.357, 2162.942
1354.555, 2395.504
1355.754, 2672.828
1356.952, 3046.016
1358.151, 3312.371
1359.349, 3768.739
1360.546, 4017.837
1361.744, 4261.237
1362.941, 4612.656
1364.139, 4411.095
1365.336, 4340.555
1366.533, 4113.833
1367.730, 3684.339
1368.926, 3262.871
1370.123, 2858.686
1371.319, 2432.278
1372.515, 2180.906
1373.711, 1870.562
1374.906, 1585.221
1376.102, 1430.982
1377.297, 1186.578
1378.492, 1106.720
1379.687, 977.863
1380.882, 852.008
1382.077, 786.155
1383.271, 714.236
1384.465, 645.385
1385.659, 584.753
1386.853, 531.691
1388.047, 465.846
1389.240, 392.004
1390.434, 334.164
1391.627, 295.326
1392.820, 268.491
1394.013, 237.658
1395.205, 222.828
1396.398, 170.000
1397.590, 180.176
1398.782, 155.354
1399.974, 163.535
1401.166, 139.719
1402.357, 140.907
1403.549, 128.097
1404.740, 153.291
1405.931, 144.489
1407.122, 126.689
1408.313, 155.894
1409.503, 120.101
1410.693, 150.313
1411.883, 146.527
1413.073, 156.746
1414.263, 138.968
1415.453, 179.196
1416.642, 114.428
1417.831, 164.666
1419.020, 155.912
1420.209, 131.170
1421.398, 162.448
1422.587, 136.734
1423.775, 139.042
1424.963, 156.365
1426.151, 115.709
1427.339, 134.072
1428.526, 110.457
1429.714, 113.870
1430.901, 101.315
1432.088, 113.788
1433.275, 91.272
1434.462, 101.783
1435.648, 76.320
1436.835, 89.875
1438.021, 101.450
1439.207, 68.035
1440.393, 54.629
1441.579, 74.232
1442.764, 72.839
1443.949, 60.454
1445.135, 59.069
1446.320, 48.680
1447.504, 70.290
1448.689, 58.894
1449.873, 60.512
1451.058, 87.146
1452.242, 70.801
1453.426, 102.475
1454.609, 122.170
1455.793, 118.885
1456.976, 140.623
1458.159, 127.383
1459.342, 120.168
1460.525, 173.978
1461.708, 157.815
1462.890, 175.679
1464.073, 203.573
1465.255, 203.498
1466.437, 219.455
1467.619, 248.447
1468.800, 235.475
1469.982, 265.541
1471.163, 261.646
1472.344, 275.791
1473.525, 286.978
1474.706, 300.207
1475.886, 295.478
1477.066, 298.792
1478.247, 289.149
1479.427, 306.552
1480.607, 322.002
1481.786, 246.503
1482.966, 277.060
1484.145, 267.679
1485.324, 233.365
1486.503, 243.122
1487.682, 216.956
1488.860, 161.871
1490.039, 189.872
1491.217, 155.966
1492.395, 158.159
1493.573, 129.458
1494.751, 92.871
1495.928, 94.406
1497.106, 78.073
1498.283, 68.884
1499.460, 82.851
1500.637, 41.993
1501.814, 11.326
1502.990, 31.873
1504.166, 29.657
1505.342, 29.706
1506.518, 23.053
1507.694, 23.739
1508.870, 2.814
1510.045, 31.341
1511.221, 5.604
1512.396, 14.078
1513.571, 24.514
1514.745, 29.865
1515.920, 29.190
1517.094, 0.725
1518.269, 0.000
##END=



