##NAMES=Cerussite
##RRUFFID=R050011
##IDEAL CHEMISTRY=Pb^2+^CO_3_
##LOCALITY=Daoping Lead and Zinc mine, Gongcheng, Guangxi, China
##OWNER=RRUFF
##SOURCE=Eugene Schlepp
##DESCRIPTION=Colorless hexagonal bipyramidal crystals
##STATUS=The identification of this mineral has been confirmed by X-ray diffraction and chemical analysis
##URL=rruff.info/R050011
##MEASURED CHEMISTRY=Pb_1.00_CO_3_ ; CO_2_ not measured but estimated by difference and stoichiometry
##PIN_ID=L00377
##ORIENTATION=Laser parallel to b* (0 1 0). Fiducial mark perpendicular to laser is parallel to -c [0 0 -1]
46.637, 0.000
48.043, 28.991
49.450, 39.692
50.856, 74.088
52.261, 64.448
53.667, 124.932
55.072, 175.612
56.477, 210.752
57.882, 228.943
59.287, 248.219
60.691, 244.357
62.095, 231.294
63.499, 191.529
64.903, 166.548
66.306, 95.984
67.709, 54.884
69.112, 32.946
70.515, 1.837
71.917, 0.472
73.319, 3.967
74.721, 0.671
76.123, 4.567
77.525, 3.686
78.926, 7.885
80.327, 13.588
81.728, 4.380
83.128, 6.073
84.529, 25.330
85.929, 28.826
87.329, 58.412
88.728, 141.085
90.128, 194.844
91.527, 312.686
92.926, 411.605
94.324, 538.597
95.723, 728.656
97.121, 905.776
98.519, 1145.951
99.917, 1380.179
101.314, 1602.459
102.712, 1717.790
104.109, 1786.172
105.505, 1793.603
106.902, 1753.082
108.298, 1812.609
109.694, 1796.182
111.090, 1866.802
112.486, 1883.466
113.881, 2026.176
115.277, 2129.929
116.672, 2262.726
118.066, 2312.564
119.461, 2513.444
120.855, 2570.365
122.249, 2750.327
123.643, 3037.327
125.036, 3204.366
126.430, 3378.445
127.823, 3482.561
129.216, 3692.716
130.608, 3716.934
132.001, 3602.194
133.393, 3479.491
134.785, 3262.821
136.176, 2928.174
137.568, 2748.546
138.959, 2561.929
140.350, 2310.324
141.741, 2167.728
143.131, 2142.116
144.521, 2017.494
145.911, 1994.865
147.301, 1871.225
148.691, 1852.583
150.080, 1725.958
151.469, 1681.355
152.858, 1564.777
154.247, 1544.221
155.635, 1425.691
157.024, 1409.187
158.411, 1306.703
159.799, 1315.256
161.187, 1266.830
162.574, 1237.426
163.961, 1207.042
165.348, 1189.678
166.734, 1168.329
168.121, 1152.012
169.507, 1150.710
170.893, 1158.443
172.278, 1181.202
173.664, 1163.980
175.049, 1209.778
176.434, 1194.595
177.819, 1247.431
179.203, 1231.290
180.587, 1234.171
181.971, 1281.072
183.355, 1263.990
184.739, 1320.927
186.122, 1336.892
187.505, 1356.875
188.888, 1432.876
190.271, 1451.894
191.653, 1521.929
193.035, 1558.981
194.417, 1703.053
195.799, 1751.141
197.180, 1887.246
198.562, 1961.367
199.943, 2076.504
201.324, 2247.670
202.704, 2374.856
204.084, 2468.058
205.465, 2636.274
206.844, 2874.516
208.224, 2995.783
209.603, 3145.065
210.983, 3186.422
212.362, 3245.018
213.740, 3222.632
215.119, 3176.388
216.497, 3030.002
217.875, 2883.582
219.253, 2627.069
220.631, 2458.500
222.008, 2314.824
223.385, 2177.082
224.762, 1978.269
226.139, 1857.322
227.515, 1762.285
228.891, 1571.187
230.267, 1515.025
231.643, 1420.842
233.018, 1349.947
234.394, 1275.651
235.769, 1220.248
237.144, 1158.339
238.518, 1100.352
239.893, 1049.054
241.267, 987.500
242.641, 929.640
244.014, 861.949
245.388, 852.113
246.761, 810.024
248.134, 793.621
249.507, 731.211
250.879, 754.264
252.252, 661.779
253.624, 615.978
254.996, 579.196
256.367, 602.685
257.739, 541.937
259.110, 587.204
260.481, 492.579
261.852, 472.882
263.222, 471.849
264.592, 451.182
265.962, 420.531
267.332, 428.894
268.702, 399.271
270.071, 394.899
271.440, 401.305
272.809, 340.724
274.178, 349.159
275.546, 351.649
276.915, 328.111
278.283, 345.586
279.650, 295.073
281.018, 275.573
282.385, 296.085
283.752, 269.609
285.119, 271.145
286.486, 292.693
287.852, 276.253
289.218, 249.823
290.584, 248.699
291.950, 215.671
293.316, 225.331
294.681, 201.945
296.046, 201.568
297.411, 185.201
298.775, 182.844
300.140, 150.496
301.504, 175.158
302.868, 148.829
304.231, 120.510
305.595, 132.200
306.958, 177.899
308.321, 172.607
309.684, 152.013
311.047, 134.740
312.409, 122.475
313.771, 111.935
315.133, 107.975
316.495, 110.738
317.856, 105.510
319.217, 130.292
320.578, 101.082
321.939, 86.854
323.299, 108.661
324.660, 119.476
326.020, 96.300
327.380, 88.131
328.739, 93.971
330.099, 78.818
331.458, 58.673
332.817, 92.536
334.176, 90.406
335.534, 103.284
336.892, 43.169
338.251, 54.214
339.608, 32.113
340.966, 54.020
342.323, 59.935
343.681, 84.857
345.037, 61.786
346.394, 53.722
347.751, 28.664
349.107, 30.183
350.463, 62.585
351.819, 33.736
353.174, 46.702
354.530, 48.118
355.885, 36.096
357.240, 46.079
358.594, 37.068
359.949, 34.063
361.303, 18.062
362.657, 34.583
364.011, 31.739
365.365, 32.740
366.718, 32.767
368.071, 34.318
369.424, 18.359
370.777, 13.639
372.129, 5.200
373.481, 15.008
374.833, 42.947
376.185, 1.043
377.537, 40.083
378.888, 35.132
380.239, 2.929
381.590, 15.398
382.941, 2.540
384.291, 17.525
385.642, 24.634
386.992, 55.709
388.341, 44.992
389.691, 32.080
391.040, 2.482
392.389, 15.462
393.738, 11.570
395.087, 13.316
396.435, 42.662
397.784, 3.808
399.132, 34.101
400.479, 21.307
401.827, 2.339
403.174, 6.163
404.521, 0.674
405.868, 20.965
407.215, 12.555
408.561, 5.747
409.908, 3.666
411.254, 12.046
412.599, 2.260
413.945, 14.518
415.290, 25.700
416.636, 5.101
417.980, 9.675
419.325, 40.551
420.670, 17.779
422.014, 3.990
423.358, 4.762
424.702, 18.856
426.045, 17.377
427.389, 1.614
428.732, 27.854
430.075, 24.096
431.417, 29.660
432.760, 22.577
434.102, 79.872
435.444, 36.435
436.786, 1.323
438.127, 20.191
439.469, 70.436
440.810, 7.708
442.151, 26.971
443.492, 10.271
444.832, 40.638
446.172, 33.890
447.512, 23.213
448.852, 18.492
450.192, 38.749
451.531, 45.006
452.870, 15.736
454.209, 22.467
455.548, 10.820
456.887, 37.064
458.225, 37.309
459.563, 19.575
460.901, 73.822
462.238, 34.069
463.576, 5.376
464.913, 25.624
466.250, 57.871
467.587, 65.119
468.923, 21.367
470.259, 13.385
471.596, 25.857
472.931, 39.098
474.267, 57.339
475.603, 54.580
476.938, 38.821
478.273, 14.061
479.608, 64.303
480.942, 33.542
482.276, 16.219
483.611, 83.010
484.944, 36.281
486.278, 31.511
487.612, 24.740
488.945, 11.969
490.278, 55.197
491.611, 42.423
492.943, 56.649
494.276, 44.946
495.608, 61.231
496.940, 57.453
498.271, 0.675
499.603, 15.949
500.934, 65.190
502.265, 31.818
503.596, 66.031
504.927, 26.308
506.257, 53.663
507.587, 46.875
508.917, 37.084
510.247, 6.291
511.577, 14.504
512.906, 41.688
514.235, 2.122
515.564, 22.062
516.892, 30.244
518.221, 37.423
519.549, 32.600
520.877, 24.774
522.205, 2.053
523.533, 11.888
524.860, 1.736
526.187, 31.408
527.514, 22.550
528.841, 12.690
530.167, 3.826
531.493, 6.958
532.820, 6.027
534.145, 23.150
535.471, 8.010
536.796, 41.096
538.122, 44.494
539.447, 5.734
540.771, 27.674
542.096, 22.477
543.420, 7.002
544.744, 13.052
546.068, 68.102
547.392, 7.658
548.715, 43.794
550.039, 11.019
551.362, 19.996
552.684, 28.545
554.007, 45.544
555.329, 3.254
556.652, 21.766
557.973, 10.748
559.295, 14.735
560.617, 9.942
561.938, 24.661
563.259, 15.480
564.580, 6.537
565.901, 26.980
567.221, 45.302
568.541, 15.795
569.861, 12.089
571.181, 54.967
572.501, 29.844
573.820, 69.301
575.139, 12.173
576.458, 75.038
577.777, 56.644
579.095, 80.501
580.414, 45.353
581.732, 4.109
583.049, 14.022
584.367, 45.206
585.685, 55.327
587.002, 40.275
588.319, 66.093
589.636, 38.907
590.952, 32.480
592.268, 19.284
593.585, 8.090
594.900, 41.887
596.216, 9.722
597.532, 43.508
598.847, 28.290
600.162, 31.066
601.477, 22.838
602.792, 16.023
604.106, 52.401
605.420, 19.156
606.734, 29.907
608.048, 65.706
609.361, 36.447
610.675, 37.183
611.988, 32.261
613.301, 24.930
614.614, 44.651
615.926, 39.366
617.238, 31.170
618.550, 52.918
619.862, 51.621
621.174, 22.318
622.485, 58.010
623.797, 96.698
625.108, 68.381
626.418, 96.475
627.729, 67.734
629.039, 93.717
630.349, 94.383
631.659, 76.081
632.969, 108.738
634.279, 114.391
635.588, 73.039
636.897, 37.682
638.206, 102.320
639.515, 61.952
640.823, 42.605
642.131, 28.662
643.439, 51.402
644.747, 39.014
646.055, 59.684
647.362, 72.285
648.669, 39.881
649.976, 56.473
651.283, 22.059
652.589, 24.639
653.896, 65.329
655.202, 60.898
656.508, 26.311
657.814, 33.870
659.119, 6.424
660.424, 58.969
661.729, 24.508
663.034, 16.075
664.339, 60.304
665.643, 66.831
666.947, 133.352
668.251, 183.849
669.555, 261.170
670.859, 427.677
672.162, 733.734
673.465, 882.230
674.768, 738.722
676.071, 551.208
677.373, 295.689
678.676, 287.165
679.978, 332.124
681.280, 322.447
682.581, 299.390
683.883, 235.850
685.184, 174.304
686.485, 155.742
687.786, 103.941
689.087, 46.257
690.387, 85.525
691.687, 56.956
692.987, 43.434
694.287, 11.139
695.586, 1.252
696.886, 51.788
698.185, 15.914
699.484, 0.304
700.783, 40.687
702.081, 36.026
703.379, 0.601
704.677, 12.562
705.975, 8.920
707.273, 52.022
708.570, 2.510
709.868, 66.829
711.165, 1.737
712.462, 22.732
713.758, 48.034
715.055, 28.194
716.351, 63.445
717.647, 25.553
718.943, 75.845
720.238, 54.223
721.533, 105.407
722.829, 85.297
724.124, 74.596
725.418, 99.167
726.713, 130.280
728.007, 121.394
729.301, 125.808
730.595, 114.603
731.889, 92.697
733.182, 71.966
734.476, 36.271
735.769, 54.535
737.061, 41.795
738.354, 7.534
739.647, 50.642
740.939, 2.105
742.231, 1.142
743.523, 70.384
744.814, 43.624
746.106, 57.859
747.397, 63.097
748.688, 85.678
749.978, 40.587
751.269, 5.921
752.559, 63.874
753.849, 29.160
755.139, 83.409
756.429, 38.610
757.719, 68.773
759.008, 16.867
760.297, 43.073
761.586, 78.208
762.875, 12.572
764.163, 78.785
765.451, 79.980
766.739, 20.172
768.027, 63.348
769.315, 59.499
770.602, 46.691
771.890, 2.886
773.177, 15.051
774.463, 38.686
775.750, 64.865
777.036, 73.010
778.323, 53.184
779.609, 70.705
780.894, 51.525
782.180, 71.603
783.465, 52.767
784.750, 40.932
786.035, 17.484
787.320, 58.644
788.605, 53.801
789.889, 44.955
791.173, 63.106
792.457, 51.253
793.741, 102.400
795.024, 28.544
796.307, 5.309
797.591, 0.210
798.873, 25.927
800.156, 10.061
801.439, 102.192
802.721, 36.320
804.003, 70.465
805.285, 32.589
806.566, 84.639
807.848, 0.304
809.129, 39.812
810.410, 71.004
811.691, 29.060
812.971, 35.190
814.252, 25.885
815.532, 96.992
816.812, 17.962
818.092, 10.082
819.371, 93.012
820.651, 36.104
821.930, 62.193
823.209, 69.431
824.488, 73.556
825.766, 58.646
827.045, 44.815
828.323, 86.903
829.601, 49.989
830.878, 71.107
832.156, 167.191
833.433, 364.040
834.710, 508.122
835.987, 977.211
837.264, 1320.359
838.540, 1307.447
839.817, 896.534
841.093, 560.618
842.369, 447.708
843.644, 293.804
844.920, 141.892
846.195, 167.979
847.470, 122.067
848.745, 76.862
850.020, 118.279
851.294, 70.368
852.568, 63.383
853.842, 31.994
855.116, 55.093
856.390, 73.190
857.663, 41.776
858.936, 56.778
860.209, 7.723
861.482, 43.827
862.755, 62.409
864.027, 0.472
865.299, 73.160
866.571, 40.244
867.843, 50.361
869.115, 72.466
870.386, 58.582
871.657, 80.676
872.928, 13.209
874.199, 21.906
875.470, 26.026
876.740, 19.159
878.010, 85.292
879.280, 24.430
880.550, 15.431
881.820, 50.699
883.089, 11.170
884.358, 84.953
885.627, 29.077
886.896, 12.199
888.164, 26.320
889.433, 57.440
890.701, 42.560
891.969, 55.605
893.236, 36.725
894.504, 30.553
895.771, 37.556
897.038, 40.688
898.305, 31.827
899.572, 57.966
900.838, 23.896
902.105, 37.229
903.371, 0.644
904.637, 30.397
905.902, 6.534
907.168, 8.669
908.433, 25.803
909.698, 38.940
910.963, 77.077
912.228, 33.177
913.492, 25.322
914.757, 3.534
916.021, 18.560
917.285, 45.713
918.548, 29.865
919.812, 84.995
921.075, 51.144
922.338, 59.292
923.601, 21.438
924.864, 65.490
926.126, 8.408
927.388, 97.730
928.650, 16.867
929.912, 74.002
931.174, 88.136
932.435, 54.270
933.697, 15.590
934.958, 66.541
936.218, 52.670
937.479, 7.202
938.739, 59.886
940.000, 35.012
941.260, 50.136
942.520, 39.260
943.779, 49.381
945.039, 38.501
946.298, 28.653
947.557, 33.436
948.816, 35.244
950.074, 34.417
951.333, 54.533
952.591, 59.585
953.849, 69.668
955.107, 20.809
956.365, 75.921
957.622, 33.031
958.879, 33.139
960.136, 76.133
961.393, 7.241
962.650, 73.346
963.906, 15.450
965.162, 51.551
966.418, 37.653
967.674, 15.247
968.930, 53.814
970.185, 41.205
971.441, 60.292
972.696, 36.377
973.950, 1.536
975.205, 18.562
976.459, 42.688
977.714, 7.768
978.968, 67.951
980.222, 41.026
981.475, 19.113
982.729, 77.490
983.982, 12.439
985.235, 53.623
986.488, 90.464
987.740, 14.664
988.993, 72.719
990.245, 81.771
991.497, 55.835
992.749, 82.185
994.000, 28.230
995.252, 116.272
996.503, 57.312
997.754, 43.353
999.005, 121.580
1000.256, 89.797
1001.506, 70.835
1002.756, 106.870
1004.006, 107.903
1005.256, 58.935
1006.506, 81.123
1007.755, 101.150
1009.005, 96.327
1010.254, 99.463
1011.502, 73.521
1012.751, 103.673
1014.000, 93.772
1015.248, 122.736
1016.496, 122.750
1017.744, 127.760
1018.991, 115.832
1020.239, 102.870
1021.486, 99.024
1022.733, 160.194
1023.980, 150.565
1025.227, 154.749
1026.473, 211.781
1027.719, 185.049
1028.965, 267.029
1030.211, 401.006
1031.457, 400.310
1032.702, 347.670
1033.948, 269.024
1035.193, 269.073
1036.438, 248.088
1037.682, 303.005
1038.927, 318.240
1040.171, 359.247
1041.415, 362.215
1042.659, 499.271
1043.903, 588.848
1045.146, 851.347
1046.390, 1129.661
1047.633, 1557.623
1048.876, 2494.756
1050.118, 5127.880
1051.361, 14519.494
1052.603, 42615.820
1053.845, 61731.609
1055.087, 46260.465
1056.329, 20616.309
1057.571, 10132.148
1058.812, 5358.202
1060.053, 2965.202
1061.294, 1651.221
1062.535, 949.489
1063.775, 709.367
1065.016, 506.669
1066.256, 443.193
1067.496, 368.124
1068.736, 311.972
1069.975, 315.819
1071.214, 271.673
1072.454, 247.575
1073.693, 279.397
1074.931, 207.221
1076.170, 244.654
1077.408, 162.527
1078.647, 160.435
1079.885, 234.239
1081.122, 139.467
1082.360, 167.942
1083.597, 167.818
1084.835, 131.750
1086.072, 165.631
1087.308, 145.013
1088.545, 130.950
1089.781, 117.801
1091.018, 152.558
1092.254, 134.854
1093.490, 154.205
1094.725, 121.031
1095.961, 137.793
1097.196, 103.442
1098.431, 156.169
1099.666, 154.995
1100.900, 87.730
1102.135, 115.472
1103.369, 133.178
1104.603, 129.417
1105.837, 167.113
1107.071, 99.802
1108.304, 90.055
1109.538, 132.734
1110.771, 78.359
1112.004, 58.107
1113.236, 117.723
1114.469, 66.379
1115.701, 102.120
1116.933, 93.833
1118.165, 75.471
1119.397, 58.107
1120.629, 72.737
1121.860, 107.502
1123.091, 52.971
1124.322, 45.550
1125.553, 75.156
1126.783, 30.676
1128.014, 71.270
1129.244, 52.858
1130.474, 7.581
1131.704, 67.473
1132.933, 60.274
1134.163, 2.165
1135.392, 21.384
1136.621, 60.868
1137.850, 107.404
1139.079, 51.933
1140.307, 10.543
1141.535, 87.963
1142.763, 85.456
1143.991, 58.951
1145.219, 54.439
1146.446, 13.922
1147.674, 15.397
1148.901, 74.865
1150.128, 60.327
1151.354, 89.783
1152.581, 93.328
1153.807, 17.677
1155.033, 95.114
1156.259, 18.544
1157.485, 27.968
1158.710, 7.615
1159.936, 24.214
1161.161, 35.163
1162.386, 42.533
1163.611, 58.897
1164.835, 67.256
1166.060, 38.608
1167.284, 45.954
1168.508, 17.294
1169.732, 14.864
1170.955, 24.952
1172.179, 12.273
1173.402, 7.413
1174.625, 5.886
1175.848, 61.177
1177.070, 53.461
1178.293, 9.740
1179.515, 3.015
1180.737, 96.280
1181.959, 31.542
1183.181, 38.798
1184.402, 92.048
1185.624, 5.292
1186.845, 37.528
1188.066, 45.758
1189.286, 23.981
1190.507, 1.801
1191.727, 16.595
1192.947, 13.754
1194.167, 24.240
1195.387, 7.905
1196.607, 8.044
1197.826, 25.175
1199.045, 1.306
1200.264, 68.428
1201.483, 39.455
1202.702, 62.631
1203.920, 78.712
1205.138, 11.211
1206.356, 20.850
1207.574, 14.904
1208.792, 31.047
1210.009, 45.976
1211.227, 19.006
1212.444, 20.006
1213.661, 28.975
1214.877, 99.950
1216.094, 45.920
1217.310, 42.887
1218.526, 29.848
1219.742, 71.804
1220.958, 60.758
1222.173, 29.707
1223.389, 30.654
1224.604, 14.596
1225.819, 66.534
1227.034, 1.531
1228.248, 21.605
1229.463, 63.303
1230.677, 8.213
1231.891, 18.121
1233.105, 71.023
1234.318, 14.077
1235.532, 20.808
1236.745, 47.685
1237.958, 6.559
1239.171, 66.421
1240.384, 20.278
1241.596, 34.130
1242.809, 11.025
1244.021, 41.810
1245.233, 14.636
1246.444, 34.458
1247.656, 31.273
1248.867, 39.083
1250.079, 6.112
1251.290, 42.680
1252.500, 96.466
1253.711, 6.752
1254.921, 49.022
1256.132, 28.788
1257.342, 16.548
1258.552, 78.304
1259.761, 38.055
1260.971, 12.802
1262.180, 104.542
1263.389, 84.282
1264.598, 76.018
1265.807, 49.748
1267.015, 17.526
1268.223, 96.189
1269.432, 96.888
1270.640, 56.551
1271.847, 50.254
1273.055, 42.847
1274.262, 48.541
1275.470, 1.783
1276.677, 5.405
1277.883, 112.273
1279.090, 72.951
1280.296, 65.843
1281.503, 38.369
1282.709, 33.035
1283.915, 62.695
1285.120, 50.386
1286.326, 65.688
1287.531, 80.338
1288.736, 57.984
1289.941, 107.627
1291.146, 157.262
1292.350, 69.705
1293.555, 77.158
1294.759, 146.788
1295.963, 63.415
1297.167, 114.039
1298.370, 150.660
1299.574, 139.120
1300.777, 210.735
1301.980, 187.198
1303.183, 118.697
1304.386, 225.211
1305.588, 135.685
1306.790, 168.207
1307.993, 249.759
1309.195, 169.359
1310.396, 297.957
1311.598, 312.488
1312.799, 227.048
1314.000, 325.488
1315.201, 295.906
1316.402, 303.376
1317.603, 355.773
1318.803, 289.316
1320.003, 365.613
1321.203, 386.200
1322.403, 262.787
1323.603, 362.163
1324.802, 399.358
1326.002, 259.945
1327.201, 341.445
1328.400, 324.976
1329.599, 331.564
1330.797, 292.870
1331.995, 263.400
1333.194, 393.966
1334.392, 337.444
1335.589, 375.397
1336.787, 366.429
1337.985, 306.644
1339.182, 400.209
1340.379, 439.604
1341.576, 442.004
1342.772, 457.511
1343.969, 535.713
1345.165, 488.334
1346.361, 587.999
1347.557, 628.629
1348.753, 630.266
1349.949, 756.738
1351.144, 803.269
1352.339, 965.783
1353.534, 1003.050
1354.729, 1175.712
1355.924, 1232.767
1357.118, 1421.775
1358.312, 1453.398
1359.506, 1691.110
1360.700, 1753.830
1361.894, 1873.552
1363.088, 1835.234
1364.281, 1946.228
1365.474, 1937.011
1366.667, 1890.748
1367.860, 1825.509
1369.052, 1878.227
1370.245, 1863.118
1371.437, 1864.561
1372.629, 2055.777
1373.821, 2027.213
1375.013, 2154.015
1376.204, 2189.815
1377.395, 2148.393
1378.586, 1982.704
1379.777, 1962.116
1380.968, 1758.585
1382.159, 1644.159
1383.349, 1379.590
1384.539, 1165.070
1385.729, 1058.006
1386.919, 834.524
1388.109, 786.422
1389.298, 563.806
1390.487, 498.305
1391.676, 482.698
1392.865, 408.189
1394.054, 381.383
1395.242, 317.854
1396.431, 252.321
1397.619, 212.785
1398.807, 262.667
1399.995, 166.121
1401.182, 212.580
1402.370, 205.037
1403.557, 155.498
1404.744, 106.961
1405.931, 77.422
1407.118, 75.907
1408.304, 191.342
1409.490, 107.797
1410.676, 140.251
1411.862, 175.705
1413.048, 105.182
1414.234, 203.669
1415.419, 184.156
1416.604, 126.641
1417.789, 183.127
1418.974, 207.615
1420.159, 119.117
1421.343, 245.619
1422.528, 209.126
1423.712, 185.633
1424.896, 199.141
1426.079, 118.651
1427.263, 214.161
1428.446, 254.689
1429.629, 138.259
1430.812, 188.847
1431.995, 172.441
1433.178, 120.058
1434.360, 227.696
1435.543, 105.352
1436.725, 162.029
1437.907, 183.735
1439.088, 107.481
1440.270, 153.228
1441.451, 64.975
1442.632, 144.717
1443.813, 86.458
1444.994, 51.196
1446.175, 121.950
1447.355, 152.704
1448.535, 36.456
1449.715, 100.238
1450.895, 176.040
1452.075, 69.863
1453.255, 124.709
1454.434, 40.582
1455.613, 98.472
1456.792, 151.391
1457.971, 95.340
1459.149, 75.316
1460.328, 183.319
1461.506, 160.346
1462.684, 131.396
1463.862, 254.471
1465.040, 187.573
1466.217, 239.703
1467.395, 199.862
1468.572, 182.053
1469.749, 206.276
1470.925, 174.534
1472.102, 170.829
1473.278, 271.164
1474.455, 131.539
1475.631, 206.957
1476.807, 260.417
1477.982, 194.922
1479.158, 178.472
1480.333, 253.068
1481.508, 163.715
1482.683, 262.418
1483.858, 172.183
1485.033, 129.013
1486.207, 205.911
1487.381, 140.882
1488.555, 118.931
1489.729, 198.059
1490.903, 53.274
1492.076, 86.582
1493.250, 114.989
1494.423, 26.502
1495.596, 80.132
1496.769, 96.887
1497.941, 7.777
1499.114, 120.816
1500.286, 43.018
1501.458, 46.400
1502.630, 93.981
1503.802, 7.782
1504.973, 8.171
1506.145, 146.151
1507.316, 67.788
1508.487, 50.782
1509.657, 84.191
1510.828, 20.083
1511.999, 93.610
1513.169, 90.657
1514.339, 1.103
1515.509, 140.665
1516.678, 7.453
1517.848, 0.000
##END=



