##NAMES=Cerussite
##RRUFFID=R050174
##IDEAL CHEMISTRY=Pb^2+^CO_3_
##LOCALITY=Tsumeb mine, Tsumeb, Otavi District, Oshikoto, Namibia
##OWNER=RRUFF
##SOURCE=Marcus Origlieri
##DESCRIPTION=Colorless single crystal
##STATUS=The identification of this mineral has been confirmed by X-ray diffraction and chemical analysis
##URL=rruff.info/R050174
##MEASURED CHEMISTRY=Pb_1.00_CO_3_ ; C not measured but estimated by difference and stoichiometry
##PIN_ID=L00917
##ORIENTATION=Laser parallel to a* (1 0 0). Fiducial mark perpendicular to laser is parallel to -b [0 -1 0]
51.43100, 0.0000000E+00
52.67100, 23.42633
53.91000, 43.43451
55.14900, 34.40454
56.38700, 26.68668
57.62600, 29.81104
58.86400, 3.988861
60.10300, 3.676208
61.34100, 21.68579
62.57900, 29.48206
63.81700, 47.55139
65.05400, 124.0867
66.29200, 227.8455
67.52900, 430.5914
68.76700, 630.1235
70.00400, 928.2731
71.24100, 1271.894
72.47700, 1745.852
73.71400, 2087.027
74.95100, 2425.313
76.18700, 2596.619
77.42300, 2613.863
78.65900, 2513.975
79.89500, 2339.892
81.13100, 2213.558
82.36700, 2164.922
83.60200, 2056.938
84.83700, 2064.568
86.07200, 2040.779
87.30800, 1987.548
88.54200, 2012.848
89.77700, 2103.639
91.01200, 2191.878
92.24600, 2138.529
93.48000, 2234.562
94.71400, 2300.954
95.94800, 2412.687
97.18200, 2481.744
98.41600, 2644.112
99.64900, 2693.776
100.8830, 3019.723
102.1160, 3116.941
103.3490, 3388.419
104.5820, 3588.150
105.8150, 3744.121
107.0470, 3659.323
108.2800, 3506.745
109.5120, 3293.379
110.7440, 3094.219
111.9760, 2907.254
113.2080, 2904.479
114.4400, 2905.886
115.6710, 2937.473
116.9030, 3066.255
118.1340, 3288.217
119.3650, 3403.386
120.5960, 3554.774
121.8270, 3669.346
123.0580, 3753.130
124.2880, 3723.089
125.5190, 3774.204
126.7490, 3862.331
127.9790, 4042.448
129.2090, 4333.578
130.4390, 4610.732
131.6680, 4901.908
132.8980, 5126.141
134.1270, 5351.433
135.3560, 5428.801
136.5850, 5339.233
137.8140, 5179.736
139.0430, 5011.329
140.2710, 4711.026
141.5000, 4543.825
142.7280, 4443.698
143.9560, 4425.639
145.1840, 4401.673
146.4120, 4475.802
147.6390, 4688.009
148.8670, 4838.290
150.0940, 5161.639
151.3210, 5411.051
152.5490, 5634.549
153.7750, 5858.138
155.0020, 5868.808
156.2290, 5885.556
157.4550, 5523.361
158.6810, 5183.219
159.9080, 4710.133
161.1340, 4469.100
162.3590, 4027.119
163.5850, 3854.193
164.8110, 3625.317
166.0360, 3461.489
167.2610, 3469.713
168.4860, 3580.988
169.7110, 3711.309
170.9360, 3952.680
172.1610, 4166.100
173.3850, 4439.570
174.6100, 4711.132
175.8340, 4988.683
177.0580, 4985.274
178.2820, 5139.042
179.5050, 5001.710
180.7290, 4885.380
181.9520, 4585.428
183.1760, 4255.332
184.3990, 4050.025
185.6220, 3636.346
186.8450, 3328.033
188.0670, 2965.074
189.2900, 2805.928
190.5120, 2543.621
191.7340, 2347.240
192.9560, 2189.687
194.1780, 1996.360
195.4000, 1893.002
196.6220, 1779.354
197.8430, 1684.334
199.0640, 1630.558
200.2860, 1576.534
201.5070, 1563.953
202.7270, 1533.667
203.9480, 1479.240
205.1690, 1474.246
206.3890, 1422.927
207.6090, 1441.706
208.8290, 1482.489
210.0490, 1473.875
211.2690, 1522.639
212.4890, 1555.114
213.7080, 1619.085
214.9280, 1584.132
216.1470, 1629.046
217.3660, 1647.508
218.5850, 1677.096
219.8030, 1560.308
221.0220, 1534.461
222.2400, 1527.742
223.4590, 1469.354
224.6770, 1517.586
225.8950, 1403.601
227.1120, 1395.864
228.3300, 1381.081
229.5480, 1424.062
230.7650, 1414.519
231.9820, 1355.441
233.1990, 1350.027
234.4160, 1288.672
235.6330, 1306.787
236.8490, 1335.776
238.0660, 1342.410
239.2820, 1339.348
240.4980, 1368.663
241.7140, 1359.567
242.9300, 1415.717
244.1460, 1456.864
245.3610, 1505.133
246.5770, 1457.421
247.7920, 1451.463
249.0070, 1278.669
250.2220, 1289.911
251.4370, 1200.936
252.6510, 1088.158
253.8660, 1016.924
255.0800, 940.5918
256.2940, 842.5364
257.5080, 699.2852
258.7220, 667.9778
259.9360, 553.8184
261.1490, 475.3401
262.3630, 422.9941
263.5760, 385.6272
264.7890, 347.2886
266.0020, 332.0901
267.2150, 287.7126
268.4270, 269.3704
269.6400, 201.2267
270.8520, 202.9027
272.0640, 169.7816
273.2760, 201.5745
274.4880, 174.7509
275.7000, 101.4919
276.9120, 123.3102
278.1230, 64.08203
279.3340, 73.86926
280.5450, 110.7957
281.7560, 96.17847
282.9670, 66.17249
284.1780, 78.01843
285.3880, 49.94653
286.5980, 48.98450
287.8090, 75.93677
289.0190, 22.58398
290.2290, 33.59229
291.4380, 63.50928
292.6480, 23.11707
293.8570, 50.11719
295.0670, 48.06299
296.2760, 3.979370
297.4850, 17.98901
298.6930, 33.96716
299.9020, 17.95251
301.1110, 22.94495
302.3190, 8.943726
303.5270, 9.867065
304.7350, 11.30273
305.9430, 30.31812
307.1510, 35.66138
308.3580, 2.639771
309.5660, 7.385864
310.7730, 16.53735
311.9800, 0.5054930
313.1870, 7.470215
314.3940, 20.43237
315.6010, 19.39209
316.8070, 32.35144
318.0130, 22.31274
319.2200, 8.044067
320.4260, 25.00464
321.6310, 2.966919
322.8370, 53.92407
324.0430, 29.89355
325.2480, 30.31445
326.4540, 22.92297
327.6590, 3.901367
328.8640, 0.3548580
330.0680, 20.63916
331.2730, 41.64478
332.4780, 22.58752
333.6820, 59.62085
334.8860, 4.323242
336.0900, 1.482910
337.2940, 17.58362
338.4980, 25.66724
339.7010, 7.769653
340.9050, 21.87939
342.1080, 42.96509
343.3110, 18.77747
344.5140, 28.91821
345.7170, 28.05566
346.9200, 7.136841
348.1220, 6.259277
349.3240, 25.36951
350.5270, 18.47766
351.7290, 32.58130
352.9310, 12.31116
354.1320, 24.78271
355.3340, 16.12231
356.5350, 24.96399
357.7370, 12.05688
358.9380, 10.15173
360.1390, 4.248779
361.3400, 30.24744
362.5400, 15.68823
363.7410, 1.418213
364.9410, 16.46875
366.1410, 2.429688
367.3410, 1.690063
368.5410, 10.79651
369.7410, 22.92993
370.9400, 25.07959
372.1400, 4.202637
373.3390, 33.37891
374.5380, 44.42139
375.7370, 11.51648
376.9360, 60.27197
378.1350, 38.07007
379.3330, 9.683960
380.5310, 5.911499
381.7300, 2.082275
382.9280, 19.00439
384.1260, 12.79980
385.3230, 1.546997
386.5210, 22.30164
387.7180, 0.1585690
388.9160, 22.84277
390.1130, 24.52039
391.3100, 6.851807
392.5060, 56.64124
393.7030, 46.38416
394.9000, 6.793457
396.0960, 8.831299
397.2920, 3.5156000E-02
398.4880, 2.859253
399.6840, 3.284058
400.8800, 20.09949
402.0750, 5.753784
403.2710, 27.35229
404.4660, 45.21228
405.6610, 38.80200
406.8560, 42.30420
408.0510, 42.80969
409.2450, 37.29712
410.4400, 51.83252
411.6340, 50.22888
412.8280, 39.82715
414.0220, 60.27417
415.2160, 42.04187
416.4100, 48.46313
417.6030, 33.87463
418.7970, 74.35767
419.9900, 52.74695
421.1830, 68.12622
422.3760, 87.52356
423.5690, 50.97632
424.7610, 34.45496
425.9540, 50.78967
427.1460, 70.44763
428.3380, 57.76086
429.5300, 53.06335
430.7220, 59.36938
431.9140, 32.67212
433.1050, 59.08472
434.2970, 76.33582
435.4880, 36.57666
436.6790, 63.80078
437.8700, 78.02649
439.0610, 92.98206
440.2510, 100.7203
441.4420, 98.34607
442.6320, 91.51514
443.8220, 83.67297
445.0120, 100.8196
446.2020, 62.95496
447.3910, 64.97375
448.5810, 116.0829
449.7700, 108.1808
450.9600, 90.52820
452.1490, 83.56616
453.3370, 75.62939
454.5260, 85.39868
455.7150, 86.73816
456.9030, 89.34192
458.0910, 94.38245
459.2800, 108.9893
460.4670, 91.12317
461.6550, 64.62061
462.8430, 110.6691
464.0300, 118.0126
465.2180, 84.10181
466.4050, 111.1398
467.5920, 48.15210
468.7790, 55.27502
469.9650, 81.50354
471.1520, 62.29578
472.3380, 101.1395
473.5250, 92.34229
474.7110, 73.54541
475.8970, 89.63098
477.0820, 94.79810
478.2680, 60.60449
479.4540, 96.38757
480.6390, 117.5073
481.8240, 91.21826
483.0090, 149.6747
484.1940, 75.48157
485.3780, 51.16907
486.5630, 143.0389
487.7470, 108.3617
488.9320, 69.68384
490.1160, 88.97498
491.3000, 79.27063
492.4830, 80.45654
493.6670, 113.3031
494.8500, 100.1400
496.0340, 92.77234
497.2170, 112.9323
498.4000, 91.54224
499.5820, 94.59192
500.7650, 93.28381
501.9480, 73.02893
503.1300, 58.02844
504.3120, 62.61707
505.4940, 73.15820
506.6760, 61.24060
507.8580, 66.27502
509.0390, 81.57361
510.2210, 65.53308
511.4020, 71.86475
512.5830, 75.48511
513.7640, 56.92517
514.9450, 84.47668
516.1250, 84.32385
517.3060, 37.31812
518.4860, 62.47571
519.6660, 60.34729
520.8460, 27.74438
522.0260, 84.87012
523.2060, 36.01160
524.3850, 39.54773
525.5650, 44.81909
526.7440, 50.74963
527.9230, 47.12756
529.1020, 37.29333
530.2810, 56.49329
531.4590, 65.60376
532.6380, 5.275513
533.8160, 37.11218
534.9940, 40.36096
536.1720, 34.59888
537.3500, 61.07678
538.5270, 16.38110
539.7050, 24.16064
540.8820, 66.05798
542.0590, 32.93616
543.2360, 32.55164
544.4130, 34.47852
545.5900, 18.27356
546.7660, 33.40210
547.9430, 45.41272
549.1190, 42.45776
550.2950, 44.48767
551.4710, 34.38904
552.6470, 35.31982
553.8220, 39.54517
554.9980, 44.42053
556.1730, 17.48413
557.3480, 48.35046
558.5230, 52.31006
559.6980, 31.89319
560.8730, 71.91833
562.0470, 56.87354
563.2220, 37.88159
564.3960, 30.88123
565.5700, 27.74719
566.7440, 44.16223
567.9170, 14.97168
569.0910, 50.93298
570.2640, 46.81689
571.4380, 38.65881
572.6110, 36.52686
573.7840, 23.70312
574.9570, 42.52100
576.1290, 59.46655
577.3020, 59.68994
578.4740, 36.52234
579.6460, 0.4107670
580.8180, 3.285034
581.9900, 7.003906
583.1620, 72.99731
584.3330, 45.84045
585.5040, 52.67639
586.6760, 73.50488
587.8470, 33.14197
589.0180, 41.79712
590.1880, 51.60474
591.3590, 25.40540
592.5290, 51.20251
593.7000, 68.99304
594.8700, 57.72974
596.0400, 49.50830
597.2090, 34.28027
598.3790, 3.046265
599.5490, 53.80420
600.7180, 48.55762
601.8870, 28.30908
603.0560, 11.82605
604.2250, 27.56628
605.3940, 12.30310
606.5620, 21.02893
607.7300, 34.79431
608.8990, 12.97217
610.0670, 28.40405
611.2350, 40.12061
612.4020, 32.59717
613.5700, 57.31311
614.7370, 48.28369
615.9050, 24.36108
617.0720, 38.26331
618.2390, 52.98535
619.4060, 46.48755
620.5720, 69.19922
621.7390, 70.90881
622.9050, 47.61853
624.0710, 65.32483
625.2370, 65.00757
626.4030, 33.39294
627.5690, 69.10205
628.7340, 40.81287
629.9000, 75.47241
631.0650, 51.18225
632.2300, 14.88965
633.3950, 82.59839
634.5600, 69.30737
635.7240, 58.02002
636.8890, 42.72815
638.0530, 74.52869
639.2170, 88.23474
640.3810, 66.94360
641.5450, 46.65295
642.7080, 28.36194
643.8720, 18.78711
645.0350, 53.64526
646.1980, 13.35779
647.3610, 16.01074
648.5240, 32.70728
649.6870, 10.41821
650.8490, 38.11267
652.0120, 50.83142
653.1740, 30.55493
654.3360, 38.23962
655.4980, 21.96973
656.6600, 8.292358
657.8210, 3.267456
658.9830, 6.767334
660.1440, 23.03284
661.3050, 1.303955
662.4660, 31.03613
663.6270, 42.53540
664.7870, 37.10486
665.9480, 28.76782
667.1080, 26.48096
668.2680, 136.1758
669.4280, 132.7605
670.5880, 183.6785
671.7480, 257.4689
672.9070, 214.5499
674.0670, 379.1610
675.2260, 532.8105
676.3850, 530.3729
677.5440, 364.1172
678.7030, 206.3397
679.8610, 174.7865
681.0200, 134.5409
682.1780, 240.1853
683.3360, 275.8315
684.4940, 278.5187
685.6520, 157.9336
686.8090, 149.6090
687.9670, 95.36206
689.1240, 72.10205
690.2810, 67.84961
691.4380, 110.5382
692.5950, 212.2372
693.7520, 297.9624
694.9080, 581.7085
696.0650, 874.1237
697.2210, 876.8741
698.3770, 616.6238
699.5330, 323.2900
700.6880, 153.0397
701.8440, 89.78845
702.9990, 47.50879
704.1550, 35.16309
705.3100, 59.78015
706.4650, 14.52759
707.6190, 19.94019
708.7740, 18.68652
709.9290, 0.4323730
711.0830, 28.16235
712.2370, 26.88464
713.3910, 19.48303
714.5450, 3.231445
715.6980, 14.97925
716.8520, 17.72913
718.0050, 22.46570
719.1580, 18.46118
720.3110, 24.18567
721.4640, 52.92017
722.6170, 25.70728
723.7700, 50.45447
724.9220, 39.20142
726.0740, 75.94824
727.2260, 40.67798
728.3780, 93.42590
729.5300, 74.17371
730.6810, 113.8450
731.8330, 65.59229
732.9840, 87.33972
734.1350, 63.08728
735.2860, 40.83484
736.4370, 74.58057
737.5880, 44.88770
738.7380, 43.63525
739.8880, 38.41956
741.0390, 7.134277
742.1890, 24.66614
743.3380, 30.38171
744.4880, 23.93298
745.6380, 0.4013670
746.7870, 13.38855
747.9360, 3.030151
749.0850, 40.77759
750.2340, 27.88867
751.3830, 11.64453
752.5310, 16.40039
753.6800, 2.428589
754.8280, 6.712158
755.9760, 60.03845
757.1240, 4.845581
758.2720, 17.60852
759.4190, 55.37354
760.5670, 31.12549
761.7140, 42.91052
762.8610, 2.663330
764.0080, 3.416748
765.1550, 21.17224
766.3020, 29.92810
767.4480, 45.72815
768.5950, 54.68225
769.7410, 58.25159
770.8870, 75.02759
772.0330, 33.81055
773.1780, 46.56982
774.3240, 33.32959
775.4690, 3.860718
776.6140, 46.89941
777.7590, 22.66040
778.9040, 71.46301
780.0490, 37.22510
781.1940, 50.93469
782.3380, 32.68481
783.4820, 57.44983
784.6260, 34.14868
785.7700, 49.90552
786.9140, 69.67310
788.0580, 57.87988
789.2010, 41.81384
790.3450, 44.07141
791.4880, 32.81360
792.6310, 20.19531
793.7730, 22.96655
794.9160, 2.903442
796.0590, 9.270020
797.2010, 45.31519
798.3430, 13.12280
799.4850, 43.74121
800.6270, 99.51501
801.7690, 13.29004
802.9100, 47.06641
804.0520, 81.14929
805.1930, 10.06848
806.3340, 16.84656
807.4750, 5.346069
808.6160, 0.5548100
809.7560, 37.22290
810.8970, 55.00818
812.0370, 48.79468
813.1770, 38.58191
814.3170, 15.47815
815.4570, 44.26697
816.5960, 21.09106
817.7360, 48.95117
818.8750, 30.74451
820.0140, 13.53857
821.1530, 23.33337
822.2920, 55.18640
823.4310, 44.98340
824.5690, 87.78101
825.7070, 103.5955
826.8460, 107.3936
827.9840, 128.1920
829.1220, 53.01672
830.2590, 98.81653
831.3970, 117.6288
832.5340, 205.4291
833.6710, 211.2310
834.8080, 293.0331
835.9450, 520.0181
837.0820, 768.8251
838.2190, 1191.638
839.3550, 1600.491
840.4910, 1553.294
841.6270, 1056.098
842.7630, 682.9025
843.8990, 371.7080
845.0350, 210.5269
846.1700, 205.3337
847.3060, 98.07715
848.4410, 107.0333
849.5760, 54.84045
850.7100, 38.83813
851.8450, 39.64294
852.9800, 25.45044
854.1140, 14.25793
855.2480, 61.06543
856.3820, 56.87610
857.5160, 55.68921
858.6500, 2.504272
859.7830, 38.31873
860.9170, 25.13306
862.0500, 35.99927
863.1830, 42.81311
864.3160, 58.62671
865.4480, 70.70056
866.5810, 25.27820
867.7130, 67.09534
868.8460, 85.91235
869.9780, 13.73022
871.1100, 36.54785
872.2410, 42.36511
873.3730, 70.18201
874.5050, 62.97546
875.6360, 4.822998
876.7670, 47.64380
877.8980, 29.46484
879.0290, 15.28882
880.1590, 27.12183
881.2900, 20.95764
882.4200, 4.770264
883.5500, 35.63049
884.6800, 0.4816890
885.8100, 7.678101
886.9400, 23.15820
888.0690, 4.004883
889.1990, 4.796509
890.3280, 43.97034
891.4570, 14.61914
892.5860, 1.453491
893.7140, 12.28003
894.8430, 12.11804
895.9710, 25.95483
897.1000, 7.801636
898.2280, 32.64954
899.3560, 20.49268
900.4830, 40.34119
901.6110, 48.20105
902.7380, 6.063843
903.8660, 59.92773
904.9930, 14.79431
906.1200, 0.3405760
907.2460, 11.53394
908.3730, 36.40796
909.5000, 23.29346
910.6260, 6.179688
911.7520, 34.97839
912.8780, 36.87256
914.0040, 8.773560
915.1290, 27.68311
916.2550, 15.40686
917.3800, 16.49805
918.5050, 42.40405
919.6300, 83.31226
920.7550, 12.21887
921.8800, 66.12366
923.0040, 7.973511
924.1290, 18.07520
925.2530, 53.81226
926.3770, 5.697510
927.5010, 53.58301
928.6250, 39.46631
929.7480, 13.65247
930.8720, 54.13452
931.9950, 19.29956
933.1180, 13.56091
934.2410, 23.41870
935.3640, 85.27502
936.4860, 37.12988
937.6090, 44.98499
938.7310, 3.161011
939.8530, 0.4198000
940.9750, 55.53857
942.0970, 17.38904
943.2180, 21.06360
944.3400, 61.86096
945.4610, 55.70264
946.5820, 27.59375
947.7030, 63.44556
948.8240, 5.294434
949.9450, 44.13977
951.0650, 17.98218
952.1860, 10.82104
953.3060, 36.65637
954.4260, 29.48987
955.5460, 67.32031
956.6650, 13.14734
957.7850, 52.97363
958.9040, 58.79688
960.0230, 23.63318
961.1420, 36.46582
962.2610, 34.29761
963.3800, 22.18286
964.4990, 42.00720
965.6170, 25.83130
966.7350, 32.65405
967.8530, 47.47314
968.9710, 61.33264
970.0890, 3.144165
971.2070, 28.94995
972.3240, 27.75183
973.4410, 18.54968
974.5580, 59.34302
975.6750, 49.13232
976.7920, 35.91748
977.9090, 32.90430
979.0250, 28.68323
980.1410, 43.45544
981.2580, 69.22339
982.3740, 7.987305
983.4890, 55.75232
984.6050, 5.516846
985.7200, 25.28210
986.8360, 46.04321
987.9510, 33.79980
989.0660, 50.55164
990.1810, 55.29871
991.2950, 39.04126
992.4100, 40.77869
993.5240, 71.47266
994.6390, 56.20117
995.7530, 21.92468
996.8660, 52.64294
997.9800, 36.78296
999.0940, 29.11511
1000.207, 48.86304
1001.320, 52.42383
1002.433, 66.12170
1003.546, 63.53638
1004.659, 59.40857
1005.772, 49.50928
1006.884, 51.18555
1007.996, 56.07092
1009.108, 53.31775
1010.220, 71.95630
1011.332, 85.75098
1012.444, 89.41028
1013.555, 73.81543
1014.666, 92.94043
1015.777, 38.58838
1016.888, 35.17297
1017.999, 22.79150
1019.110, 63.96765
1020.220, 63.21680
1021.331, 67.15723
1022.441, 117.5662
1023.551, 52.07776
1024.661, 70.53015
1025.770, 46.10681
1026.880, 59.63098
1027.989, 106.4999
1029.098, 100.0447
1030.207, 122.1415
1031.316, 219.2058
1032.425, 295.2034
1033.533, 368.4933
1034.642, 225.2340
1035.750, 158.6509
1036.858, 212.7194
1037.966, 195.0457
1039.073, 165.5305
1040.181, 256.5413
1041.288, 285.1760
1042.396, 319.6350
1043.503, 384.5969
1044.610, 464.9124
1045.716, 600.9883
1046.823, 780.2734
1047.929, 1101.104
1049.036, 1862.968
1050.142, 2872.520
1051.248, 4551.451
1052.353, 8544.723
1053.459, 17063.11
1054.564, 36025.46
1055.670, 56945.83
1056.775, 51912.01
1057.880, 29063.41
1058.985, 12303.75
1060.089, 5247.564
1061.194, 2409.892
1062.298, 1298.209
1063.402, 830.5958
1064.506, 565.8962
1065.610, 431.9105
1066.713, 333.1580
1067.817, 268.4458
1068.920, 199.8561
1070.023, 167.6072
1071.126, 251.1495
1072.229, 162.4700
1073.332, 171.9292
1074.435, 169.0447
1075.537, 122.2291
1076.639, 103.4204
1077.741, 94.61597
1078.843, 52.78625
1079.945, 99.49512
1081.046, 139.6628
1082.148, 101.7650
1083.249, 95.91406
1084.350, 67.02112
1085.451, 67.76721
1086.551, 97.49548
1087.652, 82.60706
1088.752, 109.7094
1089.853, 134.4022
1090.953, 106.4858
1092.053, 106.4161
1093.152, 83.46411
1094.252, 142.9998
1095.351, 54.04517
1096.451, 89.05469
1097.550, 128.8369
1098.649, 102.3528
1099.748, 113.3590
1100.846, 56.35547
1101.945, 98.34204
1103.043, 82.13611
1104.141, 104.0992
1105.239, 78.04688
1106.337, 137.9452
1107.434, 124.8834
1108.532, 93.81213
1109.629, 37.73132
1110.726, 62.63879
1111.823, 98.52515
1112.920, 84.41357
1114.017, 113.3060
1115.113, 74.49561
1116.210, 116.2407
1117.306, 104.4086
1118.402, 69.30847
1119.498, 86.13953
1120.593, 89.96082
1121.689, 109.7725
1122.784, 124.5746
1123.879, 104.3673
1124.974, 101.2656
1126.069, 86.03931
1127.164, 74.60461
1128.259, 60.52661
1129.353, 55.27197
1130.447, 51.22107
1131.541, 48.92273
1132.635, 13.63892
1133.729, 75.33801
1134.822, 30.02795
1135.916, 65.70569
1137.009, 48.37427
1138.102, 65.03320
1139.195, 30.68298
1140.288, 19.34009
1141.380, 48.96423
1142.473, 34.57935
1143.565, 17.18396
1144.657, 12.22559
1145.749, 19.33704
1146.841, 44.88599
1147.932, 57.41492
1149.024, 74.92859
1150.115, 4.643555
1151.206, 53.85645
1152.297, 21.34949
1153.388, 40.83057
1154.479, 28.30383
1155.569, 6.768188
1156.659, 46.21631
1157.750, 38.65601
1158.839, 1.912598
1159.929, 57.49902
1161.019, 22.09753
1162.108, 11.27563
1163.198, 21.36426
1164.287, 5.966675
1165.376, 19.28259
1166.465, 2.588379
1167.553, 7.877930
1168.642, 3.154419
1169.730, 33.41577
1170.818, 26.33069
1171.906, 16.89319
1172.994, 32.89209
1174.082, 7.289429
1175.170, 0.5411380
1176.257, 12.38696
1177.344, 16.25427
1178.431, 26.14490
1179.518, 5.936523
1180.605, 5.377197
1181.691, 3.064575
1182.778, 2.889404
1183.864, 25.14221
1184.950, 25.16711
1186.036, 22.82410
1187.122, 4.199097
1188.207, 6.204590
1189.292, 19.20667
1190.378, 0.7969970
1191.463, 11.18848
1192.548, 38.16809
1193.632, 34.14221
1194.717, 31.91772
1195.801, 17.08228
1196.886, 14.04993
1197.970, 6.844604
1199.054, 2.441650
1200.137, 4.080444
1201.221, 1.140503
1202.305, 3.208862
1203.388, 3.284790
1204.471, 12.36853
1205.554, 52.53455
1206.637, 12.43323
1207.719, 73.32739
1208.802, 15.78284
1209.884, 40.95410
1210.966, 17.89587
1212.048, 0.7416990
1213.130, 19.58289
1214.212, 11.42041
1215.293, 29.25415
1216.374, 5.915527
1217.456, 41.90820
1218.536, 3.728271
1219.617, 14.45508
1220.698, 20.35254
1221.778, 67.84326
1222.859, 31.92456
1223.939, 12.31079
1225.019, 16.44653
1226.099, 24.14355
1227.178, 19.10449
1228.258, 14.36230
1229.337, 27.37256
1230.417, 29.10498
1231.496, 1.791016
1232.574, 9.519287
1233.653, 72.24683
1234.732, 30.97217
