##NAMES=Cerussite
##RRUFFID=R060017
##IDEAL CHEMISTRY=Pb^2+^CO_3_
##LOCALITY=Gonessa, Sardinia, Italy
##OWNER=RRUFF
##SOURCE=American Museum of Natural History
##DESCRIPTION=White reticulated composite
##STATUS=The identification of this mineral has been confirmed by X-ray diffraction and chemical analysis
##URL=rruff.info/R060017
##MEASURED CHEMISTRY=Pb_1.00_CO_3_ C not measured but estimated by difference and stoichiometry
##PIN_ID=M00240
##ORIENTATION=Laser parallel to b* (0 1 0). Fiducial mark perpendicular to laser is parallel to c [0 0 1]
51.43100, 0.0000000E+00
52.67100, 71.07495
53.91000, 236.2316
55.14900, 277.4065
56.38700, 97.21118
57.62600, 90.35083
58.86400, 83.05432
60.10300, 89.92090
61.34100, 454.1760
62.57900, 880.9751
63.81700, 1506.081
65.05400, 2320.654
66.29200, 3311.177
67.52900, 4352.390
68.76700, 5089.255
70.00400, 5553.901
71.24100, 5940.582
72.47700, 5847.622
73.71400, 5674.419
74.95100, 5492.451
76.18700, 5319.261
77.42300, 5291.455
78.65900, 5271.686
79.89500, 5698.652
81.13100, 6208.078
82.36700, 6670.732
83.60200, 7565.410
84.83700, 8548.945
86.07200, 10084.19
87.30800, 11887.01
88.54200, 13929.29
89.77700, 16231.80
91.01200, 18559.36
92.24600, 20148.79
93.48000, 21562.95
94.71400, 22534.74
95.94800, 23555.07
97.18200, 24485.86
98.41600, 24732.04
99.64900, 24599.53
100.8830, 23939.29
102.1160, 22904.27
103.3490, 21658.42
104.5820, 20198.69
105.8150, 18339.03
107.0470, 17041.40
108.2800, 15437.77
109.5120, 14406.09
110.7440, 13762.34
111.9760, 13640.53
113.2080, 13147.64
114.4400, 12993.63
115.6710, 13107.57
116.9030, 13006.47
118.1340, 12855.32
119.3650, 12817.06
120.5960, 12596.50
121.8270, 12208.38
123.0580, 12202.87
124.2880, 12005.18
125.5190, 11839.93
126.7490, 11842.63
127.9790, 11880.27
129.2090, 11840.59
130.4390, 11938.58
131.6680, 11933.39
132.8980, 11954.47
134.1270, 12096.84
135.3560, 12229.48
136.5850, 12259.39
137.8140, 12453.64
139.0430, 12783.21
140.2710, 12798.19
141.5000, 13016.56
142.7280, 13294.21
143.9560, 13177.17
145.1840, 13259.47
146.4120, 13095.12
147.6390, 12830.20
148.8670, 12493.72
150.0940, 11931.60
151.3210, 11424.81
152.5490, 10900.31
153.7750, 9858.148
155.0020, 9464.294
156.2290, 8771.806
157.4550, 8206.628
158.6810, 7789.730
159.9080, 7455.110
161.1340, 7336.753
162.3590, 7331.652
163.5850, 7293.817
164.8110, 7326.106
166.0360, 7420.986
167.2610, 7462.000
168.4860, 7609.281
169.7110, 7707.539
170.9360, 7588.496
172.1610, 7537.461
173.3850, 7476.031
174.6100, 7155.814
175.8340, 6886.763
177.0580, 6587.984
178.2820, 6357.445
179.5050, 5947.094
180.7290, 5489.868
181.9520, 4984.107
183.1760, 4671.035
184.3990, 4577.200
185.6220, 4166.031
186.8450, 3912.163
188.0670, 3954.521
189.2900, 3529.530
190.5120, 3498.396
191.7340, 3472.204
192.9560, 3367.072
194.1780, 3347.243
195.4000, 3330.514
196.6220, 3260.961
197.8430, 3327.950
199.0640, 3274.118
200.2860, 3256.532
201.5070, 3403.199
202.7270, 3321.961
203.9480, 3270.061
205.1690, 3300.161
206.3890, 3535.106
207.6090, 3382.014
208.8290, 3697.565
210.0490, 3583.355
211.2690, 3759.699
212.4890, 3745.505
213.7080, 3837.675
214.9280, 3863.274
216.1470, 3790.041
217.3660, 3783.842
218.5850, 3857.342
219.8030, 3735.921
221.0220, 3657.760
222.2400, 3614.486
223.4590, 3655.316
224.6770, 3545.886
225.8950, 3401.466
227.1120, 3384.624
228.3300, 3195.848
229.5480, 3194.689
230.7650, 3004.551
231.9820, 2976.039
233.1990, 2713.499
234.4160, 2549.133
235.6330, 2481.024
236.8490, 2433.281
238.0660, 2382.310
239.2820, 2297.146
240.4980, 2134.918
241.7140, 2118.241
242.9300, 2028.205
244.1460, 1903.400
245.3610, 1644.233
246.5770, 1599.012
247.7920, 1405.327
249.0070, 1251.347
250.2220, 1246.532
251.4370, 1057.464
252.6510, 913.3018
253.8660, 932.2949
255.0800, 921.0938
256.2940, 815.3872
257.5080, 669.8252
258.7220, 581.7314
259.9360, 503.0986
261.1490, 411.4683
262.3630, 364.4878
263.5760, 397.7900
264.7890, 329.4551
266.0020, 312.2090
267.2150, 188.8262
268.4270, 230.4258
269.6400, 210.3345
270.8520, 54.11670
272.0640, 185.8901
273.2760, 88.74316
274.4880, 127.5444
275.7000, 86.77637
276.9120, 144.9043
278.1230, 40.26709
279.3340, 119.0557
280.5450, 66.03955
281.7560, 103.5962
282.9670, 244.6514
284.1780, 106.2935
285.3880, 133.2490
286.5980, 54.97412
287.8090, 17.13086
289.0190, 23.01855
290.2290, 135.6816
291.4380, 87.40723
292.6480, 34.31738
293.8570, 77.37061
295.0670, 149.1221
296.2760, 26.59180
297.4850, 6.680664
298.6930, 13.26514
299.9020, 49.44336
301.1110, 81.25098
302.3190, 104.8037
303.5270, 60.56982
304.7350, 140.5366
305.9430, 81.84424
307.1510, 35.17529
308.3580, 82.12695
309.5660, 171.2881
310.7730, 66.19873
311.9800, 47.20996
313.1870, 141.6572
314.3940, 130.4224
315.6010, 60.33838
316.8070, 105.9321
318.0130, 95.44189
319.2200, 22.23828
320.4260, 21.33105
321.6310, 106.4028
322.8370, 85.06152
324.0430, 138.0322
325.2480, 213.6221
326.4540, 160.0991
327.6590, 92.22461
328.8640, 113.4526
330.0680, 81.68066
331.2730, 98.93604
332.4780, 63.07959
333.6820, 73.21924
334.8860, 78.64648
336.0900, 79.04102
337.2940, 83.24805
338.4980, 75.71240
339.7010, 110.2119
340.9050, 32.74170
342.1080, 24.01465
343.3110, 36.07715
344.5140, 34.56445
345.7170, 143.9692
346.9200, 48.13623
348.1220, 6.062988
349.3240, 122.2231
350.5270, 65.40674
351.7290, 32.54053
352.9310, 0.3701170
354.1320, 19.33252
355.3340, 31.20508
356.5350, 114.6626
357.7370, 23.24072
358.9380, 58.16162
360.1390, 4.078125
361.3400, 10.14551
362.5400, 53.71631
363.7410, 54.72461
364.9410, 72.22412
366.1410, 61.58301
367.3410, 69.59131
368.5410, 3.111816
369.7410, 26.68799
370.9400, 48.28662
372.1400, 20.14355
373.3390, 43.19629
374.5380, 106.0049
375.7370, 82.74707
376.9360, 172.1006
378.1350, 66.62061
379.3330, 69.89746
380.5310, 146.2690
381.7300, 10.37891
382.9280, 132.2046
384.1260, 30.39502
385.3230, 24.98242
386.5210, 37.35840
387.7180, 16.37402
388.9160, 35.10596
390.1130, 22.51221
391.3100, 94.34570
392.5060, 80.19629
393.7030, 83.25293
394.9000, 141.6387
396.0960, 269.9492
397.2920, 115.7397
398.4880, 3.718750
399.6840, 184.6382
400.8800, 191.5635
402.0750, 17.32031
403.2710, 55.95117
404.4660, 115.9341
405.6610, 189.5454
406.8560, 180.2886
408.0510, 127.7910
409.2450, 173.3584
410.4400, 191.1982
411.6340, 204.0684
412.8280, 191.6021
414.0220, 211.1812
415.2160, 226.7148
416.4100, 234.3379
417.6030, 109.0127
418.7970, 166.5220
419.9900, 274.3506
421.1830, 108.6050
422.3760, 130.8682
423.5690, 163.2900
424.7610, 117.9453
425.9540, 172.9111
427.1460, 259.6851
428.3380, 238.6479
429.5300, 291.9995
430.7220, 359.4585
431.9140, 159.2695
433.1050, 226.2988
434.2970, 117.7549
435.4880, 216.3823
436.6790, 228.6035
437.8700, 260.2524
439.0610, 293.6465
440.2510, 247.3169
441.4420, 293.8428
442.6320, 264.2812
443.8220, 199.2173
445.0120, 255.5439
446.2020, 340.0283
447.3910, 267.6133
448.5810, 297.7954
449.7700, 312.7153
450.9600, 219.6528
452.1490, 231.6187
453.3370, 182.1973
454.5260, 225.5220
455.7150, 205.8789
456.9030, 273.1455
458.0910, 285.0557
459.2800, 176.6577
460.4670, 257.9160
461.6550, 221.3252
462.8430, 376.2603
464.0300, 327.2402
465.2180, 275.2729
466.4050, 191.9814
467.5920, 213.0264
468.7790, 207.6196
469.9650, 281.4478
471.1520, 228.1128
472.3380, 335.8721
473.5250, 395.5366
474.7110, 286.9258
475.8970, 351.3643
477.0820, 218.0107
478.2680, 345.3584
479.4540, 164.8418
480.6390, 305.6113
481.8240, 340.5674
483.0090, 241.8457
484.1940, 223.0537
485.3780, 247.2217
486.5630, 346.3174
487.7470, 301.5449
488.9320, 262.4053
490.1160, 189.6221
491.3000, 280.4639
492.4830, 334.8652
493.6670, 320.8281
494.8500, 365.1562
496.0340, 327.2852
497.2170, 211.0127
498.4000, 276.5635
499.5820, 240.3330
500.7650, 289.3525
501.9480, 294.6230
503.1300, 256.2314
504.3120, 279.6650
505.4940, 236.6191
506.6760, 236.2041
507.8580, 282.3496
509.0390, 285.8848
510.2210, 236.3506
511.4020, 322.3828
512.5830, 240.6387
513.7640, 180.6436
514.9450, 188.3994
516.1250, 245.3662
517.3060, 198.6934
518.4860, 232.6064
519.6660, 219.7109
520.8460, 244.8818
522.0260, 233.7588
523.2060, 238.0898
524.3850, 209.4463
525.5650, 226.3643
526.7440, 218.3359
527.9230, 191.0371
529.1020, 287.2705
530.2810, 186.4717
531.4590, 190.1270
532.6380, 347.0225
533.8160, 264.5283
534.9940, 209.4727
536.1720, 175.3867
537.3500, 180.6816
538.5270, 268.1943
539.7050, 83.67090
540.8820, 206.4482
542.0590, 125.8408
543.2360, 135.1904
544.4130, 281.1689
545.5900, 107.7832
546.7660, 217.4814
547.9430, 117.6172
549.1190, 130.5488
550.2950, 213.1895
551.4710, 177.8164
552.6470, 171.6484
553.8220, 209.5596
554.9980, 201.2217
556.1730, 204.0674
557.3480, 190.9756
558.5230, 104.8584
559.6980, 193.8398
560.8730, 47.44824
562.0470, 303.6807
563.2220, 213.2930
564.3960, 180.5479
565.5700, 148.6221
566.7440, 116.6484
567.9170, 127.0186
569.0910, 109.7695
570.2640, 159.3340
571.4380, 192.0957
572.6110, 202.5518
573.7840, 94.01758
574.9570, 131.7305
576.1290, 188.5752
577.3020, 108.0020
578.4740, 206.6816
579.6460, 251.6973
580.8180, 281.9482
581.9900, 279.6738
583.1620, 317.7949
584.3330, 199.5918
585.5040, 169.0391
586.6760, 87.58496
587.8470, 183.6943
589.0180, 247.3564
590.1880, 187.3779
591.3590, 178.4365
592.5290, 148.1309
593.7000, 231.0527
594.8700, 128.7324
596.0400, 184.5225
597.2090, 190.7607
598.3790, 128.3271
599.5490, 5.043945
600.7180, 168.2578
601.8870, 221.5615
603.0560, 105.1484
604.2250, 96.03027
605.3940, 116.4316
606.5620, 114.8613
607.7300, 201.5820
608.8990, 214.8945
610.0670, 214.2295
611.2350, 138.8760
612.4020, 120.2256
613.5700, 206.1016
614.7370, 82.93652
615.9050, 112.6875
617.0720, 164.5039
618.2390, 145.2451
619.4060, 99.04785
620.5720, 194.6201
621.7390, 200.4121
622.9050, 195.2119
624.0710, 240.5176
625.2370, 289.4551
626.4030, 220.7461
627.5690, 113.5098
628.7340, 247.2568
629.9000, 189.8105
631.0650, 207.1885
632.2300, 222.8682
633.3950, 190.8281
634.5600, 154.3945
635.7240, 159.3096
636.8890, 150.0576
638.0530, 126.9346
639.2170, 136.6543
640.3810, 147.0420
641.5450, 130.7930
642.7080, 170.5479
643.8720, 80.21973
645.0350, 133.9531
646.1980, 13.38086
647.3610, 47.16113
648.5240, 57.03906
649.6870, 98.74316
650.8490, 112.2158
652.0120, 185.9141
653.1740, 172.4004
654.3360, 55.21484
655.4980, 125.1191
656.6600, 99.76172
657.8210, 111.8467
658.9830, 157.4219
660.1440, 202.0625
661.3050, 280.4395
662.4660, 389.0264
663.6270, 513.4902
664.7870, 695.7021
665.9480, 709.0879
667.1080, 699.4590
668.2680, 696.5674
669.4280, 882.2656
670.5880, 1060.432
671.7480, 1252.675
672.9070, 1365.015
674.0670, 1477.449
675.2260, 1637.592
676.3850, 1606.765
677.5440, 1857.949
678.7030, 1885.634
679.8610, 1802.105
681.0200, 1494.590
682.1780, 1359.048
683.3360, 923.6523
684.4940, 773.3359
685.6520, 481.6309
686.8090, 562.2646
687.9670, 456.7422
689.1240, 569.4346
690.2810, 525.0303
691.4380, 519.3262
692.5950, 636.5625
693.7520, 508.1084
694.9080, 379.5820
696.0650, 366.0732
697.2210, 312.4473
698.3770, 134.7402
699.5330, 105.1592
700.6880, 20.77148
701.8440, 81.83496
702.9990, 77.38965
704.1550, 84.74316
705.3100, 147.8252
706.4650, 147.5518
707.6190, 84.43164
708.7740, 33.09082
709.9290, 35.35449
711.0830, 187.8457
712.2370, 19.62500
713.3910, 80.81738
714.5450, 22.20410
715.6980, 62.65723
716.8520, 53.35547
718.0050, 187.4346
719.1580, 99.98633
720.3110, 72.73047
721.4640, 93.27344
722.6170, 116.8115
723.7700, 125.3672
724.9220, 120.7334
726.0740, 88.25781
727.2260, 214.8066
728.3780, 114.5420
729.5300, 102.9951
730.6810, 148.4551
731.8330, 67.12305
732.9840, 70.64551
734.1350, 176.7637
735.2860, 99.10352
736.4370, 140.9863
737.5880, 159.2051
738.7380, 13.76367
739.8880, 156.2373
741.0390, 203.9395
742.1890, 93.96875
743.3380, 3.044922
744.4880, 258.0830
745.6380, 248.2070
746.7870, 144.7305
747.9360, 97.25781
749.0850, 81.98730
750.2340, 1.684570
751.3830, 46.91895
752.5310, 72.13477
753.6800, 45.48535
754.8280, 65.69531
755.9760, 106.4043
757.1240, 169.8145
758.2720, 141.0615
759.4190, 117.6748
760.5670, 139.9316
761.7140, 226.5430
762.8610, 222.0615
764.0080, 222.9082
765.1550, 103.8115
766.3020, 156.4248
767.4480, 159.9268
768.5950, 73.42676
769.7410, 202.9287
770.8870, 61.83301
772.0330, 79.44434
773.1780, 29.98242
774.3240, 136.6855
775.4690, 185.2852
776.6140, 21.78613
777.7590, 61.73438
778.9040, 54.94238
780.0490, 82.49512
781.1940, 45.95996
782.3380, 53.91406
783.4820, 121.3262
784.6260, 7.642578
785.7700, 166.1377
786.9140, 165.0518
788.0580, 36.31836
789.2010, 112.1807
790.3450, 129.9766
791.4880, 40.41016
792.6310, 90.33691
793.7730, 51.89941
794.9160, 134.0156
796.0590, 37.49609
797.2010, 31.78125
798.3430, 62.62305
799.4850, 36.62109
800.6270, 77.03711
801.7690, 85.87793
802.9100, 80.29004
804.0520, 112.9404
805.1930, 50.44336
806.3340, 140.9639
807.4750, 106.4609
808.6160, 88.86426
809.7560, 280.6172
810.8970, 156.1592
812.0370, 160.6729
813.1770, 51.06250
814.3170, 229.4961
815.4570, 292.8838
816.5960, 241.2676
817.7360, 171.7119
818.8750, 152.1094
820.0140, 202.5078
821.1530, 282.9072
822.2920, 236.6260
823.4310, 145.1514
824.5690, 283.5449
825.7070, 510.9404
826.8460, 403.3369
827.9840, 562.1553
829.1220, 1094.557
830.2590, 1436.944
831.3970, 1621.707
832.5340, 1793.178
833.6710, 1984.826
834.8080, 1948.199
835.9450, 2007.726
837.0820, 1608.574
838.2190, 1401.472
839.3550, 1104.805
840.4910, 674.1172
841.6270, 540.4629
842.7630, 360.0713
843.8990, 313.5488
845.0350, 272.9023
846.1700, 59.42871
847.3060, 107.5098
848.4410, 129.9395
849.5760, 212.0127
850.7100, 295.3594
851.8450, 4.357422
852.9800, 19.62500
854.1140, 15.80859
855.2480, 134.1367
856.3820, 23.45996
857.5160, 83.76172
858.6500, 69.07227
859.7830, 48.37988
860.9170, 99.68164
862.0500, 220.9795
863.1830, 37.56836
864.3160, 22.86328
865.4480, 132.1504
866.5810, 53.43359
867.7130, 1.288086
868.8460, 141.9766
869.9780, 96.27051
871.1100, 16.20898
872.2410, 5.053711
873.3730, 53.61719
874.5050, 3.996094
875.6360, 6.675781
876.7670, 23.41309
877.8980, 99.84668
879.0290, 57.10352
880.1590, 71.82715
881.2900, 257.0898
882.4200, 152.3477
883.5500, 193.6006
884.6800, 72.91699
885.8100, 31.36426
886.9400, 8.141602
888.0690, 10.58887
889.1990, 1.621094
890.3280, 90.87402
891.4570, 23.14355
892.5860, 85.42578
893.7140, 40.69922
894.8430, 47.52832
895.9710, 48.73828
897.1000, 47.52441
898.2280, 69.77832
899.3560, 56.07031
900.4830, 30.64551
901.6110, 16.61621
902.7380, 77.87305
903.8660, 128.1240
904.9930, 117.3652
906.1200, 5.600586
907.2460, 47.82324
908.3730, 65.04395
909.5000, 29.09863
910.6260, 47.76172
911.7520, 74.49219
912.8780, 52.61816
914.0040, 9.211914
915.1290, 40.94238
916.2550, 149.1104
917.3800, 10.76074
918.5050, 90.39258
919.6300, 11.44922
920.7550, 173.1230
921.8800, 204.2646
923.0040, 117.4004
924.1290, 56.57031
925.2530, 15.52637
926.3770, 109.6094
927.5010, 138.5967
928.6250, 219.6660
929.7480, 166.7100
930.8720, 49.76953
931.9950, 28.28516
933.1180, 10.57910
934.2410, 39.31348
935.3640, 153.4873
936.4860, 20.50879
937.6090, 161.4727
938.7310, 183.4658
939.8530, 22.45117
940.9750, 59.37793
942.0970, 64.91797
943.2180, 122.8652
944.3400, 21.80469
945.4610, 53.72949
946.5820, 59.66406
947.7030, 157.5967
948.8240, 78.48730
949.9450, 182.4834
951.0650, 109.7969
952.1860, 77.72168
953.3060, 155.9473
954.4260, 153.8535
955.5460, 110.7480
956.6650, 30.63184
957.7850, 63.50098
958.9040, 99.35645
960.0230, 142.7168
961.1420, 165.5488
962.2610, 20.38281
963.3800, 93.18652
964.4990, 163.9766
965.6170, 26.75586
966.7350, 75.52051
967.8530, 40.33789
968.9710, 285.0732
970.0890, 61.80176
971.2070, 13.48535
972.3240, 228.2109
973.4410, 210.8994
974.5580, 126.5850
975.6750, 143.3057
976.7920, 45.96875
977.9090, 72.61719
979.0250, 189.2520
980.1410, 20.05566
981.2580, 100.7686
982.3740, 83.37402
983.4890, 168.9639
984.6050, 154.5469
985.7200, 172.1055
986.8360, 186.2588
987.9510, 174.5967
989.0660, 170.9053
990.1810, 151.4678
991.2950, 124.8301
992.4100, 239.3750
993.5240, 227.9043
994.6390, 115.4629
995.7530, 199.9639
996.8660, 46.18652
997.9800, 285.5430
999.0940, 180.7900
1000.207, 215.3018
1001.320, 212.7480
1002.433, 200.7246
1003.546, 100.1172
1004.659, 51.49512
1005.772, 123.2158
1006.884, 49.78516
1007.996, 314.6045
1009.108, 205.0889
1010.220, 261.8262
1011.332, 152.7314
1012.444, 201.3564
1013.555, 220.7002
1014.666, 170.9346
1015.777, 193.1514
1016.888, 214.3506
1017.999, 103.6230
1019.110, 70.87891
1020.220, 195.1787
1021.331, 110.4229
1022.441, 170.2393
1023.551, 346.8145
1024.661, 441.0137
1025.770, 410.1035
1026.880, 461.2588
1027.989, 610.1553
1029.098, 358.6670
1030.207, 639.9062
1031.316, 529.7695
1032.425, 547.3008
1033.533, 504.1582
1034.642, 520.4629
1035.750, 526.0537
1036.858, 558.9209
1037.966, 696.7695
1039.073, 892.5977
1040.181, 1023.002
1041.288, 1431.913
1042.396, 2021.636
1043.503, 3081.170
1044.610, 5949.439
1045.716, 12926.61
1046.823, 27366.04
1047.929, 37562.97
1049.036, 39644.50
1050.142, 48702.56
1051.248, 51492.35
1052.353, 51481.24
1053.459, 45268.94
1054.564, 33860.49
1055.670, 20845.03
1056.775, 10075.03
1057.880, 4570.976
1058.985, 2179.083
1060.089, 1439.866
1061.194, 892.2920
1062.298, 901.6963
1063.402, 644.7314
1064.506, 440.9609
1065.610, 480.8672
1066.713, 435.1787
1067.817, 438.9023
1068.920, 424.1602
1070.023, 372.9424
1071.126, 373.4932
1072.229, 238.7090
1073.332, 237.5664
1074.435, 71.62500
1075.537, 291.6777
1076.639, 230.8008
1077.741, 257.5498
1078.843, 151.1426
1079.945, 178.3779
1081.046, 310.3086
1082.148, 145.2783
1083.249, 98.90137
1084.350, 423.1777
1085.451, 20.79492
1086.551, 178.6943
1087.652, 194.6377
1088.752, 373.4932
1089.853, 196.0020
1090.953, 244.6846
1092.053, 83.47363
1093.152, 326.2354
1094.252, 155.9746
1095.351, 222.2666
1096.451, 263.9482
1097.550, 367.6201
1098.649, 197.9580
1099.748, 138.4951
1100.846, 347.8291
1101.945, 213.5645
1103.043, 302.9736
1104.141, 270.6367
1105.239, 208.1543
1106.337, 160.9160
1107.434, 140.3896
1108.532, 192.4658
1109.629, 235.6494
1110.726, 164.9404
1111.823, 112.4209
1112.920, 120.3135
1114.017, 378.6494
1115.113, 325.8887
1116.210, 419.1836
1117.306, 263.4570
1118.402, 340.7100
1119.498, 289.9424
1120.593, 256.3984
1121.689, 371.1650
1122.784, 387.7295
1123.879, 239.8770
1124.974, 235.0029
1126.069, 118.1064
1127.164, 176.1885
1128.259, 66.24902
1129.353, 190.9902
1130.447, 193.0010
1131.541, 118.9922
1132.635, 117.9600
1133.729, 169.9062
1134.822, 240.8340
1135.916, 149.7109
1137.009, 1.336914
1138.102, 33.17676
1139.195, 65.67969
1140.288, 11.46094
1141.380, 129.2002
1142.473, 5.920898
1143.565, 70.60156
1144.657, 0.7402340
1145.749, 115.8691
1146.841, 132.4580
1147.932, 141.0283
1149.024, 38.57715
1150.115, 87.22168
1151.206, 22.67188
1152.297, 56.77148
1153.388, 58.13770
1154.479, 65.46094
1155.569, 6.136719
1156.659, 24.85840
1157.750, 71.36328
1158.839, 122.5674
1159.929, 80.24707
1161.019, 100.8555
1162.108, 115.9521
1163.198, 129.9678
1164.287, 97.00293
1165.376, 64.95703
1166.465, 24.90137
1167.553, 198.8193
1168.642, 162.7207
1169.730, 147.6045
1170.818, 195.9824
1171.906, 14.32617
1172.994, 137.1523
1174.082, 129.9619
1175.170, 12.24316
1176.257, 124.5127
1177.344, 48.72656
1178.431, 137.9766
1179.518, 53.33203
1180.605, 12.69824
1181.691, 143.8975
1182.778, 12.51660
1183.864, 71.03418
1184.950, 116.5742
1186.036, 40.10254
1187.122, 3.383789
1188.207, 50.10254
1189.292, 141.5908
1190.378, 14.06836
1191.463, 49.52930
1192.548, 53.97852
1193.632, 11.58398
1194.717, 21.82520
1195.801, 6.453125
1196.886, 74.38770
1197.970, 33.94434
1199.054, 21.72266
1200.137, 27.58008
1201.221, 76.12109
1202.305, 27.12012
1203.388, 183.3506
1204.471, 116.5742
1205.554, 108.2080
1206.637, 63.41309
1207.719, 21.60840
1208.802, 7.204102
1209.884, 101.0508
1210.966, 47.94238
1212.048, 60.12988
1213.130, 77.87695
1214.212, 3.241211
1215.293, 13.04785
1216.374, 71.43945
1217.456, 1.419922
1218.536, 22.39062
1219.617, 54.35547
1220.698, 99.31445
1221.778, 103.5391
1222.859, 98.63867
1223.939, 114.6406
1225.019, 59.56445
1226.099, 45.49805
1227.178, 34.42578
1228.258, 1.650391
1229.337, 85.26758
1230.417, 92.11523
1231.496, 32.97070
1232.574, 54.92773
1233.653, 44.17969
1234.732, 165.7031
1235.810, 59.41797
1236.888, 95.43750
