##NAMES=Cerussite
##RRUFFID=R050011
##IDEAL CHEMISTRY=Pb^2+^CO_3_
##LOCALITY=Daoping Lead and Zinc mine, Gongcheng, Guangxi, China
##OWNER=RRUFF
##SOURCE=Eugene Schlepp
##DESCRIPTION=Colorless hexagonal bipyramidal crystals
##STATUS=The identification of this mineral has been confirmed by X-ray diffraction and chemical analysis
##URL=rruff.info/R050011
##MEASURED CHEMISTRY=Pb_1.00_CO_3_ ; CO_2_ not measured but estimated by difference and stoichiometry
##PIN_ID=L00377
##ORIENTATION=Laser parallel to b* (0 1 0). Fiducial mark perpendicular to laser is parallel to -c [0 0 -1]
46.637, 0.000
48.043, 39.240
49.450, 67.795
50.856, 92.996
52.261, 153.089
53.667, 163.973
55.072, 193.580
56.477, 248.638
57.882, 284.419
59.287, 364.858
60.691, 421.860
62.095, 448.660
63.499, 527.962
64.903, 518.811
66.306, 493.010
67.709, 385.833
69.112, 335.955
70.515, 280.466
71.917, 225.343
73.319, 157.564
74.721, 103.106
76.123, 59.949
77.525, 31.076
78.926, 5.529
80.327, 41.878
81.728, 29.983
83.128, 26.855
84.529, 29.502
85.929, 38.933
87.329, 23.844
88.728, 55.824
90.128, 180.999
91.527, 262.365
92.926, 397.912
94.324, 565.631
95.723, 815.510
97.121, 1101.538
98.519, 1487.698
99.917, 1885.978
101.314, 2278.376
102.712, 2500.889
104.109, 2526.515
105.505, 2521.252
106.902, 2394.099
108.298, 2380.053
109.694, 2288.114
111.090, 2278.278
112.486, 2274.547
113.881, 2411.917
115.277, 2428.387
116.672, 2598.957
118.066, 2832.626
119.461, 3144.391
120.855, 3478.253
122.249, 3872.209
123.643, 4454.259
125.036, 4987.402
126.430, 5528.637
127.823, 5957.963
129.216, 6394.378
130.608, 6574.889
132.001, 6582.504
133.393, 6449.218
134.785, 6222.017
136.176, 5909.889
137.568, 5487.822
138.959, 5199.808
140.350, 4911.826
141.741, 4681.869
143.131, 4619.942
144.521, 4451.037
145.911, 4404.136
147.301, 4235.189
148.691, 4198.167
150.080, 4025.091
151.469, 3866.030
152.858, 3707.036
154.247, 3567.097
155.635, 3271.212
157.024, 3148.388
158.411, 2925.617
159.799, 2782.900
161.187, 2754.239
162.574, 2584.637
163.961, 2561.090
165.348, 2432.598
166.734, 2497.159
168.121, 2473.780
169.507, 2520.454
170.893, 2531.183
172.278, 2592.965
173.664, 2579.801
175.049, 2582.690
176.434, 2508.633
177.819, 2422.629
179.203, 2332.679
180.587, 2222.785
181.971, 2135.945
183.355, 2028.158
184.739, 1934.422
186.122, 1819.739
187.505, 1742.108
188.888, 1692.528
190.271, 1562.000
191.653, 1539.523
193.035, 1488.096
194.417, 1342.720
195.799, 1412.394
197.180, 1414.118
198.562, 1373.892
199.943, 1301.714
201.324, 1269.585
202.704, 1314.505
204.084, 1254.474
205.465, 1206.489
206.844, 1115.553
208.224, 1196.683
209.603, 1126.864
210.983, 1161.106
212.362, 1157.397
213.740, 1118.525
215.119, 1096.674
216.497, 1077.764
217.875, 1070.763
219.253, 1042.645
220.631, 1040.421
222.008, 1003.061
223.385, 1056.535
224.762, 1049.871
226.139, 993.109
227.515, 1039.239
228.891, 1039.231
230.267, 1042.890
231.643, 980.282
233.018, 990.454
234.394, 953.655
235.769, 1003.924
237.144, 961.257
238.518, 1010.629
239.893, 1013.791
241.267, 947.699
242.641, 1014.271
244.014, 935.483
245.388, 990.364
246.761, 910.232
248.134, 869.106
249.507, 866.429
250.879, 821.840
252.252, 774.897
253.624, 721.257
254.996, 698.377
256.367, 676.195
257.739, 666.854
259.110, 638.050
260.481, 602.273
261.852, 575.548
263.222, 556.497
264.592, 545.799
265.962, 525.206
267.332, 515.653
268.702, 500.141
270.071, 481.666
271.440, 474.297
272.809, 485.953
274.178, 456.675
275.546, 450.628
276.915, 493.463
278.283, 444.222
279.650, 392.058
281.018, 384.899
282.385, 453.787
283.752, 382.710
285.119, 391.668
286.486, 378.964
287.852, 359.998
289.218, 373.065
290.584, 339.165
291.950, 334.300
293.316, 320.467
294.681, 376.665
296.046, 311.895
297.411, 309.160
298.775, 344.456
300.140, 270.783
301.504, 293.139
302.868, 229.535
304.231, 279.961
305.595, 246.417
306.958, 245.902
308.321, 216.417
309.684, 218.291
311.047, 267.792
312.409, 238.597
313.771, 228.246
315.133, 270.926
316.495, 255.639
317.856, 251.381
319.217, 227.153
320.578, 188.955
321.939, 198.803
323.299, 200.664
324.660, 219.557
326.020, 212.479
327.380, 200.429
328.739, 196.408
330.099, 203.416
331.458, 155.452
332.817, 185.516
334.176, 202.610
335.534, 166.731
336.892, 167.878
338.251, 187.054
339.608, 170.256
340.966, 153.485
342.323, 153.741
343.681, 170.023
345.037, 149.331
346.394, 121.664
347.751, 182.022
349.107, 117.405
350.463, 136.813
351.819, 144.246
353.174, 121.702
354.530, 97.183
355.885, 146.687
357.240, 53.216
358.594, 102.768
359.949, 81.343
361.303, 130.941
362.657, 74.562
364.011, 101.205
365.365, 89.068
366.718, 64.756
368.071, 115.831
369.424, 114.562
370.777, 66.474
372.129, 117.162
373.481, 64.958
374.833, 93.774
376.185, 72.610
377.537, 111.465
378.888, 51.338
380.239, 78.229
381.590, 92.621
382.941, 90.748
384.291, 74.695
385.642, 81.977
386.992, 33.768
388.341, 69.969
389.691, 50.998
391.040, 37.225
392.389, 99.300
393.738, 40.398
395.087, 72.521
396.435, 48.869
397.784, 33.152
399.132, 63.014
400.479, 2.995
401.827, 47.521
403.174, 59.508
404.521, 59.810
405.868, 55.148
407.215, 14.516
408.561, 44.918
409.908, 2.586
411.254, 4.073
412.599, 1.270
413.945, 20.963
415.290, 10.437
416.636, 28.805
417.980, 40.155
419.325, 31.715
420.670, 1.227
422.014, 11.480
423.358, 4.143
424.702, 36.890
426.045, 32.635
427.389, 9.444
428.732, 42.245
430.075, 2.064
431.417, 48.904
432.760, 6.238
434.102, 5.215
435.444, 7.321
436.786, 18.410
438.127, 9.912
439.469, 31.173
440.810, 2.874
442.151, 48.544
443.492, 40.207
444.832, 54.339
446.172, 52.366
447.512, 18.018
448.852, 46.372
450.192, 15.467
451.531, 64.578
452.870, 20.049
454.209, 29.213
455.548, 24.380
456.887, 14.597
458.225, 8.698
459.563, 18.910
460.901, 9.135
462.238, 14.375
463.576, 6.892
464.913, 4.160
466.250, 55.491
467.587, 60.787
468.923, 66.096
470.259, 12.581
471.596, 5.823
472.931, 9.831
474.267, 34.166
475.603, 74.634
476.938, 28.409
478.273, 81.804
479.608, 41.212
480.942, 68.631
482.276, 0.061
483.611, 148.502
484.944, 53.929
486.278, 80.406
487.612, 79.976
488.945, 6.475
490.278, 93.985
491.611, 78.803
492.943, 6.333
494.276, 49.403
495.608, 64.953
496.940, 13.512
498.271, 25.285
499.603, 37.863
500.934, 93.603
502.265, 6.358
503.596, 46.963
504.927, 15.577
506.257, 78.199
507.587, 89.830
508.917, 32.469
510.247, 31.117
511.577, 49.772
512.906, 58.435
514.235, 10.106
515.564, 7.785
516.892, 26.471
518.221, 16.164
519.549, 47.864
520.877, 76.572
522.205, 7.286
523.533, 54.007
524.860, 46.266
526.187, 23.449
527.514, 5.830
528.841, 18.894
530.167, 23.377
531.493, 17.652
532.820, 15.069
534.145, 26.797
535.471, 42.057
536.796, 53.269
538.122, 45.013
539.447, 48.762
540.771, 5.484
542.096, 39.730
543.420, 22.018
544.744, 37.229
546.068, 26.500
547.392, 3.234
548.715, 13.971
550.039, 36.289
551.362, 12.436
552.684, 45.307
554.007, 15.039
555.329, 16.047
556.652, 13.863
557.973, 4.598
559.295, 43.831
560.617, 4.840
561.938, 4.463
563.259, 36.229
564.580, 19.561
565.901, 28.262
567.221, 44.962
568.541, 8.663
569.861, 83.364
571.181, 0.933
572.501, 9.242
573.820, 37.446
575.139, 24.016
576.458, 28.212
577.777, 2.157
579.095, 69.532
580.414, 64.259
581.732, 22.073
583.049, 42.577
584.367, 1.228
585.685, 9.703
587.002, 34.930
588.319, 42.562
589.636, 42.419
590.952, 27.050
592.268, 17.634
593.585, 59.209
594.900, 32.754
596.216, 35.105
597.532, 14.383
598.847, 18.745
600.162, 10.818
601.477, 29.592
602.792, 21.974
604.106, 46.536
605.420, 9.097
606.734, 5.652
608.048, 35.229
609.361, 62.771
610.675, 19.309
611.988, 36.176
613.301, 61.707
614.614, 44.888
615.926, 6.759
617.238, 51.272
618.550, 51.782
619.862, 57.290
621.174, 15.207
622.485, 90.274
623.797, 37.752
625.108, 75.333
626.418, 112.804
627.729, 118.270
629.039, 10.516
630.349, 86.926
631.659, 2.830
632.969, 38.208
634.279, 25.622
635.588, 67.028
636.897, 97.430
638.206, 73.827
639.515, 61.221
640.823, 124.592
642.131, 12.139
643.439, 106.674
644.747, 45.041
646.055, 87.401
647.362, 89.757
648.669, 35.109
649.976, 100.453
651.283, 27.795
652.589, 72.127
653.896, 69.454
655.202, 40.775
656.508, 67.091
657.814, 44.400
659.119, 44.327
660.424, 66.999
661.729, 59.290
663.034, 67.589
664.339, 121.883
665.643, 112.172
666.947, 150.455
668.251, 90.732
669.555, 105.003
670.859, 152.269
672.162, 120.511
673.465, 185.783
674.768, 130.031
676.071, 177.273
677.373, 209.509
678.676, 249.740
679.978, 450.963
681.280, 521.182
682.581, 561.197
683.883, 424.403
685.184, 314.237
686.485, 225.431
687.786, 168.461
689.087, 120.729
690.387, 120.905
691.687, 101.074
692.987, 246.238
694.287, 210.396
695.586, 255.546
696.886, 85.691
698.185, 198.347
699.484, 59.281
700.783, 59.408
702.081, 106.410
703.379, 107.524
704.677, 72.441
705.975, 102.544
707.273, 97.466
708.570, 44.556
709.868, 122.640
711.165, 42.718
712.462, 82.591
713.758, 97.549
715.055, 48.946
716.351, 139.234
717.647, 81.018
718.943, 90.349
720.238, 2.614
721.533, 52.403
722.829, 121.416
724.124, 112.421
725.418, 143.201
726.713, 86.197
728.007, 58.513
729.301, 103.367
730.595, 8.653
731.889, 126.305
733.182, 113.260
734.476, 1.636
735.769, 40.576
737.061, 61.510
738.354, 80.503
739.647, 62.427
740.939, 68.831
742.231, 68.450
743.523, 88.362
744.814, 27.270
746.106, 78.170
747.397, 42.066
748.688, 83.811
749.978, 60.697
751.269, 88.580
752.559, 89.901
753.849, 41.062
755.139, 50.938
756.429, 95.362
757.719, 55.554
759.008, 97.290
760.297, 82.142
761.586, 143.416
762.875, 70.072
764.163, 75.655
765.451, 86.446
766.739, 22.112
768.027, 91.638
769.315, 86.396
770.602, 70.149
771.890, 109.959
773.177, 68.704
774.463, 57.445
775.750, 44.183
777.036, 65.653
778.323, 101.382
779.609, 23.057
780.894, 105.777
782.180, 72.493
783.465, 113.206
784.750, 60.888
786.035, 63.594
787.320, 0.656
788.605, 66.252
789.889, 146.552
791.173, 65.240
792.457, 85.923
793.741, 76.603
795.024, 106.279
796.307, 13.953
797.591, 41.352
798.873, 37.286
800.156, 38.840
801.439, 116.472
802.721, 37.100
804.003, 100.428
805.285, 41.767
806.566, 66.856
807.848, 98.472
809.129, 58.085
810.410, 109.603
811.691, 31.211
812.971, 39.665
814.252, 160.109
815.532, 137.709
816.812, 168.747
818.092, 72.342
819.371, 111.935
820.651, 161.524
821.930, 168.111
823.209, 254.695
824.488, 189.276
825.766, 240.856
827.045, 160.434
828.323, 249.010
829.601, 259.584
830.878, 307.157
832.156, 560.728
833.433, 955.295
834.710, 1599.860
835.987, 2617.425
837.264, 3283.996
838.540, 3169.577
839.817, 2211.157
841.093, 1261.736
842.369, 809.319
843.644, 607.904
844.920, 339.487
846.195, 269.069
847.470, 195.648
848.745, 64.233
850.020, 175.817
851.294, 60.398
852.568, 102.981
853.842, 35.562
855.116, 34.144
856.390, 97.746
857.663, 110.415
858.936, 124.026
860.209, 52.637
861.482, 63.255
862.755, 123.764
864.027, 85.413
865.299, 121.894
866.571, 60.556
867.843, 114.222
869.115, 121.850
870.386, 71.538
871.657, 60.225
872.928, 21.915
874.199, 102.967
875.470, 66.650
876.740, 35.337
878.010, 161.022
879.280, 31.709
880.550, 89.396
881.820, 94.087
883.089, 58.794
884.358, 59.544
885.627, 57.273
886.896, 73.001
888.164, 67.502
889.433, 112.154
890.701, 72.881
891.969, 48.616
893.236, 2.652
894.504, 73.081
895.771, 57.823
897.038, 31.564
898.305, 47.080
899.572, 34.822
900.838, 20.543
902.105, 47.284
903.371, 31.024
904.637, 25.237
905.902, 33.488
907.168, 119.195
908.433, 82.932
909.698, 42.673
910.963, 86.424
912.228, 44.175
913.492, 103.926
914.757, 28.678
916.021, 19.906
917.285, 116.847
918.548, 151.600
919.812, 32.019
921.075, 140.771
922.338, 18.523
923.601, 77.274
924.864, 88.028
926.126, 15.782
927.388, 156.534
928.650, 63.285
929.912, 116.044
931.174, 116.802
932.435, 70.451
933.697, 66.211
934.958, 77.971
936.218, 3.729
937.479, 126.508
938.739, 119.285
940.000, 49.449
941.260, 37.232
942.520, 75.017
943.779, 126.802
945.039, 171.584
946.298, 77.369
947.557, 197.153
948.816, 42.773
950.074, 151.403
951.333, 87.195
952.591, 17.986
953.849, 91.776
955.107, 96.565
956.365, 19.638
957.622, 77.151
958.879, 50.941
960.136, 131.729
961.393, 3.403
962.650, 137.571
963.906, 18.357
965.162, 93.297
966.418, 160.251
967.674, 62.954
968.930, 155.809
970.185, 93.593
971.441, 112.481
972.696, 74.283
973.950, 43.062
975.205, 59.839
976.459, 42.863
977.714, 82.638
978.968, 70.897
980.222, 152.669
981.475, 31.658
982.729, 136.611
983.982, 109.383
985.235, 156.151
986.488, 100.141
987.740, 107.905
988.993, 76.479
990.245, 105.246
991.497, 140.335
992.749, 169.289
994.000, 154.698
995.252, 182.918
996.503, 116.760
997.754, 131.555
999.005, 126.283
1000.256, 92.110
1001.506, 162.902
1002.756, 60.728
1004.006, 173.618
1005.256, 144.878
1006.506, 86.387
1007.755, 18.808
1009.005, 138.826
1010.254, 64.804
1011.502, 141.614
1012.751, 114.539
1014.000, 136.312
1015.248, 201.538
1016.496, 204.378
1017.744, 99.353
1018.991, 110.012
1020.239, 126.871
1021.486, 253.627
1022.733, 130.650
1023.980, 197.395
1025.227, 118.255
1026.473, 125.219
1027.719, 256.063
1028.965, 287.113
1030.211, 384.286
1031.457, 498.434
1032.702, 335.129
1033.948, 236.960
1035.193, 257.230
1036.438, 298.931
1037.682, 228.642
1038.927, 367.409
1040.171, 367.168
1041.415, 429.847
1042.659, 449.519
1043.903, 624.025
1045.146, 745.720
1046.390, 913.375
1047.633, 1374.919
1048.876, 2184.586
1050.118, 4160.355
1051.361, 11163.029
1052.603, 33335.801
1053.845, 48538.523
1055.087, 35959.676
1056.329, 16432.270
1057.571, 8144.854
1058.812, 4277.833
1060.053, 2344.538
1061.294, 1335.235
1062.535, 845.071
1063.775, 696.613
1065.016, 463.501
1066.256, 361.279
1067.496, 374.012
1068.736, 357.550
1069.975, 351.328
1071.214, 278.853
1072.454, 287.506
1073.693, 316.025
1074.931, 198.701
1076.170, 241.191
1077.408, 196.673
1078.647, 158.187
1079.885, 209.650
1081.122, 177.106
1082.360, 166.658
1083.597, 214.096
1084.835, 113.669
1086.072, 248.859
1087.308, 164.271
1088.545, 222.981
1089.781, 159.376
1091.018, 211.174
1092.254, 210.732
1093.490, 158.100
1094.725, 157.136
1095.961, 187.576
1097.196, 161.069
1098.431, 137.182
1099.666, 182.515
1100.900, 89.007
1102.135, 94.319
1103.369, 234.808
1104.603, 192.903
1105.837, 209.607
1107.071, 138.879
1108.304, 101.139
1109.538, 60.513
1110.771, 35.578
1112.004, 97.526
1113.236, 43.741
1114.469, 39.945
1115.701, 123.742
1116.933, 89.484
1118.165, 155.392
1119.397, 60.548
1120.629, 80.693
1121.860, 97.905
1123.091, 88.026
1124.322, 31.160
1125.553, 138.725
1126.783, 9.810
1128.014, 113.126
1129.244, 35.182
1130.474, 44.035
1131.704, 121.635
1132.933, 91.651
1134.163, 35.750
1135.392, 160.879
1136.621, 29.937
1137.850, 140.504
1139.079, 27.683
1140.307, 53.206
1141.535, 180.270
1142.763, 90.425
1143.991, 88.492
1145.219, 99.460
1146.446, 10.693
1147.674, 92.601
1148.901, 215.404
1150.128, 91.193
1151.354, 79.099
1152.581, 22.933
1153.807, 13.256
1155.033, 19.979
1156.259, 46.651
1157.485, 54.325
1158.710, 94.475
1159.936, 107.849
1161.161, 172.909
1162.386, 15.252
1163.611, 89.261
1164.835, 55.783
1166.060, 6.733
1167.284, 80.721
1168.508, 123.728
1169.732, 44.153
1170.955, 104.562
1172.179, 76.958
1173.402, 50.340
1174.625, 77.706
1175.848, 37.057
1177.070, 24.392
1178.293, 25.709
1179.515, 24.991
1180.737, 72.269
1181.959, 34.485
1183.181, 168.717
1184.402, 96.905
1185.624, 83.079
1186.845, 83.238
1188.066, 126.418
1189.286, 101.551
1190.507, 91.670
1191.727, 4.777
1192.947, 97.860
1194.167, 6.931
1195.387, 90.979
1196.607, 64.015
1197.826, 85.036
1199.045, 58.044
1200.264, 70.038
1201.483, 113.018
1202.702, 98.992
1203.920, 95.953
1205.138, 19.901
1206.356, 61.834
1207.574, 60.753
1208.792, 31.659
1210.009, 96.550
1211.227, 22.430
1212.444, 0.705
1213.661, 46.141
1214.877, 89.975
1216.094, 33.797
1217.310, 112.606
1218.526, 57.402
1219.742, 87.189
1220.958, 46.964
1222.173, 130.728
1223.389, 99.481
1224.604, 78.225
1225.819, 100.958
1227.034, 94.683
1228.248, 2.601
1229.463, 139.098
1230.677, 50.800
1231.891, 30.506
1233.105, 97.157
1234.318, 18.812
1235.532, 236.456
1236.745, 8.090
1237.958, 38.709
1239.171, 135.312
1240.384, 1.904
1241.596, 58.473
1242.809, 43.029
1244.021, 16.435
1245.233, 125.080
1246.444, 37.585
1247.656, 199.074
1248.867, 32.552
1250.079, 17.995
1251.290, 42.410
1252.500, 102.808
1253.711, 126.194
1254.921, 44.565
1256.132, 1.844
1257.342, 27.995
1258.552, 175.318
1259.761, 75.477
1260.971, 33.414
1262.180, 82.812
1263.389, 83.973
1264.598, 90.206
1265.807, 73.259
1267.015, 48.373
1268.223, 92.491
1269.432, 59.598
1270.640, 1.559
1271.847, 102.513
1273.055, 6.071
1274.262, 121.104
1275.470, 9.096
1276.677, 5.274
1277.883, 116.716
1279.090, 35.696
1280.296, 24.442
1281.503, 7.399
1282.709, 23.465
1283.915, 35.835
1285.120, 41.966
1286.326, 51.221
1287.531, 37.355
1288.736, 2.456
1289.941, 22.248
1291.146, 76.075
1292.350, 27.043
1293.555, 80.728
1294.759, 79.521
1295.963, 38.731
1297.167, 23.938
1298.370, 13.773
1299.574, 57.255
1300.777, 36.358
1301.980, 37.722
1303.183, 12.624
1304.386, 25.054
1305.588, 31.396
1306.790, 49.704
1307.993, 119.521
1309.195, 14.120
1310.396, 75.572
1311.598, 76.326
1312.799, 20.131
1314.000, 74.502
1315.201, 60.856
1316.402, 76.477
1317.603, 73.978
1318.803, 79.271
1320.003, 83.110
1321.203, 84.557
1322.403, 85.078
1323.603, 92.431
1324.802, 90.052
1326.002, 98.516
1327.201, 105.541
1328.400, 105.131
1329.599, 96.702
1330.797, 123.220
1331.995, 3.261
1333.194, 175.334
1334.392, 58.931
1335.589, 129.497
1336.787, 183.064
1337.985, 69.668
1339.182, 135.380
1340.379, 161.968
1341.576, 69.452
1342.772, 208.032
1343.969, 128.510
1345.165, 124.048
1346.361, 253.707
1347.557, 239.379
1348.753, 282.062
1349.949, 322.355
1351.144, 271.933
1352.339, 366.794
1353.534, 412.988
1354.729, 527.757
1355.924, 573.194
1357.118, 706.846
1358.312, 664.495
1359.506, 896.357
1360.700, 846.013
1361.894, 1005.946
1363.088, 1085.779
1364.281, 1165.779
1365.474, 1295.658
1366.667, 1355.762
1367.860, 1455.921
1369.052, 1766.099
1370.245, 1826.384
1371.437, 2136.744
1372.629, 2546.084
1373.821, 2589.391
1375.013, 2929.897
1376.204, 3037.864
1377.395, 3038.356
1378.586, 2968.215
1379.777, 2668.118
1380.968, 2507.386
1382.159, 2276.546
1383.349, 1856.127
1384.539, 1564.104
1385.729, 1533.723
1386.919, 1051.412
1388.109, 961.021
1389.298, 820.635
1390.487, 789.660
1391.676, 729.386
1392.865, 536.233
1394.054, 429.539
1395.242, 439.073
1396.431, 296.658
1397.619, 321.731
1398.807, 347.046
1399.995, 216.032
1401.182, 354.497
1402.370, 273.659
1403.557, 260.750
1404.744, 251.293
1405.931, 222.748
1407.118, 159.054
1408.304, 334.659
1409.490, 231.398
1410.676, 199.919
1411.862, 359.335
1413.048, 167.123
1414.234, 385.970
1415.419, 322.421
1416.604, 201.880
1417.789, 420.620
1418.974, 240.127
1420.159, 249.639
1421.343, 319.154
1422.528, 348.679
1423.712, 288.231
1424.896, 407.831
1426.079, 127.458
1427.263, 267.038
1428.446, 286.674
1429.629, 236.323
1430.812, 395.991
1431.995, 365.671
1433.178, 255.357
1434.360, 405.052
1435.543, 174.750
1436.725, 254.457
1437.907, 404.172
1439.088, 283.892
1440.270, 373.634
1441.451, 223.379
1442.632, 293.123
1443.813, 412.861
1444.994, 282.592
1446.175, 352.308
1447.355, 442.012
1448.535, 261.650
1449.715, 331.305
1450.895, 460.942
1452.075, 310.591
1453.255, 620.266
1454.434, 569.980
1455.613, 459.723
1456.792, 609.485
1457.971, 709.373
1459.149, 679.337
1460.328, 859.335
1461.506, 689.396
1462.684, 879.540
1463.862, 989.949
1465.040, 830.463
1466.217, 1171.121
1467.395, 1161.859
1468.572, 1012.747
1469.749, 1093.752
1470.925, 1164.841
1472.102, 1196.010
1473.278, 1277.263
1474.455, 1261.223
1475.631, 1290.037
1476.807, 1231.567
1477.982, 1193.201
1479.158, 1184.947
1480.333, 1266.813
1481.508, 1118.810
1482.683, 1240.946
1483.858, 1113.236
1485.033, 1005.700
1486.207, 1058.357
1487.381, 871.229
1488.555, 874.330
1489.729, 977.685
1490.903, 551.304
1492.076, 555.211
1493.250, 519.412
1494.423, 413.924
1495.596, 375.441
1496.769, 355.859
1497.941, 239.520
1499.114, 305.515
1500.286, 291.979
1501.458, 188.962
1502.630, 436.529
1503.802, 234.747
1504.973, 123.689
1506.145, 343.441
1507.316, 174.104
1508.487, 195.804
1509.657, 258.699
1510.828, 172.994
1511.999, 228.939
1513.169, 276.854
1514.339, 22.840
