##NAMES=Cerussite
##RRUFFID=R040069
##IDEAL CHEMISTRY=Pb^2+^CO_3_
##LOCALITY=Broken Hill, New South Wales, Australia
##OWNER=RRUFF
##SOURCE=University of Arizona Mineral Museum
##DESCRIPTION=Reticulated composite of colorless tabular crystals
##STATUS=The identification of this mineral has been confirmed by X-ray diffraction and chemical analysis
##URL=rruff.info/R040069
##MEASURED CHEMISTRY=Pb_1.04_C_0.98_O_3_
##PIN_ID=M00419
##ORIENTATION=Laser parallel to -b* (0 -1 0). Fiducial mark perpendicular to laser is parallel to c [0 0 1]
50.930, 0.000
52.334, 13.171
53.738, 26.580
55.142, 43.018
56.546, 71.753
57.949, 55.107
59.352, 56.834
60.755, 41.699
62.158, 19.492
63.560, 7.943
64.962, 4.274
66.364, 35.050
67.766, 114.310
69.168, 221.992
70.569, 414.049
71.970, 547.438
73.371, 667.122
74.771, 672.072
76.172, 702.260
77.572, 673.666
78.972, 657.270
80.371, 684.055
81.771, 678.006
83.170, 730.111
84.569, 732.358
85.968, 810.736
87.367, 856.237
88.765, 989.857
90.163, 1050.582
91.561, 1127.404
92.959, 1185.314
94.356, 1227.306
95.753, 1316.375
97.150, 1395.517
98.547, 1433.729
99.943, 1562.008
101.340, 1582.350
102.736, 1732.753
104.132, 1797.213
105.527, 1889.727
106.923, 1991.294
108.318, 2161.910
109.713, 2457.573
111.107, 2666.281
112.502, 3046.032
113.896, 3295.823
115.290, 3695.653
116.684, 3855.520
118.077, 3852.422
119.471, 3835.359
120.864, 3705.330
122.257, 3732.348
123.649, 3610.407
125.042, 3586.509
126.434, 3711.639
127.826, 3788.758
129.218, 3905.874
130.609, 3726.000
132.001, 3630.131
133.392, 3297.269
134.782, 3021.421
136.173, 2720.592
137.564, 2420.785
138.954, 2274.001
140.344, 2004.237
141.733, 1815.495
143.123, 1708.770
144.512, 1577.071
145.901, 1520.400
147.290, 1455.745
148.679, 1432.112
150.067, 1318.500
151.455, 1290.902
152.843, 1226.319
154.231, 1156.748
155.618, 1125.191
157.005, 1035.649
158.392, 1000.121
159.779, 934.604
161.166, 926.096
162.552, 885.602
163.938, 866.123
165.324, 880.655
166.710, 905.195
168.095, 856.743
169.480, 897.299
170.865, 912.867
172.250, 937.443
173.635, 928.025
175.019, 908.615
176.403, 893.211
177.787, 924.816
179.171, 864.426
180.554, 879.043
181.937, 847.665
183.320, 874.294
184.703, 886.929
186.086, 874.584
187.468, 888.230
188.850, 878.880
190.232, 970.746
191.614, 1020.911
192.995, 991.707
194.376, 1069.566
195.757, 1080.858
197.138, 1140.701
198.518, 1213.839
199.899, 1278.922
201.279, 1350.669
202.659, 1441.450
204.038, 1563.313
205.418, 1611.364
206.797, 1775.607
208.176, 1863.103
209.554, 1930.317
210.933, 2004.482
212.311, 2119.858
213.689, 2115.077
215.067, 2011.382
216.445, 2023.851
217.822, 1893.640
219.199, 1847.126
220.576, 1800.852
221.953, 1713.637
223.330, 1672.479
224.706, 1594.237
226.082, 1539.119
227.458, 1430.729
228.833, 1351.716
230.209, 1215.591
231.584, 1080.214
232.959, 1004.770
234.334, 898.838
235.708, 820.953
237.082, 780.860
238.456, 700.209
239.830, 631.117
241.204, 573.839
242.577, 562.629
243.951, 506.790
245.323, 456.717
246.696, 434.546
248.069, 382.745
249.441, 387.444
250.813, 334.146
252.185, 330.009
253.557, 283.702
254.928, 271.489
256.299, 237.406
257.670, 233.118
259.041, 200.974
260.411, 166.891
261.782, 185.921
263.152, 153.697
264.522, 122.435
265.891, 136.289
267.261, 85.034
268.630, 129.782
269.999, 126.535
271.368, 116.411
272.736, 110.599
274.104, 81.548
275.473, 119.515
276.840, 91.279
278.208, 97.046
279.576, 100.815
280.943, 106.585
282.310, 93.357
283.677, 79.135
285.043, 79.910
286.409, 52.687
287.776, 65.758
289.141, 74.565
290.507, 66.346
291.873, 68.127
293.238, 37.908
294.603, 61.690
295.968, 46.471
297.332, 43.253
298.697, 46.035
300.061, 53.818
301.425, 59.699
302.788, 49.480
304.152, 38.261
305.515, 24.042
306.878, 15.821
308.241, 27.603
309.603, 30.382
310.966, 15.167
312.328, 7.989
313.690, 18.764
315.052, 20.568
316.413, 8.362
317.774, 8.136
319.136, 1.044
320.496, 11.725
321.857, 1.513
323.217, 4.279
324.578, 5.044
325.938, 14.193
327.297, 5.567
328.657, 22.675
330.016, 8.921
331.375, 5.171
332.734, 5.423
334.093, 6.657
335.451, 7.825
336.810, 16.086
338.168, 20.351
339.525, 4.624
340.883, 7.901
342.240, 23.138
343.597, 2.405
344.954, 20.699
346.311, 2.000
347.668, 7.283
349.024, 0.588
350.380, 3.109
351.736, 6.192
353.091, 12.465
354.447, 20.769
355.802, 5.077
357.157, 8.653
358.512, 8.640
359.866, 0.048
361.221, 0.247
362.575, 7.561
363.928, 19.877
365.282, 5.154
366.636, 14.470
367.989, 15.740
369.342, 17.057
370.695, 12.360
372.047, 16.686
373.400, 4.022
374.752, 19.226
376.104, 13.586
377.455, 1.840
378.807, 5.903
380.158, 19.422
381.509, 20.685
382.860, 11.042
384.211, 29.395
385.561, 9.758
386.911, 1.172
388.261, 3.529
389.611, 18.910
390.961, 8.293
392.310, 3.475
393.659, 18.887
395.008, 3.931
396.357, 4.484
397.705, 2.929
399.053, 13.719
400.401, 1.293
401.749, 3.826
403.097, 22.961
404.444, 0.161
405.791, 2.378
407.138, 6.850
408.485, 6.004
409.832, 12.508
411.178, 2.073
412.524, 25.554
413.870, 19.222
415.216, 15.932
416.561, 2.545
417.906, 10.986
419.251, 0.471
420.596, 1.019
421.941, 22.525
423.285, 16.235
424.629, 29.697
425.973, 18.136
427.317, 17.697
428.661, 16.106
430.004, 26.528
431.347, 22.965
432.690, 3.445
434.032, 12.948
435.375, 27.342
436.717, 24.716
438.059, 39.092
439.401, 23.501
440.743, 35.858
442.084, 29.255
443.425, 21.614
444.766, 23.105
446.107, 8.441
447.447, 31.770
448.788, 33.093
450.128, 32.449
451.468, 47.762
452.807, 22.109
454.147, 33.481
455.486, 21.797
456.825, 15.086
458.164, 35.431
459.502, 17.709
460.841, 20.137
462.179, 24.426
463.517, 15.696
464.855, 48.976
466.192, 21.341
467.530, 45.705
468.867, 32.953
470.204, 31.184
471.540, 26.211
472.877, 32.430
474.213, 40.279
475.549, 37.372
476.885, 48.509
478.221, 22.636
479.556, 12.739
480.891, 41.817
482.226, 40.735
483.561, 45.554
484.895, 62.655
486.230, 17.700
487.564, 22.419
488.898, 44.529
490.232, 30.282
491.565, 22.385
492.898, 37.396
494.231, 53.505
495.564, 27.625
496.897, 21.632
498.229, 35.508
499.562, 44.180
500.894, 19.181
502.225, 24.342
503.557, 29.259
504.888, 24.321
506.220, 30.395
507.550, 37.318
508.881, 17.988
510.212, 25.947
511.542, 15.696
512.872, 23.372
514.202, 19.006
515.532, 22.739
516.861, 23.361
518.191, 6.266
519.520, 25.830
520.848, 8.516
522.177, 8.439
523.505, 15.435
524.834, 7.926
526.162, 18.376
527.489, 16.041
528.817, 15.268
530.144, 24.942
531.472, 12.805
532.798, 15.603
534.125, 14.034
535.452, 1.299
536.778, 17.468
538.104, 2.134
539.430, 21.765
540.756, 13.663
542.081, 6.400
543.406, 14.306
544.731, 5.880
546.056, 2.150
547.381, 6.229
548.705, 2.445
550.030, 18.230
551.354, 6.207
552.677, 20.606
554.001, 9.456
555.324, 23.187
556.647, 1.026
557.970, 1.141
559.293, 3.684
560.616, 21.439
561.938, 10.823
563.260, 21.452
564.582, 6.104
565.904, 3.052
567.225, 15.788
568.546, 19.598
569.868, 3.391
571.188, 27.165
572.509, 19.932
573.829, 15.698
575.150, 0.458
576.470, 21.919
577.790, 20.641
579.109, 38.385
580.429, 22.126
581.748, 13.862
583.067, 24.592
584.385, 14.319
585.704, 21.041
587.022, 2.758
588.340, 32.469
589.658, 30.078
590.976, 23.781
592.294, 15.481
593.611, 36.175
594.928, 14.866
596.245, 9.549
597.562, 19.231
598.878, 34.901
600.194, 10.528
601.510, 24.196
602.826, 1.830
604.142, 18.469
605.457, 21.122
606.773, 14.722
608.088, 4.369
609.402, 3.991
610.717, 20.627
612.031, 24.260
613.346, 30.889
614.660, 23.515
615.973, 24.139
617.287, 32.766
618.600, 47.385
619.913, 44.000
621.226, 38.592
622.539, 49.111
623.852, 23.719
625.164, 51.325
626.476, 42.929
627.788, 63.529
629.100, 52.083
630.411, 46.657
631.722, 52.250
633.033, 52.880
634.344, 60.447
635.655, 45.034
636.965, 46.618
638.276, 29.198
639.586, 51.747
640.896, 38.322
642.205, 28.898
643.515, 7.432
644.824, 24.985
646.133, 22.553
647.442, 16.100
648.750, 18.661
650.059, 9.220
651.367, 16.731
652.675, 14.276
653.983, 23.770
655.290, 25.302
656.598, 30.839
657.905, 30.367
659.212, 23.898
660.518, 15.462
661.825, 15.003
663.131, 51.455
664.437, 65.879
665.743, 79.364
667.049, 164.784
668.354, 293.330
669.660, 403.852
670.965, 524.343
672.270, 764.878
673.574, 785.351
674.879, 490.839
676.183, 235.347
677.487, 102.619
678.791, 61.115
680.095, 69.371
681.398, 51.885
682.701, 50.360
684.005, 32.766
685.307, 26.239
686.610, 8.398
687.912, 10.644
689.215, 8.792
690.517, 20.027
691.818, 32.510
693.120, 55.658
694.421, 51.150
695.723, 77.574
697.024, 33.074
698.324, 17.381
699.625, 23.639
700.925, 4.988
702.226, 34.472
703.526, 14.902
704.825, 5.386
706.125, 6.771
707.424, 5.983
708.723, 11.435
710.022, 13.904
711.321, 18.242
712.620, 34.727
713.918, 21.192
715.216, 22.634
716.514, 23.916
717.812, 31.387
719.109, 39.850
720.407, 37.326
721.704, 56.823
723.001, 67.250
724.297, 55.721
725.594, 85.147
726.890, 64.602
728.186, 71.919
729.482, 64.384
730.778, 69.037
732.073, 59.500
733.369, 42.935
734.664, 65.419
735.959, 33.896
737.253, 38.282
738.548, 32.717
739.842, 31.171
741.136, 48.588
742.430, 43.039
743.724, 38.333
745.017, 30.801
746.310, 25.295
747.603, 27.726
748.896, 41.058
750.189, 35.386
751.481, 51.866
752.774, 36.319
754.066, 41.041
755.357, 21.483
756.649, 12.964
757.941, 20.402
759.232, 45.838
760.523, 32.273
761.814, 32.795
763.104, 27.586
764.395, 57.018
765.685, 46.449
766.975, 30.879
768.265, 35.315
769.554, 24.743
770.844, 18.170
772.133, 5.596
773.422, 16.310
774.711, 23.734
775.999, 32.156
777.288, 51.578
778.576, 33.028
779.864, 38.453
781.152, 32.108
782.439, 33.638
783.727, 45.985
785.014, 52.436
786.301, 14.866
787.588, 45.256
788.874, 20.658
790.161, 31.015
791.447, 45.407
792.733, 20.786
794.019, 65.197
795.304, 7.606
796.590, 20.015
797.875, 22.423
799.160, 4.170
800.445, 17.211
801.729, 7.590
803.014, 19.994
804.298, 29.397
805.582, 11.801
806.865, 3.203
808.149, 5.605
809.432, 25.247
810.716, 16.666
811.999, 12.065
813.281, 23.464
814.564, 6.863
815.846, 13.260
817.128, 15.658
818.410, 18.055
819.692, 22.464
820.974, 28.935
822.255, 42.331
823.536, 54.727
824.817, 39.132
826.098, 43.480
827.379, 33.841
828.659, 28.195
829.939, 66.595
831.219, 55.993
832.499, 132.461
833.779, 243.860
835.058, 422.267
836.337, 654.664
837.616, 780.086
838.895, 593.484
840.173, 346.847
841.452, 209.244
842.730, 106.632
844.008, 93.975
845.286, 73.324
846.563, 54.672
847.841, 49.045
849.118, 27.429
850.395, 38.824
851.672, 33.219
852.948, 29.614
854.225, 17.008
855.501, 32.402
856.777, 15.796
858.053, 30.189
859.328, 4.582
860.604, 12.973
861.879, 12.365
863.154, 39.755
864.429, 16.145
865.703, 29.535
866.978, 17.924
868.252, 5.687
869.526, 14.700
870.800, 8.085
872.073, 5.471
873.347, 0.145
874.620, 23.238
875.893, 12.621
877.166, 11.004
878.438, 5.386
879.711, 16.767
880.983, 14.148
882.255, 1.529
883.527, 0.091
884.798, 5.289
886.070, 9.668
887.341, 9.048
888.612, 0.427
889.883, 7.805
891.154, 9.817
892.424, 9.558
893.694, 0.933
894.964, 21.301
896.234, 12.675
897.504, 12.048
898.773, 1.579
900.042, 13.206
901.312, 12.162
902.580, 12.530
903.849, 21.898
905.118, 8.265
906.386, 22.634
907.654, 17.003
908.922, 27.371
910.189, 10.299
911.457, 22.067
912.724, 15.433
913.991, 14.799
915.258, 3.166
916.525, 8.534
917.791, 8.096
919.058, 2.730
920.324, 32.636
921.590, 2.002
922.855, 6.367
924.121, 20.731
925.386, 26.095
926.651, 15.459
927.916, 30.822
929.181, 18.185
930.446, 34.549
931.710, 18.912
932.974, 26.250
934.238, 17.614
935.502, 19.977
936.765, 14.168
938.029, 23.531
939.292, 30.870
940.555, 32.234
941.818, 20.599
943.080, 35.960
944.343, 19.280
945.605, 8.388
946.867, 4.973
948.129, 15.334
949.390, 25.691
950.652, 28.050
951.913, 40.382
953.174, 12.740
954.435, 30.097
955.695, 6.453
956.956, 1.191
958.216, 18.164
959.476, 9.518
960.736, 6.873
961.995, 10.229
963.255, 16.584
964.514, 14.939
965.773, 8.294
967.032, 19.649
968.291, 0.997
969.549, 29.356
970.807, 6.708
972.066, 19.060
973.323, 3.411
974.581, 9.761
975.839, 4.110
977.096, 11.459
978.353, 10.807
979.610, 20.154
980.867, 22.500
982.123, 27.846
983.380, 11.192
984.636, 25.536
985.892, 28.880
987.147, 32.223
988.403, 48.565
989.658, 36.906
990.914, 40.247
992.169, 48.586
993.423, 26.925
994.678, 13.263
995.932, 55.570
997.187, 44.906
998.441, 34.241
999.694, 48.575
1000.948, 26.908
1002.201, 39.241
1003.455, 33.572
1004.708, 37.714
1005.961, 60.044
1007.213, 52.361
1008.466, 43.664
1009.718, 42.932
1010.970, 36.259
1012.222, 63.584
1013.474, 46.908
1014.725, 39.209
1015.976, 51.536
1017.227, 32.858
1018.478, 40.137
1019.729, 61.621
1020.980, 45.916
1022.230, 78.257
1023.480, 74.569
1024.730, 69.837
1025.980, 113.265
1027.229, 121.298
1028.479, 184.723
1029.728, 317.992
1030.977, 367.407
1032.226, 272.734
1033.474, 209.063
1034.723, 166.535
1035.971, 185.485
1037.219, 205.798
1038.467, 255.154
1039.714, 295.505
1040.962, 339.284
1042.209, 406.716
1043.456, 495.017
1044.703, 645.331
1045.950, 853.690
1047.196, 1179.004
1048.443, 1759.338
1049.689, 3202.224
1050.935, 7989.772
1052.180, 31765.480
1053.426, 57134.535
1054.671, 49803.988
1055.916, 22513.279
1057.161, 8134.532
1058.406, 3231.853
1059.651, 1635.155
1060.895, 966.461
1062.139, 667.764
1063.383, 507.048
1064.627, 416.566
1065.871, 357.963
1067.114, 270.243
1068.357, 221.839
1069.600, 226.117
1070.843, 188.394
1072.086, 176.951
1073.328, 176.226
1074.570, 167.820
1075.813, 146.547
1077.054, 136.819
1078.296, 123.121
1079.538, 113.485
1080.779, 137.512
1082.020, 125.760
1083.261, 91.025
1084.502, 113.289
1085.742, 92.552
1086.983, 86.814
1088.223, 92.074
1089.463, 84.333
1090.703, 96.579
1091.942, 74.913
1093.182, 91.168
1094.421, 90.635
1095.660, 101.320
1096.899, 92.571
1098.137, 86.821
1099.376, 104.245
1100.614, 97.490
1101.852, 98.835
1103.090, 85.010
1104.328, 65.345
1105.565, 86.578
1106.803, 83.818
1108.040, 106.033
1109.277, 69.308
1110.513, 89.524
1111.750, 64.759
1112.986, 63.992
1114.223, 49.225
1115.459, 40.456
1116.694, 59.686
1117.930, 44.915
1119.165, 40.142
1120.401, 28.368
1121.636, 59.593
1122.871, 40.816
1124.105, 28.038
1125.340, 29.259
1126.574, 50.479
1127.808, 71.697
1129.042, 16.914
1130.276, 56.130
1131.509, 46.345
1132.743, 22.559
1133.976, 47.771
1135.209, 33.982
1136.442, 29.192
1137.674, 22.401
1138.906, 11.609
1140.139, 34.817
1141.371, 43.023
1142.603, 10.228
1143.834, 24.432
1145.066, 37.636
1146.297, 22.838
1147.528, 7.039
1148.759, 6.239
1149.990, 22.437
1151.220, 19.635
1152.450, 7.168
1153.681, 49.025
1154.910, 1.218
1156.140, 20.409
1157.370, 19.599
1158.599, 3.211
1159.828, 15.976
1161.057, 2.837
1162.286, 6.348
1163.515, 2.468
1164.743, 2.714
1165.972, 1.894
1167.200, 8.926
1168.427, 8.250
1169.655, 4.427
1170.883, 0.397
1172.110, 0.223
1173.337, 19.050
1174.564, 3.883
1175.791, 11.282
1177.017, 2.445
1178.244, 13.392
1179.470, 1.768
1180.696, 0.074
1181.922, 23.917
1183.147, 10.766
1184.373, 16.619
1185.598, 15.523
1186.823, 10.335
1188.048, 12.804
1189.273, 18.942
1190.497, 0.920
1191.722, 1.216
1192.946, 0.351
1194.170, 0.486
1195.393, 10.619
1196.617, 9.249
1197.840, 4.120
1199.064, 13.007
1200.287, 12.867
1201.509, 15.256
1202.732, 24.377
1203.954, 11.502
1205.177, 4.616
1206.399, 13.267
1207.621, 19.154
1208.842, 6.954
1210.064, 0.939
1211.285, 3.833
1212.506, 6.272
1213.727, 22.377
1214.948, 15.482
1216.169, 27.586
1217.389, 8.689
1218.609, 28.792
1219.829, 12.895
1221.049, 7.997
1222.269, 26.099
1223.488, 6.800
1224.708, 1.299
1225.927, 9.602
1227.146, 19.505
1228.364, 7.587
1229.583, 15.679
1230.801, 8.230
1232.019, 13.859
1233.237, 5.052
1234.455, 5.036
1235.673, 4.877
1236.890, 28.210
1238.107, 25.296
1239.324, 23.382
1240.541, 2.531
1241.758, 21.554
1242.975, 34.640
1244.191, 42.725
1245.407, 25.811
1246.623, 31.897
1247.839, 24.983
1249.054, 36.068
1250.270, 23.154
1251.485, 27.241
1252.700, 29.327
1253.915, 25.414
1255.129, 29.501
1256.344, 65.588
1257.558, 71.676
1258.772, 68.764
1259.986, 23.853
1261.200, 76.942
1262.413, 59.031
1263.627, 63.122
1264.840, 87.213
1266.053, 68.306
1267.266, 95.399
1268.478, 104.494
1269.691, 76.590
1270.903, 118.687
1272.115, 112.784
1273.327, 95.880
1274.539, 100.976
1275.750, 105.073
1276.961, 118.169
1278.173, 102.264
1279.384, 131.359
1280.594, 110.450
1281.805, 125.545
1283.015, 127.641
1284.226, 151.516
1285.436, 130.612
1286.646, 141.681
1287.855, 171.776
1289.065, 169.871
1290.274, 174.843
1291.483, 202.939
1292.692, 184.921
1293.901, 222.016
1295.109, 194.009
1296.318, 237.089
1297.526, 250.167
1298.734, 224.012
1299.942, 253.110
1301.150, 277.202
1302.357, 252.250
1303.564, 298.303
1304.771, 280.920
1305.978, 306.892
1307.185, 337.993
1308.392, 337.081
1309.598, 358.836
1310.804, 391.924
1312.010, 393.993
1313.216, 415.508
1314.422, 481.332
1315.627, 458.021
1316.832, 469.130
1318.037, 463.969
1319.242, 470.080
1320.447, 521.192
1321.652, 483.258
1322.856, 520.359
1324.060, 542.454
1325.264, 536.553
1326.468, 550.672
1327.672, 536.556
1328.875, 531.562
1330.078, 577.685
1331.281, 548.493
1332.484, 585.619
1333.687, 639.747
1334.890, 585.595
1336.092, 660.725
1337.294, 673.538
1338.496, 677.216
1339.698, 731.352
1340.900, 750.457
1342.101, 755.501
1343.302, 867.642
1344.503, 890.784
1345.704, 971.929
1346.905, 1046.076
1348.106, 1066.225
1349.306, 1238.376
1350.506, 1353.530
1351.706, 1474.686
1352.906, 1737.844
1354.106, 1869.854
1355.305, 2150.018
1356.504, 2493.971
1357.703, 2622.698
1358.902, 3018.869
1360.101, 3333.044
1361.300, 3465.047
1362.498, 3806.227
1363.696, 3885.312
1364.894, 3715.500
1366.092, 3665.599
1367.290, 3347.793
1368.487, 2916.991
1369.684, 2710.193
1370.881, 2265.361
1372.078, 2050.571
1373.275, 1801.785
1374.472, 1494.003
1375.668, 1347.226
1376.864, 1200.453
1378.060, 1025.686
1379.256, 956.924
1380.452, 812.167
1381.647, 771.416
1382.842, 699.671
1384.038, 601.933
1385.233, 593.200
1386.427, 565.475
1387.622, 430.758
1388.816, 446.048
1390.010, 356.346
1391.204, 330.653
1392.398, 297.005
1393.592, 241.332
1394.785, 256.769
1395.979, 214.158
1397.172, 179.564
1398.365, 220.057
1399.558, 177.375
1400.750, 142.517
1401.943, 169.666
1403.135, 177.817
1404.327, 186.969
1405.519, 188.122
1406.710, 149.278
1407.902, 174.437
1409.093, 161.598
1410.284, 163.762
1411.475, 180.929
1412.666, 183.099
1413.857, 158.272
1415.047, 181.450
1416.238, 162.630
1417.428, 203.816
1418.617, 194.009
1419.807, 155.206
1420.997, 180.409
1422.186, 189.622
1423.375, 179.845
1424.564, 208.075
1425.753, 169.307
1426.942, 128.544
1428.130, 171.785
1429.318, 182.032
1430.507, 143.286
1431.694, 190.545
1432.882, 152.812
1434.070, 94.089
1435.257, 151.374
1436.444, 125.665
1437.631, 133.959
1438.818, 141.258
1440.005, 81.562
1441.191, 132.869
1442.378, 98.183
1443.564, 97.508
1444.750, 142.840
1445.936, 130.180
1447.121, 122.527
1448.307, 129.879
1449.492, 117.237
1450.677, 120.600
1451.862, 121.967
1453.047, 128.339
1454.231, 175.715
1455.415, 120.095
1456.600, 140.479
1457.784, 189.867
1458.967, 182.258
1460.151, 197.651
1461.335, 235.045
1462.518, 200.439
1463.701, 243.831
1464.884, 259.224
1466.067, 224.627
1467.249, 279.039
1468.432, 269.462
1469.614, 270.896
1470.796, 312.340
1471.978, 283.797
1473.159, 302.265
1474.341, 332.745
1475.522, 281.238
1476.703, 320.742
1477.884, 362.259
1479.065, 274.790
1480.246, 357.333
1481.426, 306.890
1482.607, 283.459
1483.787, 328.043
1484.967, 271.642
1486.146, 275.255
1487.326, 279.883
1488.505, 230.527
1489.685, 193.187
1490.864, 250.863
1492.042, 160.558
1493.221, 183.271
1494.400, 146.005
1495.578, 120.761
1496.756, 163.542
1497.934, 92.350
1499.112, 84.187
1500.289, 94.054
1501.467, 68.952
1502.644, 48.884
1503.821, 80.851
1504.998, 30.856
1506.175, 57.901
1507.351, 59.990
1508.528, 1.127
1509.704, 57.316
1510.880, 21.561
1512.056, 21.870
1513.232, 28.248
1514.407, 43.703
1515.582, 43.242
1516.758, 28.876
1517.933, 7.616
1519.107, 0.477
1520.282, 48.477
1521.456, 1.367
1522.631, 3.971
1523.805, 4.446
1524.979, 1.474
1526.152, 36.724
1527.326, 0.000
##END=



