##NAMES=Cerussite
##RRUFFID=R060017
##IDEAL CHEMISTRY=Pb^2+^CO_3_
##LOCALITY=Gonessa, Sardinia, Italy
##OWNER=RRUFF
##SOURCE=American Museum of Natural History
##DESCRIPTION=White reticulated composite
##STATUS=The identification of this mineral has been confirmed by X-ray diffraction and chemical analysis
##URL=rruff.info/R060017
##MEASURED CHEMISTRY=Pb_1.00_CO_3_ C not measured but estimated by difference and stoichiometry
##PIN_ID=M00430
##ORIENTATION=Laser parallel to c* (0 0 1). Fiducial mark perpendicular to laser is parallel to a [1 0 0]
51.43100, 0.0000000E+00
52.67100, 149.7537
53.91000, 360.7781
55.14900, 154.9454
56.38700, 60.46130
57.62600, 52.92871
58.86400, 104.7629
60.10300, 651.8000
61.34100, 1434.833
62.57900, 2634.531
63.81700, 4089.259
65.05400, 5890.906
66.29200, 7770.760
67.52900, 9625.442
68.76700, 11097.84
70.00400, 11567.02
71.24100, 11707.18
72.47700, 11080.61
73.71400, 10126.67
74.95100, 8917.823
76.18700, 8094.576
77.42300, 7300.519
78.65900, 6698.286
79.89500, 6278.573
81.13100, 5986.127
82.36700, 5855.753
83.60200, 5880.271
84.83700, 5916.514
86.07200, 6166.513
87.30800, 6416.581
88.54200, 6965.101
89.77700, 7535.699
91.01200, 8233.156
92.24600, 8854.302
93.48000, 9356.007
94.71400, 9775.161
95.94800, 10520.67
97.18200, 11062.45
98.41600, 11235.42
99.64900, 11509.52
100.8830, 11691.69
102.1160, 11736.86
103.3490, 11690.99
104.5820, 11539.03
105.8150, 11525.94
107.0470, 11370.80
108.2800, 11102.51
109.5120, 11080.13
110.7440, 11501.81
111.9760, 11470.50
113.2080, 11779.22
114.4400, 11640.81
115.6710, 11878.35
116.9030, 11797.66
118.1340, 11420.90
119.3650, 11039.00
120.5960, 10798.92
121.8270, 10211.41
123.0580, 9879.568
124.2880, 9448.362
125.5190, 9313.461
126.7490, 9118.397
127.9790, 8950.148
129.2090, 8984.708
130.4390, 8580.198
131.6680, 8571.775
132.8980, 8464.452
134.1270, 8210.229
135.3560, 7885.198
136.5850, 7707.364
137.8140, 7359.704
139.0430, 7330.266
140.2710, 7114.989
141.5000, 7308.882
142.7280, 7090.948
143.9560, 6979.203
145.1840, 6951.712
146.4120, 6581.414
147.6390, 6515.298
148.8670, 6256.363
150.0940, 6068.596
151.3210, 5598.010
152.5490, 5321.604
153.7750, 4964.368
155.0020, 4551.306
156.2290, 4222.413
157.4550, 4064.679
158.6810, 3985.103
159.9080, 3733.306
161.1340, 3714.819
162.3590, 3574.985
163.5850, 3734.074
164.8110, 3726.038
166.0360, 3762.028
167.2610, 3910.369
168.4860, 3918.761
169.7110, 3987.539
170.9360, 4077.033
172.1610, 4030.221
173.3850, 4055.069
174.6100, 3920.413
175.8340, 3791.941
177.0580, 3566.256
178.2820, 3524.669
179.5050, 3294.210
180.7290, 3054.192
181.9520, 3005.102
183.1760, 2698.185
184.3990, 2718.124
185.6220, 2525.622
186.8450, 2437.779
188.0670, 2455.944
189.2900, 2472.308
190.5120, 2333.375
191.7340, 2439.188
192.9560, 2499.748
194.1780, 2614.878
195.4000, 2797.698
196.6220, 2785.148
197.8430, 2853.301
199.0640, 3025.522
200.2860, 3163.698
201.5070, 3344.623
202.7270, 3439.719
203.9480, 3476.910
205.1690, 3785.791
206.3890, 3814.967
207.6090, 4014.883
208.8290, 4070.095
210.0490, 4221.030
211.2690, 4249.680
212.4890, 4371.927
213.7080, 4396.737
214.9280, 4373.081
216.1470, 4361.901
217.3660, 4388.800
218.5850, 4235.497
219.8030, 4185.915
221.0220, 4168.914
222.2400, 4004.670
223.4590, 3892.742
224.6770, 3616.353
225.8950, 3516.023
227.1120, 3338.928
228.3300, 3236.115
229.5480, 3039.814
230.7650, 2851.830
231.9820, 2631.388
233.1990, 2440.967
234.4160, 2272.546
235.6330, 2099.921
236.8490, 1969.747
238.0660, 1822.690
239.2820, 1698.552
240.4980, 1621.552
241.7140, 1490.678
242.9300, 1391.120
244.1460, 1315.759
245.3610, 1149.237
246.5770, 969.8184
247.7920, 941.4971
249.0070, 847.7148
250.2220, 778.2554
251.4370, 609.7178
252.6510, 625.8091
253.8660, 470.9658
255.0800, 448.6689
256.2940, 498.0977
257.5080, 367.4775
258.7220, 290.5493
259.9360, 225.9468
261.1490, 202.4429
262.3630, 124.0723
263.5760, 62.57373
264.7890, 38.67773
266.0020, 40.32666
267.2150, 55.22754
268.4270, 129.0361
269.6400, 29.42676
270.8520, 14.60986
272.0640, 20.91504
273.2760, 27.20605
274.4880, 38.44482
275.7000, 53.17822
276.9120, 43.32471
278.1230, 70.16406
279.3340, 54.21338
280.5450, 64.55957
281.7560, 113.9053
282.9670, 123.9233
284.1780, 118.5635
285.3880, 129.1001
286.5980, 111.4927
287.8090, 85.53662
289.0190, 117.8149
290.2290, 119.3555
291.4380, 108.8193
292.6480, 146.0830
293.8570, 120.3110
295.0670, 105.0225
296.2760, 86.57227
297.4850, 87.15088
298.6930, 58.34229
299.9020, 55.59473
301.1110, 110.7217
302.3190, 98.26465
303.5270, 148.9868
304.7350, 72.33203
305.9430, 79.13672
307.1510, 60.99512
308.3580, 51.07861
309.5660, 81.93164
310.7730, 52.69775
311.9800, 125.7344
313.1870, 119.8374
314.3940, 85.99854
315.6010, 80.29102
316.8070, 71.81299
318.0130, 109.8184
319.2200, 75.29443
320.4260, 39.60254
321.6310, 64.31543
322.8370, 125.8555
324.0430, 40.71338
325.2480, 92.74414
326.4540, 15.21387
327.6590, 6.376953
328.8640, 30.67480
330.0680, 4.100586
331.2730, 33.24658
332.4780, 91.47461
333.6820, 8.200195
334.8860, 14.98926
336.0900, 124.8911
337.2940, 3.903320
338.4980, 42.02197
339.7010, 99.76660
340.9050, 64.46045
342.1080, 31.90918
343.3110, 36.27490
344.5140, 5.634277
345.7170, 45.10205
346.9200, 31.40918
348.1220, 42.92676
349.3240, 81.68066
350.5270, 132.2344
351.7290, 99.14990
352.9310, 128.7886
354.1320, 21.35889
355.3340, 5.738281
356.5350, 102.2212
357.7370, 76.68604
358.9380, 161.4087
360.1390, 59.83057
361.3400, 49.20996
362.5400, 66.61084
363.7410, 86.89160
364.9410, 60.12842
366.1410, 205.3101
367.3410, 80.46533
368.5410, 54.64795
369.7410, 225.6831
370.9400, 153.6875
372.1400, 232.6509
373.3390, 169.5806
374.5380, 181.5645
375.7370, 259.4932
376.9360, 192.3018
378.1350, 265.5088
379.3330, 121.2607
380.5310, 88.22119
381.7300, 176.1357
382.9280, 267.6665
384.1260, 153.6558
385.3230, 300.1504
386.5210, 245.1802
387.7180, 241.8994
388.9160, 294.4512
390.1130, 327.6875
391.3100, 294.1240
392.5060, 246.2646
393.7030, 235.8379
394.9000, 248.8682
396.0960, 287.4902
397.2920, 291.5566
398.4880, 257.9922
399.6840, 284.9072
400.8800, 297.4150
402.0750, 256.1797
403.2710, 321.0479
404.4660, 310.8330
405.6610, 305.3701
406.8560, 350.3696
408.0510, 280.7954
409.2450, 290.3306
410.4400, 263.6284
411.6340, 322.6694
412.8280, 341.3608
414.0220, 302.3491
415.2160, 276.5366
416.4100, 265.2974
417.6030, 336.8804
418.7970, 280.2695
419.9900, 280.4453
421.1830, 310.2603
422.3760, 261.8726
423.5690, 366.7358
424.7610, 372.1235
425.9540, 327.8755
427.1460, 239.2329
428.3380, 290.7324
429.5300, 430.8965
430.7220, 322.0723
431.9140, 346.4736
433.1050, 280.1919
434.2970, 272.6450
435.4880, 334.1636
436.6790, 288.1836
437.8700, 307.9741
439.0610, 357.2051
440.2510, 384.4756
441.4420, 303.1357
442.6320, 305.8389
443.8220, 232.4873
445.0120, 330.4165
446.2020, 393.8706
447.3910, 290.5508
448.5810, 370.4585
449.7700, 366.6050
450.9600, 253.9165
452.1490, 324.6167
453.3370, 304.4487
454.5260, 339.5464
455.7150, 330.5986
456.9030, 317.1299
458.0910, 330.9385
459.2800, 301.6479
460.4670, 284.6890
461.6550, 294.0576
462.8430, 257.4575
464.0300, 305.9185
465.2180, 259.6162
466.4050, 278.6001
467.5920, 341.0151
468.7790, 271.4248
469.9650, 233.1724
471.1520, 244.5356
472.3380, 185.6851
473.5250, 226.0767
474.7110, 220.6899
475.8970, 271.7944
477.0820, 260.4014
478.2680, 312.4590
479.4540, 302.9302
480.6390, 268.2812
481.8240, 281.2441
483.0090, 312.0337
484.1940, 266.8838
485.3780, 223.8496
486.5630, 214.3677
487.7470, 274.5088
488.9320, 306.1504
490.1160, 256.9390
491.3000, 183.0742
492.4830, 293.4551
493.6670, 169.8486
494.8500, 207.4404
496.0340, 273.5708
497.2170, 131.7310
498.4000, 225.8452
499.5820, 231.9756
500.7650, 164.0977
501.9480, 226.1929
503.1300, 265.2793
504.3120, 188.7129
505.4940, 209.7939
506.6760, 291.4614
507.8580, 214.0093
509.0390, 271.9839
510.2210, 175.0312
511.4020, 215.7041
512.5830, 252.6206
513.7640, 240.4771
514.9450, 209.2612
516.1250, 164.2524
517.3060, 166.3730
518.4860, 218.0449
519.6660, 128.1489
520.8460, 177.7412
522.0260, 136.6680
523.2060, 130.4648
524.3850, 186.4907
525.5650, 114.9312
526.7440, 156.3301
527.9230, 100.6943
529.1020, 120.8237
530.2810, 64.83447
531.4590, 238.0718
532.6380, 130.2744
533.8160, 186.4399
534.9940, 109.1230
536.1720, 184.5332
537.3500, 94.06934
538.5270, 139.0176
539.7050, 98.93896
540.8820, 142.3452
542.0590, 83.05566
543.2360, 145.8359
544.4130, 124.9434
545.5900, 127.7393
546.7660, 206.4458
547.9430, 95.02441
549.1190, 200.7305
550.2950, 126.8315
551.4710, 97.00098
552.6470, 68.66455
553.8220, 151.0962
554.9980, 118.6377
556.1730, 126.7324
557.3480, 147.3662
558.5230, 50.84766
559.6980, 134.7007
560.8730, 116.3086
562.0470, 64.76221
563.2220, 111.6089
564.3960, 113.7720
565.5700, 131.0850
566.7440, 140.3789
567.9170, 109.3228
569.0910, 93.82178
570.2640, 67.28320
571.4380, 33.52930
572.6110, 75.41504
573.7840, 104.5200
574.9570, 33.83398
576.1290, 101.0396
577.3020, 80.01660
578.4740, 103.5161
579.6460, 143.2905
580.8180, 60.46143
581.9900, 135.6270
583.1620, 171.3726
584.3330, 138.1450
585.5040, 178.7578
586.6760, 85.75098
587.8470, 84.88672
589.0180, 23.60791
590.1880, 39.74316
591.3590, 166.8721
592.5290, 79.24268
593.7000, 143.2769
594.8700, 96.17236
596.0400, 119.2837
597.2090, 52.39258
598.3790, 40.38135
599.5490, 2.737305
600.7180, 110.7554
601.8870, 18.67822
603.0560, 220.7222
604.2250, 41.51758
605.3940, 64.64307
606.5620, 145.5166
607.7300, 91.60498
608.8990, 80.90088
610.0670, 1.6602000E-02
611.2350, 139.8413
612.4020, 154.7676
613.5700, 212.9712
614.7370, 207.7935
615.9050, 171.6094
617.0720, 228.0537
618.2390, 159.3320
619.4060, 138.5781
620.5720, 219.8569
621.7390, 207.8647
622.9050, 196.1631
624.0710, 239.4492
625.2370, 248.9053
626.4030, 220.1074
627.5690, 209.8394
628.7340, 244.3149
629.9000, 242.6528
631.0650, 220.0425
632.2300, 175.1670
633.3950, 209.5024
634.5600, 158.4873
635.7240, 194.9604
636.8890, 123.7144
638.0530, 174.2114
639.2170, 146.5679
640.3810, 165.9321
641.5450, 126.0093
642.7080, 90.74658
643.8720, 93.12109
645.0350, 59.43311
646.1980, 83.96387
647.3610, 41.33984
648.5240, 82.20068
649.6870, 47.26318
650.8490, 93.56201
652.0120, 56.95312
653.1740, 73.64795
654.3360, 112.0273
655.4980, 75.03662
656.6600, 81.36426
657.8210, 160.7456
658.9830, 121.1016
660.1440, 308.0103
661.3050, 403.3853
662.4660, 393.7085
663.6270, 568.8208
664.7870, 825.1816
665.9480, 936.0342
667.1080, 942.4639
668.2680, 908.1670
669.4280, 1128.127
670.5880, 1214.200
671.7480, 1130.538
672.9070, 1059.625
674.0670, 947.9541
675.2260, 831.7935
676.3850, 835.1895
677.5440, 750.8667
678.7030, 757.2373
679.8610, 677.9932
681.0200, 664.2373
682.1780, 593.8320
683.3360, 440.1123
684.4940, 330.2290
685.6520, 363.3735
686.8090, 315.7080
687.9670, 283.5210
689.1240, 239.8506
690.2810, 382.0098
691.4380, 445.8921
692.5950, 344.4253
693.7520, 355.7563
694.9080, 157.8882
696.0650, 162.0981
697.2210, 27.43018
698.3770, 15.20996
699.5330, 25.10205
700.6880, 63.27686
701.8440, 182.9346
702.9990, 19.11133
704.1550, 154.3286
705.3100, 80.67773
706.4650, 88.02539
707.6190, 128.2368
708.7740, 117.3467
709.9290, 84.20703
711.0830, 42.60107
712.2370, 39.59570
713.3910, 152.5156
714.5450, 128.9966
715.6980, 129.3354
716.8520, 197.4287
718.0050, 137.7354
719.1580, 126.1035
720.3110, 65.06152
721.4640, 116.4292
722.6170, 173.8618
723.7700, 154.2314
724.9220, 148.6733
726.0740, 90.92383
727.2260, 196.1914
728.3780, 220.8228
729.5300, 271.7373
730.6810, 29.19971
731.8330, 141.4531
732.9840, 98.92383
734.1350, 123.5396
735.2860, 85.91650
736.4370, 9.029297
737.5880, 92.24316
738.7380, 55.77783
739.8880, 133.7739
741.0390, 83.52930
742.1890, 147.0737
743.3380, 100.1099
744.4880, 86.93604
745.6380, 101.3145
746.7870, 12.69189
747.9360, 75.39600
749.0850, 60.99609
750.2340, 80.48096
751.3830, 45.87891
752.5310, 45.41162
753.6800, 82.79150
754.8280, 37.82812
755.9760, 23.31250
757.1240, 109.7192
758.2720, 80.08398
759.4190, 22.20361
760.5670, 83.15088
761.7140, 154.5029
762.8610, 2.853027
764.0080, 55.19971
765.1550, 90.43457
766.3020, 7.875488
767.4480, 74.22119
768.5950, 33.52441
769.7410, 155.8359
770.8870, 61.22314
772.0330, 56.37842
773.1780, 2.626953
774.3240, 10.08447
775.4690, 232.3789
776.6140, 151.6621
777.7590, 79.52441
778.9040, 149.8022
780.0490, 7.645020
781.1940, 49.74756
782.3380, 49.13916
783.4820, 15.46484
784.6260, 121.7251
785.7700, 11.14258
786.9140, 17.65918
788.0580, 78.85059
789.2010, 100.1943
790.3450, 4.430176
791.4880, 96.85303
792.6310, 15.91846
793.7730, 40.36328
794.9160, 29.58008
796.0590, 83.91211
797.2010, 151.1230
798.3430, 40.49414
799.4850, 2.298828
800.6270, 35.19678
801.7690, 104.3975
802.9100, 76.74854
804.0520, 20.94580
805.1930, 141.1396
806.3340, 170.3325
807.4750, 63.52490
808.6160, 149.0132
809.7560, 125.6465
810.8970, 145.8364
812.0370, 116.0234
813.1770, 39.20947
814.3170, 59.57080
815.4570, 11.72314
816.5960, 164.9009
817.7360, 74.28906
818.8750, 152.5430
820.0140, 186.7168
821.1530, 79.01074
822.2920, 169.3716
823.4310, 78.53613
824.5690, 190.6968
825.7070, 242.8560
826.8460, 384.0107
827.9840, 560.2319
829.1220, 694.6890
830.2590, 829.8936
831.3970, 898.2910
832.5340, 1075.521
833.6710, 1136.660
834.8080, 1239.693
835.9450, 1194.298
837.0820, 1137.450
838.2190, 939.8271
839.3550, 724.8325
840.4910, 423.2881
841.6270, 479.8911
842.7630, 254.1509
843.8990, 183.2612
845.0350, 222.3667
846.1700, 209.4692
847.3060, 178.5732
848.4410, 89.87744
849.5760, 10.05127
850.7100, 95.04199
851.8450, 51.13281
852.9800, 126.4004
854.1140, 137.4824
855.2480, 151.5591
856.3820, 89.63037
857.5160, 112.8584
858.6500, 56.92041
859.7830, 79.97656
860.9170, 57.02686
862.0500, 91.07080
863.1830, 69.56445
864.3160, 102.1445
865.4480, 59.37158
866.5810, 53.39941
867.7130, 93.37402
868.8460, 52.42285
869.9780, 15.44971
871.1100, 79.46973
872.2410, 64.69043
873.3730, 124.6440
874.5050, 63.15039
875.6360, 24.83496
876.7670, 80.55371
877.8980, 37.55176
879.0290, 169.5439
880.1590, 4.468750
881.2900, 110.5254
882.4200, 113.5728
883.5500, 5.467773
884.6800, 94.54102
885.8100, 53.54834
886.9400, 74.55322
888.0690, 43.54980
889.1990, 167.5386
890.3280, 143.5205
891.4570, 72.73535
892.5860, 12.88574
893.7140, 123.0342
894.8430, 8.949707
895.9710, 111.1304
897.1000, 95.03076
898.2280, 91.93652
899.3560, 84.74658
900.4830, 77.55859
901.6110, 77.65576
902.7380, 68.64795
903.8660, 78.52490
904.9930, 76.34424
906.1200, 58.22217
907.2460, 25.89941
908.3730, 59.04541
909.5000, 142.5669
910.6260, 37.95166
911.7520, 104.7559
912.8780, 36.44873
914.0040, 148.3281
915.1290, 19.09668
916.2550, 53.51807
917.3800, 53.29883
918.5050, 56.06738
919.6300, 94.71777
920.7550, 101.5269
921.8800, 28.84814
923.0040, 9.951172
924.1290, 59.73145
925.2530, 38.50977
926.3770, 72.97998
927.5010, 97.76367
928.6250, 70.89941
929.7480, 92.60791
930.8720, 58.26123
931.9950, 95.00684
933.1180, 48.75098
934.2410, 167.4302
935.3640, 22.88525
936.4860, 106.5317
937.6090, 52.25293
938.7310, 109.9624
939.8530, 130.5269
940.9750, 126.2256
942.0970, 238.9131
943.2180, 25.59277
944.3400, 8.258789
945.4610, 181.9116
946.5820, 98.56152
947.7030, 125.2012
948.8240, 49.75928
949.9450, 3.623535
951.0650, 153.7842
952.1860, 86.62891
953.3060, 74.89551
954.4260, 163.4092
955.5460, 64.91211
956.6650, 48.40332
957.7850, 128.8818
958.9040, 124.3501
960.0230, 127.8208
961.1420, 135.2847
962.2610, 79.73730
963.3800, 30.18115
964.4990, 61.61084
965.6170, 59.02734
966.7350, 76.43115
967.8530, 112.8228
968.9710, 119.2021
970.0890, 93.57031
971.2070, 67.94629
972.3240, 3.689941
973.4410, 2.509277
974.5580, 16.36816
975.6750, 14.70605
976.7920, 65.00098
977.9090, 133.2817
979.0250, 101.5508
980.1410, 199.8071
981.2580, 142.1431
982.3740, 49.37451
983.4890, 124.5913
984.6050, 144.9229
985.7200, 138.1147
986.8360, 59.21143
987.9510, 188.3779
989.0660, 103.5322
990.1810, 160.6729
991.2950, 64.81836
992.4100, 202.9321
993.5240, 186.9673
994.6390, 122.0542
995.7530, 252.0615
996.8660, 199.1216
997.9800, 188.4834
999.0940, 57.51660
1000.207, 117.4741
1001.320, 212.1445
1002.433, 102.8149
1003.546, 126.3604
1004.659, 157.3555
1005.772, 58.43408
1006.884, 87.32178
1007.996, 24.42139
1009.108, 180.2671
1010.220, 32.68945
1011.332, 154.3921
1012.444, 190.5752
1013.555, 141.4146
1014.666, 255.0112
1015.777, 97.96680
1016.888, 128.7378
1017.999, 105.5454
1019.110, 177.3223
1020.220, 277.9526
1021.331, 185.7085
1022.441, 290.2842
1023.551, 409.0884
1024.661, 322.1313
1025.770, 413.1821
1026.880, 452.8027
1027.989, 480.0352
1029.098, 564.3154
1030.207, 547.4922
1031.316, 557.1992
1032.425, 532.9858
1033.533, 459.5317
1034.642, 433.1353
1035.750, 468.6885
1036.858, 596.2690
1037.966, 755.7920
1039.073, 823.2310
1040.181, 998.6387
1041.288, 1475.253
1042.396, 2109.759
1043.503, 3472.480
1044.610, 6728.521
1045.716, 15260.94
1046.823, 31732.50
1047.929, 40790.89
1049.036, 41962.72
1050.142, 50959.95
1051.248, 55354.17
1052.353, 53919.90
1053.459, 47179.54
1054.564, 35428.82
1055.670, 22107.04
1056.775, 10525.92
1057.880, 4467.039
1058.985, 2246.012
1060.089, 1485.632
1061.194, 1093.814
1062.298, 771.9194
1063.402, 627.0688
1064.506, 572.0825
1065.610, 468.9785
1066.713, 481.5547
1067.817, 297.6333
1068.920, 387.8931
1070.023, 299.6147
1071.126, 201.4858
1072.229, 328.6406
1073.332, 265.9619
1074.435, 235.9321
1075.537, 290.9150
1076.639, 229.5557
1077.741, 167.0283
1078.843, 411.4473
1079.945, 205.3252
1081.046, 385.1855
1082.148, 184.8467
1083.249, 218.6982
1084.350, 160.5039
1085.451, 183.4082
1086.551, 360.0986
1087.652, 265.8486
1088.752, 264.4590
1089.853, 265.0625
1090.953, 205.7607
1092.053, 240.5967
1093.152, 286.1221
1094.252, 266.7656
1095.351, 178.8086
1096.451, 269.1104
1097.550, 205.5527
1098.649, 223.9658
1099.748, 177.4336
1100.846, 264.9697
1101.945, 134.4893
1103.043, 280.7881
1104.141, 239.1436
1105.239, 63.35938
1106.337, 202.9258
1107.434, 296.8467
1108.532, 153.1289
1109.629, 199.3760
1110.726, 171.7510
1111.823, 205.1074
1112.920, 35.44824
1114.017, 165.7607
1115.113, 207.8379
1116.210, 43.11719
1117.306, 237.3750
1118.402, 175.6152
1119.498, 241.1016
1120.593, 292.3086
1121.689, 122.4990
1122.784, 108.6729
1123.879, 190.6689
1124.974, 123.8096
1126.069, 139.9336
1127.164, 170.0400
1128.259, 170.1318
1129.353, 55.20605
1130.447, 120.2617
1131.541, 117.1055
1132.635, 4.870117
1133.729, 38.11426
1134.822, 38.05859
1135.916, 52.99805
1137.009, 66.92188
1138.102, 137.6211
1139.195, 57.42578
1140.288, 114.8086
1141.380, 20.66797
1142.473, 28.11621
1143.565, 37.93359
1144.657, 113.7314
1145.749, 35.48535
1146.841, 53.24805
1147.932, 78.09375
1149.024, 5.451172
1150.115, 78.09668
1151.206, 18.69141
1152.297, 67.26367
1153.388, 73.82031
1154.479, 50.36426
1155.569, 8.106445
1156.659, 41.38672
1157.750, 106.8857
1158.839, 23.37598
1159.929, 69.84668
1161.019, 22.30566
1162.108, 23.25391
1163.198, 32.14746
1164.287, 6.467773
1165.376, 41.88672
1166.465, 107.2285
1167.553, 35.55664
1168.642, 88.87402
1169.730, 40.82129
1170.818, 10.56445
1171.906, 66.66406
1172.994, 112.8887
1174.082, 19.11914
1175.170, 9.665039
1176.257, 68.52441
1177.344, 26.29785
1178.431, 56.85547
1179.518, 155.0020
1180.605, 65.04004
1181.691, 30.07129
1182.778, 105.9062
1183.864, 23.95898
1184.950, 70.95801
1186.036, 10.86523
1187.122, 53.76172
1188.207, 21.35059
1189.292, 37.48926
1190.378, 30.66211
1191.463, 55.13281
1192.548, 16.91992
1193.632, 127.6982
1194.717, 22.46973
1195.801, 23.76660
1196.886, 6.028320
1197.970, 8.696289
1199.054, 37.58789
1200.137, 8.899414
1201.221, 53.77246
1202.305, 18.56055
1203.388, 3.912109
1204.471, 41.72461
1205.554, 2.355469
1206.637, 3.978516
1207.719, 87.59473
1208.802, 29.79297
1209.884, 37.79980
1210.966, 77.38574
1212.048, 148.9658
1213.130, 54.54199
1214.212, 82.11719
1215.293, 9.311523
1216.374, 65.27441
1217.456, 138.8584
1218.536, 75.43750
1219.617, 2.987305
1220.698, 33.58301
1221.778, 66.85156
1222.859, 25.31641
1223.939, 5.205078
1225.019, 17.27637
1226.099, 120.2334
1227.178, 27.74316
1228.258, 78.24805
1229.337, 30.75293
1230.417, 45.25586
1231.496, 171.7568
1232.574, 86.74609
1233.653, 89.71777
1234.732, 52.17871
1235.810, 31.21680
1236.888, 34.31445
