##NAMES=Cerussite
##RRUFFID=R050023
##IDEAL CHEMISTRY=Pb^2+^CO_3_
##LOCALITY=Mammoth - St Anthony mine, Tiger, Pinal County, Arizona, USA
##OWNER=RRUFF
##SOURCE=Eugene Schlepp
##DESCRIPTION=Prismatic white single crystals
##STATUS=The identification of this mineral has been confirmed by X-ray diffraction and chemical analysis
##URL=rruff.info/R050023
##MEASURED CHEMISTRY=Pb_1.00_CO_3_ ; CO_2_ not measured but estimated by difference and stoichiometry
##PIN_ID=L00263
##ORIENTATION=Laser parallel to -c* (0 0 -1). Fiducial mark perpendicular to laser is parallel to a [1 0 0]
54.275, 0.000
55.677, 1.842
57.079, 14.966
58.480, 9.529
59.882, 35.250
61.283, 25.209
62.683, 3.545
64.084, 19.584
65.484, 9.651
66.884, 11.818
68.284, 27.643
69.684, 75.905
71.083, 133.420
72.482, 203.036
73.881, 271.630
75.280, 316.100
76.678, 341.360
78.076, 372.337
79.474, 372.960
80.872, 406.169
82.270, 440.913
83.667, 449.142
85.064, 494.816
86.461, 508.899
87.858, 581.356
89.254, 649.159
90.650, 742.287
92.046, 800.721
93.442, 939.445
94.838, 1004.448
96.233, 1108.721
97.628, 1236.248
99.023, 1374.006
100.418, 1428.976
101.812, 1517.140
103.206, 1691.485
104.600, 1724.996
105.994, 1892.664
107.387, 2094.479
108.781, 2279.429
110.174, 2597.507
111.566, 2962.706
112.959, 3306.017
114.351, 3603.436
115.744, 3966.956
117.136, 4103.571
118.527, 4287.276
119.919, 4305.066
121.310, 4321.937
122.701, 4314.892
124.092, 4379.928
125.482, 4462.055
126.873, 4565.287
128.263, 4658.618
129.653, 4546.063
131.042, 4496.586
132.432, 4293.200
133.821, 3853.949
135.210, 3476.847
136.599, 3039.874
137.987, 2649.024
139.376, 2382.172
140.764, 2073.321
142.152, 1824.489
143.539, 1638.665
144.927, 1517.859
146.314, 1386.057
147.701, 1264.268
149.088, 1204.490
150.474, 1136.728
151.861, 1040.978
153.247, 1018.246
154.633, 923.528
156.018, 883.824
157.404, 895.135
158.789, 836.462
160.174, 811.801
161.559, 815.151
162.943, 788.514
164.327, 779.034
165.711, 756.279
167.095, 749.681
168.479, 747.094
169.862, 750.135
171.246, 759.954
172.628, 774.400
174.011, 797.857
175.394, 815.325
176.776, 836.802
178.158, 832.288
179.540, 880.784
180.922, 933.289
182.303, 918.801
183.684, 997.320
185.065, 1083.846
186.446, 1109.378
187.826, 1196.915
189.207, 1245.488
190.587, 1328.737
191.967, 1456.082
193.346, 1523.633
194.726, 1649.436
196.105, 1788.232
197.484, 1984.868
198.862, 2072.564
200.241, 2269.139
201.619, 2416.967
202.997, 2577.970
204.375, 2833.918
205.753, 2979.735
207.130, 3316.969
208.507, 3485.365
209.884, 3757.865
211.261, 3828.969
212.638, 3846.348
214.014, 3918.738
215.390, 3789.108
216.766, 3621.076
218.141, 3504.126
219.517, 3290.275
220.892, 3135.504
222.267, 2974.740
223.642, 2769.374
225.016, 2590.548
226.391, 2440.187
227.765, 2245.931
229.139, 2128.444
230.512, 1972.693
231.886, 1804.169
233.259, 1675.822
234.632, 1540.650
236.005, 1412.245
237.377, 1320.772
238.749, 1167.190
240.122, 1100.436
241.493, 1072.021
242.865, 962.327
244.237, 888.893
245.608, 851.571
246.979, 773.945
248.350, 739.445
249.720, 704.327
251.090, 613.700
252.461, 608.235
253.830, 576.891
255.200, 533.401
256.570, 491.007
257.939, 462.967
259.308, 431.280
260.677, 400.929
262.045, 382.524
263.414, 347.077
264.782, 322.599
266.150, 306.115
267.517, 282.695
268.885, 267.968
270.252, 256.832
271.619, 234.539
272.986, 237.115
274.353, 211.759
275.719, 213.386
277.085, 182.039
278.451, 187.638
279.817, 188.209
281.182, 170.846
282.548, 151.455
283.913, 168.098
285.278, 151.725
286.642, 141.352
288.007, 124.974
289.371, 94.595
290.735, 120.217
292.099, 82.846
293.462, 109.465
294.826, 100.088
296.189, 62.699
297.552, 70.319
298.914, 68.917
300.277, 64.576
301.639, 56.208
303.001, 56.784
304.363, 59.381
305.724, 38.042
307.086, 45.604
308.447, 51.180
309.808, 25.733
311.168, 20.280
312.529, 15.822
313.889, 15.364
315.249, 20.895
316.609, 7.421
317.969, 13.948
319.328, 15.462
320.687, 1.970
322.046, 1.502
323.405, 4.007
324.764, 6.908
326.122, 5.015
327.480, 5.563
328.838, 2.904
330.196, 3.363
331.553, 12.816
332.910, 7.738
334.267, 7.301
335.624, 19.872
336.981, 6.455
338.337, 17.046
339.693, 1.352
341.049, 4.258
342.405, 17.877
343.760, 0.491
345.116, 5.146
346.471, 16.748
347.826, 12.370
349.180, 11.030
350.535, 13.636
351.889, 7.248
353.243, 7.109
354.597, 3.421
355.950, 9.085
357.304, 5.288
358.657, 1.664
360.010, 9.069
361.362, 9.789
362.715, 12.566
364.067, 9.219
365.419, 20.929
366.771, 23.726
368.123, 9.512
369.474, 3.308
370.825, 29.153
372.176, 28.958
373.527, 17.860
374.877, 6.717
376.228, 17.584
377.578, 14.421
378.928, 10.354
380.277, 27.397
381.627, 30.102
382.976, 13.209
384.325, 13.257
385.674, 0.390
387.023, 7.401
388.371, 13.450
389.719, 12.622
391.067, 9.811
392.415, 11.093
393.762, 2.246
395.110, 3.362
396.457, 1.523
397.804, 15.452
399.150, 3.209
400.497, 6.969
401.843, 13.674
403.189, 6.409
404.535, 16.097
405.881, 9.752
407.226, 8.402
408.571, 19.991
409.916, 16.599
411.261, 7.202
412.605, 27.803
413.950, 20.362
415.294, 16.926
416.638, 25.456
417.981, 21.969
419.325, 20.432
420.668, 28.886
422.011, 21.323
423.354, 28.768
424.697, 34.192
426.039, 41.637
427.381, 47.049
428.723, 38.453
430.065, 40.841
431.406, 42.462
432.748, 30.555
434.089, 47.909
435.430, 38.219
436.770, 41.519
438.111, 39.868
439.451, 51.159
440.791, 61.466
442.131, 45.782
443.471, 54.090
444.810, 47.400
446.149, 52.673
447.488, 53.929
448.827, 56.194
450.166, 57.187
451.504, 57.920
452.842, 56.699
454.180, 59.841
455.518, 58.963
456.855, 62.073
458.193, 60.169
459.530, 65.253
460.867, 50.324
462.203, 56.382
463.540, 71.427
464.876, 63.460
466.212, 49.479
467.548, 76.485
468.883, 66.479
470.219, 82.460
471.554, 72.428
472.889, 77.383
474.224, 71.326
475.558, 78.256
476.892, 80.174
478.227, 72.079
479.561, 82.971
480.894, 81.850
482.228, 68.717
483.561, 83.547
484.894, 88.322
486.227, 83.011
487.559, 82.733
488.892, 88.424
490.224, 88.250
491.556, 83.085
492.888, 93.851
494.220, 85.393
495.551, 87.960
496.882, 84.872
498.213, 84.463
499.544, 83.846
500.874, 84.238
502.205, 80.819
503.535, 80.604
504.865, 75.259
506.194, 64.680
507.524, 65.375
508.853, 71.299
510.182, 55.262
511.511, 53.016
512.840, 57.126
514.168, 40.693
515.496, 56.954
516.824, 47.816
518.152, 46.344
519.480, 63.787
520.807, 55.519
522.134, 65.164
523.461, 39.593
524.788, 43.190
526.114, 52.011
527.441, 43.616
528.767, 42.108
530.093, 46.916
531.418, 36.294
532.744, 44.439
534.069, 32.228
535.394, 29.706
536.719, 23.487
538.044, 27.381
539.368, 37.539
540.693, 8.599
542.017, 31.437
543.340, 21.341
544.664, 28.218
545.987, 14.861
547.311, 16.517
548.634, 26.275
549.956, 25.023
551.279, 29.919
552.601, 20.737
553.923, 10.023
555.245, 8.199
556.567, 4.668
557.889, 16.654
559.210, 14.144
560.531, 18.793
561.852, 13.661
563.173, 17.232
564.493, 21.120
565.813, 18.783
567.133, 29.365
568.453, 22.280
569.773, 20.095
571.092, 16.551
572.412, 23.537
573.731, 19.380
575.049, 24.120
576.368, 25.023
577.686, 33.843
579.005, 32.612
580.323, 33.519
581.640, 28.275
582.958, 30.155
584.275, 22.085
585.593, 27.050
586.909, 26.028
588.226, 26.956
589.543, 33.888
590.859, 25.817
592.175, 25.617
593.491, 34.550
594.807, 32.420
596.122, 17.307
597.438, 28.168
598.753, 21.085
600.068, 16.030
601.382, 14.905
602.697, 11.837
604.011, 16.699
605.325, 17.578
606.639, 12.448
607.952, 25.318
609.266, 33.183
610.579, 32.043
611.892, 28.889
613.205, 48.739
614.518, 39.576
615.830, 60.418
617.142, 57.244
618.454, 53.083
619.766, 61.851
621.078, 72.636
622.389, 50.466
623.700, 69.264
625.011, 62.988
626.322, 70.800
627.632, 64.588
628.943, 62.388
630.253, 73.183
631.563, 76.972
632.872, 68.750
634.182, 72.527
635.491, 74.299
636.800, 64.059
638.109, 47.821
639.418, 28.577
640.726, 30.303
642.035, 29.052
643.343, 32.795
644.651, 29.534
645.958, 30.270
647.266, 16.001
648.573, 10.727
649.880, 33.447
651.187, 30.201
652.494, 15.913
653.800, 12.621
655.106, 6.328
656.412, 6.460
657.718, 6.687
659.024, 12.462
660.329, 16.156
661.634, 18.857
662.939, 33.547
664.244, 71.189
665.549, 130.840
666.853, 234.518
668.157, 337.129
669.461, 480.735
670.765, 693.358
672.069, 1022.855
673.372, 1131.472
674.675, 911.039
675.978, 508.589
677.281, 258.229
678.583, 143.836
679.886, 112.487
681.188, 83.996
682.490, 69.542
683.792, 34.156
685.093, 8.738
686.394, 19.316
687.696, 6.075
688.997, 10.477
690.297, 14.103
691.598, 7.659
692.898, 2.201
694.198, 13.685
695.498, 3.236
696.798, 1.872
698.097, 5.147
699.397, 1.209
700.696, 1.636
701.995, 1.019
703.293, 12.473
704.592, 0.931
705.890, 4.720
707.188, 4.375
708.486, 0.940
709.784, 10.708
711.081, 16.255
712.378, 8.786
713.675, 18.263
714.972, 23.901
716.269, 32.524
717.565, 38.189
718.862, 42.813
720.158, 42.470
721.453, 58.187
722.749, 67.858
724.045, 81.576
725.340, 72.293
726.635, 90.972
727.930, 102.650
729.224, 77.347
730.519, 76.110
731.813, 74.810
733.107, 66.542
734.401, 58.288
735.694, 60.371
736.988, 49.605
738.281, 50.905
739.574, 43.645
740.867, 46.382
742.160, 40.124
743.452, 42.128
744.744, 33.879
746.036, 36.642
747.328, 33.390
748.620, 30.547
749.911, 35.073
751.202, 24.244
752.493, 18.923
753.784, 22.688
755.075, 21.506
756.365, 26.183
757.655, 5.905
758.945, 29.555
760.235, 12.266
761.525, 28.941
762.814, 25.617
764.103, 25.378
765.392, 31.130
766.681, 24.884
767.969, 21.604
769.258, 30.323
770.546, 34.041
771.834, 31.757
773.122, 34.472
774.409, 33.187
775.697, 28.901
776.984, 36.614
778.271, 51.326
779.558, 28.037
780.844, 25.748
782.131, 30.458
783.417, 50.186
784.703, 34.894
785.989, 37.602
787.274, 25.309
788.560, 31.015
789.845, 32.720
791.130, 25.425
792.415, 30.376
793.699, 39.079
794.983, 24.782
796.268, 23.936
797.552, 34.665
798.835, 16.366
800.119, 24.162
801.402, 17.899
802.686, 14.563
803.969, 19.205
805.251, 2.923
806.534, 23.619
807.816, 12.304
809.098, 39.964
810.380, 4.617
811.662, 19.302
812.944, 14.976
814.225, 21.657
815.506, 10.880
816.787, 30.651
818.068, 20.343
819.349, 17.799
820.629, 40.517
821.909, 73.232
823.189, 90.270
824.469, 87.960
825.749, 64.993
827.028, 45.685
828.307, 73.374
829.586, 84.063
830.865, 129.771
832.144, 245.460
833.422, 443.148
834.700, 898.835
835.978, 1449.523
837.256, 1736.210
838.534, 1507.897
839.811, 973.549
841.088, 621.235
842.365, 378.691
843.642, 247.352
844.919, 184.029
846.195, 118.680
847.472, 85.308
848.748, 77.986
850.023, 76.623
851.299, 65.254
852.575, 40.902
853.850, 42.511
855.125, 34.115
856.400, 35.728
857.674, 29.856
858.949, 27.611
860.223, 22.120
861.497, 22.769
862.771, 21.386
864.045, 17.060
865.318, 22.746
866.591, 18.415
867.864, 26.101
869.137, 21.786
870.410, 20.471
871.682, 13.156
872.955, 16.841
874.227, 3.525
875.499, 20.210
876.770, 24.893
878.042, 5.578
879.313, 15.261
880.584, 9.943
881.855, 12.625
883.126, 0.695
884.396, 16.987
885.667, 5.669
886.937, 11.349
888.207, 4.971
889.476, 7.294
890.746, 8.622
892.015, 9.044
893.284, 1.710
894.553, 5.376
895.822, 3.957
897.090, 2.707
898.359, 6.370
899.627, 2.034
900.895, 6.303
902.163, 11.642
903.430, 5.988
904.698, 9.666
905.965, 15.682
907.232, 1.038
908.499, 8.605
909.765, 0.247
911.032, 9.713
912.298, 1.499
913.564, 10.135
914.830, 4.776
916.095, 0.416
917.361, 5.054
918.626, 4.232
919.891, 10.330
921.156, 11.966
922.420, 18.602
923.685, 25.236
924.949, 22.869
926.213, 30.501
927.477, 35.132
928.740, 18.761
930.004, 27.389
931.267, 15.016
932.530, 29.641
933.793, 41.265
935.056, 7.888
936.318, 31.509
937.581, 13.129
938.843, 22.748
940.104, 21.366
941.366, 25.982
942.628, 26.596
943.889, 1.790
945.150, 15.820
946.411, 24.429
947.672, 4.964
948.932, 5.638
950.193, 12.238
951.453, 0.838
952.713, 3.434
953.973, 13.030
955.232, 12.623
956.491, 7.216
957.751, 15.769
959.010, 7.359
960.268, 9.948
961.527, 5.535
962.785, 2.090
964.044, 2.675
965.302, 5.258
966.559, 6.161
967.817, 1.408
969.075, 19.981
970.332, 9.447
971.589, 5.117
972.846, 5.679
974.102, 2.760
975.359, 12.796
976.615, 2.649
977.871, 10.901
979.127, 11.450
980.383, 18.998
981.638, 6.544
982.893, 20.088
984.149, 25.632
985.404, 47.173
986.658, 34.714
987.913, 44.253
989.167, 41.791
990.421, 47.327
991.675, 39.862
992.929, 53.396
994.183, 46.929
995.436, 62.461
996.689, 61.992
997.942, 48.521
999.195, 57.050
1000.448, 55.024
1001.700, 67.550
1002.952, 57.075
1004.204, 59.672
1005.456, 67.194
1006.708, 60.715
1007.959, 72.235
1009.210, 67.756
1010.461, 72.276
1011.712, 52.247
1012.963, 70.764
1014.213, 91.280
1015.464, 75.982
1016.714, 71.496
1017.964, 95.008
1019.214, 86.518
1020.463, 84.027
1021.712, 110.831
1022.962, 132.337
1024.210, 146.842
1025.459, 137.648
1026.708, 164.150
1027.956, 222.062
1029.204, 385.532
1030.452, 534.029
1031.700, 447.514
1032.948, 307.008
1034.195, 260.195
1035.442, 252.686
1036.689, 282.147
1037.936, 344.017
1039.183, 413.405
1040.429, 480.395
1041.676, 512.298
1042.922, 632.001
1044.168, 833.063
1045.413, 1086.648
1046.659, 1555.105
1047.904, 2315.686
1049.149, 4033.717
1050.394, 9687.146
1051.639, 31557.010
1052.884, 65035.758
1054.128, 65035.941
1055.372, 45365.398
1056.616, 20024.131
1057.860, 9139.699
1059.104, 4729.146
1060.347, 2521.073
1061.590, 1428.751
1062.833, 954.160
1064.076, 718.846
1065.319, 569.270
1066.561, 456.660
1067.803, 401.585
1069.046, 334.002
1070.287, 305.443
1071.529, 282.056
1072.771, 257.502
1074.012, 201.947
1075.253, 196.391
1076.494, 187.833
1077.735, 161.273
1078.975, 180.713
1080.216, 147.151
1081.456, 158.587
1082.696, 128.022
1083.936, 109.456
1085.175, 100.871
1086.415, 94.302
1087.654, 121.732
1088.893, 126.161
1090.132, 122.589
1091.371, 134.015
1092.609, 117.440
1093.847, 107.617
1095.085, 121.039
1096.323, 107.461
1097.561, 118.429
1098.799, 125.821
1100.036, 110.239
1101.273, 110.559
1102.510, 119.938
1103.747, 117.352
1104.983, 132.766
1106.220, 93.158
1107.456, 106.569
1108.692, 99.961
1109.928, 77.362
1111.163, 86.743
1112.399, 89.093
1113.634, 68.454
1114.869, 65.831
1116.104, 62.682
1117.339, 62.995
1118.573, 61.566
1119.808, 62.228
1121.042, 57.407
1122.276, 63.782
1123.509, 55.832
1124.743, 51.230
1125.976, 54.995
1127.210, 47.678
1128.443, 57.073
1129.675, 54.468
1130.908, 50.842
1132.141, 50.766
1133.373, 44.005
1134.605, 41.021
1135.837, 30.412
1137.068, 21.802
1138.300, 12.192
1139.531, 36.582
1140.762, 45.970
1141.993, 13.358
1143.224, 33.746
1144.455, 28.132
1145.685, 26.519
1146.915, 16.904
1148.145, 4.711
1149.375, 5.670
1150.605, 17.050
1151.834, 1.429
1153.063, 24.807
1154.292, 7.185
1155.521, 22.562
1156.750, 23.939
1157.978, 13.315
1159.207, 5.309
1160.435, 5.062
1161.663, 7.433
1162.891, 1.196
1164.118, 4.172
1165.345, 10.541
1166.573, 10.908
1167.800, 14.276
1169.026, 3.357
1170.253, 18.007
1171.480, 8.371
1172.706, 4.265
1173.932, 5.095
1175.158, 5.544
1176.383, 7.812
1177.609, 5.168
1178.834, 5.525
1180.059, 14.881
1181.284, 11.763
1182.509, 21.587
1183.734, 13.937
1184.958, 5.713
1186.182, 3.367
1187.406, 4.979
1188.630, 10.327
1189.854, 3.323
1191.077, 9.974
1192.301, 1.630
1193.524, 4.288
1194.747, 1.947
1195.969, 9.606
1197.192, 1.729
1198.414, 13.935
1199.636, 0.604
1200.858, 19.270
1202.080, 17.057
1203.302, 5.616
1204.523, 4.287
1205.744, 2.041
1206.966, 9.631
1208.186, 4.306
1209.407, 3.018
1210.628, 4.658
1211.848, 13.665
1213.068, 11.990
1214.288, 9.684
1215.508, 11.638
1216.727, 3.962
1217.947, 3.713
1219.166, 26.611
1220.385, 11.937
1221.604, 12.264
1222.822, 13.592
1224.041, 14.921
1225.259, 12.253
1226.477, 5.587
1227.695, 24.922
1228.913, 13.260
1230.130, 5.599
1231.348, 23.940
1232.565, 22.283
1233.782, 14.628
1234.999, 24.972
1236.215, 21.317
1237.432, 0.663
1238.648, 20.008
1239.864, 23.354
1241.080, 46.702
1242.296, 29.050
1243.511, 28.399
1244.726, 34.750
1245.942, 36.101
1247.156, 21.453
1248.371, 35.806
1249.586, 32.160
1250.800, 20.514
1252.014, 45.869
1253.228, 34.225
1254.442, 31.581
1255.656, 43.938
1256.869, 46.296
1258.083, 40.655
1259.296, 56.014
1260.509, 52.375
1261.722, 59.736
1262.934, 69.601
1264.147, 88.467
1265.359, 77.834
1266.571, 81.205
1267.783, 62.577
1268.994, 72.070
1270.206, 92.326
1271.417, 91.702
1272.628, 94.082
1273.839, 116.462
1275.050, 97.843
1276.260, 103.226
1277.471, 104.610
1278.681, 125.995
1279.891, 138.382
1281.101, 133.769
1282.310, 128.159
1283.520, 125.549
1284.729, 167.941
1285.938, 164.335
1287.147, 178.730
1288.356, 173.127
1289.564, 190.525
1290.773, 200.926
1291.981, 201.328
1293.189, 208.732
1294.397, 231.691
1295.604, 233.099
1296.812, 273.510
1298.019, 265.848
1299.226, 281.263
1300.433, 289.680
1301.640, 325.100
1302.846, 329.522
1304.053, 361.946
1305.259, 357.921
1306.465, 383.349
1307.671, 404.780
1308.876, 425.026
1310.082, 447.462
1311.287, 495.901
1312.492, 459.342
1313.697, 547.785
1314.902, 512.935
1316.106, 538.384
1317.310, 566.837
1318.515, 555.952
1319.719, 571.410
1320.922, 588.460
1322.126, 605.926
1323.329, 615.394
1324.533, 625.866
1325.736, 620.342
1326.939, 636.042
1328.141, 649.526
1329.344, 635.013
1330.546, 696.118
1331.748, 641.366
1332.950, 712.866
1334.152, 707.371
1335.354, 731.645
1336.555, 734.532
1337.757, 749.915
1338.958, 776.163
1340.159, 829.546
1341.359, 837.499
1342.560, 873.039
1343.760, 934.743
1344.960, 948.230
1346.160, 1030.623
1347.360, 1123.188
1348.560, 1191.443
1349.759, 1357.781
1350.959, 1473.367
1352.158, 1600.429
1353.357, 1861.802
1354.555, 2046.412
1355.754, 2272.792
1356.952, 2577.548
1358.151, 2871.185
1359.349, 3193.329
1360.546, 3397.988
1361.744, 3610.657
1362.941, 3824.172
1364.139, 3779.866
1365.336, 3627.573
1366.533, 3552.293
1367.730, 3147.021
1368.926, 2847.765
1370.123, 2486.824
1371.319, 2143.600
1372.515, 1902.393
1373.711, 1686.208
1374.906, 1475.984
1376.102, 1317.744
1377.297, 1112.494
1378.492, 995.977
1379.687, 922.463
1380.882, 779.953
1382.077, 781.445
1383.271, 692.940
1384.465, 642.438
1385.659, 605.939
1386.853, 567.444
1388.047, 502.951
1389.240, 429.462
1390.434, 355.977
1391.627, 333.494
1392.820, 281.015
1394.013, 263.540
1395.205, 237.068
1396.398, 199.599
1397.590, 178.134
1398.782, 191.672
1399.974, 157.214
1401.166, 142.760
1402.357, 171.309
1403.549, 141.861
1404.740, 133.418
1405.931, 142.978
1407.122, 134.542
1408.313, 140.311
1409.503, 161.693
1410.693, 146.275
1411.883, 158.861
1413.073, 155.453
1414.263, 152.053
1415.453, 156.659
1416.642, 158.270
1417.831, 162.791
1419.020, 162.510
1420.209, 169.142
1421.398, 173.784
1422.587, 164.430
1423.775, 155.086
1424.963, 163.751
1426.151, 162.428
1427.339, 157.060
1428.526, 140.809
1429.714, 140.519
1430.901, 144.242
1432.088, 121.981
1433.275, 119.874
1434.462, 121.517
1435.648, 108.304
1436.835, 94.107
1438.021, 110.920
1439.207, 70.737
1440.393, 61.567
1441.579, 88.403
1442.764, 54.244
1443.949, 45.088
1445.135, 57.931
1446.320, 51.773
1447.504, 49.615
1448.689, 61.457
1449.873, 47.310
1451.058, 40.175
1452.242, 54.054
1453.426, 43.947
1454.609, 50.853
1455.793, 46.775
1456.976, 39.711
1458.159, 39.664
1459.342, 35.633
1460.525, 43.619
1461.708, 41.419
1462.890, 51.645
1464.073, 42.687
1465.255, 51.748
1466.437, 50.831
1467.619, 41.935
1468.800, 48.827
1469.982, 48.591
1471.163, 53.385
1472.344, 55.584
1473.525, 60.808
1474.706, 62.060
1475.886, 32.338
1477.066, 45.644
1478.247, 41.977
1479.427, 34.339
1480.607, 49.731
1481.786, 53.155
1482.966, 46.515
1484.145, 34.111
1485.324, 36.650
1486.503, 33.233
1487.682, 33.863
1488.860, 13.542
1490.039, 19.273
1491.217, 20.060
1492.395, 4.907
1493.573, 28.816
1494.751, 21.792
1495.928, 4.841
1497.106, 20.967
1498.283, 5.823
1499.460, 11.477
1500.637, 11.878
1501.814, 0.389
1502.990, 21.020
1504.166, 19.784
1505.342, 21.695
1506.518, 9.770
1507.694, 8.028
1508.870, 24.696
1510.045, 34.159
1511.221, 2.181
1512.396, 8.679
1513.571, 40.712
1514.745, 21.421
1515.920, 35.253
1517.094, 7.495
1518.269, 0.000
##END=



