##NAMES=Cerussite
##RRUFFID=R060017
##IDEAL CHEMISTRY=Pb^2+^CO_3_
##LOCALITY=Gonessa, Sardinia, Italy
##OWNER=RRUFF
##SOURCE=American Museum of Natural History
##DESCRIPTION=White reticulated composite
##STATUS=The identification of this mineral has been confirmed by X-ray diffraction and chemical analysis
##URL=rruff.info/R060017
##MEASURED CHEMISTRY=Pb_1.00_CO_3_ C not measured but estimated by difference and stoichiometry
##PIN_ID=M00430
##ORIENTATION=Laser parallel to c* (0 0 1). Fiducial mark perpendicular to laser is parallel to a [1 0 0]
51.43100, 0.0000000E+00
52.67100, 110.7479
53.91000, 150.6195
55.14900, 158.4220
56.38700, 22.06750
57.62600, 99.85315
58.86400, 135.0999
60.10300, 618.5286
61.34100, 1436.462
62.57900, 2660.850
63.81700, 3842.276
65.05400, 5387.801
66.29200, 6892.855
67.52900, 8629.153
68.76700, 9696.650
70.00400, 10336.48
71.24100, 10307.91
72.47700, 9883.264
73.71400, 9007.970
74.95100, 8268.513
76.18700, 7404.459
77.42300, 6701.422
78.65900, 6377.066
79.89500, 5864.099
81.13100, 5663.268
82.36700, 5700.365
83.60200, 5682.206
84.83700, 5822.642
86.07200, 6250.531
87.30800, 6458.743
88.54200, 7013.158
89.77700, 7826.583
91.01200, 8349.822
92.24600, 8892.720
93.48000, 9589.151
94.71400, 9976.020
95.94800, 10574.24
97.18200, 11052.75
98.41600, 11236.48
99.64900, 11534.35
100.8830, 11734.32
102.1160, 11585.32
103.3490, 11391.31
104.5820, 11016.25
105.8150, 10859.09
107.0470, 10634.80
108.2800, 10301.34
109.5120, 10284.75
110.7440, 10085.03
111.9760, 10205.17
113.2080, 10157.14
114.4400, 10175.90
115.6710, 10159.65
116.9030, 10138.21
118.1340, 9791.626
119.3650, 9666.824
120.5960, 9299.783
121.8270, 9112.591
123.0580, 8590.115
124.2880, 8416.326
125.5190, 8107.980
126.7490, 7965.432
127.9790, 7887.724
129.2090, 7747.990
130.4390, 7620.563
131.6680, 7437.654
132.8980, 7352.157
134.1270, 7003.839
135.3560, 6854.749
136.5850, 6547.911
137.8140, 6361.412
139.0430, 6164.268
140.2710, 5992.421
141.5000, 5841.802
142.7280, 5618.426
143.9560, 5490.662
145.1840, 5468.448
146.4120, 5190.821
147.6390, 5082.482
148.8670, 4913.373
150.0940, 4537.483
151.3210, 4346.804
152.5490, 3939.339
153.7750, 3821.094
155.0020, 3418.062
156.2290, 3222.249
157.4550, 2961.692
158.6810, 2842.379
159.9080, 2765.285
161.1340, 2688.391
162.3590, 2659.679
163.5850, 2634.933
164.8110, 2636.805
166.0360, 2641.234
167.2610, 2681.460
168.4860, 2701.875
169.7110, 2738.491
170.9360, 2816.300
172.1610, 2835.050
173.3850, 2838.528
174.6100, 2805.143
175.8340, 2649.924
177.0580, 2657.897
178.2820, 2470.978
179.5050, 2435.771
180.7290, 2380.751
181.9520, 2354.703
183.1760, 2361.530
184.3990, 2321.570
185.6220, 2353.993
186.8450, 2312.450
188.0670, 2328.475
189.2900, 2387.655
190.5120, 2549.239
191.7340, 2546.778
192.9560, 2536.184
194.1780, 2788.702
195.4000, 2905.054
196.6220, 3266.563
197.8430, 3165.405
199.0640, 3442.450
200.2860, 3538.370
201.5070, 3735.224
202.7270, 3872.767
203.9480, 4018.868
205.1690, 4121.237
206.3890, 4275.949
207.6090, 4360.620
208.8290, 4514.897
210.0490, 4541.123
211.2690, 4651.749
212.4890, 4673.385
213.7080, 4497.172
214.9280, 4438.237
216.1470, 4442.785
217.3660, 4316.034
218.5850, 4190.908
219.8030, 4041.705
221.0220, 3895.083
222.2400, 3747.799
223.4590, 3573.894
224.6770, 3377.072
225.8950, 3198.367
227.1120, 3010.560
228.3300, 2890.564
229.5480, 2632.846
230.7650, 2437.918
231.9820, 2243.657
233.1990, 2146.243
234.4160, 1975.112
235.6330, 1849.431
236.8490, 1804.291
238.0660, 1606.620
239.2820, 1428.242
240.4980, 1237.654
241.7140, 1187.982
242.9300, 1119.662
244.1460, 1092.803
245.3610, 1017.258
246.5770, 965.6895
247.7920, 879.6309
249.0070, 805.5879
250.2220, 656.7192
251.4370, 666.7881
252.6510, 491.8120
253.8660, 464.9746
255.0800, 437.6245
256.2940, 306.9575
257.5080, 395.3828
258.7220, 230.6904
259.9360, 251.6870
261.1490, 246.5068
262.3630, 236.5654
263.5760, 211.7515
264.7890, 150.2480
266.0020, 126.5586
267.2150, 121.4980
268.4270, 69.09863
269.6400, 115.2246
270.8520, 104.3994
272.0640, 66.62500
273.2760, 170.9053
274.4880, 36.60059
275.7000, 69.16602
276.9120, 42.26074
278.1230, 32.44775
279.3340, 8.009277
280.5450, 128.1851
281.7560, 63.22461
282.9670, 19.22021
284.1780, 66.61572
285.3880, 35.60938
286.5980, 44.43262
287.8090, 13.10596
289.0190, 91.30078
290.2290, 30.38623
291.4380, 161.1030
292.6480, 36.79199
293.8570, 52.15527
295.0670, 37.71582
296.2760, 104.9287
297.4850, 66.98193
298.6930, 4.947266
299.9020, 117.9614
301.1110, 4.020508
302.3190, 170.4224
303.5270, 145.2324
304.7350, 55.92773
305.9430, 127.9390
307.1510, 97.02441
308.3580, 49.04492
309.5660, 84.73193
310.7730, 93.63330
311.9800, 100.4961
313.1870, 108.2441
314.3940, 5.006836
315.6010, 112.0908
316.8070, 118.4912
318.0130, 19.03955
319.2200, 89.06104
320.4260, 120.8223
321.6310, 79.02490
322.8370, 3.615723
324.0430, 81.92920
325.2480, 121.0225
326.4540, 146.1187
327.6590, 74.62646
328.8640, 81.19629
330.0680, 52.81689
331.2730, 38.48633
332.4780, 63.21924
333.6820, 86.99756
334.8860, 105.8545
336.0900, 72.79883
337.2940, 30.80908
338.4980, 67.27686
339.7010, 10.42041
340.9050, 47.65430
342.1080, 67.94922
343.3110, 17.65283
344.5140, 23.06689
345.7170, 29.15332
346.9200, 58.97021
348.1220, 26.15527
349.3240, 61.24854
350.5270, 23.32764
351.7290, 47.60254
352.9310, 60.56934
354.1320, 14.43896
355.3340, 74.54932
356.5350, 8.674805
357.7370, 91.68555
358.9380, 10.28564
360.1390, 62.73193
361.3400, 27.25195
362.5400, 96.73145
363.7410, 1.721680
364.9410, 19.75977
366.1410, 12.80273
367.3410, 49.91895
368.5410, 24.76221
369.7410, 18.80420
370.9400, 37.00342
372.1400, 35.69678
373.3390, 106.3579
374.5380, 174.7109
375.7370, 78.35059
376.9360, 63.96631
378.1350, 40.22266
379.3330, 127.1387
380.5310, 114.6636
381.7300, 178.3594
382.9280, 75.88232
384.1260, 123.9282
385.3230, 24.87598
386.5210, 132.3208
387.7180, 207.6592
388.9160, 119.6738
390.1130, 185.9585
391.3100, 223.1494
392.5060, 230.5225
393.7030, 251.4287
394.9000, 183.3794
396.0960, 222.5415
397.2920, 203.8105
398.4880, 133.2490
399.6840, 263.9058
400.8800, 293.9468
402.0750, 167.9927
403.2710, 192.0532
404.4660, 95.28955
405.6610, 120.5483
406.8560, 121.8169
408.0510, 192.4082
409.2450, 159.7046
410.4400, 181.5552
411.6340, 205.4580
412.8280, 272.2285
414.0220, 267.0117
415.2160, 284.2695
416.4100, 290.7310
417.6030, 230.6016
418.7970, 247.7563
419.9900, 216.2554
421.1830, 170.6724
422.3760, 207.6377
423.5690, 252.1479
424.7610, 243.9287
425.9540, 176.6187
427.1460, 237.9751
428.3380, 200.5366
429.5300, 245.9233
430.7220, 239.8091
431.9140, 304.0850
433.1050, 185.4067
434.2970, 241.2651
435.4880, 132.8779
436.6790, 236.2515
437.8700, 251.3267
439.0610, 234.4385
440.2510, 320.5449
441.4420, 293.7422
442.6320, 150.2622
443.8220, 322.5146
445.0120, 203.9746
446.2020, 277.8818
447.3910, 265.5981
448.5810, 316.0303
449.7700, 226.3066
450.9600, 310.9424
452.1490, 264.8047
453.3370, 282.2139
454.5260, 276.9331
455.7150, 264.2656
456.9030, 261.9834
458.0910, 315.0107
459.2800, 232.7378
460.4670, 235.8047
461.6550, 204.6602
462.8430, 247.7920
464.0300, 286.2339
465.2180, 224.5625
466.4050, 288.7144
467.5920, 253.6499
468.7790, 245.3306
469.9650, 284.5698
471.1520, 290.2085
472.3380, 281.3569
473.5250, 293.7939
474.7110, 296.5757
475.8970, 285.1187
477.0820, 291.3018
478.2680, 285.3804
479.4540, 258.9585
480.6390, 196.4897
481.8240, 265.0298
483.0090, 116.2505
484.1940, 164.4604
485.3780, 183.4946
486.5630, 249.9077
487.7470, 256.0557
488.9320, 205.6040
490.1160, 281.4624
491.3000, 262.8696
492.4830, 318.2598
493.6670, 308.7217
494.8500, 238.7490
496.0340, 266.2012
497.2170, 297.4556
498.4000, 220.9888
499.5820, 294.1318
500.7650, 249.6919
501.9480, 236.5000
503.1300, 374.3076
504.3120, 312.8618
505.4940, 238.2056
506.6760, 164.0107
507.8580, 221.4897
509.0390, 292.1816
510.2210, 137.6978
511.4020, 71.42334
512.5830, 191.3008
513.7640, 274.8999
514.9450, 292.2520
516.1250, 123.8760
517.3060, 214.9341
518.4860, 251.5283
519.6660, 123.4673
520.8460, 147.3008
522.0260, 238.8652
523.2060, 168.0503
524.3850, 93.92334
525.5650, 123.6421
526.7440, 128.7036
527.9230, 178.9756
529.1020, 211.0171
530.2810, 109.7124
531.4590, 223.2007
532.6380, 90.81934
533.8160, 166.4106
534.9940, 184.9692
536.1720, 134.4971
537.3500, 245.8384
538.5270, 166.3027
539.7050, 141.7031
540.8820, 112.6855
542.0590, 237.0493
543.2360, 188.3828
544.4130, 174.8916
545.5900, 141.7651
546.7660, 128.8662
547.9430, 75.76807
549.1190, 134.5815
550.2950, 103.1206
551.4710, 147.5659
552.6470, 135.0322
553.8220, 145.5508
554.9980, 119.5664
556.1730, 42.55078
557.3480, 27.49316
558.5230, 47.44092
559.6980, 81.88574
560.8730, 156.5254
562.0470, 164.7798
563.2220, 286.7300
564.3960, 43.55029
565.5700, 217.9946
566.7440, 106.3193
567.9170, 122.1719
569.0910, 92.59619
570.2640, 66.90869
571.4380, 87.05615
572.6110, 30.06152
573.7840, 44.58789
574.9570, 209.2339
576.1290, 199.0615
577.3020, 118.0991
578.4740, 31.81250
579.6460, 141.7280
580.8180, 154.2969
581.9900, 175.7051
583.1620, 127.0244
584.3330, 176.3892
585.5040, 128.7549
586.6760, 115.8643
587.8470, 140.6860
589.0180, 63.71045
590.1880, 105.0396
591.3590, 70.43262
592.5290, 155.7495
593.7000, 30.72168
594.8700, 40.89160
596.0400, 37.00244
597.2090, 168.4102
598.3790, 154.3887
599.5490, 84.86816
600.7180, 149.4316
601.8870, 31.19824
603.0560, 113.3105
604.2250, 180.1255
605.3940, 96.35254
606.5620, 152.2080
607.7300, 79.43213
608.8990, 131.5244
610.0670, 208.9546
611.2350, 227.2246
612.4020, 133.4980
613.5700, 221.7720
614.7370, 197.0527
615.9050, 227.3306
617.0720, 199.6104
618.2390, 222.5327
619.4060, 208.8315
620.5720, 223.1499
621.7390, 203.9272
622.9050, 312.8804
624.0710, 305.3779
625.2370, 279.7393
626.4030, 305.2856
627.5690, 203.0801
628.7340, 274.4023
629.9000, 230.4180
631.0650, 197.7319
632.2300, 206.0479
633.3950, 228.3745
634.5600, 222.7085
635.7240, 200.0269
636.8890, 232.4111
638.0530, 150.7261
639.2170, 149.9170
640.3810, 109.2231
641.5450, 116.5171
642.7080, 235.8096
643.8720, 169.1050
645.0350, 262.5283
646.1980, 90.81738
647.3610, 86.55664
648.5240, 103.0635
649.6870, 166.3774
650.8490, 138.3506
652.0120, 142.4897
653.1740, 73.24219
654.3360, 100.6035
655.4980, 143.9668
656.6600, 122.8750
657.8210, 173.2334
658.9830, 306.5908
660.1440, 377.2783
661.3050, 393.1748
662.4660, 370.7539
663.6270, 568.8047
664.7870, 849.3076
665.9480, 870.1250
667.1080, 778.9814
668.2680, 957.2598
669.4280, 917.6123
670.5880, 888.3086
671.7480, 980.3398
672.9070, 889.4727
674.0670, 964.9893
675.2260, 780.4961
676.3850, 812.6904
677.5440, 743.9922
678.7030, 760.1543
679.8610, 743.1123
681.0200, 588.8115
682.1780, 509.0908
683.3360, 453.3350
684.4940, 258.5225
685.6520, 157.4961
686.8090, 231.3955
687.9670, 146.7109
689.1240, 163.7070
690.2810, 264.4307
691.4380, 165.5566
692.5950, 225.5869
693.7520, 204.7090
694.9080, 179.6152
696.0650, 134.3350
697.2210, 172.6475
698.3770, 121.5117
699.5330, 92.04883
700.6880, 38.20117
701.8440, 153.3906
702.9990, 69.63672
704.1550, 128.5361
705.3100, 74.77930
706.4650, 147.6416
707.6190, 16.66113
708.7740, 100.4404
709.9290, 69.90430
711.0830, 117.7100
712.2370, 157.4756
713.3910, 154.5811
714.5450, 53.96289
715.6980, 66.58496
716.8520, 87.68164
718.0050, 143.0938
719.1580, 140.3008
720.3110, 152.5898
721.4640, 148.1279
722.6170, 147.0059
723.7700, 126.5508
724.9220, 123.9180
726.0740, 145.0625
727.2260, 146.3496
728.3780, 100.1172
729.5300, 150.2236
730.6810, 168.1973
731.8330, 219.4492
732.9840, 168.7568
734.1350, 103.2471
735.2860, 1.824219
736.4370, 139.4189
737.5880, 21.91602
738.7380, 234.9609
739.8880, 34.19727
741.0390, 110.6816
742.1890, 112.8672
743.3380, 61.10449
744.4880, 11.23145
745.6380, 129.4727
746.7870, 27.53516
747.9360, 8.222656
749.0850, 85.07520
750.2340, 52.30859
751.3830, 145.6455
752.5310, 88.56055
753.6800, 102.1182
754.8280, 159.4336
755.9760, 12.34863
757.1240, 91.85938
758.2720, 127.3242
759.4190, 44.52441
760.5670, 11.22168
761.7140, 29.02930
762.8610, 123.2207
764.0080, 17.04883
765.1550, 3.865234
766.3020, 89.31055
767.4480, 81.84961
768.5950, 119.3750
769.7410, 71.59570
770.8870, 138.8311
772.0330, 155.9512
773.1780, 113.1025
774.3240, 43.25000
775.4690, 135.4639
776.6140, 105.8320
777.7590, 195.6504
778.9040, 132.8818
780.0490, 71.00879
781.1940, 60.13184
782.3380, 32.43750
783.4820, 129.5508
784.6260, 197.6592
785.7700, 17.79785
786.9140, 112.8984
788.0580, 3.996094
789.2010, 157.0889
790.3450, 43.18652
791.4880, 127.6826
792.6310, 102.7705
793.7730, 44.05469
794.9160, 102.9375
796.0590, 148.9219
797.2010, 100.1455
798.3430, 52.80566
799.4850, 21.32227
800.6270, 35.80469
801.7690, 26.50195
802.9100, 52.75684
804.0520, 60.15039
805.1930, 85.45312
806.3340, 192.4990
807.4750, 57.01367
808.6160, 11.01465
809.7560, 103.9453
810.8970, 55.90430
812.0370, 19.85840
813.1770, 14.80566
814.3170, 80.02246
815.4570, 99.01953
816.5960, 142.2178
817.7360, 132.2959
818.8750, 86.34082
820.0140, 104.2969
821.1530, 216.2188
822.2920, 130.1553
823.4310, 184.0693
824.5690, 155.9785
825.7070, 284.9316
826.8460, 240.8369
827.9840, 433.1436
829.1220, 768.1328
830.2590, 1085.155
831.3970, 961.0664
832.5340, 1218.069
833.6710, 1247.084
834.8080, 1289.988
835.9450, 1333.022
837.0820, 1086.913
838.2190, 1027.673
839.3550, 754.5635
840.4910, 415.4492
841.6270, 413.3350
842.7630, 236.2148
843.8990, 190.0947
845.0350, 144.8701
846.1700, 261.7402
847.3060, 62.60742
848.4410, 119.4580
849.5760, 134.3232
850.7100, 42.18652
851.8450, 23.95703
852.9800, 105.8809
854.1140, 40.24023
855.2480, 242.7959
856.3820, 120.6006
857.5160, 120.3994
858.6500, 66.19336
859.7830, 16.97949
860.9170, 33.29785
862.0500, 78.69922
863.1830, 68.48535
864.3160, 91.26758
865.4480, 147.0449
866.5810, 53.81543
867.7130, 149.6025
868.8460, 109.5645
869.9780, 94.57715
871.1100, 103.6465
872.2410, 104.7861
873.3730, 21.49707
874.5050, 177.9941
875.6360, 109.7842
876.7670, 63.40039
877.8980, 130.3242
879.0290, 142.0273
880.1590, 101.4756
881.2900, 80.88672
882.4200, 91.36035
883.5500, 151.2539
884.6800, 69.40332
885.8100, 146.0645
886.9400, 58.99609
888.0690, 24.35938
889.1990, 16.26172
890.3280, 61.87305
891.4570, 154.4746
892.5860, 86.43359
893.7140, 48.97949
894.8430, 102.5713
895.9710, 72.06055
897.1000, 69.96191
898.2280, 94.36328
899.3560, 21.09961
900.4830, 133.5801
901.6110, 174.6572
902.7380, 12.18652
903.8660, 13.70605
904.9930, 72.21387
906.1200, 67.71289
907.2460, 10.79004
908.3730, 175.6895
909.5000, 197.1895
910.6260, 69.61230
911.7520, 32.09863
912.8780, 4.425781
914.0040, 63.04980
915.1290, 152.5156
916.2550, 166.9922
917.3800, 43.46289
918.5050, 140.8115
919.6300, 119.2734
920.7550, 79.72656
921.8800, 101.9473
923.0040, 121.4004
924.1290, 168.4941
925.2530, 163.3789
926.3770, 6.274414
927.5010, 126.6865
928.6250, 68.09082
929.7480, 40.77344
930.8720, 8.415039
931.9950, 47.92578
933.1180, 108.2666
934.2410, 61.69141
935.3640, 24.21387
936.4860, 18.19434
937.6090, 24.28516
938.7310, 7.493164
939.8530, 18.25293
940.9750, 70.99414
942.0970, 0.7548830
943.2180, 136.4531
944.3400, 140.0088
945.4610, 115.2510
946.5820, 120.4717
947.7030, 97.31543
948.8240, 24.46582
949.9450, 73.72461
951.0650, 25.97266
952.1860, 53.20801
953.3060, 60.55273
954.4260, 9.354492
955.5460, 103.1504
956.6650, 86.33301
957.7850, 151.5098
958.9040, 182.6943
960.0230, 80.90039
961.1420, 262.0645
962.2610, 12.35742
963.3800, 70.49805
964.4990, 61.62598
965.6170, 87.76465
966.7350, 64.91797
967.8530, 62.90137
968.9710, 90.13281
970.0890, 59.24512
971.2070, 132.3447
972.3240, 181.4326
973.4410, 156.7910
974.5580, 163.9316
975.6750, 215.1660
976.7920, 111.2090
977.9090, 96.24121
979.0250, 53.40332
980.1410, 163.5508
981.2580, 124.5479
982.3740, 3.514648
983.4890, 209.5527
984.6050, 125.5059
985.7200, 230.4121
986.8360, 200.9609
987.9510, 86.87793
989.0660, 42.37793
990.1810, 246.2676
991.2950, 191.1445
992.4100, 175.0098
993.5240, 143.9766
994.6390, 61.53418
995.7530, 206.5361
996.8660, 122.3887
997.9800, 201.1553
999.0940, 207.1328
1000.207, 110.9111
1001.320, 125.7324
1002.433, 63.48633
1003.546, 51.40820
1004.659, 223.3008
1005.772, 68.52441
1006.884, 124.2227
1007.996, 219.6914
1009.108, 89.99609
1010.220, 159.6602
1011.332, 55.24023
1012.444, 149.3125
1013.555, 9.976563
1014.666, 239.7842
1015.777, 115.4736
1016.888, 15.96289
1017.999, 182.5684
1019.110, 122.0303
1020.220, 41.53711
1021.331, 190.9229
1022.441, 272.7832
1023.551, 307.9141
1024.661, 376.2695
1025.770, 405.7061
1026.880, 322.3184
1027.989, 607.5596
1029.098, 427.9668
1030.207, 492.2979
1031.316, 263.0850
1032.425, 468.4473
1033.533, 495.2598
1034.642, 478.1738
1035.750, 306.5010
1036.858, 480.4463
1037.966, 801.4453
1039.073, 769.8301
1040.181, 1039.155
1041.288, 1402.448
1042.396, 2051.605
1043.503, 3466.586
1044.610, 7035.727
1045.716, 15970.86
1046.823, 33049.52
1047.929, 41349.59
1049.036, 39262.39
1050.142, 44165.13
1051.248, 47742.18
1052.353, 47111.31
1053.459, 41646.39
1054.564, 32150.39
1055.670, 19600.43
1056.775, 9323.527
1057.880, 4076.562
1058.985, 1973.582
1060.089, 1380.142
1061.194, 916.1416
1062.298, 806.0215
1063.402, 515.1494
1064.506, 609.2822
1065.610, 402.1729
1066.713, 354.0947
1067.817, 345.9082
1068.920, 349.9541
1070.023, 356.5381
1071.126, 333.1582
1072.229, 224.2002
1073.332, 171.8262
1074.435, 132.5977
1075.537, 232.0684
1076.639, 292.8760
1077.741, 175.6719
1078.843, 287.7148
1079.945, 294.4795
1081.046, 271.2285
1082.148, 272.9844
1083.249, 272.6416
1084.350, 275.0762
1085.451, 163.6133
1086.551, 287.1641
1087.652, 21.78320
1088.752, 348.4082
1089.853, 214.6270
1090.953, 285.6328
1092.053, 131.2100
1093.152, 316.7266
1094.252, 104.2705
1095.351, 196.3955
1096.451, 255.8154
1097.550, 139.5752
1098.649, 133.0342
1099.748, 187.3789
1100.846, 240.6982
1101.945, 372.0215
1103.043, 295.2920
1104.141, 165.6875
1105.239, 8.068359
1106.337, 122.4111
1107.434, 96.73730
1108.532, 182.0449
1109.629, 152.3369
1110.726, 103.6104
1111.823, 103.6855
1112.920, 208.9277
1114.017, 189.1533
1115.113, 109.3760
1116.210, 185.5684
1117.306, 107.7441
1118.402, 250.9053
1119.498, 200.0566
1120.593, 166.1465
1121.689, 324.0527
1122.784, 298.1680
1123.879, 207.2676
1124.974, 90.35156
1126.069, 169.4189
1127.164, 45.57812
1128.259, 116.4150
1129.353, 242.3916
1130.447, 79.35449
1131.541, 144.2998
1132.635, 43.76953
1133.729, 148.1016
1134.822, 50.77832
1135.916, 175.3838
1137.009, 145.2080
1138.102, 229.9062
1139.195, 106.7295
1140.288, 53.36328
1141.380, 113.3135
1142.473, 143.0449
1143.565, 41.54492
1144.657, 89.24512
1145.749, 68.17773
1146.841, 80.84668
1147.932, 114.2617
1149.024, 188.9961
1150.115, 135.6211
1151.206, 215.2363
1152.297, 154.5557
1153.388, 83.14453
1154.479, 149.7256
1155.569, 154.2959
1156.659, 116.9033
1157.750, 51.39941
1158.839, 72.92969
1159.929, 91.46191
1161.019, 96.98047
1162.108, 43.51367
1163.198, 132.9434
1164.287, 90.38672
1165.376, 94.17480
1166.465, 183.1855
1167.553, 88.53613
1168.642, 69.87598
1169.730, 45.20410
1170.818, 6.520508
1171.906, 136.8154
1172.994, 86.89746
1174.082, 12.31934
1175.170, 154.5176
1176.257, 35.70508
1177.344, 29.11914
1178.431, 146.0225
1179.518, 53.84668
1180.605, 5.767578
1181.691, 1.287109
1182.778, 94.32031
1183.864, 76.34375
1184.950, 29.64160
1186.036, 1.336914
1187.122, 48.29395
1188.207, 60.24219
1189.292, 79.18164
1190.378, 121.1113
1191.463, 51.03516
1192.548, 190.9492
1193.632, 28.85449
1194.717, 22.76465
1195.801, 22.33105
1196.886, 108.5449
1197.970, 60.41406
1199.054, 117.2744
1200.137, 56.13574
1201.221, 69.99023
1202.305, 49.16211
1203.388, 14.64746
1204.471, 151.4512
1205.554, 60.75293
1206.637, 38.00000
1207.719, 11.25391
1208.802, 159.5244
1209.884, 145.1084
1210.966, 104.7354
1212.048, 50.64355
1213.130, 88.94141
1214.212, 57.51953
1215.293, 71.09375
1216.374, 61.66309
1217.456, 157.2246
1218.536, 54.47559
1219.617, 10.96777
1220.698, 74.42383
1221.778, 115.0762
1222.859, 232.5400
1223.939, 53.02930
1225.019, 127.3750
1226.099, 74.85645
1227.178, 78.66504
1228.258, 16.76758
1229.337, 117.1719
1230.417, 92.60059
1231.496, 89.97559
1232.574, 45.40234
1233.653, 52.77539
1234.732, 83.14746
1235.810, 189.2363
1236.888, 201.5283
