##NAMES=Cerussite
##RRUFFID=R050023
##IDEAL CHEMISTRY=Pb^2+^CO_3_
##LOCALITY=Mammoth - St Anthony mine, Tiger, Pinal County, Arizona, USA
##OWNER=RRUFF
##SOURCE=Eugene Schlepp
##DESCRIPTION=Prismatic white single crystals
##STATUS=The identification of this mineral has been confirmed by X-ray diffraction and chemical analysis
##URL=rruff.info/R050023
##MEASURED CHEMISTRY=Pb_1.00_CO_3_ ; CO_2_ not measured but estimated by difference and stoichiometry
##PIN_ID=L00220
##ORIENTATION=Laser parallel to b* (0 1 0). Fiducial mark perpendicular to laser is parallel to c [0 0 1]
54.534, 0.000
55.942, 12.639
57.350, 17.352
58.758, 28.764
60.165, 18.138
61.572, 55.863
62.979, 38.707
64.386, 18.213
65.792, 8.987
67.198, 11.972
68.604, 22.794
70.010, 3.601
71.415, 41.499
72.820, 91.415
74.225, 114.070
75.630, 145.399
77.034, 134.345
78.438, 163.852
79.842, 177.870
81.246, 227.352
82.649, 267.259
84.053, 369.553
85.455, 464.204
86.858, 590.182
88.260, 818.464
89.663, 1002.034
91.065, 1498.877
92.466, 1841.981
93.868, 2624.339
95.269, 3598.937
96.670, 4968.764
98.070, 6971.797
99.471, 8985.018
100.871, 11874.409
102.271, 13273.954
103.670, 13543.645
105.070, 12313.468
106.469, 10063.418
107.868, 8325.485
109.267, 6474.664
110.665, 5454.943
112.063, 4475.320
113.461, 3951.789
114.859, 3720.343
116.256, 3490.978
117.653, 3393.692
119.050, 3256.481
120.447, 3290.348
121.843, 3192.323
123.240, 3426.380
124.636, 3498.544
126.031, 3733.811
127.427, 4062.161
128.822, 4277.616
130.217, 4616.201
131.612, 4720.901
133.006, 4830.710
134.400, 4678.598
135.794, 4666.549
137.188, 4632.552
138.581, 4532.577
139.975, 4813.600
141.368, 4859.620
142.760, 5179.631
144.153, 5460.658
145.545, 5707.656
146.937, 5997.644
148.329, 5787.642
149.720, 5989.651
151.112, 5532.676
152.503, 5343.736
153.893, 4798.811
155.284, 4335.893
156.674, 3902.986
158.064, 3369.087
159.454, 3117.198
160.843, 2731.318
162.233, 2486.447
163.622, 2304.584
165.011, 2179.731
166.399, 2141.887
167.787, 2084.052
169.175, 2070.227
170.563, 2016.411
171.951, 2118.604
173.338, 2104.805
174.725, 2205.013
176.112, 2180.228
177.499, 2140.450
178.885, 2138.677
180.271, 2047.983
181.657, 1896.221
183.043, 1792.506
184.428, 1655.775
185.813, 1560.599
187.198, 1378.921
188.583, 1341.906
189.967, 1270.638
191.351, 1254.892
192.735, 1214.523
194.119, 1169.634
195.502, 1199.243
196.885, 1197.600
198.268, 1227.588
199.651, 1263.824
201.033, 1317.957
202.415, 1389.324
203.797, 1446.344
205.179, 1591.130
206.561, 1596.708
207.942, 1737.379
209.323, 1750.885
210.703, 1951.571
212.084, 1995.641
213.464, 1948.464
214.844, 2053.514
216.224, 1868.436
217.603, 1826.766
218.983, 1681.892
220.362, 1573.350
221.741, 1458.256
223.119, 1358.032
224.497, 1294.292
225.875, 1168.882
227.253, 1094.092
228.631, 976.369
230.008, 946.806
231.385, 914.390
232.762, 799.625
234.139, 800.388
235.515, 709.140
236.891, 712.069
238.267, 637.894
239.643, 630.913
241.018, 615.863
242.393, 557.972
243.768, 549.850
245.143, 506.864
246.517, 479.707
247.891, 469.277
249.265, 384.303
250.639, 409.702
252.012, 348.770
253.386, 365.034
254.759, 284.179
256.131, 295.494
257.504, 259.681
258.876, 231.905
260.248, 230.146
261.620, 205.353
262.991, 205.726
264.363, 203.964
265.734, 170.190
267.104, 134.509
268.475, 143.769
269.845, 124.988
271.215, 136.216
272.585, 142.507
273.955, 118.833
275.324, 107.105
276.693, 97.384
278.062, 86.889
279.431, 75.988
280.799, 76.296
282.167, 66.719
283.535, 61.973
284.903, 67.346
286.270, 50.640
287.638, 36.854
289.005, 56.182
290.371, 53.521
291.738, 36.840
293.104, 53.067
294.470, 4.268
295.836, 40.536
297.201, 25.783
298.567, 22.061
299.932, 30.274
301.296, 2.556
302.661, 23.764
304.025, 4.036
305.389, 16.195
306.753, 11.418
308.117, 2.390
309.480, 20.810
310.843, 1.005
312.206, 3.185
313.569, 3.368
314.931, 14.465
316.293, 21.279
317.655, 6.890
319.017, 13.950
320.378, 4.788
321.740, 4.708
323.101, 8.636
324.461, 6.428
325.822, 2.095
327.182, 22.420
328.542, 3.623
329.902, 14.347
331.261, 17.303
332.621, 4.289
333.980, 18.246
335.339, 1.193
336.697, 3.787
338.056, 22.241
339.414, 0.717
340.772, 2.666
342.129, 1.375
343.487, 17.404
344.844, 8.452
346.201, 13.547
347.557, 14.611
348.914, 20.776
350.270, 15.819
351.626, 5.961
352.982, 12.098
354.337, 7.276
355.693, 21.367
357.048, 30.551
358.402, 1.259
359.757, 14.014
361.111, 12.245
362.465, 5.552
363.819, 7.790
365.173, 0.041
366.526, 18.355
367.879, 3.711
369.232, 6.993
370.585, 6.643
371.937, 21.729
373.290, 17.934
374.642, 5.541
375.993, 10.857
377.345, 9.612
378.696, 6.952
380.047, 8.502
381.398, 2.991
382.748, 13.519
384.099, 0.011
385.449, 0.402
386.799, 3.070
388.148, 6.363
389.497, 4.088
390.847, 14.267
392.196, 8.330
393.544, 9.916
394.893, 2.598
396.241, 14.707
397.589, 5.979
398.936, 6.288
400.284, 13.662
401.631, 8.949
402.978, 6.784
404.325, 9.533
405.672, 29.785
407.018, 17.041
408.364, 17.777
409.710, 3.428
411.055, 3.402
412.401, 8.779
413.746, 29.943
415.091, 15.106
416.435, 25.261
417.780, 15.345
419.124, 25.458
420.468, 23.561
421.812, 23.611
423.155, 30.667
424.498, 17.700
425.842, 29.717
427.184, 35.757
428.527, 23.786
429.869, 32.787
431.211, 44.840
432.553, 44.779
433.895, 31.718
435.236, 28.684
436.577, 39.688
437.918, 39.618
439.259, 46.497
440.599, 29.434
441.940, 36.322
443.280, 24.194
444.619, 51.105
445.959, 28.971
447.298, 42.854
448.637, 62.735
449.976, 35.595
451.315, 34.449
452.653, 38.274
453.991, 60.054
455.329, 68.790
456.667, 49.514
458.004, 54.227
459.341, 45.916
460.678, 60.592
462.015, 43.256
463.352, 59.906
464.688, 60.545
466.024, 52.115
467.360, 52.728
468.695, 59.328
470.031, 55.882
471.366, 58.477
472.701, 56.002
474.035, 56.552
475.370, 59.089
476.704, 52.163
478.038, 53.367
479.372, 54.321
480.705, 51.333
482.038, 70.687
483.371, 71.024
484.704, 100.199
486.037, 58.641
487.369, 82.054
488.701, 67.327
490.033, 76.746
491.365, 62.451
492.696, 66.015
494.027, 57.203
495.358, 52.054
496.689, 79.343
498.019, 73.722
499.350, 68.706
500.680, 70.953
502.009, 62.192
503.339, 57.337
504.668, 57.487
505.997, 75.156
507.326, 75.468
508.655, 65.677
509.983, 39.464
511.311, 57.527
512.639, 52.175
513.967, 57.403
515.295, 32.900
516.622, 48.479
517.949, 41.448
519.276, 61.381
520.602, 42.325
521.929, 54.348
523.255, 33.761
524.581, 31.003
525.906, 40.700
527.232, 42.219
528.557, 22.628
529.882, 30.550
531.207, 30.445
532.531, 16.639
533.855, 42.590
535.179, 10.746
536.503, 44.541
537.827, 50.392
539.150, 38.383
540.473, 26.175
541.796, 14.730
543.119, 23.562
544.441, 33.891
545.764, 10.222
547.086, 22.370
548.407, 6.978
549.729, 34.985
551.050, 21.772
552.371, 16.720
553.692, 34.285
555.013, 33.262
556.333, 41.793
557.653, 31.213
558.973, 12.638
560.293, 31.288
561.612, 32.762
562.932, 15.341
564.251, 27.795
565.569, 24.511
566.888, 43.118
568.206, 25.920
569.524, 30.018
570.842, 21.681
572.160, 21.989
573.477, 19.644
574.795, 18.367
576.112, 32.724
577.428, 22.172
578.745, 21.758
580.061, 31.316
581.377, 26.865
582.693, 29.454
584.009, 29.882
585.324, 21.449
586.639, 21.034
587.954, 24.526
589.269, 9.080
590.583, 33.675
591.897, 30.261
593.212, 20.783
594.525, 8.269
595.839, 22.807
597.152, 36.336
598.465, 14.886
599.778, 23.342
601.091, 23.837
602.403, 11.212
603.716, 18.752
605.028, 11.190
606.339, 8.679
607.651, 10.327
608.962, 8.683
610.273, 12.107
611.584, 19.544
612.895, 27.084
614.205, 26.623
615.515, 26.084
616.825, 33.893
618.135, 33.897
619.444, 35.844
620.754, 39.251
622.063, 47.722
623.372, 49.188
624.680, 35.620
625.989, 36.041
627.297, 45.511
628.605, 47.933
629.912, 50.359
631.220, 51.769
632.527, 41.174
633.834, 62.250
635.141, 60.630
636.447, 47.016
637.754, 49.529
639.060, 38.899
640.366, 37.370
641.671, 56.808
642.977, 44.341
644.282, 24.813
645.587, 37.238
646.892, 16.687
648.196, 32.341
649.501, 4.770
650.805, 36.206
652.109, 7.422
653.412, 13.925
654.716, 2.344
656.019, 24.747
657.322, 21.152
658.625, 24.585
659.927, 26.963
661.230, 20.350
662.532, 21.710
663.834, 32.104
665.135, 41.501
666.437, 49.897
667.738, 90.198
669.039, 129.580
670.340, 176.940
671.640, 263.326
672.940, 491.612
674.241, 677.972
675.540, 665.316
676.840, 437.723
678.139, 372.075
679.439, 687.483
680.738, 1437.808
682.036, 1184.083
683.335, 2220.482
684.633, 1050.856
685.931, 464.149
687.229, 227.474
688.527, 140.795
689.824, 73.059
691.121, 56.441
692.418, 73.643
693.715, 61.044
695.012, 90.457
696.308, 100.836
697.604, 23.163
698.900, 19.433
700.195, 28.748
701.491, 25.108
702.786, 2.351
704.081, 12.669
705.376, 8.862
706.670, 7.238
707.964, 22.442
709.259, 9.848
710.552, 19.221
711.846, 15.403
713.139, 16.995
714.433, 12.351
715.726, 9.630
717.018, 22.987
718.311, 25.351
719.603, 20.651
720.895, 40.067
722.187, 39.406
723.479, 25.807
724.770, 58.166
726.061, 69.599
727.352, 56.985
728.643, 48.341
729.934, 64.735
731.224, 66.127
732.514, 60.596
733.804, 54.990
735.094, 53.347
736.383, 49.765
737.672, 60.192
738.961, 42.582
740.250, 39.016
741.539, 13.692
742.827, 15.939
744.115, 21.445
745.403, 18.767
746.691, 14.188
747.978, 23.597
749.265, 24.994
750.552, 44.348
751.839, 20.722
753.126, 16.310
754.412, 16.207
755.698, 27.990
756.984, 28.404
758.270, 27.774
759.555, 8.159
760.840, 31.482
762.125, 34.822
763.410, 14.165
764.695, 20.509
765.979, 37.904
767.263, 8.330
768.547, 19.783
769.831, 23.238
771.114, 7.319
772.398, 33.117
773.681, 5.560
774.964, 41.959
776.246, 39.359
777.529, 40.758
778.811, 11.157
780.093, 21.577
781.375, 5.975
782.656, 32.376
783.937, 38.774
785.219, 20.172
786.499, 33.570
787.780, 13.032
789.060, 18.360
790.341, 34.783
791.621, 2.775
792.901, 24.690
794.180, 5.145
795.459, 12.693
796.739, 1.883
798.017, 1.478
799.296, 13.921
800.575, 5.365
801.853, 5.217
803.131, 4.215
804.409, 6.587
805.686, 18.025
806.964, 16.970
808.241, 9.313
809.518, 26.607
810.795, 20.990
812.071, 4.385
813.347, 21.779
814.623, 4.179
815.899, 27.558
817.175, 39.939
818.450, 11.365
819.726, 30.746
821.001, 36.182
822.275, 65.593
823.550, 83.973
824.824, 102.378
826.098, 68.756
827.372, 77.135
828.646, 91.514
829.920, 96.902
831.193, 143.326
832.466, 223.753
833.739, 396.178
835.011, 769.618
836.284, 1309.997
837.556, 1183.896
838.828, 1764.754
840.100, 1002.134
841.371, 577.513
842.642, 325.895
843.914, 203.277
845.184, 134.659
846.455, 73.042
847.726, 74.424
848.996, 52.808
850.266, 40.191
851.536, 28.576
852.805, 26.961
854.075, 34.348
855.344, 10.738
856.613, 27.074
857.881, 49.458
859.150, 33.834
860.418, 17.202
861.686, 35.332
862.954, 24.724
864.222, 11.142
865.489, 12.734
866.756, 30.162
868.023, 14.580
869.290, 16.990
870.557, 27.425
871.823, 13.865
873.089, 0.689
874.355, 35.760
875.621, 32.214
876.886, 19.672
878.152, 0.135
879.417, 4.596
880.682, 15.063
881.946, 1.533
883.211, 1.001
884.475, 0.532
885.739, 4.935
887.003, 14.405
888.266, 8.877
889.530, 2.348
890.793, 32.818
892.056, 4.289
893.318, 6.241
894.581, 8.226
895.843, 20.695
897.105, 11.165
898.367, 11.636
899.629, 12.105
900.890, 5.574
902.152, 3.712
903.413, 13.527
904.673, 2.996
905.934, 9.522
907.194, 7.055
908.454, 6.408
909.714, 4.868
910.974, 9.038
912.234, 23.762
913.493, 10.218
914.752, 11.671
916.011, 10.123
917.270, 1.572
918.528, 2.019
919.786, 3.442
921.044, 2.883
922.302, 5.322
923.560, 9.423
924.817, 7.857
926.074, 33.258
927.331, 24.687
928.588, 24.113
929.844, 28.537
931.101, 13.951
932.357, 21.552
933.613, 18.757
934.868, 25.169
936.124, 28.579
937.379, 26.987
938.634, 24.754
939.889, 20.127
941.144, 12.525
942.398, 7.920
943.652, 2.183
944.906, 4.898
946.160, 1.074
947.414, 12.306
948.667, 16.583
949.920, 17.869
951.173, 7.240
952.426, 5.578
953.678, 9.708
954.931, 4.446
956.183, 8.367
957.435, 5.720
958.686, 28.071
959.938, 35.409
961.189, 24.754
962.440, 17.096
963.691, 19.403
964.941, 17.737
966.192, 21.036
967.442, 22.380
968.692, 11.741
969.942, 29.092
971.191, 9.409
972.441, 15.721
973.690, 33.030
974.939, 17.335
976.187, 28.636
977.436, 28.937
978.684, 24.230
979.932, 21.563
981.180, 12.875
982.428, 12.395
983.675, 13.543
984.922, 10.348
986.169, 26.638
987.416, 28.902
988.663, 51.342
989.909, 28.720
991.155, 33.109
992.401, 43.974
993.647, 37.398
994.893, 53.803
996.138, 58.041
997.383, 65.386
998.628, 32.171
999.873, 59.477
1001.117, 54.093
1002.362, 44.449
1003.606, 71.318
1004.850, 47.275
1006.093, 40.687
1007.337, 78.321
1008.580, 57.793
1009.823, 44.040
1011.066, 77.382
1012.308, 54.375
1013.551, 54.023
1014.793, 68.578
1016.035, 89.023
1017.277, 97.012
1018.518, 101.968
1019.760, 89.705
1021.001, 103.038
1022.242, 91.906
1023.483, 89.926
1024.723, 127.609
1025.964, 138.761
1027.204, 167.199
1028.444, 254.321
1029.683, 245.068
1030.923, 341.027
1032.162, 255.128
1033.401, 215.298
1034.640, 184.819
1035.879, 223.850
1037.117, 257.641
1038.355, 341.827
1039.593, 360.887
1040.831, 408.668
1042.069, 508.724
1043.306, 581.016
1044.544, 795.516
1045.781, 1103.269
1047.017, 1486.736
1048.254, 2562.745
1049.490, 5351.172
1050.726, 17426.490
1051.962, 48185.543
1053.198, 56885.098
1054.434, 35003.926
1055.669, 13502.335
1056.904, 5030.243
1058.139, 2418.147
1059.374, 1394.038
1060.608, 867.210
1061.843, 670.157
1063.077, 499.049
1064.311, 396.936
1065.544, 363.809
1066.778, 270.638
1068.011, 258.460
1069.244, 243.281
1070.477, 239.102
1071.710, 197.915
1072.942, 165.111
1074.174, 189.921
1075.406, 149.767
1076.638, 156.605
1077.870, 127.436
1079.101, 147.272
1080.332, 140.067
1081.563, 116.877
1082.794, 103.677
1084.025, 97.472
1085.255, 91.048
1086.485, 106.041
1087.715, 96.815
1088.945, 97.585
1090.175, 111.317
1091.404, 110.022
1092.633, 110.697
1093.862, 98.374
1095.091, 111.952
1096.319, 133.645
1097.548, 96.349
1098.776, 116.052
1100.004, 80.783
1101.231, 117.419
1102.459, 125.066
1103.686, 130.683
1104.913, 120.309
1106.140, 91.916
1107.367, 88.582
1108.593, 90.240
1109.819, 72.892
1111.046, 77.516
1112.271, 55.142
1113.497, 51.753
1114.722, 40.370
1115.948, 42.986
1117.173, 39.548
1118.398, 69.150
1119.622, 75.687
1120.847, 48.243
1122.071, 70.823
1123.295, 57.371
1124.519, 44.937
1125.742, 52.307
1126.966, 35.048
1128.189, 38.583
1129.412, 34.074
1130.635, 4.555
1131.857, 30.026
1133.080, 38.477
1134.302, 50.980
1135.524, 14.477
1136.746, 17.965
1137.967, 16.445
1139.188, 1.917
1140.410, 13.377
1141.631, 13.828
1142.851, 40.270
1144.072, 16.706
1145.292, 2.134
1146.512, 19.551
1147.732, 4.960
1148.952, 13.359
1150.172, 0.251
1151.391, 1.873
1152.610, 9.508
1153.829, 13.160
1155.048, 10.832
1156.266, 21.479
1157.484, 25.217
1158.702, 3.938
1159.920, 1.328
1161.138, 29.418
1162.356, 4.810
1163.573, 4.971
1164.790, 4.766
1166.007, 1.574
1167.224, 11.394
1168.440, 20.230
1169.656, 8.087
1170.872, 17.959
1172.088, 9.850
1173.304, 14.756
1174.519, 12.321
1175.735, 23.609
1176.950, 5.560
1178.165, 12.477
1179.379, 3.508
1180.594, 3.467
1181.808, 11.453
1183.022, 7.453
1184.236, 1.536
1185.449, 8.517
1186.663, 8.507
1187.876, 6.457
1189.089, 6.584
1190.302, 5.634
1191.515, 9.694
1192.727, 5.765
1193.939, 12.155
1195.151, 5.930
1196.363, 37.024
1197.575, 1.142
1198.786, 9.266
1199.997, 3.600
1201.208, 9.463
1202.419, 6.676
1203.630, 20.180
1204.840, 26.032
1206.051, 6.119
1207.261, 2.724
1208.470, 6.563
1209.680, 26.399
1210.889, 31.232
1212.099, 17.063
1213.308, 26.891
1214.516, 3.717
1215.725, 0.541
1216.933, 25.362
1218.142, 10.818
1219.350, 5.997
1220.557, 54.811
1221.765, 10.623
1222.972, 28.434
1224.180, 0.753
1225.387, 22.060
1226.593, 29.873
1227.800, 35.686
1229.006, 47.499
1230.213, 19.312
1231.419, 10.126
1232.624, 7.940
1233.830, 15.750
1235.035, 10.719
1236.241, 23.357
1237.446, 19.155
1238.650, 10.949
1239.855, 29.738
1241.059, 21.525
1242.264, 28.307
1243.468, 32.086
1244.671, 6.139
1245.875, 32.632
1247.078, 39.399
1248.282, 24.163
1249.485, 51.924
1250.687, 35.681
1251.890, 43.435
1253.092, 85.185
1254.295, 50.932
1255.497, 64.676
1256.699, 71.417
1257.900, 86.154
1259.102, 84.263
1260.303, 34.587
1261.504, 78.295
1262.705, 66.988
1263.905, 60.711
1265.106, 120.431
1266.306, 88.149
1267.506, 96.865
1268.706, 139.579
1269.905, 94.288
1271.105, 101.998
1272.304, 146.664
1273.503, 108.345
1274.702, 136.008
1275.900, 159.175
1277.099, 124.823
1278.297, 148.506
1279.495, 130.211
1280.693, 163.737
1281.891, 185.320
1283.088, 142.889
1284.285, 173.978
1285.482, 146.503
1286.679, 148.045
1287.876, 217.750
1289.072, 203.345
1290.268, 195.498
1291.464, 237.126
1292.660, 195.441
1293.856, 232.014
1295.051, 244.070
1296.247, 216.037
1297.442, 285.537
1298.637, 259.822
1299.831, 238.266
1301.026, 304.933
1302.220, 266.502
1303.414, 312.422
1304.608, 318.686
1305.802, 322.037
1306.995, 390.502
1308.188, 354.422
1309.381, 331.371
1310.574, 406.539
1311.767, 389.108
1312.960, 381.142
1314.152, 423.958
1315.344, 334.174
1316.536, 440.920
1317.728, 441.381
1318.919, 424.103
1320.110, 486.052
1321.301, 387.159
1322.492, 453.910
1323.683, 454.589
1324.874, 395.901
1326.064, 462.737
1327.254, 493.851
1328.444, 434.552
1329.634, 500.353
1330.823, 503.483
1332.013, 443.302
1333.202, 561.610
1334.391, 524.008
1335.580, 529.181
1336.768, 579.631
1337.956, 520.546
1339.145, 597.050
1340.333, 624.635
1341.520, 635.496
1342.708, 772.893
1343.895, 726.858
1345.083, 795.867
1346.270, 922.537
1347.456, 922.593
1348.643, 1102.667
1349.829, 1218.489
1351.016, 1212.580
1352.202, 1536.714
1353.387, 1610.873
1354.573, 1751.057
1355.759, 2059.266
1356.944, 2110.502
1358.129, 2349.767
1359.314, 2644.052
1360.498, 2520.381
1361.683, 2866.372
1362.867, 3096.773
1364.051, 3062.214
1365.235, 3530.700
1366.419, 3684.965
1367.602, 3919.538
1368.785, 4630.179
1369.968, 4755.912
1371.151, 5205.574
1372.334, 5694.272
1373.517, 5330.002
1374.699, 5496.698
1375.881, 5143.463
1377.063, 4372.231
1378.245, 4249.000
1379.426, 3384.770
1380.608, 2913.542
1381.789, 2633.231
1382.970, 2109.006
1384.150, 1885.785
1385.331, 1651.565
1386.511, 1297.349
1387.691, 1233.136
1388.871, 1033.925
1390.051, 816.719
1391.231, 863.517
1392.410, 687.318
1393.589, 603.124
1394.768, 629.933
1395.947, 474.748
1397.126, 497.574
1398.304, 479.405
1399.483, 403.243
1400.661, 451.092
1401.838, 408.953
1403.016, 335.821
1404.194, 433.702
1405.371, 404.596
1406.548, 389.508
1407.725, 410.454
1408.901, 421.430
1410.078, 425.444
1411.254, 459.491
1412.430, 419.570
1413.606, 464.678
1414.782, 450.826
1415.958, 423.017
1417.133, 509.251
1418.308, 406.519
1419.483, 475.821
1420.658, 500.145
1421.832, 428.504
1423.007, 464.887
1424.181, 447.296
1425.355, 409.733
1426.529, 484.204
1427.702, 436.699
1428.876, 350.248
1430.049, 347.824
1431.222, 306.420
1432.395, 317.036
1433.567, 324.674
1434.740, 277.326
1435.912, 261.993
1437.084, 287.673
1438.256, 175.364
1439.428, 263.072
1440.599, 196.787
1441.770, 176.495
1442.942, 254.202
1444.112, 202.907
1445.283, 198.608
1446.454, 257.334
1447.624, 193.097
1448.794, 176.897
1449.964, 296.739
1451.134, 223.621
1452.303, 303.547
1453.473, 279.519
1454.642, 282.538
1455.811, 333.607
1456.980, 316.728
1458.148, 312.904
1459.317, 400.137
1460.485, 380.430
1461.653, 408.784
1462.821, 454.202
1463.989, 421.683
1465.156, 468.229
1466.323, 485.840
1467.490, 466.517
1468.657, 554.262
1469.824, 519.076
1470.991, 496.961
1472.157, 581.920
1473.323, 510.954
1474.489, 543.066
1475.655, 556.261
1476.820, 479.545
1477.986, 504.924
1479.151, 495.407
1480.316, 441.006
1481.481, 441.729
1482.645, 405.585
1483.810, 311.582
1484.974, 325.728
1486.138, 254.032
1487.302, 190.503
1488.465, 263.153
1489.629, 168.992
1490.792, 157.034
1491.955, 139.295
1493.118, 93.792
1494.281, 88.547
1495.443, 72.585
1496.606, 32.934
1497.768, 52.628
1498.930, 13.702
1500.091, 47.195
1501.253, 21.155
1502.414, 9.639
1503.575, 6.715
1504.736, 43.468
1505.897, 14.999
1507.058, 45.438
1508.218, 23.932
1509.379, 13.677
1510.539, 2.886
1511.698, 16.790
1512.858, 0.465
1514.018, 0.000
##END=



