##NAMES=Chabazite-Ca
##RRUFFID=R050014
##IDEAL CHEMISTRY=Ca_2_Al_4_Si_8_O_24_&#183;13H_2_O
##LOCALITY=Tablo Mountain, Baja California, Mexico
##OWNER=RRUFF
##SOURCE=University of Arizona Mineral Museum
##DESCRIPTION=Light tan colored rhombohedral single crystals
##STATUS=The identification of this mineral has been confirmed by X-ray diffraction and chemical analysis
##URL=rruff.info/R050014
##MEASURED CHEMISTRY=(Ca_0.72_Mg_0.11_K_0.09_Sr_0.06_Na_0.01_)_Σ=1_(Si_4.12_Al_1.88_)O_12_·6H_2_O
##PIN_ID=M00165
##ORIENTATION=Laser parallel to (-1 -1 -1). Fiducial mark perpendicular to laser is parallel to [-1 1 0]
105.8150, 0.0000000E+00
107.0470, 467.1758
108.2800, 308.9336
109.5120, 621.4375
110.7440, 540.0508
111.9760, 458.9961
113.2080, 626.3906
114.4400, 1262.223
115.6710, 1753.398
116.9030, 1948.141
118.1340, 2130.703
119.3650, 2380.969
120.5960, 2480.414
121.8270, 2619.719
123.0580, 2924.652
124.2880, 3092.891
125.5190, 3420.539
126.7490, 3765.734
127.9790, 4143.973
129.2090, 4656.277
130.4390, 4526.703
131.6680, 5104.133
132.8980, 5030.027
134.1270, 5277.992
135.3560, 5761.535
136.5850, 5879.102
137.8140, 6273.688
139.0430, 6522.543
140.2710, 7051.629
141.5000, 7169.859
142.7280, 7207.656
143.9560, 7258.328
145.1840, 7121.711
146.4120, 7080.145
147.6390, 6096.344
148.8670, 5315.125
150.0940, 5004.504
151.3210, 4819.711
152.5490, 4519.449
153.7750, 4111.246
155.0020, 4019.062
156.2290, 3845.127
157.4550, 3818.895
158.6810, 3620.531
159.9080, 3696.736
161.1340, 3710.453
162.3590, 3884.229
163.5850, 3652.428
164.8110, 3988.389
166.0360, 3974.004
167.2610, 4316.598
168.4860, 4473.777
169.7110, 4667.092
170.9360, 4770.873
172.1610, 5054.742
173.3850, 5134.201
174.6100, 5230.135
175.8340, 5301.074
177.0580, 5469.422
178.2820, 5665.848
179.5050, 5633.234
180.7290, 5709.223
181.9520, 5345.082
183.1760, 5330.410
184.3990, 5401.873
185.6220, 5267.232
186.8450, 5359.971
188.0670, 4857.096
189.2900, 4954.137
190.5120, 4639.969
191.7340, 4554.889
192.9560, 4439.955
194.1780, 4065.447
195.4000, 3980.713
196.6220, 3594.660
197.8430, 3232.770
199.0640, 3460.457
200.2860, 3134.191
201.5070, 3066.168
202.7270, 2876.742
203.9480, 2521.086
205.1690, 2243.428
206.3890, 1806.730
207.6090, 1624.949
208.8290, 1378.045
210.0490, 1380.961
211.2690, 1250.641
212.4890, 1247.020
213.7080, 901.0488
214.9280, 901.6758
216.1470, 674.8613
217.3660, 581.5801
218.5850, 507.8184
219.8030, 353.5762
221.0220, 409.8438
222.2400, 5.628906
223.4590, 177.9277
224.6770, 13.74219
225.8950, 16.92188
227.1120, 282.0703
228.3300, 361.7266
229.5480, 425.9336
230.7650, 299.7324
231.9820, 288.1406
233.1990, 145.1816
234.4160, 446.8906
235.6330, 438.3184
236.8490, 525.5020
238.0660, 314.5840
239.2820, 477.6133
240.4980, 529.3398
241.7140, 300.9766
242.9300, 577.4180
244.1460, 531.6660
245.3610, 397.1484
246.5770, 423.0566
247.7920, 303.1113
249.0070, 391.4727
250.2220, 291.9727
251.4370, 289.5352
252.6510, 306.7188
253.8660, 387.8457
255.0800, 15.52734
256.2940, 71.23047
257.5080, 86.42383
258.7220, 133.5840
259.9360, 370.9980
261.1490, 218.5840
262.3630, 61.84961
263.5760, 313.6660
264.7890, 395.9863
266.0020, 541.7637
267.2150, 507.9512
268.4270, 420.4941
269.6400, 626.3438
270.8520, 624.2676
272.0640, 846.7910
273.2760, 895.3301
274.4880, 1010.061
275.7000, 1117.062
276.9120, 1204.309
278.1230, 1295.363
279.3340, 1378.828
280.5450, 1503.459
281.7560, 1525.246
282.9670, 1580.145
284.1780, 1773.111
285.3880, 1912.104
286.5980, 2079.094
287.8090, 2305.053
289.0190, 2416.980
290.2290, 2292.879
291.4380, 2499.775
292.6480, 2545.701
293.8570, 2856.689
295.0670, 2881.777
296.2760, 3268.998
297.4850, 3364.385
298.6930, 3495.967
299.9020, 3661.760
301.1110, 3853.746
302.3190, 4019.895
303.5270, 3887.176
304.7350, 4420.596
305.9430, 4319.146
307.1510, 4770.797
308.3580, 4947.539
309.5660, 5297.318
310.7730, 5347.984
311.9800, 5778.482
313.1870, 5996.475
314.3940, 6310.961
315.6010, 6421.152
316.8070, 6864.844
318.0130, 6963.113
319.2200, 7105.898
320.4260, 7283.344
321.6310, 7394.488
322.8370, 7586.441
324.0430, 7757.309
325.2480, 7828.148
326.4540, 7918.758
327.6590, 8019.441
328.8640, 7966.285
330.0680, 7977.562
331.2730, 7943.391
332.4780, 7668.840
333.6820, 7686.857
334.8860, 7503.500
336.0900, 7156.771
337.2940, 7039.699
338.4980, 6629.299
339.7010, 6677.586
340.9050, 6410.566
342.1080, 6077.266
343.3110, 6001.531
344.5140, 5710.703
345.7170, 5372.051
346.9200, 5191.881
348.1220, 5106.732
349.3240, 4859.895
350.5270, 4760.832
351.7290, 4640.453
352.9310, 4520.250
354.1320, 4309.582
355.3340, 4222.744
356.5350, 4195.625
357.7370, 3945.287
358.9380, 3995.863
360.1390, 3872.262
361.3400, 3799.086
362.5400, 3641.572
363.7410, 3793.916
364.9410, 3606.422
366.1410, 3457.834
367.3410, 3439.666
368.5410, 3246.393
369.7410, 3208.541
370.9400, 3182.678
372.1400, 2965.088
373.3390, 3143.418
374.5380, 3107.639
375.7370, 3000.711
376.9360, 2826.449
378.1350, 2828.098
379.3330, 2868.756
380.5310, 2544.900
381.7300, 2719.545
382.9280, 2648.396
384.1260, 2481.006
385.3230, 2421.359
386.5210, 2651.076
387.7180, 2583.488
388.9160, 2463.838
390.1130, 2424.723
391.3100, 2324.096
392.5060, 2363.145
393.7030, 2365.818
394.9000, 2423.930
396.0960, 2341.402
397.2920, 2329.557
398.4880, 2503.273
399.6840, 2452.900
400.8800, 2287.633
402.0750, 2305.197
403.2710, 2480.061
404.4660, 2551.787
405.6610, 2575.990
406.8560, 2652.695
408.0510, 2699.396
409.2450, 3061.039
410.4400, 3112.648
411.6340, 3451.348
412.8280, 3529.900
414.0220, 3909.928
415.2160, 4323.674
416.4100, 4179.184
417.6030, 4582.549
418.7970, 4992.012
419.9900, 5463.078
421.1830, 5776.457
422.3760, 5947.004
423.5690, 6529.000
424.7610, 6971.592
425.9540, 7607.633
427.1460, 8176.285
428.3380, 8904.910
429.5300, 9785.047
430.7220, 10546.88
431.9140, 11396.82
433.1050, 12397.12
434.2970, 13442.59
435.4880, 14401.30
436.6790, 15429.54
437.8700, 16506.41
439.0610, 17651.27
440.2510, 18848.43
441.4420, 20043.35
442.6320, 21548.62
443.8220, 22795.44
445.0120, 23845.78
446.2020, 25178.73
447.3910, 26295.62
448.5810, 27511.49
449.7700, 28592.40
450.9600, 29373.21
452.1490, 29962.56
453.3370, 30724.41
454.5260, 30999.89
455.7150, 31527.88
456.9030, 31352.00
458.0910, 31635.95
459.2800, 31376.34
460.4670, 31556.87
461.6550, 31345.99
462.8430, 30979.08
464.0300, 30479.41
465.2180, 30582.19
466.4050, 30328.95
467.5920, 30267.22
468.7790, 30357.47
469.9650, 30609.98
471.1520, 30903.50
472.3380, 31113.63
473.5250, 31451.38
474.7110, 31632.06
475.8970, 32092.95
477.0820, 32268.99
478.2680, 32098.23
479.4540, 31546.31
480.6390, 30870.29
481.8240, 30137.59
483.0090, 29168.69
484.1940, 28124.64
485.3780, 26886.07
486.5630, 25517.38
487.7470, 24031.15
488.9320, 22809.73
490.1160, 21216.21
491.3000, 19816.51
492.4830, 18130.71
493.6670, 16875.07
494.8500, 15549.41
496.0340, 14104.85
497.2170, 13211.16
498.4000, 12146.49
499.5820, 11120.80
500.7650, 10024.12
501.9480, 9396.441
503.1300, 8571.777
504.3120, 7561.143
505.4940, 7403.537
506.6760, 6532.705
507.8580, 6261.184
509.0390, 5654.104
510.2210, 5069.078
511.4020, 4770.773
512.5830, 4343.695
513.7640, 3812.902
514.9450, 3544.500
516.1250, 3318.803
517.3060, 3037.652
518.4860, 2809.963
519.6660, 2551.867
520.8460, 2333.104
522.0260, 2147.732
523.2060, 1900.805
524.3850, 1754.234
525.5650, 1678.889
526.7440, 1470.770
527.9230, 1369.051
529.1020, 1285.023
530.2810, 1176.008
531.4590, 1173.604
532.6380, 886.2832
533.8160, 1157.531
534.9940, 780.3438
536.1720, 650.0078
537.3500, 863.2441
538.5270, 798.8809
539.7050, 652.1250
540.8820, 570.0410
542.0590, 519.0938
543.2360, 456.7930
544.4130, 451.8105
545.5900, 488.1641
546.7660, 480.7578
547.9430, 357.4141
549.1190, 396.3301
550.2950, 168.2070
551.4710, 332.2051
552.6470, 345.2246
553.8220, 201.3086
554.9980, 180.4609
556.1730, 380.6660
557.3480, 425.9355
558.5230, 228.2656
559.6980, 345.6523
560.8730, 89.09180
562.0470, 102.5859
563.2220, 160.1641
564.3960, 375.8359
565.5700, 167.5996
566.7440, 320.3965
567.9170, 240.2520
569.0910, 248.1699
570.2640, 201.1426
571.4380, 251.4238
572.6110, 572.3359
573.7840, 349.5938
574.9570, 361.1250
576.1290, 339.0156
577.3020, 186.3379
578.4740, 172.7031
579.6460, 150.0898
580.8180, 169.4961
581.9900, 29.92383
583.1620, 265.3574
584.3330, 205.8066
585.5040, 36.26953
586.6760, 324.7344
587.8470, 58.21680
589.0180, 35.29492
590.1880, 1.808594
591.3590, 167.3164
592.5290, 3.871094
593.7000, 53.42188
594.8700, 101.9609
596.0400, 188.4902
597.2090, 147.0625
598.3790, 5.675781
599.5490, 134.2871
600.7180, 90.93164
601.8870, 55.40039
603.0560, 109.2559
604.2250, 163.8828
605.3940, 22.52734
606.5620, 116.5977
607.7300, 11.16992
608.8990, 166.4805
610.0670, 127.1816
611.2350, 299.8594
612.4020, 39.63867
613.5700, 184.4082
614.7370, 304.2383
615.9050, 69.17188
617.0720, 122.1211
618.2390, 6.912109
619.4060, 11.96094
620.5720, 21.01758
621.7390, 177.0879
622.9050, 281.1738
624.0710, 5.718750
625.2370, 95.39062
626.4030, 111.5176
627.5690, 8.658203
628.7340, 261.8047
629.9000, 93.02930
631.0650, 115.1094
632.2300, 411.2539
633.3950, 560.4160
634.5600, 492.5898
635.7240, 247.7773
636.8890, 304.9785
638.0530, 271.1895
639.2170, 486.4160
640.3810, 433.6602
641.5450, 378.9238
642.7080, 380.2012
643.8720, 386.4902
645.0350, 458.7949
646.1980, 93.11133
647.3610, 348.4375
648.5240, 173.7754
649.6870, 186.1191
650.8490, 354.4668
652.0120, 239.8242
653.1740, 199.1895
654.3360, 365.5586
655.4980, 425.9336
656.6600, 191.3125
657.8210, 189.6895
658.9830, 140.2812
660.1440, 199.6484
661.3050, 185.2734
662.4660, 59.83398
663.6270, 102.0137
664.7870, 17.67188
665.9480, 242.9512
667.1080, 21.06641
668.2680, 19.41016
669.4280, 252.8125
670.5880, 168.2148
671.7480, 200.8418
672.9070, 118.9590
674.0670, 47.93945
675.2260, 134.3477
676.3850, 318.0254
677.5440, 256.4336
678.7030, 158.8086
679.8610, 444.8828
681.0200, 423.9668
682.1780, 197.8945
683.3360, 191.5176
684.4940, 314.0566
685.6520, 308.3281
686.8090, 326.5547
687.9670, 300.3652
689.1240, 427.0508
690.2810, 346.5840
691.4380, 465.3711
692.5950, 421.7754
693.7520, 458.8750
694.9080, 560.7910
696.0650, 479.0352
697.2210, 540.9277
698.3770, 448.8359
699.5330, 553.4277
700.6880, 681.2090
701.8440, 736.7832
702.9990, 721.4629
704.1550, 642.3477
705.3100, 572.8711
706.4650, 684.9023
707.6190, 725.4219
708.7740, 816.3457
709.9290, 592.7695
711.0830, 758.5039
712.2370, 876.9609
713.3910, 793.1953
714.5450, 944.6484
715.6980, 788.8652
716.8520, 842.6758
718.0050, 900.9180
719.1580, 998.1211
720.3110, 904.2109
721.4640, 819.4219
722.6170, 982.4805
723.7700, 989.3438
724.9220, 863.2559
726.0740, 840.5723
727.2260, 935.4023
728.3780, 935.0273
729.5300, 1040.920
730.6810, 941.0938
731.8330, 1043.137
732.9840, 950.8555
734.1350, 1142.033
735.2860, 850.0059
736.4370, 799.0820
737.5880, 927.0664
738.7380, 984.6582
739.8880, 1168.736
741.0390, 1268.029
742.1890, 1317.785
743.3380, 1157.420
744.4880, 1410.703
745.6380, 1270.924
746.7870, 1369.512
747.9360, 1424.820
749.0850, 1496.631
750.2340, 1483.486
751.3830, 1520.945
752.5310, 1287.010
753.6800, 1398.346
754.8280, 1368.480
755.9760, 1826.480
757.1240, 1586.469
758.2720, 1727.637
759.4190, 1609.285
760.5670, 1400.584
761.7140, 1634.785
762.8610, 1524.627
764.0080, 1684.643
765.1550, 1692.016
766.3020, 1562.770
767.4480, 1618.637
768.5950, 1447.004
769.7410, 1725.287
770.8870, 1500.006
772.0330, 1471.482
773.1780, 1841.885
774.3240, 1406.229
775.4690, 1505.613
776.6140, 1575.404
777.7590, 1737.217
778.9040, 1243.369
780.0490, 1620.594
781.1940, 1348.496
782.3380, 1437.967
783.4820, 1229.334
784.6260, 1453.701
785.7700, 1169.986
786.9140, 860.3477
788.0580, 1182.814
789.2010, 937.5000
790.3450, 1082.283
791.4880, 791.6445
792.6310, 575.2383
793.7730, 673.1875
794.9160, 892.7324
796.0590, 441.1895
797.2010, 647.3555
798.3430, 431.6895
799.4850, 366.8789
800.6270, 364.9316
801.7690, 355.5957
802.9100, 301.2070
804.0520, 287.2949
805.1930, 227.1270
806.3340, 206.8066
807.4750, 204.3125
808.6160, 146.7070
809.7560, 264.4336
810.8970, 71.56641
812.0370, 182.9316
813.1770, 65.69531
814.3170, 111.0176
815.4570, 75.91211
816.5960, 58.67383
817.7360, 27.36328
818.8750, 9.164063
820.0140, 40.10742
821.1530, 7.248047
822.2920, 70.95117
823.4310, 32.97656
824.5690, 19.00195
825.7070, 142.2969
826.8460, 4.365234
827.9840, 107.8633
829.1220, 76.30859
830.2590, 114.6504
831.3970, 127.9043
832.5340, 76.06445
833.6710, 180.1250
834.8080, 15.09375
835.9450, 112.9434
837.0820, 4.699219
838.2190, 103.6660
839.3550, 150.2070
840.4910, 124.1621
841.6270, 144.1094
842.7630, 4.916016
843.8990, 35.07227
845.0350, 10.36914
846.1700, 229.7969
847.3060, 128.5332
848.4410, 93.22852
849.5760, 100.8379
850.7100, 2.187500
851.8450, 17.33984
852.9800, 6.625000
854.1140, 101.9707
855.2480, 92.47461
856.3820, 48.89062
857.5160, 161.2090
858.6500, 180.4434
859.7830, 154.5898
860.9170, 198.0801
862.0500, 137.6309
863.1830, 211.5234
864.3160, 60.33398
865.4480, 88.06055
866.5810, 76.70703
867.7130, 243.2930
868.8460, 53.19531
869.9780, 69.81055
871.1100, 1.548828
872.2410, 153.6406
873.3730, 165.7734
874.5050, 109.8301
875.6360, 153.8301
876.7670, 155.7695
877.8980, 179.3711
879.0290, 64.68750
880.1590, 27.89258
881.2900, 11.60938
882.4200, 196.8066
883.5500, 122.1484
884.6800, 195.5566
885.8100, 93.56641
886.9400, 28.33398
888.0690, 113.6680
889.1990, 77.63086
890.3280, 53.57422
891.4570, 35.54688
892.5860, 8.472656
893.7140, 125.9492
894.8430, 37.58203
895.9710, 32.13477
897.1000, 94.60547
898.2280, 39.13281
899.3560, 13.66211
900.4830, 67.56250
901.6110, 75.22070
902.7380, 61.82422
903.8660, 171.8457
904.9930, 255.8164
906.1200, 294.3594
907.2460, 331.5488
908.3730, 329.3301
909.5000, 296.0371
910.6260, 291.6758
911.7520, 172.2520
912.8780, 148.7578
914.0040, 15.80469
915.1290, 246.5469
916.2550, 63.83594
917.3800, 145.0508
918.5050, 149.1992
919.6300, 0.7187500
920.7550, 125.6406
921.8800, 229.2344
923.0040, 195.1133
924.1290, 203.9336
925.2530, 129.8984
926.3770, 167.3809
927.5010, 160.0098
928.6250, 356.5762
929.7480, 439.0859
930.8720, 425.5391
931.9950, 474.4297
933.1180, 485.8242
934.2410, 401.0879
935.3640, 517.7891
936.4860, 459.3047
937.6090, 515.4590
938.7310, 335.3418
939.8530, 344.5488
940.9750, 422.4551
942.0970, 96.23438
943.2180, 418.9629
944.3400, 178.4023
945.4610, 617.3242
946.5820, 468.3047
947.7030, 503.7988
948.8240, 693.9551
949.9450, 419.3105
951.0650, 840.6230
952.1860, 575.1641
953.3060, 810.6191
954.4260, 547.1543
955.5460, 756.7285
956.6650, 684.3125
957.7850, 767.2617
958.9040, 683.1738
960.0230, 900.9316
961.1420, 807.9258
962.2610, 911.0625
963.3800, 797.5820
964.4990, 868.4805
965.6170, 1013.029
966.7350, 832.6309
967.8530, 996.4648
968.9710, 1175.225
970.0890, 1138.867
971.2070, 1093.256
972.3240, 1237.326
973.4410, 1225.598
974.5580, 1139.947
975.6750, 1066.932
976.7920, 1216.346
977.9090, 1073.840
979.0250, 1252.459
980.1410, 1187.662
981.2580, 1232.104
982.3740, 1585.385
983.4890, 1523.449
984.6050, 1564.518
985.7200, 1430.352
986.8360, 1616.264
987.9510, 1685.879
989.0660, 1675.941
990.1810, 1618.879
991.2950, 1664.141
992.4100, 1565.270
993.5240, 1687.680
994.6390, 1744.984
995.7530, 1774.492
996.8660, 1902.738
997.9800, 1864.309
999.0940, 1902.871
1000.207, 1987.219
1001.320, 2107.750
1002.433, 2059.434
1003.546, 2162.633
1004.659, 2216.367
1005.772, 2222.984
1006.884, 2277.332
1007.996, 2217.750
1009.108, 2047.031
1010.220, 2116.488
1011.332, 2206.953
1012.444, 1990.035
1013.555, 2160.375
1014.666, 2153.703
1015.777, 2268.492
1016.888, 2363.156
1017.999, 2168.543
1019.110, 2367.035
1020.220, 2278.312
1021.331, 2359.430
1022.441, 2378.801
1023.551, 2376.027
1024.661, 2386.102
1025.770, 2112.047
1026.880, 2433.672
1027.989, 2388.137
1029.098, 2702.098
1030.207, 2413.000
1031.316, 2413.359
1032.425, 2395.438
1033.533, 2326.160
1034.642, 2633.391
1035.750, 2414.727
1036.858, 2442.016
1037.966, 2624.781
1039.073, 2500.914
1040.181, 2518.223
1041.288, 2732.695
1042.396, 2767.176
1043.503, 2781.551
1044.610, 2851.926
1045.716, 2683.809
1046.823, 2734.609
1047.929, 2909.992
1049.036, 3165.230
1050.142, 3342.715
1051.248, 3324.555
1052.353, 3267.430
1053.459, 3515.488
1054.564, 3579.297
1055.670, 3484.555
1056.775, 3740.688
1057.880, 3631.871
1058.985, 3745.762
1060.089, 3812.824
1061.194, 3537.875
1062.298, 4159.496
1063.402, 4212.121
1064.506, 4339.766
1065.610, 4180.430
1066.713, 4327.098
1067.817, 4310.824
1068.920, 4377.566
1070.023, 4150.309
1071.126, 4290.922
1072.229, 4018.527
1073.332, 4280.309
1074.435, 4462.105
1075.537, 4240.418
1076.639, 4348.234
1077.741, 4321.516
1078.843, 4503.359
1079.945, 4462.777
1081.046, 4287.637
1082.148, 4735.566
1083.249, 4637.555
1084.350, 4534.566
1085.451, 4920.617
1086.551, 4862.715
1087.652, 4743.840
1088.752, 4691.016
1089.853, 4560.223
1090.953, 4635.453
1092.053, 4509.016
1093.152, 4278.227
1094.252, 4334.539
1095.351, 4248.426
1096.451, 4108.980
1097.550, 4152.613
1098.649, 4065.520
1099.748, 4169.078
1100.846, 4266.250
1101.945, 4054.082
1103.043, 4018.637
1104.141, 3891.461
1105.239, 3810.465
1106.337, 3738.234
1107.434, 3704.977
1108.532, 3686.785
1109.629, 3681.480
1110.726, 3645.891
1111.823, 3624.723
1112.920, 3670.758
1114.017, 3816.980
1115.113, 3786.668
1116.210, 3829.309
1117.306, 3762.602
1118.402, 3782.750
1119.498, 3636.930
1120.593, 3514.664
1121.689, 3281.516
1122.784, 3528.016
1123.879, 3189.527
1124.974, 3145.922
1126.069, 3502.008
1127.164, 2876.094
1128.259, 3128.801
1129.353, 2878.008
1130.447, 3239.426
1131.541, 2647.070
1132.635, 2867.559
1133.729, 2669.961
1134.822, 2631.398
1135.916, 2540.141
1137.009, 2354.480
1138.102, 2397.574
1139.195, 2299.762
1140.288, 2431.734
1141.380, 2660.641
1142.473, 2376.559
1143.565, 1953.176
1144.657, 2120.867
1145.749, 2019.820
1146.841, 2216.551
1147.932, 1978.824
1149.024, 1931.020
1150.115, 1720.785
1151.206, 1810.875
1152.297, 1707.023
1153.388, 1716.559
1154.479, 1621.551
1155.569, 1432.438
1156.659, 1329.047
1157.750, 1417.734
1158.839, 1375.168
1159.929, 1455.355
1161.019, 1458.793
1162.108, 1289.891
1163.198, 1214.902
1164.287, 1011.879
1165.376, 1169.867
1166.465, 814.8945
1167.553, 839.8984
1168.642, 952.5898
1169.730, 626.1562
1170.818, 760.8945
1171.906, 757.9141
1172.994, 787.7070
1174.082, 809.8633
1175.170, 939.2461
1176.257, 826.5312
1177.344, 605.5938
1178.431, 518.7109
1179.518, 666.7656
1180.605, 365.3867
1181.691, 457.4414
1182.778, 344.4961
1183.864, 379.9375
1184.950, 320.2148
1186.036, 505.3164
1187.122, 209.6367
1188.207, 356.6992
1189.292, 178.8477
1190.378, 134.9062
1191.463, 452.9688
1192.548, 277.0234
1193.632, 220.1641
1194.717, 291.6328
1195.801, 149.1562
1196.886, 139.7734
1197.970, 99.94922
1199.054, 79.97656
1200.137, 221.0000
1201.221, 32.76172
1202.305, 31.14453
1203.388, 249.8438
1204.471, 49.81641
1205.554, 124.2109
1206.637, 251.7070
1207.719, 195.7305
1208.802, 125.7773
1209.884, 71.41016
1210.966, 29.32031
1212.048, 90.44141
1213.130, 230.1953
1214.212, 400.9375
1215.293, 262.6680
1216.374, 112.3906
1217.456, 137.1094
1218.536, 168.8125
1219.617, 134.0742
1220.698, 114.2266
1221.778, 46.77344
1222.859, 115.4336
1223.939, 19.80078
1225.019, 0.5585940
1226.099, 73.40625
1227.178, 25.00391
1228.258, 30.88672
1229.337, 20.30859
1230.417, 6.210938
1231.496, 41.28125
1232.574, 163.7734
1233.653, 58.23438
1234.732, 5.816406
1235.810, 236.2461
1236.888, 167.1055
1237.966, 233.5898
1239.044, 47.98047
1240.122, 23.59766
1241.199, 63.24609
1242.277, 118.5469
1243.354, 97.93750
1244.431, 15.80469
1245.508, 225.4219
1246.585, 245.6250
1247.661, 207.8477
1248.738, 178.0156
1249.814, 35.16016
1250.890, 13.70312
1251.966, 106.3398
1253.042, 54.52344
1254.117, 67.13672
1255.193, 28.92188
1256.268, 91.30469
1257.343, 3.433594
1258.418, 42.66406
1259.493, 12.94531
1260.567, 118.7734
1261.642, 162.4219
1262.716, 202.1445
1263.790, 183.9766
1264.864, 123.6367
1265.938, 82.50391
1267.011, 76.76562
1268.085, 61.07812
1269.158, 327.2812
1270.231, 123.0820
1271.304, 126.4180
1272.377, 298.8984
1273.450, 212.5742
1274.522, 47.16406
1275.594, 292.7734
1276.666, 96.68750
1277.738, 95.43359
1278.810, 264.3438
1279.882, 167.4102
1280.953, 157.1328
