##NAMES=Chabazite-Ca
##RRUFFID=R050014
##IDEAL CHEMISTRY=Ca_2_Al_4_Si_8_O_24_&#183;13H_2_O
##LOCALITY=Tablo Mountain, Baja California, Mexico
##OWNER=RRUFF
##SOURCE=University of Arizona Mineral Museum
##DESCRIPTION=Light tan colored rhombohedral single crystals
##STATUS=The identification of this mineral has been confirmed by X-ray diffraction and chemical analysis
##URL=rruff.info/R050014
##MEASURED CHEMISTRY=(Ca_0.72_Mg_0.11_K_0.09_Sr_0.06_Na_0.01_)_Σ=1_(Si_4.12_Al_1.88_)O_12_·6H_2_O
##PIN_ID=M00242
##ORIENTATION=Laser parallel to (-1 1 0). Fiducial mark perpendicular to laser is parallel to [1 1 1]
105.8150, 0.0000000E+00
107.0470, 24.12891
108.2800, 45.67188
109.5120, 179.3398
110.7440, 39.62500
111.9760, 441.9336
113.2080, 935.0781
114.4400, 1476.516
115.6710, 1930.609
116.9030, 2450.027
118.1340, 2227.352
119.3650, 2249.434
120.5960, 2522.992
121.8270, 3083.523
123.0580, 3615.480
124.2880, 4119.492
125.5190, 4636.891
126.7490, 5193.609
127.9790, 6112.805
129.2090, 7057.285
130.4390, 7931.773
131.6680, 9149.734
132.8980, 10498.00
134.1270, 12124.11
135.3560, 14436.39
136.5850, 16923.08
137.8140, 20870.62
139.0430, 25286.42
140.2710, 28455.75
141.5000, 29360.07
142.7280, 27727.04
143.9560, 24157.39
145.1840, 19899.91
146.4120, 16910.54
147.6390, 14455.13
148.8670, 12389.35
150.0940, 11459.18
151.3210, 10824.36
152.5490, 10007.67
153.7750, 9370.578
155.0020, 8859.227
156.2290, 8186.770
157.4550, 7720.340
158.6810, 7163.062
159.9080, 6783.871
161.1340, 6512.535
162.3590, 6168.777
163.5850, 6419.551
164.8110, 6507.383
166.0360, 6041.912
167.2610, 5954.805
168.4860, 5914.699
169.7110, 6107.996
170.9360, 6233.906
172.1610, 5961.883
173.3850, 5748.457
174.6100, 5746.260
175.8340, 5843.943
177.0580, 5992.250
178.2820, 5849.297
179.5050, 5970.949
180.7290, 5868.367
181.9520, 5794.949
183.1760, 5490.609
184.3990, 5379.191
185.6220, 5400.934
186.8450, 5018.293
188.0670, 4975.191
189.2900, 4962.865
190.5120, 4966.682
191.7340, 4782.711
192.9560, 4779.775
194.1780, 4635.893
195.4000, 4282.879
196.6220, 4107.094
197.8430, 3764.637
199.0640, 3548.971
200.2860, 3680.586
201.5070, 3804.816
202.7270, 3178.578
203.9480, 2682.215
205.1690, 2105.082
206.3890, 1903.051
207.6090, 1597.150
208.8290, 1249.686
210.0490, 1273.553
211.2690, 1227.205
212.4890, 1074.578
213.7080, 996.6211
214.9280, 849.2812
216.1470, 726.5137
217.3660, 664.2871
218.5850, 369.5859
219.8030, 592.4062
221.0220, 28.74414
222.2400, 306.5996
223.4590, 108.9785
224.6770, 125.1172
225.8950, 44.32031
227.1120, 31.70703
228.3300, 3.781250
229.5480, 230.2832
230.7650, 103.9512
231.9820, 328.2559
233.1990, 280.2090
234.4160, 507.7715
235.6330, 509.1426
236.8490, 223.3574
238.0660, 453.6426
239.2820, 432.5137
240.4980, 203.5547
241.7140, 293.4980
242.9300, 354.1641
244.1460, 419.9727
245.3610, 450.2871
246.5770, 477.0762
247.7920, 506.9316
249.0070, 428.0410
250.2220, 666.4805
251.4370, 398.3281
252.6510, 180.5000
253.8660, 52.87891
255.0800, 292.1562
256.2940, 53.88086
257.5080, 6.076172
258.7220, 34.13281
259.9360, 340.2715
261.1490, 156.2539
262.3630, 457.8184
263.5760, 565.0508
264.7890, 760.6172
266.0020, 763.5137
267.2150, 715.8066
268.4270, 776.7871
269.6400, 881.1133
270.8520, 1043.734
272.0640, 1221.617
273.2760, 1365.730
274.4880, 1714.059
275.7000, 2113.611
276.9120, 2262.383
278.1230, 2562.369
279.3340, 2437.561
280.5450, 2459.939
281.7560, 2596.482
282.9670, 2538.160
284.1780, 2296.926
285.3880, 2081.729
286.5980, 2159.531
287.8090, 2229.309
289.0190, 2120.039
290.2290, 2234.729
291.4380, 2142.398
292.6480, 2126.082
293.8570, 2192.811
295.0670, 2330.652
296.2760, 2492.615
297.4850, 2587.756
298.6930, 2604.082
299.9020, 2539.656
301.1110, 2810.455
302.3190, 2946.420
303.5270, 2827.482
304.7350, 3129.656
305.9430, 2930.930
307.1510, 3227.273
308.3580, 3390.664
309.5660, 3700.963
310.7730, 3646.195
311.9800, 3871.158
313.1870, 4069.902
314.3940, 4346.305
315.6010, 4357.250
316.8070, 4601.555
318.0130, 4871.473
319.2200, 5239.070
320.4260, 5138.410
321.6310, 5484.439
322.8370, 5612.094
324.0430, 5810.379
325.2480, 5740.609
326.4540, 5738.916
327.6590, 5799.838
328.8640, 5930.391
330.0680, 5863.793
331.2730, 5780.770
332.4780, 5883.338
333.6820, 5692.510
334.8860, 5796.326
336.0900, 5477.828
337.2940, 5426.059
338.4980, 5519.031
339.7010, 5200.748
340.9050, 5072.199
342.1080, 4849.369
343.3110, 4504.254
344.5140, 4737.863
345.7170, 4560.188
346.9200, 4584.246
348.1220, 4246.406
349.3240, 4234.238
350.5270, 3896.420
351.7290, 3773.523
352.9310, 4123.133
354.1320, 3949.859
355.3340, 3668.602
356.5350, 3962.771
357.7370, 3700.482
358.9380, 3553.355
360.1390, 3450.566
361.3400, 3287.076
362.5400, 3378.643
363.7410, 3454.775
364.9410, 3371.998
366.1410, 3231.971
367.3410, 3410.170
368.5410, 2992.176
369.7410, 3109.311
370.9400, 3053.547
372.1400, 3191.779
373.3390, 2992.826
374.5380, 2990.133
375.7370, 2852.320
376.9360, 2943.387
378.1350, 2949.434
379.3330, 2861.168
380.5310, 2662.793
381.7300, 2903.332
382.9280, 2837.408
384.1260, 2957.816
385.3230, 3161.613
386.5210, 3217.799
387.7180, 3434.238
388.9160, 3415.635
390.1130, 3458.238
391.3100, 3324.295
392.5060, 3215.633
393.7030, 3204.672
394.9000, 3422.812
396.0960, 3148.586
397.2920, 3293.793
398.4880, 3405.734
399.6840, 3354.297
400.8800, 3058.402
402.0750, 3259.070
403.2710, 2858.754
404.4660, 2918.586
405.6610, 2960.785
406.8560, 2896.977
408.0510, 3118.939
409.2450, 3139.465
410.4400, 2995.621
411.6340, 3220.832
412.8280, 3259.752
414.0220, 3488.248
415.2160, 3502.439
416.4100, 3865.232
417.6030, 4082.986
418.7970, 4103.002
419.9900, 4380.795
421.1830, 4555.248
422.3760, 4657.867
423.5690, 5206.844
424.7610, 5445.051
425.9540, 5771.305
427.1460, 6319.207
428.3380, 6635.156
429.5300, 7092.607
430.7220, 7991.328
431.9140, 8278.766
433.1050, 8940.020
434.2970, 9546.918
435.4880, 10006.54
436.6790, 10777.82
437.8700, 11868.50
439.0610, 12254.60
440.2510, 13139.57
441.4420, 13751.92
442.6320, 14613.98
443.8220, 15586.64
445.0120, 16529.60
446.2020, 17324.84
447.3910, 18303.21
448.5810, 18795.74
449.7700, 19928.05
450.9600, 20460.89
452.1490, 20777.57
453.3370, 21541.38
454.5260, 22081.83
455.7150, 22731.76
456.9030, 23122.76
458.0910, 23825.32
459.2800, 24091.65
460.4670, 24777.30
461.6550, 24933.58
462.8430, 25880.94
464.0300, 26425.10
465.2180, 27115.33
466.4050, 27516.53
467.5920, 28080.25
468.7790, 28888.22
469.9650, 29800.51
471.1520, 30093.54
472.3380, 30669.68
473.5250, 31000.22
474.7110, 31346.20
475.8970, 31335.62
477.0820, 31208.01
478.2680, 30622.34
479.4540, 29779.62
480.6390, 29058.85
481.8240, 27971.04
483.0090, 26663.17
484.1940, 24983.26
485.3780, 23874.30
486.5630, 21911.30
487.7470, 20308.26
488.9320, 19034.17
490.1160, 17795.04
491.3000, 16120.88
492.4830, 14901.70
493.6670, 13639.50
494.8500, 12684.29
496.0340, 11289.07
497.2170, 10491.87
498.4000, 9594.674
499.5820, 8932.492
500.7650, 8166.328
501.9480, 7604.186
503.1300, 7029.410
504.3120, 6421.926
505.4940, 6106.891
506.6760, 5676.922
507.8580, 5430.000
509.0390, 5255.201
510.2210, 5042.480
511.4020, 4824.105
512.5830, 4390.553
513.7640, 3978.018
514.9450, 3979.834
516.1250, 3368.598
517.3060, 3456.736
518.4860, 3005.621
519.6660, 2851.150
520.8460, 2735.891
522.0260, 2365.900
523.2060, 2055.895
524.3850, 1912.369
525.5650, 2254.098
526.7440, 1930.074
527.9230, 1772.242
529.1020, 1767.623
530.2810, 1301.232
531.4590, 1468.090
532.6380, 1176.205
533.8160, 1202.582
534.9940, 1090.229
536.1720, 1008.117
537.3500, 916.3203
538.5270, 709.7734
539.7050, 609.3945
540.8820, 457.2500
542.0590, 611.2402
543.2360, 498.4297
544.4130, 534.7637
545.5900, 408.2266
546.7660, 423.7812
547.9430, 428.4512
549.1190, 257.2109
550.2950, 374.1309
551.4710, 387.1309
552.6470, 342.2012
553.8220, 254.3379
554.9980, 280.5527
556.1730, 107.8359
557.3480, 228.1680
558.5230, 196.5840
559.6980, 34.04883
560.8730, 167.5645
562.0470, 80.17383
563.2220, 263.8145
564.3960, 216.3770
565.5700, 109.2129
566.7440, 160.0176
567.9170, 114.8477
569.0910, 30.71875
570.2640, 104.6562
571.4380, 50.80469
572.6110, 121.6523
573.7840, 5.724609
574.9570, 130.8457
576.1290, 42.03711
577.3020, 51.26758
578.4740, 173.4277
579.6460, 184.8594
580.8180, 159.8027
581.9900, 34.52344
583.1620, 183.1113
584.3330, 205.7480
585.5040, 191.4160
586.6760, 37.10156
587.8470, 137.7637
589.0180, 63.42773
590.1880, 84.22461
591.3590, 276.5391
592.5290, 151.1836
593.7000, 153.8555
594.8700, 195.3945
596.0400, 36.08984
597.2090, 119.7734
598.3790, 135.7188
599.5490, 156.3828
600.7180, 118.9727
601.8870, 88.66406
603.0560, 206.3594
604.2250, 308.0898
605.3940, 9.910156
606.5620, 94.65234
607.7300, 84.58984
608.8990, 9.582031
610.0670, 33.66797
611.2350, 77.96875
612.4020, 37.15625
613.5700, 166.7617
614.7370, 40.40234
615.9050, 378.9219
617.0720, 278.1602
618.2390, 374.4336
619.4060, 437.8555
620.5720, 509.6094
621.7390, 629.5000
622.9050, 749.9453
624.0710, 790.7188
625.2370, 1048.824
626.4030, 1115.973
627.5690, 1268.160
628.7340, 1296.391
629.9000, 1519.992
631.0650, 1873.023
632.2300, 1916.453
633.3950, 2189.973
634.5600, 2320.520
635.7240, 2235.105
636.8890, 2471.727
638.0530, 1977.383
639.2170, 2114.070
640.3810, 2158.797
641.5450, 1833.551
642.7080, 1952.352
643.8720, 1619.188
645.0350, 1743.051
646.1980, 1304.988
647.3610, 1413.957
648.5240, 1193.953
649.6870, 917.9805
650.8490, 1114.043
652.0120, 813.1289
653.1740, 1019.246
654.3360, 802.3906
655.4980, 749.5625
656.6600, 714.7500
657.8210, 715.9648
658.9830, 649.2031
660.1440, 624.4609
661.3050, 582.1875
662.4660, 588.6367
663.6270, 397.3633
664.7870, 698.6992
665.9480, 438.0469
667.1080, 628.4062
668.2680, 674.7734
669.4280, 272.2930
670.5880, 196.6758
671.7480, 319.2344
672.9070, 361.8789
674.0670, 185.7578
675.2260, 486.1602
676.3850, 311.0352
677.5440, 140.5039
678.7030, 294.2695
679.8610, 15.07422
681.0200, 421.0156
682.1780, 252.1953
683.3360, 368.1641
684.4940, 515.9453
685.6520, 396.7031
686.8090, 415.3906
687.9670, 424.6172
689.1240, 415.9727
690.2810, 550.1562
691.4380, 413.9883
692.5950, 501.6211
693.7520, 412.2812
694.9080, 469.5781
696.0650, 388.9375
697.2210, 501.3984
698.3770, 547.0391
699.5330, 531.7188
700.6880, 589.8867
701.8440, 439.3164
702.9990, 552.7109
704.1550, 633.4609
705.3100, 487.0117
706.4650, 525.9648
707.6190, 651.5273
708.7740, 918.6328
709.9290, 1226.422
711.0830, 1194.902
712.2370, 958.4531
713.3910, 1047.715
714.5450, 841.8398
715.6980, 962.2969
716.8520, 791.0898
718.0050, 617.1406
719.1580, 714.5156
720.3110, 929.7188
721.4640, 621.0859
722.6170, 609.2188
723.7700, 606.5312
724.9220, 426.0352
726.0740, 472.7148
727.2260, 315.0586
728.3780, 237.9922
729.5300, 564.6211
730.6810, 487.4531
731.8330, 383.9297
732.9840, 216.5391
734.1350, 388.1328
735.2860, 98.05469
736.4370, 508.5078
737.5880, 404.0273
738.7380, 234.1094
739.8880, 490.0820
741.0390, 304.2539
742.1890, 341.9023
743.3380, 390.8047
744.4880, 19.53125
745.6380, 33.28125
746.7870, 54.37109
747.9360, 252.9961
749.0850, 256.0664
750.2340, 1.457031
751.3830, 212.4961
752.5310, 213.7109
753.6800, 275.4648
754.8280, 52.46875
755.9760, 115.0078
757.1240, 94.24609
758.2720, 377.7109
759.4190, 396.6094
760.5670, 290.7305
761.7140, 365.8438
762.8610, 496.2461
764.0080, 358.2734
765.1550, 381.8320
766.3020, 517.4492
767.4480, 456.2148
768.5950, 574.8828
769.7410, 426.5078
770.8870, 484.0273
772.0330, 570.6328
773.1780, 639.7227
774.3240, 685.6211
775.4690, 768.6445
776.6140, 890.3828
777.7590, 863.2773
778.9040, 903.4922
780.0490, 855.5508
781.1940, 947.6523
782.3380, 972.4180
783.4820, 825.6367
784.6260, 1138.613
785.7700, 1175.145
786.9140, 1000.195
788.0580, 1054.336
789.2010, 1203.969
790.3450, 1125.332
791.4880, 1383.008
792.6310, 1207.445
793.7730, 827.8203
794.9160, 924.4727
796.0590, 743.7852
797.2010, 800.6992
798.3430, 720.9727
799.4850, 511.8867
800.6270, 525.2734
801.7690, 645.7109
802.9100, 479.2148
804.0520, 741.1094
805.1930, 685.7930
806.3340, 409.9141
807.4750, 506.9805
808.6160, 167.9414
809.7560, 387.3281
810.8970, 334.6406
812.0370, 527.9102
813.1770, 337.0703
814.3170, 197.1562
815.4570, 364.1445
816.5960, 117.0742
817.7360, 318.8320
818.8750, 110.3984
820.0140, 311.1875
821.1530, 353.6992
822.2920, 120.1250
823.4310, 134.4727
824.5690, 45.94141
825.7070, 263.1133
826.8460, 22.79297
827.9840, 104.5820
829.1220, 358.2773
830.2590, 49.90234
831.3970, 141.4297
832.5340, 193.8672
833.6710, 25.77344
834.8080, 216.4453
835.9450, 6.589844
837.0820, 136.3867
838.2190, 151.4492
839.3550, 61.20312
840.4910, 209.8516
841.6270, 130.5781
842.7630, 340.8086
843.8990, 148.1133
845.0350, 49.66797
846.1700, 319.4062
847.3060, 336.4062
848.4410, 35.32812
849.5760, 58.14844
850.7100, 13.13281
851.8450, 320.4688
852.9800, 14.01562
854.1140, 328.3828
855.2480, 230.7266
856.3820, 164.9883
857.5160, 312.1953
858.6500, 11.32422
859.7830, 107.3711
860.9170, 73.37109
862.0500, 164.3125
863.1830, 91.17969
864.3160, 25.02344
865.4480, 49.44141
866.5810, 96.10938
867.7130, 299.6289
868.8460, 229.0898
869.9780, 96.64453
871.1100, 18.63672
872.2410, 43.85938
873.3730, 141.2109
874.5050, 88.21484
875.6360, 175.0703
876.7670, 179.9570
877.8980, 85.77734
879.0290, 204.5508
880.1590, 202.3086
881.2900, 171.0898
882.4200, 8.308594
883.5500, 196.4297
884.6800, 10.86719
885.8100, 166.1953
886.9400, 85.40234
888.0690, 289.5000
889.1990, 83.68359
890.3280, 304.1797
891.4570, 65.28516
892.5860, 6.304688
893.7140, 173.8789
894.8430, 293.5000
895.9710, 202.7227
897.1000, 44.65234
898.2280, 50.11719
899.3560, 64.78906
900.4830, 88.10938
901.6110, 80.87500
902.7380, 25.28906
903.8660, 94.39062
904.9930, 111.2266
906.1200, 111.2266
907.2460, 430.6094
908.3730, 301.3789
909.5000, 329.0703
910.6260, 121.6875
911.7520, 259.2344
912.8780, 282.7031
914.0040, 429.1016
915.1290, 15.42969
916.2550, 183.6680
917.3800, 246.8281
918.5050, 94.07812
919.6300, 401.8633
920.7550, 250.7383
921.8800, 109.5430
923.0040, 310.2773
924.1290, 416.9336
925.2530, 53.53125
926.3770, 368.0469
927.5010, 437.5000
928.6250, 490.8867
929.7480, 318.2148
930.8720, 143.4727
931.9950, 218.6641
933.1180, 113.7812
934.2410, 182.8281
935.3640, 288.8086
936.4860, 258.7227
937.6090, 223.5742
938.7310, 349.3633
939.8530, 481.0938
940.9750, 257.7617
942.0970, 250.2266
943.2180, 256.7617
944.3400, 434.0781
945.4610, 379.2422
946.5820, 360.1289
947.7030, 584.4336
948.8240, 413.2109
949.9450, 538.3359
951.0650, 610.0938
952.1860, 593.7617
953.3060, 489.2188
954.4260, 385.3789
955.5460, 605.6836
956.6650, 580.1094
957.7850, 690.5156
958.9040, 684.9258
960.0230, 663.7227
961.1420, 406.8477
962.2610, 734.5586
963.3800, 667.5586
964.4990, 593.6250
965.6170, 766.2578
966.7350, 749.3164
967.8530, 1023.543
968.9710, 732.1289
970.0890, 880.3516
971.2070, 563.8086
972.3240, 889.2891
973.4410, 746.0898
974.5580, 1235.645
975.6750, 870.6016
976.7920, 1018.258
977.9090, 1070.672
979.0250, 1149.266
980.1410, 1240.969
981.2580, 1135.246
982.3740, 1223.559
983.4890, 1346.039
984.6050, 1380.215
985.7200, 1507.051
986.8360, 1557.516
987.9510, 1552.594
989.0660, 1660.910
990.1810, 1515.508
991.2950, 1535.797
992.4100, 1503.664
993.5240, 1577.863
994.6390, 1565.738
995.7530, 1649.004
996.8660, 1464.184
997.9800, 1599.809
999.0940, 1569.699
1000.207, 1578.109
1001.320, 1688.781
1002.433, 1832.445
1003.546, 1575.781
1004.659, 1855.168
1005.772, 1711.672
1006.884, 1577.363
1007.996, 1697.262
1009.108, 1533.754
1010.220, 1709.891
1011.332, 2170.023
1012.444, 2745.445
1013.555, 1880.625
1014.666, 2021.766
1015.777, 1746.773
1016.888, 2235.852
1017.999, 2238.004
1019.110, 1929.281
1020.220, 2235.289
1021.331, 2087.566
1022.441, 2205.074
1023.551, 2217.469
1024.661, 1911.008
1025.770, 2249.043
1026.880, 1904.250
1027.989, 2012.156
1029.098, 1682.555
1030.207, 2033.672
1031.316, 1945.727
1032.425, 2255.438
1033.533, 2203.461
1034.642, 2218.875
1035.750, 2055.168
1036.858, 1878.242
1037.966, 2097.344
1039.073, 1833.426
1040.181, 1877.535
1041.288, 1951.492
1042.396, 2281.898
1043.503, 2271.418
1044.610, 2331.066
1045.716, 2874.293
1046.823, 1834.617
1047.929, 1987.543
1049.036, 2265.559
1050.142, 2167.461
1051.248, 2042.621
1052.353, 2487.273
1053.459, 2232.086
1054.564, 2214.273
1055.670, 2462.867
1056.775, 2371.309
1057.880, 2471.180
1058.985, 2604.254
1060.089, 2423.945
1061.194, 2585.801
1062.298, 2512.652
1063.402, 2290.152
1064.506, 2600.918
1065.610, 2639.012
1066.713, 2603.668
1067.817, 2595.645
1068.920, 2797.051
1070.023, 2854.918
1071.126, 2702.062
1072.229, 3101.746
1073.332, 2908.574
1074.435, 2944.891
1075.537, 3024.180
1076.639, 2945.508
1077.741, 2749.066
1078.843, 2991.934
1079.945, 3135.992
1081.046, 3187.988
1082.148, 2870.527
1083.249, 3029.637
1084.350, 2998.316
1085.451, 2958.598
1086.551, 3184.754
1087.652, 2921.000
1088.752, 3142.988
1089.853, 3174.562
1090.953, 3291.402
1092.053, 3216.059
1093.152, 3207.297
1094.252, 3203.535
1095.351, 3115.602
1096.451, 2926.684
1097.550, 2880.332
1098.649, 2847.641
1099.748, 2720.488
1100.846, 2899.609
1101.945, 2959.770
1103.043, 3076.023
1104.141, 2801.219
1105.239, 2424.477
1106.337, 2617.746
1107.434, 2617.031
1108.532, 2875.332
1109.629, 2501.754
1110.726, 2676.984
1111.823, 2566.504
1112.920, 2699.930
1114.017, 2800.707
1115.113, 2680.148
1116.210, 2659.609
1117.306, 2722.086
1118.402, 2696.598
1119.498, 2554.121
1120.593, 2688.672
1121.689, 2663.426
1122.784, 2483.000
1123.879, 2644.590
1124.974, 2577.750
1126.069, 2668.375
1127.164, 2384.395
1128.259, 2420.270
1129.353, 2328.125
1130.447, 2125.812
1131.541, 2254.492
1132.635, 2150.297
1133.729, 2290.871
1134.822, 2261.660
1135.916, 1766.461
1137.009, 2046.883
1138.102, 1756.820
1139.195, 1852.160
1140.288, 1919.930
1141.380, 1877.559
1142.473, 1887.641
1143.565, 1806.992
1144.657, 1872.559
1145.749, 1808.195
1146.841, 1782.027
1147.932, 1768.746
1149.024, 1732.027
1150.115, 1751.355
1151.206, 1592.551
1152.297, 1698.633
1153.388, 1416.984
1154.479, 1435.121
1155.569, 1606.508
1156.659, 1368.695
1157.750, 987.4453
1158.839, 1069.672
1159.929, 1159.969
1161.019, 1266.363
1162.108, 996.8398
1163.198, 1145.555
1164.287, 1053.078
1165.376, 1134.613
1166.465, 1007.195
1167.553, 1052.770
1168.642, 1055.359
1169.730, 746.9922
1170.818, 1051.684
1171.906, 299.4219
1172.994, 520.1680
1174.082, 652.9180
1175.170, 512.6758
1176.257, 617.4414
1177.344, 623.2344
1178.431, 560.0078
1179.518, 662.7930
1180.605, 715.5938
1181.691, 747.3984
1182.778, 423.2148
1183.864, 553.0742
1184.950, 134.9375
1186.036, 261.8086
1187.122, 293.6914
1188.207, 278.5781
1189.292, 333.2891
1190.378, 477.5547
1191.463, 392.4570
1192.548, 383.3711
1193.632, 502.2852
1194.717, 326.2031
1195.801, 177.1289
1196.886, 182.0664
1197.970, 16.39453
1199.054, 275.3438
1200.137, 54.70312
1201.221, 156.2383
1202.305, 394.1914
1203.388, 312.1445
1204.471, 416.1406
1205.554, 139.0586
1206.637, 270.0273
1207.719, 249.9961
1208.802, 40.03125
1209.884, 20.93359
1210.966, 12.09766
1212.048, 141.8633
1213.130, 140.8320
1214.212, 17.19922
1215.293, 52.76172
1216.374, 90.86328
1217.456, 49.83203
1218.536, 163.8047
1219.617, 78.22656
1220.698, 172.7188
1221.778, 66.66406
1222.859, 528.6094
1223.939, 11.57812
1225.019, 389.5234
1226.099, 110.4688
1227.178, 8.582031
1228.258, 217.3555
1229.337, 198.3008
1230.417, 65.24219
1231.496, 417.1875
1232.574, 47.12891
1233.653, 367.0703
1234.732, 434.0117
1235.810, 229.9531
1236.888, 130.8945
1237.966, 102.8359
1239.044, 63.77734
1240.122, 117.2891
1241.199, 200.4141
1242.277, 181.3555
1243.354, 5.242188
1244.431, 157.0078
1245.508, 308.7656
1246.585, 199.5234
1247.661, 193.2812
1248.738, 163.0352
1249.814, 121.7852
1250.890, 49.53516
1251.966, 242.2812
1253.042, 173.0234
1254.117, 18.87891
1255.193, 161.8594
1256.268, 48.41406
1257.343, 172.7109
1258.418, 59.88672
1259.493, 139.4844
1260.567, 245.9297
1261.642, 100.5273
1262.716, 0.9726560
1263.790, 123.4102
1264.864, 142.8398
1265.938, 60.73047
1267.011, 100.6484
1268.085, 56.98047
1269.158, 381.6484
1270.231, 155.5312
1271.304, 93.48828
1272.377, 236.4961
1273.450, 122.5078
1274.522, 60.81641
1275.594, 33.95703
1276.666, 215.9102
1277.738, 48.75781
1278.810, 66.70703
1279.882, 336.7695
1280.953, 205.4961
