##NAMES=Chabazite-Ca
##RRUFFID=R050014
##IDEAL CHEMISTRY=Ca_2_Al_4_Si_8_O_24_&#183;13H_2_O
##LOCALITY=Tablo Mountain, Baja California, Mexico
##OWNER=RRUFF
##SOURCE=University of Arizona Mineral Museum
##DESCRIPTION=Light tan colored rhombohedral single crystals
##STATUS=The identification of this mineral has been confirmed by X-ray diffraction and chemical analysis
##URL=rruff.info/R050014
##MEASURED CHEMISTRY=(Ca_0.72_Mg_0.11_K_0.09_Sr_0.06_Na_0.01_)_Σ=1_(Si_4.12_Al_1.88_)O_12_·6H_2_O
##PIN_ID=M00165
##ORIENTATION=Laser parallel to (-1 -1 -1). Fiducial mark perpendicular to laser is parallel to [-1 1 0]
105.8150, 0.0000000E+00
107.0470, 606.2070
108.2800, 1354.543
109.5120, 803.5781
110.7440, 34.23828
111.9760, 40.24609
113.2080, 364.6836
114.4400, 753.7930
115.6710, 942.3828
116.9030, 1163.922
118.1340, 1281.988
119.3650, 1502.914
120.5960, 1543.602
121.8270, 1941.137
123.0580, 2454.621
124.2880, 2651.543
125.5190, 2840.637
126.7490, 3543.387
127.9790, 3557.961
129.2090, 4166.660
130.4390, 4748.148
131.6680, 5126.855
132.8980, 5684.051
134.1270, 5738.941
135.3560, 6741.125
136.5850, 7072.355
137.8140, 8312.938
139.0430, 9516.281
140.2710, 10623.87
141.5000, 11931.73
142.7280, 13264.03
143.9560, 13722.45
145.1840, 13209.69
146.4120, 12339.67
147.6390, 11097.81
148.8670, 9823.098
150.0940, 8869.184
151.3210, 8317.805
152.5490, 7634.121
153.7750, 7185.951
155.0020, 6987.809
156.2290, 6539.789
157.4550, 6405.516
158.6810, 6221.516
159.9080, 6018.971
161.1340, 5965.076
162.3590, 5744.051
163.5850, 5896.936
164.8110, 5741.473
166.0360, 5837.803
167.2610, 5613.205
168.4860, 5529.693
169.7110, 5520.553
170.9360, 5842.707
172.1610, 5912.766
173.3850, 5827.715
174.6100, 5789.838
175.8340, 5655.695
177.0580, 5686.904
178.2820, 5744.453
179.5050, 5694.482
180.7290, 5740.809
181.9520, 5715.535
183.1760, 5705.162
184.3990, 5590.078
185.6220, 5545.164
186.8450, 5437.754
188.0670, 5344.844
189.2900, 5221.301
190.5120, 4966.076
191.7340, 4976.246
192.9560, 4705.139
194.1780, 4518.680
195.4000, 4608.467
196.6220, 4354.543
197.8430, 4125.926
199.0640, 3926.436
200.2860, 3716.213
201.5070, 3425.508
202.7270, 3166.832
203.9480, 2818.486
205.1690, 2656.633
206.3890, 2337.971
207.6090, 2272.922
208.8290, 1871.789
210.0490, 2004.551
211.2690, 1685.170
212.4890, 1607.605
213.7080, 1679.816
214.9280, 1230.760
216.1470, 1176.395
217.3660, 1211.688
218.5850, 1029.615
219.8030, 782.1641
221.0220, 1038.326
222.2400, 557.0898
223.4590, 341.4629
224.6770, 242.4395
225.8950, 484.0234
227.1120, 312.2188
228.3300, 42.03125
229.5480, 379.4512
230.7650, 190.4570
231.9820, 22.03125
233.1990, 10.84375
234.4160, 128.6934
235.6330, 123.9980
236.8490, 223.3223
238.0660, 142.2012
239.2820, 147.7148
240.4980, 333.8770
241.7140, 84.69141
242.9300, 458.2754
244.1460, 124.7676
245.3610, 316.2305
246.5770, 523.6621
247.7920, 376.0879
249.0070, 501.4980
250.2220, 336.0605
251.4370, 161.7324
252.6510, 527.6934
253.8660, 363.6445
255.0800, 265.5781
256.2940, 281.9980
257.5080, 135.1562
258.7220, 88.09570
259.9360, 81.33984
261.1490, 16.93164
262.3630, 8.544922
263.5760, 139.3086
264.7890, 223.4082
266.0020, 47.27539
267.2150, 148.5488
268.4270, 173.8887
269.6400, 195.7070
270.8520, 319.9766
272.0640, 536.6797
273.2760, 472.7988
274.4880, 315.3145
275.7000, 680.2031
276.9120, 711.4824
278.1230, 670.1504
279.3340, 805.1973
280.5450, 820.6230
281.7560, 1011.424
282.9670, 1324.592
284.1780, 1437.117
285.3880, 1455.971
286.5980, 1403.123
287.8090, 1516.541
289.0190, 1585.199
290.2290, 1569.084
291.4380, 1803.197
292.6480, 1544.594
293.8570, 1768.240
295.0670, 1681.186
296.2760, 2176.426
297.4850, 1877.994
298.6930, 2226.910
299.9020, 2395.240
301.1110, 2292.969
302.3190, 2406.102
303.5270, 2683.621
304.7350, 2884.531
305.9430, 2823.850
307.1510, 3070.555
308.3580, 3440.666
309.5660, 3643.184
310.7730, 3566.016
311.9800, 3836.121
313.1870, 4019.406
314.3940, 4346.010
315.6010, 4496.701
316.8070, 4689.389
318.0130, 5078.012
319.2200, 5101.527
320.4260, 5436.945
321.6310, 5343.369
322.8370, 5808.578
324.0430, 5875.645
325.2480, 6106.699
326.4540, 5967.805
327.6590, 6041.066
328.8640, 5958.707
330.0680, 6183.738
331.2730, 5912.164
332.4780, 5888.023
333.6820, 5858.412
334.8860, 5701.418
336.0900, 5715.035
337.2940, 5389.320
338.4980, 5151.283
339.7010, 5182.945
340.9050, 5058.352
342.1080, 5141.508
343.3110, 4740.420
344.5140, 4572.092
345.7170, 4504.525
346.9200, 4395.734
348.1220, 4098.727
349.3240, 4123.516
350.5270, 3921.115
351.7290, 3715.354
352.9310, 3805.146
354.1320, 3672.086
355.3340, 3533.408
356.5350, 3413.221
357.7370, 3244.535
358.9380, 3136.984
360.1390, 3200.383
361.3400, 3129.312
362.5400, 3190.297
363.7410, 3088.684
364.9410, 3022.852
366.1410, 2869.012
367.3410, 2985.430
368.5410, 2839.342
369.7410, 2935.855
370.9400, 2739.965
372.1400, 2713.928
373.3390, 2699.115
374.5380, 2622.178
375.7370, 2695.680
376.9360, 2750.527
378.1350, 2750.283
379.3330, 2879.590
380.5310, 2654.145
381.7300, 2674.416
382.9280, 2550.742
384.1260, 2684.688
385.3230, 2722.916
386.5210, 2752.766
387.7180, 2759.152
388.9160, 2673.469
390.1130, 2700.781
391.3100, 2910.111
392.5060, 2704.752
393.7030, 2768.588
394.9000, 2943.898
396.0960, 2777.266
397.2920, 2797.436
398.4880, 3051.607
399.6840, 2773.609
400.8800, 2892.234
402.0750, 2873.709
403.2710, 2679.777
404.4660, 3108.457
405.6610, 3123.207
406.8560, 2868.154
408.0510, 2989.627
409.2450, 2953.789
410.4400, 3332.855
411.6340, 3676.375
412.8280, 3336.914
414.0220, 3455.848
415.2160, 3889.850
416.4100, 3889.926
417.6030, 4127.756
418.7970, 4182.539
419.9900, 4670.654
421.1830, 5079.703
422.3760, 5131.473
423.5690, 5548.910
424.7610, 5993.703
425.9540, 6072.863
427.1460, 6332.234
428.3380, 7063.742
429.5300, 7969.041
430.7220, 8248.855
431.9140, 9074.062
433.1050, 9473.156
434.2970, 10020.71
435.4880, 10491.47
436.6790, 11343.85
437.8700, 12233.55
439.0610, 13004.73
440.2510, 13693.22
441.4420, 14555.77
442.6320, 15326.15
443.8220, 16356.53
445.0120, 17043.22
446.2020, 18125.91
447.3910, 19227.12
448.5810, 19872.95
449.7700, 20406.29
450.9600, 21386.43
452.1490, 21817.26
453.3370, 22682.67
454.5260, 23077.39
455.7150, 23362.09
456.9030, 24100.77
458.0910, 24445.74
459.2800, 25165.28
460.4670, 25509.73
461.6550, 25850.98
462.8430, 26568.85
464.0300, 26694.55
465.2180, 27418.99
466.4050, 28171.42
467.5920, 28591.06
468.7790, 29735.67
469.9650, 30680.65
471.1520, 31230.20
472.3380, 31754.93
473.5250, 32924.80
474.7110, 32961.77
475.8970, 33780.64
477.0820, 33747.11
478.2680, 33910.48
479.4540, 33563.38
480.6390, 33138.22
481.8240, 32449.01
483.0090, 31441.74
484.1940, 29837.81
485.3780, 28215.45
486.5630, 26854.04
487.7470, 25051.57
488.9320, 23536.06
490.1160, 21798.51
491.3000, 19880.92
492.4830, 18505.28
493.6670, 17137.60
494.8500, 15967.88
496.0340, 14671.12
497.2170, 13219.35
498.4000, 11982.54
499.5820, 11337.71
500.7650, 10160.86
501.9480, 9627.992
503.1300, 8624.113
504.3120, 8027.223
505.4940, 7386.324
506.6760, 6614.424
507.8580, 6251.527
509.0390, 6085.633
510.2210, 5407.756
511.4020, 5280.914
512.5830, 4705.117
513.7640, 4214.346
514.9450, 4186.615
516.1250, 3839.965
517.3060, 3226.346
518.4860, 3298.783
519.6660, 3142.307
520.8460, 2810.930
522.0260, 2480.684
523.2060, 2428.562
524.3850, 2250.598
525.5650, 2052.764
526.7440, 2032.066
527.9230, 2040.553
529.1020, 1628.156
530.2810, 1655.977
531.4590, 1647.924
532.6380, 1110.057
533.8160, 1216.424
534.9940, 1307.986
536.1720, 1122.777
537.3500, 1040.779
538.5270, 853.9219
539.7050, 950.3008
540.8820, 954.8828
542.0590, 786.6348
543.2360, 693.5664
544.4130, 792.6406
545.5900, 621.8438
546.7660, 548.1367
547.9430, 533.5410
549.1190, 382.0586
550.2950, 436.7207
551.4710, 222.4570
552.6470, 307.3164
553.8220, 444.2559
554.9980, 388.3457
556.1730, 65.59180
557.3480, 310.8965
558.5230, 99.57031
559.6980, 76.76758
560.8730, 22.24414
562.0470, 37.82031
563.2220, 166.4395
564.3960, 233.0996
565.5700, 112.8594
566.7440, 101.6914
567.9170, 37.55469
569.0910, 58.43750
570.2640, 70.35938
571.4380, 76.30664
572.6110, 40.28320
573.7840, 82.31641
574.9570, 140.4023
576.1290, 226.4375
577.3020, 55.69336
578.4740, 125.1465
579.6460, 145.9902
580.8180, 40.15625
581.9900, 11.63672
583.1620, 227.4141
584.3330, 40.25195
585.5040, 9.078125
586.6760, 33.87305
587.8470, 75.64453
589.0180, 98.99219
590.1880, 144.2344
591.3590, 173.0703
592.5290, 272.9609
593.7000, 266.9316
594.8700, 79.97461
596.0400, 106.0215
597.2090, 239.0938
598.3790, 53.89062
599.5490, 212.2266
600.7180, 34.59570
601.8870, 221.1680
603.0560, 44.95312
604.2250, 50.24414
605.3940, 94.55664
606.5620, 76.38672
607.7300, 55.75195
608.8990, 129.0820
610.0670, 116.7656
611.2350, 59.02148
612.4020, 39.14062
613.5700, 87.73828
614.7370, 47.84375
615.9050, 52.74609
617.0720, 128.6797
618.2390, 140.4727
619.4060, 258.6074
620.5720, 242.7051
621.7390, 313.8340
622.9050, 353.9902
624.0710, 139.1641
625.2370, 454.3574
626.4030, 333.5723
627.5690, 483.8125
628.7340, 706.1094
629.9000, 673.4258
631.0650, 733.7676
632.2300, 819.1426
633.3950, 858.5332
634.5600, 906.9453
635.7240, 1009.398
636.8890, 867.9023
638.0530, 938.4219
639.2170, 850.9531
640.3810, 1034.502
641.5450, 921.0645
642.7080, 1153.652
643.8720, 843.2520
645.0350, 896.8711
646.1980, 1045.508
647.3610, 902.1562
648.5240, 766.8281
649.6870, 835.5117
650.8490, 583.2070
652.0120, 751.9297
653.1740, 762.6602
654.3360, 652.4023
655.4980, 751.1641
656.6600, 704.3945
657.8210, 715.1094
658.9830, 648.5234
660.1440, 684.3281
661.3050, 547.1484
662.4660, 386.9766
663.6270, 257.8125
664.7870, 304.6562
665.9480, 433.5039
667.1080, 736.3594
668.2680, 450.2109
669.4280, 328.0664
670.5880, 240.9180
671.7480, 536.7344
672.9070, 367.2344
674.0670, 473.0781
675.2260, 408.6914
676.3850, 376.6523
677.5440, 426.1836
678.7030, 353.7305
679.8610, 371.7852
681.0200, 429.8398
682.1780, 606.0117
683.3360, 478.9766
684.4940, 453.6094
685.6520, 245.7773
686.8090, 506.5508
687.9670, 493.5469
689.1240, 242.7383
690.2810, 348.0273
691.4380, 659.3047
692.5950, 585.4492
693.7520, 711.7891
694.9080, 623.4922
696.0650, 441.6406
697.2210, 471.9648
698.3770, 540.9727
699.5330, 326.3906
700.6880, 573.8125
701.8440, 780.8789
702.9990, 828.7812
704.1550, 714.0859
705.3100, 571.1055
706.4650, 617.1484
707.6190, 641.8203
708.7740, 768.1836
709.9290, 749.2617
711.0830, 727.5117
712.2370, 795.2578
713.3910, 815.1367
714.5450, 908.1875
715.6980, 658.7148
716.8520, 720.6172
718.0050, 583.9727
719.1580, 632.9453
720.3110, 638.3633
721.4640, 447.9570
722.6170, 598.5859
723.7700, 381.5859
724.9220, 478.8789
726.0740, 674.4531
727.2260, 632.1875
728.3780, 723.7344
729.5300, 621.6133
730.6810, 337.1953
731.8330, 545.6680
732.9840, 599.7617
734.1350, 706.1992
735.2860, 397.9102
736.4370, 234.0000
737.5880, 121.5391
738.7380, 106.0469
739.8880, 622.2305
741.0390, 366.1055
742.1890, 517.3125
743.3380, 419.9570
744.4880, 424.3086
745.6380, 517.9648
746.7870, 137.5742
747.9360, 339.8281
749.0850, 245.5156
750.2340, 553.9688
751.3830, 344.5156
752.5310, 283.2266
753.6800, 562.2930
754.8280, 529.2773
755.9760, 391.5547
757.1240, 433.5664
758.2720, 584.4336
759.4190, 526.9023
760.5670, 405.0938
761.7140, 619.5664
762.8610, 478.6211
764.0080, 690.2188
765.1550, 815.0820
766.3020, 749.9883
767.4480, 568.1562
768.5950, 723.3203
769.7410, 770.8398
770.8870, 809.4219
772.0330, 801.1836
773.1780, 924.4609
774.3240, 922.8789
775.4690, 894.3633
776.6140, 1006.781
777.7590, 979.6328
778.9040, 1135.895
780.0490, 1154.242
781.1940, 1327.102
782.3380, 1139.184
783.4820, 1355.730
784.6260, 1284.016
785.7700, 1025.922
786.9140, 1577.223
788.0580, 1296.020
789.2010, 1395.961
790.3450, 1148.090
791.4880, 1083.023
792.6310, 1100.664
793.7730, 979.5586
794.9160, 936.0352
796.0590, 890.4766
797.2010, 833.2930
798.3430, 753.5820
799.4850, 805.3906
800.6270, 767.1055
801.7690, 826.9102
802.9100, 778.4414
804.0520, 602.7969
805.1930, 489.5859
806.3340, 585.4688
807.4750, 733.1250
808.6160, 211.7422
809.7560, 288.2500
810.8970, 641.6758
812.0370, 260.0391
813.1770, 28.68359
814.3170, 246.4766
815.4570, 271.5547
816.5960, 47.97656
817.7360, 147.8906
818.8750, 354.7188
820.0140, 50.46875
821.1530, 241.1328
822.2920, 107.7188
823.4310, 200.2188
824.5690, 142.6367
825.7070, 280.9727
826.8460, 79.23047
827.9840, 103.4023
829.1220, 219.4922
830.2590, 195.4961
831.3970, 234.7031
832.5340, 214.8516
833.6710, 177.3320
834.8080, 179.2656
835.9450, 155.9297
837.0820, 18.04688
838.2190, 57.06250
839.3550, 359.9961
840.4910, 160.1484
841.6270, 52.48438
842.7630, 250.0430
843.8990, 270.4883
845.0350, 0.8632810
846.1700, 64.12500
847.3060, 118.3086
848.4410, 87.59375
849.5760, 39.65234
850.7100, 118.8359
851.8450, 70.19141
852.9800, 189.3477
854.1140, 173.8086
855.2480, 249.2070
856.3820, 39.46484
857.5160, 98.73438
858.6500, 46.85938
859.7830, 6.929688
860.9170, 16.08984
862.0500, 32.81250
863.1830, 224.5273
864.3160, 6.210938
865.4480, 52.81250
866.5810, 175.3555
867.7130, 29.15234
868.8460, 19.72656
869.9780, 17.35547
871.1100, 83.91016
872.2410, 191.1094
873.3730, 118.9258
874.5050, 141.0781
875.6360, 103.9258
876.7670, 48.40625
877.8980, 43.31250
879.0290, 27.13281
880.1590, 5.546875
881.2900, 28.48828
882.4200, 17.96875
883.5500, 1.648438
884.6800, 72.99609
885.8100, 53.08984
886.9400, 99.44922
888.0690, 237.1289
889.1990, 339.9180
890.3280, 28.14844
891.4570, 109.6719
892.5860, 39.41406
893.7140, 351.9336
894.8430, 3.433594
895.9710, 40.70312
897.1000, 105.8906
898.2280, 100.9961
899.3560, 61.63281
900.4830, 41.97266
901.6110, 92.16406
902.7380, 105.5508
903.8660, 18.19531
904.9930, 11.25781
906.1200, 201.1992
907.2460, 139.5742
908.3730, 44.12891
909.5000, 79.93750
910.6260, 477.1133
911.7520, 457.0977
912.8780, 278.0195
914.0040, 164.8711
915.1290, 125.6484
916.2550, 225.3594
917.3800, 156.9961
918.5050, 44.56250
919.6300, 312.0469
920.7550, 147.4727
921.8800, 44.82031
923.0040, 487.0977
924.1290, 2.312500
925.2530, 262.4414
926.3770, 292.5078
927.5010, 106.5117
928.6250, 115.4453
929.7480, 65.30469
930.8720, 53.31641
931.9950, 229.8164
933.1180, 99.47266
934.2410, 195.0625
935.3640, 200.5820
936.4860, 159.0391
937.6090, 205.4336
938.7310, 230.7617
939.8530, 387.0703
940.9750, 305.3164
942.0970, 463.5078
943.2180, 330.6641
944.3400, 437.7969
945.4610, 493.1875
946.5820, 567.1719
947.7030, 350.3242
948.8240, 426.2422
949.9450, 343.2656
951.0650, 218.3477
952.1860, 365.8555
953.3060, 807.3008
954.4260, 575.5586
955.5460, 783.9531
956.6650, 366.6211
957.7850, 698.6758
958.9040, 608.0586
960.0230, 548.1523
961.1420, 606.7695
962.2610, 611.5078
963.3800, 649.7383
964.4990, 761.4141
965.6170, 758.8203
966.7350, 843.6992
967.8530, 937.7539
968.9710, 939.6055
970.0890, 1075.797
971.2070, 1010.500
972.3240, 1278.879
973.4410, 1110.617
974.5580, 1112.012
975.6750, 1088.227
976.7920, 970.1680
977.9090, 1309.977
979.0250, 1136.832
980.1410, 1303.023
981.2580, 1280.652
982.3740, 1303.758
983.4890, 1427.312
984.6050, 1615.895
985.7200, 1626.492
986.8360, 1685.117
987.9510, 1751.391
989.0660, 1768.562
990.1810, 1808.020
991.2950, 1903.523
992.4100, 1527.293
993.5240, 1517.238
994.6390, 1711.625
995.7530, 1884.559
996.8660, 1897.176
997.9800, 1909.598
999.0940, 1884.969
1000.207, 1946.562
1001.320, 1891.992
1002.433, 2011.176
1003.546, 2160.949
1004.659, 2115.867
1005.772, 2163.727
1006.884, 2173.574
1007.996, 2106.820
1009.108, 2100.477
1010.220, 2068.988
1011.332, 1941.840
1012.444, 2242.574
1013.555, 2173.863
1014.666, 1852.547
1015.777, 2184.789
1016.888, 2197.695
1017.999, 2201.836
1019.110, 1921.043
1020.220, 2223.766
1021.331, 2185.082
1022.441, 2350.957
1023.551, 2079.250
1024.661, 2335.578
1025.770, 2308.891
1026.880, 2480.508
1027.989, 2344.621
1029.098, 2288.059
1030.207, 2252.707
1031.316, 2502.004
1032.425, 2197.262
1033.533, 2231.320
1034.642, 2626.039
1035.750, 2319.648
1036.858, 2090.922
1037.966, 2375.133
1039.073, 2405.910
1040.181, 2118.570
1041.288, 2303.988
1042.396, 2133.824
1043.503, 2082.520
1044.610, 2250.086
1045.716, 2154.066
1046.823, 2388.707
1047.929, 2219.297
1049.036, 2386.719
1050.142, 2507.559
1051.248, 2389.113
1052.353, 2391.129
1053.459, 2620.344
1054.564, 2485.859
1055.670, 2695.914
1056.775, 2746.398
1057.880, 2838.672
1058.985, 2786.676
1060.089, 2922.875
1061.194, 2921.234
1062.298, 3210.633
1063.402, 3205.828
1064.506, 3026.977
1065.610, 3357.867
1066.713, 2954.238
1067.817, 2927.016
1068.920, 2948.824
1070.023, 2901.461
1071.126, 2973.297
1072.229, 3095.285
1073.332, 3481.723
1074.435, 2875.746
1075.537, 3095.875
1076.639, 3213.676
1077.741, 3239.117
1078.843, 2895.473
1079.945, 3028.441
1081.046, 2981.312
1082.148, 2915.461
1083.249, 3116.336
1084.350, 2825.953
1085.451, 3021.801
1086.551, 3023.941
1087.652, 3114.605
1088.752, 3013.070
1089.853, 2971.266
1090.953, 3121.340
1092.053, 3165.250
1093.152, 3041.574
1094.252, 3137.977
1095.351, 2841.609
1096.451, 2889.895
1097.550, 2917.410
1098.649, 3079.000
1099.748, 3017.699
1100.846, 3071.375
1101.945, 3133.055
1103.043, 3077.809
1104.141, 3077.133
1105.239, 3060.895
1106.337, 3018.387
1107.434, 2983.051
1108.532, 3040.902
1109.629, 2969.727
1110.726, 2497.691
1111.823, 2741.590
1112.920, 2663.516
1114.017, 2500.781
1115.113, 2734.723
1116.210, 2684.898
1117.306, 2860.039
1118.402, 2373.328
1119.498, 2564.070
1120.593, 2354.496
1121.689, 2411.637
1122.784, 2548.250
1123.879, 2355.430
1124.974, 2580.613
1126.069, 2443.859
1127.164, 2352.453
1128.259, 2378.145
1129.353, 2113.613
1130.447, 2051.926
1131.541, 2332.512
1132.635, 2142.215
1133.729, 2107.344
1134.822, 2211.859
1135.916, 2234.297
1137.009, 2168.699
1138.102, 2040.109
1139.195, 1875.523
1140.288, 2268.949
1141.380, 1684.500
1142.473, 2094.941
1143.565, 1825.703
1144.657, 2025.168
1145.749, 1557.168
1146.841, 1663.066
1147.932, 1434.109
1149.024, 1279.656
1150.115, 1170.309
1151.206, 1490.906
1152.297, 1604.109
1153.388, 1393.918
1154.479, 1488.297
1155.569, 1218.953
1156.659, 1394.520
1157.750, 1330.488
1158.839, 961.2188
1159.929, 1051.859
1161.019, 1166.926
1162.108, 948.8086
1163.198, 814.6992
1164.287, 1149.660
1165.376, 1000.566
1166.465, 888.7148
1167.553, 959.0000
1168.642, 787.9609
1169.730, 641.2344
1170.818, 483.5586
1171.906, 813.2188
1172.994, 485.4766
1174.082, 729.1055
1175.170, 618.8945
1176.257, 648.2148
1177.344, 504.3555
1178.431, 479.6289
1179.518, 535.5898
1180.605, 449.9688
1181.691, 478.0156
1182.778, 402.4492
1183.864, 468.5273
1184.950, 332.5977
1186.036, 296.2344
1187.122, 221.3164
1188.207, 30.39453
1189.292, 250.4844
1190.378, 18.57422
1191.463, 156.6641
1192.548, 212.7539
1193.632, 191.8516
1194.717, 242.5977
1195.801, 229.5898
1196.886, 217.5117
1197.970, 174.7188
1199.054, 186.8750
1200.137, 79.97656
1201.221, 99.08203
1202.305, 182.8125
1203.388, 154.2109
1204.471, 134.2344
1205.554, 109.2422
1206.637, 249.7266
1207.719, 111.6992
1208.802, 98.08594
1209.884, 268.0508
1210.966, 205.9922
1212.048, 102.9180
1213.130, 24.22266
1214.212, 277.6211
1215.293, 222.4570
1216.374, 10.37891
1217.456, 213.2070
1218.536, 142.0352
1219.617, 1.859375
1220.698, 221.6719
1221.778, 14.48047
1222.859, 122.5117
1223.939, 59.76172
1225.019, 6.941406
1226.099, 61.72656
1227.178, 8.503906
1228.258, 162.2695
1229.337, 63.96484
1230.417, 113.7578
1231.496, 193.4805
1232.574, 211.1953
1233.653, 29.90234
1234.732, 501.6016
1235.810, 307.2930
1236.888, 15.02344
1237.966, 191.6406
1239.044, 512.3008
1240.122, 175.9531
1241.199, 155.5938
1242.277, 260.2266
1243.354, 27.84766
1244.431, 390.4609
1245.508, 150.9336
1246.585, 82.57812
1247.661, 65.69922
1248.738, 1.808594
1249.814, 44.66406
1250.890, 158.1250
1251.966, 6.578125
1253.042, 159.0117
1254.117, 174.4375
1255.193, 113.8477
1256.268, 34.24609
1257.343, 20.63281
1258.418, 28.99609
1259.493, 153.6562
1260.567, 77.41797
1261.642, 62.32422
1262.716, 1.109375
1263.790, 95.00000
1264.864, 122.0938
1265.938, 181.1680
1267.011, 157.2344
1268.085, 404.2891
1269.158, 166.6680
1270.231, 116.3047
1271.304, 189.6406
1272.377, 22.43359
1273.450, 379.4648
1274.522, 22.34375
1275.594, 53.23438
1276.666, 26.08203
1277.738, 251.9102
1278.810, 4.003906
1279.882, 241.8008
1280.953, 26.37891
