##NAMES=Chabazite-Ca
##RRUFFID=R050014
##IDEAL CHEMISTRY=Ca_2_Al_4_Si_8_O_24_&#183;13H_2_O
##LOCALITY=Tablo Mountain, Baja California, Mexico
##OWNER=RRUFF
##SOURCE=University of Arizona Mineral Museum
##DESCRIPTION=Light tan colored rhombohedral single crystals
##STATUS=The identification of this mineral has been confirmed by X-ray diffraction and chemical analysis
##URL=rruff.info/R050014
##MEASURED CHEMISTRY=(Ca_0.72_Mg_0.11_K_0.09_Sr_0.06_Na_0.01_)_Σ=1_(Si_4.12_Al_1.88_)O_12_·6H_2_O
##PIN_ID=M00242
##ORIENTATION=Laser parallel to (-1 1 0). Fiducial mark perpendicular to laser is parallel to [1 1 1]
105.8150, 0.0000000E+00
107.0470, 15.95312
108.2800, 148.9453
109.5120, 370.1055
110.7440, 311.9141
111.9760, 791.1289
113.2080, 1122.727
114.4400, 1478.922
115.6710, 2129.699
116.9030, 1912.922
118.1340, 2113.773
119.3650, 1955.355
120.5960, 1846.406
121.8270, 2130.246
123.0580, 2578.016
124.2880, 2823.598
125.5190, 3218.207
126.7490, 3351.305
127.9790, 3935.098
129.2090, 4553.332
130.4390, 4611.434
131.6680, 5300.895
132.8980, 6030.148
134.1270, 6529.715
135.3560, 7126.504
136.5850, 7672.906
137.8140, 8743.773
139.0430, 10049.27
140.2710, 10556.07
141.5000, 10732.32
142.7280, 10633.06
143.9560, 9813.383
145.1840, 9062.086
146.4120, 8395.785
147.6390, 7920.656
148.8670, 7435.738
150.0940, 7114.973
151.3210, 6815.633
152.5490, 6358.648
153.7750, 6270.344
155.0020, 5996.957
156.2290, 5811.629
157.4550, 5699.609
158.6810, 5445.527
159.9080, 5278.758
161.1340, 5177.301
162.3590, 5436.465
163.5850, 5455.453
164.8110, 5635.605
166.0360, 5244.906
167.2610, 5784.398
168.4860, 5546.277
169.7110, 5753.207
170.9360, 5721.115
172.1610, 5873.902
173.3850, 5713.309
174.6100, 5535.924
175.8340, 5869.057
177.0580, 5735.543
178.2820, 6009.123
179.5050, 6083.207
180.7290, 5974.605
181.9520, 6019.098
183.1760, 5925.336
184.3990, 5785.871
185.6220, 5678.062
186.8450, 5718.551
188.0670, 5565.881
189.2900, 5270.314
190.5120, 5358.641
191.7340, 5313.219
192.9560, 4997.395
194.1780, 5078.586
195.4000, 4981.133
196.6220, 4573.176
197.8430, 4232.232
199.0640, 4367.717
200.2860, 4382.199
201.5070, 4220.945
202.7270, 3965.189
203.9480, 3219.418
205.1690, 2372.820
206.3890, 1890.199
207.6090, 1759.980
208.8290, 1530.623
210.0490, 1559.078
211.2690, 1520.287
212.4890, 1217.193
213.7080, 1278.752
214.9280, 974.9121
216.1470, 919.6230
217.3660, 641.8359
218.5850, 700.5293
219.8030, 541.6914
221.0220, 493.3242
222.2400, 276.4180
223.4590, 300.9844
224.6770, 112.0234
225.8950, 30.46289
227.1120, 62.53125
228.3300, 166.9941
229.5480, 265.1230
230.7650, 26.90820
231.9820, 177.3594
233.1990, 211.5039
234.4160, 143.3672
235.6330, 172.0059
236.8490, 266.4453
238.0660, 104.6562
239.2820, 356.9609
240.4980, 208.3711
241.7140, 336.0430
242.9300, 375.9102
244.1460, 381.3711
245.3610, 370.0508
246.5770, 516.5215
247.7920, 530.2480
249.0070, 671.2637
250.2220, 571.1562
251.4370, 811.0000
252.6510, 501.6113
253.8660, 287.2324
255.0800, 163.7168
256.2940, 408.5352
257.5080, 176.4688
258.7220, 135.3809
259.9360, 102.2891
261.1490, 196.3770
262.3630, 4.697266
263.5760, 298.2480
264.7890, 397.3379
266.0020, 584.5762
267.2150, 578.9805
268.4270, 715.8223
269.6400, 668.4316
270.8520, 749.2617
272.0640, 852.2656
273.2760, 1054.418
274.4880, 1113.711
275.7000, 1376.135
276.9120, 1543.697
278.1230, 1581.395
279.3340, 1876.219
280.5450, 1982.162
281.7560, 2051.215
282.9670, 2036.338
284.1780, 2099.496
285.3880, 2365.660
286.5980, 2589.805
287.8090, 2626.908
289.0190, 2636.936
290.2290, 2889.875
291.4380, 2924.744
292.6480, 3052.061
293.8570, 3078.387
295.0670, 3289.230
296.2760, 3272.137
297.4850, 3409.137
298.6930, 3392.271
299.9020, 3456.570
301.1110, 3828.037
302.3190, 3770.576
303.5270, 3974.166
304.7350, 3914.832
305.9430, 4048.555
307.1510, 4424.344
308.3580, 4463.148
309.5660, 4545.941
310.7730, 4808.680
311.9800, 4868.230
313.1870, 5065.455
314.3940, 5577.324
315.6010, 5668.848
316.8070, 5843.061
318.0130, 5952.980
319.2200, 5952.590
320.4260, 6374.836
321.6310, 6816.742
322.8370, 6659.199
324.0430, 6989.154
325.2480, 6976.617
326.4540, 6979.061
327.6590, 6989.447
328.8640, 6964.932
330.0680, 7044.734
331.2730, 7172.980
332.4780, 7091.746
333.6820, 6708.047
334.8860, 6748.934
336.0900, 6584.412
337.2940, 6632.533
338.4980, 6246.311
339.7010, 6067.766
340.9050, 6087.898
342.1080, 5751.734
343.3110, 5614.275
344.5140, 5459.541
345.7170, 5079.537
346.9200, 5026.273
348.1220, 4915.760
349.3240, 5034.338
350.5270, 4604.143
351.7290, 4644.705
352.9310, 4597.498
354.1320, 4384.791
355.3340, 4459.113
356.5350, 4410.902
357.7370, 4193.949
358.9380, 4172.305
360.1390, 4061.916
361.3400, 4211.865
362.5400, 3929.230
363.7410, 3968.158
364.9410, 3809.701
366.1410, 3901.275
367.3410, 3528.174
368.5410, 3681.549
369.7410, 3649.475
370.9400, 3682.273
372.1400, 3476.555
373.3390, 3599.598
374.5380, 3464.395
375.7370, 3383.059
376.9360, 3431.203
378.1350, 3423.133
379.3330, 3158.275
380.5310, 3134.559
381.7300, 3575.861
382.9280, 3411.271
384.1260, 3554.811
385.3230, 3722.654
386.5210, 3356.482
387.7180, 3379.824
388.9160, 3553.857
390.1130, 3356.652
391.3100, 3574.330
392.5060, 3499.242
393.7030, 3362.420
394.9000, 3735.029
396.0960, 3439.762
397.2920, 3278.623
398.4880, 3279.566
399.6840, 3387.824
400.8800, 3409.240
402.0750, 3424.717
403.2710, 3462.248
404.4660, 3538.322
405.6610, 3377.330
406.8560, 3493.021
408.0510, 3597.514
409.2450, 3645.803
410.4400, 4003.939
411.6340, 3965.311
412.8280, 4327.398
414.0220, 4498.096
415.2160, 4496.688
416.4100, 4693.867
417.6030, 4922.086
418.7970, 5006.123
419.9900, 5532.543
421.1830, 5870.188
422.3760, 6096.260
423.5690, 6589.035
424.7610, 6948.242
425.9540, 7400.395
427.1460, 7791.494
428.3380, 8478.400
429.5300, 9148.711
430.7220, 9930.979
431.9140, 10589.60
433.1050, 11224.82
434.2970, 12005.30
435.4880, 12855.44
436.6790, 13520.42
437.8700, 14266.07
439.0610, 15243.37
440.2510, 16432.38
441.4420, 17497.84
442.6320, 18395.36
443.8220, 19254.04
445.0120, 20434.71
446.2020, 21465.72
447.3910, 22559.48
448.5810, 23101.63
449.7700, 23992.39
450.9600, 24684.06
452.1490, 25237.15
453.3370, 26259.43
454.5260, 26797.44
455.7150, 27431.15
456.9030, 27777.14
458.0910, 27890.18
459.2800, 28410.76
460.4670, 28621.96
461.6550, 29144.42
462.8430, 29866.51
464.0300, 30122.96
465.2180, 30444.81
466.4050, 31231.51
467.5920, 31972.33
468.7790, 32267.86
469.9650, 32865.89
471.1520, 33345.53
472.3380, 33698.27
473.5250, 34273.34
474.7110, 34515.38
475.8970, 34428.22
477.0820, 34214.17
478.2680, 33538.04
479.4540, 33033.60
480.6390, 31779.71
481.8240, 30673.06
483.0090, 29373.09
484.1940, 28184.91
485.3780, 25990.83
486.5630, 24555.74
487.7470, 22606.77
488.9320, 20981.33
490.1160, 19531.84
491.3000, 18100.30
492.4830, 16646.73
493.6670, 15192.13
494.8500, 14074.52
496.0340, 12840.90
497.2170, 11732.28
498.4000, 10706.65
499.5820, 9701.027
500.7650, 8975.414
501.9480, 8464.811
503.1300, 7684.225
504.3120, 7075.668
505.4940, 6489.154
506.6760, 5979.680
507.8580, 5583.250
509.0390, 5215.875
510.2210, 4973.482
511.4020, 4509.254
512.5830, 4538.127
513.7640, 3879.139
514.9450, 3569.258
516.1250, 3550.559
517.3060, 3199.055
518.4860, 2940.691
519.6660, 2580.502
520.8460, 2713.504
522.0260, 2391.561
523.2060, 2017.871
524.3850, 2300.424
525.5650, 2290.137
526.7440, 1937.074
527.9230, 1753.340
529.1020, 1574.689
530.2810, 1580.271
531.4590, 1366.086
532.6380, 1331.730
533.8160, 1236.455
534.9940, 1137.051
536.1720, 1167.141
537.3500, 914.3398
538.5270, 1198.883
539.7050, 1096.693
540.8820, 1064.715
542.0590, 763.9180
543.2360, 842.4004
544.4130, 721.0723
545.5900, 695.9258
546.7660, 576.9766
547.9430, 500.9746
549.1190, 428.4824
550.2950, 380.9121
551.4710, 405.4316
552.6470, 462.0703
553.8220, 353.7910
554.9980, 197.6055
556.1730, 358.5254
557.3480, 420.5195
558.5230, 240.6016
559.6980, 307.7891
560.8730, 169.0645
562.0470, 119.4043
563.2220, 240.8574
564.3960, 51.42578
565.5700, 212.0859
566.7440, 251.8125
567.9170, 100.5996
569.0910, 169.4297
570.2640, 25.30469
571.4380, 6.783203
572.6110, 70.15430
573.7840, 104.1543
574.9570, 4.259766
576.1290, 42.48047
577.3020, 141.5957
578.4740, 7.162109
579.6460, 180.1250
580.8180, 174.4648
581.9900, 50.14453
583.1620, 57.26562
584.3330, 26.73242
585.5040, 108.2754
586.6760, 158.8457
587.8470, 130.4453
589.0180, 7.931641
590.1880, 206.2910
591.3590, 136.6953
592.5290, 46.12500
593.7000, 204.5449
594.8700, 390.0078
596.0400, 16.59766
597.2090, 228.1699
598.3790, 317.7871
599.5490, 21.50391
600.7180, 18.18164
601.8870, 269.8457
603.0560, 198.5801
604.2250, 164.3555
605.3940, 152.1055
606.5620, 150.8828
607.7300, 131.6367
608.8990, 77.41602
610.0670, 186.1914
611.2350, 207.9922
612.4020, 62.75781
613.5700, 65.52734
614.7370, 18.09180
615.9050, 14.68945
617.0720, 147.2676
618.2390, 39.12500
619.4060, 11.45117
620.5720, 184.0488
621.7390, 112.6660
622.9050, 173.3125
624.0710, 208.0332
625.2370, 169.7910
626.4030, 156.5859
627.5690, 113.4297
628.7340, 450.3105
629.9000, 601.2266
631.0650, 559.1797
632.2300, 365.1621
633.3950, 669.1816
634.5600, 363.2324
635.7240, 454.3555
636.8890, 569.5352
638.0530, 589.7500
639.2170, 612.0020
640.3810, 328.2891
641.5450, 584.6094
642.7080, 954.9785
643.8720, 588.3809
645.0350, 656.8125
646.1980, 656.2715
647.3610, 637.7676
648.5240, 634.3926
649.6870, 612.6406
650.8490, 542.4219
652.0120, 567.0293
653.1740, 471.9102
654.3360, 441.7656
655.4980, 441.9980
656.6600, 364.7734
657.8210, 471.4707
658.9830, 324.2383
660.1440, 340.0215
661.3050, 453.8223
662.4660, 420.6426
663.6270, 204.4785
664.7870, 494.3301
665.9480, 314.1934
667.1080, 157.0664
668.2680, 247.1797
669.4280, 372.0703
670.5880, 286.9668
671.7480, 355.6562
672.9070, 194.9277
674.0670, 406.6465
675.2260, 151.3730
676.3850, 409.5234
677.5440, 256.7070
678.7030, 284.2617
679.8610, 282.1465
681.0200, 270.5352
682.1780, 329.9434
683.3360, 320.5449
684.4940, 414.0723
685.6520, 366.6582
686.8090, 387.1934
687.9670, 446.9844
689.1240, 452.9492
690.2810, 291.2344
691.4380, 566.3340
692.5950, 447.0898
693.7520, 529.5469
694.9080, 685.3184
696.0650, 424.0605
697.2210, 516.3262
698.3770, 553.2539
699.5330, 651.0762
700.6880, 666.4453
701.8440, 467.8984
702.9990, 426.8145
704.1550, 560.7129
705.3100, 611.3281
706.4650, 654.7246
707.6190, 686.3281
708.7740, 753.1738
709.9290, 627.3477
711.0830, 782.6133
712.2370, 885.5312
713.3910, 707.5586
714.5450, 871.4883
715.6980, 875.2852
716.8520, 706.4531
718.0050, 651.3008
719.1580, 752.0977
720.3110, 746.4453
721.4640, 725.1250
722.6170, 699.3164
723.7700, 561.3867
724.9220, 639.3867
726.0740, 760.6094
727.2260, 602.8984
728.3780, 665.9531
729.5300, 648.2734
730.6810, 581.9961
731.8330, 581.4219
732.9840, 656.3320
734.1350, 675.8125
735.2860, 672.6602
736.4370, 587.9375
737.5880, 615.1992
738.7380, 709.2461
739.8880, 628.7070
741.0390, 414.9883
742.1890, 585.1992
743.3380, 733.8867
744.4880, 535.2930
745.6380, 698.4727
746.7870, 614.5352
747.9360, 764.8906
749.0850, 562.5469
750.2340, 644.6211
751.3830, 747.4531
752.5310, 798.3750
753.6800, 874.4922
754.8280, 868.3594
755.9760, 900.6328
757.1240, 798.1250
758.2720, 830.8828
759.4190, 757.0703
760.5670, 920.1797
761.7140, 934.0859
762.8610, 1118.371
764.0080, 903.9492
765.1550, 814.1992
766.3020, 1047.941
767.4480, 1108.621
768.5950, 1103.223
769.7410, 1071.145
770.8870, 1005.727
772.0330, 1073.469
773.1780, 957.3359
774.3240, 1052.211
775.4690, 1128.246
776.6140, 1240.223
777.7590, 1040.641
778.9040, 1344.867
780.0490, 1136.082
781.1940, 1282.051
782.3380, 1496.207
783.4820, 1478.191
784.6260, 1532.395
785.7700, 1524.613
786.9140, 1439.664
788.0580, 1358.684
789.2010, 1241.434
790.3450, 1213.035
791.4880, 1325.223
792.6310, 1205.148
793.7730, 1125.551
794.9160, 1246.391
796.0590, 1088.789
797.2010, 932.1016
798.3430, 918.3789
799.4850, 908.7891
800.6270, 720.0312
801.7690, 826.4336
802.9100, 892.3242
804.0520, 669.1328
805.1930, 417.7344
806.3340, 519.3984
807.4750, 525.9844
808.6160, 288.4961
809.7560, 150.9258
810.8970, 284.2695
812.0370, 94.53125
813.1770, 182.5195
814.3170, 414.6055
815.4570, 325.6094
816.5960, 245.5273
817.7360, 363.3633
818.8750, 47.87891
820.0140, 252.7227
821.1530, 109.2422
822.2920, 4.332031
823.4310, 13.96484
824.5690, 253.1406
825.7070, 91.22656
826.8460, 167.2227
827.9840, 82.87500
829.1220, 238.8633
830.2590, 5.515625
831.3970, 42.96094
832.5340, 143.4141
833.6710, 35.70703
834.8080, 90.11719
835.9450, 4.117188
837.0820, 10.76172
838.2190, 170.4844
839.3550, 169.9414
840.4910, 118.8945
841.6270, 8.468750
842.7630, 14.53906
843.8990, 144.4336
845.0350, 148.2461
846.1700, 168.9688
847.3060, 301.6094
848.4410, 25.82812
849.5760, 185.3984
850.7100, 74.80859
851.8450, 12.07031
852.9800, 22.91797
854.1140, 5.203125
855.2480, 5.445313
856.3820, 18.19141
857.5160, 29.71094
858.6500, 22.86328
859.7830, 119.5703
860.9170, 211.5469
862.0500, 200.5781
863.1830, 147.5234
864.3160, 231.3906
865.4480, 92.17578
866.5810, 162.9102
867.7130, 101.5898
868.8460, 55.19141
869.9780, 222.7383
871.1100, 252.2773
872.2410, 17.74609
873.3730, 125.1523
874.5050, 246.5352
875.6360, 66.84375
876.7670, 132.0664
877.8980, 66.25781
879.0290, 156.6055
880.1590, 130.3750
881.2900, 126.6992
882.4200, 221.0820
883.5500, 274.8008
884.6800, 125.4648
885.8100, 55.91406
886.9400, 72.43750
888.0690, 193.0898
889.1990, 129.1719
890.3280, 84.41797
891.4570, 618.1094
892.5860, 228.0547
893.7140, 180.0703
894.8430, 246.3828
895.9710, 355.0625
897.1000, 102.5508
898.2280, 141.6758
899.3560, 65.82031
900.4830, 3.113281
901.6110, 35.85156
902.7380, 235.7344
903.8660, 236.5391
904.9930, 381.2695
906.1200, 207.2773
907.2460, 404.5234
908.3730, 102.9492
909.5000, 41.57422
910.6260, 57.68359
911.7520, 54.86719
912.8780, 139.9688
914.0040, 166.0000
915.1290, 26.04297
916.2550, 190.8086
917.3800, 423.5938
918.5050, 149.3125
919.6300, 43.96094
920.7550, 319.5352
921.8800, 379.0430
923.0040, 63.48828
924.1290, 396.8633
925.2530, 225.1758
926.3770, 480.4258
927.5010, 246.6094
928.6250, 57.26172
929.7480, 226.7539
930.8720, 311.7070
931.9950, 311.6016
933.1180, 300.4336
934.2410, 247.2031
935.3640, 266.9180
936.4860, 207.5703
937.6090, 349.1641
938.7310, 469.6992
939.8530, 462.1797
940.9750, 480.3711
942.0970, 413.7656
943.2180, 458.1016
944.3400, 529.6016
945.4610, 408.4648
946.5820, 623.8359
947.7030, 476.1406
948.8240, 739.9727
949.9450, 832.7109
951.0650, 684.0273
952.1860, 807.9570
953.3060, 652.3164
954.4260, 614.8203
955.5460, 775.6172
956.6650, 670.6836
957.7850, 723.6094
958.9040, 1032.543
960.0230, 1043.164
961.1420, 737.7148
962.2610, 936.8906
963.3800, 875.7344
964.4990, 625.1211
965.6170, 621.3125
966.7350, 1120.500
967.8530, 1191.352
968.9710, 1148.898
970.0890, 1150.992
971.2070, 1163.434
972.3240, 1157.707
973.4410, 1231.641
974.5580, 1170.582
975.6750, 1272.703
976.7920, 1156.746
977.9090, 1228.918
979.0250, 1375.645
980.1410, 1417.141
981.2580, 1421.695
982.3740, 1742.773
983.4890, 1584.680
984.6050, 1723.570
985.7200, 1695.027
986.8360, 1750.797
987.9510, 1997.566
989.0660, 1973.773
990.1810, 1917.973
991.2950, 2082.555
992.4100, 2225.656
993.5240, 2068.844
994.6390, 2192.973
995.7530, 2132.469
996.8660, 1956.961
997.9800, 2212.211
999.0940, 1997.844
1000.207, 2095.738
1001.320, 2043.094
1002.433, 2199.109
1003.546, 2002.234
1004.659, 2355.109
1005.772, 2592.723
1006.884, 2729.977
1007.996, 2776.973
1009.108, 2455.379
1010.220, 2609.180
1011.332, 2572.699
1012.444, 2527.652
1013.555, 2736.473
1014.666, 2467.988
1015.777, 2674.520
1016.888, 2698.289
1017.999, 2811.051
1019.110, 2730.984
1020.220, 2704.082
1021.331, 2417.457
1022.441, 2913.867
1023.551, 2858.031
1024.661, 2346.930
1025.770, 2584.367
1026.880, 2751.086
1027.989, 2840.754
1029.098, 2486.312
1030.207, 2891.633
1031.316, 2747.410
1032.425, 3015.898
1033.533, 2524.891
1034.642, 2256.141
1035.750, 2441.668
1036.858, 3061.633
1037.966, 2436.613
1039.073, 2628.203
1040.181, 2808.078
1041.288, 2605.730
1042.396, 2690.195
1043.503, 2803.582
1044.610, 2427.758
1045.716, 2852.914
1046.823, 3064.582
1047.929, 2848.367
1049.036, 2881.121
1050.142, 2607.043
1051.248, 2906.723
1052.353, 2826.504
1053.459, 3244.738
1054.564, 3263.273
1055.670, 3321.965
1056.775, 3257.461
1057.880, 3305.172
1058.985, 3348.383
1060.089, 3169.105
1061.194, 3459.457
1062.298, 3589.285
1063.402, 3387.609
1064.506, 3649.309
1065.610, 3595.031
1066.713, 3602.730
1067.817, 3465.227
1068.920, 3732.836
1070.023, 3761.211
1071.126, 3788.043
1072.229, 3938.887
1073.332, 3755.742
1074.435, 4047.969
1075.537, 3783.844
1076.639, 3806.730
1077.741, 3988.637
1078.843, 4058.562
1079.945, 3939.500
1081.046, 4018.453
1082.148, 4160.434
1083.249, 4374.426
1084.350, 4325.430
1085.451, 4251.457
1086.551, 4308.500
1087.652, 4030.594
1088.752, 3921.699
1089.853, 4293.836
1090.953, 4170.539
1092.053, 3961.523
1093.152, 3738.805
1094.252, 3820.875
1095.351, 3950.148
1096.451, 3827.484
1097.550, 3905.836
1098.649, 3873.227
1099.748, 4058.676
1100.846, 3781.141
1101.945, 3932.645
1103.043, 3782.211
1104.141, 3831.824
1105.239, 3862.473
1106.337, 3765.203
1107.434, 3766.031
1108.532, 3583.387
1109.629, 3623.328
1110.726, 3634.516
1111.823, 3619.520
1112.920, 3297.543
1114.017, 3657.594
1115.113, 3464.246
1116.210, 3502.367
1117.306, 3608.578
1118.402, 3591.820
1119.498, 3473.105
1120.593, 3714.430
1121.689, 3624.789
1122.784, 3530.199
1123.879, 3657.023
1124.974, 3674.500
1126.069, 3155.031
1127.164, 3126.629
1128.259, 3148.355
1129.353, 2892.000
1130.447, 3012.031
1131.541, 3145.957
1132.635, 2878.207
1133.729, 2740.176
1134.822, 2904.938
1135.916, 2969.730
1137.009, 2810.543
1138.102, 2523.578
1139.195, 2432.469
1140.288, 2419.121
1141.380, 2339.672
1142.473, 2482.844
1143.565, 2401.844
1144.657, 2359.828
1145.749, 2209.891
1146.841, 2065.977
1147.932, 2046.250
1149.024, 2072.957
1150.115, 2064.152
1151.206, 2171.371
1152.297, 1714.641
1153.388, 2063.961
1154.479, 1784.418
1155.569, 1814.852
1156.659, 1782.066
1157.750, 1438.418
1158.839, 1653.238
1159.929, 1609.832
1161.019, 1477.906
1162.108, 1716.508
1163.198, 1529.266
1164.287, 1214.668
1165.376, 1604.363
1166.465, 1286.250
1167.553, 1319.094
1168.642, 1142.945
1169.730, 1305.816
1170.818, 1164.695
1171.906, 957.5938
1172.994, 847.4961
1174.082, 1091.488
1175.170, 1408.477
1176.257, 889.4922
1177.344, 987.5195
1178.431, 637.5625
1179.518, 797.0742
1180.605, 787.1602
1181.691, 646.2617
1182.778, 565.4961
1183.864, 335.6172
1184.950, 605.7617
1186.036, 456.9141
1187.122, 632.0742
1188.207, 609.2734
1189.292, 339.4609
1190.378, 413.6641
1191.463, 462.7500
1192.548, 488.8320
1193.632, 462.3555
1194.717, 492.8359
1195.801, 285.1680
1196.886, 372.4453
1197.970, 142.8477
1199.054, 39.14453
1200.137, 166.4492
1201.221, 385.7656
1202.305, 146.0898
1203.388, 123.4219
1204.471, 146.2383
1205.554, 364.0586
1206.637, 428.3633
1207.719, 519.6719
1208.802, 55.98828
1209.884, 107.3203
1210.966, 458.8242
1212.048, 47.16016
1213.130, 71.50391
1214.212, 75.85938
1215.293, 180.2305
1216.374, 145.7812
1217.456, 89.03906
1218.536, 88.42969
1219.617, 21.82422
1220.698, 95.76953
1221.778, 60.35938
1222.859, 65.34375
1223.939, 33.69922
1225.019, 31.63672
1226.099, 74.97656
1227.178, 121.3203
1228.258, 140.5078
1229.337, 79.01562
1230.417, 153.3672
1231.496, 114.7227
1232.574, 102.0820
1233.653, 418.4414
1234.732, 71.80469
1235.810, 303.1680
1236.888, 347.5352
1237.966, 57.10156
1239.044, 151.2344
1240.122, 30.42188
1241.199, 354.9023
1242.277, 123.2305
1243.354, 434.5547
1244.431, 69.12500
1245.508, 290.1641
1246.585, 87.46094
1247.661, 96.75000
1248.738, 302.0430
1249.814, 490.3320
1250.890, 305.6133
1251.966, 106.8984
1253.042, 152.8242
1254.117, 96.37109
1255.193, 325.5625
1256.268, 272.7461
1257.343, 207.0703
1258.418, 82.98828
1259.493, 160.9492
1260.567, 109.9883
1261.642, 3.906250
1262.716, 43.01172
1263.790, 347.8320
1264.864, 293.6758
1265.938, 292.5156
1267.011, 41.35547
1268.085, 87.00391
1269.158, 53.99609
1270.231, 68.28125
1271.304, 43.04688
1272.377, 91.80469
1273.450, 118.0156
1274.522, 127.7266
1275.594, 125.4609
1276.666, 10.81250
1277.738, 49.11719
1278.810, 225.5273
1279.882, 194.1680
1280.953, 366.1445
