##NAMES=Chabazite-Ca
##RRUFFID=R050014
##IDEAL CHEMISTRY=Ca_2_Al_4_Si_8_O_24_&#183;13H_2_O
##LOCALITY=Tablo Mountain, Baja California, Mexico
##OWNER=RRUFF
##SOURCE=University of Arizona Mineral Museum
##DESCRIPTION=Light tan colored rhombohedral single crystals
##STATUS=The identification of this mineral has been confirmed by X-ray diffraction and chemical analysis
##URL=rruff.info/R050014
##MEASURED CHEMISTRY=(Ca_0.72_Mg_0.11_K_0.09_Sr_0.06_Na_0.01_)_Σ=1_(Si_4.12_Al_1.88_)O_12_·6H_2_O
##PIN_ID=M00242
##ORIENTATION=Laser parallel to (-1 1 0). Fiducial mark perpendicular to laser is parallel to [1 1 1]
105.8150, 0.0000000E+00
107.0470, 589.1211
108.2800, 342.8887
109.5120, 945.5645
110.7440, 268.3691
111.9760, 56.54297
113.2080, 289.1836
114.4400, 671.7109
115.6710, 759.2344
116.9030, 700.5781
118.1340, 849.6289
119.3650, 941.5840
120.5960, 990.3047
121.8270, 1228.719
123.0580, 1497.793
124.2880, 1639.295
125.5190, 1917.822
126.7490, 2177.223
127.9790, 2472.459
129.2090, 3007.727
130.4390, 3547.453
131.6680, 3918.355
132.8980, 4664.609
134.1270, 5404.645
135.3560, 6744.410
136.5850, 8631.535
137.8140, 10600.81
139.0430, 13360.33
140.2710, 15818.52
141.5000, 16629.26
142.7280, 15307.12
143.9560, 12958.75
145.1840, 10379.66
146.4120, 8232.230
147.6390, 6485.217
148.8670, 5522.598
150.0940, 4755.381
151.3210, 4383.762
152.5490, 3620.951
153.7750, 3413.145
155.0020, 2959.393
156.2290, 2595.311
157.4550, 2513.715
158.6810, 2324.729
159.9080, 2091.473
161.1340, 1999.617
162.3590, 1878.773
163.5850, 2146.875
164.8110, 2184.418
166.0360, 2264.715
167.2610, 2361.654
168.4860, 2127.893
169.7110, 2355.375
170.9360, 2293.174
172.1610, 2130.879
173.3850, 2346.836
174.6100, 2448.006
175.8340, 2237.678
177.0580, 2293.805
178.2820, 2291.623
179.5050, 2250.025
180.7290, 2464.701
181.9520, 2324.494
183.1760, 2324.479
184.3990, 2121.447
185.6220, 2300.393
186.8450, 2136.637
188.0670, 2116.162
189.2900, 2187.352
190.5120, 2089.172
191.7340, 2202.811
192.9560, 2117.676
194.1780, 2211.543
195.4000, 1979.990
196.6220, 2149.672
197.8430, 1975.723
199.0640, 1963.908
200.2860, 1654.869
201.5070, 1783.840
202.7270, 1600.295
203.9480, 1268.812
205.1690, 1021.379
206.3890, 850.2734
207.6090, 727.9004
208.8290, 656.5371
210.0490, 597.1660
211.2690, 578.7676
212.4890, 525.3203
213.7080, 438.3652
214.9280, 321.2324
216.1470, 282.5527
217.3660, 234.7656
218.5850, 233.8633
219.8030, 199.8477
221.0220, 166.7168
222.2400, 48.47070
223.4590, 38.88672
224.6770, 71.35742
225.8950, 6.064453
227.1120, 3.626953
228.3300, 243.4258
229.5480, 112.3320
230.7650, 170.3555
231.9820, 86.47266
233.1990, 170.7559
234.4160, 132.8066
235.6330, 40.19531
236.8490, 29.08203
238.0660, 7.101563
239.2820, 164.1270
240.4980, 33.84375
241.7140, 20.56641
242.9300, 157.1328
244.1460, 216.0879
245.3610, 295.3105
246.5770, 254.8613
247.7920, 149.6797
249.0070, 183.9727
250.2220, 37.74023
251.4370, 266.8691
252.6510, 194.6738
253.8660, 204.1094
255.0800, 332.8301
256.2940, 13.23438
257.5080, 279.7441
258.7220, 671.2676
259.9360, 501.7266
261.1490, 51.30469
262.3630, 45.92188
263.5760, 184.5254
264.7890, 181.0938
266.0020, 257.6016
267.2150, 274.0273
268.4270, 293.3477
269.6400, 294.5469
270.8520, 249.6016
272.0640, 611.4863
273.2760, 393.1992
274.4880, 652.7246
275.7000, 601.0684
276.9120, 589.2227
278.1230, 775.1953
279.3340, 841.9766
280.5450, 1003.566
281.7560, 825.9746
282.9670, 842.1582
284.1780, 768.1035
285.3880, 787.7949
286.5980, 819.2207
287.8090, 846.3711
289.0190, 883.2324
290.2290, 873.7988
291.4380, 708.0840
292.6480, 736.0938
293.8570, 898.8496
295.0670, 773.3535
296.2760, 875.6309
297.4850, 1033.676
298.6930, 1105.502
299.9020, 1176.879
301.1110, 1058.553
302.3190, 1201.818
303.5270, 1140.895
304.7350, 995.7754
305.9430, 1217.465
307.1510, 1251.914
308.3580, 1256.145
309.5660, 1551.115
310.7730, 1468.701
311.9800, 1633.883
313.1870, 1530.564
314.3940, 1619.746
315.6010, 1754.465
316.8070, 1701.850
318.0130, 1857.133
319.2200, 1792.941
320.4260, 1943.396
321.6310, 2150.312
322.8370, 2097.762
324.0430, 2012.879
325.2480, 2257.553
326.4540, 1978.736
327.6590, 2167.762
328.8640, 2241.734
330.0680, 2296.537
331.2730, 2162.234
332.4780, 1962.838
333.6820, 1998.355
334.8860, 2076.793
336.0900, 1910.164
337.2940, 2156.471
338.4980, 1799.725
339.7010, 2087.934
340.9050, 1736.086
342.1080, 1565.186
343.3110, 1585.229
344.5140, 1492.215
345.7170, 1508.145
346.9200, 1295.016
348.1220, 1535.840
349.3240, 1245.621
350.5270, 1282.352
351.7290, 1396.859
352.9310, 1555.809
354.1320, 1212.412
355.3340, 984.7168
356.5350, 1124.900
357.7370, 1159.809
358.9380, 1196.258
360.1390, 1046.684
361.3400, 1208.691
362.5400, 1159.062
363.7410, 1159.387
364.9410, 923.1621
366.1410, 895.3145
367.3410, 1015.646
368.5410, 887.8613
369.7410, 883.0371
370.9400, 938.0781
372.1400, 920.5098
373.3390, 712.8984
374.5380, 1076.516
375.7370, 862.4961
376.9360, 1025.752
378.1350, 892.7227
379.3330, 859.9199
380.5310, 993.8828
381.7300, 974.7754
382.9280, 1003.205
384.1260, 1043.410
385.3230, 1037.121
386.5210, 1119.180
387.7180, 1156.189
388.9160, 1293.561
390.1130, 1376.010
391.3100, 1407.062
392.5060, 1289.779
393.7030, 1308.420
394.9000, 1359.328
396.0960, 1227.951
397.2920, 1258.064
398.4880, 1475.504
399.6840, 1027.783
400.8800, 1176.020
402.0750, 959.0215
403.2710, 1251.094
404.4660, 1192.365
405.6610, 1107.688
406.8560, 1027.561
408.0510, 1139.930
409.2450, 1027.082
410.4400, 1210.254
411.6340, 1046.848
412.8280, 1115.078
414.0220, 1219.590
415.2160, 1040.240
416.4100, 1065.467
417.6030, 1353.061
418.7970, 1412.311
419.9900, 1357.107
421.1830, 1467.990
422.3760, 1554.342
423.5690, 1704.020
424.7610, 2026.387
425.9540, 1887.441
427.1460, 2494.463
428.3380, 2516.490
429.5300, 2774.529
430.7220, 2800.463
431.9140, 3064.293
433.1050, 3337.330
434.2970, 3607.463
435.4880, 3924.578
436.6790, 4229.439
437.8700, 4618.859
439.0610, 4961.236
440.2510, 5398.180
441.4420, 5594.730
442.6320, 5889.783
443.8220, 6463.715
445.0120, 6552.941
446.2020, 7125.875
447.3910, 7693.219
448.5810, 7983.744
449.7700, 8238.158
450.9600, 8554.318
452.1490, 8794.605
453.3370, 8968.344
454.5260, 9281.465
455.7150, 9491.715
456.9030, 9701.301
458.0910, 9773.967
459.2800, 9758.113
460.4670, 10079.12
461.6550, 9814.047
462.8430, 9719.383
464.0300, 9862.473
465.2180, 10022.98
466.4050, 9957.703
467.5920, 9920.752
468.7790, 9970.234
469.9650, 10122.01
471.1520, 10423.00
472.3380, 10568.41
473.5250, 10657.37
474.7110, 10750.31
475.8970, 10725.38
477.0820, 10663.28
478.2680, 10835.50
479.4540, 10335.37
480.6390, 10055.22
481.8240, 9923.051
483.0090, 9134.867
484.1940, 9054.666
485.3780, 8094.449
486.5630, 7821.217
487.7470, 7196.965
488.9320, 6792.699
490.1160, 6203.420
491.3000, 5501.125
492.4830, 5537.811
493.6670, 5086.488
494.8500, 4539.148
496.0340, 4236.799
497.2170, 3812.438
498.4000, 3428.039
499.5820, 3290.660
500.7650, 3004.281
501.9480, 2797.895
503.1300, 2730.508
504.3120, 2578.125
505.4940, 2272.742
506.6760, 2251.367
507.8580, 2233.816
509.0390, 2132.178
510.2210, 1868.846
511.4020, 1820.336
512.5830, 1790.922
513.7640, 1693.734
514.9450, 1643.586
516.1250, 1576.826
517.3060, 1496.301
518.4860, 1462.961
519.6660, 1347.131
520.8460, 1213.385
522.0260, 1133.656
523.2060, 942.9551
524.3850, 781.3633
525.5650, 870.4805
526.7440, 925.3945
527.9230, 821.8848
529.1020, 650.7598
530.2810, 666.9316
531.4590, 603.6270
532.6380, 520.4375
533.8160, 627.4473
534.9940, 635.9980
536.1720, 393.4785
537.3500, 547.5918
538.5270, 351.9883
539.7050, 434.4102
540.8820, 471.9707
542.0590, 420.7090
543.2360, 224.2520
544.4130, 570.3965
545.5900, 351.1543
546.7660, 194.6230
547.9430, 459.7793
549.1190, 205.1270
550.2950, 340.3555
551.4710, 187.1641
552.6470, 101.3516
553.8220, 7.654297
554.9980, 109.4434
556.1730, 170.0566
557.3480, 110.8477
558.5230, 382.3984
559.6980, 23.73047
560.8730, 139.4883
562.0470, 73.90820
563.2220, 151.0391
564.3960, 118.6797
565.5700, 111.7656
566.7440, 209.7383
567.9170, 35.75977
569.0910, 118.1172
570.2640, 115.5879
571.4380, 153.0566
572.6110, 185.5156
573.7840, 155.0723
574.9570, 19.55664
576.1290, 138.9043
577.3020, 51.62695
578.4740, 10.49609
579.6460, 64.04883
580.8180, 70.39258
581.9900, 63.23828
583.1620, 36.33398
584.3330, 6.714844
585.5040, 154.7578
586.6760, 97.44141
587.8470, 66.95703
589.0180, 94.72266
590.1880, 14.66211
591.3590, 121.5371
592.5290, 57.66016
593.7000, 16.19922
594.8700, 86.05078
596.0400, 88.94922
597.2090, 95.50000
598.3790, 97.37109
599.5490, 48.41992
600.7180, 26.49609
601.8870, 35.74609
603.0560, 7.003906
604.2250, 27.07227
605.3940, 13.14648
606.5620, 82.24023
607.7300, 106.6426
608.8990, 105.1602
610.0670, 30.63281
611.2350, 227.1641
612.4020, 107.9434
613.5700, 245.7109
614.7370, 367.0645
615.9050, 176.8340
617.0720, 238.5977
618.2390, 131.5195
619.4060, 345.6484
620.5720, 273.4609
621.7390, 239.2676
622.9050, 540.0684
624.0710, 752.8652
625.2370, 718.6602
626.4030, 667.5527
627.5690, 963.3926
628.7340, 876.2852
629.9000, 1095.209
631.0650, 1198.127
632.2300, 1128.035
633.3950, 1440.936
634.5600, 1399.838
635.7240, 1405.742
636.8890, 1703.664
638.0530, 1316.609
639.2170, 1309.584
640.3810, 1332.004
641.5450, 1153.959
642.7080, 1170.902
643.8720, 1147.887
645.0350, 919.8086
646.1980, 849.9121
647.3610, 797.8105
648.5240, 569.6973
649.6870, 587.5742
650.8490, 656.4395
652.0120, 524.2949
653.1740, 402.4766
654.3360, 352.3066
655.4980, 309.1250
656.6600, 460.7500
657.8210, 402.5430
658.9830, 349.6309
660.1440, 576.7246
661.3050, 363.1055
662.4660, 276.8223
663.6270, 226.5195
664.7870, 67.19727
665.9480, 136.3867
667.1080, 256.0176
668.2680, 161.8242
669.4280, 22.12305
670.5880, 298.4199
671.7480, 527.7637
672.9070, 228.2617
674.0670, 117.7363
675.2260, 155.1777
676.3850, 277.5938
677.5440, 213.1523
678.7030, 228.2812
679.8610, 30.16016
681.0200, 205.1113
682.1780, 23.34570
683.3360, 119.2344
684.4940, 212.8789
685.6520, 43.00586
686.8090, 124.1484
687.9670, 85.19727
689.1240, 117.1738
690.2810, 26.75391
691.4380, 133.0430
692.5950, 180.4395
693.7520, 156.1816
694.9080, 280.5410
696.0650, 17.92383
697.2210, 52.24023
698.3770, 217.5879
699.5330, 6.693359
700.6880, 329.2246
701.8440, 95.29883
702.9990, 259.6289
704.1550, 373.3281
705.3100, 415.1309
706.4650, 318.1680
707.6190, 182.5352
708.7740, 481.1973
709.9290, 432.3984
711.0830, 741.3848
712.2370, 496.9961
713.3910, 452.1152
714.5450, 565.3359
715.6980, 465.4297
716.8520, 126.3301
718.0050, 438.3086
719.1580, 545.5566
720.3110, 199.9180
721.4640, 612.3086
722.6170, 112.8516
723.7700, 348.7109
724.9220, 567.6562
726.0740, 243.2422
727.2260, 355.9648
728.3780, 241.0938
729.5300, 141.2383
730.6810, 283.6406
731.8330, 512.7266
732.9840, 321.6289
734.1350, 312.5625
735.2860, 436.3086
736.4370, 169.8047
737.5880, 364.1367
738.7380, 454.5273
739.8880, 219.6562
741.0390, 217.0820
742.1890, 424.8477
743.3380, 347.0352
744.4880, 470.5039
745.6380, 131.8906
746.7870, 351.1719
747.9360, 290.8633
749.0850, 218.0117
750.2340, 335.9180
751.3830, 369.7266
752.5310, 168.8047
753.6800, 380.8711
754.8280, 403.6055
755.9760, 306.3750
757.1240, 256.3750
758.2720, 373.2617
759.4190, 349.6719
760.5670, 377.1367
761.7140, 581.6406
762.8610, 406.2305
764.0080, 327.8906
765.1550, 419.7227
766.3020, 664.3242
767.4480, 469.3516
768.5950, 531.7461
769.7410, 388.4180
770.8870, 487.9180
772.0330, 534.5234
773.1780, 499.6758
774.3240, 684.5859
775.4690, 479.7852
776.6140, 720.1562
777.7590, 293.8164
778.9040, 416.6641
780.0490, 580.1602
781.1940, 393.1719
782.3380, 483.5234
783.4820, 361.5625
784.6260, 427.5977
785.7700, 499.4609
786.9140, 505.5000
788.0580, 455.6875
789.2010, 516.9219
790.3450, 332.0430
791.4880, 702.0117
792.6310, 433.9062
793.7730, 219.6016
794.9160, 438.5234
796.0590, 341.4336
797.2010, 336.1328
798.3430, 263.8008
799.4850, 482.7188
800.6270, 604.2969
801.7690, 633.4258
802.9100, 292.5039
804.0520, 429.0078
805.1930, 374.5625
806.3340, 312.8008
807.4750, 513.6328
808.6160, 226.7148
809.7560, 425.7266
810.8970, 430.7578
812.0370, 523.4727
813.1770, 424.4102
814.3170, 386.0625
815.4570, 538.0273
816.5960, 583.5000
817.7360, 458.9727
818.8750, 557.1602
820.0140, 261.2617
821.1530, 310.8398
822.2920, 509.7266
823.4310, 396.3945
824.5690, 497.1016
825.7070, 516.1641
826.8460, 165.2617
827.9840, 455.2539
829.1220, 469.4883
830.2590, 198.0664
831.3970, 468.5273
832.5340, 236.7617
833.6710, 183.1602
834.8080, 264.7539
835.9450, 206.2031
837.0820, 368.1523
838.2190, 317.8594
839.3550, 241.0156
840.4910, 254.7656
841.6270, 32.32031
842.7630, 248.0273
843.8990, 164.3398
845.0350, 228.9688
846.1700, 327.6484
847.3060, 168.0469
848.4410, 281.7539
849.5760, 28.57812
850.7100, 15.71094
851.8450, 21.73438
852.9800, 254.4375
854.1140, 54.85547
855.2480, 20.75391
856.3820, 159.2305
857.5160, 134.4844
858.6500, 195.4844
859.7830, 2.812500
860.9170, 48.35156
862.0500, 28.36719
863.1830, 234.3242
864.3160, 261.8633
865.4480, 73.75781
866.5810, 113.9062
867.7130, 108.1953
868.8460, 57.66016
869.9780, 108.9805
871.1100, 341.0859
872.2410, 16.15234
873.3730, 300.6328
874.5050, 152.5938
875.6360, 39.49219
876.7670, 397.9883
877.8980, 89.60547
879.0290, 29.99219
880.1590, 194.5273
881.2900, 26.27734
882.4200, 314.6484
883.5500, 97.01172
884.6800, 139.2500
885.8100, 129.1133
886.9400, 275.2734
888.0690, 70.37109
889.1990, 5.191406
890.3280, 86.74219
891.4570, 225.3906
892.5860, 33.17578
893.7140, 288.4492
894.8430, 151.9727
895.9710, 126.4258
897.1000, 104.8711
898.2280, 12.47656
899.3560, 103.6250
900.4830, 59.59375
901.6110, 184.6133
902.7380, 112.8086
903.8660, 62.84766
904.9930, 210.4375
906.1200, 239.9648
907.2460, 15.57422
908.3730, 6.796875
909.5000, 70.91016
910.6260, 92.73828
911.7520, 112.6914
912.8780, 116.2109
914.0040, 295.5938
915.1290, 124.3711
916.2550, 226.0898
917.3800, 129.6953
918.5050, 190.2852
919.6300, 174.3594
920.7550, 202.0898
921.8800, 143.4961
923.0040, 93.85156
924.1290, 66.91016
925.2530, 78.64453
926.3770, 99.22656
927.5010, 102.3594
928.6250, 133.4258
929.7480, 63.61719
930.8720, 288.5742
931.9950, 323.1641
933.1180, 184.6797
934.2410, 273.9492
935.3640, 183.5664
936.4860, 169.2500
937.6090, 215.8750
938.7310, 75.91016
939.8530, 149.6602
940.9750, 4.707031
942.0970, 174.6641
943.2180, 232.0625
944.3400, 178.5820
945.4610, 157.8672
946.5820, 282.0977
947.7030, 205.2773
948.8240, 7.406250
949.9450, 366.3086
951.0650, 449.3320
952.1860, 277.3047
953.3060, 301.2422
954.4260, 427.1289
955.5460, 291.2969
956.6650, 241.6250
957.7850, 444.4023
958.9040, 406.0000
960.0230, 494.6875
961.1420, 454.3320
962.2610, 592.8281
963.3800, 690.4375
964.4990, 382.0078
965.6170, 527.5664
966.7350, 381.0508
967.8530, 447.7031
968.9710, 446.0977
970.0890, 561.7930
971.2070, 594.1992
972.3240, 537.2422
973.4410, 599.0156
974.5580, 631.7734
975.6750, 584.0000
976.7920, 658.0938
977.9090, 606.4648
979.0250, 420.4453
980.1410, 612.6562
981.2580, 478.2383
982.3740, 595.1094
983.4890, 457.4180
984.6050, 885.0039
985.7200, 876.1992
986.8360, 1050.590
987.9510, 1145.617
989.0660, 858.4180
990.1810, 824.3398
991.2950, 730.8672
992.4100, 786.2539
993.5240, 522.9102
994.6390, 645.2461
995.7530, 598.0664
996.8660, 819.4102
997.9800, 613.0820
999.0940, 686.8320
1000.207, 575.7461
1001.320, 665.5703
1002.433, 687.5664
1003.546, 779.8633
1004.659, 701.9844
1005.772, 621.6602
1006.884, 566.3203
1007.996, 802.9492
1009.108, 849.9258
1010.220, 879.2031
1011.332, 832.1367
1012.444, 842.2422
1013.555, 752.0742
1014.666, 813.0977
1015.777, 802.8828
1016.888, 784.3516
1017.999, 808.8711
1019.110, 796.5391
1020.220, 648.1406
1021.331, 654.4219
1022.441, 645.6602
1023.551, 606.8320
1024.661, 684.1914
1025.770, 672.5312
1026.880, 703.6875
1027.989, 772.5391
1029.098, 794.1484
1030.207, 874.6523
1031.316, 956.0391
1032.425, 1124.258
1033.533, 1056.328
1034.642, 1052.152
1035.750, 605.1211
1036.858, 838.5977
1037.966, 1031.625
1039.073, 553.2891
1040.181, 1032.055
1041.288, 1379.641
1042.396, 1579.051
1043.503, 939.1758
1044.610, 915.3984
1045.716, 1142.910
1046.823, 931.0508
1047.929, 990.7031
1049.036, 660.8477
1050.142, 808.3984
1051.248, 1149.535
1052.353, 876.9102
1053.459, 1030.203
1054.564, 918.5977
1055.670, 1106.535
1056.775, 1239.445
1057.880, 856.5234
1058.985, 911.1992
1060.089, 1268.359
1061.194, 1112.500
1062.298, 1190.516
1063.402, 1126.348
1064.506, 1339.309
1065.610, 1357.367
1066.713, 1264.551
1067.817, 1271.094
1068.920, 1462.984
1070.023, 1118.070
1071.126, 1422.340
1072.229, 1284.703
1073.332, 1261.996
1074.435, 1407.293
1075.537, 1622.727
1076.639, 1735.234
1077.741, 1755.328
1078.843, 1406.020
1079.945, 1535.168
1081.046, 1471.625
1082.148, 1399.242
1083.249, 1594.930
1084.350, 1300.121
1085.451, 1490.695
1086.551, 1487.824
1087.652, 1577.453
1088.752, 1470.680
1089.853, 1425.609
1090.953, 1570.727
1092.053, 1609.391
1093.152, 1480.875
1094.252, 1572.176
1095.351, 1593.328
1096.451, 1392.336
1097.550, 1411.969
1098.649, 1407.582
1099.748, 1498.047
1100.846, 1479.070
1101.945, 1391.199
1103.043, 1480.770
1104.141, 1406.332
1105.239, 1483.879
1106.337, 1356.418
1107.434, 1331.832
1108.532, 1243.715
1109.629, 1210.227
1110.726, 1182.203
1111.823, 1131.988
1112.920, 1049.742
1114.017, 959.4062
1115.113, 1203.113
1116.210, 1349.836
1117.306, 1278.785
1118.402, 1429.555
1119.498, 1301.969
1120.593, 1340.730
1121.689, 1137.172
1122.784, 1329.652
1123.879, 1446.816
1124.974, 1288.488
1126.069, 1333.996
1127.164, 1407.961
1128.259, 1187.422
1129.353, 1425.871
1130.447, 1372.324
1131.541, 1124.762
1132.635, 996.1953
1133.729, 902.6641
1134.822, 1247.125
1135.916, 1053.863
1137.009, 1009.418
1138.102, 1196.965
1139.195, 1054.852
1140.288, 1306.430
1141.380, 717.8867
1142.473, 827.8242
1143.565, 948.5352
1144.657, 639.0156
1145.749, 860.5273
1146.841, 760.5820
1147.932, 678.0859
1149.024, 601.5820
1150.115, 607.0742
1151.206, 533.5625
1152.297, 574.0391
1153.388, 698.5156
1154.479, 754.8594
1155.569, 740.0703
1156.659, 680.8008
1157.750, 685.3008
1158.839, 420.3164
1159.929, 402.7148
1161.019, 553.9414
1162.108, 355.4492
1163.198, 391.9531
1164.287, 470.4531
1165.376, 589.9883
1166.465, 523.5391
1167.553, 480.1406
1168.642, 439.7734
1169.730, 214.4062
1170.818, 600.0234
1171.906, 309.6367
1172.994, 71.25391
1174.082, 379.8672
1175.170, 66.50781
1176.257, 594.1602
1177.344, 326.8516
1178.431, 0.5351560
1179.518, 456.2031
1180.605, 331.8633
1181.691, 280.5156
1182.778, 222.1641
1183.864, 317.8047
1184.950, 251.4375
1186.036, 46.94141
1187.122, 322.6523
1188.207, 113.1289
1189.292, 110.1836
1190.378, 120.3320
1191.463, 124.8359
1192.548, 268.3320
1193.632, 49.17969
1194.717, 108.2812
1195.801, 16.27344
1196.886, 194.1484
1197.970, 343.5586
1199.054, 9.968750
1200.137, 477.3633
1201.221, 307.7500
1202.305, 21.12891
1203.388, 96.50391
1204.471, 127.8008
1205.554, 82.90234
1206.637, 260.3438
1207.719, 136.5742
1208.802, 263.8242
1209.884, 13.95703
1210.966, 243.6211
1212.048, 256.8047
1213.130, 69.99219
1214.212, 261.1641
1215.293, 261.3281
1216.374, 94.48047
1217.456, 52.37891
1218.536, 281.7148
1219.617, 30.19922
1220.698, 194.8516
1221.778, 287.8984
1222.859, 155.9297
1223.939, 262.9492
1225.019, 152.0391
1226.099, 103.8750
1227.178, 389.7695
1228.258, 345.6602
1229.337, 80.46094
1230.417, 88.36328
1231.496, 61.17188
1232.574, 273.9648
1233.653, 279.7500
1234.732, 279.5195
1235.810, 286.4922
1236.888, 332.0312
1237.966, 130.7695
1239.044, 203.5000
1240.122, 78.21875
1241.199, 122.9219
1242.277, 126.4727
1243.354, 146.2891
1244.431, 134.9570
1245.508, 128.6094
1246.585, 77.25391
1247.661, 119.9375
1248.738, 204.6055
1249.814, 131.2656
1250.890, 44.08984
1251.966, 427.5078
1253.042, 29.09766
1254.117, 174.3320
1255.193, 182.1250
1256.268, 74.57422
1257.343, 210.0078
1258.418, 350.4336
1259.493, 509.8555
1260.567, 520.9766
1261.642, 200.7070
1262.716, 432.1133
1263.790, 387.5156
1264.864, 133.9023
1265.938, 174.2773
1267.011, 175.6367
1268.085, 94.98828
1269.158, 165.3242
1270.231, 255.6484
1271.304, 81.96484
1272.377, 57.11719
1273.450, 4.875000
1274.522, 339.3359
1275.594, 67.55469
1276.666, 334.7539
1277.738, 252.9453
1278.810, 319.1250
1279.882, 243.2891
1280.953, 204.4570
