##NAMES=Chalcopyrite
##RRUFFID=R050222
##IDEAL CHEMISTRY=Cu^1+^Fe^3+^S^2-^_2_
##LOCALITY=Iron Cap mine, Landsman Camp, Graham County, Arizona, USA
##OWNER=RRUFF
##SOURCE=Bob Downs
##DESCRIPTION=Group of brass yellow metallic tetrahedra, dark streaks represent alteration by bacteria where S is left behind
##STATUS=The identification of this mineral has been confirmed by X-ray diffraction and chemical analysis
##URL=rruff.info/R050222
##MEASURED CHEMISTRY=Cu_1.00_Fe_1.00_S_2.00_
122.592, 0.000
123.981, 163.388
125.369, 17.026
126.758, 65.626
128.146, 43.575
129.534, 226.034
130.922, 260.259
132.309, 372.391
133.696, 490.604
135.083, 737.068
136.470, 984.239
137.857, 1288.914
139.243, 1319.417
140.630, 1575.413
142.016, 1649.802
143.401, 1770.427
144.787, 1854.378
146.172, 1945.017
147.557, 2034.892
148.942, 1964.684
150.327, 2203.163
151.711, 2185.160
153.096, 2408.545
154.480, 2455.694
155.863, 2514.172
157.247, 2620.107
158.630, 2710.696
160.013, 2817.330
161.396, 3009.347
162.779, 3068.826
164.161, 3171.931
165.544, 3475.801
166.926, 4169.564
168.308, 3808.341
169.689, 4000.248
171.070, 4947.393
172.452, 4915.869
173.833, 4548.755
175.213, 4723.116
176.594, 4690.000
177.974, 4811.452
179.354, 4783.512
180.734, 4486.213
182.114, 4175.580
183.493, 3969.636
184.872, 3631.630
186.251, 3485.360
187.630, 3312.535
189.008, 3259.305
190.387, 3148.992
191.765, 3046.197
193.143, 3041.790
194.520, 2933.656
195.898, 2871.954
197.275, 2722.269
198.652, 2780.917
200.029, 2744.474
201.405, 2757.098
202.782, 2774.779
204.158, 2841.518
205.534, 3034.314
206.909, 3204.173
208.285, 3503.131
209.660, 3925.226
211.035, 4159.470
212.410, 4497.886
213.784, 4938.505
215.159, 5217.390
216.533, 5266.580
217.907, 5309.024
219.281, 5082.733
220.654, 4695.688
222.027, 4438.869
223.400, 4064.246
224.773, 3749.781
226.146, 3402.429
227.518, 3172.182
228.891, 3003.023
230.263, 2826.945
231.634, 2787.942
233.006, 2593.001
234.377, 2472.116
235.748, 2321.282
237.119, 2071.489
238.490, 1842.718
239.860, 1363.950
241.231, 1057.167
242.601, 748.359
243.970, 504.526
245.340, 326.670
246.709, 145.797
248.079, 108.914
249.448, 65.979
250.816, 59.875
252.185, 134.756
253.553, 176.597
254.921, 238.395
256.289, 260.149
257.657, 217.862
259.024, 277.567
260.391, 173.280
261.758, 224.009
263.125, 195.757
264.492, 143.528
265.858, 178.323
267.224, 99.148
268.590, 55.044
269.956, 36.861
271.321, 114.455
272.687, 170.673
274.052, 212.533
275.416, 374.080
276.781, 415.364
278.146, 451.454
279.510, 614.492
280.874, 731.526
282.237, 925.559
283.601, 1162.590
284.964, 1466.619
286.327, 1914.645
287.690, 2544.957
289.053, 3404.331
290.416, 4328.070
291.778, 5636.550
293.140, 7022.476
294.502, 8552.754
295.863, 10003.320
297.225, 11271.118
298.586, 12092.104
299.947, 12270.743
301.308, 11720.844
302.668, 10852.436
304.029, 9818.954
305.389, 9006.478
306.749, 8256.562
308.108, 7736.365
309.468, 7019.565
310.827, 6432.475
312.186, 5614.220
313.545, 4750.295
314.903, 3837.133
316.262, 2982.491
317.620, 2514.245
318.978, 2279.460
320.336, 2298.228
321.693, 2724.784
323.051, 3550.920
324.408, 4512.700
325.765, 5914.753
327.121, 7160.113
328.478, 8371.064
329.834, 9355.237
331.190, 9976.986
332.546, 9992.530
333.902, 10014.143
335.257, 9822.479
336.612, 9998.906
337.967, 10533.318
339.322, 11494.330
340.677, 13910.226
342.031, 18055.090
343.385, 24702.918
344.739, 33288.633
346.093, 42702.246
347.446, 52067.727
348.799, 59566.051
350.153, 62619.109
351.505, 55947.734
352.858, 43110.965
354.210, 30792.791
355.563, 22377.229
356.915, 16158.316
358.267, 12440.127
359.618, 9674.767
360.969, 8219.378
362.321, 7251.986
363.672, 6653.590
365.022, 6155.250
366.373, 5659.083
367.723, 5409.007
369.073, 5177.002
370.423, 4998.175
371.773, 4745.360
373.122, 4558.594
374.471, 4528.923
375.821, 4421.248
377.169, 4447.815
378.518, 4378.604
379.866, 4218.340
381.215, 4283.363
382.563, 4231.212
383.910, 4153.437
385.258, 4192.792
386.605, 4251.041
387.952, 4186.487
389.299, 4361.386
390.646, 4248.921
391.992, 4376.598
393.339, 4355.482
394.685, 4353.525
396.031, 4361.659
397.376, 4256.602
398.722, 4196.433
400.067, 4027.244
401.412, 3790.885
402.757, 3682.368
404.101, 3393.916
405.446, 3174.446
406.790, 3092.653
408.134, 2974.839
409.478, 2977.886
410.821, 2923.651
412.165, 3041.291
413.508, 3161.280
414.851, 3263.537
416.193, 3355.131
417.536, 3444.811
418.878, 3526.089
420.220, 3548.981
421.562, 3401.087
422.904, 3323.699
424.245, 3286.086
425.586, 3115.210
426.927, 3033.572
428.268, 2850.712
429.609, 2743.783
430.949, 2481.584
432.289, 2368.657
433.629, 2155.854
434.969, 2097.262
436.309, 1987.729
437.648, 1971.179
438.987, 1891.612
440.326, 1891.028
441.665, 1871.429
443.003, 1989.814
444.342, 2007.182
445.680, 1972.533
447.018, 2061.872
448.355, 1952.195
449.693, 1889.499
451.030, 1727.784
452.367, 1544.052
453.704, 1203.294
455.041, 836.508
456.377, 654.692
457.713, 375.848
459.049, 250.970
460.385, 129.059
461.721, 68.111
463.056, 31.119
464.391, 3.080
465.726, 12.016
467.061, 52.178
468.395, 47.428
469.730, 21.763
471.064, 17.171
472.398, 30.645
473.731, 36.193
475.065, 32.736
476.398, 25.525
477.731, 32.298
479.064, 24.291
480.397, 18.070
481.729, 16.060
483.062, 11.118
484.394, 7.239
485.725, 47.577
487.057, 18.347
488.389, 40.070
489.720, 18.745
491.051, 43.372
492.382, 58.951
493.712, 42.489
495.043, 66.980
496.373, 48.427
497.703, 42.832
499.032, 89.193
500.362, 103.513
501.691, 96.792
503.020, 93.031
504.349, 108.304
505.678, 116.448
507.007, 138.501
508.335, 165.578
509.663, 194.617
510.991, 249.621
512.319, 267.590
513.646, 272.528
514.973, 269.436
516.300, 283.363
517.627, 270.170
518.954, 281.999
520.280, 296.803
521.607, 260.582
522.933, 243.338
524.259, 214.078
525.584, 170.793
526.910, 146.527
528.235, 127.142
529.560, 82.772
530.885, 77.184
532.209, 62.493
533.534, 47.479
534.858, 45.984
536.182, 17.461
537.506, 7.094
538.829, 3.694
540.152, 18.333
541.476, 48.023
542.799, 22.777
544.121, 9.583
545.444, 40.435
546.766, 28.345
548.088, 36.310
549.410, 15.333
550.732, 2.403
552.053, 6.512
553.375, 35.338
554.696, 20.157
556.017, 38.943
557.337, 53.699
558.658, 51.422
559.978, 84.120
561.298, 114.792
562.618, 91.435
563.938, 88.049
565.257, 157.634
566.576, 155.193
567.895, 159.729
569.214, 181.244
570.533, 205.734
571.851, 219.025
573.170, 251.871
574.488, 250.494
575.805, 295.241
577.123, 298.986
578.440, 367.843
579.758, 332.763
581.075, 398.739
582.391, 435.791
583.708, 466.870
585.024, 502.974
586.341, 550.123
587.657, 582.389
588.972, 662.484
590.288, 675.035
591.603, 758.221
592.918, 824.395
594.233, 868.585
595.548, 971.703
596.863, 1093.933
598.177, 1128.915
599.491, 1250.351
600.805, 1293.466
602.119, 1392.434
603.432, 1538.476
604.746, 1666.450
606.059, 1746.567
607.372, 1813.462
608.685, 1871.581
609.997, 1933.525
611.309, 1994.326
612.621, 2030.119
613.933, 2062.009
615.245, 1976.400
616.557, 1960.121
617.868, 1762.785
619.179, 1595.529
620.490, 1371.231
621.801, 1200.787
623.111, 1139.460
624.421, 1070.057
625.731, 983.014
627.041, 1051.273
628.351, 1018.216
629.660, 1124.109
630.970, 1220.218
632.279, 1284.230
633.588, 1410.328
634.896, 1468.350
636.205, 1531.738
637.513, 1648.069
638.821, 1582.294
640.129, 1565.436
641.437, 1472.510
642.744, 1319.185
644.051, 1117.648
645.358, 1019.995
646.665, 925.109
647.972, 847.010
649.278, 865.014
650.584, 887.724
651.890, 1015.665
653.196, 1090.971
654.502, 1284.323
655.807, 1465.831
657.113, 1607.167
658.418, 1948.696
659.722, 2204.087
661.027, 2535.406
662.331, 2966.763
663.636, 3388.064
664.940, 3671.512
666.244, 4053.144
667.547, 4220.932
668.851, 4322.850
670.154, 4159.728
671.457, 3869.558
672.760, 3565.391
674.062, 3301.964
675.365, 3150.781
676.667, 2860.605
677.969, 2748.351
679.271, 2677.882
680.572, 2498.646
681.874, 2433.352
683.175, 2363.320
684.476, 2316.681
685.777, 2210.922
687.077, 2126.933
688.378, 2058.940
689.678, 2017.885
690.978, 1985.998
692.278, 1818.547
693.577, 1795.881
694.877, 1693.541
696.176, 1545.930
697.475, 1353.854
698.774, 1220.019
700.072, 1039.740
701.371, 888.276
702.669, 706.093
703.967, 590.475
705.265, 488.403
706.562, 414.524
707.860, 361.765
709.157, 303.006
710.454, 271.837
711.751, 226.107
713.047, 224.075
714.344, 193.651
715.640, 172.641
716.936, 180.106
718.232, 197.076
719.527, 161.202
720.823, 107.002
722.118, 148.123
723.413, 106.468
724.708, 92.499
726.002, 99.546
727.297, 75.186
728.591, 69.546
729.885, 66.155
731.179, 44.921
732.472, 58.071
733.766, 45.095
735.059, 41.126
736.352, 42.822
737.645, 33.455
738.937, 38.397
740.230, 42.488
741.522, 38.509
742.814, 19.867
744.106, 64.875
745.397, 6.170
746.689, 39.734
747.980, 36.561
749.271, 26.401
750.562, 37.195
751.853, 3.973
753.143, 56.823
754.433, 7.388
755.723, 12.338
757.013, 41.049
758.303, 16.744
759.592, 20.578
760.881, 1.924
762.170, 32.713
763.459, 3.667
764.748, 7.937
766.036, 35.524
767.325, 31.096
768.613, 1.654
769.901, 12.805
771.188, 28.715
772.476, 36.221
773.763, 11.287
775.050, 52.186
776.337, 1.350
777.624, 0.897
778.910, 15.551
780.196, 38.038
781.482, 31.497
782.768, 8.966
784.054, 14.563
785.339, 16.098
786.625, 1.366
787.910, 28.836
789.195, 27.688
790.479, 48.780
791.764, 20.746
793.048, 3.278
794.332, 15.190
795.616, 12.340
796.900, 16.124
798.183, 2.413
799.467, 8.960
800.750, 30.481
802.033, 4.915
803.316, 59.341
804.598, 7.240
805.880, 86.166
807.163, 23.566
808.445, 2.044
809.726, 3.664
811.008, 4.705
812.289, 3.063
813.570, 25.412
814.851, 35.119
816.132, 37.408
817.413, 55.401
818.693, 38.714
819.973, 18.016
821.253, 6.309
822.533, 13.589
823.813, 18.858
825.092, 26.114
826.371, 21.272
827.650, 12.407
828.929, 16.809
830.208, 11.012
831.486, 25.205
832.764, 12.614
834.042, 34.450
835.320, 7.687
836.598, 7.187
837.875, 15.927
839.152, 22.031
840.429, 29.126
841.706, 21.565
842.983, 18.294
844.259, 2.631
845.536, 11.567
846.812, 12.516
848.088, 24.524
849.363, 6.437
850.639, 33.596
851.914, 9.632
853.189, 17.677
854.464, 22.726
855.739, 0.227
857.013, 20.825
858.288, 11.882
859.562, 43.944
860.836, 0.008
862.110, 9.067
863.383, 5.876
864.656, 36.170
865.930, 2.788
867.203, 48.243
868.475, 20.732
869.748, 8.725
871.020, 9.269
872.292, 1.746
873.564, 19.229
874.836, 10.196
876.108, 19.845
877.379, 13.905
878.650, 46.018
879.922, 4.067
881.192, 15.781
882.463, 7.598
883.733, 2.393
885.004, 20.090
886.274, 46.834
887.544, 41.518
888.813, 36.181
890.083, 0.844
891.352, 51.458
892.621, 12.088
893.890, 24.728
895.159, 1.657
896.427, 19.870
897.695, 28.578
898.964, 35.828
900.232, 51.546
901.499, 42.990
902.767, 60.513
904.034, 57.127
905.301, 28.546
906.568, 39.180
907.835, 67.331
909.102, 48.843
910.368, 67.401
911.634, 53.852
912.900, 81.340
914.166, 89.654
915.432, 83.157
916.697, 68.405
917.962, 60.795
919.227, 96.297
920.492, 89.776
921.757, 89.127
923.021, 108.945
924.285, 73.401
925.550, 93.883
926.813, 81.753
928.077, 117.294
929.341, 63.561
930.604, 121.838
931.867, 35.214
933.130, 74.682
934.393, 121.121
935.655, 88.469
936.918, 115.130
938.180, 81.730
939.442, 83.077
940.703, 76.490
941.965, 59.810
943.226, 92.899
944.488, 49.180
945.749, 93.350
947.009, 110.755
948.270, 122.451
949.530, 89.778
950.791, 112.921
952.051, 70.760
953.311, 103.258
954.570, 106.519
955.830, 99.004
957.089, 89.892
958.348, 84.392
959.607, 132.754
960.866, 112.853
962.124, 72.874
963.383, 105.100
964.641, 60.336
965.899, 76.640
967.156, 110.064
968.414, 98.412
969.671, 100.910
970.928, 89.306
972.185, 94.116
973.442, 146.774
974.699, 105.007
975.955, 110.264
977.211, 119.548
978.468, 89.809
979.723, 121.314
980.979, 104.554
982.234, 148.893
983.490, 108.226
984.745, 113.837
986.000, 149.536
987.254, 168.857
988.509, 133.991
989.763, 179.282
991.017, 114.650
992.271, 148.094
993.525, 113.498
994.779, 132.077
996.032, 157.129
997.285, 116.741
998.538, 116.519
999.791, 158.916
1001.044, 136.961
1002.296, 142.293
1003.548, 104.594
1004.800, 137.937
1006.052, 143.136
1007.304, 155.118
1008.555, 170.373
1009.807, 171.591
1011.058, 128.982
1012.309, 132.029
1013.559, 148.141
1014.810, 100.971
1016.060, 170.416
1017.310, 149.226
1018.560, 132.517
1019.810, 140.338
1021.060, 129.865
1022.309, 104.022
1023.558, 115.917
1024.807, 162.163
1026.056, 116.371
1027.305, 100.330
1028.553, 122.645
1029.801, 76.945
1031.049, 114.703
1032.297, 68.821
1033.545, 129.903
1034.793, 117.953
1036.040, 148.028
1037.287, 94.213
1038.534, 89.830
1039.781, 89.005
1041.027, 108.026
1042.274, 125.404
1043.520, 105.424
1044.766, 80.524
1046.012, 72.237
1047.257, 101.402
1048.503, 118.609
1049.748, 73.756
1050.993, 109.916
1052.238, 63.132
1053.483, 15.301
1054.727, 87.639
1055.971, 75.803
1057.216, 69.525
1058.459, 10.722
1059.703, 63.546
1060.947, 60.865
1062.190, 74.990
1063.433, 63.276
1064.676, 74.424
1065.919, 69.700
1067.162, 72.833
1068.404, 96.111
1069.646, 87.190
1070.888, 83.479
1072.130, 87.708
1073.372, 47.802
1074.613, 47.907
1075.855, 48.062
1077.096, 87.140
1078.337, 49.345
1079.578, 77.592
1080.818, 59.846
1082.059, 52.750
1083.299, 91.294
1084.539, 61.307
1085.779, 69.568
1087.018, 26.745
1088.258, 21.894
1089.497, 38.000
1090.736, 51.041
1091.975, 71.176
1093.213, 40.214
1094.452, 24.385
1095.690, 15.916
1096.928, 58.048
1098.166, 81.140
1099.404, 39.314
1100.642, 44.514
1101.879, 3.685
1103.116, 55.792
1104.353, 62.932
1105.590, 57.088
1106.827, 53.127
1108.063, 24.256
1109.299, 35.255
1110.536, 50.366
1111.771, 63.453
1113.007, 29.557
1114.243, 44.746
1115.478, 14.797
1116.713, 36.562
1117.948, 16.735
1119.183, 26.553
1120.418, 50.688
1121.652, 146.732
1122.886, 191.753
1124.120, 163.283
1125.354, 110.500
1126.588, 88.153
1127.821, 63.477
1129.055, 45.564
1130.288, 14.794
1131.521, 30.022
1132.753, 10.231
1133.986, 5.705
1135.218, 13.921
1136.450, 4.002
1137.682, 28.016
1138.914, 14.890
1140.146, 2.931
1141.377, 3.823
1142.609, 3.206
1143.840, 14.836
1145.071, 9.008
1146.301, 3.341
1147.532, 4.616
1148.762, 2.557
1149.992, 27.379
1151.222, 10.328
1152.452, 7.229
1153.682, 46.305
1154.911, 51.230
1156.140, 29.014
1157.369, 27.808
1158.598, 17.578
1159.827, 27.341
1161.055, 53.136
1162.284, 5.960
1163.512, 0.207
1164.740, 44.658
1165.967, 39.536
1167.195, 63.426
1168.422, 34.296
1169.650, 30.151
1170.877, 28.951
1172.103, 16.748
1173.330, 15.764
1174.557, 16.732
1175.783, 7.965
1177.009, 26.656
1178.235, 25.339
1179.461, 38.017
1180.686, 37.689
1181.912, 25.354
1183.137, 75.097
1184.362, 51.650
1185.587, 3.490
1186.811, 40.257
1188.036, 11.910
1189.260, 5.531
1190.484, 53.144
1191.708, 43.883
1192.932, 52.483
1194.155, 22.140
1195.378, 19.727
1196.602, 41.307
1197.825, 57.880
1199.047, 30.487
1200.270, 48.045
1201.492, 6.667
1202.715, 26.209
1203.937, 5.250
1205.159, 38.345
1206.380, 6.206
1207.602, 7.302
1208.823, 52.800
1210.044, 14.292
1211.265, 46.857
1212.486, 15.333
1213.707, 48.851
1214.927, 13.443
1216.147, 15.895
1217.367, 53.477
1218.587, 22.914
1219.807, 56.377
1221.027, 51.313
1222.246, 48.213
1223.465, 46.620
1224.684, 25.020
1225.903, 14.410
1227.121, 11.792
1228.340, 8.030
1229.558, 1.692
1230.776, 25.101
1231.994, 6.221
1233.212, 26.534
1234.429, 32.817
1235.646, 42.071
1236.864, 57.016
1238.081, 34.641
1239.297, 69.029
1240.514, 25.366
1241.730, 1.416
1242.947, 32.807
1244.163, 42.156
1245.378, 21.384
1246.594, 14.604
1247.810, 20.852
1249.025, 34.932
1250.240, 26.436
1251.455, 21.703
1252.670, 48.882
1253.885, 26.077
1255.099, 56.339
1256.313, 28.528
1257.527, 33.884
1258.741, 28.999
1259.955, 8.206
1261.168, 39.403
1262.382, 5.523
1263.595, 8.721
1264.808, 22.409
1266.021, 14.351
1267.233, 34.706
1268.446, 39.422
1269.658, 18.053
1270.870, 4.837
1272.082, 4.010
1273.294, 14.774
1274.505, 19.293
1275.716, 29.284
1276.928, 3.928
1278.139, 4.500
1279.349, 19.933
1280.560, 4.087
1281.770, 14.532
1282.981, 26.877
1284.191, 74.717
1285.401, 18.482
1286.610, 52.173
1287.820, 31.899
1289.029, 12.386
1290.239, 55.235
1291.448, 28.968
1292.656, 29.419
1293.865, 44.095
1295.073, 45.685
1296.282, 26.489
1297.490, 36.135
1298.698, 5.759
1299.906, 27.272
1301.113, 73.306
1302.320, 55.993
1303.528, 63.667
1304.735, 62.290
1305.942, 50.946
1307.148, 42.677
1308.355, 39.323
1309.561, 29.868
1310.767, 25.410
1311.973, 21.075
1313.179, 25.702
1314.384, 28.294
1315.590, 39.992
1316.795, 39.577
1318.000, 45.103
1319.205, 45.613
1320.410, 78.172
1321.614, 61.631
1322.819, 88.159
1324.023, 67.672
1325.227, 80.228
1326.431, 73.912
1327.634, 40.398
1328.838, 32.978
1330.041, 66.599
1331.244, 33.699
1332.447, 54.209
1333.650, 90.592
1334.852, 65.940
1336.055, 28.471
1337.257, 90.964
1338.459, 45.478
1339.661, 80.862
1340.862, 73.228
1342.064, 127.675
1343.265, 50.158
1344.466, 60.545
1345.667, 30.998
1346.868, 94.271
1348.068, 70.108
1349.269, 44.932
1350.469, 108.361
1351.669, 61.104
1352.869, 121.343
1354.069, 78.765
1355.268, 41.109
1356.468, 71.490
1357.667, 48.811
1358.866, 29.213
1360.065, 69.516
1361.263, 27.859
1362.462, 94.234
1363.660, 52.484
1364.858, 84.853
1366.056, 80.315
1367.254, 72.635
1368.451, 90.901
1369.649, 83.069
1370.846, 67.179
1372.043, 58.266
1373.240, 55.645
1374.436, 87.606
1375.633, 67.875
1376.829, 78.753
1378.025, 92.420
1379.221, 75.496
1380.417, 73.573
1381.613, 58.726
1382.808, 30.725
1384.003, 40.775
1385.199, 72.212
1386.393, 45.286
1387.588, 30.729
1388.783, 80.037
1389.977, 63.437
1391.171, 49.859
1392.365, 81.318
1393.559, 5.671
1394.753, 39.889
1395.946, 70.503
1397.140, 48.783
1398.333, 20.982
1399.526, 43.617
1400.719, 7.948
1401.911, 79.612
1403.104, 19.014
1404.296, 23.847
1405.488, 30.148
1406.680, 9.346
1407.872, 45.451
1409.063, 35.412
1410.255, 29.560
1411.446, 41.646
1412.637, 26.714
1413.828, 25.541
1415.018, 5.343
1416.209, 85.914
1417.399, 53.135
1418.589, 148.185
1419.779, 56.077
1420.969, 46.904
1422.159, 69.833
1423.348, 55.840
1424.537, 45.957
1425.726, 33.151
1426.915, 43.336
1428.104, 46.391
1429.293, 70.389
1430.481, 40.348
1431.669, 74.496
1432.857, 17.437
1434.045, 37.471
1435.233, 59.592
1436.420, 42.637
1437.608, 21.546
1438.795, 30.514
1439.982, 65.588
1441.169, 59.660
1442.355, 72.586
1443.542, 99.330
1444.728, 84.792
1445.914, 134.098
1447.100, 73.113
1448.286, 77.116
1449.472, 74.114
1450.657, 87.060
1451.842, 68.078
1453.027, 66.106
1454.212, 95.127
1455.397, 59.916
1456.581, 78.785
1457.766, 88.457
1458.950, 69.453
1460.134, 98.359
1461.318, 80.498
1462.501, 35.397
1463.685, 96.952
1464.868, 75.457
1466.051, 84.965
1467.234, 60.420
1468.417, 15.293
1469.600, 95.059
1470.782, 56.616
1471.965, 34.163
1473.147, 77.172
1474.329, 107.151
1475.510, 81.166
1476.692, 78.935
1477.873, 70.813
1479.055, 97.689
1480.236, 72.267
1481.416, 82.081
1482.597, 53.581
1483.778, 96.269
1484.958, 80.202
1486.138, 55.140
1487.318, 100.077
1488.498, 104.008
1489.678, 18.066
1490.857, 59.852
1492.037, 38.772
1493.216, 82.698
1494.395, 96.636
1495.574, 90.359
1496.752, 29.341
1497.931, 51.684
1499.109, 32.687
1500.287, 45.471
1501.465, 32.538
1502.643, 24.621
1503.820, 64.728
1504.998, 51.876
1506.175, 59.069
1507.352, 28.286
1508.529, 37.620
1509.706, 60.147
1510.882, 66.533
1512.059, 61.971
1513.235, 75.295
1514.411, 69.941
1515.587, 8.953
1516.762, 52.743
1517.938, 79.381
1519.113, 1.548
1520.288, 78.259
1521.463, 98.565
1522.638, 37.106
1523.813, 11.282
1524.987, 0.439
1526.162, 0.000
##END=



