##NAMES=Chalcopyrite
##RRUFFID=R050222
##IDEAL CHEMISTRY=Cu^1+^Fe^3+^S^2-^_2_
##LOCALITY=Iron Cap mine, Landsman Camp, Graham County, Arizona, USA
##OWNER=RRUFF
##SOURCE=Bob Downs
##DESCRIPTION=Group of brass yellow metallic tetrahedra, dark streaks represent alteration by bacteria where S is left behind
##STATUS=The identification of this mineral has been confirmed by X-ray diffraction and chemical analysis
##URL=rruff.info/R050222
##MEASURED CHEMISTRY=Cu_1.00_Fe_1.00_S_2.00_
100.340, 0.000
101.732, 428.135
103.124, 25.295
104.516, 313.846
105.908, 483.727
107.300, 437.094
108.691, 570.074
110.082, 183.543
111.473, 42.088
112.864, 256.451
114.254, 831.189
115.644, 1577.391
117.034, 1694.766
118.424, 1090.477
119.813, 1056.254
121.203, 851.377
122.592, 1048.842
123.981, 1596.691
125.369, 1614.072
126.758, 2003.629
128.146, 2447.369
129.534, 3472.561
130.922, 3916.650
132.309, 4708.219
133.696, 5190.926
135.083, 6610.516
136.470, 7260.773
137.857, 8603.609
139.243, 9214.840
140.630, 10035.785
142.016, 10494.699
143.401, 11089.357
144.787, 11577.723
146.172, 12114.582
147.557, 12609.270
148.942, 12621.090
150.327, 13279.334
151.711, 13287.252
153.096, 14111.088
154.480, 14247.066
155.863, 14654.395
157.247, 15168.229
158.630, 15581.701
160.013, 16139.928
161.396, 16658.008
162.779, 17329.020
164.161, 17859.750
165.544, 18339.107
166.926, 19024.275
168.308, 19776.609
169.689, 20402.141
171.070, 21949.916
172.452, 22530.000
173.833, 23275.443
175.213, 23856.594
176.594, 23793.842
177.974, 24414.137
179.354, 24139.182
180.734, 23201.432
182.114, 22049.334
183.493, 21383.652
184.872, 20078.887
186.251, 19145.559
187.630, 17962.502
189.008, 17246.379
190.387, 16585.533
191.765, 15864.105
193.143, 15466.098
194.520, 14836.490
195.898, 14392.285
197.275, 13960.461
198.652, 13899.012
200.029, 13645.908
201.405, 13506.188
202.782, 13571.918
204.158, 14009.232
205.534, 14915.184
206.909, 15568.736
208.285, 16759.889
209.660, 18462.562
211.035, 19477.646
212.410, 21466.035
213.784, 22842.703
215.159, 24072.580
216.533, 24850.643
217.907, 24713.842
219.281, 23778.178
220.654, 21959.625
222.027, 20570.150
223.400, 18729.717
224.773, 17282.242
226.146, 16109.679
227.518, 14837.001
228.891, 14043.210
230.263, 13431.307
231.634, 12903.293
233.006, 12502.174
234.377, 11844.956
235.748, 10970.659
237.119, 9947.296
238.490, 8742.900
239.860, 7045.512
241.231, 5570.211
242.601, 4144.100
243.970, 2984.172
245.340, 2290.390
246.709, 1432.658
248.079, 1042.890
249.448, 455.055
250.816, 260.138
252.185, 116.876
253.553, 295.997
254.921, 381.232
256.289, 603.594
257.657, 727.104
259.024, 694.909
260.391, 654.435
261.758, 830.995
263.125, 802.688
264.492, 778.583
265.858, 610.237
267.224, 414.914
268.590, 388.634
269.956, 152.614
271.321, 137.340
272.687, 309.156
274.052, 314.701
275.416, 626.847
276.781, 952.195
278.146, 1049.276
279.510, 1512.708
280.874, 1872.429
282.237, 2557.389
283.601, 3177.546
284.964, 4411.863
286.327, 6242.303
287.690, 8477.812
289.053, 11375.366
290.416, 15783.929
291.778, 20874.484
293.140, 26944.008
294.502, 32864.492
295.863, 39139.926
297.225, 44238.309
298.586, 47000.609
299.947, 47516.766
301.308, 44084.609
302.668, 39199.547
304.029, 34487.785
305.389, 29410.635
306.749, 24578.145
308.108, 20818.354
309.468, 16647.504
310.827, 13429.486
312.186, 10697.661
313.545, 8323.264
314.903, 6801.033
316.262, 5435.445
317.620, 4792.445
318.978, 4849.191
320.336, 5805.070
321.693, 7680.102
323.051, 10697.215
324.408, 14221.448
325.765, 19160.018
327.121, 22862.576
328.478, 26154.150
329.834, 27424.348
331.190, 28806.150
332.546, 26974.643
333.902, 24950.549
335.257, 21854.055
336.612, 19800.029
337.967, 17886.980
339.322, 17104.553
340.677, 16914.299
342.031, 17760.340
343.385, 20059.049
344.739, 23153.244
346.093, 26416.164
347.446, 29023.330
348.799, 31155.766
350.153, 31271.877
351.505, 28683.887
352.858, 24264.840
354.210, 20594.750
355.563, 17911.611
356.915, 15453.420
358.267, 13871.174
359.618, 12742.875
360.969, 12341.521
362.321, 12324.104
363.672, 12221.626
365.022, 12110.553
366.373, 11961.930
367.723, 11853.451
369.073, 11797.449
370.423, 11876.893
371.773, 11682.604
373.122, 11901.329
374.471, 12078.280
375.821, 11885.642
377.169, 12291.148
378.518, 12154.549
379.866, 12317.679
381.215, 12619.112
382.563, 12607.071
383.910, 12855.728
385.258, 12993.587
386.605, 13454.184
387.952, 13412.357
389.299, 13962.235
390.646, 13971.584
391.992, 14282.581
393.339, 14498.411
394.685, 14743.291
396.031, 15051.163
397.376, 14586.499
398.722, 14459.389
400.067, 13552.706
401.412, 12883.780
402.757, 12472.387
404.101, 11609.787
405.446, 10829.976
406.790, 10311.623
408.134, 9814.027
409.478, 9574.648
410.821, 9681.722
412.165, 9460.269
413.508, 9695.526
414.851, 9872.493
416.193, 10242.069
417.536, 10556.153
418.878, 10909.140
420.220, 11237.236
421.562, 10898.223
422.904, 11229.630
424.245, 11270.870
425.586, 11094.830
426.927, 11159.279
428.268, 10438.188
429.609, 9966.289
430.949, 9467.029
432.289, 9197.441
433.629, 8326.489
434.969, 7932.582
436.309, 7461.575
437.648, 7428.596
438.987, 7230.633
440.326, 7186.550
441.665, 7417.342
443.003, 7624.012
444.342, 7799.554
445.680, 7958.967
447.018, 8020.253
448.355, 7756.406
449.693, 7512.432
451.030, 6999.321
452.367, 6190.076
453.704, 4924.701
455.041, 3762.189
456.377, 2691.542
457.713, 1649.761
459.049, 1079.844
460.385, 581.807
461.721, 395.619
463.056, 144.272
464.391, 66.750
465.726, 11.970
467.061, 42.905
468.395, 91.089
469.730, 15.541
471.064, 129.223
472.398, 22.806
473.731, 141.363
475.065, 82.820
476.398, 74.534
477.731, 8.501
479.064, 8.687
480.397, 16.907
481.729, 28.297
483.062, 94.489
484.394, 75.506
485.725, 22.344
487.057, 163.983
488.389, 259.459
489.720, 124.785
491.051, 242.945
492.382, 338.951
493.712, 251.813
495.043, 278.520
496.373, 344.071
497.703, 311.474
499.032, 359.087
500.362, 458.831
501.691, 428.793
503.020, 470.615
504.349, 562.303
505.678, 567.872
507.007, 728.322
508.335, 723.669
509.663, 988.909
510.991, 1076.050
512.319, 1093.094
513.646, 1182.039
514.973, 1251.892
516.300, 1244.604
517.627, 1280.278
518.954, 1203.854
520.280, 1248.313
521.607, 1155.683
522.933, 1078.963
524.259, 810.159
525.584, 684.263
526.910, 629.271
528.235, 494.170
529.560, 366.438
530.885, 279.951
532.209, 115.164
533.534, 75.593
534.858, 32.888
536.182, 54.952
537.506, 39.973
538.829, 118.161
540.152, 189.560
541.476, 121.202
542.799, 183.052
544.121, 157.500
545.444, 140.451
546.766, 120.976
548.088, 55.699
549.410, 34.588
550.732, 9.378
552.053, 10.220
553.375, 90.946
554.696, 75.555
556.017, 123.040
557.337, 169.403
558.658, 276.645
559.978, 304.771
561.298, 386.784
562.618, 406.684
563.938, 426.479
565.257, 525.165
566.576, 552.745
567.895, 732.223
569.214, 830.725
570.533, 925.007
571.851, 875.524
573.170, 1038.873
574.488, 1113.995
575.805, 1230.863
577.123, 1347.813
578.440, 1429.993
579.758, 1571.438
581.075, 1700.028
582.391, 1858.892
583.708, 2006.011
585.024, 2103.334
586.341, 2451.870
587.657, 2777.372
588.972, 2854.706
590.288, 3107.655
591.603, 3354.371
592.918, 3679.162
594.233, 4117.098
595.548, 4393.391
596.863, 4718.115
598.177, 4956.489
599.491, 5457.690
600.805, 5767.879
602.119, 6324.895
603.432, 6934.934
604.746, 7402.906
606.059, 7647.775
607.372, 7984.545
608.685, 8282.373
609.997, 8598.554
611.309, 8766.872
612.621, 8885.986
613.933, 9022.025
615.245, 8818.200
616.557, 8434.345
617.868, 7659.832
619.179, 6969.935
620.490, 5897.211
621.801, 5323.244
623.111, 4724.418
624.421, 4348.874
625.731, 4114.253
627.041, 4164.645
628.351, 3860.854
629.660, 4126.626
630.970, 4362.321
632.279, 4552.205
633.588, 4911.608
634.896, 5048.200
636.205, 5707.584
637.513, 5516.920
638.821, 5582.734
640.129, 5416.172
641.437, 5235.230
642.744, 4515.058
644.051, 4161.363
645.358, 3773.294
646.665, 3354.539
647.972, 3193.258
649.278, 3218.109
650.584, 3398.620
651.890, 3907.957
653.196, 4341.572
654.502, 5261.425
655.807, 5739.076
657.113, 6658.889
658.418, 8087.078
659.722, 9227.172
661.027, 10777.354
662.331, 12608.565
663.636, 14180.165
664.940, 15801.101
666.244, 17085.141
667.547, 17957.088
668.851, 18422.006
670.154, 17660.850
671.457, 16196.777
672.760, 15327.985
674.062, 14149.616
675.365, 13163.011
676.667, 12191.215
677.969, 11771.365
679.271, 11098.000
680.572, 10651.344
681.874, 10473.686
683.175, 10118.311
684.476, 9577.312
685.777, 9337.563
687.077, 9059.890
688.378, 8885.095
689.678, 8597.458
690.978, 8260.445
692.278, 7940.998
693.577, 7628.270
694.877, 7064.013
696.176, 6565.334
697.475, 5869.785
698.774, 5238.528
700.072, 4271.700
701.371, 3746.333
702.669, 2895.442
703.967, 2348.265
705.265, 2156.093
706.562, 1826.045
707.860, 1416.784
709.157, 1362.049
710.454, 1151.176
711.751, 997.438
713.047, 890.042
714.344, 739.883
715.640, 757.330
716.936, 576.605
718.232, 644.149
719.527, 513.298
720.823, 470.896
722.118, 487.926
723.413, 376.174
724.708, 330.974
726.002, 378.085
727.297, 279.858
728.591, 299.417
729.885, 356.264
731.179, 185.985
732.472, 182.810
733.766, 158.325
735.059, 132.698
736.352, 134.105
737.645, 102.615
738.937, 85.843
740.230, 80.570
741.522, 70.554
742.814, 109.431
744.106, 168.455
745.397, 38.344
746.689, 95.776
747.980, 62.394
749.271, 7.740
750.562, 139.879
751.853, 14.260
753.143, 73.307
754.433, 90.246
755.723, 69.120
757.013, 85.677
758.303, 56.669
759.592, 47.346
760.881, 48.957
762.170, 47.833
763.459, 76.983
764.748, 74.283
766.036, 84.289
767.325, 109.046
768.613, 103.275
769.901, 47.443
771.188, 30.549
772.476, 80.409
773.763, 13.539
775.050, 3.431
776.337, 2.271
777.624, 83.070
778.910, 69.163
780.196, 62.563
781.482, 42.286
782.768, 14.016
784.054, 76.732
785.339, 53.531
786.625, 19.839
787.910, 16.134
789.195, 6.431
790.479, 36.272
791.764, 41.455
793.048, 68.968
794.332, 59.291
795.616, 66.923
796.900, 32.521
798.183, 16.074
799.467, 48.630
800.750, 33.864
802.033, 4.414
803.316, 6.005
804.598, 30.642
805.880, 62.664
807.163, 36.929
808.445, 53.364
809.726, 54.333
811.008, 48.472
812.289, 43.567
813.570, 21.618
814.851, 28.624
816.132, 34.415
817.413, 2.483
818.693, 36.667
819.973, 19.116
821.253, 24.852
822.533, 13.534
823.813, 16.163
825.092, 22.262
826.371, 133.251
827.650, 14.715
828.929, 54.128
830.208, 11.510
831.486, 32.208
832.764, 42.974
834.042, 57.234
835.320, 48.484
836.598, 45.714
837.875, 3.231
839.152, 15.131
840.429, 94.989
841.706, 24.811
842.983, 59.404
844.259, 0.320
845.536, 11.991
846.812, 13.663
848.088, 13.692
849.363, 2.068
850.639, 14.440
851.914, 13.794
853.189, 19.141
854.464, 15.474
855.739, 22.562
857.013, 31.345
858.288, 28.457
859.562, 60.810
860.836, 53.005
862.110, 80.643
863.383, 26.152
864.656, 11.708
865.930, 14.723
867.203, 27.120
868.475, 8.485
869.748, 41.812
871.020, 51.104
872.292, 17.640
873.564, 61.566
874.836, 48.745
876.108, 16.896
877.379, 56.007
878.650, 25.954
879.922, 94.981
881.192, 132.646
882.463, 51.364
883.733, 69.271
885.004, 30.444
886.274, 90.568
887.544, 110.557
888.813, 87.406
890.083, 141.228
891.352, 139.887
892.621, 71.446
893.890, 126.950
895.159, 136.380
896.427, 84.943
897.695, 101.720
898.964, 193.928
900.232, 133.347
901.499, 181.598
902.767, 288.594
904.034, 140.118
905.301, 203.087
906.568, 238.278
907.835, 272.521
909.102, 234.650
910.368, 277.823
911.634, 364.848
912.900, 210.810
914.166, 320.753
915.432, 274.667
916.697, 322.677
917.962, 292.652
919.227, 251.645
920.492, 302.721
921.757, 362.747
923.021, 390.537
924.285, 335.211
925.550, 355.422
926.813, 332.979
928.077, 309.775
929.341, 331.911
930.604, 282.689
931.867, 377.271
933.130, 399.918
934.393, 381.463
935.655, 362.877
936.918, 421.530
938.180, 332.717
939.442, 381.380
940.703, 442.149
941.965, 353.202
943.226, 323.563
944.488, 371.921
945.749, 334.465
947.009, 342.407
948.270, 372.137
949.530, 343.354
950.791, 396.543
952.051, 417.011
953.311, 436.653
954.570, 328.467
955.830, 382.205
957.089, 413.875
958.348, 370.070
959.607, 422.205
960.866, 422.443
962.124, 398.504
963.383, 496.597
964.641, 498.598
965.899, 484.448
967.156, 421.504
968.414, 446.778
969.671, 435.447
970.928, 467.535
972.185, 503.705
973.442, 432.527
974.699, 529.175
975.955, 476.820
977.211, 451.691
978.468, 614.977
979.723, 579.762
980.979, 518.472
982.234, 595.284
983.490, 477.162
984.745, 574.938
986.000, 457.398
987.254, 562.669
988.509, 539.141
989.763, 505.915
991.017, 548.805
992.271, 563.961
993.525, 564.583
994.779, 559.521
996.032, 555.963
997.285, 555.792
998.538, 497.456
999.791, 526.823
1001.044, 522.130
1002.296, 583.671
1003.548, 530.867
1004.800, 522.298
1006.052, 562.920
1007.304, 579.783
1008.555, 621.374
1009.807, 587.149
1011.058, 602.451
1012.309, 524.738
1013.559, 595.819
1014.810, 511.667
1016.060, 522.172
1017.310, 501.383
1018.560, 569.860
1019.810, 515.008
1021.060, 531.556
1022.309, 549.775
1023.558, 542.665
1024.807, 451.206
1026.056, 424.174
1027.305, 454.217
1028.553, 396.376
1029.801, 470.161
1031.049, 387.625
1032.297, 413.876
1033.545, 470.955
1034.793, 401.057
1036.040, 459.168
1037.287, 401.470
1038.534, 436.736
1039.781, 425.295
1041.027, 364.698
1042.274, 389.172
1043.520, 458.556
1044.766, 272.616
1046.012, 376.034
1047.257, 246.096
1048.503, 299.782
1049.748, 312.283
1050.993, 317.738
1052.238, 299.396
1053.483, 275.451
1054.727, 278.818
1055.971, 338.608
1057.216, 294.838
1058.459, 321.271
1059.703, 297.718
1060.947, 293.220
1062.190, 260.800
1063.433, 244.106
1064.676, 237.594
1065.919, 241.954
1067.162, 205.565
1068.404, 241.903
1069.646, 184.944
1070.888, 249.031
1072.130, 152.229
1073.372, 281.562
1074.613, 179.886
1075.855, 161.193
1077.096, 204.459
1078.337, 214.593
1079.578, 227.696
1080.818, 175.774
1082.059, 331.884
1083.299, 230.633
1084.539, 171.155
1085.779, 317.352
1087.018, 198.122
1088.258, 225.144
1089.497, 251.040
1090.736, 230.226
1091.975, 209.403
1093.213, 176.243
1094.452, 184.240
1095.690, 161.867
1096.928, 210.993
1098.166, 212.786
1099.404, 146.561
1100.642, 106.073
1101.879, 161.534
1103.116, 180.056
1104.353, 244.166
1105.590, 193.752
1106.827, 158.484
1108.063, 141.146
1109.299, 126.943
1110.536, 225.580
1111.771, 145.259
1113.007, 156.336
1114.243, 204.465
1115.478, 117.293
1116.713, 129.482
1117.948, 170.600
1119.183, 127.264
1120.418, 57.334
1121.652, 140.345
1122.886, 186.590
1124.120, 199.718
1125.354, 69.975
1126.588, 121.673
1127.821, 117.306
1129.055, 208.500
1130.288, 211.002
1131.521, 144.090
1132.753, 30.105
1133.986, 153.324
1135.218, 65.055
1136.450, 44.022
1137.682, 47.034
1138.914, 45.844
1140.146, 56.862
1141.377, 57.548
1142.609, 9.046
1143.840, 64.408
1145.071, 69.347
1146.301, 69.176
1147.532, 144.993
1148.762, 42.705
1149.992, 78.132
1151.222, 18.334
1152.452, 31.490
1153.682, 20.917
1154.911, 108.379
1156.140, 58.952
1157.369, 9.464
1158.598, 30.721
1159.827, 62.661
1161.055, 6.045
1162.284, 15.469
1163.512, 90.055
1164.740, 98.519
1165.967, 42.298
1167.195, 68.832
1168.422, 29.320
1169.650, 111.681
1170.877, 51.762
1172.103, 24.961
1173.330, 32.883
1174.557, 97.729
1175.783, 19.684
1177.009, 12.492
1178.235, 59.200
1179.461, 0.617
1180.686, 103.369
1181.912, 110.619
1183.137, 64.468
1184.362, 74.293
1185.587, 98.178
1186.811, 13.643
1188.036, 86.285
1189.260, 63.198
1190.484, 17.564
1191.708, 140.228
1192.932, 59.565
1194.155, 88.059
1195.378, 11.717
1196.602, 82.779
1197.825, 28.350
1199.047, 23.717
1200.270, 7.128
1201.492, 42.385
1202.715, 15.463
1203.937, 14.547
1205.159, 84.485
1206.380, 75.453
1207.602, 57.473
1208.823, 33.366
1210.044, 93.263
1211.265, 45.549
1212.486, 70.402
1213.707, 18.042
1214.927, 64.941
1216.147, 1.645
1217.367, 114.551
1218.587, 82.125
1219.807, 44.706
1221.027, 41.373
1222.246, 43.941
1223.465, 48.598
1224.684, 74.457
1225.903, 76.714
1227.121, 76.933
1228.340, 67.114
1229.558, 12.394
1230.776, 24.994
1231.994, 30.291
1233.212, 126.599
1234.429, 63.990
1235.646, 88.726
1236.864, 23.052
1238.081, 22.290
1239.297, 87.626
1240.514, 44.636
1241.730, 127.704
1242.947, 20.758
1244.163, 76.438
1245.378, 79.653
1246.594, 136.741
1247.810, 6.293
1249.025, 127.807
1250.240, 5.418
1251.455, 102.454
1252.670, 69.299
1253.885, 81.093
1255.099, 92.161
1256.313, 32.188
1257.527, 60.741
1258.741, 137.951
1259.955, 26.111
1261.168, 27.890
1262.382, 153.812
1263.595, 167.356
1264.808, 34.557
1266.021, 76.410
1267.233, 45.421
1268.446, 18.648
1269.658, 21.246
1270.870, 97.799
1272.082, 32.649
1273.294, 63.245
1274.505, 101.476
1275.716, 34.188
1276.928, 116.701
1278.139, 129.234
1279.349, 76.406
1280.560, 19.318
1281.770, 129.403
1282.981, 114.581
1284.191, 155.779
1285.401, 98.775
1286.610, 83.773
1287.820, 56.976
1289.029, 29.713
1290.239, 92.930
1291.448, 112.718
1292.656, 108.839
1293.865, 128.568
1295.073, 218.441
1296.282, 158.127
1297.490, 78.120
1298.698, 166.578
1299.906, 151.917
1301.113, 120.022
1302.320, 112.011
1303.528, 65.325
1304.735, 141.820
1305.942, 137.317
1307.148, 124.593
1308.355, 5.665
1309.561, 58.734
1310.767, 26.096
1311.973, 53.155
1313.179, 56.290
1314.384, 79.221
1315.590, 138.437
1316.795, 85.384
1318.000, 119.182
1319.205, 17.406
1320.410, 125.347
1321.614, 5.925
1322.819, 167.390
1324.023, 38.952
1325.227, 138.021
1326.431, 26.759
1327.634, 99.486
1328.838, 96.960
1330.041, 74.549
1331.244, 182.073
1332.447, 115.145
1333.650, 41.541
1334.852, 163.818
1336.055, 83.819
1337.257, 153.409
1338.459, 107.526
1339.661, 163.727
1340.862, 85.313
1342.064, 58.417
1343.265, 98.255
1344.466, 78.028
1345.667, 104.467
1346.868, 138.270
1348.068, 148.818
1349.269, 124.909
1350.469, 130.734
1351.669, 109.484
1352.869, 130.123
1354.069, 119.624
1355.268, 27.339
1356.468, 110.817
1357.667, 176.359
1358.866, 80.596
1360.065, 118.045
1361.263, 57.734
1362.462, 128.320
1363.660, 111.737
1364.858, 86.963
1366.056, 129.143
1367.254, 145.302
1368.451, 158.267
1369.649, 174.763
1370.846, 221.701
1372.043, 192.882
1373.240, 63.062
1374.436, 70.487
1375.633, 81.094
1376.829, 65.906
1378.025, 91.084
1379.221, 116.948
1380.417, 44.868
1381.613, 43.698
1382.808, 22.966
1384.003, 80.245
1385.199, 57.452
1386.393, 53.688
1387.588, 133.343
1388.783, 25.845
1389.977, 20.179
1391.171, 81.112
1392.365, 16.409
1393.559, 66.229
1394.753, 33.901
1395.946, 39.323
1397.140, 32.035
1398.333, 2.111
1399.526, 0.248
1400.719, 59.535
1401.911, 112.620
1403.104, 176.963
1404.296, 11.628
1405.488, 174.172
1406.680, 12.226
1407.872, 88.575
1409.063, 192.625
1410.255, 20.781
1411.446, 31.464
1412.637, 75.597
1413.828, 78.829
1415.018, 25.482
1416.209, 123.758
1417.399, 5.368
1418.589, 145.424
1419.779, 0.312
1420.969, 133.511
1422.159, 81.237
1423.348, 25.396
1424.537, 137.379
1425.726, 54.306
1426.915, 43.327
1428.104, 80.665
1429.293, 82.646
1430.481, 27.125
1431.669, 71.773
1432.857, 19.607
1434.045, 170.624
1435.233, 23.817
1436.420, 166.436
1437.608, 128.270
1438.795, 126.881
1439.982, 105.543
1441.169, 94.329
1442.355, 287.840
1443.542, 123.929
1444.728, 243.476
1445.914, 128.836
1447.100, 8.766
1448.286, 63.699
1449.472, 28.972
1450.657, 210.854
1451.842, 215.799
1453.027, 93.767
1454.212, 217.817
1455.397, 155.505
1456.581, 143.552
1457.766, 155.675
1458.950, 81.515
1460.134, 136.461
1461.318, 125.256
1462.501, 91.628
1463.685, 206.974
1464.868, 172.600
1466.051, 205.155
1467.234, 86.749
1468.417, 113.447
1469.600, 131.270
1470.782, 119.590
1471.965, 40.277
1473.147, 121.463
1474.329, 76.413
1475.510, 226.867
1476.692, 59.006
1477.873, 65.833
1479.055, 39.200
1480.236, 123.025
1481.416, 82.914
1482.597, 116.699
1483.778, 93.253
1484.958, 83.850
1486.138, 72.414
1487.318, 46.914
1488.498, 90.001
1489.678, 52.874
1490.857, 86.722
1492.037, 98.550
1493.216, 110.646
1494.395, 67.912
1495.574, 67.131
1496.752, 63.290
1497.931, 82.535
1499.109, 101.293
1500.287, 94.146
1501.465, 102.503
1502.643, 80.971
1503.820, 94.448
1504.998, 74.900
1506.175, 65.293
1507.352, 45.025
1508.529, 136.879
1509.706, 10.159
1510.882, 137.914
1512.059, 84.149
1513.235, 106.562
1514.411, 27.233
1515.587, 121.182
1516.762, 145.453
1517.938, 88.361
1519.113, 68.559
1520.288, 99.874
1521.463, 35.050
1522.638, 0.211
1523.813, 0.000
##END=



