##NAMES=Chalcopyrite
##RRUFFID=R050222
##IDEAL CHEMISTRY=Cu^1+^Fe^3+^S^2-^_2_
##LOCALITY=Iron Cap mine, Landsman Camp, Graham County, Arizona, USA
##OWNER=RRUFF
##SOURCE=Bob Downs
##DESCRIPTION=Group of brass yellow metallic tetrahedra, dark streaks represent alteration by bacteria where S is left behind
##STATUS=The identification of this mineral has been confirmed by X-ray diffraction and chemical analysis
##URL=rruff.info/R050222
##MEASURED CHEMISTRY=Cu_1.00_Fe_1.00_S_2.00_
108.691, 0.000
110.082, 105.691
111.473, 20.977
112.864, 30.615
114.254, 524.404
115.644, 1133.371
117.034, 1043.461
118.424, 547.359
119.813, 318.828
121.203, 213.789
122.592, 253.104
123.981, 854.248
125.369, 890.395
126.758, 1277.363
128.146, 1563.658
129.534, 2730.277
130.922, 3323.061
132.309, 4123.359
133.696, 4669.273
135.083, 6114.416
136.470, 6774.787
137.857, 8398.645
139.243, 9183.426
140.630, 9859.699
142.016, 10154.119
143.401, 10941.420
144.787, 11874.648
146.172, 12314.176
147.557, 12747.553
148.942, 13425.973
150.327, 13702.168
151.711, 14082.195
153.096, 14367.602
154.480, 14743.824
155.863, 15106.711
157.247, 15722.590
158.630, 15811.791
160.013, 16507.637
161.396, 17417.387
162.779, 18140.281
164.161, 18540.494
165.544, 19245.172
166.926, 19823.459
168.308, 20822.457
169.689, 21456.260
171.070, 22843.961
172.452, 23836.609
173.833, 24349.279
175.213, 25179.008
176.594, 24821.869
177.974, 25244.916
179.354, 24664.205
180.734, 23527.752
182.114, 22092.875
183.493, 21560.572
184.872, 20429.850
186.251, 19656.848
187.630, 18757.771
189.008, 18205.232
190.387, 17639.877
191.765, 16744.574
193.143, 16293.533
194.520, 15493.639
195.898, 15082.158
197.275, 14709.135
198.652, 14682.600
200.029, 14266.555
201.405, 14373.998
202.782, 14372.926
204.158, 15251.326
205.534, 16069.219
206.909, 16585.803
208.285, 17924.244
209.660, 19673.553
211.035, 21023.705
212.410, 23206.676
213.784, 24578.232
215.159, 25856.262
216.533, 26334.713
217.907, 26038.467
219.281, 25373.486
220.654, 23211.742
222.027, 21839.207
223.400, 20039.855
224.773, 18188.678
226.146, 17034.627
227.518, 15650.703
228.891, 14731.836
230.263, 14141.953
231.634, 13853.980
233.006, 13194.902
234.377, 12476.709
235.748, 11653.406
237.119, 10361.996
238.490, 9261.492
239.860, 7237.918
241.231, 5858.303
242.601, 4232.684
243.970, 3244.162
245.340, 2239.795
246.709, 1388.547
248.079, 1149.461
249.448, 362.514
250.816, 335.627
252.185, 75.287
253.553, 296.244
254.921, 529.285
256.289, 647.416
257.657, 762.650
259.024, 897.001
260.391, 890.481
261.758, 901.116
263.125, 822.021
264.492, 704.708
265.858, 765.538
267.224, 479.722
268.590, 425.249
269.956, 192.948
271.321, 171.429
272.687, 285.298
274.052, 444.148
275.416, 774.271
276.781, 983.555
278.146, 1070.453
279.510, 1489.092
280.874, 2038.835
282.237, 2789.482
283.601, 3649.879
284.964, 4991.892
286.327, 7156.412
287.690, 9331.350
289.053, 12709.629
290.416, 17527.199
291.778, 22979.000
293.140, 29843.982
294.502, 36046.090
295.863, 42626.273
297.225, 47442.492
298.586, 50262.719
299.947, 49998.539
301.308, 46491.547
302.668, 41544.395
304.029, 36176.203
305.389, 30794.238
306.749, 26359.863
308.108, 22022.221
309.468, 17884.629
310.827, 14585.964
312.186, 11775.400
313.545, 9673.666
314.903, 7640.649
316.262, 6146.857
317.620, 5607.650
318.978, 5655.057
320.336, 6984.758
321.693, 9176.021
323.051, 12543.643
324.408, 16337.332
325.765, 21709.398
327.121, 25674.453
328.478, 29295.801
329.834, 31208.615
331.190, 31626.957
332.546, 29716.199
333.902, 27428.762
335.257, 24276.746
336.612, 22027.723
337.967, 20442.891
339.322, 19761.139
340.677, 20038.227
342.031, 21585.037
343.385, 25316.344
344.739, 30249.070
346.093, 35332.344
347.446, 40222.848
348.799, 43297.613
350.153, 43667.734
351.505, 39001.500
352.858, 32221.410
354.210, 26260.980
355.563, 22072.465
356.915, 18608.916
358.267, 16435.328
359.618, 14859.699
360.969, 14416.030
362.321, 14184.316
363.672, 13955.558
365.022, 13941.336
366.373, 13677.564
367.723, 13492.150
369.073, 13656.042
370.423, 13531.933
371.773, 13479.480
373.122, 13367.014
374.471, 13595.273
375.821, 13311.921
377.169, 13871.975
378.518, 13402.036
379.866, 13570.152
381.215, 13984.979
382.563, 14033.468
383.910, 14055.613
385.258, 14292.569
386.605, 14805.281
387.952, 14652.144
389.299, 15266.466
390.646, 15482.829
391.992, 15939.731
393.339, 16054.763
394.685, 16208.751
396.031, 16507.533
397.376, 16025.542
398.722, 15761.841
400.067, 14964.199
401.412, 14206.594
402.757, 13572.375
404.101, 12661.521
405.446, 11933.370
406.790, 11422.574
408.134, 11087.438
409.478, 10679.823
410.821, 10648.774
412.165, 10422.895
413.508, 10903.608
414.851, 11127.682
416.193, 11140.727
417.536, 11928.980
418.878, 12118.660
420.220, 12492.947
421.562, 12089.648
422.904, 12438.603
424.245, 12372.737
425.586, 12120.686
426.927, 12064.871
428.268, 11253.141
429.609, 10981.293
430.949, 10310.843
432.289, 9857.991
433.629, 9045.958
434.969, 8836.002
436.309, 8055.568
437.648, 8075.438
438.987, 8023.310
440.326, 8093.083
441.665, 8133.751
443.003, 8379.308
444.342, 8392.743
445.680, 8525.057
447.018, 8706.244
448.355, 8384.303
449.693, 8006.230
451.030, 7382.027
452.367, 6580.688
453.704, 5043.209
455.041, 4017.593
456.377, 2727.836
457.713, 1779.941
459.049, 1105.908
460.385, 693.744
461.721, 402.424
463.056, 48.934
464.391, 70.776
465.726, 75.768
467.061, 71.041
468.395, 100.588
469.730, 135.424
471.064, 121.574
472.398, 96.032
473.731, 178.781
475.065, 36.846
476.398, 46.169
477.731, 39.246
479.064, 19.443
480.397, 26.416
481.729, 29.183
483.062, 119.731
484.394, 166.092
485.725, 122.278
487.057, 287.280
488.389, 225.112
489.720, 263.772
491.051, 294.273
492.382, 281.606
493.712, 338.789
495.043, 263.807
496.373, 382.662
497.703, 314.357
499.032, 470.889
500.362, 464.264
501.691, 490.494
503.020, 562.568
504.349, 606.493
505.678, 716.288
507.007, 839.944
508.335, 903.469
509.663, 970.869
510.991, 1130.157
512.319, 1219.342
513.646, 1235.428
514.973, 1400.415
516.300, 1528.297
517.627, 1553.075
518.954, 1530.270
520.280, 1490.318
521.607, 1303.782
522.933, 1054.149
524.259, 838.411
525.584, 715.562
526.910, 613.596
528.235, 523.512
529.560, 267.305
530.885, 175.967
532.209, 69.489
533.534, 20.865
534.858, 42.905
536.182, 115.866
537.506, 55.057
538.829, 138.434
540.152, 73.043
541.476, 22.846
542.799, 163.806
544.121, 131.997
545.444, 99.418
546.766, 105.053
548.088, 67.897
549.410, 25.062
550.732, 46.874
552.053, 41.457
553.375, 108.046
554.696, 115.415
556.017, 190.648
557.337, 325.767
558.658, 280.761
559.978, 241.629
561.298, 358.375
562.618, 478.005
563.938, 518.521
565.257, 641.918
566.576, 690.203
567.895, 774.381
569.214, 883.451
570.533, 916.422
571.851, 949.486
573.170, 1089.388
574.488, 1280.160
575.805, 1393.257
577.123, 1463.217
578.440, 1554.969
579.758, 1798.718
581.075, 1890.045
582.391, 2199.321
583.708, 2157.902
585.024, 2371.523
586.341, 2703.562
587.657, 2939.984
588.972, 3208.115
590.288, 3380.959
591.603, 3720.814
592.918, 4012.468
594.233, 4474.140
595.548, 4804.820
596.863, 5206.286
598.177, 5447.770
599.491, 6098.111
600.805, 6400.361
602.119, 6924.357
603.432, 7355.291
604.746, 8095.190
606.059, 8299.865
607.372, 8782.775
608.685, 9112.979
609.997, 9284.583
611.309, 9585.922
612.621, 9594.173
613.933, 9462.410
615.245, 9616.629
616.557, 8955.348
617.868, 8327.863
619.179, 7341.326
620.490, 6336.121
621.801, 5622.873
623.111, 5091.270
624.421, 4740.241
625.731, 4328.165
627.041, 4542.662
628.351, 4277.066
629.660, 4614.211
630.970, 4922.312
632.279, 5086.994
633.588, 5492.530
634.896, 5603.395
636.205, 6174.029
637.513, 6069.697
638.821, 6186.338
640.129, 5860.631
641.437, 5578.290
642.744, 4985.635
644.051, 4482.260
645.358, 4065.523
646.665, 3556.975
647.972, 3557.822
649.278, 3629.117
650.584, 3867.745
651.890, 4345.166
653.196, 4853.850
654.502, 5723.288
655.807, 6611.050
657.113, 7384.806
658.418, 8949.882
659.722, 10224.400
661.027, 11784.571
662.331, 13880.984
663.636, 15645.464
664.940, 17136.182
666.244, 18662.984
667.547, 19151.721
668.851, 19869.893
670.154, 19017.836
671.457, 17265.746
672.760, 16458.771
674.062, 15104.779
675.365, 14226.746
676.667, 13213.440
677.969, 12809.178
679.271, 12158.771
680.572, 11583.187
681.874, 11261.217
683.175, 10890.393
684.476, 10385.060
685.777, 10070.557
687.077, 9683.632
688.378, 9442.126
689.678, 9336.498
690.978, 8949.541
692.278, 8335.463
693.577, 8104.723
694.877, 7510.648
696.176, 6994.344
697.475, 6288.605
698.774, 5525.123
700.072, 4652.756
701.371, 3902.542
702.669, 3203.958
703.967, 2598.298
705.265, 2403.823
706.562, 1932.354
707.860, 1592.066
709.157, 1534.162
710.454, 1252.972
711.751, 1126.368
713.047, 1120.520
714.344, 885.989
715.640, 836.254
716.936, 653.237
718.232, 723.825
719.527, 666.416
720.823, 549.994
722.118, 585.498
723.413, 413.188
724.708, 451.962
726.002, 457.928
727.297, 345.912
728.591, 360.641
729.885, 392.602
731.179, 319.329
732.472, 376.135
733.766, 219.027
735.059, 258.446
736.352, 167.849
737.645, 227.248
738.937, 202.193
740.230, 235.156
741.522, 170.919
742.814, 118.572
744.106, 209.156
745.397, 56.759
746.689, 57.197
747.980, 86.781
749.271, 60.139
750.562, 33.357
751.853, 58.501
753.143, 27.571
754.433, 34.583
755.723, 30.506
757.013, 64.514
758.303, 53.293
759.592, 34.999
760.881, 62.690
762.170, 2.745
763.459, 18.255
764.748, 3.157
766.036, 38.498
767.325, 32.768
768.613, 9.968
769.901, 31.902
771.188, 21.854
772.476, 63.884
773.763, 8.006
775.050, 28.808
776.337, 43.564
777.624, 95.290
778.910, 17.979
780.196, 35.254
781.482, 45.542
782.768, 19.162
784.054, 37.884
785.339, 7.380
786.625, 88.638
787.910, 1.095
789.195, 6.818
790.479, 70.536
791.764, 70.411
793.048, 73.099
794.332, 32.520
795.616, 23.113
796.900, 45.331
798.183, 17.163
799.467, 36.619
800.750, 14.973
802.033, 39.615
803.316, 2.679
804.598, 73.077
805.880, 25.090
807.163, 18.791
808.445, 36.271
809.726, 76.288
811.008, 29.263
812.289, 48.813
813.570, 58.040
814.851, 1.154
816.132, 84.402
817.413, 5.262
818.693, 55.873
819.973, 81.433
821.253, 5.062
822.533, 12.615
823.813, 30.233
825.092, 9.923
826.371, 48.324
827.650, 32.517
828.929, 24.655
830.208, 69.737
831.486, 41.766
832.764, 32.259
834.042, 81.644
835.320, 14.497
836.598, 80.299
837.875, 85.056
839.152, 20.767
840.429, 89.433
841.706, 36.062
842.983, 34.665
844.259, 42.763
845.536, 42.762
846.812, 65.286
848.088, 25.177
849.363, 24.654
850.639, 33.120
851.914, 71.602
853.189, 70.128
854.464, 6.341
855.739, 76.823
857.013, 10.683
858.288, 62.806
859.562, 14.291
860.836, 38.748
862.110, 40.825
863.383, 2.563
864.656, 21.914
865.930, 49.770
867.203, 39.482
868.475, 33.699
869.748, 5.124
871.020, 7.981
872.292, 1.551
873.564, 159.167
874.836, 52.187
876.108, 47.163
877.379, 102.096
878.650, 1.986
879.922, 99.824
881.192, 147.430
882.463, 78.063
883.733, 120.768
885.004, 88.155
886.274, 53.741
887.544, 151.634
888.813, 140.654
890.083, 125.264
891.352, 218.088
892.621, 197.775
893.890, 229.570
895.159, 264.068
896.427, 254.338
897.695, 216.927
898.964, 276.869
900.232, 184.783
901.499, 220.790
902.767, 282.653
904.034, 255.376
905.301, 297.175
906.568, 230.819
907.835, 293.465
909.102, 196.064
910.368, 307.779
911.634, 337.420
912.900, 218.958
914.166, 366.588
915.432, 360.843
916.697, 321.667
917.962, 436.961
919.227, 552.387
920.492, 359.764
921.757, 383.018
923.021, 443.159
924.285, 412.661
925.550, 448.234
926.813, 442.127
928.077, 382.333
929.341, 424.577
930.604, 416.012
931.867, 442.465
933.130, 400.175
934.393, 475.371
935.655, 398.389
936.918, 472.459
938.180, 468.106
939.442, 338.914
940.703, 522.712
941.965, 475.542
943.226, 417.610
944.488, 477.232
945.749, 406.633
947.009, 396.615
948.270, 366.376
949.530, 403.279
950.791, 400.741
952.051, 464.691
953.311, 438.626
954.570, 406.395
955.830, 418.881
957.089, 489.911
958.348, 487.463
959.607, 465.672
960.866, 580.914
962.124, 423.181
963.383, 476.911
964.641, 541.968
965.899, 497.562
967.156, 498.217
968.414, 533.526
969.671, 543.224
970.928, 523.211
972.185, 493.990
973.442, 462.459
974.699, 474.330
975.955, 481.232
977.211, 518.980
978.468, 568.670
979.723, 635.336
980.979, 473.731
982.234, 638.231
983.490, 522.775
984.745, 659.228
986.000, 536.236
987.254, 612.834
988.509, 700.401
989.763, 656.138
991.017, 550.441
992.271, 642.987
993.525, 638.028
994.779, 633.397
996.032, 617.184
997.285, 616.780
998.538, 629.812
999.791, 677.432
1001.044, 643.918
1002.296, 639.292
1003.548, 594.952
1004.800, 656.950
1006.052, 642.761
1007.304, 677.424
1008.555, 690.914
1009.807, 642.798
1011.058, 693.812
1012.309, 675.647
1013.559, 636.883
1014.810, 667.947
1016.060, 609.936
1017.310, 646.639
1018.560, 692.947
1019.810, 623.568
1021.060, 634.875
1022.309, 616.538
1023.558, 660.968
1024.807, 583.352
1026.056, 512.159
1027.305, 499.074
1028.553, 553.918
1029.801, 540.275
1031.049, 525.148
1032.297, 548.685
1033.545, 511.847
1034.793, 551.975
1036.040, 474.356
1037.287, 457.943
1038.534, 471.877
1039.781, 460.009
1041.027, 487.971
1042.274, 503.095
1043.520, 431.394
1044.766, 452.371
1046.012, 403.711
1047.257, 403.385
1048.503, 480.573
1049.748, 411.677
1050.993, 494.558
1052.238, 417.167
1053.483, 366.311
1054.727, 326.000
1055.971, 380.070
1057.216, 399.884
1058.459, 413.844
1059.703, 319.012
1060.947, 347.329
1062.190, 455.295
1063.433, 299.855
1064.676, 437.822
1065.919, 375.711
1067.162, 325.739
1068.404, 308.502
1069.646, 235.003
1070.888, 342.789
1072.130, 381.514
1073.372, 371.083
1074.613, 406.822
1075.855, 409.736
1077.096, 342.124
1078.337, 393.721
1079.578, 308.086
1080.818, 235.790
1082.059, 197.352
1083.299, 258.554
1084.539, 201.035
1085.779, 270.532
1087.018, 265.632
1088.258, 324.091
1089.497, 267.362
1090.736, 244.589
1091.975, 206.936
1093.213, 39.328
1094.452, 242.803
1095.690, 141.445
1096.928, 233.634
1098.166, 121.832
1099.404, 220.858
1100.642, 214.164
1101.879, 204.908
1103.116, 274.963
1104.353, 194.516
1105.590, 162.670
1106.827, 211.578
1108.063, 174.125
1109.299, 108.281
1110.536, 42.754
1111.771, 117.616
1113.007, 158.237
1114.243, 166.611
1115.478, 45.731
1116.713, 91.663
1117.948, 70.695
1119.183, 46.957
1120.418, 115.653
1121.652, 13.848
1122.886, 81.237
1124.120, 81.126
1125.354, 111.637
1126.588, 75.070
1127.821, 59.248
1129.055, 111.154
1130.288, 125.299
1131.521, 80.503
1132.753, 112.853
1133.986, 7.372
1135.218, 22.872
1136.450, 90.688
1137.682, 49.689
1138.914, 83.626
1140.146, 88.867
1141.377, 35.567
1142.609, 65.080
1143.840, 68.128
1145.071, 28.965
1146.301, 63.877
1147.532, 19.151
1148.762, 39.669
1149.992, 12.711
1151.222, 19.366
1152.452, 24.216
1153.682, 6.818
1154.911, 14.088
1156.140, 38.578
1157.369, 52.697
1158.598, 48.353
1159.827, 111.990
1161.055, 85.474
1162.284, 159.770
1163.512, 45.185
1164.740, 70.516
1165.967, 5.287
1167.195, 125.528
1168.422, 28.920
1169.650, 78.548
1170.877, 26.042
1172.103, 45.407
1173.330, 70.016
1174.557, 33.218
1175.783, 98.508
1177.009, 8.222
1178.235, 77.336
1179.461, 22.409
1180.686, 91.000
1181.912, 77.872
1183.137, 158.217
1184.362, 68.180
1185.587, 77.741
1186.811, 26.514
1188.036, 19.117
1189.260, 80.929
1190.484, 16.415
1191.708, 2.165
1192.932, 32.398
1194.155, 29.234
1195.378, 34.880
1196.602, 69.971
1197.825, 64.993
1199.047, 159.978
1200.270, 41.926
1201.492, 143.873
1202.715, 6.258
1203.937, 98.562
1205.159, 61.342
1206.380, 7.081
1207.602, 19.808
1208.823, 10.787
1210.044, 1.191
1211.265, 31.910
1212.486, 44.980
1213.707, 8.346
1214.927, 64.355
1216.147, 120.802
1217.367, 46.310
1218.587, 55.106
1219.807, 87.400
1221.027, 41.631
1222.246, 89.052
1223.465, 24.549
1224.684, 60.828
1225.903, 110.110
1227.121, 6.854
1228.340, 51.393
1229.558, 132.335
1230.776, 61.666
1231.994, 51.807
1233.212, 116.622
1234.429, 72.800
1235.646, 91.531
1236.864, 96.533
1238.081, 61.271
1239.297, 44.347
1240.514, 21.388
1241.730, 11.927
1242.947, 75.728
1244.163, 67.186
1245.378, 114.082
1246.594, 40.774
1247.810, 8.304
1249.025, 88.604
1250.240, 14.312
1251.455, 54.985
1252.670, 111.778
1253.885, 12.464
1255.099, 40.857
1256.313, 15.619
1257.527, 51.069
1258.741, 60.796
1259.955, 35.904
1261.168, 46.912
1262.382, 38.616
1263.595, 48.562
1264.808, 47.965
1266.021, 191.727
1267.233, 12.645
1268.446, 136.910
1269.658, 42.536
1270.870, 142.136
1272.082, 91.864
1273.294, 90.943
1274.505, 19.097
1275.716, 90.390
1276.928, 178.559
1278.139, 130.934
1279.349, 214.165
1280.560, 117.953
1281.770, 51.767
1282.981, 42.062
1284.191, 27.273
1285.401, 48.321
1286.610, 78.181
1287.820, 100.558
1289.029, 138.188
1290.239, 161.637
1291.448, 92.805
1292.656, 73.167
1293.865, 128.847
1295.073, 61.216
1296.282, 89.194
1297.490, 101.731
1298.698, 79.226
1299.906, 85.420
1301.113, 88.379
1302.320, 11.409
1303.528, 75.377
1304.735, 71.289
1305.942, 9.431
1307.148, 38.684
1308.355, 35.056
1309.561, 115.668
1310.767, 20.459
1311.973, 122.809
1313.179, 40.756
1314.384, 45.979
1315.590, 7.397
1316.795, 28.898
1318.000, 12.146
1319.205, 69.734
1320.410, 39.994
1321.614, 1.487
1322.819, 64.581
1324.023, 64.895
1325.227, 192.021
1326.431, 95.303
1327.634, 10.489
1328.838, 55.972
1330.041, 143.021
1331.244, 83.068
1332.447, 113.856
1333.650, 54.565
1334.852, 122.486
1336.055, 128.085
1337.257, 82.091
1338.459, 118.697
1339.661, 162.107
1340.862, 157.648
1342.064, 190.295
1343.265, 174.763
1344.466, 177.520
1345.667, 153.365
1346.868, 166.236
1348.068, 196.601
1349.269, 199.442
1350.469, 172.847
1351.669, 153.875
1352.869, 82.976
1354.069, 61.905
1355.268, 10.596
1356.468, 29.393
1357.667, 112.500
1358.866, 92.639
1360.065, 143.711
1361.263, 119.013
1362.462, 39.937
1363.660, 150.219
1364.858, 213.392
1366.056, 104.949
1367.254, 76.908
1368.451, 118.567
1369.649, 107.345
1370.846, 179.281
1372.043, 92.818
1373.240, 181.408
1374.436, 52.048
1375.633, 87.471
1376.829, 158.548
1378.025, 56.935
1379.221, 162.854
1380.417, 76.360
1381.613, 131.327
1382.808, 40.816
1384.003, 140.188
1385.199, 157.014
1386.393, 40.808
1387.588, 180.890
1388.783, 76.612
1389.977, 75.034
1391.171, 103.727
1392.365, 230.694
1393.559, 41.537
1394.753, 39.359
1395.946, 15.306
1397.140, 27.379
1398.333, 71.646
1399.526, 147.056
1400.719, 189.365
1401.911, 169.253
1403.104, 84.596
1404.296, 106.629
1405.488, 47.970
1406.680, 32.867
1407.872, 125.815
1409.063, 23.479
1410.255, 33.903
1411.446, 72.498
1412.637, 44.052
1413.828, 39.882
1415.018, 34.560
1416.209, 130.769
1417.399, 86.761
1418.589, 94.938
1419.779, 3.645
1420.969, 29.614
1422.159, 78.393
1423.348, 58.424
1424.537, 67.848
1425.726, 24.204
1426.915, 41.188
1428.104, 14.356
1429.293, 82.242
1430.481, 25.311
1431.669, 94.843
1432.857, 144.654
1434.045, 130.483
1435.233, 171.224
1436.420, 143.021
1437.608, 247.754
1438.795, 135.279
1439.982, 186.450
1441.169, 59.339
1442.355, 222.641
1443.542, 147.379
1444.728, 54.582
1445.914, 196.229
1447.100, 144.386
1448.286, 135.438
1449.472, 65.600
1450.657, 281.329
1451.842, 244.226
1453.027, 144.599
1454.212, 278.940
1455.397, 195.382
1456.581, 178.783
1457.766, 157.484
1458.950, 135.341
1460.134, 136.819
1461.318, 124.950
1462.501, 127.793
1463.685, 118.604
1464.868, 85.169
1466.051, 182.207
1467.234, 92.813
1468.417, 205.120
1469.600, 170.264
1470.782, 112.665
1471.965, 136.865
1473.147, 200.623
1474.329, 190.570
1475.510, 169.662
1476.692, 135.502
1477.873, 222.943
1479.055, 104.747
1480.236, 126.465
1481.416, 60.149
1482.597, 118.744
1483.778, 179.122
1484.958, 78.521
1486.138, 175.789
1487.318, 212.959
1488.498, 90.014
1489.678, 106.169
1490.857, 107.466
1492.037, 188.790
1493.216, 25.019
1494.395, 214.640
1495.574, 187.440
1496.752, 93.700
1497.931, 255.115
1499.109, 135.674
1500.287, 47.387
1501.465, 141.987
1502.643, 101.265
1503.820, 127.099
1504.998, 41.900
1506.175, 77.204
1507.352, 20.879
1508.529, 164.459
1509.706, 112.647
1510.882, 137.406
1512.059, 147.292
1513.235, 198.250
1514.411, 122.429
1515.587, 84.463
1516.762, 30.433
1517.938, 95.492
1519.113, 6.662
1520.288, 6.053
1521.463, 0.000
##END=



