##NAMES=Chenevixite
##RRUFFID=R040166
##IDEAL CHEMISTRY=Cu^2+^Fe^3+^(As^5+^O_4_)(OH)_2_
##LOCALITY=Volcanic Sunnyside mine, Santa Cruz County, Arizona, USA
##OWNER=RRUFF
##SOURCE=Andy Anderson
##DESCRIPTION=Green earthy massive
##STATUS=The identification of this mineral has been confirmed by X-ray diffraction and chemical analysis
##URL=rruff.info/R040166
##MEASURED CHEMISTRY=Cu_2.00_(Fe^3+^_1.98_[box]_0.02_)_Σ=2_((As_0.94_S_0.06_)O_4_)_2_(OH)_4_·1.49H_2_O
##PIN_ID=L00378
88.728, 0.000
90.128, 19.060
91.527, 5.781
92.926, 0.274
94.324, 111.890
95.723, 166.405
97.121, 304.249
98.519, 521.416
99.917, 683.262
101.314, 1028.047
102.712, 1373.220
104.109, 1867.670
105.505, 2435.840
106.902, 2880.684
108.298, 3253.599
109.694, 3877.789
111.090, 4194.600
112.486, 5145.557
113.881, 5111.836
115.277, 5014.350
116.672, 4443.831
118.066, 4060.856
119.461, 3505.893
120.855, 3089.310
122.249, 2853.137
123.643, 2949.826
125.036, 2948.108
126.430, 2722.327
127.823, 2523.597
129.216, 2431.993
130.608, 2281.517
132.001, 2152.122
133.393, 2183.756
134.785, 2066.375
136.176, 1969.937
137.568, 1794.407
138.959, 1819.753
140.350, 1785.938
141.741, 1622.931
143.131, 1630.699
144.521, 1559.218
145.911, 1278.469
147.301, 1248.432
148.691, 869.060
150.080, 600.304
151.469, 272.150
152.858, 174.603
154.247, 102.342
155.635, 258.683
157.024, 454.421
158.411, 399.556
159.799, 454.089
161.187, 408.019
162.574, 321.349
163.961, 244.079
165.348, 86.211
166.734, 82.253
168.121, 301.312
169.507, 800.960
170.893, 1401.199
172.278, 2011.967
173.664, 2913.057
175.049, 3574.492
176.434, 4686.289
177.819, 5578.450
179.203, 6060.975
180.587, 6333.857
181.971, 6667.093
183.355, 6730.670
184.739, 6894.580
186.122, 7038.819
187.505, 7323.385
188.888, 7148.273
190.271, 7143.449
191.653, 7138.877
193.035, 6924.562
194.417, 6770.514
195.799, 6666.745
197.180, 6703.261
198.562, 6600.072
199.943, 6337.186
201.324, 6344.611
202.704, 5942.357
204.084, 5750.426
205.465, 5608.627
206.844, 5396.628
208.224, 5234.439
209.603, 4992.242
210.983, 4900.318
212.362, 5048.787
213.740, 4917.643
215.119, 5256.893
216.497, 5566.536
217.875, 6226.576
219.253, 6927.012
220.631, 7357.842
222.008, 8099.068
223.385, 8030.697
224.762, 8082.715
226.139, 7345.131
227.515, 6627.943
228.891, 5441.148
230.267, 4414.743
231.643, 3508.729
233.018, 2673.102
234.394, 2257.859
235.769, 1623.000
237.144, 1358.521
238.518, 1424.419
239.893, 1400.691
241.267, 1477.336
242.641, 1814.348
244.014, 2211.727
245.388, 2319.467
246.761, 2927.566
248.134, 3266.020
249.507, 3664.825
250.879, 3913.979
252.252, 4233.477
253.624, 4223.318
254.996, 4348.147
256.367, 4401.389
257.739, 4335.692
259.110, 4050.826
260.481, 4136.357
261.852, 3912.215
263.222, 3628.367
264.592, 3464.759
265.962, 3111.355
267.332, 2698.137
268.702, 2305.106
270.071, 2012.263
271.440, 1769.593
272.809, 1545.546
274.178, 1324.375
275.546, 1271.830
276.915, 1229.373
278.283, 1217.030
279.650, 1344.826
281.018, 1477.205
282.385, 1710.890
283.752, 1969.185
285.119, 2297.668
286.486, 2696.347
287.852, 2934.719
289.218, 3462.355
290.584, 3639.376
291.950, 4076.187
293.316, 4383.260
294.681, 4260.646
296.046, 4438.357
297.411, 4296.404
298.775, 4234.795
300.140, 4353.533
301.504, 4392.611
302.868, 4462.019
304.231, 4661.775
305.595, 5031.866
306.958, 5062.297
308.321, 5213.080
309.684, 5014.211
311.047, 5155.680
312.409, 4857.488
313.771, 4659.633
315.133, 4452.105
316.495, 4584.931
317.856, 4538.084
319.217, 4603.871
320.578, 4512.430
321.939, 4571.100
323.299, 4723.992
324.660, 4584.875
326.020, 4539.265
327.380, 4339.354
328.739, 4259.820
330.099, 4196.902
331.458, 4003.146
332.817, 3829.682
334.176, 3596.518
335.534, 3763.647
336.892, 3531.056
338.251, 3678.756
339.608, 3856.714
340.966, 4104.963
342.323, 4823.517
343.681, 5642.349
345.037, 6571.475
346.394, 7590.885
347.751, 9200.553
349.107, 10170.496
350.463, 11390.713
351.819, 12131.182
353.174, 12471.902
354.530, 12892.878
355.885, 13504.114
357.240, 13875.608
358.594, 13877.362
359.949, 13869.367
361.303, 13701.601
362.657, 13294.073
364.011, 12306.773
365.365, 11489.689
366.718, 10572.839
368.071, 9366.195
369.424, 8629.774
370.777, 7603.566
372.129, 6757.561
373.481, 6001.766
374.833, 5355.490
376.185, 4860.770
377.537, 4425.564
378.888, 4040.551
380.239, 3855.735
381.590, 3581.104
382.941, 3376.658
384.291, 3142.390
385.642, 3148.303
386.992, 2944.395
388.341, 2840.658
389.691, 2977.090
391.040, 2643.690
392.389, 2780.456
393.738, 2807.387
395.087, 2874.477
396.435, 2951.725
397.784, 3139.128
399.132, 3362.613
400.479, 3640.430
401.827, 3982.243
403.174, 4350.242
404.521, 4768.386
405.868, 5196.672
407.215, 5555.096
408.561, 5693.660
409.908, 6252.358
411.254, 6181.193
412.599, 6230.159
413.945, 6699.258
415.290, 7098.482
416.636, 7737.834
417.980, 8327.339
419.325, 9447.003
420.670, 10586.823
422.014, 12206.792
423.358, 14446.913
424.702, 16517.176
426.045, 19397.580
427.389, 21808.139
428.732, 24758.824
430.075, 26789.658
431.417, 29030.633
432.760, 29961.740
434.102, 30032.986
435.444, 29444.367
436.786, 28145.881
438.127, 26447.535
439.469, 24079.324
440.810, 21621.238
442.151, 20133.289
443.492, 18575.463
444.832, 17197.777
446.172, 16210.221
447.512, 15332.783
448.852, 14955.476
450.192, 14519.535
451.531, 13732.497
452.870, 13297.099
454.209, 12404.314
455.548, 11607.894
456.887, 10564.542
458.225, 9715.136
459.563, 9129.061
460.901, 8314.817
462.238, 7649.646
463.576, 7282.429
464.913, 6792.137
466.250, 6327.925
467.587, 5926.951
468.923, 5699.602
470.259, 5412.180
471.596, 5212.183
472.931, 5014.512
474.267, 5046.101
475.603, 4637.334
476.938, 4593.807
478.273, 4616.609
479.608, 4803.748
480.942, 4717.375
482.276, 4749.121
483.611, 4875.400
484.944, 4962.224
486.278, 4857.457
487.612, 5344.314
488.945, 5197.196
490.278, 5176.596
491.611, 5388.264
492.943, 5338.107
494.276, 5322.225
495.608, 5414.537
496.940, 5273.983
498.271, 4956.955
499.603, 4922.328
500.934, 4705.908
502.265, 4203.244
503.596, 4164.746
504.927, 3879.772
506.257, 3533.564
507.587, 3391.607
508.917, 2982.828
510.247, 2805.910
511.577, 2572.771
512.906, 2270.570
514.235, 2199.443
515.564, 2059.836
516.892, 2059.434
518.221, 2010.507
519.549, 1899.977
520.877, 1753.832
522.205, 1700.400
523.533, 1774.332
524.860, 1439.685
526.187, 1238.215
527.514, 1330.179
528.841, 1106.814
530.167, 932.199
531.493, 974.496
532.820, 928.068
534.145, 818.854
535.471, 671.519
536.796, 591.381
538.122, 634.361
539.447, 521.107
540.771, 784.684
542.096, 586.247
543.420, 650.403
544.744, 545.395
546.068, 684.689
547.392, 598.629
548.715, 499.125
550.039, 747.829
551.362, 650.475
552.684, 786.125
554.007, 647.448
555.329, 739.472
556.652, 844.186
557.973, 875.770
559.295, 885.486
560.617, 920.854
561.938, 942.435
563.259, 924.839
564.580, 929.196
565.901, 925.504
567.221, 935.762
568.541, 874.966
569.861, 838.119
571.181, 875.217
572.501, 791.261
573.820, 755.247
575.139, 641.176
576.458, 683.046
577.777, 636.856
579.095, 588.604
580.414, 541.289
581.732, 413.911
583.049, 501.467
584.367, 319.956
585.685, 337.377
587.002, 312.729
588.319, 395.010
589.636, 273.220
590.952, 247.357
592.268, 258.419
593.585, 298.407
594.900, 306.318
596.216, 257.151
597.532, 263.905
598.847, 120.580
600.162, 140.172
601.477, 108.683
602.792, 240.110
604.106, 74.452
605.420, 53.708
606.734, 58.877
608.048, 45.041
609.361, 20.934
610.675, 46.184
611.988, 94.414
613.301, 12.217
614.614, 70.250
615.926, 125.851
617.238, 171.620
618.550, 193.583
619.862, 171.756
621.174, 132.131
622.485, 235.692
623.797, 166.496
625.108, 211.510
626.418, 262.761
627.729, 255.280
629.039, 208.065
630.349, 239.097
631.659, 221.394
632.969, 209.950
634.279, 287.761
635.588, 223.872
636.897, 128.252
638.206, 225.854
639.515, 189.731
640.823, 95.869
642.131, 98.220
643.439, 225.789
644.747, 245.646
646.055, 176.804
647.362, 116.230
648.669, 147.895
649.976, 114.817
651.283, 178.981
652.589, 146.423
653.896, 97.128
655.202, 149.708
656.508, 25.286
657.814, 152.703
659.119, 209.395
660.424, 113.392
661.729, 166.646
663.034, 144.186
664.339, 50.000
665.643, 98.044
666.947, 125.343
668.251, 23.910
669.555, 36.697
670.859, 51.709
672.162, 73.957
673.465, 59.453
674.768, 81.190
676.071, 54.015
677.373, 39.586
678.676, 4.838
679.978, 41.520
681.280, 54.686
682.581, 15.663
683.883, 90.433
685.184, 53.026
686.485, 82.430
687.786, 148.653
689.087, 106.717
690.387, 173.608
691.687, 245.344
692.987, 171.936
694.287, 221.372
695.586, 137.660
696.886, 253.783
698.185, 254.761
699.484, 297.597
700.783, 221.292
702.081, 277.838
703.379, 318.242
704.677, 404.509
705.975, 348.641
707.273, 355.636
708.570, 347.496
709.868, 418.220
711.165, 481.810
712.462, 547.269
713.758, 585.600
715.055, 528.804
716.351, 666.879
717.647, 655.829
718.943, 584.652
720.238, 737.350
721.533, 663.922
722.829, 773.369
724.124, 740.691
725.418, 808.888
726.713, 764.962
728.007, 839.912
729.301, 842.737
730.595, 931.440
731.889, 869.020
733.182, 1042.477
734.476, 951.812
735.769, 1155.025
737.061, 1231.117
738.354, 1125.087
739.647, 1233.938
740.939, 1332.667
742.231, 1381.276
743.523, 1473.990
744.814, 1555.389
746.106, 1606.390
747.397, 1714.524
748.688, 1767.541
749.978, 1820.440
751.269, 1893.223
752.559, 2003.890
753.849, 2205.438
755.139, 2239.874
756.429, 2389.194
757.719, 2449.399
759.008, 2737.490
760.297, 2874.468
761.586, 3019.333
762.875, 3383.085
764.163, 3456.478
765.451, 3722.992
766.739, 4053.885
768.027, 4388.185
769.315, 4706.160
770.602, 5027.051
771.890, 5392.029
773.177, 5743.693
774.463, 6113.542
775.750, 6684.332
777.036, 6967.185
778.323, 7633.119
779.609, 8082.985
780.894, 8629.621
782.180, 9222.642
783.465, 9855.741
784.750, 10821.422
786.035, 11704.781
787.320, 12468.882
788.605, 13293.344
789.889, 14142.568
791.173, 14915.460
792.457, 15664.016
793.741, 16656.121
795.024, 17620.164
796.307, 18449.791
797.591, 19578.961
798.873, 21249.820
800.156, 21579.143
801.439, 22992.492
802.721, 24379.377
804.003, 25134.002
805.285, 26030.439
806.566, 26412.592
807.848, 26626.545
809.129, 26243.342
810.410, 25756.607
811.691, 25057.453
812.971, 23780.080
814.252, 23028.932
815.532, 22163.602
816.812, 20514.732
818.092, 20037.080
819.371, 19075.154
820.651, 18320.037
821.930, 17283.031
823.209, 17012.227
824.488, 16540.459
825.766, 15877.597
827.045, 15693.188
828.323, 15519.548
829.601, 15304.425
830.878, 15580.873
832.156, 15422.908
833.433, 15772.207
834.710, 16334.116
835.987, 16636.588
837.264, 17556.844
838.540, 17990.643
839.817, 19102.746
841.093, 20346.066
842.369, 22001.453
843.644, 23735.541
844.920, 26141.375
846.195, 28278.309
847.470, 30964.004
848.745, 33570.559
850.020, 36275.320
851.294, 38712.230
852.568, 40139.145
853.842, 41966.449
855.116, 42322.867
856.390, 42679.984
857.663, 41437.410
858.936, 39495.250
860.209, 37102.855
861.482, 34470.492
862.755, 31278.094
864.027, 27336.008
865.299, 24294.195
866.571, 22012.658
867.843, 18881.236
869.115, 16959.654
870.386, 15208.283
871.657, 13356.927
872.928, 12275.590
874.199, 10714.278
875.470, 10182.971
876.740, 9271.682
878.010, 8680.404
879.280, 7929.147
880.550, 7137.910
881.820, 7116.696
883.089, 6535.495
884.358, 6254.303
885.627, 5883.124
886.896, 5641.966
888.164, 5280.834
889.433, 5119.724
890.701, 4788.643
891.969, 4717.582
893.236, 4536.540
894.504, 4315.521
895.771, 4094.514
897.038, 3923.546
898.305, 3745.597
899.572, 3633.681
900.838, 3390.785
902.105, 3315.916
903.371, 3014.063
904.637, 2717.229
905.902, 2769.413
907.168, 2341.635
908.433, 2203.878
909.698, 1997.141
910.963, 1918.433
912.228, 1730.744
913.492, 1547.077
914.757, 1471.433
916.021, 1298.810
917.285, 1179.227
918.548, 1090.668
919.812, 981.144
921.075, 935.667
922.338, 861.219
923.601, 763.818
924.864, 664.481
926.126, 699.220
927.388, 632.042
928.650, 595.942
929.912, 534.915
931.174, 498.654
932.435, 502.153
933.697, 428.411
934.958, 410.780
936.218, 377.262
937.479, 408.845
938.739, 369.540
940.000, 332.341
941.260, 341.292
942.520, 316.972
943.779, 334.468
945.039, 340.710
946.298, 357.068
947.557, 371.579
948.816, 310.087
950.074, 381.728
951.333, 427.489
952.591, 390.407
953.849, 509.946
955.107, 398.049
956.365, 430.403
957.622, 367.402
958.879, 332.828
960.136, 358.362
961.393, 324.354
962.650, 292.099
963.906, 333.002
965.162, 269.943
966.418, 319.012
967.674, 315.123
968.930, 280.417
970.185, 404.128
971.441, 312.628
972.696, 508.233
973.950, 555.951
975.205, 524.754
976.459, 578.648
977.714, 611.637
978.968, 774.725
980.222, 801.776
981.475, 825.067
982.729, 811.458
983.982, 933.510
985.235, 884.054
986.488, 1100.891
987.740, 1013.580
988.993, 1101.567
990.245, 1235.957
991.497, 1165.863
992.749, 1375.082
994.000, 1417.560
995.252, 1535.653
996.503, 1551.986
997.754, 1588.185
999.005, 1658.859
1000.256, 1717.616
1001.506, 1719.898
1002.756, 1951.222
1004.006, 1980.158
1005.256, 2032.060
1006.506, 2186.476
1007.755, 2231.142
1009.005, 2331.873
1010.254, 2540.051
1011.502, 2587.920
1012.751, 2741.229
1014.000, 2720.572
1015.248, 2848.215
1016.496, 2920.688
1017.744, 2957.793
1018.991, 3029.146
1020.239, 3071.533
1021.486, 3031.740
1022.733, 2965.451
1023.980, 3017.682
1025.227, 2911.857
1026.473, 2852.380
1027.719, 2729.794
1028.965, 2625.860
1030.211, 2564.632
1031.457, 2354.877
1032.702, 2444.393
1033.948, 2266.415
1035.193, 2292.046
1036.438, 2117.238
1037.682, 2096.479
1038.927, 2103.556
1040.171, 2010.748
1041.415, 2008.581
1042.659, 2045.317
1043.903, 1916.449
1045.146, 1845.481
1046.390, 1924.166
1047.633, 1854.674
1048.876, 1879.737
1050.118, 1717.909
1051.361, 1652.306
1052.603, 1585.326
1053.845, 1520.956
1055.087, 1360.038
1056.329, 1259.800
1057.571, 1213.528
1058.812, 1143.784
1060.053, 985.947
1061.294, 910.997
1062.535, 857.501
1063.775, 712.630
1065.016, 711.854
1066.256, 550.958
1067.496, 641.278
1068.736, 489.636
1069.975, 424.012
1071.214, 402.400
1072.454, 356.265
1073.693, 322.100
1074.931, 316.543
1076.170, 250.868
1077.408, 260.267
1078.647, 208.969
1079.885, 198.329
1081.122, 187.863
1082.360, 196.284
1083.597, 65.765
1084.835, 126.315
1086.072, 97.842
1087.308, 13.285
1088.545, 60.889
1089.781, 94.494
1091.018, 64.225
1092.254, 0.291
1093.490, 28.803
1094.725, 37.364
1095.961, 31.972
1097.196, 46.616
1098.431, 31.444
1099.666, 43.056
1100.900, 0.383
1102.135, 37.745
1103.369, 41.223
1104.603, 13.168
1105.837, 43.063
1107.071, 57.605
1108.304, 16.126
1109.538, 26.169
1110.771, 13.627
1112.004, 6.567
1113.236, 23.256
1114.469, 18.762
1115.701, 46.610
1116.933, 23.799
1118.165, 19.855
1119.397, 54.837
1120.629, 45.541
1121.860, 239.164
1123.091, 312.600
1124.322, 189.181
1125.553, 72.587
1126.783, 53.929
1128.014, 82.635
1129.244, 44.819
1130.474, 4.056
1131.704, 24.477
1132.933, 34.709
1134.163, 80.023
1135.392, 19.598
1136.621, 8.167
1137.850, 42.911
1139.079, 92.916
1140.307, 52.975
1141.535, 35.769
1142.763, 7.105
1143.991, 46.473
1145.219, 26.942
1146.446, 28.668
1147.674, 78.697
1148.901, 34.674
1150.128, 129.864
1151.354, 40.889
1152.581, 20.098
1153.807, 75.454
1155.033, 28.598
1156.259, 9.519
1157.485, 63.912
1158.710, 7.364
1159.936, 92.857
1161.161, 59.035
1162.386, 45.449
1163.611, 56.319
1164.835, 80.018
1166.060, 49.638
1167.284, 95.726
1168.508, 58.833
1169.732, 48.769
1170.955, 54.927
1172.179, 4.166
1173.402, 23.581
1174.625, 3.886
1175.848, 28.180
1177.070, 37.429
1178.293, 27.083
1179.515, 2.383
1180.737, 34.582
1181.959, 23.029
1183.181, 18.640
1184.402, 17.587
1185.624, 13.152
1186.845, 29.103
1188.066, 10.749
1189.286, 14.547
1190.507, 9.293
1191.727, 61.983
1192.947, 44.363
1194.167, 27.204
1195.387, 15.278
1196.607, 39.167
1197.826, 15.565
1199.045, 93.905
1200.264, 61.208
1201.483, 95.572
1202.702, 17.203
1203.920, 65.945
1205.138, 88.049
1206.356, 33.114
1207.574, 143.124
1208.792, 85.097
1210.009, 139.029
1211.227, 123.924
1212.444, 43.780
1213.661, 115.582
1214.877, 113.345
1216.094, 116.069
1217.310, 119.753
1218.526, 91.398
1219.742, 94.999
1220.958, 126.558
1222.173, 161.078
1223.389, 149.559
1224.604, 112.000
1225.819, 86.399
1227.034, 134.750
1228.248, 167.060
1229.463, 158.331
1230.677, 146.562
1231.891, 157.140
1233.105, 181.900
1234.318, 148.009
1235.532, 152.077
1236.745, 136.104
1237.958, 118.089
1239.171, 186.003
1240.384, 177.901
1241.596, 169.759
1242.809, 164.574
1244.021, 141.348
1245.233, 178.072
1246.444, 192.752
1247.656, 176.361
1248.867, 95.416
1250.079, 185.957
1251.290, 132.310
1252.500, 172.075
1253.711, 208.482
1254.921, 165.845
1256.132, 155.802
1257.342, 156.074
1258.552, 155.573
1259.761, 214.402
1260.971, 185.536
1262.180, 234.688
1263.389, 250.729
1264.598, 169.417
1265.807, 168.357
1267.015, 180.248
1268.223, 224.093
1269.432, 187.890
1270.640, 228.640
1271.847, 242.341
1273.055, 217.997
1274.262, 202.737
1275.470, 252.298
1276.677, 194.803
1277.883, 260.673
1279.090, 235.092
1280.296, 161.247
1281.503, 226.574
1282.709, 217.640
1283.915, 143.323
1285.120, 240.517
1286.326, 206.420
1287.531, 134.079
1288.736, 162.143
1289.941, 157.979
1291.146, 158.959
1292.350, 225.476
1293.555, 194.919
1294.759, 234.854
1295.963, 166.755
1297.167, 198.054
1298.370, 223.391
1299.574, 149.225
1300.777, 134.814
1301.980, 191.345
1303.183, 186.430
1304.386, 186.830
1305.588, 122.792
1306.790, 133.725
1307.993, 214.360
1309.195, 153.166
1310.396, 69.340
1311.598, 262.265
1312.799, 178.156
1314.000, 117.225
1315.201, 147.789
1316.402, 144.831
1317.603, 142.928
1318.803, 161.675
1320.003, 114.529
1321.203, 93.730
1322.403, 161.222
1323.603, 113.240
1324.802, 219.985
1326.002, 94.223
1327.201, 110.849
1328.400, 202.914
1329.599, 70.929
1330.797, 121.106
1331.995, 149.169
1333.194, 170.588
1334.392, 209.105
1335.589, 146.225
1336.787, 189.445
1337.985, 219.013
1339.182, 135.755
1340.379, 189.943
1341.576, 169.021
1342.772, 143.874
1343.969, 133.103
1345.165, 99.721
1346.361, 196.886
1347.557, 220.372
1348.753, 182.892
1349.949, 138.883
1351.144, 184.967
1352.339, 130.165
1353.534, 146.908
1354.729, 178.027
1355.924, 188.053
1357.118, 128.200
1358.312, 188.132
1359.506, 116.028
1360.700, 138.239
1361.894, 121.777
1363.088, 148.173
1364.281, 195.130
1365.474, 191.953
1366.667, 157.897
1367.860, 218.838
1369.052, 184.413
1370.245, 112.335
1371.437, 157.088
1372.629, 128.960
1373.821, 185.779
1375.013, 133.499
1376.204, 210.239
1377.395, 149.066
1378.586, 210.732
1379.777, 214.397
1380.968, 213.239
1382.159, 196.747
1383.349, 216.311
1384.539, 239.744
1385.729, 235.174
1386.919, 248.849
1388.109, 230.856
1389.298, 227.930
1390.487, 250.345
1391.676, 197.345
1392.865, 259.109
1394.054, 218.305
1395.242, 195.803
1396.431, 209.488
1397.619, 156.427
1398.807, 173.439
1399.995, 181.330
1401.182, 198.274
1402.370, 178.118
1403.557, 219.522
1404.744, 160.215
1405.931, 234.201
1407.118, 200.802
1408.304, 202.487
1409.490, 211.542
1410.676, 151.991
1411.862, 250.225
1413.048, 235.372
1414.234, 336.359
1415.419, 285.716
1416.604, 184.295
1417.789, 194.840
1418.974, 213.901
1420.159, 165.372
1421.343, 145.990
1422.528, 170.260
1423.712, 170.977
1424.896, 202.768
1426.079, 238.507
1427.263, 236.344
1428.446, 225.700
1429.629, 174.940
1430.812, 155.203
1431.995, 212.490
1433.178, 238.836
1434.360, 181.216
1435.543, 266.428
1436.725, 166.812
1437.907, 222.215
1439.088, 225.625
1440.270, 123.015
1441.451, 226.396
1442.632, 179.771
1443.813, 170.126
1444.994, 223.469
1446.175, 153.792
1447.355, 198.093
1448.535, 208.391
1449.715, 181.667
1450.895, 196.924
1452.075, 233.159
1453.255, 152.372
1454.434, 167.572
1455.613, 173.753
1456.792, 67.931
1457.971, 132.116
1459.149, 131.303
1460.328, 153.488
1461.506, 207.678
1462.684, 191.346
1463.862, 163.080
1465.040, 183.308
1466.217, 172.581
1467.395, 157.916
1468.572, 104.293
1469.749, 96.720
1470.925, 134.206
1472.102, 135.760
1473.278, 150.376
1474.455, 129.036
1475.631, 121.743
1476.807, 127.495
1477.982, 105.280
1479.158, 62.084
1480.333, 130.908
1481.508, 92.752
1482.683, 66.615
1483.858, 83.499
1485.033, 29.407
1486.207, 17.345
1487.381, 137.316
1488.555, 19.328
1489.729, 102.387
1490.903, 117.500
1492.076, 82.673
1493.250, 130.913
1494.423, 99.226
