##NAMES=Chenevixite
##RRUFFID=R040166
##IDEAL CHEMISTRY=Cu^2+^Fe^3+^(As^5+^O_4_)(OH)_2_
##LOCALITY=Volcanic Sunnyside mine, Santa Cruz County, Arizona, USA
##OWNER=RRUFF
##SOURCE=Andy Anderson
##DESCRIPTION=Green earthy massive
##STATUS=The identification of this mineral has been confirmed by X-ray diffraction and chemical analysis
##URL=rruff.info/R040166
##MEASURED CHEMISTRY=Cu_2.00_(Fe^3+^_1.98_[box]_0.02_)_Σ=2_((As_0.94_S_0.06_)O_4_)_2_(OH)_4_·1.49H_2_O
##PIN_ID=L00378
92.926, 0.000
94.324, 59.942
95.723, 50.399
97.121, 18.124
98.519, 197.589
99.917, 529.055
101.314, 821.297
102.712, 1138.967
104.109, 1594.289
105.505, 2001.942
106.902, 2239.613
108.298, 2237.147
109.694, 2368.004
111.090, 2779.585
112.486, 3683.040
113.881, 3657.333
115.277, 3364.445
116.672, 3015.879
118.066, 2922.789
119.461, 2476.076
120.855, 2086.451
122.249, 2014.479
123.643, 2154.561
125.036, 2193.805
126.430, 2283.118
127.823, 2347.544
129.216, 2485.905
130.608, 2563.206
132.001, 2351.754
133.393, 2481.514
134.785, 2302.450
136.176, 2274.518
137.568, 2427.654
138.959, 2281.817
140.350, 2386.963
141.741, 2223.049
143.131, 2230.039
144.521, 2207.896
145.911, 1886.583
147.301, 1866.068
148.691, 1336.327
150.080, 1007.336
151.469, 499.056
152.858, 331.427
154.247, 24.421
155.635, 151.963
157.024, 387.730
158.411, 372.879
159.799, 427.415
161.187, 431.338
162.574, 394.649
163.961, 237.352
165.348, 129.448
166.734, 109.062
168.121, 208.173
169.507, 757.886
170.893, 1498.194
172.278, 2089.094
173.664, 3070.585
175.049, 3882.661
176.434, 5025.252
177.819, 5838.177
179.203, 6441.449
180.587, 6755.089
181.971, 7119.104
183.355, 7333.484
184.739, 7358.230
186.122, 7723.330
187.505, 7558.770
188.888, 7714.545
190.271, 7830.648
191.653, 8327.078
193.035, 8503.806
194.417, 9150.791
195.799, 9518.023
197.180, 9395.521
198.562, 9713.287
199.943, 9191.331
201.324, 9219.667
202.704, 8538.301
204.084, 8287.238
205.465, 7946.490
206.844, 7796.041
208.224, 7225.600
209.603, 6984.928
210.983, 6874.045
212.362, 6923.217
213.740, 6722.729
215.119, 7032.626
216.497, 7352.906
217.875, 7893.571
219.253, 8304.624
220.631, 8396.062
222.008, 8837.888
223.385, 8440.100
224.762, 8182.701
226.139, 7255.688
227.515, 6589.062
228.891, 5622.826
230.267, 4636.974
231.643, 3841.506
233.018, 2986.422
234.394, 2671.716
235.769, 2127.389
237.144, 2103.438
238.518, 2069.859
239.893, 2326.654
241.267, 2423.816
242.641, 2801.345
244.014, 3439.233
245.388, 3777.479
246.761, 4446.082
248.134, 4755.039
249.507, 5164.341
250.879, 5493.991
252.252, 5723.982
253.624, 5704.311
254.996, 5684.973
256.367, 5595.967
257.739, 5327.289
259.110, 5272.416
260.481, 5058.310
261.852, 4584.689
263.222, 4241.060
264.592, 3908.398
265.962, 3496.082
267.332, 3091.764
268.702, 2432.270
270.071, 2220.665
271.440, 1749.239
272.809, 1327.990
274.178, 1316.919
275.546, 1215.919
276.915, 1184.899
278.283, 1193.896
279.650, 1302.947
281.018, 1652.088
282.385, 1721.344
283.752, 2030.734
285.119, 2250.276
286.486, 2839.982
287.852, 2939.864
289.218, 3529.857
290.584, 3949.267
291.950, 4317.945
293.316, 4555.998
294.681, 4514.006
296.046, 4742.375
297.411, 4481.075
298.775, 4590.123
300.140, 4639.507
301.504, 4569.240
302.868, 4713.164
304.231, 5069.710
305.595, 4920.440
306.958, 5091.521
308.321, 5252.959
309.684, 5034.709
311.047, 4796.797
312.409, 4499.226
313.771, 4261.986
315.133, 4005.090
316.495, 3898.536
317.856, 3712.302
319.217, 3713.745
320.578, 3727.066
321.939, 3798.322
323.299, 3811.570
324.660, 3652.713
326.020, 3584.733
327.380, 3519.795
328.739, 3484.256
330.099, 3154.872
331.458, 3091.632
332.817, 2738.674
334.176, 2636.002
335.534, 2593.615
336.892, 2301.506
338.251, 2309.675
339.608, 2308.100
340.966, 2506.819
342.323, 2935.793
343.681, 3245.023
345.037, 3994.548
346.394, 4504.346
347.751, 5544.392
349.107, 6004.707
350.463, 6845.280
351.819, 6866.113
353.174, 7327.216
354.530, 7278.553
355.885, 7840.160
357.240, 8102.037
358.594, 8234.180
359.949, 8156.551
361.303, 7999.174
362.657, 7872.017
364.011, 7305.098
365.365, 6838.395
366.718, 6261.901
368.071, 5825.615
369.424, 5159.543
370.777, 4623.664
372.129, 4247.987
373.481, 3792.518
374.833, 3487.256
376.185, 3222.188
377.537, 2937.323
378.888, 2792.652
380.239, 2678.175
381.590, 2453.883
382.941, 2339.768
384.291, 2255.826
385.642, 2232.059
386.992, 2128.461
388.341, 2065.031
389.691, 2201.768
391.040, 1978.664
392.389, 1975.722
393.738, 1822.938
395.087, 1930.310
396.435, 1917.833
397.784, 2075.508
399.132, 2213.330
400.479, 2401.060
401.827, 2599.414
403.174, 2917.668
404.521, 3226.062
405.868, 3564.592
407.215, 3943.259
408.561, 4072.060
409.908, 4320.990
411.254, 4480.051
412.599, 4419.240
413.945, 4808.553
415.290, 5077.990
416.636, 5627.549
417.980, 6107.230
419.325, 6977.027
420.670, 8016.939
422.014, 9537.005
423.358, 11177.211
424.702, 12877.557
426.045, 15398.045
427.389, 17448.668
428.732, 20139.428
430.075, 21970.324
431.417, 23941.344
432.760, 24652.492
434.102, 25183.773
435.444, 24525.182
436.786, 23646.711
438.127, 22198.367
439.469, 20380.148
440.810, 18342.055
442.151, 17124.086
443.492, 15426.235
444.832, 14178.509
446.172, 13180.902
447.512, 12393.416
448.852, 11686.043
450.192, 11029.511
451.531, 10362.751
452.870, 9665.742
454.209, 9036.653
455.548, 8313.086
456.887, 7597.055
458.225, 6984.076
459.563, 6446.512
460.901, 6017.969
462.238, 5573.284
463.576, 5335.937
464.913, 4961.516
466.250, 4855.512
467.587, 4595.461
468.923, 4448.354
470.259, 4351.967
471.596, 4362.177
472.931, 4263.914
474.267, 4294.483
475.603, 4325.974
476.938, 4343.323
478.273, 4483.768
479.608, 4650.943
480.942, 4824.810
482.276, 4847.269
483.611, 5185.519
484.944, 5419.936
486.278, 5492.520
487.612, 5755.299
488.945, 5982.279
490.278, 6096.887
491.611, 6244.494
492.943, 6402.926
494.276, 6352.629
495.608, 6514.111
496.940, 6383.617
498.271, 6123.854
499.603, 6019.872
500.934, 5735.484
502.265, 5221.494
503.596, 4969.272
504.927, 4735.604
506.257, 4267.253
507.587, 3984.105
508.917, 3586.336
510.247, 3285.719
511.577, 3076.379
512.906, 2718.791
514.235, 2603.497
515.564, 2327.703
516.892, 2212.881
518.221, 2176.156
519.549, 2020.768
520.877, 1871.578
522.205, 1714.882
523.533, 1743.824
524.860, 1477.029
526.187, 1228.922
527.514, 1291.188
528.841, 1135.068
530.167, 994.900
531.493, 876.693
532.820, 799.065
534.145, 791.533
535.471, 681.213
536.796, 582.140
538.122, 704.344
539.447, 523.980
540.771, 648.241
542.096, 520.427
543.420, 473.127
544.744, 461.857
546.068, 612.593
547.392, 501.198
548.715, 551.586
550.039, 690.724
551.362, 552.746
552.684, 664.776
554.007, 656.507
555.329, 745.182
556.652, 892.593
557.973, 877.021
559.295, 834.623
560.617, 1045.780
561.938, 933.805
563.259, 1000.799
564.580, 939.723
565.901, 945.595
567.221, 986.412
568.541, 972.177
569.861, 995.884
571.181, 1025.535
572.501, 778.128
573.820, 812.661
575.139, 743.134
576.458, 704.545
577.777, 763.893
579.095, 605.177
580.414, 734.396
581.732, 529.550
583.049, 614.635
584.367, 522.650
585.685, 606.598
587.002, 393.473
588.319, 470.275
589.636, 302.004
590.952, 433.658
592.268, 352.236
593.585, 294.737
594.900, 286.160
596.216, 313.502
597.532, 305.765
598.847, 280.480
600.162, 197.043
601.477, 174.057
602.792, 185.985
604.106, 49.827
605.420, 77.582
606.734, 72.249
608.048, 23.175
609.361, 2.700
610.675, 114.323
611.988, 72.093
613.301, 74.992
614.614, 188.023
615.926, 70.252
617.238, 149.619
618.550, 127.170
619.862, 181.897
621.174, 132.832
622.485, 172.951
623.797, 141.282
625.108, 229.809
626.418, 270.583
627.729, 116.628
629.039, 215.867
630.349, 234.355
631.659, 210.105
632.969, 266.107
634.279, 260.393
635.588, 191.964
636.897, 134.786
638.206, 76.831
639.515, 208.073
640.823, 134.583
642.131, 67.324
643.439, 191.267
644.747, 136.477
646.055, 141.928
647.362, 206.627
648.669, 90.611
649.976, 99.820
651.283, 116.261
652.589, 140.946
653.896, 105.888
655.202, 114.072
656.508, 43.505
657.814, 193.150
659.119, 37.088
660.424, 62.239
661.729, 195.618
663.034, 118.295
664.339, 39.233
665.643, 122.392
666.947, 66.814
668.251, 100.476
669.555, 118.393
670.859, 6.422
672.162, 142.965
673.465, 156.635
674.768, 124.596
676.071, 15.169
677.373, 82.269
678.676, 42.039
679.978, 49.844
681.280, 47.034
682.581, 77.722
683.883, 70.232
685.184, 37.561
686.485, 148.694
687.786, 85.668
689.087, 72.465
690.387, 71.080
691.687, 160.511
692.987, 85.784
694.287, 139.878
695.586, 124.810
696.886, 182.574
698.185, 258.184
699.484, 314.649
700.783, 308.976
702.081, 306.162
703.379, 319.207
704.677, 353.113
705.975, 405.882
707.273, 425.516
708.570, 416.015
709.868, 479.178
711.165, 483.611
712.462, 537.712
713.758, 523.683
715.055, 472.524
716.351, 568.233
717.647, 630.815
718.943, 585.271
720.238, 750.599
721.533, 671.802
722.829, 708.879
724.124, 797.832
725.418, 731.659
726.713, 850.362
728.007, 857.941
729.301, 916.396
730.595, 956.728
731.889, 907.937
733.182, 1121.022
734.476, 1005.985
735.769, 1194.827
737.061, 1165.547
738.354, 1157.146
739.647, 1314.623
740.939, 1305.980
742.231, 1371.218
743.523, 1478.335
744.814, 1527.334
746.106, 1659.213
747.397, 1762.975
748.688, 1768.617
749.978, 1784.143
751.269, 1884.550
752.559, 1943.842
753.849, 2046.832
755.139, 2273.077
756.429, 2292.021
757.719, 2509.850
759.008, 2667.565
760.297, 2820.166
761.586, 2994.654
762.875, 3195.098
764.163, 3406.813
765.451, 3644.346
766.739, 3901.374
768.027, 4180.492
769.315, 4499.101
770.602, 4670.189
771.890, 5298.240
773.177, 5460.883
774.463, 5754.514
775.750, 6284.295
777.036, 6656.747
778.323, 7286.276
779.609, 7747.393
780.894, 8362.562
782.180, 8994.782
783.465, 9526.291
784.750, 10541.198
786.035, 11234.580
787.320, 11969.126
788.605, 12659.807
789.889, 13630.501
791.173, 14365.159
792.457, 15183.077
793.741, 15854.314
795.024, 16826.994
796.307, 17773.986
797.591, 18464.896
798.873, 20077.729
800.156, 20703.713
801.439, 21809.066
802.721, 23190.098
804.003, 23948.141
805.285, 24825.340
806.566, 25351.252
807.848, 25355.367
809.129, 24881.438
810.410, 24546.752
811.691, 24176.273
812.971, 23016.176
814.252, 22105.654
815.532, 21483.342
816.812, 19872.467
818.092, 19696.240
819.371, 18434.793
820.651, 17837.943
821.930, 16354.400
823.209, 16048.573
824.488, 15551.458
825.766, 14802.015
827.045, 14493.044
828.323, 14263.068
829.601, 13834.964
830.878, 14085.491
832.156, 13889.788
833.433, 13821.562
834.710, 14297.668
835.987, 14359.495
837.264, 15142.609
838.540, 15525.318
839.817, 16236.394
841.093, 17331.471
842.369, 18614.559
843.644, 19927.018
844.920, 21729.346
846.195, 23484.443
847.470, 25777.264
848.745, 28091.762
850.020, 30385.791
851.294, 32491.150
852.568, 34067.539
853.842, 36304.371
855.116, 36831.137
856.390, 37417.859
857.663, 36524.660
858.936, 35201.645
860.209, 33588.832
861.482, 31496.113
862.755, 28793.348
864.027, 25170.871
865.299, 22588.412
866.571, 20656.207
867.843, 17703.957
869.115, 15981.486
870.386, 14409.458
871.657, 12717.511
872.928, 11755.571
874.199, 10283.658
875.470, 9871.756
876.740, 9069.896
878.010, 8298.052
879.280, 7666.214
880.550, 7054.415
881.820, 6992.627
883.089, 6330.860
884.358, 6109.111
885.627, 5837.370
886.896, 5595.646
888.164, 5333.944
889.433, 5282.263
890.701, 4890.603
891.969, 4898.964
893.236, 4687.343
894.504, 4645.733
895.771, 4404.131
897.038, 4122.547
898.305, 4110.981
899.572, 3819.440
900.838, 3587.921
902.105, 3566.420
903.371, 3314.932
904.637, 2973.461
905.902, 2922.006
907.168, 2870.582
908.433, 2506.176
909.698, 2151.790
910.963, 1997.436
912.228, 1729.098
913.492, 1515.785
914.757, 1442.492
916.021, 1322.221
917.285, 1233.990
918.548, 1130.177
919.812, 1021.664
921.075, 918.513
922.338, 826.451
923.601, 720.461
924.864, 659.516
926.126, 658.643
927.388, 592.836
928.650, 558.111
929.912, 503.456
931.174, 504.882
932.435, 398.386
933.697, 406.989
934.958, 364.702
936.218, 426.496
937.479, 329.393
938.739, 352.396
940.000, 337.500
941.260, 332.722
942.520, 328.060
943.779, 271.684
945.039, 283.439
946.298, 347.041
947.557, 288.124
948.816, 347.930
950.074, 454.811
951.333, 436.801
952.591, 485.741
953.849, 483.211
955.107, 481.090
956.365, 420.477
957.622, 350.953
958.879, 263.526
960.136, 270.203
961.393, 285.975
962.650, 216.844
963.906, 337.794
965.162, 208.876
966.418, 301.027
967.674, 242.770
968.930, 228.488
970.185, 339.629
971.441, 235.453
972.696, 407.109
973.950, 510.859
975.205, 420.710
976.459, 561.670
977.714, 564.706
978.968, 657.855
980.222, 659.125
981.475, 707.506
982.729, 773.248
983.982, 848.700
985.235, 815.044
986.488, 959.983
987.740, 893.690
988.993, 909.546
990.245, 1065.622
991.497, 1065.787
992.749, 1092.834
994.000, 1287.944
995.252, 1252.120
996.503, 1343.832
997.754, 1346.858
999.005, 1450.469
1000.256, 1491.063
1001.506, 1588.532
1002.756, 1745.103
1004.006, 1825.898
1005.256, 1837.866
1006.506, 1930.207
1007.755, 1902.437
1009.005, 2105.199
1010.254, 2176.009
1011.502, 2323.449
1012.751, 2349.236
1014.000, 2398.211
1015.248, 2472.014
1016.496, 2621.779
1017.744, 2552.575
1018.991, 2686.162
1020.239, 2686.413
1021.486, 2717.904
1022.733, 2630.190
1023.980, 2563.762
1025.227, 2533.509
1026.473, 2427.731
1027.719, 2306.254
1028.965, 2329.363
1030.211, 2254.915
1031.457, 2114.653
1032.702, 2111.011
1033.948, 2080.772
1035.193, 2045.751
1036.438, 1892.044
1037.682, 1935.063
1038.927, 1834.111
1040.171, 1840.979
1041.415, 1790.247
1042.659, 1910.927
1043.903, 1778.946
1045.146, 1805.974
1046.390, 1721.515
1047.633, 1605.791
1048.876, 1653.480
1050.118, 1618.998
1051.361, 1522.055
1052.603, 1549.101
1053.845, 1383.618
1055.087, 1303.832
1056.329, 1144.740
1057.571, 1134.194
1058.812, 1063.317
1060.053, 922.413
1061.294, 835.500
1062.535, 673.057
1063.775, 658.592
1065.016, 574.010
1066.256, 492.902
1067.496, 532.368
1068.736, 361.810
1069.975, 386.667
1071.214, 341.275
1072.454, 353.732
1073.693, 335.945
1074.931, 366.602
1076.170, 313.339
1077.408, 247.484
1078.647, 232.520
1079.885, 141.090
1081.122, 142.384
1082.360, 29.018
1083.597, 128.540
1084.835, 46.908
1086.072, 26.900
1087.308, 77.513
1088.545, 36.889
1089.781, 116.369
1091.018, 67.773
1092.254, 17.540
1093.490, 20.887
1094.725, 25.776
1095.961, 29.362
1097.196, 37.621
1098.431, 11.182
1099.666, 27.771
1100.900, 10.709
1102.135, 75.231
1103.369, 130.475
1104.603, 415.993
1105.837, 489.547
1107.071, 621.372
1108.304, 729.904
1109.538, 975.383
1110.771, 608.915
1112.004, 141.493
1113.236, 2.934
1114.469, 42.416
1115.701, 62.053
1116.933, 21.671
1118.165, 34.191
1119.397, 16.778
1120.629, 69.668
1121.860, 167.009
1123.091, 237.559
1124.322, 273.975
1125.553, 341.439
1126.783, 233.399
1128.014, 10.096
1129.244, 18.623
1130.474, 12.858
1131.704, 32.235
1132.933, 50.607
1134.163, 96.272
1135.392, 51.776
1136.621, 30.498
1137.850, 72.280
1139.079, 4.395
1140.307, 50.747
1141.535, 36.086
1142.763, 5.410
1143.991, 101.274
1145.219, 15.108
1146.446, 24.984
1147.674, 1.126
1148.901, 28.148
1150.128, 8.301
1151.354, 3.155
1152.581, 19.872
1153.807, 4.961
1155.033, 20.004
1156.259, 27.207
1157.485, 36.653
1158.710, 65.552
1159.936, 52.705
1161.161, 116.871
1162.386, 22.082
1163.611, 150.717
1164.835, 59.269
1166.060, 5.224
1167.284, 157.029
1168.508, 22.223
1169.732, 89.192
1170.955, 12.075
1172.179, 12.825
1173.402, 129.937
1174.625, 37.228
1175.848, 21.987
1177.070, 113.512
1178.293, 3.138
1179.515, 27.058
1180.737, 15.802
1181.959, 15.630
1183.181, 4.830
1184.402, 14.687
1185.624, 13.326
1186.845, 8.789
1188.066, 13.556
1189.286, 14.412
1190.507, 60.322
1191.727, 66.112
1192.947, 22.827
1194.167, 30.496
1195.387, 5.123
1196.607, 9.678
1197.826, 42.220
1199.045, 111.981
1200.264, 63.395
1201.483, 87.813
1202.702, 5.717
1203.920, 74.547
1205.138, 53.771
1206.356, 12.002
1207.574, 156.115
1208.792, 48.191
1210.009, 85.324
1211.227, 98.310
1212.444, 5.255
1213.661, 101.130
1214.877, 112.965
1216.094, 83.799
1217.310, 35.550
1218.526, 128.350
1219.742, 202.002
1220.958, 64.617
1222.173, 81.181
1223.389, 109.698
1224.604, 92.173
1225.819, 135.604
1227.034, 85.996
1228.248, 130.340
1229.463, 161.645
1230.677, 57.908
1231.891, 107.115
1233.105, 153.279
1234.318, 214.405
1235.532, 192.993
1236.745, 214.539
1237.958, 150.542
1239.171, 161.322
1240.384, 161.017
1241.596, 130.897
1242.809, 123.364
1244.021, 192.158
1245.233, 187.909
1246.444, 206.619
1247.656, 218.171
1248.867, 160.190
1250.079, 206.773
1251.290, 199.312
1252.500, 144.808
1253.711, 207.257
1254.921, 220.661
1256.132, 209.019
1257.342, 198.330
1258.552, 231.592
1259.761, 221.796
1260.971, 209.964
1262.180, 241.582
1263.389, 215.300
1264.598, 227.816
1265.807, 218.360
1267.015, 247.292
1268.223, 191.178
1269.432, 222.007
1270.640, 208.782
1271.847, 259.494
1273.055, 231.152
1274.262, 187.755
1275.470, 187.309
1276.677, 164.530
1277.883, 160.885
1279.090, 212.793
1280.296, 161.942
1281.503, 200.342
1282.709, 207.611
1283.915, 119.681
1285.120, 207.691
1286.326, 159.830
1287.531, 159.925
1288.736, 158.977
1289.941, 168.514
1291.146, 171.247
1292.350, 165.417
1293.555, 181.117
1294.759, 178.851
1295.963, 177.374
1297.167, 176.235
1298.370, 181.591
1299.574, 162.578
1300.777, 190.194
1301.980, 163.246
1303.183, 172.770
1304.386, 146.661
1305.588, 81.208
1306.790, 125.565
1307.993, 86.725
1309.195, 136.657
1310.396, 20.187
1311.598, 164.922
1312.799, 55.992
1314.000, 43.815
1315.201, 109.842
1316.402, 89.576
1317.603, 133.130
1318.803, 139.206
1320.003, 62.974
1321.203, 159.153
1322.403, 157.884
1323.603, 50.423
1324.802, 237.340
1326.002, 88.848
1327.201, 66.136
1328.400, 129.107
1329.599, 30.351
1330.797, 73.674
1331.995, 152.952
1333.194, 96.937
1334.392, 96.508
1335.589, 115.739
1336.787, 169.975
1337.985, 121.678
1339.182, 118.645
1340.379, 121.194
1341.576, 104.915
1342.772, 48.096
1343.969, 221.284
1345.165, 102.002
1346.361, 80.021
1347.557, 202.347
1348.753, 114.125
1349.949, 93.236
1351.144, 204.376
1352.339, 198.525
1353.534, 75.208
1354.729, 174.913
1355.924, 140.738
1357.118, 132.095
1358.312, 170.880
1359.506, 84.696
1360.700, 158.103
1361.894, 64.767
1363.088, 122.590
1364.281, 138.668
1365.474, 193.313
1366.667, 125.422
1367.860, 192.079
1369.052, 149.395
1370.245, 83.201
1371.437, 137.586
1372.629, 138.392
1373.821, 151.258
1375.013, 149.241
1376.204, 199.856
1377.395, 162.188
1378.586, 87.238
1379.777, 172.007
1380.968, 75.162
1382.159, 78.976
1383.349, 245.888
1384.539, 166.474
1385.729, 212.813
1386.919, 280.469
1388.109, 188.932
1389.298, 270.509
1390.487, 128.991
1391.676, 175.376
1392.865, 212.766
1394.054, 203.833
1395.242, 159.005
1396.431, 195.912
1397.619, 143.365
1398.807, 261.853
1399.995, 153.338
1401.182, 144.213
1402.370, 242.652
1403.557, 173.716
1404.744, 164.965
1405.931, 164.199
1407.118, 189.399
1408.304, 175.543
1409.490, 287.621
1410.676, 77.582
1411.862, 284.856
1413.048, 232.454
1414.234, 121.769
1415.419, 305.507
1416.604, 181.498
1417.789, 196.344
1418.974, 210.078
1420.159, 174.994
1421.343, 176.875
1422.528, 217.956
1423.712, 133.426
1424.896, 191.096
1426.079, 218.802
1427.263, 227.812
1428.446, 196.042
1429.629, 207.884
1430.812, 117.472
1431.995, 166.239
1433.178, 210.329
1434.360, 262.333
1435.543, 208.244
1436.725, 125.326
1437.907, 111.435
1439.088, 260.451
1440.270, 189.350
1441.451, 225.423
1442.632, 223.492
1443.813, 156.538
1444.994, 225.566
1446.175, 225.578
1447.355, 169.573
1448.535, 234.527
1449.715, 145.459
1450.895, 164.355
1452.075, 191.226
1453.255, 94.069
1454.434, 204.883
1455.613, 132.676
1456.792, 192.455
1457.971, 130.240
1459.149, 68.043
1460.328, 79.870
1461.506, 179.724
1462.684, 52.604
1463.862, 152.519
1465.040, 160.533
1466.217, 104.714
1467.395, 112.018
1468.572, 142.382
1469.749, 245.804
1470.925, 222.498
1472.102, 124.834
1473.278, 215.390
1474.455, 125.987
1475.631, 79.616
1476.807, 115.278
1477.982, 3.030
1479.158, 93.702
1480.333, 70.472
1481.508, 26.286
1482.683, 50.152
1483.858, 112.081
1485.033, 47.082
1486.207, 21.171
1487.381, 110.358
1488.555, 109.656
1489.729, 136.073
1490.903, 76.618
1492.076, 75.287
1493.250, 92.076
1494.423, 102.991
1495.596, 55.043
1496.769, 59.155
1497.941, 44.493
1499.114, 16.059
1500.286, 40.847
