##NAMES=Chenevixite
##RRUFFID=R040166
##IDEAL CHEMISTRY=Cu^2+^Fe^3+^(As^5+^O_4_)(OH)_2_
##LOCALITY=Volcanic Sunnyside mine, Santa Cruz County, Arizona, USA
##OWNER=RRUFF
##SOURCE=Andy Anderson
##DESCRIPTION=Green earthy massive
##STATUS=The identification of this mineral has been confirmed by X-ray diffraction and chemical analysis
##URL=rruff.info/R040166
##MEASURED CHEMISTRY=Cu_2.00_(Fe^3+^_1.98_[box]_0.02_)_Σ=2_((As_0.94_S_0.06_)O_4_)_2_(OH)_4_·1.49H_2_O
##PIN_ID=L00378
91.527, 0.000
92.926, 2.904
94.324, 7.640
95.723, 81.463
97.121, 182.066
98.519, 266.845
99.917, 620.290
101.314, 898.280
102.712, 1134.071
104.109, 1751.424
105.505, 2197.686
106.902, 2591.800
108.298, 2934.335
109.694, 3273.311
111.090, 3779.153
112.486, 4403.324
113.881, 4648.234
115.277, 4695.725
116.672, 4277.223
118.066, 4473.841
119.461, 3706.467
120.855, 3015.811
122.249, 2812.438
123.643, 2814.911
125.036, 2706.772
126.430, 2667.533
127.823, 2643.771
129.216, 2590.799
130.608, 2632.553
132.001, 2315.406
133.393, 2429.336
134.785, 2434.302
136.176, 2720.265
137.568, 2187.186
138.959, 1895.030
140.350, 2563.765
141.741, 1964.516
143.131, 1723.768
144.521, 1644.966
145.911, 1446.919
147.301, 1469.603
148.691, 982.996
150.080, 707.068
151.469, 281.752
152.858, 187.011
154.247, 17.161
155.635, 243.400
157.024, 288.270
158.411, 506.246
159.799, 428.130
161.187, 359.439
162.574, 420.178
163.961, 250.343
165.348, 209.935
166.734, 41.046
168.121, 342.596
169.507, 774.713
170.893, 1467.398
172.278, 2200.646
173.664, 2974.457
175.049, 3968.784
176.434, 4933.488
177.819, 5948.596
179.203, 6314.111
180.587, 6700.027
181.971, 6956.338
183.355, 7013.030
184.739, 6890.087
186.122, 7117.496
187.505, 6945.238
188.888, 7053.311
190.271, 6831.705
191.653, 6890.400
193.035, 6649.342
194.417, 6958.512
195.799, 6897.916
197.180, 6877.567
198.562, 6837.478
199.943, 6547.654
201.324, 6558.107
202.704, 6178.844
204.084, 5709.873
205.465, 5691.201
206.844, 5572.643
208.224, 5273.840
209.603, 5284.716
210.983, 5075.432
212.362, 5186.303
213.740, 5087.545
215.119, 5439.168
216.497, 5761.168
217.875, 6343.551
219.253, 6786.314
220.631, 7079.460
222.008, 7792.989
223.385, 7786.901
224.762, 7701.197
226.139, 6955.873
227.515, 6320.936
228.891, 5266.377
230.267, 4292.197
231.643, 3408.392
233.018, 2674.962
234.394, 2121.906
235.769, 1579.221
237.144, 1476.904
238.518, 1284.953
239.893, 1503.365
241.267, 1472.140
242.641, 1691.271
244.014, 2220.758
245.388, 2440.593
246.761, 3070.779
248.134, 3301.310
249.507, 3692.181
250.879, 3893.391
252.252, 4274.936
253.624, 4356.811
254.996, 4329.015
256.367, 4271.541
257.739, 4290.889
259.110, 4109.484
260.481, 4229.195
261.852, 3809.432
263.222, 3709.989
264.592, 3360.795
265.962, 2891.811
267.332, 2482.965
268.702, 2174.225
270.071, 1895.578
271.440, 1667.033
272.809, 1238.596
274.178, 1180.187
275.546, 1201.684
276.915, 1043.102
278.283, 1164.493
279.650, 1185.899
281.018, 1427.354
282.385, 1528.884
283.752, 2250.510
285.119, 2162.254
286.486, 2874.130
287.852, 3026.150
289.218, 3137.783
290.584, 3518.484
291.950, 3918.428
293.316, 4247.908
294.681, 4157.492
296.046, 4327.403
297.411, 4267.647
298.775, 4288.223
300.140, 4329.135
301.504, 4390.389
302.868, 4391.976
304.231, 4523.905
305.595, 4966.164
306.958, 5048.754
308.321, 5201.697
309.684, 5194.953
311.047, 5008.551
312.409, 4782.486
313.771, 4656.742
315.133, 4441.324
316.495, 4476.209
317.856, 4441.412
319.217, 4561.589
320.578, 4479.564
321.939, 4506.018
323.299, 4640.068
324.660, 4480.278
326.020, 4616.038
327.380, 4439.193
328.739, 4343.666
330.099, 4171.301
331.458, 3969.513
332.817, 3878.020
334.176, 3486.812
335.534, 3675.896
336.892, 3385.270
338.251, 3324.928
339.608, 3544.873
340.966, 3785.096
342.323, 4465.588
343.681, 4976.356
345.037, 5927.402
346.394, 6928.727
347.751, 8490.318
349.107, 9302.168
350.463, 10504.272
351.819, 11016.633
353.174, 11619.239
354.530, 11832.090
355.885, 12365.187
357.240, 12858.527
358.594, 12892.104
359.949, 12954.919
361.303, 12679.938
362.657, 12334.174
364.011, 11618.630
365.365, 10683.282
366.718, 9818.153
368.071, 8753.217
369.424, 7988.492
370.777, 7093.967
372.129, 6369.646
373.481, 5775.535
374.833, 5081.617
376.185, 4607.886
377.537, 4274.348
378.888, 3800.988
380.239, 3597.819
381.590, 3334.829
382.941, 3172.013
384.291, 3079.367
385.642, 2846.891
386.992, 2794.580
388.341, 2622.437
389.691, 2548.187
391.040, 2568.635
392.389, 2486.973
393.738, 2635.468
395.087, 2754.118
396.435, 2822.918
397.784, 2981.865
399.132, 3146.688
400.479, 3437.815
401.827, 3609.572
403.174, 4119.089
404.521, 4538.744
405.868, 4888.531
407.215, 5236.492
408.561, 5378.506
409.908, 5738.688
411.254, 5858.998
412.599, 5959.432
413.945, 6249.989
415.290, 6580.670
416.636, 7261.470
417.980, 7832.387
419.325, 9033.418
420.670, 10014.586
422.014, 11585.892
423.358, 13607.328
424.702, 15578.894
426.045, 18310.592
427.389, 20802.408
428.732, 23624.344
430.075, 25576.410
431.417, 27918.596
432.760, 28940.900
434.102, 29163.326
435.444, 28485.871
436.786, 27208.537
438.127, 25591.320
439.469, 23444.225
440.810, 21237.240
442.151, 19640.377
443.492, 17993.629
444.832, 16716.994
446.172, 15790.680
447.512, 14724.499
448.852, 14458.563
450.192, 14022.791
451.531, 13227.129
452.870, 12721.620
454.209, 11659.375
455.548, 11026.751
456.887, 10015.614
458.225, 9177.833
459.563, 8640.893
460.901, 7995.928
462.238, 7353.771
463.576, 6970.345
464.913, 6400.299
466.250, 6128.242
467.587, 5647.443
468.923, 5572.868
470.259, 5309.777
471.596, 5023.617
472.931, 4848.244
474.267, 4705.573
475.603, 4642.298
476.938, 4560.485
478.273, 4512.942
479.608, 4534.045
480.942, 4731.943
482.276, 4663.436
483.611, 4985.869
484.944, 4916.920
486.278, 4907.383
487.612, 5345.493
488.945, 5326.349
490.278, 5409.790
491.611, 5547.915
492.943, 5548.546
494.276, 5568.111
495.608, 5542.803
496.940, 5407.514
498.271, 5278.473
499.603, 5136.960
500.934, 4839.983
502.265, 4552.721
503.596, 4236.125
504.927, 3991.207
506.257, 3765.656
507.587, 3499.764
508.917, 3150.524
510.247, 2931.682
511.577, 2763.746
512.906, 2452.962
514.235, 2312.349
515.564, 2152.795
516.892, 2082.674
518.221, 2021.198
519.549, 1958.281
520.877, 1774.633
522.205, 1687.429
523.533, 1772.107
524.860, 1369.826
526.187, 1329.498
527.514, 1343.779
528.841, 1144.521
530.167, 1058.587
531.493, 881.519
532.820, 809.612
534.145, 773.146
535.471, 729.111
536.796, 654.652
538.122, 651.448
539.447, 523.896
540.771, 652.279
542.096, 628.337
543.420, 675.005
544.744, 516.429
546.068, 655.899
547.392, 550.340
548.715, 631.809
550.039, 747.256
551.362, 621.309
552.684, 651.694
554.007, 759.597
555.329, 742.396
556.652, 787.528
557.973, 925.000
559.295, 866.103
560.617, 961.271
561.938, 945.250
563.259, 942.131
564.580, 929.958
565.901, 874.729
567.221, 920.444
568.541, 953.102
569.861, 888.700
571.181, 874.239
572.501, 751.716
573.820, 792.130
575.139, 686.481
576.458, 755.767
577.777, 543.987
579.095, 531.140
580.414, 630.225
581.732, 436.240
583.049, 452.185
584.367, 448.058
585.685, 450.857
587.002, 432.583
588.319, 418.232
589.636, 387.452
590.952, 345.301
592.268, 307.718
593.585, 286.055
594.900, 239.311
596.216, 200.484
597.532, 187.568
598.847, 171.580
600.162, 136.500
601.477, 174.333
602.792, 104.078
604.106, 18.735
605.420, 25.297
606.734, 11.766
608.048, 12.137
609.361, 20.409
610.675, 24.581
611.988, 81.347
613.301, 67.414
614.614, 85.615
615.926, 131.963
617.238, 138.488
618.550, 163.048
619.862, 201.104
621.174, 174.234
622.485, 221.578
623.797, 183.162
625.108, 196.970
626.418, 290.012
627.729, 148.342
629.039, 252.887
630.349, 259.706
631.659, 185.804
632.969, 234.147
634.279, 140.762
635.588, 203.604
636.897, 228.708
638.206, 228.090
639.515, 171.754
640.823, 180.670
642.131, 151.849
643.439, 136.277
644.747, 92.949
646.055, 130.846
647.362, 166.989
648.669, 136.400
649.976, 171.066
651.283, 136.288
652.589, 171.208
653.896, 168.101
655.202, 154.443
656.508, 172.475
657.814, 131.792
659.119, 124.375
660.424, 132.220
661.729, 156.334
663.034, 143.731
664.339, 135.932
665.643, 80.356
666.947, 84.553
668.251, 97.000
669.555, 49.706
670.859, 50.646
672.162, 65.823
673.465, 55.244
674.768, 32.169
676.071, 7.832
677.373, 5.094
678.676, 74.774
679.978, 36.275
681.280, 79.579
682.581, 38.704
683.883, 124.632
685.184, 39.396
686.485, 75.961
687.786, 57.344
689.087, 59.537
690.387, 149.540
691.687, 190.382
692.987, 160.071
694.287, 232.600
695.586, 146.981
696.886, 231.201
698.185, 264.272
699.484, 313.198
700.783, 364.983
702.081, 346.630
703.379, 346.136
704.677, 331.503
705.975, 327.938
707.273, 413.817
708.570, 324.768
709.868, 430.579
711.165, 445.254
712.462, 604.795
713.758, 502.206
715.055, 578.485
716.351, 551.635
717.647, 584.654
718.943, 682.545
720.238, 692.620
721.533, 719.820
722.829, 781.455
724.124, 744.838
725.418, 753.095
726.713, 787.650
728.007, 847.233
729.301, 901.114
730.595, 972.870
731.889, 1017.502
733.182, 1042.011
734.476, 1105.855
735.769, 1118.657
737.061, 1216.797
738.354, 1172.813
739.647, 1244.708
740.939, 1389.482
742.231, 1306.134
743.523, 1477.666
744.814, 1552.078
746.106, 1638.371
747.397, 1752.544
748.688, 1798.599
749.978, 1866.535
751.269, 1960.353
752.559, 2111.054
753.849, 2158.638
755.139, 2327.104
756.429, 2525.457
757.719, 2559.693
759.008, 2910.813
760.297, 3195.624
761.586, 3085.293
762.875, 3345.715
764.163, 3524.975
765.451, 3717.127
766.739, 4070.132
768.027, 4444.875
769.315, 4671.011
770.602, 4998.669
771.890, 5422.982
773.177, 5826.458
774.463, 6177.971
775.750, 6726.674
777.036, 6946.655
778.323, 7643.258
779.609, 8161.872
780.894, 8749.228
782.180, 9460.359
783.465, 10147.444
784.750, 11002.716
786.035, 11704.636
787.320, 12580.840
788.605, 13433.660
789.889, 14222.004
791.173, 15016.063
792.457, 15888.223
793.741, 16790.102
795.024, 17715.205
796.307, 18519.449
797.591, 19295.199
798.873, 21081.639
800.156, 21660.512
801.439, 22896.732
802.721, 24300.410
804.003, 24925.748
805.285, 26058.648
806.566, 26343.486
807.848, 26525.883
809.129, 25978.242
810.410, 25751.238
811.691, 24902.875
812.971, 23706.857
814.252, 22811.104
815.532, 22014.658
816.812, 20326.504
818.092, 20048.967
819.371, 18891.738
820.651, 18287.834
821.930, 17053.502
823.209, 16678.230
824.488, 16355.779
825.766, 15723.123
827.045, 15409.376
828.323, 15146.163
829.601, 15054.272
830.878, 15303.787
832.156, 15234.007
833.433, 15227.750
834.710, 15739.579
835.987, 15943.341
837.264, 16985.123
838.540, 17300.268
839.817, 18301.922
841.093, 19595.209
842.369, 21127.609
843.644, 22750.033
844.920, 24665.520
846.195, 26951.754
847.470, 29537.379
848.745, 32014.117
850.020, 34399.336
851.294, 36656.016
852.568, 38283.000
853.842, 40470.320
855.116, 40637.863
856.390, 41025.352
857.663, 40062.816
858.936, 38180.230
860.209, 36127.641
861.482, 33515.406
862.755, 30522.801
864.027, 26430.652
865.299, 24078.568
866.571, 21467.127
867.843, 18515.301
869.115, 16293.831
870.386, 14842.237
871.657, 13260.822
872.928, 11989.475
874.199, 10896.893
875.470, 10046.829
876.740, 9075.554
878.010, 8484.289
879.280, 7813.045
880.550, 7351.808
881.820, 6850.636
883.089, 6419.414
884.358, 6068.265
885.627, 5757.131
886.896, 5536.005
888.164, 5254.907
889.433, 5033.844
890.701, 4836.676
891.969, 4641.792
893.236, 4480.793
894.504, 4359.820
895.771, 4214.632
897.038, 4187.935
898.305, 3867.021
899.572, 3626.125
900.838, 3379.251
902.105, 3299.408
903.371, 3085.585
904.637, 2689.778
905.902, 2704.990
907.168, 2340.228
908.433, 2177.483
909.698, 1962.757
910.963, 1867.059
912.228, 1737.380
913.492, 1513.724
914.757, 1488.092
916.021, 1261.483
917.285, 1205.902
918.548, 1031.348
919.812, 937.821
921.075, 932.346
922.338, 819.921
923.601, 701.550
924.864, 650.246
926.126, 609.010
927.388, 598.851
928.650, 535.779
929.912, 504.790
931.174, 593.901
932.435, 467.099
933.697, 355.391
934.958, 420.804
936.218, 470.303
937.479, 327.915
938.739, 357.644
940.000, 276.472
941.260, 447.416
942.520, 343.451
943.779, 359.595
945.039, 341.857
946.298, 378.237
947.557, 398.918
948.816, 446.509
950.074, 363.201
951.333, 435.102
952.591, 339.979
953.849, 430.957
955.107, 429.043
956.365, 392.233
957.622, 355.725
958.879, 335.131
960.136, 302.652
961.393, 293.289
962.650, 227.543
963.906, 302.433
965.162, 192.675
966.418, 267.764
967.674, 267.516
968.930, 212.265
970.185, 383.701
971.441, 298.250
972.696, 429.897
973.950, 515.647
975.205, 468.505
976.459, 535.456
977.714, 625.500
978.968, 751.643
980.222, 756.908
981.475, 775.238
982.729, 852.144
983.982, 974.668
985.235, 865.161
986.488, 1020.360
987.740, 1038.804
988.993, 1021.950
990.245, 1174.415
991.497, 1248.452
992.749, 1368.073
994.000, 1460.172
995.252, 1510.653
996.503, 1559.824
997.754, 1495.047
999.005, 1733.327
1000.256, 1745.651
1001.506, 1772.433
1002.756, 1924.531
1004.006, 1983.052
1005.256, 2108.496
1006.506, 2102.303
1007.755, 2201.735
1009.005, 2428.898
1010.254, 2429.233
1011.502, 2647.783
1012.751, 2756.363
1014.000, 2742.063
1015.248, 2846.638
1016.496, 2934.654
1017.744, 2940.729
1018.991, 2956.881
1020.239, 2927.226
1021.486, 3014.838
1022.733, 2875.263
1023.980, 2866.206
1025.227, 2884.787
1026.473, 2766.333
1027.719, 2716.018
1028.965, 2666.522
1030.211, 2521.610
1031.457, 2511.823
1032.702, 2450.082
1033.948, 2328.886
1035.193, 2308.530
1036.438, 2202.932
1037.682, 2081.488
1038.927, 2062.408
1040.171, 2052.059
1041.415, 2021.019
1042.659, 2004.301
1043.903, 1923.938
1045.146, 1936.727
1046.390, 1883.506
1047.633, 1788.497
1048.876, 1876.966
1050.118, 1780.719
1051.361, 1653.026
1052.603, 1678.879
1053.845, 1563.984
1055.087, 1363.189
1056.329, 1309.104
1057.571, 1183.974
1058.812, 1136.117
1060.053, 1036.966
1061.294, 952.919
1062.535, 864.155
1063.775, 775.293
1065.016, 707.447
1066.256, 634.751
1067.496, 587.476
1068.736, 516.097
1069.975, 485.719
1071.214, 444.953
1072.454, 397.479
1073.693, 356.448
1074.931, 305.787
1076.170, 242.327
1077.408, 229.558
1078.647, 186.098
1079.885, 201.847
1081.122, 254.276
1082.360, 140.584
1083.597, 173.350
1084.835, 161.929
1086.072, 93.541
1087.308, 56.050
1088.545, 59.565
1089.781, 78.731
1091.018, 73.298
1092.254, 28.223
1093.490, 23.240
1094.725, 74.921
1095.961, 18.537
1097.196, 112.978
1098.431, 60.522
1099.666, 10.907
1100.900, 42.552
1102.135, 11.225
1103.369, 92.857
1104.603, 24.425
1105.837, 16.131
1107.071, 52.361
1108.304, 6.837
1109.538, 46.387
1110.771, 31.785
1112.004, 1.085
1113.236, 18.632
1114.469, 52.003
1115.701, 31.179
1116.933, 25.562
1118.165, 18.019
1119.397, 89.611
1120.629, 158.940
1121.860, 190.957
1123.091, 209.529
1124.322, 181.670
1125.553, 166.032
1126.783, 107.487
1128.014, 1.062
1129.244, 27.630
1130.474, 48.678
1131.704, 1.691
1132.933, 54.811
1134.163, 45.511
1135.392, 67.149
1136.621, 58.514
1137.850, 19.666
1139.079, 2.394
1140.307, 58.239
1141.535, 1.916
1142.763, 7.854
1143.991, 35.304
1145.219, 54.508
1146.446, 18.327
1147.674, 14.655
1148.901, 74.390
1150.128, 124.444
1151.354, 15.235
1152.581, 60.840
1153.807, 63.991
1155.033, 71.350
1156.259, 80.405
1157.485, 32.768
1158.710, 17.121
1159.936, 47.613
1161.161, 62.986
1162.386, 42.604
1163.611, 63.219
1164.835, 29.970
1166.060, 76.684
1167.284, 13.776
1168.508, 95.465
1169.732, 74.363
1170.955, 32.681
1172.179, 24.818
1173.402, 101.839
1174.625, 14.381
1175.848, 25.461
1177.070, 26.877
1178.293, 40.765
1179.515, 55.512
1180.737, 62.351
1181.959, 5.965
1183.181, 69.031
1184.402, 32.996
1185.624, 56.941
1186.845, 3.129
1188.066, 6.346
1189.286, 26.343
1190.507, 1.055
1191.727, 40.633
1192.947, 12.831
1194.167, 73.635
1195.387, 57.064
1196.607, 27.452
1197.826, 0.942
1199.045, 53.308
1200.264, 87.535
1201.483, 81.724
1202.702, 33.876
1203.920, 174.974
1205.138, 110.037
1206.356, 42.063
1207.574, 162.036
1208.792, 110.974
1210.009, 101.874
1211.227, 133.734
1212.444, 100.557
1213.661, 103.339
1214.877, 95.083
1216.094, 62.783
1217.310, 65.434
1218.526, 81.366
1219.742, 90.585
1220.958, 156.093
1222.173, 117.562
1223.389, 193.990
1224.604, 126.379
1225.819, 112.729
1227.034, 164.035
1228.248, 198.304
1229.463, 119.535
1230.677, 143.723
1231.891, 140.925
1233.105, 170.031
1234.318, 173.098
1235.532, 110.124
1236.745, 169.103
1237.958, 126.043
1239.171, 122.939
1240.384, 152.787
1241.596, 189.593
1242.809, 198.162
1244.021, 193.887
1245.233, 190.571
1246.444, 219.103
1247.656, 170.704
1248.867, 182.260
1250.079, 199.769
1251.290, 231.229
1252.500, 220.322
1253.711, 225.827
1254.921, 209.151
1256.132, 156.429
1257.342, 153.155
1258.552, 130.308
1259.761, 188.184
1260.971, 109.266
1262.180, 190.748
1263.389, 197.304
1264.598, 194.241
1265.807, 265.130
1267.015, 146.972
1268.223, 150.766
1269.432, 206.510
1270.640, 189.208
1271.847, 219.857
1273.055, 189.458
1274.262, 188.985
1275.470, 170.491
1276.677, 128.459
1277.883, 192.842
1279.090, 231.276
1280.296, 208.032
1281.503, 220.563
1282.709, 218.421
1283.915, 200.977
1285.120, 224.991
1286.326, 212.444
1287.531, 190.450
1288.736, 202.102
1289.941, 187.079
1291.146, 192.016
1292.350, 227.908
1293.555, 229.983
1294.759, 213.765
1295.963, 255.289
1297.167, 185.980
1298.370, 186.756
1299.574, 218.173
1300.777, 143.970
1301.980, 177.040
1303.183, 160.945
1304.386, 182.638
1305.588, 143.305
1306.790, 174.856
1307.993, 156.538
1309.195, 167.777
1310.396, 142.958
1311.598, 241.063
1312.799, 114.977
1314.000, 121.622
1315.201, 231.453
1316.402, 132.766
1317.603, 100.438
1318.803, 212.145
1320.003, 83.212
1321.203, 179.456
1322.403, 160.616
1323.603, 163.650
1324.802, 160.639
1326.002, 97.080
1327.201, 142.680
1328.400, 169.271
1329.599, 115.208
1330.797, 189.530
1331.995, 136.122
1333.194, 155.404
1334.392, 122.429
1335.589, 196.967
1336.787, 166.420
1337.985, 133.882
1339.182, 188.133
1340.379, 155.903
1341.576, 92.393
1342.772, 103.327
1343.969, 145.966
1345.165, 132.102
1346.361, 157.138
1347.557, 147.759
1348.753, 137.855
1349.949, 133.954
1351.144, 163.388
1352.339, 178.642
1353.534, 179.651
1354.729, 171.593
1355.924, 165.639
1357.118, 177.488
1358.312, 191.332
1359.506, 130.966
1360.700, 205.604
1361.894, 163.267
1363.088, 245.373
1364.281, 181.665
1365.474, 190.590
1366.667, 169.318
1367.860, 206.358
1369.052, 137.094
1370.245, 126.626
1371.437, 166.045
1372.629, 178.044
1373.821, 178.577
1375.013, 94.447
1376.204, 186.150
1377.395, 194.968
1378.586, 164.725
1379.777, 231.807
1380.968, 209.027
1382.159, 162.307
1383.349, 254.912
1384.539, 268.603
1385.729, 142.402
1386.919, 256.175
1388.109, 202.601
1389.298, 244.261
1390.487, 173.892
1391.676, 140.009
1392.865, 208.196
1394.054, 184.940
1395.242, 164.916
1396.431, 234.082
1397.619, 179.962
1398.807, 194.667
1399.995, 225.333
1401.182, 160.600
1402.370, 199.993
1403.557, 166.586
1404.744, 171.182
1405.931, 242.661
1407.118, 157.991
1408.304, 250.167
1409.490, 238.418
1410.676, 196.757
1411.862, 243.171
1413.048, 175.467
1414.234, 179.337
1415.419, 266.473
1416.604, 271.504
1417.789, 205.710
1418.974, 209.183
1420.159, 148.032
1421.343, 151.690
1422.528, 223.162
1423.712, 169.541
1424.896, 250.536
1426.079, 258.352
1427.263, 210.498
1428.446, 220.562
1429.629, 194.872
1430.812, 238.151
1431.995, 258.567
1433.178, 207.987
1434.360, 184.045
1435.543, 207.495
1436.725, 209.937
1437.907, 217.364
1439.088, 204.792
1440.270, 163.199
1441.451, 312.585
1442.632, 216.955
1443.813, 128.338
1444.994, 270.729
1446.175, 143.106
1447.355, 207.462
1448.535, 228.801
1449.715, 118.115
1450.895, 187.305
1452.075, 177.576
1453.255, 162.834
1454.434, 207.084
1455.613, 208.323
1456.792, 159.542
1457.971, 133.742
1459.149, 142.946
1460.328, 158.187
1461.506, 139.584
1462.684, 125.723
1463.862, 118.046
1465.040, 158.408
1466.217, 140.804
1467.395, 119.246
1468.572, 82.731
1469.749, 110.269
1470.925, 147.870
1472.102, 162.530
1473.278, 76.253
1474.455, 130.031
1475.631, 79.853
1476.807, 99.708
1477.982, 84.587
1479.158, 81.488
1480.333, 86.417
1481.508, 144.367
1482.683, 67.340
1483.858, 82.339
1485.033, 8.632
1486.207, 45.429
1487.381, 150.529
1488.555, 104.678
1489.729, 23.878
1490.903, 131.139
1492.076, 69.467
1493.250, 178.869
1494.423, 71.349
1495.596, 64.910
