##NAMES=Chloritoid
##RRUFFID=R060292
##IDEAL CHEMISTRY=Fe^2+^Al_2_OSiO_4_(OH)_2_
##LOCALITY=Pech, Kunar Province, Afghanistan
##OWNER=RRUFF
##SOURCE=Herb Obodda
##DESCRIPTION=Black tabular crystal
##STATUS=The identification of this mineral has been confirmed by X-ray diffraction and chemical analysis
##URL=rruff.info/R060292
##MEASURED CHEMISTRY=(Fe^2+^_1.55_Mg_0.43_Mn_0.02_)_Σ=2_(Al_3.93_Fe^3+^_0.07_)_Σ=4_Si_2.00_O_10_(OH)_4_
##PIN_ID=M00166
##ORIENTATION=Laser parallel to a* (1 0 0). Fiducial mark perpendicular to laser is parallel to b [0 1 0]
51.43100, 0.0000000E+00
52.67100, 4.289673
53.91000, 23.05359
55.14900, 77.87128
56.38700, 175.2030
57.62600, 268.6569
58.86400, 203.9913
60.10300, 116.8522
61.34100, 37.94421
62.57900, 19.02289
63.81700, 59.32117
65.05400, 15.19849
66.29200, 258.1260
67.52900, 211.2755
68.76700, 272.8101
70.00400, 319.5317
71.24100, 285.0009
72.47700, 330.9396
73.71400, 400.2400
74.95100, 252.8020
76.18700, 245.5356
77.42300, 387.3608
78.65900, 697.2097
79.89500, 947.0225
81.13100, 1107.745
82.36700, 995.3290
83.60200, 816.7349
84.83700, 833.9265
86.07200, 1109.870
87.30800, 1387.533
88.54200, 1814.885
89.77700, 2007.901
91.01200, 1944.557
92.24600, 1976.807
93.48000, 2033.604
94.71400, 1970.914
95.94800, 2301.705
97.18200, 2600.953
98.41600, 3055.635
99.64900, 3592.735
100.8830, 4707.235
102.1160, 6204.120
103.3490, 7931.398
104.5820, 9857.062
105.8150, 9582.021
107.0470, 11307.50
108.2800, 8768.246
109.5120, 7676.333
110.7440, 7086.750
111.9760, 6356.499
113.2080, 5770.591
114.4400, 4871.021
115.6710, 4153.783
116.9030, 3480.864
118.1340, 3021.255
119.3650, 2615.949
120.5960, 2324.938
121.8270, 1914.212
123.0580, 1704.517
124.2880, 1520.148
125.5190, 1293.687
126.7490, 1327.055
127.9790, 1142.766
129.2090, 1146.727
130.4390, 925.8057
131.6680, 845.8765
132.8980, 914.9709
134.1270, 926.1350
135.3560, 1060.379
136.5850, 1140.712
137.8140, 1127.142
139.0430, 964.6741
140.2710, 1010.315
141.5000, 990.0693
142.7280, 937.9407
143.9560, 968.9324
145.1840, 983.0483
146.4120, 854.2898
147.6390, 961.6594
148.8670, 1078.159
150.0940, 919.7886
151.3210, 780.5508
152.5490, 674.5762
153.7750, 556.0107
155.0020, 372.7124
156.2290, 341.5427
157.4550, 272.4951
158.6810, 372.5708
159.9080, 477.7693
161.1340, 572.0913
162.3590, 769.5371
163.5850, 708.1062
164.8110, 595.7988
166.0360, 738.6152
167.2610, 727.5552
168.4860, 750.6179
169.7110, 603.8477
170.9360, 603.3855
172.1610, 564.3123
173.3850, 610.6057
174.6100, 559.1436
175.8340, 637.7881
177.0580, 657.5378
178.2820, 586.3926
179.5050, 613.7939
180.7290, 653.9451
181.9520, 598.5850
183.1760, 726.8582
184.3990, 806.2354
185.6220, 741.7158
186.8450, 834.2998
188.0670, 953.9871
189.2900, 990.7759
190.5120, 1100.667
191.7340, 1214.658
192.9560, 1207.751
194.1780, 1351.944
195.4000, 1366.236
196.6220, 1435.627
197.8430, 1689.502
199.0640, 1886.166
200.2860, 1957.104
201.5070, 1675.498
202.7270, 1208.818
203.9480, 1100.304
205.1690, 963.0417
206.3890, 997.9155
207.6090, 957.0552
208.8290, 986.8213
210.0490, 979.3472
211.2690, 948.7471
212.4890, 974.0547
213.7080, 905.3750
214.9280, 888.9106
216.1470, 876.6528
217.3660, 843.5942
218.5850, 922.7275
219.8030, 920.0459
221.0220, 932.5435
222.2400, 911.2148
223.4590, 903.0544
224.6770, 1020.058
225.8950, 1039.221
227.1120, 1171.538
228.3300, 1211.007
229.5480, 1323.623
230.7650, 1546.383
231.9820, 1682.283
233.1990, 1913.320
234.4160, 2316.491
235.6330, 2736.792
236.8490, 3366.223
238.0660, 4897.776
239.2820, 5145.263
240.4980, 6371.251
241.7140, 6228.166
242.9300, 6569.196
244.1460, 6826.342
245.3610, 7250.598
246.5770, 7389.966
247.7920, 7552.442
249.0070, 7996.025
250.2220, 8313.715
251.4370, 8337.286
252.6510, 8254.721
253.8660, 7940.363
255.0800, 7919.805
256.2940, 7393.789
257.5080, 7765.006
258.7220, 6413.390
259.9360, 5668.868
261.1490, 5309.438
262.3630, 5215.101
263.5760, 4949.853
264.7890, 4971.696
266.0020, 5059.627
267.2150, 5354.649
268.4270, 5964.755
269.6400, 6652.950
270.8520, 7990.229
272.0640, 9357.592
273.2760, 10397.04
274.4880, 11470.57
275.7000, 12421.19
276.9120, 12969.88
278.1230, 13670.66
279.3340, 14360.52
280.5450, 14809.46
281.7560, 14932.48
282.9670, 14742.59
284.1780, 14210.78
285.3880, 12771.97
286.5980, 10868.65
287.8090, 9069.522
289.0190, 7314.692
290.2290, 6039.100
291.4380, 4919.172
292.6480, 4208.941
293.8570, 3610.202
295.0670, 3237.146
296.2760, 2769.132
297.4850, 2475.172
298.6930, 2278.285
299.9020, 2165.468
301.1110, 2071.719
302.3190, 1995.041
303.5270, 1931.431
304.7350, 1922.888
305.9430, 1901.413
307.1510, 1952.005
308.3580, 1889.664
309.5660, 1858.387
310.7730, 1922.178
311.9800, 1856.032
313.1870, 1889.952
314.3940, 1847.438
315.6010, 1748.983
316.8070, 1774.092
318.0130, 1773.261
319.2200, 1779.489
320.4260, 2055.774
321.6310, 2227.117
322.8370, 2439.516
324.0430, 2628.972
325.2480, 2663.484
326.4540, 2608.052
327.6590, 2736.674
328.8640, 2613.350
330.0680, 2517.082
331.2730, 2421.866
332.4780, 2363.705
333.6820, 2170.596
334.8860, 1879.540
336.0900, 1510.535
337.2940, 1084.582
338.4980, 616.6807
339.7010, 408.8301
340.9050, 146.0295
342.1080, 17.72095
343.3110, 126.4282
344.5140, 209.0972
345.7170, 211.7576
346.9200, 251.4121
348.1220, 229.3210
349.3240, 174.7441
350.5270, 148.3889
351.7290, 71.99707
352.9310, 18.54980
354.1320, 155.9717
355.3340, 349.5776
356.5350, 603.2820
357.7370, 732.0728
358.9380, 920.9458
360.1390, 983.8975
361.3400, 932.9302
362.5400, 1000.052
363.7410, 810.2607
364.9410, 807.5513
366.1410, 713.9307
367.3410, 640.3950
368.5410, 633.9604
369.7410, 708.6104
370.9400, 736.3401
372.1400, 989.1453
373.3390, 1377.016
374.5380, 1971.953
375.7370, 2661.949
376.9360, 3494.001
378.1350, 4237.111
379.3330, 4635.276
380.5310, 4782.498
381.7300, 4541.772
382.9280, 4278.100
384.1260, 3666.482
385.3230, 2946.916
386.5210, 2515.404
387.7180, 2003.941
388.9160, 1395.529
390.1130, 1011.167
391.3100, 657.8557
392.5060, 341.5928
393.7030, 105.3806
394.9000, 88.77417
396.0960, 247.8872
397.2920, 229.0085
398.4880, 222.1301
399.6840, 115.2363
400.8800, 5.751221
402.0750, 177.8123
403.2710, 354.0083
404.4660, 621.3152
405.6610, 914.7366
406.8560, 1244.275
408.0510, 1373.928
409.2450, 1312.704
410.4400, 1407.614
411.6340, 1391.629
412.8280, 1239.754
414.0220, 1219.970
415.2160, 1059.271
416.4100, 1062.676
417.6030, 894.1733
418.7970, 833.7612
419.9900, 575.4380
421.1830, 566.1924
422.3760, 400.0098
423.5690, 243.8845
424.7610, 220.8040
425.9540, 85.76270
427.1460, 117.7576
428.3380, 0.7546390
429.5300, 73.31836
430.7220, 154.1328
431.9140, 213.1453
433.1050, 233.2329
434.2970, 224.4060
435.4880, 216.2004
436.6790, 185.9968
437.8700, 120.3994
439.0610, 37.15967
440.2510, 148.7419
441.4420, 374.3506
442.6320, 503.9851
443.8220, 951.6448
445.0120, 1133.329
446.2020, 1324.038
447.3910, 1494.769
448.5810, 1580.524
449.7700, 1554.302
450.9600, 1456.101
452.1490, 1340.922
453.3370, 1269.764
454.5260, 1183.626
455.7150, 1128.509
456.9030, 1173.411
458.0910, 1159.332
459.2800, 1203.271
460.4670, 1354.137
461.6550, 1546.203
462.8430, 1700.194
464.0300, 2149.202
465.2180, 2343.227
466.4050, 2809.266
467.5920, 3095.321
468.7790, 3384.391
469.9650, 3587.474
471.1520, 3885.572
472.3380, 3890.681
473.5250, 4044.804
474.7110, 4068.939
475.8970, 4181.085
477.0820, 4027.244
478.2680, 4153.413
479.4540, 4105.592
480.6390, 3964.782
481.8240, 4169.979
483.0090, 4079.185
484.1940, 4399.402
485.3780, 4723.239
486.5630, 5445.521
487.7470, 6282.158
488.9320, 7291.637
490.1160, 8742.254
491.3000, 9753.854
492.4830, 10941.51
493.6670, 11759.35
494.8500, 12719.96
496.0340, 13795.22
497.2170, 14810.17
498.4000, 15742.02
499.5820, 17079.25
500.7650, 18134.06
501.9480, 18848.44
503.1300, 19242.57
504.3120, 19373.49
505.4940, 18527.63
506.6760, 17542.31
507.8580, 16705.02
509.0390, 15178.93
510.2210, 13238.63
511.4020, 11646.93
512.5830, 10285.18
513.7640, 8708.671
514.9450, 7467.227
516.1250, 6609.938
517.3060, 5969.405
518.4860, 5256.656
519.6660, 5032.898
520.8460, 5027.131
522.0260, 5232.354
523.2060, 5311.567
524.3850, 5516.767
525.5650, 5610.956
526.7440, 5729.134
527.9230, 5946.298
529.1020, 6074.450
530.2810, 6279.589
531.4590, 6240.714
532.6380, 6435.825
533.8160, 6589.922
534.9940, 6812.437
536.1720, 7466.418
537.3500, 8487.555
538.5270, 9893.826
539.7050, 12167.26
540.8820, 15643.15
542.0590, 20610.90
543.2360, 27411.00
544.4130, 34686.15
545.5900, 40580.34
546.7660, 44848.52
547.9430, 47714.37
549.1190, 50237.67
550.2950, 51526.31
551.4710, 53368.53
552.6470, 53928.68
553.8220, 52768.55
554.9980, 47926.76
556.1730, 39784.70
557.3480, 30648.19
558.5230, 21923.17
559.6980, 15433.71
560.8730, 11350.87
562.0470, 8450.397
563.2220, 6635.681
564.3960, 5394.719
565.5700, 4562.135
566.7440, 3908.494
567.9170, 3466.324
569.0910, 3001.633
570.2640, 2915.876
571.4380, 2714.675
572.6110, 2698.314
573.7840, 2639.693
574.9570, 2754.865
576.1290, 2748.408
577.3020, 3380.290
578.4740, 3892.711
579.6460, 4725.483
580.8180, 6218.241
581.9900, 8492.979
583.1620, 12786.67
584.3330, 20148.33
585.5040, 31082.93
586.6760, 42712.48
587.8470, 49772.02
589.0180, 52574.49
590.1880, 54699.91
591.3590, 54262.30
592.5290, 51662.64
593.7000, 49308.94
594.8700, 47457.19
596.0400, 44513.39
597.2090, 38732.54
598.3790, 29490.66
599.5490, 20371.72
600.7180, 13519.74
601.8870, 9152.701
603.0560, 6586.624
604.2250, 5082.495
605.3940, 4043.320
606.5620, 3194.095
607.7300, 2733.823
608.8990, 2314.501
610.0670, 2018.131
611.2350, 1803.711
612.4020, 1576.242
613.5700, 1383.723
614.7370, 1239.154
615.9050, 1087.536
617.0720, 964.8662
618.2390, 861.1465
619.4060, 818.3760
620.5720, 724.5547
621.7390, 640.6821
622.9050, 572.4375
624.0710, 516.4136
625.2370, 467.0303
626.4030, 435.6824
627.5690, 406.5747
628.7340, 380.4497
629.9000, 381.3088
631.0650, 339.1594
632.2300, 226.9966
633.3950, 163.8040
634.5600, 251.5659
635.7240, 174.2822
636.8890, 221.9336
638.0530, 125.5244
639.2170, 111.0374
640.3810, 127.4685
641.5450, 145.8218
642.7080, 115.1006
643.8720, 59.29858
645.0350, 53.39966
646.1980, 96.40137
647.3610, 39.31689
648.5240, 59.12793
649.6870, 14.15845
650.8490, 48.42334
652.0120, 76.90430
653.1740, 101.2932
654.3360, 184.5974
655.4980, 174.8342
656.6600, 274.0017
657.8210, 478.1123
658.9830, 821.1680
660.1440, 866.9702
661.3050, 873.1167
662.4660, 1037.010
663.6270, 1042.849
664.7870, 1002.642
665.9480, 984.4041
667.1080, 972.1306
668.2680, 944.8115
669.4280, 981.4570
670.5880, 792.0688
671.7480, 735.6392
672.9070, 554.1689
674.0670, 236.6597
675.2260, 142.0979
676.3850, 4.473389
677.5440, 58.24829
678.7030, 63.06665
679.8610, 113.9900
681.0200, 189.0466
682.1780, 138.2974
683.3360, 162.7354
684.4940, 132.3777
685.6520, 149.2080
686.8090, 161.2346
687.9670, 153.4631
689.1240, 191.8894
690.2810, 234.5327
691.4380, 123.4150
692.5950, 152.4766
693.7520, 79.73242
694.9080, 61.14307
696.0650, 135.6987
697.2210, 97.43677
698.3770, 92.33667
699.5330, 88.39429
700.6880, 48.52637
701.8440, 1.046875
702.9990, 19.59546
704.1550, 87.04883
705.3100, 129.4324
706.4650, 156.7551
707.6190, 221.0225
708.7740, 304.2407
709.9290, 398.4180
711.0830, 575.5693
712.2370, 542.7126
713.3910, 691.8618
714.5450, 877.0225
715.6980, 1083.193
716.8520, 1277.800
718.0050, 1431.553
719.1580, 1726.722
720.3110, 2020.848
721.4640, 2289.930
722.6170, 2743.969
723.7700, 3153.963
724.9220, 3581.916
726.0740, 3915.824
727.2260, 4267.692
728.3780, 4622.517
729.5300, 4823.300
730.6810, 5059.043
731.8330, 5230.746
732.9840, 5228.407
734.1350, 5277.028
735.2860, 5163.610
736.4370, 4944.152
737.5880, 4889.658
738.7380, 4601.123
739.8880, 4348.550
741.0390, 4039.941
742.1890, 3754.938
743.3380, 3491.612
744.4880, 3174.892
745.6380, 2814.137
746.7870, 2552.346
747.9360, 2281.521
749.0850, 1993.661
750.2340, 1776.768
751.3830, 1612.841
752.5310, 1259.880
753.6800, 1185.887
754.8280, 960.8618
755.9760, 821.8047
757.1240, 739.7166
758.2720, 640.5974
759.4190, 574.4482
760.5670, 540.2693
761.7140, 508.0610
762.8610, 389.8235
764.0080, 362.5576
765.1550, 352.2637
766.3020, 311.9424
767.4480, 300.5938
768.5950, 327.2183
769.7410, 315.8164
770.8870, 265.8052
772.0330, 285.7178
773.1780, 244.8521
774.3240, 253.9136
775.4690, 246.7246
776.6140, 123.6226
777.7590, 281.1177
778.9040, 247.0063
780.0490, 113.3208
781.1940, 161.8481
782.3380, 178.5781
783.4820, 251.0669
784.6260, 223.9941
785.7700, 276.8740
786.9140, 211.5312
788.0580, 203.3833
789.2010, 233.6123
790.3450, 242.8687
791.4880, 322.8755
792.6310, 319.7930
793.7730, 381.5352
794.9160, 399.5044
796.0590, 498.6685
797.2010, 514.8232
798.3430, 580.9688
799.4850, 636.1060
800.6270, 640.9570
801.7690, 674.0327
802.9100, 686.3682
804.0520, 742.4590
805.1930, 809.3779
806.3340, 903.5913
807.4750, 968.1870
808.6160, 953.9219
809.7560, 1046.872
810.8970, 1110.182
812.0370, 1207.128
813.1770, 1264.363
814.3170, 1389.915
815.4570, 1385.735
816.5960, 1563.739
817.7360, 1748.572
818.8750, 2098.719
820.0140, 2102.084
821.1530, 2202.952
822.2920, 2620.769
823.4310, 2937.577
824.5690, 3170.687
825.7070, 3672.343
826.8460, 4147.653
827.9840, 4593.361
829.1220, 5110.122
830.2590, 5775.143
831.3970, 6393.820
832.5340, 7112.759
833.6710, 7668.118
834.8080, 8350.981
835.9450, 8789.275
837.0820, 9194.927
838.2190, 9579.199
839.3550, 9709.703
840.4910, 9761.440
841.6270, 9674.789
842.7630, 9629.919
843.8990, 9454.088
845.0350, 9285.506
846.1700, 9080.050
847.3060, 8745.622
848.4410, 8505.232
849.5760, 8388.873
850.7100, 8458.549
851.8450, 8313.260
852.9800, 8427.003
854.1140, 8579.783
855.2480, 8688.598
856.3820, 9009.447
857.5160, 9339.335
858.6500, 9638.257
859.7830, 10100.22
860.9170, 10913.21
862.0500, 11554.25
863.1830, 12428.33
864.3160, 13707.44
865.4480, 14864.59
866.5810, 16614.79
867.7130, 18170.02
868.8460, 20497.30
869.9780, 22756.62
871.1100, 25333.98
872.2410, 27417.39
873.3730, 29722.83
874.5050, 31506.33
875.6360, 33073.86
876.7670, 33736.43
877.8980, 33952.07
879.0290, 33612.74
880.1590, 32254.47
881.2900, 30768.23
882.4200, 28218.05
883.5500, 25569.92
884.6800, 22765.82
885.8100, 20343.79
886.9400, 17940.79
888.0690, 15842.85
889.1990, 14423.97
890.3280, 13089.59
891.4570, 12488.34
892.5860, 11773.61
893.7140, 11909.93
894.8430, 12309.30
895.9710, 12437.72
897.1000, 13598.20
898.2280, 14515.73
899.3560, 15408.32
900.4830, 16365.96
901.6110, 16757.66
902.7380, 16675.42
903.8660, 16378.22
904.9930, 15507.09
906.1200, 14247.01
907.2460, 12885.00
908.3730, 11488.05
909.5000, 9997.160
910.6260, 8730.341
911.7520, 7607.583
912.8780, 6512.899
914.0040, 5759.289
915.1290, 4951.753
916.2550, 4209.287
917.3800, 3588.896
918.5050, 3134.589
919.6300, 2712.368
920.7550, 2294.863
921.8800, 1986.042
923.0040, 1680.232
924.1290, 1365.380
925.2530, 1224.638
926.3770, 986.3784
927.5010, 671.4351
928.6250, 646.9624
929.7480, 471.5654
930.8720, 290.2520
931.9950, 237.0190
933.1180, 229.8604
934.2410, 74.72559
935.3640, 13.35498
936.4860, 86.13037
937.6090, 212.9878
938.7310, 175.8135
939.8530, 98.60352
940.9750, 180.3340
942.0970, 192.0146
943.2180, 130.6655
944.3400, 138.2725
945.4610, 150.8213
946.5820, 78.31592
947.7030, 109.7388
948.8240, 28.08545
949.9450, 39.32178
951.0650, 132.5747
952.1860, 201.5996
953.3060, 348.7812
954.4260, 453.1470
955.5460, 579.4243
956.6650, 707.3311
957.7850, 864.1357
958.9040, 1000.091
960.0230, 1179.195
961.1420, 1297.461
962.2610, 1526.881
963.3800, 1630.470
964.4990, 1761.197
965.6170, 1719.068
966.7350, 1679.066
967.8530, 1687.185
968.9710, 1587.442
970.0890, 1443.828
971.2070, 1386.340
972.3240, 1217.979
973.4410, 1201.731
974.5580, 1086.591
975.6750, 1105.546
976.7920, 961.5850
977.9090, 842.7041
979.0250, 806.8989
980.1410, 890.1768
981.2580, 816.5278
982.3740, 835.9556
983.4890, 663.4565
984.6050, 723.0308
985.7200, 682.6934
986.8360, 659.4307
987.9510, 613.2407
989.0660, 543.1274
990.1810, 711.0957
991.2950, 600.1377
992.4100, 546.2559
993.5240, 654.4531
994.6390, 535.7383
995.7530, 575.1025
996.8660, 533.5449
997.9800, 545.0601
999.0940, 540.6484
1000.207, 496.3096
1001.320, 361.0444
1002.433, 402.8599
1003.546, 356.7510
1004.659, 348.7168
1005.772, 424.7734
1006.884, 306.9038
1007.996, 298.1147
1009.108, 306.3970
1010.220, 245.7520
1011.332, 245.1885
1012.444, 204.6997
1013.555, 275.2832
1014.666, 172.9434
1015.777, 144.6753
1016.888, 233.4829
1017.999, 240.3643
1019.110, 244.3184
1020.220, 246.3433
1021.331, 251.4424
1022.441, 280.6123
1023.551, 313.8525
1024.661, 243.1636
1025.770, 315.5601
1026.880, 210.0269
1027.989, 240.5620
1029.098, 208.1748
1030.207, 387.8569
1031.316, 289.6079
1032.425, 342.4326
1033.533, 276.3306
1034.642, 327.3018
1035.750, 411.3403
1036.858, 241.4468
1037.966, 461.6211
1039.073, 304.8633
1040.181, 293.1719
1041.288, 373.5532
1042.396, 283.0107
1043.503, 365.5381
1044.610, 427.1328
1045.716, 408.9619
1046.823, 452.6929
1047.929, 472.4551
1049.036, 472.3579
1050.142, 512.2954
1051.248, 514.2988
1052.353, 528.3677
1053.459, 523.6079
1054.564, 584.2612
1055.670, 604.0742
1056.775, 561.4038
1057.880, 526.6504
1058.985, 554.0459
1060.089, 520.7515
1061.194, 554.9556
1062.298, 528.0269
1063.402, 629.2891
1064.506, 741.2534
1065.610, 798.7461
1066.713, 703.8398
1067.817, 873.2612
1068.920, 759.7197
1070.023, 799.2554
1071.126, 832.5825
1072.229, 811.5537
1073.332, 879.8525
1074.435, 821.1299
1075.537, 894.3491
1076.639, 887.0728
1077.741, 1000.094
1078.843, 1128.621
1079.945, 1258.580
1081.046, 1389.762
1082.148, 1399.738
1083.249, 1652.308
1084.350, 1752.712
1085.451, 1853.594
1086.551, 2076.212
1087.652, 2135.855
1088.752, 2149.819
1089.853, 2063.819
1090.953, 2035.283
1092.053, 1862.665
1093.152, 1752.541
1094.252, 1598.795
1095.351, 1611.401
1096.451, 1486.056
1097.550, 1364.382
1098.649, 1270.168
1099.748, 1109.575
1100.846, 1018.120
1101.945, 875.5796
1103.043, 788.0776
1104.141, 772.6123
1105.239, 652.1826
1106.337, 625.9185
1107.434, 611.5601
1108.532, 593.2363
1109.629, 462.9478
1110.726, 435.6948
1111.823, 359.3315
1112.920, 480.1450
1114.017, 469.5303
1115.113, 414.3921
1116.210, 568.4785
1117.306, 320.7749
1118.402, 326.0161
1119.498, 332.0161
1120.593, 441.8564
1121.689, 279.6802
1122.784, 340.7935
1123.879, 327.7915
1124.974, 288.1133
1126.069, 258.6802
1127.164, 268.3555
1128.259, 279.7231
1129.353, 333.9736
1130.447, 306.2695
1131.541, 325.5713
1132.635, 323.1841
1133.729, 306.3687
1134.822, 312.5303
1135.916, 239.3418
1137.009, 244.2090
1138.102, 230.7031
1139.195, 169.2290
1140.288, 231.7100
1141.380, 196.2412
1142.473, 215.2505
1143.565, 139.2944
1144.657, 140.0845
1145.749, 168.9136
1146.841, 177.7446
1147.932, 237.3628
1149.024, 145.5645
1150.115, 223.7378
1151.206, 185.4062
1152.297, 224.1772
1153.388, 101.8755
1154.479, 81.61475
1155.569, 149.6025
1156.659, 89.01855
1157.750, 96.89551
1158.839, 126.6655
1159.929, 61.14160
1161.019, 125.1289
1162.108, 114.9731
1163.198, 58.82568
1164.287, 39.97266
1165.376, 50.66016
1166.465, 94.59814
1167.553, 117.4492
1168.642, 89.53027
1169.730, 47.42969
1170.818, 94.32129
1171.906, 115.5503
1172.994, 92.66211
1174.082, 116.4390
1175.170, 77.51172
1176.257, 2.428711
1177.344, 22.68213
1178.431, 20.11963
1179.518, 58.95654
1180.605, 46.18115
1181.691, 36.70850
1182.778, 33.08594
1183.864, 17.38428
1184.950, 24.29004
1186.036, 2.815918
1187.122, 17.26514
1188.207, 89.63281
1189.292, 51.73779
1190.378, 35.92090
1191.463, 41.34961
1192.548, 0.4194340
1193.632, 60.52588
1194.717, 52.80029
1195.801, 21.46631
1196.886, 11.51758
1197.970, 91.86182
1199.054, 75.25928
1200.137, 51.29980
1201.221, 33.00293
1202.305, 0.6020510
1203.388, 20.69434
1204.471, 61.15186
1205.554, 12.68018
1206.637, 54.26025
1207.719, 46.02539
1208.802, 41.63330
1209.884, 30.60645
1210.966, 47.99756
1212.048, 26.88916
1213.130, 58.13477
1214.212, 7.228027
1215.293, 67.43750
1216.374, 95.16943
1217.456, 24.75879
1218.536, 45.45898
1219.617, 77.61377
1220.698, 1.838379
1221.778, 32.95508
1222.859, 37.66992
1223.939, 46.40625
1225.019, 32.50439
1226.099, 33.55859
1227.178, 54.56201
1228.258, 33.55078
1229.337, 78.56738
1230.417, 51.52100
1231.496, 127.9536
1232.574, 71.46289
1233.653, 230.2900
1234.732, 93.18213
1235.810, 21.22510
1236.888, 273.0742
