##NAMES=Chlormayenite
##RRUFFID=R130063
##IDEAL CHEMISTRY=Ca_12_Al_14_O_32_[[box]_4_Cl_2_]
##LOCALITY=Northwest Africa (NWA) 1934 meteorite
##OWNER=Chi Ma
##SOURCE=Chi Ma
##DESCRIPTION=Fine-grained aggregates coexisting with hercynite, gehlenite, and perovskite. Data from Ma et al (2011)
##STATUS=The identification of this mineral is confirmed by electron back-scatter diffraction and chemical analysis
##URL=rruff.info/R130063
##MEASURED CHEMISTRY=(Ca_11.91_Na_0.06_)_Σ=11.97_(Al_13.89_Fe^2+^_ 0.16_Ti^4+^_0.01_)_Σ=14.06_O_31.89_Cl_2.11_
150.5360, 0.0000000E+00
151.7660, 42.98438
152.9960, 6.363281
154.2260, 305.1562
155.4550, 233.7773
156.6840, 225.6523
157.9130, 445.4629
159.1420, 291.8711
160.3710, 457.5391
161.6000, 199.1816
162.8280, 254.9746
164.0560, 457.6133
165.2840, 585.0820
166.5120, 480.1270
167.7400, 350.2363
168.9670, 580.2363
170.1940, 803.3809
171.4220, 514.3398
172.6480, 827.3047
173.8750, 558.3828
175.1020, 561.3945
176.3280, 728.1699
177.5540, 767.3555
178.7800, 825.4980
180.0060, 653.8438
181.2310, 635.6543
182.4570, 477.2910
183.6820, 939.7188
184.9070, 765.9043
186.1320, 490.4160
187.3560, 633.8281
188.5810, 283.4102
189.8050, 633.8418
191.0290, 431.1895
192.2530, 606.6406
193.4770, 745.6738
194.7000, 603.0840
195.9240, 425.8613
197.1470, 676.1934
198.3700, 775.4902
199.5920, 545.9238
200.8150, 367.5879
202.0370, 655.7637
203.2600, 629.2559
204.4820, 613.1426
205.7030, 625.9082
206.9250, 685.8926
208.1470, 592.6348
209.3680, 585.4277
210.5890, 498.4570
211.8100, 614.5098
213.0310, 736.9082
214.2510, 429.2383
215.4710, 172.7812
216.6920, 613.1270
217.9120, 412.1738
219.1310, 211.3320
220.3510, 459.5293
221.5700, 453.7266
222.7900, 169.0137
224.0090, 454.4453
225.2270, 563.6914
226.4460, 396.1699
227.6650, 341.4336
228.8830, 313.2910
230.1010, 324.3945
231.3190, 319.0098
232.5370, 130.9414
233.7540, 203.7793
234.9720, 194.5723
236.1890, 43.76953
237.4060, 385.9902
238.6230, 303.1113
239.8390, 292.4043
241.0560, 59.71875
242.2720, 44.93945
243.4880, 51.08594
244.7040, 402.6816
245.9200, 293.8379
247.1350, 351.5078
248.3500, 347.5938
249.5660, 343.6973
250.7810, 376.9160
251.9950, 93.15039
253.2100, 482.4102
254.4240, 309.7852
255.6390, 428.1230
256.8530, 574.7266
258.0660, 400.0469
259.2800, 27.48438
260.4940, 547.1445
261.7070, 63.21289
262.9200, 294.4844
264.1330, 160.8770
265.3460, 507.6895
266.5580, 297.9160
267.7710, 277.7578
268.9830, 84.41797
270.1950, 435.6934
271.4070, 265.0449
272.6180, 205.7070
273.8300, 540.6875
275.0410, 307.7109
276.2520, 605.5020
277.4630, 595.9043
278.6740, 540.8203
279.8840, 444.3750
281.0950, 343.8633
282.3050, 644.1582
283.5150, 458.9668
284.7240, 329.5781
285.9340, 390.7051
287.1440, 612.7344
288.3530, 404.7266
289.5620, 408.3164
290.7710, 494.1035
291.9790, 501.4160
293.1880, 219.0195
294.3960, 482.7246
295.6040, 334.7324
296.8120, 549.0645
298.0200, 57.74805
299.2280, 305.4297
300.4350, 390.4453
301.6420, 399.0332
302.8490, 368.7129
304.0560, 458.6445
305.2630, 235.8535
306.4690, 471.1211
307.6760, 462.4316
308.8820, 592.3750
310.0880, 243.5371
311.2930, 313.6113
312.4990, 406.6816
313.7040, 530.9453
314.9100, 485.1992
316.1150, 311.3125
317.3200, 448.3223
318.5240, 436.9883
319.7290, 270.4375
320.9330, 289.3535
322.1370, 92.43164
323.3410, 526.8613
324.5450, 293.6211
325.7480, 465.1641
326.9520, 604.5508
328.1550, 399.4688
329.3580, 553.9277
330.5610, 716.7266
331.7630, 334.3379
332.9660, 728.1914
334.1680, 546.4219
335.3700, 667.9512
336.5720, 762.5508
337.7740, 343.3418
338.9750, 623.0996
340.1770, 574.1895
341.3780, 367.1035
342.5790, 280.7344
343.7800, 558.7871
344.9800, 407.8555
346.1810, 375.6406
347.3810, 514.2402
348.5810, 194.5586
349.7810, 568.7871
350.9810, 690.8281
352.1800, 494.0879
353.3800, 86.82031
354.5790, 363.2598
355.7780, 404.2090
356.9770, 322.1660
358.1750, 22.77148
359.3740, 360.2949
360.5720, 326.1680
361.7700, 557.0449
362.9680, 199.4297
364.1660, 142.4141
365.3630, 431.9062
366.5610, 168.1465
367.7580, 200.8906
368.9550, 281.6934
370.1520, 42.70117
371.3490, 299.3945
372.5450, 200.5918
373.7410, 210.4883
374.9370, 312.3086
376.1330, 188.4277
377.3290, 135.5488
378.5250, 170.5645
379.7200, 236.9805
380.9150, 428.8984
382.1100, 221.2070
383.3050, 304.4199
384.5000, 71.52148
385.6940, 39.51953
386.8880, 200.2715
388.0820, 476.1152
389.2760, 68.84375
390.4700, 491.9707
391.6640, 495.6777
392.8570, 294.0762
394.0500, 500.9688
395.2430, 500.5488
396.4360, 338.6211
397.6290, 22.51562
398.8210, 220.1289
400.0140, 118.8613
401.2060, 382.5820
402.3980, 77.89258
403.5890, 91.89453
404.7810, 303.2852
405.9720, 724.7871
407.1640, 496.2871
408.3550, 161.9355
409.5450, 257.8730
410.7360, 208.9980
411.9270, 139.0117
413.1170, 474.4180
414.3070, 225.9121
415.4970, 199.9785
416.6870, 407.3281
417.8760, 112.8730
419.0660, 16.12891
420.2550, 410.8516
421.4440, 151.4609
422.6330, 287.4785
423.8220, 5.605469
425.0100, 25.15039
426.1990, 283.0918
427.3870, 69.81641
428.5750, 64.72656
429.7620, 91.31836
430.9500, 44.13477
432.1380, 183.8203
433.3250, 200.3926
434.5120, 319.6504
435.6990, 194.5391
436.8860, 366.8906
438.0720, 296.4941
439.2580, 108.0898
440.4450, 338.9844
441.6310, 292.2227
442.8160, 140.9961
444.0020, 243.3125
445.1880, 58.93750
446.3730, 94.10547
447.5580, 194.3086
448.7430, 151.0938
449.9280, 96.76562
451.1120, 98.48438
452.2970, 114.1719
453.4810, 387.5430
454.6650, 377.9062
455.8490, 112.7539
457.0320, 430.4922
458.2160, 126.0039
459.3990, 451.6094
460.5820, 67.38672
461.7650, 31.56250
462.9480, 87.94922
464.1310, 306.8867
465.3130, 106.6523
466.4950, 1.601563
467.6770, 6.679688
468.8590, 206.4648
470.0410, 128.3906
471.2220, 306.5781
472.4040, 336.6445
473.5850, 1.609375
474.7660, 14.00781
475.9470, 151.3672
477.1270, 172.7383
478.3080, 232.1484
479.4880, 7.082031
480.6680, 69.15625
481.8480, 168.1562
483.0280, 151.1523
484.2080, 399.1250
485.3870, 185.1094
486.5660, 365.2422
487.7450, 312.1484
488.9240, 384.2383
490.1030, 452.0078
491.2810, 375.5508
492.4600, 526.0742
493.6380, 576.2695
494.8160, 203.5742
495.9940, 753.2266
497.1710, 1245.660
498.3490, 1062.871
499.5260, 1292.160
500.7030, 1144.949
501.8800, 1784.289
503.0570, 1663.105
504.2330, 1894.594
505.4090, 2292.230
506.5860, 2645.379
507.7620, 3077.113
508.9380, 3357.809
510.1130, 3681.750
511.2890, 4424.195
512.4640, 4595.090
513.6390, 5039.984
514.8140, 5214.648
515.9890, 4928.691
517.1630, 4988.406
518.3380, 4435.000
519.5120, 4236.965
520.6860, 3723.707
521.8600, 3136.160
523.0340, 2873.945
524.2070, 2323.910
525.3810, 1739.645
526.5540, 1762.867
527.7270, 1519.922
528.9000, 1493.680
530.0720, 1141.895
531.2450, 1348.840
532.4170, 1109.219
533.5890, 737.4922
534.7610, 538.2109
535.9330, 725.1094
537.1050, 687.9844
538.2760, 716.9258
539.4470, 834.0664
540.6180, 574.8633
541.7890, 366.7266
542.9600, 335.8125
544.1300, 606.1055
545.3010, 402.0898
546.4710, 146.7578
547.6410, 6.695313
548.8110, 292.2578
549.9810, 487.6992
551.1500, 537.8125
552.3190, 444.5977
553.4880, 515.1680
554.6570, 526.7266
555.8260, 403.5391
556.9950, 387.2422
558.1630, 112.4414
559.3310, 102.0898
560.5000, 188.0898
561.6670, 317.1602
562.8350, 232.2109
564.0030, 218.6602
565.1700, 634.5078
566.3370, 261.6484
567.5040, 497.7344
568.6710, 352.7422
569.8380, 445.2812
571.0040, 572.8164
572.1710, 69.18750
573.3370, 102.5391
574.5030, 473.8594
575.6690, 233.9609
576.8340, 144.1328
578.0000, 281.5742
579.1650, 493.2969
580.3300, 527.8945
581.4950, 261.9688
582.6600, 643.0820
583.8240, 510.2148
584.9890, 177.5156
586.1530, 28.03125
587.3170, 569.3672
588.4810, 719.9297
589.6440, 191.4180
590.8080, 184.9883
591.9710, 621.3281
593.1340, 494.4492
594.2970, 537.4492
595.4600, 552.5273
596.6230, 406.2812
597.7850, 154.5156
598.9480, 345.8516
600.1100, 477.9180
601.2720, 38.10156
602.4330, 45.14062
603.5950, 94.67578
604.7560, 632.6680
605.9180, 391.4414
607.0790, 134.0195
608.2400, 298.9375
609.4000, 144.6445
610.5610, 359.8398
611.7210, 480.2148
612.8810, 352.7812
614.0420, 252.0469
615.2010, 415.5820
616.3610, 199.6602
617.5210, 158.6445
618.6800, 362.8438
619.8390, 49.54688
620.9980, 353.6875
622.1570, 165.5039
623.3150, 156.3945
624.4740, 116.9805
625.6320, 302.1484
626.7900, 299.4062
627.9480, 309.7500
629.1060, 436.5820
630.2640, 151.0000
631.4210, 457.1133
632.5780, 14.37891
633.7350, 231.1016
634.8920, 492.1406
636.0490, 208.3750
637.2050, 261.6992
638.3620, 544.2109
639.5180, 307.8164
640.6740, 240.0078
641.8300, 209.0000
642.9860, 277.5820
644.1410, 77.75000
645.2960, 66.11328
646.4520, 198.7383
647.6070, 164.1094
648.7610, 243.8477
649.9160, 333.3711
651.0710, 174.2852
652.2250, 299.0039
653.3790, 246.0156
654.5330, 118.9688
655.6870, 246.2852
656.8400, 399.1367
657.9940, 248.5781
659.1470, 243.3164
660.3000, 8.054688
661.4530, 377.8867
662.6060, 494.1133
663.7580, 141.6406
664.9110, 56.07031
666.0630, 263.9180
667.2150, 479.2930
668.3670, 2.894531
669.5190, 264.5000
670.6700, 241.7188
671.8210, 97.33984
672.9730, 217.8516
674.1240, 158.1641
675.2740, 500.3711
676.4250, 127.7891
677.5760, 144.0977
678.7260, 153.9219
679.8760, 363.7422
681.0260, 110.5625
682.1760, 102.9805
683.3260, 119.4141
684.4750, 379.4414
685.6240, 441.2461
686.7730, 17.44531
687.9220, 157.8828
689.0710, 126.5156
690.2200, 475.9609
691.3680, 34.38672
692.5160, 106.1641
693.6650, 307.8125
694.8120, 106.4688
695.9600, 3.363281
697.1080, 124.6133
698.2550, 93.90625
699.4020, 306.3398
700.5490, 222.5859
701.6960, 34.21484
702.8430, 114.6211
703.9900, 111.5742
705.1360, 307.0352
706.2820, 31.30859
707.4280, 233.3945
708.5740, 260.6172
709.7200, 118.2109
710.8650, 32.64844
712.0110, 273.6953
713.1560, 283.7578
714.3010, 228.3828
715.4460, 288.3242
716.5900, 48.90625
717.7350, 153.4648
718.8790, 270.6445
720.0230, 84.13672
721.1670, 253.9141
722.3110, 216.1133
723.4550, 36.19531
724.5980, 288.7578
725.7410, 71.57031
726.8840, 267.8867
728.0270, 236.4531
729.1700, 111.0859
730.3130, 377.5781
731.4550, 215.0898
732.5970, 317.5078
733.7400, 236.0352
734.8810, 310.0703
736.0230, 381.6406
737.1650, 37.02344
738.3060, 519.0273
739.4470, 495.8984
740.5880, 10.60938
741.7290, 391.1680
742.8700, 272.6836
744.0110, 450.0000
745.1510, 293.8945
746.2910, 324.4766
747.4310, 596.1875
748.5710, 324.2617
749.7110, 499.7617
750.8500, 387.8594
751.9900, 376.9922
753.1290, 442.8633
754.2680, 702.0820
755.4070, 972.7852
756.5460, 810.5195
757.6840, 800.6992
758.8220, 618.7344
759.9610, 757.4805
761.0990, 1052.230
762.2360, 751.4766
763.3740, 1450.750
764.5120, 1216.117
765.6490, 1687.000
766.7860, 1635.629
767.9230, 1659.129
769.0600, 2368.980
770.1970, 2242.719
771.3330, 1961.316
772.4690, 2334.801
773.6050, 2245.332
774.7410, 2118.500
775.8770, 2304.723
777.0130, 1737.414
778.1480, 1603.691
779.2840, 1591.355
780.4190, 1389.414
781.5540, 1492.293
782.6880, 1179.828
783.8230, 1534.926
784.9570, 1039.164
786.0920, 1097.309
787.2260, 1307.184
788.3600, 1264.918
789.4940, 1320.605
790.6270, 900.7734
791.7610, 972.7305
792.8940, 1452.957
794.0270, 511.6445
795.1600, 809.5742
796.2930, 507.3203
797.4250, 831.7930
798.5580, 704.6211
799.6900, 603.1641
800.8220, 1044.367
801.9540, 771.0312
803.0860, 813.8711
804.2170, 629.9922
805.3490, 938.4297
806.4800, 753.4531
807.6110, 664.9766
808.7420, 661.8945
809.8720, 618.0547
811.0030, 637.0625
812.1330, 688.4531
813.2640, 1032.633
814.3940, 1004.312
815.5240, 976.1094
816.6530, 602.6562
817.7830, 594.2891
818.9120, 720.0312
820.0410, 800.6211
821.1710, 677.8320
822.2990, 1250.598
823.4280, 916.2344
824.5570, 1210.117
825.6850, 843.6602
826.8130, 939.7578
827.9410, 1049.008
829.0690, 669.4102
830.1970, 874.5391
831.3240, 847.7500
832.4520, 951.7539
833.5790, 1046.234
834.7060, 797.2305
835.8330, 751.9258
836.9590, 1147.039
838.0860, 764.4375
839.2120, 941.7188
840.3390, 801.1602
841.4650, 880.2578
842.5900, 384.9062
843.7160, 628.4766
844.8420, 639.1562
845.9670, 833.5039
847.0920, 993.1680
848.2170, 751.5508
849.3420, 711.0586
850.4670, 950.0859
851.5910, 874.0195
852.7160, 852.9883
853.8400, 578.0000
854.9640, 597.1562
856.0880, 725.0586
857.2110, 723.3281
858.3350, 790.6250
859.4580, 767.4102
860.5810, 988.2969
861.7040, 1156.172
862.8270, 1060.914
863.9500, 948.6836
865.0720, 441.2148
866.1950, 797.7891
867.3170, 830.0938
868.4390, 734.6992
869.5610, 506.0664
870.6820, 774.5586
871.8040, 789.0898
872.9250, 661.8359
874.0460, 754.3555
875.1670, 649.7148
876.2880, 713.7070
877.4090, 1297.328
878.5300, 934.3711
879.6500, 946.3828
880.7700, 972.2539
881.8900, 982.3516
883.0100, 664.9414
884.1300, 735.4453
885.2490, 928.5781
886.3680, 1084.676
887.4880, 754.1055
888.6070, 957.4609
889.7250, 807.7656
890.8440, 835.3555
891.9630, 792.0039
893.0810, 681.5078
894.1990, 544.4688
895.3170, 607.4922
896.4350, 580.9531
897.5530, 906.7773
898.6700, 634.4961
899.7880, 584.5820
900.9050, 355.1406
902.0220, 306.1758
903.1390, 298.5664
904.2550, 816.7344
905.3720, 744.8320
906.4880, 335.9258
907.6040, 818.0781
908.7200, 647.4062
909.8360, 467.2305
910.9520, 757.8320
912.0670, 132.1484
913.1830, 586.1953
914.2980, 621.1484
915.4130, 400.4414
916.5280, 953.1445
917.6430, 276.3555
918.7570, 307.5000
919.8720, 577.1719
920.9860, 209.0039
922.1000, 419.5508
923.2140, 231.4492
924.3270, 578.7812
925.4410, 373.0859
926.5540, 601.5117
927.6670, 925.2148
928.7810, 419.0234
929.8930, 393.7383
931.0060, 312.3516
932.1190, 214.7930
933.2310, 403.1914
934.3430, 557.4062
935.4550, 767.3906
936.5670, 22.35938
937.6790, 571.7578
938.7900, 150.3711
939.9020, 330.6875
941.0130, 494.4102
942.1240, 653.4805
943.2350, 404.1250
944.3460, 717.0469
945.4560, 84.18750
946.5670, 731.7852
947.6770, 439.6602
948.7870, 384.8359
949.8970, 387.5938
951.0070, 400.0664
952.1160, 211.6953
953.2260, 332.9453
954.3350, 294.4102
955.4440, 281.5391
956.5530, 408.3750
957.6620, 727.0391
958.7700, 306.7734
959.8790, 89.81641
960.9870, 246.9414
962.0950, 641.3750
963.2030, 329.9062
964.3110, 225.6914
965.4190, 460.0000
966.5260, 119.2305
967.6330, 635.1016
968.7400, 334.9023
969.8470, 474.0000
970.9540, 658.5156
972.0610, 581.9023
973.1670, 313.8672
974.2740, 349.8711
975.3800, 227.1875
976.4860, 318.9297
977.5920, 242.1719
978.6970, 150.6367
979.8030, 178.6836
980.9080, 188.3242
982.0130, 285.6016
983.1180, 736.9102
984.2230, 585.7227
985.3280, 227.4570
986.4320, 408.9883
987.5360, 342.4805
988.6410, 709.9961
989.7450, 59.89062
990.8480, 460.5625
991.9520, 270.4844
993.0560, 870.2109
994.1590, 419.6953
995.2620, 481.4766
996.3650, 197.8438
997.4680, 278.3203
998.5710, 303.2617
999.6730, 413.5430
1000.780, 531.9414
1001.880, 456.5000
1002.980, 449.6680
1004.080, 73.33203
1005.180, 323.8047
1006.290, 481.5195
1007.390, 613.8789
1008.490, 681.5000
1009.590, 497.0547
1010.690, 853.8555
1011.790, 99.71875
1012.890, 777.5898
1013.990, 532.1484
1015.090, 699.0273
1016.190, 201.6562
1017.290, 773.0117
1018.390, 469.8516
1019.490, 441.5547
1020.590, 932.9766
1021.690, 686.8320
1022.790, 629.8438
1023.890, 263.8359
1024.990, 566.7383
1026.090, 725.6211
1027.180, 605.8164
1028.280, 309.0430
1029.380, 990.1445
1030.480, 1155.277
1031.580, 506.5430
1032.670, 527.0586
1033.770, 291.2852
1034.870, 902.6641
1035.970, 499.6172
1037.060, 801.7148
1038.160, 682.6484
1039.260, 709.3906
1040.350, 213.6680
1041.450, 358.4180
1042.550, 616.7578
1043.640, 760.5938
1044.740, 258.6484
1045.830, 490.9180
1046.930, 475.0742
1048.020, 800.4102
1049.120, 637.8047
1050.210, 400.8984
1051.310, 788.8203
1052.400, 839.6562
1053.500, 502.5781
1054.590, 323.5000
1055.690, 192.7969
1056.780, 669.6289
1057.880, 604.5156
1058.970, 529.4570
1060.060, 751.8828
1061.160, 705.0469
1062.250, 545.5000
1063.340, 713.0664
1064.440, 838.0117
1065.530, 703.6328
1066.620, 440.6367
1067.710, 637.9922
1068.810, 575.9492
1069.900, 220.6602
1070.990, 697.1758
1072.080, 976.2031
1073.170, 999.1992
1074.270, 234.5547
1075.360, 334.4102
1076.450, 534.4180
1077.540, 548.7305
1078.630, 987.9961
1079.720, 795.4453
1080.810, 253.8438
1081.900, 772.0039
1082.990, 615.8281
1084.080, 906.5586
1085.170, 812.7812
1086.260, 449.7617
1087.350, 435.0352
1088.440, 650.3008
1089.530, 575.1953
1090.620, 534.3789
1091.710, 672.7734
1092.800, 302.4766
1093.880, 570.0547
1094.970, 449.9805
1096.060, 431.9805
1097.150, 491.3008
1098.240, 795.7344
1099.330, 197.8945
1100.410, 662.2461
1101.500, 614.6484
1102.590, 390.5391
1103.680, 345.1836
1104.760, 3.675781
1105.850, 785.9023
1106.940, 780.6758
1108.020, 405.4414
1109.110, 247.7383
1110.200, 608.9453
1111.280, 334.9102
1112.370, 456.5312
1113.450, 194.2930
1114.540, 291.5820
1115.620, 429.4297
1116.710, 172.5117
1117.790, 289.9961
1118.880, 144.0000
1119.960, 36.89844
1121.050, 213.8594
1122.130, 270.5586
1123.220, 129.2305
1124.300, 37.56250
1125.390, 399.5820
1126.470, 84.63281
1127.550, 41.86328
1128.640, 363.7578
1129.720, 118.6211
1130.800, 169.5000
1131.890, 332.1719
1132.970, 23.42578
1134.050, 26.87109
1135.130, 237.1133
1136.220, 6.882813
1137.300, 149.5781
1138.380, 99.76953
1139.460, 10.22266
1140.540, 13.55469
1141.630, 18.51953
1142.710, 36.50000
1143.790, 75.96875
1144.870, 215.9609
1145.950, 363.5820
1147.030, 4.097656
1148.110, 62.25391
1149.190, 63.66797
1150.270, 371.1602
1151.350, 253.3438
1152.430, 191.3711
1153.510, 457.7891
1154.590, 279.4922
1155.670, 327.9727
1156.750, 195.1094
1157.830, 72.28906
1158.910, 221.7695
1159.990, 54.52734
1161.070, 380.1289
1162.150, 489.2812
1163.220, 127.8828
1164.300, 235.6094
1165.380, 464.6055
1166.460, 96.95703
1167.540, 159.0742
1168.610, 536.0312
1169.690, 86.59375
1170.770, 221.0117
1171.850, 99.72656
1172.920, 51.49219
1174.000, 310.2305
1175.080, 62.17188
1176.150, 264.4844
1177.230, 242.5430
1178.310, 218.1211
1179.380, 122.0352
1180.460, 452.0039
1181.530, 41.67578
1182.610, 298.8789
1183.680, 247.1094
1184.760, 622.1328
1185.830, 26.86328
1186.910, 106.1445
1187.980, 392.5703
1189.060, 238.8555
1190.130, 118.4922
1191.210, 179.3164
1192.280, 102.6289
1193.360, 13.65625
1194.430, 485.4609
1195.500, 119.3516
1196.580, 2.699219
1197.650, 287.4141
1198.720, 68.63672
1199.800, 44.07422
1200.870, 183.7227
1201.940, 317.3164
1203.010, 197.8242
1204.090, 278.6875
1205.160, 18.95703
1206.230, 461.1602
1207.300, 150.5781
1208.380, 367.6133
1209.450, 546.2578
1210.520, 162.8633
1211.590, 6.355469
1212.660, 161.9102
1213.730, 561.2656
1214.800, 523.7969
1215.870, 184.1758
1216.940, 689.8477
1218.010, 239.9883
1219.080, 251.4805
1220.150, 720.4688
1221.220, 1194.371
1222.290, 600.0703
1223.360, 734.1523
1224.430, 847.4961
1225.500, 219.5195
1226.570, 1201.934
1227.640, 889.9375
1228.710, 1070.230
1229.780, 825.4492
1230.850, 1146.590
1231.910, 954.2891
1232.980, 1655.238
1234.050, 1240.969
1235.120, 1376.617
1236.190, 1367.273
1237.250, 1513.652
1238.320, 1581.691
1239.390, 1555.984
1240.460, 1671.316
1241.520, 1674.449
1242.590, 1749.293
1243.660, 2279.492
1244.720, 2278.422
1245.790, 2508.312
1246.850, 2324.395
1247.920, 2394.613
1248.990, 2024.621
1250.050, 2993.898
1251.120, 3035.992
1252.180, 2567.348
1253.250, 3337.035
1254.310, 3350.191
1255.380, 3390.734
1256.440, 3584.445
1257.510, 3922.059
1258.570, 4025.910
1259.640, 3790.523
1260.700, 4577.672
1261.760, 4525.605
1262.830, 4408.699
1263.890, 4864.605
1264.960, 5361.219
1266.020, 5179.199
1267.080, 5470.719
1268.140, 5602.320
1269.210, 5890.676
1270.270, 6569.801
1271.330, 6445.605
1272.400, 6520.230
1273.460, 6873.457
1274.520, 7660.469
1275.580, 7832.750
1276.640, 8263.781
1277.700, 8032.883
1278.770, 8364.676
1279.830, 9354.195
1280.890, 9801.492
1281.950, 9743.445
1283.010, 9774.906
1284.070, 10379.84
1285.130, 10910.61
1286.190, 11452.80
1287.250, 11817.55
1288.310, 12093.84
1289.370, 12422.67
1290.430, 13190.80
1291.490, 14068.16
1292.550, 14077.35
1293.610, 14705.40
1294.670, 15794.52
1295.730, 15882.38
1296.790, 16393.96
1297.850, 17308.84
1298.900, 18191.41
1299.960, 18282.22
1301.020, 19028.77
1302.080, 19566.21
1303.140, 20162.55
1304.190, 21592.61
1305.250, 21756.22
1306.310, 23251.46
1307.370, 23968.97
1308.420, 24460.53
1309.480, 25352.30
1310.540, 26486.16
1311.590, 26640.99
1312.650, 27726.51
1313.710, 29002.23
1314.760, 30270.36
1315.820, 31604.29
