##NAMES=Chloritoid
##RRUFFID=R060292
##IDEAL CHEMISTRY=Fe^2+^Al_2_OSiO_4_(OH)_2_
##LOCALITY=Pech, Kunar Province, Afghanistan
##OWNER=RRUFF
##SOURCE=Herb Obodda
##DESCRIPTION=Black tabular crystal
##STATUS=The identification of this mineral has been confirmed by X-ray diffraction and chemical analysis
##URL=rruff.info/R060292
##MEASURED CHEMISTRY=(Fe^2+^_1.55_Mg_0.43_Mn_0.02_)_Σ=2_(Al_3.93_Fe^3+^_0.07_)_Σ=4_Si_2.00_O_10_(OH)_4_
##PIN_ID=M00413
##ORIENTATION=Laser parallel to c* (0 0 1). Fiducial mark perpendicular to laser is parallel to a [1 0 0]
89.77700, 0.0000000E+00
91.01200, 50.62891
92.24600, 84.67700
93.48000, 105.5527
94.71400, 2.447266
95.94800, 35.44458
97.18200, 31.99756
98.41600, 106.1086
99.64900, 30.77100
100.8830, 95.81030
102.1160, 235.1230
103.3490, 417.6433
104.5820, 529.3909
105.8150, 739.5178
107.0470, 756.4326
108.2800, 779.7341
109.5120, 729.2581
110.7440, 633.2256
111.9760, 649.9675
113.2080, 648.7122
114.4400, 583.4619
115.6710, 408.2185
116.9030, 199.9956
118.1340, 192.8000
119.3650, 170.6619
120.5960, 112.5432
121.8270, 123.4402
123.0580, 47.25073
124.2880, 66.76025
125.5190, 54.49170
126.7490, 61.29028
127.9790, 103.1189
129.2090, 64.97266
130.4390, 102.8484
131.6680, 12.74341
132.8980, 9.655762
134.1270, 37.58301
135.3560, 139.5244
136.5850, 122.4783
137.8140, 131.4431
139.0430, 79.41821
140.2710, 28.40210
141.5000, 35.40503
142.7280, 11.56665
143.9560, 20.78223
145.1840, 29.01025
146.4120, 63.29639
147.6390, 114.0955
148.8670, 103.3569
150.0940, 118.6064
151.3210, 85.84570
152.5490, 98.07520
153.7750, 37.29565
155.0020, 13.49219
156.2290, 40.28809
157.4550, 49.98267
158.6810, 45.39697
159.9080, 47.45288
161.1340, 114.5608
162.3590, 127.9639
163.5850, 128.3625
164.8110, 160.8101
166.0360, 122.1294
167.2610, 168.4910
168.4860, 150.8438
169.7110, 114.1899
170.9360, 87.52979
172.1610, 153.8645
173.3850, 79.19434
174.6100, 79.52051
175.8340, 37.84277
177.0580, 93.16138
178.2820, 128.4773
179.5050, 74.79004
180.7290, 144.0999
181.9520, 118.4058
183.1760, 170.7087
184.3990, 149.0090
185.6220, 143.3066
186.8450, 181.6021
188.0670, 216.8955
189.2900, 195.1873
190.5120, 209.4773
191.7340, 188.8284
192.9560, 301.5720
194.1780, 252.8486
195.4000, 321.0576
196.6220, 307.7075
197.8430, 367.8569
199.0640, 409.8264
200.2860, 410.9690
201.5070, 246.1123
202.7270, 182.2246
203.9480, 112.7568
205.1690, 1.131836
206.3890, 131.9810
207.6090, 73.09595
208.8290, 70.21265
210.0490, 84.33105
211.2690, 47.45190
212.4890, 91.57471
213.7080, 149.6992
214.9280, 107.8267
216.1470, 181.9551
217.3660, 61.08521
218.5850, 75.21680
219.8030, 82.34961
221.0220, 33.48242
222.2400, 15.61523
223.4590, 38.99951
224.6770, 12.32812
225.8950, 27.16089
227.1120, 34.85913
228.3300, 7.367188
229.5480, 5.235840
230.7650, 6.235352
231.9820, 27.78271
233.1990, 51.64282
234.4160, 47.79077
235.6330, 22.67871
236.8490, 56.02026
238.0660, 31.66333
239.2820, 61.39233
240.4980, 75.66431
241.7140, 78.39404
242.9300, 188.5923
244.1460, 220.8091
245.3610, 242.0420
246.5770, 397.2881
247.7920, 465.5459
249.0070, 569.8140
250.2220, 502.0911
251.4370, 496.3770
252.6510, 403.6699
253.8660, 277.9668
255.0800, 351.2671
256.2940, 298.5881
257.5080, 285.2546
258.7220, 314.1897
259.9360, 278.5044
261.1490, 232.8228
262.3630, 231.1445
263.5760, 205.4702
264.7890, 247.7991
266.0020, 194.1316
267.2150, 231.4666
268.4270, 212.8052
269.6400, 271.0940
270.8520, 199.3877
272.0640, 232.6853
273.2760, 211.9863
274.4880, 323.2908
275.7000, 332.5984
276.9120, 411.9092
278.1230, 504.2234
279.3340, 523.5403
280.5450, 550.8604
281.7560, 475.1833
282.9670, 388.5093
284.1780, 243.8384
285.3880, 221.1702
286.5980, 107.5049
287.8090, 30.84229
289.0190, 100.1816
290.2290, 71.52295
291.4380, 89.86621
292.6480, 5.210938
293.8570, 66.55371
295.0670, 1.101563
296.2760, 6.757080
297.4850, 55.41357
298.6930, 25.91626
299.9020, 9.247559
301.1110, 45.05054
302.3190, 27.82129
303.5270, 23.50830
304.7350, 22.83936
305.9430, 17.15479
307.1510, 8.536621
308.3580, 11.77051
309.5660, 22.07886
310.7730, 36.61108
311.9800, 43.69019
313.1870, 62.99341
314.3940, 19.29834
315.6010, 15.60498
316.8070, 4.086670
318.0130, 86.22144
319.2200, 176.5317
320.4260, 226.8440
321.6310, 243.1582
322.8370, 422.4741
324.0430, 574.7925
325.2480, 827.1130
326.4540, 1091.436
327.6590, 1346.760
328.8640, 1648.087
330.0680, 1878.417
331.2730, 1865.748
332.4780, 1531.082
333.6820, 1115.418
334.8860, 884.7566
336.0900, 554.0977
337.2940, 495.4407
338.4980, 428.7837
339.7010, 428.1025
340.9050, 584.4248
342.1080, 822.7383
343.3110, 999.0552
344.5140, 919.3716
345.7170, 558.6907
346.9200, 356.0000
348.1220, 234.3130
349.3240, 149.6272
350.5270, 98.74048
351.7290, 21.06177
352.9310, 19.38696
354.1320, 5.284180
355.3340, 11.04688
356.5350, 41.61792
357.7370, 76.28906
358.9380, 14.97534
360.1390, 51.66113
361.3400, 26.35522
362.5400, 7.051758
363.7410, 39.73730
364.9410, 30.42798
366.1410, 14.87866
367.3410, 3.810791
368.5410, 38.51001
369.7410, 21.80371
370.9400, 20.08740
372.1400, 0.3679200
373.3390, 24.28931
374.5380, 19.80347
375.7370, 24.35352
376.9360, 29.94067
378.1350, 3.768799
379.3330, 12.52197
380.5310, 47.81738
381.7300, 5.880371
382.9280, 100.4292
384.1260, 96.74365
385.3230, 182.0635
386.5210, 146.3899
387.7180, 268.7222
388.9160, 326.0596
390.1130, 378.4019
391.3100, 575.7488
392.5060, 699.1040
393.7030, 952.4639
394.9000, 1026.828
396.0960, 1027.197
397.2920, 918.5776
398.4880, 732.9810
399.6840, 573.3882
400.8800, 437.8003
402.0750, 325.2168
403.2710, 288.6377
404.4660, 257.0725
405.6610, 134.5198
406.8560, 161.9932
408.0510, 134.4827
409.2450, 91.97681
410.4400, 114.4766
411.6340, 146.9817
412.8280, 59.49316
414.0220, 138.0100
415.2160, 156.5317
416.4100, 147.0583
417.6030, 133.5901
418.7970, 161.1260
419.9900, 152.6667
421.1830, 180.2124
422.3760, 278.7625
423.5690, 289.3176
424.7610, 301.8772
425.9540, 352.4417
427.1460, 279.0105
428.3380, 294.5842
429.5300, 222.1624
430.7220, 189.7454
431.9140, 204.3325
433.1050, 143.9248
434.2970, 140.5215
435.4880, 109.1226
436.6790, 108.6848
437.8700, 98.29517
439.0610, 111.5869
440.2510, 34.56616
441.4420, 49.54028
442.6320, 66.16895
443.8220, 96.80298
445.0120, 119.4441
446.2020, 51.29761
447.3910, 146.9580
448.5810, 152.6230
449.7700, 110.2930
450.9600, 184.3542
452.1490, 151.0337
453.3370, 121.7185
454.5260, 120.1111
455.7150, 128.6807
456.9030, 165.5049
458.0910, 166.2095
459.2800, 216.9189
460.4670, 207.3057
461.6550, 240.0247
462.8430, 209.7490
464.0300, 241.4778
465.2180, 254.2119
466.4050, 314.9509
467.5920, 313.6948
468.7790, 314.4434
469.9650, 337.1970
471.1520, 355.9373
472.3380, 379.6584
473.5250, 412.4866
474.7110, 444.2593
475.8970, 466.0369
477.0820, 508.8193
478.2680, 494.6060
479.4540, 514.1997
480.6390, 422.1943
481.8240, 500.9954
483.0090, 511.8015
484.1940, 466.6123
485.3780, 545.4277
486.5630, 528.2480
487.7470, 670.0732
488.9320, 745.9128
490.1160, 825.7598
491.3000, 950.6184
492.4830, 1205.491
493.6670, 1551.385
494.8500, 1805.285
496.0340, 2161.189
497.2170, 2331.874
498.4000, 2200.802
499.5820, 2068.491
500.7650, 1789.020
501.9480, 1510.293
503.1300, 1473.399
504.3120, 1443.059
505.4940, 1413.641
506.6760, 1317.572
507.8580, 1209.075
509.0390, 1035.099
510.2210, 850.7551
511.4020, 815.8157
512.5830, 637.2454
513.7640, 706.3298
514.9450, 634.5544
516.1250, 550.6125
517.3060, 564.9570
518.4860, 644.3542
519.6660, 634.4956
520.8460, 676.5508
522.0260, 835.7007
523.2060, 874.2551
524.3850, 1061.277
525.5650, 1148.457
526.7440, 1295.660
527.9230, 1296.861
529.1020, 1228.281
530.2810, 1105.501
531.4590, 939.7898
532.6380, 733.0234
533.8160, 723.9165
534.9940, 568.1575
536.1720, 522.4072
537.3500, 502.6619
538.5270, 470.4331
539.7050, 487.7202
540.8820, 537.9883
542.0590, 653.2554
543.2360, 583.5259
544.4130, 713.7988
545.5900, 951.0510
546.7660, 1210.061
547.9430, 1653.406
549.1190, 2126.251
550.2950, 2512.536
551.4710, 2594.017
552.6470, 2340.461
553.8220, 1728.075
554.9980, 1384.507
556.1730, 1115.801
557.3480, 915.1450
558.5230, 750.4412
559.6980, 655.7388
560.8730, 575.0378
562.0470, 552.3381
563.2220, 507.6396
564.3960, 457.9504
565.5700, 499.2539
566.7440, 476.5586
567.9170, 501.4141
569.0910, 539.1704
570.2640, 573.4780
571.4380, 602.7861
572.6110, 667.0950
573.7840, 778.4048
574.9570, 832.7148
576.1290, 957.0254
577.3020, 1070.337
578.4740, 1195.649
579.6460, 1511.962
580.8180, 1819.276
581.9900, 2271.595
583.1620, 2971.929
584.3330, 4117.263
585.5040, 5524.598
586.6760, 7949.932
587.8470, 11396.27
589.0180, 17452.62
590.1880, 27545.96
591.3590, 42026.30
592.5290, 53642.64
593.7000, 51162.00
594.8700, 36767.34
596.0400, 23723.69
597.2090, 15514.04
598.3790, 10765.40
599.5490, 7659.750
600.7180, 5590.101
601.8870, 4266.454
603.0560, 3517.806
604.2250, 2858.157
605.3940, 2458.507
606.5620, 2128.857
607.7300, 1804.205
608.8990, 1567.552
610.0670, 1317.436
611.2350, 1066.243
612.4020, 933.5864
613.5700, 798.9290
614.7370, 675.2700
615.9050, 616.6096
617.0720, 473.9478
618.2390, 492.2844
619.4060, 444.6199
620.5720, 355.9531
621.7390, 368.2854
622.9050, 292.6152
624.0710, 304.9436
625.2370, 303.2703
626.4030, 265.5947
627.5690, 233.9175
628.7340, 171.3525
629.9000, 144.1631
631.0650, 119.6147
632.2300, 137.1624
633.3950, 84.33765
634.5600, 115.6460
635.7240, 90.95142
636.8890, 118.2021
638.0530, 135.8018
639.2170, 74.09912
640.3810, 40.40356
641.5450, 69.72339
642.7080, 72.04321
643.8720, 23.37207
645.0350, 34.29688
646.1980, 15.50879
647.3610, 38.71191
648.5240, 39.52515
649.6870, 23.37183
650.8490, 45.55151
652.0120, 0.4482420
653.1740, 36.20972
654.3360, 10.75269
655.4980, 69.90576
656.6600, 23.24170
657.8210, 26.34570
658.9830, 62.89014
660.1440, 46.10254
661.3050, 33.30981
662.4660, 4.511230
663.6270, 3.311768
664.7870, 48.86426
665.9480, 32.92310
667.1080, 50.02808
668.2680, 17.82251
669.4280, 62.60571
670.5880, 28.74683
671.7480, 49.08960
672.9070, 7.216797
674.0670, 78.33008
675.2260, 119.5339
676.3850, 44.67896
677.5440, 6.082764
678.7030, 46.01147
679.8610, 42.01807
681.0200, 104.0398
682.1780, 53.05469
683.3360, 53.06226
684.4940, 12.93726
685.6520, 8.962158
686.8090, 62.01025
687.9670, 22.10938
689.1240, 55.76147
690.2810, 24.62500
691.4380, 26.47900
692.5950, 19.32422
693.7520, 27.15845
694.9080, 43.77393
696.0650, 34.80200
697.2210, 101.6118
698.3770, 52.41455
699.5330, 104.2097
700.6880, 105.9976
701.8440, 88.77783
702.9990, 40.55103
704.1550, 54.31665
705.3100, 50.07471
706.4650, 62.23120
707.6190, 132.5688
708.7740, 116.3047
709.9290, 131.0332
711.0830, 161.7544
712.2370, 153.4680
713.3910, 151.1748
714.5450, 204.8738
715.6980, 263.5654
716.8520, 306.2498
718.0050, 296.9268
719.1580, 315.5964
720.3110, 369.2585
721.4640, 511.9136
722.6170, 593.5610
723.7700, 726.2012
724.9220, 769.8340
726.0740, 929.4595
727.2260, 1085.077
728.3780, 1171.688
729.5300, 1202.291
730.6810, 1292.887
731.8330, 1399.475
732.9840, 1369.056
734.1350, 1457.630
735.2860, 1372.197
736.4370, 1248.756
737.5880, 1213.308
738.7380, 1220.853
739.8880, 1221.390
741.0390, 1083.920
742.1890, 990.4426
743.3380, 872.9583
744.4880, 732.4668
745.6380, 664.5312
746.7870, 570.0483
747.9360, 519.9497
749.0850, 436.4302
750.2340, 388.9033
751.3830, 335.3696
752.5310, 269.8289
753.6800, 259.2810
754.8280, 220.7263
755.9760, 157.1648
757.1240, 148.5967
758.2720, 107.0217
759.4190, 124.4397
760.5670, 155.8513
761.7140, 102.2561
762.8610, 28.65454
764.0080, 97.04590
765.1550, 67.43115
766.3020, 20.19043
767.4480, 6.162354
768.5950, 11.49634
769.7410, 16.17603
770.8870, 48.87866
772.0330, 32.37842
773.1780, 97.62939
774.3240, 3.125488
775.4690, 24.89624
776.6140, 36.30664
777.7590, 28.50269
778.9040, 22.69312
780.0490, 26.87744
781.1940, 45.05615
782.3380, 31.22852
783.4820, 94.50000
784.6260, 21.39502
785.7700, 47.31323
786.9140, 68.26807
788.0580, 19.00562
789.2010, 19.02832
790.3450, 17.42773
791.4880, 5.489746
792.6310, 17.08179
793.7730, 3.676025
794.9160, 22.91699
796.0590, 4.694336
797.2010, 30.56421
798.3430, 28.42944
799.4850, 13.29053
800.6270, 63.25269
801.7690, 21.57739
802.9100, 30.60815
804.0520, 14.82397
805.1930, 10.04395
806.3340, 27.48462
807.4750, 91.26685
808.6160, 21.04932
809.7560, 43.68433
810.8970, 57.75928
812.0370, 20.51318
813.1770, 3.799072
814.3170, 5.909668
815.4570, 48.10278
816.5960, 24.78052
817.7360, 85.47876
818.8750, 69.17847
820.0140, 66.87622
821.1530, 75.57251
822.2920, 73.29053
823.4310, 108.1270
824.5690, 164.8806
825.7070, 181.0095
826.8460, 223.7002
827.9840, 263.1960
829.1220, 324.7300
830.2590, 318.0967
831.3970, 283.6460
832.5340, 452.3359
833.6710, 493.9766
834.8080, 588.6670
835.9450, 548.3577
837.0820, 661.0486
838.2190, 731.7402
839.3550, 794.4329
840.4910, 882.1177
841.6270, 887.8120
842.7630, 930.5073
843.8990, 873.2039
845.0350, 860.9019
846.1700, 827.6011
847.3060, 806.3018
848.4410, 810.0039
849.5760, 787.7083
850.7100, 797.4143
851.8450, 790.1221
852.9800, 781.8320
854.1140, 770.5439
855.2480, 880.2581
856.3820, 846.9749
857.5160, 926.6941
858.6500, 947.4160
859.7830, 956.1406
860.9170, 1057.868
862.0500, 1101.599
863.1830, 1248.333
864.3160, 1295.070
865.4480, 1531.810
866.5810, 1710.553
867.7130, 1838.301
868.8460, 2134.052
869.9780, 2463.807
871.1100, 2801.566
872.2410, 3259.329
873.3730, 3668.095
874.5050, 4248.866
875.6360, 4732.642
876.7670, 5250.424
877.8980, 5552.210
879.0290, 5735.002
880.1590, 5866.798
881.2900, 5634.599
882.4200, 5195.404
883.5500, 4827.215
884.6800, 4300.032
885.8100, 3773.854
886.9400, 3300.681
888.0690, 2936.514
889.1990, 2608.352
890.3280, 2310.196
891.4570, 2093.046
892.5860, 1875.906
893.7140, 1655.773
894.8430, 1444.646
895.9710, 1417.524
897.1000, 1282.410
898.2280, 1208.302
899.3560, 1104.200
900.4830, 993.1055
901.6110, 910.0176
902.7380, 871.3481
903.8660, 886.2563
904.9930, 853.6455
906.1200, 839.7617
907.2460, 876.8464
908.3730, 830.8035
909.5000, 854.6521
910.6260, 886.7939
911.7520, 869.4766
912.8780, 880.4670
914.0040, 897.8384
915.1290, 850.7676
916.2550, 851.4917
917.3800, 779.5176
918.5050, 717.5532
919.6300, 707.1201
920.7550, 714.3037
921.8800, 639.8901
923.0040, 756.1948
924.1290, 662.6780
925.2530, 714.1938
926.3770, 651.8525
927.5010, 612.2412
928.6250, 751.0117
929.7480, 710.6233
930.8720, 701.1924
931.9950, 757.4224
933.1180, 681.6877
934.2410, 798.9692
935.3640, 746.2837
936.4860, 770.6396
937.6090, 863.0024
938.7310, 858.4883
939.8530, 831.9351
940.9750, 892.6985
942.0970, 929.4790
943.2180, 1020.907
944.3400, 983.1470
945.4610, 995.6094
946.5820, 1071.088
947.7030, 1103.494
948.8240, 1185.819
949.9450, 1113.351
951.0650, 1160.905
952.1860, 1222.492
953.3060, 1133.093
954.4260, 1166.722
955.5460, 1108.366
956.6650, 1113.024
957.7850, 1097.707
958.9040, 991.4111
960.0230, 957.1521
961.1420, 937.9189
962.2610, 810.7004
963.3800, 717.4978
964.4990, 739.3105
965.6170, 685.1399
966.7350, 659.9849
967.8530, 628.8447
968.9710, 572.7222
970.0890, 549.6143
971.2070, 468.5244
972.3240, 446.4500
973.4410, 355.3936
974.5580, 317.6538
975.6750, 359.3459
976.7920, 244.3452
977.9090, 204.3599
979.0250, 206.3894
980.1410, 134.4348
981.2580, 141.1042
982.3740, 179.5715
983.4890, 120.6631
984.6050, 113.7703
985.7200, 85.89478
986.8360, 96.03638
987.9510, 161.1943
989.0660, 104.3774
990.1810, 121.8025
991.2950, 40.79126
992.4100, 77.02734
993.5240, 103.2861
994.6390, 54.56177
995.7530, 90.85864
996.8660, 149.1716
997.9800, 47.50049
999.0940, 142.8452
1000.207, 122.2061
1001.320, 190.5830
1002.433, 53.97559
1003.546, 146.3867
1004.659, 45.82227
1005.772, 62.27368
1006.884, 113.7412
1007.996, 154.2246
1009.108, 147.7241
1010.220, 51.61182
1011.332, 107.1448
1012.444, 89.69360
1013.555, 136.2588
1014.666, 71.84009
1015.777, 117.4382
1016.888, 51.05249
1017.999, 71.68262
1019.110, 113.3289
1020.220, 34.99268
1021.331, 139.6721
1022.441, 104.3679
1023.551, 115.0793
1024.661, 28.80737
1025.770, 97.48804
1026.880, 47.24805
1027.989, 137.0242
1029.098, 116.8162
1030.207, 115.6243
1031.316, 168.4485
1032.425, 104.2886
1033.533, 98.14502
1034.642, 119.0173
1035.750, 131.9053
1036.858, 192.8191
1037.966, 132.7520
1039.073, 180.7126
1040.181, 213.6978
1041.288, 164.7156
1042.396, 212.7490
1043.503, 126.7986
1044.610, 169.8687
1045.716, 65.96509
1046.823, 99.07690
1047.929, 154.2048
1049.036, 150.3484
1050.142, 101.5078
1051.248, 225.6826
1052.353, 74.35938
1053.459, 123.5938
1054.564, 186.8518
1055.670, 70.52368
1056.775, 114.8489
1057.880, 198.1970
1058.985, 179.4121
1060.089, 148.8054
1061.194, 122.6135
1062.298, 194.6475
1063.402, 141.1003
1064.506, 105.5752
1065.610, 206.3328
1066.713, 148.6699
1067.817, 165.9014
1068.920, 51.61914
1070.023, 135.7085
1071.126, 144.2878
1072.229, 155.8892
1073.332, 184.6980
1074.435, 182.1450
1075.537, 179.8020
1076.639, 137.7583
1077.741, 88.44727
1078.843, 134.1492
1079.945, 148.2202
1081.046, 117.0081
1082.148, 132.7549
1083.249, 140.9946
1084.350, 121.7661
1085.451, 125.9338
1086.551, 192.5852
1087.652, 104.5344
1088.752, 131.3540
1089.853, 107.1929
1090.953, 177.0359
1092.053, 121.8901
1093.152, 104.7559
1094.252, 148.6328
1095.351, 180.5205
1096.451, 153.4197
1097.550, 46.32935
1098.649, 73.25024
1099.748, 57.18188
1100.846, 131.5032
1101.945, 106.4561
1103.043, 132.0559
1104.141, 126.0298
1105.239, 151.6428
1106.337, 166.8135
1107.434, 153.8528
1108.532, 149.8669
1109.629, 97.89111
1110.726, 99.92480
1111.823, 137.9680
1112.920, 198.0215
1114.017, 175.0842
1115.113, 292.1570
1116.210, 429.2395
1117.306, 402.6704
1118.402, 459.1355
1119.498, 477.2524
1120.593, 545.6782
1121.689, 523.8132
1122.784, 471.9563
1123.879, 497.2556
1124.974, 475.0793
1126.069, 310.4004
1127.164, 233.8057
1128.259, 121.9932
1129.353, 412.1887
1130.447, 177.3921
1131.541, 216.6030
1132.635, 73.82178
1133.729, 120.0474
1134.822, 64.80249
1135.916, 32.92212
1137.009, 180.1711
1138.102, 264.4275
1139.195, 170.6907
1140.288, 105.9607
1141.380, 18.76172
1142.473, 123.7593
1143.565, 56.26172
1144.657, 33.33838
1145.749, 94.63745
1146.841, 47.09790
1147.932, 63.40918
1149.024, 10.72632
1150.115, 59.04883
1151.206, 88.59692
1152.297, 150.9312
1153.388, 174.2742
1154.479, 104.6731
1155.569, 158.9771
1156.659, 30.66406
1157.750, 16.69165
1158.839, 55.05225
1159.929, 53.41748
1161.019, 112.7878
1162.108, 73.16284
1163.198, 30.54224
1164.287, 11.92627
1165.376, 34.31445
1166.465, 46.70703
1167.553, 48.10376
1168.642, 9.572754
1169.730, 3.109131
1170.818, 7.517578
1171.906, 5.929688
1172.994, 3.208252
1174.082, 6.469727
1175.170, 2.572266
1176.257, 15.63013
1177.344, 23.06592
1178.431, 41.50464
1179.518, 98.94604
1180.605, 25.38989
1181.691, 16.83618
1182.778, 32.67700
1183.864, 16.76074
1184.950, 82.20044
1186.036, 9.357910
1187.122, 36.08179
1188.207, 48.52295
1189.292, 18.03442
1190.378, 46.46338
1191.463, 8.099609
1192.548, 97.66504
1193.632, 24.01025
1194.717, 59.39844
1195.801, 23.58496
1196.886, 15.20728
1197.970, 80.83691
1199.054, 55.50635
1200.137, 8.203125
1201.221, 19.09497
1202.305, 47.00317
1203.388, 6.693604
1204.471, 79.99219
1205.554, 9.291016
1206.637, 20.41040
1207.719, 45.87549
1208.802, 59.16089
1209.884, 37.55420
1210.966, 4.708984
1212.048, 92.97046
1213.130, 3.769287
1214.212, 87.48535
1215.293, 74.73853
1216.374, 50.00977
1217.456, 4.212891
1218.536, 43.43213
1219.617, 9.649902
1220.698, 21.86597
1221.778, 53.08032
1222.859, 57.29272
1223.939, 43.50342
1225.019, 62.71240
1226.099, 37.92017
1227.178, 36.12720
1228.258, 81.33203
1229.337, 78.53467
1230.417, 2.734863
1231.496, 26.92896
1232.574, 1.247070
1233.653, 61.30640
1234.732, 0.5119630
1235.810, 26.33789
1236.888, 14.81421
1237.966, 41.96582
1239.044, 49.11475
1240.122, 65.26099
1241.199, 75.40381
1242.277, 24.60181
1243.354, 79.73877
1244.431, 20.87231
1245.508, 46.28613
1246.585, 8.840088
1247.661, 9.098145
1248.738, 27.21167
1249.814, 23.67822
1250.890, 24.40796
1251.966, 73.49023
1253.042, 4.431396
1254.117, 12.36694
1255.193, 17.67847
1256.268, 4.790771
1257.343, 54.58252
1258.418, 59.60303
1259.493, 35.71704
1260.567, 82.72949
1261.642, 40.73706
1262.716, 43.74072
1263.790, 9.966309
1264.864, 13.03833
1265.938, 42.09058
1267.011, 43.10889
1268.085, 90.11255
1269.158, 138.1030
1270.231, 39.20215
