##NAMES=Chloritoid
##RRUFFID=R050334
##IDEAL CHEMISTRY=Fe^2+^Al_2_OSiO_4_(OH)_2_
##LOCALITY=Selçuk, Mugla Province, Turkey
##OWNER=RRUFF
##SOURCE=George Rossman
##DESCRIPTION=Dark greenish-black foliated cleavage fragments
##STATUS=The identification of this mineral is confirmed by single-crystal X-ray diffraction and chemical analysis.
##URL=rruff.info/R050334
##MEASURED CHEMISTRY=(Fe^2+^_1.84_Mg_0.12_Mn_0.04_)_Σ=2_(Al_3.95_Fe^3+^_0.05_)_Σ=4_Si_2.00_O_10_(OH)_4_ ; H not measured but estimated by difference and stoichiometry
##PIN_ID=M01491
##ORIENTATION=Laser parallel to (1 0 1). Fiducial mark perpendicular to laser is parallel to b [0 1 0]
168.3890, 0.0000000E+00
169.6170, 217.3701
170.8450, 234.4902
172.0730, 24.47754
173.3000, 134.0557
174.5280, 30.84082
175.7550, 27.71484
176.9820, 78.07324
178.2090, 279.5059
179.4350, 137.6895
180.6620, 26.40625
181.8880, 18.60645
183.1150, 236.7080
184.3410, 351.7852
185.5670, 322.1934
186.7920, 381.4658
188.0180, 337.3643
189.2430, 499.5010
190.4690, 590.7979
191.6940, 753.3408
192.9180, 728.7363
194.1430, 947.5254
195.3680, 936.5127
196.5920, 1038.924
197.8160, 1012.938
199.0400, 1243.340
200.2640, 1335.154
201.4880, 1551.162
202.7110, 1302.532
203.9350, 787.4707
205.1580, 624.6543
206.3810, 385.8271
207.6040, 190.2998
208.8270, 260.0029
210.0490, 227.6826
211.2710, 323.3447
212.4940, 295.9902
213.7160, 236.6494
214.9370, 261.5068
216.1590, 233.4590
217.3810, 196.6191
218.6020, 221.4844
219.8230, 259.1016
221.0440, 240.4854
222.2650, 221.6436
223.4860, 421.5850
224.7060, 214.3262
225.9260, 244.4424
227.1470, 76.26953
228.3670, 62.50195
229.5860, 106.5908
230.8060, 68.45215
232.0260, 116.3838
233.2450, 82.89453
234.4640, 29.27441
235.6830, 3.750977
236.9020, 58.31348
238.1200, 32.07812
239.3390, 41.32812
240.5570, 191.5459
241.7750, 170.7383
242.9930, 330.0049
244.2110, 388.3320
245.4290, 475.2109
246.6460, 910.8623
247.8630, 1115.553
249.0810, 1487.771
250.2980, 1623.021
251.5140, 2065.296
252.7310, 2362.588
253.9470, 2599.895
255.1640, 2604.925
256.3800, 1959.544
257.5960, 2377.879
258.8120, 2183.045
260.0270, 2014.405
261.2430, 2343.645
262.4580, 1516.102
263.6730, 1267.962
264.8880, 1151.666
266.1030, 1156.415
267.3170, 950.0732
268.5320, 961.6270
269.7460, 742.2041
270.9600, 861.7949
272.1740, 589.3721
273.3880, 556.8613
274.6010, 743.2285
275.8150, 889.4941
277.0280, 953.7119
278.2410, 984.9541
279.4540, 1204.234
280.6670, 1603.553
281.8790, 2392.910
283.0920, 2129.305
284.3040, 2327.738
285.5160, 2165.211
286.7280, 2151.722
287.9400, 1788.270
289.1510, 1602.853
290.3630, 1496.465
291.5740, 1412.104
292.7850, 1304.773
293.9960, 1064.470
295.2070, 916.1953
296.4170, 825.9531
297.6280, 901.7441
298.8380, 800.5645
300.0480, 767.4219
301.2580, 902.3125
302.4680, 787.2373
303.6770, 869.1992
304.8870, 821.1963
306.0960, 842.2305
307.3050, 814.3037
308.5140, 706.4141
309.7230, 609.5645
310.9310, 602.7539
312.1400, 342.9834
313.3480, 458.2539
314.5560, 198.6230
315.7640, 188.8975
316.9720, 134.0283
318.1790, 130.9639
319.3870, 88.91602
320.5940, 65.41504
321.8010, 11.41113
323.0080, 50.03906
324.2150, 25.66211
325.4210, 3.453125
326.6280, 70.31934
327.8340, 150.3613
329.0400, 265.4521
330.2460, 307.4834
331.4510, 518.4297
332.6570, 676.2891
333.8620, 849.0566
335.0680, 834.7480
336.2730, 812.3887
337.4780, 618.9766
338.6820, 488.5146
339.8870, 352.0117
341.0910, 170.4727
342.2950, 111.9033
343.5000, 171.2773
344.7030, 266.5752
345.9070, 234.6748
347.1110, 364.4785
348.3140, 252.3379
349.5170, 172.7861
350.7200, 37.13965
351.9230, 59.29395
353.1260, 179.3789
354.3290, 185.0137
355.5310, 168.8047
356.7330, 253.2939
357.9350, 160.8213
359.1370, 173.5840
360.3390, 286.2422
361.5400, 152.0537
362.7420, 153.0352
363.9430, 23.92871
365.1440, 62.35059
366.3450, 124.5732
367.5460, 16.74121
368.7460, 122.1260
369.9470, 303.3164
371.1470, 221.6641
372.3470, 379.4434
373.5470, 388.9297
374.7460, 486.4268
375.9460, 847.0840
377.1450, 531.8359
378.3450, 1254.766
379.5440, 625.1592
380.7430, 840.2559
381.9410, 753.0342
383.1400, 841.2168
384.3380, 1114.854
385.5370, 1152.447
386.7350, 1531.000
387.9320, 1771.738
389.1300, 1746.505
390.3280, 1855.283
391.5250, 2009.039
392.7220, 2036.814
393.9190, 2083.618
395.1160, 1897.450
396.3130, 2066.011
397.5100, 2107.641
398.7060, 2226.119
399.9020, 2389.066
401.0980, 2371.043
402.2940, 2571.049
403.4900, 2597.084
404.6860, 2576.148
405.8810, 2560.158
407.0760, 2801.074
408.2710, 2763.877
409.4660, 2825.555
410.6610, 2832.174
411.8550, 2717.826
413.0500, 2812.525
414.2440, 2893.264
415.4380, 2704.041
416.6320, 2741.857
417.8260, 2609.714
419.0190, 2312.611
420.2130, 2551.369
421.4060, 2164.519
422.5990, 2071.427
423.7920, 1757.609
424.9850, 1647.711
426.1770, 1676.854
427.3700, 1381.037
428.5620, 1471.263
429.7540, 1464.528
430.9460, 1268.836
432.1380, 1258.185
433.3290, 1163.574
434.5210, 982.0049
435.7120, 912.4766
436.9030, 944.9893
438.0940, 794.5430
439.2850, 855.1377
440.4750, 637.7734
441.6660, 565.4502
442.8560, 606.1680
444.0460, 775.9268
445.2360, 702.7275
446.4260, 767.6084
447.6160, 689.4492
448.8050, 778.5518
449.9940, 680.3359
451.1830, 680.3408
452.3720, 521.3857
453.5610, 565.4717
454.7500, 616.5977
455.9380, 501.7646
457.1260, 559.9717
458.3150, 693.2012
459.5020, 501.4561
460.6900, 544.7334
461.8780, 628.0381
463.0650, 643.3672
464.2530, 653.7236
465.4400, 662.5088
466.6270, 883.6475
467.8130, 698.0840
469.0000, 675.7607
470.1870, 848.2627
471.3730, 729.8037
472.5590, 918.3750
473.7450, 1028.976
474.9310, 1010.607
476.1160, 929.2715
477.3020, 1041.967
478.4870, 1276.708
479.6720, 1188.082
480.8570, 1361.354
482.0420, 1131.259
483.2270, 1175.219
484.4110, 1047.224
485.5960, 1179.267
486.7800, 1267.392
487.9640, 1077.584
489.1480, 1101.880
490.3310, 1299.254
491.5150, 1468.694
492.6980, 1655.205
493.8810, 1833.768
495.0640, 2040.905
496.2470, 2317.097
497.4300, 2531.092
498.6120, 2850.277
499.7950, 2909.394
500.9770, 2876.468
502.1590, 2754.936
503.3410, 2839.484
504.5220, 2886.668
505.7040, 2956.973
506.8850, 3191.135
508.0660, 3422.510
509.2470, 3704.725
510.4280, 3957.401
511.6090, 4239.133
512.7890, 4291.918
513.9700, 4157.799
515.1500, 3772.730
516.3300, 3375.724
517.5100, 2927.793
518.6900, 2402.978
519.8690, 2208.232
521.0490, 1889.575
522.2280, 1845.021
523.4070, 1809.530
524.5860, 2079.113
525.7640, 2162.746
526.9430, 2470.446
528.1210, 2911.187
529.3000, 3172.971
530.4780, 3616.801
531.6560, 3798.670
532.8330, 3485.590
534.0110, 3439.551
535.1880, 3044.549
536.3650, 2497.586
537.5430, 2160.996
538.7190, 1752.173
539.8960, 1746.400
541.0730, 1461.670
542.2490, 1543.982
543.4250, 1514.344
544.6020, 1691.744
545.7780, 1726.181
546.9530, 2034.655
548.1290, 2581.164
549.3040, 3513.710
550.4800, 3820.292
551.6550, 5757.915
552.8300, 5681.572
554.0040, 6161.182
555.1790, 6102.913
556.3540, 4932.682
557.5280, 3772.486
558.7020, 2836.326
559.8760, 1943.203
561.0500, 1610.115
562.2230, 1060.061
563.3970, 1022.042
564.5700, 726.0576
565.7430, 669.1074
566.9160, 708.1904
568.0890, 645.3066
569.2620, 672.4570
570.4340, 471.6396
571.6070, 406.8545
572.7790, 449.1025
573.9510, 318.3809
575.1230, 577.6914
576.2940, 406.0342
577.4660, 454.4072
578.6370, 740.8105
579.8080, 684.6152
580.9790, 899.7090
582.1500, 1035.203
583.3210, 1062.726
584.4910, 1589.276
585.6620, 2390.856
586.8320, 3223.467
588.0020, 4552.103
589.1720, 6157.766
590.3410, 8536.457
591.5110, 12823.17
592.6800, 19483.92
593.8500, 28457.69
595.0190, 36946.50
596.1880, 40709.32
597.3560, 36311.16
598.5250, 26822.04
599.6930, 17909.93
600.8620, 11373.86
602.0300, 7531.805
603.1970, 5129.775
604.3650, 3820.771
605.5330, 3058.787
606.7000, 2461.835
607.8680, 1923.923
609.0350, 1805.044
610.2020, 1489.191
611.3680, 1280.359
612.5350, 1059.549
613.7010, 931.7598
614.8680, 877.9922
616.0340, 667.2695
617.2000, 613.6768
618.3660, 631.3203
619.5310, 510.0488
620.6970, 487.9082
621.8620, 435.3291
623.0270, 373.3018
624.1920, 294.1035
625.3570, 254.6084
626.5220, 199.5859
627.6860, 202.3633
628.8500, 182.1709
630.0140, 210.3184
631.1780, 146.2090
632.3420, 190.2559
633.5060, 186.0391
634.6700, 285.1875
635.8330, 188.5439
636.9960, 207.5225
638.1590, 134.6660
639.3220, 313.6436
640.4850, 175.4824
641.6470, 223.0518
642.8100, 111.6758
643.9720, 191.3174
645.1340, 128.4648
646.2960, 127.5566
647.4570, 98.63574
648.6190, 216.5732
649.7800, 102.3652
650.9420, 129.6963
652.1030, 186.9990
653.2640, 82.31055
654.4240, 150.2344
655.5850, 173.6748
656.7450, 289.2754
657.9060, 195.0596
659.0660, 106.8828
660.2260, 172.0332
661.3850, 43.57129
662.5450, 148.1562
663.7040, 163.2051
664.8640, 252.0918
666.0230, 188.7607
667.1820, 288.1992
668.3410, 259.8740
669.4990, 210.0938
670.6580, 275.0176
671.8160, 163.5693
672.9740, 217.6367
674.1320, 50.61523
675.2900, 135.3594
676.4480, 20.83496
677.6050, 20.28613
678.7630, 105.5537
679.9200, 218.1875
681.0770, 100.7432
682.2340, 135.4531
683.3900, 260.5674
684.5470, 21.50586
685.7030, 172.1787
686.8590, 74.73535
688.0150, 70.27051
689.1710, 126.7861
690.3270, 34.53809
691.4830, 199.0098
692.6380, 61.73145
693.7930, 152.6064
694.9480, 290.7598
696.1030, 356.8213
697.2580, 134.9385
698.4130, 284.8330
699.5670, 285.6504
700.7210, 280.3467
701.8750, 482.4453
703.0290, 302.2900
704.1830, 501.0488
705.3370, 548.5107
706.4900, 514.7578
707.6430, 420.8672
708.7970, 592.9502
709.9490, 475.0049
711.1020, 471.0332
712.2550, 345.0322
713.4070, 387.0039
714.5600, 397.9463
715.7120, 363.8613
716.8640, 239.7451
718.0160, 272.6006
719.1670, 341.4258
720.3190, 464.2227
721.4700, 322.9883
722.6210, 474.7217
723.7720, 448.4258
724.9230, 336.0967
726.0740, 398.7383
727.2250, 527.3467
728.3750, 704.9229
729.5250, 706.4678
730.6750, 868.9785
731.8250, 819.4561
732.9750, 716.9014
734.1240, 773.1826
735.2740, 710.8203
736.4230, 751.0342
737.5720, 629.3447
738.7210, 650.6182
739.8700, 507.8574
741.0190, 736.0615
742.1670, 721.2305
743.3150, 580.3643
744.4630, 452.4619
745.6110, 545.5234
746.7590, 480.5479
747.9070, 455.5352
749.0540, 284.4863
750.2020, 340.4004
751.3490, 380.2754
752.4960, 200.1133
753.6430, 185.9141
754.7890, 162.6748
755.9360, 2.603516
757.0820, 101.0537
758.2280, 194.3301
759.3740, 68.12012
760.5200, 25.47461
761.6660, 1.852539
762.8120, 33.11523
763.9570, 125.6729
765.1020, 73.59473
766.2470, 205.6221
767.3920, 103.8242
768.5370, 56.15039
769.6810, 73.57422
770.8260, 11.65137
771.9700, 216.7041
773.1140, 68.51465
774.2580, 4.316406
775.4020, 69.22070
776.5460, 288.2334
777.6890, 20.52832
778.8320, 135.5518
779.9750, 79.78320
781.1180, 181.7129
782.2610, 61.37988
783.4040, 155.1543
784.5460, 27.08691
785.6890, 8.599609
786.8310, 197.2119
787.9730, 1.504883
789.1150, 20.14551
790.2560, 141.2793
791.3980, 73.14355
792.5390, 17.51562
793.6810, 50.18164
794.8220, 84.98145
795.9630, 37.90234
797.1030, 58.07910
798.2440, 81.39551
799.3840, 102.9834
800.5240, 211.1416
801.6650, 247.2158
802.8040, 4.703125
803.9440, 115.0889
805.0840, 85.85254
806.2230, 50.42578
807.3630, 222.4033
808.5020, 12.07715
809.6410, 180.6318
810.7790, 197.8623
811.9180, 284.2881
813.0570, 105.5488
814.1950, 15.77539
815.3330, 14.20508
816.4710, 74.11719
817.6090, 29.97949
818.7470, 24.78223
819.8840, 126.5234
821.0220, 163.2197
822.1590, 221.2305
823.2960, 398.4785
824.4330, 269.0469
825.5690, 327.5742
826.7060, 179.0596
827.8420, 290.5020
828.9790, 399.9053
830.1150, 583.3545
831.2510, 484.6777
832.3860, 565.9600
833.5220, 796.2012
834.6570, 640.4043
835.7930, 897.5674
836.9280, 853.6904
838.0630, 1033.773
839.1980, 1139.818
840.3320, 1033.824
841.4670, 1317.790
842.6010, 1386.718
843.7350, 1463.607
844.8690, 1390.458
846.0030, 1440.270
847.1370, 1408.043
848.2700, 1392.779
849.4040, 1385.479
850.5370, 1328.140
851.6700, 1253.762
852.8030, 1308.348
853.9360, 1416.896
855.0680, 1464.408
856.2000, 1610.883
857.3330, 1398.320
858.4650, 1502.723
859.5970, 1516.087
860.7290, 1772.416
861.8600, 1661.709
862.9920, 1707.968
864.1230, 2074.190
865.2540, 2021.627
866.3850, 2274.036
867.5160, 2247.644
868.6460, 2715.726
869.7770, 2890.773
870.9070, 3243.785
872.0370, 3559.766
873.1670, 4114.710
874.2970, 4498.621
875.4270, 5090.499
876.5570, 5711.345
877.6860, 6243.155
878.8150, 6759.934
879.9440, 7083.680
881.0730, 7295.401
882.2020, 7306.209
883.3300, 7195.628
884.4590, 6911.371
885.5870, 6563.967
886.7150, 6079.531
887.8430, 5519.066
888.9710, 5243.570
890.0990, 4870.020
891.2260, 4425.328
892.3530, 4154.392
893.4810, 3840.363
894.6080, 3904.210
895.7340, 3772.944
896.8610, 3663.195
897.9880, 3569.090
899.1140, 3636.288
900.2400, 3854.053
901.3660, 3920.997
902.4920, 4235.587
903.6180, 4229.488
904.7430, 4382.308
905.8690, 4563.957
906.9940, 4485.869
908.1190, 4399.414
909.2440, 4149.754
910.3690, 3933.503
911.4930, 3620.740
912.6180, 3321.953
913.7420, 2917.975
914.8660, 2715.298
915.9900, 2470.592
917.1140, 2288.972
918.2380, 2097.935
919.3610, 1978.833
920.4850, 1757.821
921.6080, 1670.951
922.7310, 1520.214
923.8540, 1414.930
924.9760, 1495.661
926.0990, 1141.396
927.2210, 1293.505
928.3440, 1167.100
929.4660, 1189.520
930.5880, 949.7559
931.7090, 938.9463
932.8310, 995.8232
933.9520, 1028.297
935.0740, 979.7090
936.1950, 964.6533
937.3160, 868.9531
938.4360, 1053.234
939.5570, 1164.589
940.6780, 1203.632
941.7980, 954.1641
942.9180, 1077.786
944.0380, 1049.774
945.1580, 1018.121
946.2780, 1193.975
947.3970, 987.7764
948.5170, 1150.500
949.6360, 1167.598
950.7550, 1255.761
951.8740, 1195.622
952.9930, 1145.937
954.1110, 1156.039
955.2300, 1085.719
956.3480, 1026.558
957.4660, 1139.645
958.5840, 1060.829
959.7020, 1059.220
960.8190, 1093.211
961.9370, 983.1494
963.0540, 925.3496
964.1710, 850.5547
965.2880, 819.7725
966.4050, 810.9971
967.5220, 813.0752
968.6380, 772.4590
969.7550, 888.6992
970.8710, 916.9434
971.9870, 992.1943
973.1030, 963.8408
974.2190, 633.7148
975.3340, 819.9834
976.4500, 809.2617
977.5650, 635.5459
978.6800, 810.8369
979.7950, 724.1357
980.9100, 742.4424
982.0250, 741.7578
983.1390, 707.7822
984.2530, 654.4121
985.3680, 683.7529
986.4820, 669.1016
987.5950, 659.4600
988.7090, 732.8281
989.8230, 705.2559
990.9360, 662.5938
992.0490, 710.9922
993.1620, 668.4004
994.2750, 668.8184
995.3880, 656.3184
996.5010, 592.6875
997.6130, 639.1396
998.7250, 603.6016
999.8370, 656.0752
1000.949, 702.5615
1002.061, 715.0605
1003.173, 732.9600
1004.284, 737.0928
1005.396, 686.6270
1006.507, 659.1758
1007.618, 535.7373
1008.729, 467.3115
1009.839, 529.9004
1010.950, 548.5010
1012.060, 624.1172
1013.171, 447.7461
1014.281, 624.7090
1015.391, 527.3662
1016.500, 685.0391
1017.610, 428.7266
1018.719, 401.7148
1019.829, 451.4404
1020.938, 388.0820
1022.047, 415.0605
1023.156, 497.8252
1024.264, 302.6055
1025.373, 415.4023
1026.481, 451.1016
1027.589, 392.1680
1028.697, 376.0908
1029.805, 220.0322
1030.913, 508.9180
1032.020, 308.0566
1033.128, 500.7393
1034.235, 402.8311
1035.342, 393.8633
1036.449, 460.4414
1037.556, 339.7236
1038.663, 464.0518
1039.769, 489.5352
1040.875, 579.0381
1041.981, 499.5332
1043.087, 435.0498
1044.193, 387.8115
1045.299, 495.4111
1046.404, 334.6768
1047.510, 392.0176
1048.615, 472.8213
1049.720, 438.6689
1050.825, 462.5742
1051.930, 339.5273
1053.034, 457.9346
1054.139, 323.7012
1055.243, 568.8027
1056.347, 497.2051
1057.451, 598.4238
1058.555, 358.1309
1059.658, 392.4482
1060.762, 546.4180
1061.865, 586.7842
1062.968, 456.6738
1064.071, 338.1777
1065.174, 447.4082
1066.277, 442.9404
1067.380, 392.5264
1068.482, 335.5225
1069.584, 485.1436
1070.686, 640.0527
1071.788, 504.7217
1072.890, 538.4082
1073.992, 434.1143
1075.093, 407.9512
1076.194, 559.6934
1077.295, 470.4648
1078.396, 541.5508
1079.497, 691.3545
1080.598, 449.8271
1081.698, 681.7041
1082.799, 718.6152
1083.899, 561.5537
1084.999, 656.5127
1086.099, 614.4941
1087.199, 687.5010
1088.298, 702.5244
1089.398, 805.5645
1090.497, 759.6191
1091.596, 895.6885
1092.695, 745.7715
1093.794, 853.8691
1094.892, 774.9834
1095.991, 540.1113
1097.089, 1020.255
1098.187, 601.4111
1099.285, 729.5830
1100.383, 816.7695
1101.481, 660.9707
1102.579, 502.1846
1103.676, 661.4131
1104.773, 500.6562
1105.870, 593.9141
1106.967, 541.1855
1108.064, 271.4707
1109.161, 388.7705
1110.257, 443.0850
1111.353, 344.4131
1112.449, 513.7539
1113.545, 521.1113
1114.641, 563.4814
1115.737, 488.8662
1116.832, 661.2646
1117.928, 684.6768
1119.023, 754.1035
1120.118, 921.5449
1121.213, 1090.000
1122.308, 1128.468
1123.402, 843.9512
1124.497, 655.4463
1125.591, 444.9561
1126.685, 353.4795
1127.779, 357.0156
1128.873, 284.5664
1129.967, 339.1309
1131.060, 52.70801
1132.153, 224.2988
1133.247, 65.90332
1134.340, 162.5205
1135.433, 127.5312
1136.525, 282.8662
1137.618, 362.0420
1138.710, 369.1729
1139.802, 88.40430
1140.895, 179.4209
1141.987, 121.4590
1143.078, 57.41992
1144.170, 200.8047
1145.261, 38.01855
1146.353, 102.0967
1147.444, 90.96387
1148.535, 149.0752
1149.626, 10.90332
1150.716, 3.467773
1151.807, 4.939453
1152.897, 32.87305
1153.988, 70.69629
1155.078, 70.53223
1156.168, 131.3809
1157.257, 21.75977
1158.347, 65.89844
1159.436, 47.94434
1160.526, 82.79785
1161.615, 93.33594
1162.704, 113.5049
1163.793, 121.6885
1164.881, 14.08008
1165.970, 73.14062
1167.058, 5.384766
1168.147, 122.3750
1169.235, 35.14648
1170.323, 38.07227
1171.410, 37.30273
1172.498, 47.45703
1173.585, 25.22461
1174.673, 55.99805
1175.760, 14.19531
1176.847, 42.79297
1177.934, 24.73633
1179.020, 24.00195
1180.107, 181.2520
1181.193, 54.40430
1182.279, 99.06836
1183.365, 54.26367
1184.451, 41.61719
1185.537, 104.0059
1186.623, 13.36133
1187.708, 82.60156
1188.793, 87.10938
1189.878, 191.4785
1190.963, 54.92969
1192.048, 51.63281
1193.133, 33.80078
1194.217, 25.25195
1195.302, 88.71680
1196.386, 101.7695
1197.470, 110.2598
1198.554, 30.24414
1199.638, 91.23047
1200.721, 127.6582
1201.805, 54.97070
1202.888, 161.4258
1203.971, 195.8242
1205.054, 57.70508
1206.137, 60.53125
1207.219, 29.75391
1208.302, 7.113281
1209.384, 163.4199
1210.466, 48.27148
1211.548, 118.9531
1212.630, 134.9141
1213.712, 220.0957
1214.794, 155.3789
1215.875, 136.9473
1216.956, 268.4746
1218.037, 316.9746
1219.118, 234.9883
1220.199, 324.5840
1221.280, 107.6211
1222.360, 159.6621
1223.441, 327.7832
1224.521, 253.3379
1225.601, 345.6719
1226.681, 374.4902
1227.760, 114.6289
1228.840, 356.8008
1229.919, 381.8633
1230.999, 184.0176
1232.078, 408.9746
1233.157, 241.8438
1234.236, 214.6719
1235.314, 292.8125
1236.393, 261.1699
1237.471, 402.6152
1238.549, 258.4863
1239.627, 127.9375
1240.705, 323.3906
1241.783, 250.8438
1242.860, 295.2988
1243.938, 301.3730
1245.015, 187.2109
1246.092, 272.6680
1247.169, 264.1484
1248.246, 318.6309
1249.323, 312.1133
1250.399, 193.5977
1251.475, 360.0801
1252.552, 243.5645
1253.628, 100.0508
1254.703, 216.5371
1255.779, 349.0254
1256.855, 233.5137
1257.930, 253.0020
1259.005, 291.4922
1260.080, 330.9824
1261.155, 480.4746
1262.230, 481.9648
1263.305, 317.4570
1264.379, 433.9492
1265.454, 198.4434
1266.528, 465.9375
1267.602, 519.4297
1268.676, 396.9258
1269.750, 550.4180
1270.823, 416.9160
1271.897, 512.4102
1272.970, 496.9062
1274.043, 490.4023
1275.116, 503.5801
1276.189, 601.0742
1277.261, 623.5723
1278.334, 643.0664
1279.406, 551.2773
1280.478, 547.7637
1281.550, 638.1191
1282.622, 457.6133
1283.694, 559.1055
1284.766, 734.5977
1285.837, 586.0879
1286.908, 646.7051
1287.979, 594.9727
1289.050, 558.4609
1290.121, 570.9492
1291.192, 587.5293
1292.262, 470.2422
1293.333, 447.0723
1294.403, 459.9883
1295.473, 476.5527
1296.543, 447.7773
1297.613, 667.8496
1298.682, 578.3379
1299.752, 769.7227
1300.821, 380.1113
1301.890, 721.6016
1302.959, 651.0918
1304.028, 915.3711
1305.096, 815.8652
1306.165, 882.7988
1307.233, 913.6875
1308.301, 1114.182
1309.370, 1004.654
1310.437, 1002.150
1311.505, 951.6484
1312.573, 1071.768
1313.640, 1049.568
1314.708, 905.0703
1315.775, 1133.359
1316.842, 983.8672
1317.908, 977.9141
1318.975, 1299.426
1320.042, 1051.609
1321.108, 1132.822
1322.174, 889.8652
1323.240, 857.3535
1324.306, 892.1621
1325.372, 1034.693
1326.438, 931.2305
1327.503, 850.3789
1328.568, 829.9238
1329.634, 971.2012
1330.699, 1097.758
1331.763, 1029.068
1332.828, 932.8828
