##NAMES=Chloritoid
##RRUFFID=R060292
##IDEAL CHEMISTRY=Fe^2+^Al_2_OSiO_4_(OH)_2_
##LOCALITY=Pech, Kunar Province, Afghanistan
##OWNER=RRUFF
##SOURCE=Herb Obodda
##DESCRIPTION=Black tabular crystal
##STATUS=The identification of this mineral has been confirmed by X-ray diffraction and chemical analysis
##URL=rruff.info/R060292
##MEASURED CHEMISTRY=(Fe^2+^_1.55_Mg_0.43_Mn_0.02_)_Σ=2_(Al_3.93_Fe^3+^_0.07_)_Σ=4_Si_2.00_O_10_(OH)_4_
##PIN_ID=M00166
##ORIENTATION=Laser parallel to a* (1 0 0). Fiducial mark perpendicular to laser is parallel to b [0 1 0]
51.43100, 0.0000000E+00
52.67100, 6.6771999E-02
53.91000, 19.30591
55.14900, 50.56061
56.38700, 96.11426
57.62600, 187.5837
58.86400, 198.4390
60.10300, 110.7671
61.34100, 26.23828
62.57900, 40.41992
63.81700, 9.431213
65.05400, 35.01910
66.29200, 315.7746
67.52900, 307.8663
68.76700, 607.6888
70.00400, 416.6359
71.24100, 409.4586
72.47700, 359.0844
73.71400, 319.4515
74.95100, 206.5064
76.18700, 201.1995
77.42300, 331.4853
78.65900, 494.3220
79.89500, 672.6725
81.13100, 766.5026
82.36700, 653.7818
83.60200, 529.4825
84.83700, 547.5798
86.07200, 709.0513
87.30800, 943.8762
88.54200, 1090.036
89.77700, 1218.507
91.01200, 1137.279
92.24600, 1074.346
93.48000, 978.7002
94.71400, 938.3282
95.94800, 968.2217
97.18200, 1086.369
98.41600, 967.7539
99.64900, 1050.362
100.8830, 1147.181
102.1160, 1532.200
103.3490, 1967.410
104.5820, 2774.799
105.8150, 2526.276
107.0470, 3756.091
108.2800, 2224.978
109.5120, 1576.019
110.7440, 1514.208
111.9760, 1539.538
113.2080, 1656.007
114.4400, 1407.608
115.6710, 1184.339
116.9030, 1048.195
118.1340, 997.1737
119.3650, 987.2700
120.5960, 868.2494
121.8270, 877.8068
123.0580, 735.2412
124.2880, 722.7826
125.5190, 737.4030
126.7490, 806.0428
127.9790, 831.8076
129.2090, 770.7085
130.4390, 677.8137
131.6680, 592.0791
132.8980, 658.4771
134.1270, 667.0266
135.3560, 789.6499
136.5850, 829.3333
137.8140, 764.1287
139.0430, 597.0715
140.2710, 618.1097
141.5000, 563.1848
142.7280, 587.2969
143.9560, 665.4391
145.1840, 616.6125
146.4120, 626.8191
147.6390, 686.0603
148.8670, 675.7554
150.0940, 784.6511
151.3210, 693.0027
152.5490, 713.3928
153.7750, 651.8223
155.0020, 573.2908
156.2290, 560.7999
157.4550, 576.3496
158.6810, 647.9399
159.9080, 692.5715
161.1340, 785.2449
162.3590, 880.9597
163.5850, 911.7161
164.8110, 938.7609
166.0360, 921.3551
167.2610, 898.2377
168.4860, 929.1624
169.7110, 845.1287
170.9360, 903.1367
172.1610, 859.1863
173.3850, 798.2772
174.6100, 813.4099
175.8340, 856.5840
177.0580, 798.7988
178.2820, 822.0549
179.5050, 829.3519
180.7290, 846.6897
181.9520, 828.0680
183.1760, 912.4867
184.3990, 959.9454
185.6220, 969.4446
186.8450, 963.9836
188.0670, 997.5623
189.2900, 1088.180
190.5120, 1106.838
191.7340, 1175.534
192.9560, 1202.270
194.1780, 1209.044
195.4000, 1235.858
196.6220, 1285.709
197.8430, 1446.598
199.0640, 1569.835
200.2860, 1456.788
201.5070, 1282.272
202.7270, 1003.631
203.9480, 757.4033
205.1690, 672.0762
206.3890, 697.9741
207.6090, 687.8662
208.8290, 556.5251
210.0490, 656.2540
211.2690, 666.0781
212.4890, 579.6575
213.7080, 512.7478
214.9280, 569.8951
216.1470, 432.7441
217.3660, 439.2290
218.5850, 463.9398
219.8030, 426.6290
221.0220, 363.1252
222.2400, 383.6489
223.4590, 363.4475
224.6770, 360.3247
225.8950, 360.9136
227.1120, 368.7635
228.3300, 366.9500
229.5480, 279.1943
230.7650, 319.6244
231.9820, 294.9849
233.1990, 383.4010
234.4160, 414.8710
235.6330, 366.3931
236.8490, 417.9664
238.0660, 428.5894
239.2820, 492.2609
240.4980, 544.9795
241.7140, 508.7439
242.9300, 572.5535
244.1460, 617.4065
245.3610, 518.5997
246.5770, 577.2402
247.7920, 554.2190
249.0070, 561.2380
250.2220, 530.0614
251.4370, 690.3936
252.6510, 538.5286
253.8660, 548.7012
255.0800, 782.9104
256.2940, 728.2681
257.5080, 751.6345
258.7220, 867.7542
259.9360, 695.1060
261.1490, 725.4922
262.3630, 733.9126
263.5760, 778.3665
264.7890, 884.8540
266.0020, 1102.374
267.2150, 1279.927
268.4270, 1659.512
269.6400, 2121.128
270.8520, 2583.777
272.0640, 3263.457
273.2760, 3764.168
274.4880, 4084.908
275.7000, 4295.683
276.9120, 4161.483
278.1230, 4105.315
279.3340, 3868.174
280.5450, 3382.061
281.7560, 2949.976
282.9670, 2599.919
284.1780, 2231.888
285.3880, 1876.883
286.5980, 1690.905
287.8090, 1303.952
289.0190, 1046.025
290.2290, 932.1238
291.4380, 718.2478
292.6480, 603.3977
293.8570, 566.5725
295.0670, 473.7732
296.2760, 427.9985
297.4850, 456.2490
298.6930, 362.5247
299.9020, 343.8251
301.1110, 367.1501
302.3190, 322.4999
303.5270, 303.8740
304.7350, 282.2726
305.9430, 279.6953
307.1510, 273.7131
308.3580, 273.4120
309.5660, 276.1077
310.7730, 289.6260
311.9800, 288.1680
313.1870, 308.7332
314.3940, 297.3218
315.6010, 348.9336
316.8070, 381.5684
318.0130, 481.2260
319.2200, 694.9064
320.4260, 824.6094
321.6310, 1003.335
322.8370, 1252.083
324.0430, 1344.853
325.2480, 1427.645
326.4540, 1398.459
327.6590, 1353.295
328.8640, 1267.152
330.0680, 1039.031
331.2730, 907.9314
332.4780, 667.8530
333.6820, 574.7958
334.8860, 450.7596
336.0900, 468.7444
337.2940, 341.7498
338.4980, 223.7758
339.7010, 208.8220
340.9050, 149.8889
342.1080, 98.97583
343.3110, 16.08289
344.5140, 6.222778
345.7170, 49.60425
346.9200, 86.41968
348.1220, 72.23938
349.3240, 72.05798
350.5270, 112.8748
351.7290, 128.7080
352.9310, 121.5660
354.1320, 121.4462
355.3340, 105.3396
356.5350, 52.24780
357.7370, 100.1501
358.9380, 99.06738
360.1390, 50.99976
361.3400, 18.92725
362.5400, 43.83789
363.7410, 21.25830
364.9410, 56.61890
366.1410, 55.49121
367.3410, 59.35986
368.5410, 99.22485
369.7410, 72.10742
370.9400, 55.99609
372.1400, 7.114502
373.3390, 14.31030
374.5380, 21.58618
375.7370, 63.59180
376.9360, 117.7964
378.1350, 166.0249
379.3330, 257.2783
380.5310, 208.5642
381.7300, 228.8733
382.9280, 274.2068
384.1260, 211.5642
385.3230, 208.9441
386.5210, 250.3535
387.7180, 185.7893
388.9160, 263.2583
390.1130, 197.7549
391.3100, 178.2786
392.5060, 194.8281
393.7030, 224.4131
394.9000, 252.0295
396.0960, 298.6772
397.2920, 328.3689
398.4880, 522.0947
399.6840, 589.8701
400.8800, 719.6882
402.0750, 1039.553
403.2710, 1438.468
404.4660, 1716.425
405.6610, 2098.432
406.8560, 2429.490
408.0510, 2624.591
409.2450, 2727.727
410.4400, 2677.903
411.6340, 2495.130
412.8280, 2212.379
414.0220, 1952.671
415.2160, 1738.997
416.4100, 1410.365
417.6030, 1257.772
418.7970, 1184.198
419.9900, 963.6470
421.1830, 761.1230
422.3760, 586.6172
423.5690, 506.1296
424.7610, 461.6597
425.9540, 328.2080
427.1460, 307.7739
428.3380, 211.3572
429.5300, 247.9575
430.7220, 156.5750
431.9140, 138.2092
433.1050, 92.86060
434.2970, 30.52832
435.4880, 53.21265
436.6790, 101.9133
437.8700, 111.6306
439.0610, 119.1897
440.2510, 124.1128
441.4420, 120.8777
442.6320, 126.6587
443.8220, 146.4551
445.0120, 214.2666
446.2020, 224.2527
447.3910, 265.7981
448.5810, 281.7935
449.7700, 303.6655
450.9600, 321.3088
452.1490, 279.4546
453.3370, 316.3706
454.5260, 319.3013
455.7150, 341.2461
456.9030, 408.2053
458.0910, 422.5115
459.2800, 501.1653
460.4670, 496.1660
461.6550, 569.1804
462.8430, 611.2083
464.0300, 762.2493
465.2180, 799.3037
466.4050, 879.3711
467.5920, 984.4517
468.7790, 1028.545
469.9650, 1080.651
471.1520, 1117.302
472.3380, 1112.469
473.5250, 1148.043
474.7110, 1066.199
475.8970, 1060.366
477.0820, 1003.546
478.2680, 912.7368
479.4540, 978.9397
480.6390, 976.1543
481.8240, 887.3799
483.0090, 1017.617
484.1940, 1069.865
485.3780, 1198.125
486.5630, 1489.395
487.7470, 1738.676
488.9320, 2104.757
490.1160, 2481.031
491.3000, 2765.009
492.4830, 2915.989
493.6670, 3059.911
494.8500, 2972.998
496.0340, 2934.465
497.2170, 2810.940
498.4000, 2589.235
499.5820, 2550.183
500.7650, 2457.739
501.9480, 2367.351
503.1300, 2325.367
504.3120, 2212.472
505.4940, 2120.207
506.6760, 2001.679
507.8580, 1924.266
509.0390, 1790.515
510.2210, 1657.181
511.4020, 1511.894
512.5830, 1487.096
513.7640, 1408.917
514.9450, 1411.022
516.1250, 1300.881
517.3060, 1332.969
518.4860, 1378.054
519.6660, 1496.653
520.8460, 1604.549
522.0260, 1741.999
523.2060, 1725.629
524.3850, 1713.542
525.5650, 1718.365
526.7440, 1604.025
527.9230, 1418.069
529.1020, 1280.540
530.2810, 1096.613
531.4590, 995.3625
532.6380, 901.1560
533.8160, 829.6436
534.9940, 786.3948
536.1720, 743.3286
537.3500, 702.0742
538.5270, 713.0212
539.7050, 857.7117
540.8820, 1044.920
542.0590, 1339.755
543.2360, 1610.601
544.4130, 2166.895
545.5900, 2516.947
546.7660, 2681.203
547.9430, 2609.541
549.1190, 2645.199
550.2950, 2343.810
551.4710, 1943.880
552.6470, 1693.048
553.8220, 1458.502
554.9980, 1286.836
556.1730, 1097.625
557.3480, 985.7637
558.5230, 796.2417
559.6980, 773.3740
560.8730, 735.8481
562.0470, 643.4731
563.2220, 634.3718
564.3960, 674.2048
565.5700, 712.9946
566.7440, 769.9150
567.9170, 827.7012
569.0910, 905.4854
570.2640, 1064.268
571.4380, 1285.048
572.6110, 1504.825
573.7840, 1702.600
574.9570, 1982.373
576.1290, 2430.143
577.3020, 3049.909
578.4740, 3902.674
579.6460, 5113.434
580.8180, 7115.192
581.9900, 10334.95
583.1620, 15860.70
584.3330, 25423.44
585.5040, 39917.19
586.6760, 54438.94
587.8470, 62530.66
589.0180, 63496.39
590.1880, 63497.12
591.3590, 61397.84
592.5290, 51187.56
593.7000, 40293.28
594.8700, 32406.99
596.0400, 27041.70
597.2090, 22012.39
598.3790, 16953.09
599.5490, 12138.78
600.7180, 8655.469
601.8870, 6167.147
603.0560, 4746.822
604.2250, 3700.491
605.3940, 3097.155
606.5620, 2485.813
607.7300, 2111.465
608.8990, 1871.112
610.0670, 1589.752
611.2350, 1351.387
612.4020, 1192.015
613.5700, 1069.638
614.7370, 968.2537
615.9050, 818.8632
617.0720, 747.4662
618.2390, 690.0627
619.4060, 576.6523
620.5720, 546.2354
621.7390, 552.8116
622.9050, 462.3811
624.0710, 426.9436
625.2370, 393.4990
626.4030, 332.0475
627.5690, 322.5889
628.7340, 316.1681
629.9000, 263.7062
631.0650, 270.2915
632.2300, 198.8485
633.3950, 185.4133
634.5600, 186.1249
635.7240, 140.7264
636.8890, 168.1815
638.0530, 94.82007
639.2170, 125.5292
640.3810, 61.50537
641.5450, 76.17566
642.7080, 104.8999
643.8720, 86.61670
645.0350, 72.30322
646.1980, 66.00586
647.3610, 5.963379
648.5240, 21.63501
649.6870, 2.305908
650.8490, 47.97046
652.0120, 37.74573
653.1740, 58.42725
654.3360, 18.11194
655.4980, 32.78271
656.6600, 15.44116
657.8210, 22.22668
658.9830, 69.86096
660.1440, 35.48560
661.3050, 8.902344
662.4660, 74.68225
663.6270, 38.25696
664.7870, 46.81921
665.9480, 81.36938
667.1080, 9.0332001E-02
668.2680, 13.42615
669.4280, 16.07532
670.5880, 6.390503
671.7480, 5.835327
672.9070, 15.25867
674.0670, 25.33594
675.2260, 11.96887
676.3850, 8.633057
677.5440, 59.32703
678.7030, 23.07764
679.8610, 78.86597
681.0200, 56.72131
682.1780, 72.63220
683.3360, 79.60706
684.4940, 59.64954
685.6520, 78.74951
686.8090, 95.91675
687.9670, 53.16052
689.1240, 36.45801
690.2810, 43.80090
691.4380, 93.19263
692.5950, 21.34082
693.7520, 64.14294
694.9080, 23.68640
696.0650, 61.26770
697.2210, 50.90698
698.3770, 38.40149
699.5330, 18.69592
700.6880, 6.026978
701.8440, 59.22168
702.9990, 67.45874
704.1550, 95.68457
705.3100, 54.89978
706.4650, 128.1033
707.6190, 163.2961
708.7740, 246.4785
709.9290, 269.6505
711.0830, 260.8123
712.2370, 351.9635
713.3910, 433.1045
714.5450, 504.2350
715.6980, 609.3555
716.8520, 723.4658
718.0050, 838.5660
719.1580, 939.6560
720.3110, 1067.736
721.4640, 1301.806
722.6170, 1436.866
723.7700, 1641.916
724.9220, 1826.957
726.0740, 1930.987
727.2260, 2167.008
728.3780, 2226.020
729.5300, 2283.021
730.6810, 2308.012
731.8330, 2246.995
732.9840, 2181.967
734.1350, 2087.931
735.2860, 2009.885
736.4370, 1933.830
737.5880, 1837.765
738.7380, 1739.692
739.8880, 1487.609
741.0390, 1328.518
742.1890, 1236.417
743.3380, 1059.307
744.4880, 953.1885
745.6380, 833.0612
746.7870, 740.9252
747.9360, 639.9624
749.0850, 527.6272
750.2340, 463.4658
751.3830, 434.2966
752.5310, 371.1212
753.6800, 276.9401
754.8280, 295.7507
755.9760, 257.5531
757.1240, 191.3500
758.2720, 190.1390
759.4190, 163.9309
760.5670, 135.7247
761.7140, 133.5107
762.8610, 122.2893
764.0080, 84.06226
765.1550, 107.8337
766.3020, 35.59814
767.4480, 115.3623
768.5950, 36.11914
769.7410, 88.86841
770.8870, 45.61011
772.0330, 20.34668
773.1780, 57.07471
774.3240, 23.20459
775.4690, 71.49097
776.6140, 26.17944
777.7590, 1.859619
778.9040, 80.52832
780.0490, 27.18970
781.1940, 28.84521
782.3380, 34.49976
783.4820, 30.15552
784.6260, 0.8037110
785.7700, 37.61450
786.9140, 50.81592
788.0580, 38.40698
789.2010, 10.94751
790.3450, 53.35767
791.4880, 76.95898
792.6310, 57.00659
793.7730, 97.30811
794.9160, 2.259033
796.0590, 70.34424
797.2010, 97.92041
798.3430, 50.20410
799.4850, 84.93896
800.6270, 78.49707
801.7690, 110.7766
802.9100, 58.15210
804.0520, 100.6946
805.1930, 135.8569
806.3340, 105.5964
807.4750, 140.7373
808.6160, 203.2068
809.7560, 154.6370
810.8970, 230.3762
812.0370, 191.8569
813.1770, 217.1589
814.3170, 224.6531
815.4570, 287.9497
816.5960, 297.5071
817.7360, 331.5500
818.8750, 330.9719
820.0140, 375.9460
821.1530, 422.3555
822.2920, 484.5725
823.4310, 546.5879
824.5690, 651.5247
825.7070, 729.1467
826.8460, 868.8203
827.9840, 939.0381
829.1220, 1082.162
830.2590, 1235.003
831.3970, 1313.967
832.5340, 1481.482
833.6710, 1695.651
834.8080, 1863.483
835.9450, 1917.666
837.0820, 2049.509
838.2190, 2155.207
839.3550, 2261.634
840.4910, 2250.130
841.6270, 2308.673
842.7630, 2267.090
843.8990, 2241.645
845.0350, 2239.204
846.1700, 2149.770
847.3060, 2135.360
848.4410, 2082.919
849.5760, 2070.502
850.7100, 2050.092
851.8450, 2053.688
852.9800, 2014.290
854.1140, 2015.899
855.2480, 2098.515
856.3820, 2115.136
857.5160, 2254.766
858.6500, 2344.402
859.7830, 2413.044
860.9170, 2638.694
862.0500, 2842.352
863.1830, 3196.016
864.3160, 3520.689
865.4480, 3815.368
866.5810, 4319.057
867.7130, 4958.752
868.8460, 5586.454
869.9780, 6348.166
871.1100, 7141.885
872.2410, 7880.612
873.3730, 8652.351
874.5050, 9338.092
875.6360, 9646.845
876.7670, 9976.605
877.8980, 9869.376
879.0290, 9765.154
880.1590, 9252.939
881.2900, 8763.739
882.4200, 8106.544
883.5500, 7556.360
884.6800, 6863.184
885.8100, 6186.017
886.9400, 5610.072
888.0690, 4937.300
889.1990, 4477.659
890.3280, 4137.532
891.4570, 3897.414
892.5860, 3675.816
893.7140, 3497.717
894.8430, 3424.115
895.9710, 3408.208
897.1000, 3433.936
898.2280, 3528.070
899.3560, 3557.470
900.4830, 3768.781
901.6110, 3700.754
902.7380, 3699.471
903.8660, 3629.463
904.9930, 3481.430
906.1200, 3423.443
907.2460, 3200.920
908.3730, 3008.824
909.5000, 2849.869
910.6260, 2633.089
911.7520, 2365.175
912.8780, 2242.197
914.0040, 2107.966
915.1290, 2017.066
916.2550, 1916.656
917.3800, 1679.190
918.5050, 1622.289
919.6300, 1529.417
920.7550, 1438.941
921.8800, 1417.114
923.0040, 1271.096
924.1290, 1211.299
925.2530, 1226.416
926.3770, 1092.662
927.5010, 1111.090
928.6250, 1075.373
929.7480, 1082.476
930.8720, 1079.094
931.9950, 1052.401
933.1180, 1131.720
934.2410, 1148.060
935.3640, 1190.421
936.4860, 1198.795
937.6090, 1241.308
938.7310, 1276.762
939.8530, 1325.130
940.9750, 1348.576
942.0970, 1389.275
943.2180, 1364.549
944.3400, 1464.081
945.4610, 1476.641
946.5820, 1523.227
947.7030, 1590.839
948.8240, 1590.476
949.9450, 1655.135
951.0650, 1718.832
952.1860, 1698.561
953.3060, 1736.340
954.4260, 1657.165
955.5460, 1669.030
956.6650, 1659.942
957.7850, 1552.893
958.9040, 1572.889
960.0230, 1529.933
961.1420, 1449.013
962.2610, 1434.125
963.3800, 1385.273
964.4990, 1304.468
965.6170, 1222.682
966.7350, 1219.936
967.8530, 1107.217
968.9710, 1146.535
970.0890, 926.8967
971.2070, 900.2729
972.3240, 905.6658
973.4410, 762.0808
974.5580, 709.5142
975.6750, 691.9614
976.7920, 576.4224
977.9090, 555.8970
979.0250, 544.3848
980.1410, 450.8857
981.2580, 458.4001
982.3740, 350.9275
983.4890, 368.4683
984.6050, 320.0215
985.7200, 376.5889
986.8360, 245.1689
987.9510, 280.7625
989.0660, 297.3738
990.1810, 224.9995
991.2950, 240.6404
992.4100, 185.2944
993.5240, 274.9622
994.6390, 202.6431
995.7530, 191.3369
996.8660, 212.0439
997.9800, 101.7634
999.0940, 185.4954
1000.207, 135.2402
1001.320, 120.9978
1002.433, 201.7678
1003.546, 142.5508
1004.659, 121.3459
1005.772, 113.1538
1006.884, 140.9739
1007.996, 95.80640
1009.108, 86.65625
1010.220, 67.51782
1011.332, 21.39185
1012.444, 88.27832
1013.555, 55.17676
1014.666, 51.08765
1015.777, 6.010742
1016.888, 2.951172
1017.999, 35.90332
1019.110, 13.86743
1020.220, 11.15649
1021.331, 17.17090
1022.441, 21.17725
1023.551, 19.82349
1024.661, 17.83569
1025.770, 21.14038
1026.880, 3.889893
1027.989, 70.06812
1029.098, 62.96313
1030.207, 24.06030
1031.316, 70.09521
1032.425, 17.85889
1033.533, 42.80518
1034.642, 29.24731
1035.750, 52.68945
1036.858, 15.36963
1037.966, 23.43970
1039.073, 5.520508
1040.181, 17.38721
1041.288, 27.71191
1042.396, 54.82251
1043.503, 28.94580
1044.610, 0.1306150
1045.716, 5.285156
1046.823, 26.45020
1047.929, 86.63208
1049.036, 18.17993
1050.142, 41.98218
1051.248, 53.78638
1052.353, 3.401855
1053.459, 21.39966
1054.564, 11.80469
1055.670, 24.98096
1056.775, 23.23560
1057.880, 34.46216
1058.985, 0.6989750
1060.089, 12.31641
1061.194, 60.82324
1062.298, 8.8379003E-02
1063.402, 14.63843
1064.506, 43.64038
1065.610, 53.11768
1066.713, 52.88574
1067.817, 44.34448
1068.920, 62.65869
1070.023, 3.018066
1071.126, 60.52856
1072.229, 94.05615
1073.332, 115.8162
1074.435, 39.39478
1075.537, 89.68042
1076.639, 79.10425
1077.741, 118.7173
1078.843, 202.2729
1079.945, 112.6648
1081.046, 168.0769
1082.148, 268.4822
1083.249, 276.3582
1084.350, 334.6272
1085.451, 334.4722
1086.551, 410.0015
1087.652, 472.6235
1088.752, 450.0488
1089.853, 556.1243
1090.953, 482.3176
1092.053, 462.0474
1093.152, 516.9192
1094.252, 451.4097
1095.351, 430.0771
1096.451, 399.5474
1097.550, 376.7419
1098.649, 395.6382
1099.748, 303.1182
1100.846, 329.8394
1101.945, 373.1948
1103.043, 284.6826
1104.141, 316.1726
1105.239, 259.6870
1106.337, 209.2087
1107.434, 166.7048
1108.532, 169.2705
1109.629, 211.8003
1110.726, 188.3018
1111.823, 243.8047
1112.920, 236.3091
1114.017, 208.8147
1115.113, 194.3218
1116.210, 198.8301
1117.306, 185.4077
1118.402, 157.9307
1119.498, 231.4656
1120.593, 168.0859
1121.689, 210.9343
1122.784, 157.8506
1123.879, 175.5068
1124.974, 142.1062
1126.069, 134.7053
1127.164, 128.2424
1128.259, 132.7761
1129.353, 156.2917
1130.447, 178.8071
1131.541, 88.32227
1132.635, 175.8374
1133.729, 80.35254
1134.822, 125.8669
1135.916, 126.3809
1137.009, 94.89453
1138.102, 144.4075
1139.195, 121.9194
1140.288, 109.4495
1141.380, 92.95972
1142.473, 104.4692
1143.565, 56.97729
1144.657, 104.4844
1145.749, 99.99976
1146.841, 36.56836
1147.932, 74.22754
1149.024, 106.7292
1150.115, 70.22925
1151.206, 73.72729
1152.297, 134.0117
1153.388, 113.1309
1154.479, 114.1572
1155.569, 102.6479
1156.659, 66.13647
1157.750, 69.11206
1158.839, 112.5962
1159.929, 14.59155
1161.019, 107.8984
1162.108, 46.37500
1163.198, 46.84912
1164.287, 43.02295
1165.376, 69.14380
1166.465, 62.61108
1167.553, 57.29614
1168.642, 76.75830
1169.730, 58.21802
1170.818, 55.67529
1171.906, 92.82593
1172.994, 44.32642
1174.082, 89.21924
1175.170, 14.00708
1176.257, 50.43213
1177.344, 26.87158
1178.431, 17.30835
1179.518, 32.74170
1180.605, 48.61084
1181.691, 64.67603
1182.778, 20.13159
1183.864, 42.55127
1184.950, 52.31836
1186.036, 18.76172
1187.122, 89.37524
1188.207, 33.78076
1189.292, 32.18262
1190.378, 3.563721
1191.463, 11.04590
1192.548, 16.32935
1193.632, 20.66821
1194.717, 39.57104
1195.801, 8.934326
1196.886, 13.70874
1197.970, 10.63110
1199.054, 51.96484
1200.137, 24.29443
1201.221, 9.494873
1202.305, 8.186768
1203.388, 11.54346
1204.471, 24.24939
1205.554, 3.335205
1206.637, 37.08643
1207.719, 23.86865
1208.802, 22.67505
1209.884, 26.49438
1210.966, 20.65918
1212.048, 46.81860
1213.130, 5.973389
1214.212, 0.8815920
1215.293, 25.75000
1216.374, 20.48901
1217.456, 14.43823
1218.536, 2.486816
1219.617, 3.574219
1220.698, 1.625000
1221.778, 12.66333
1222.859, 8.982788
1223.939, 23.71472
1225.019, 5.270020
1226.099, 29.72888
1227.178, 2.723877
1228.258, 9.706665
1229.337, 43.68018
1230.417, 15.64795
1231.496, 15.39246
1232.574, 48.54529
1233.653, 84.47729
1234.732, 27.40381
1235.810, 1.676025
