##NAMES=Chloritoid
##RRUFFID=R050334
##IDEAL CHEMISTRY=Fe^2+^Al_2_OSiO_4_(OH)_2_
##LOCALITY=Selçuk, Mugla Province, Turkey
##OWNER=RRUFF
##SOURCE=George Rossman
##DESCRIPTION=Dark greenish-black foliated cleavage fragments
##STATUS=The identification of this mineral is confirmed by single-crystal X-ray diffraction and chemical analysis.
##URL=rruff.info/R050334
##MEASURED CHEMISTRY=(Fe^2+^_1.84_Mg_0.12_Mn_0.04_)_Σ=2_(Al_3.95_Fe^3+^_0.05_)_Σ=4_Si_2.00_O_10_(OH)_4_ ; H not measured but estimated by difference and stoichiometry
##PIN_ID=M00341
##ORIENTATION=Laser parallel to b* (0 1 0). Fiducial mark perpendicular to laser is parallel to -c [0 0 -1]
89.77700, 0.0000000E+00
91.01200, 59.65234
92.24600, 57.77002
93.48000, 191.2363
94.71400, 13.64111
95.94800, 14.30322
97.18200, 274.2588
98.41600, 177.1943
99.64900, 48.29980
100.8830, 429.0229
102.1160, 1400.269
103.3490, 2698.674
104.5820, 4800.798
105.8150, 4642.239
107.0470, 4161.616
108.2800, 4744.394
109.5120, 2190.558
110.7440, 1962.995
111.9760, 2777.536
113.2080, 3752.682
114.4400, 3259.553
115.6710, 2615.790
116.9030, 2116.636
118.1340, 1618.238
119.3650, 1384.257
120.5960, 885.2930
121.8270, 1090.440
123.0580, 281.3906
124.2880, 38.16016
125.5190, 165.1475
126.7490, 382.9092
127.9790, 579.5801
129.2090, 624.4526
130.4390, 163.5898
131.6680, 20.93652
132.8980, 106.9326
134.1270, 317.2500
135.3560, 471.0625
136.5850, 439.0293
137.8140, 872.3281
139.0430, 355.8467
140.2710, 102.9946
141.5000, 106.7983
142.7280, 139.2798
143.9560, 292.4590
145.1840, 309.3535
146.4120, 127.5815
147.6390, 190.5649
148.8670, 220.3677
150.0940, 218.0825
151.3210, 88.30420
152.5490, 122.8252
153.7750, 92.71533
155.0020, 60.09473
156.2290, 119.1338
157.4550, 9.820313
158.6810, 79.68750
159.9080, 118.7007
161.1340, 407.6504
162.3590, 827.1133
163.5850, 757.5010
164.8110, 743.2588
166.0360, 838.1846
167.2610, 826.2993
168.4860, 750.3198
169.7110, 849.6841
170.9360, 568.9512
172.1610, 604.2642
173.3850, 560.6157
174.6100, 528.0000
175.8340, 614.4136
177.0580, 650.8516
178.2820, 617.3096
179.5050, 667.7856
180.7290, 729.2378
181.9520, 729.7554
183.1760, 861.2480
184.3990, 1012.723
185.6220, 1019.408
186.8450, 1125.090
188.0670, 1054.083
189.2900, 1310.525
190.5120, 1535.953
191.7340, 1813.377
192.9560, 1725.789
194.1780, 1892.188
195.4000, 1989.565
196.6220, 2184.917
197.8430, 2291.836
199.0640, 2026.397
200.2860, 1727.008
201.5070, 1396.431
202.7270, 941.4600
203.9480, 662.6821
205.1690, 606.7798
206.3890, 562.3228
207.6090, 577.7007
208.8290, 680.3057
210.0490, 632.7158
211.2690, 611.8442
212.4890, 656.5063
213.7080, 489.8882
214.9280, 359.2617
216.1470, 295.3599
217.3660, 298.0386
218.5850, 258.0327
219.8030, 270.1191
221.0220, 307.9258
222.2400, 186.5205
223.4590, 209.9795
224.6770, 187.5625
225.8950, 95.76953
227.1120, 16.03711
228.3300, 107.8589
229.5480, 142.6953
230.7650, 174.2856
231.9820, 268.4517
233.1990, 138.5405
234.4160, 155.9106
235.6330, 79.53516
236.8490, 73.56396
238.0660, 43.66895
239.2820, 222.5283
240.4980, 235.4570
241.7140, 403.3589
242.9300, 443.4521
244.1460, 654.0928
245.3610, 965.5771
246.5770, 1275.424
247.7920, 1608.941
249.0070, 1812.409
250.2220, 2038.827
251.4370, 2178.196
252.6510, 2267.516
253.8660, 2168.102
255.0800, 2167.295
256.2940, 2132.792
257.5080, 2066.312
258.7220, 1872.576
259.9360, 1843.047
261.1490, 1747.720
262.3630, 1649.559
263.5760, 1386.264
264.7890, 1093.954
266.0020, 995.6006
267.2150, 1037.195
268.4270, 982.7324
269.6400, 1137.209
270.8520, 1394.785
272.0640, 1554.787
273.2760, 2054.183
274.4880, 2140.426
275.7000, 2453.622
276.9120, 2851.434
278.1230, 3008.891
279.3340, 3273.354
280.5450, 3688.392
281.7560, 3702.398
282.9670, 3607.373
284.1780, 3169.317
285.3880, 2758.235
286.5980, 2259.433
287.8090, 1791.614
289.0190, 1585.902
290.2290, 1312.725
291.4380, 976.5264
292.6480, 952.6914
293.8570, 848.0942
295.0670, 765.5908
296.2760, 760.0503
297.4850, 861.8887
298.6930, 824.8979
299.9020, 986.7153
301.1110, 951.2290
302.3190, 908.1343
303.5270, 1035.936
304.7350, 809.4014
305.9430, 798.6196
307.1510, 683.5415
308.3580, 477.2305
309.5660, 374.7700
310.7730, 249.4546
311.9800, 155.8169
313.1870, 53.34424
314.3940, 10.65332
315.6010, 66.76611
316.8070, 103.0962
318.0130, 122.6182
319.2200, 137.1724
320.4260, 115.7632
321.6310, 151.3843
322.8370, 44.04541
324.0430, 164.2832
325.2480, 164.6138
326.4540, 272.9473
327.6590, 325.2837
328.8640, 491.6235
330.0680, 482.9673
331.2730, 687.3149
332.4780, 794.6655
333.6820, 848.0205
334.8860, 917.3794
336.0900, 880.7412
337.2940, 754.1074
338.4980, 519.4780
339.7010, 307.8525
340.9050, 173.2310
342.1080, 53.61328
343.3110, 51.99902
344.5140, 21.38721
345.7170, 180.7778
346.9200, 53.17139
348.1220, 91.55371
349.3240, 52.12939
350.5270, 13.91309
351.7290, 39.78955
352.9310, 29.31543
354.1320, 16.42773
355.3340, 0.5473630
356.5350, 53.67334
357.7370, 163.8076
358.9380, 321.9521
360.1390, 357.9600
361.3400, 525.7261
362.5400, 625.5225
363.7410, 799.1904
364.9410, 822.9316
366.1410, 790.8306
367.3410, 789.2339
368.5410, 849.7598
369.7410, 531.2163
370.9400, 681.9883
372.1400, 537.5386
373.3390, 361.4326
374.5380, 337.2456
375.7370, 240.1816
376.9360, 539.3130
378.1350, 706.7085
379.3330, 1086.131
380.5310, 678.4736
381.7300, 692.2153
382.9280, 634.6548
384.1260, 843.5020
385.3230, 1089.409
386.5210, 1181.743
387.7180, 1220.086
388.9160, 1374.428
390.1130, 1616.770
391.3100, 1449.192
392.5060, 1614.472
393.7030, 1233.837
394.9000, 411.2446
396.0960, 371.6660
397.2920, 292.1450
398.4880, 306.6958
399.6840, 296.2788
400.8800, 314.9219
402.0750, 326.5928
403.2710, 508.3042
404.4660, 530.0742
405.6610, 658.9082
406.8560, 732.7944
408.0510, 779.7363
409.2450, 885.7148
410.4400, 1057.735
411.6340, 1223.788
412.8280, 1269.884
414.0220, 1345.027
415.2160, 1309.227
416.4100, 1307.475
417.6030, 1119.770
418.7970, 1002.101
419.9900, 740.4707
421.1830, 648.8750
422.3760, 480.3174
423.5690, 519.7808
424.7610, 416.4458
425.9540, 345.1260
427.1460, 308.2119
428.3380, 251.6982
429.5300, 216.2510
430.7220, 197.6846
431.9140, 180.1880
433.1050, 194.6978
434.2970, 236.2104
435.4880, 91.72803
436.6790, 232.2520
437.8700, 96.78076
439.0610, 141.3140
440.2510, 109.8525
441.4420, 143.3989
442.6320, 290.9517
443.8220, 239.5112
445.0120, 358.0796
446.2020, 383.6543
447.3910, 544.2407
448.5810, 549.8354
449.7700, 621.4395
450.9600, 594.0493
452.1490, 750.6665
453.3370, 844.2915
454.5260, 910.9238
455.7150, 762.2568
456.9030, 630.1787
458.0910, 787.2695
459.2800, 677.0757
460.4670, 674.6812
461.6550, 810.1406
462.8430, 697.7686
464.0300, 826.8198
465.2180, 853.7178
466.4050, 878.4351
467.5920, 945.9902
468.7790, 1075.566
469.9650, 1139.818
471.1520, 1286.039
472.3380, 1378.787
473.5250, 1434.542
474.7110, 1524.496
475.8970, 1641.075
477.0820, 1611.853
478.2680, 1703.637
479.4540, 1688.428
480.6390, 1615.226
481.8240, 1632.030
483.0090, 1646.841
484.1940, 1755.658
485.3780, 1868.019
486.5630, 1991.389
487.7470, 2248.647
488.9320, 2576.487
490.1160, 2992.909
491.3000, 3354.508
492.4830, 3620.125
493.6670, 4005.374
494.8500, 4550.754
496.0340, 5123.553
497.2170, 5605.957
498.4000, 5975.263
499.5820, 6106.357
500.7650, 6221.236
501.9480, 5974.461
503.1300, 5557.008
504.3120, 5108.062
505.4940, 4967.035
506.6760, 4824.439
507.8580, 4740.796
509.0390, 4720.470
510.2210, 4689.941
511.4020, 4464.332
512.5830, 4283.558
513.7640, 3713.431
514.9450, 3344.935
516.1250, 2865.683
517.3060, 2414.290
518.4860, 2186.888
519.6660, 1976.526
520.8460, 1728.182
522.0260, 1680.781
523.2060, 1752.562
524.3850, 1745.286
525.5650, 1847.115
526.7440, 1996.808
527.9230, 2027.414
529.1020, 2220.006
530.2810, 2206.597
531.4590, 1956.488
532.6380, 1929.510
533.8160, 1956.490
534.9940, 1783.101
536.1720, 1777.480
537.3500, 1823.178
538.5270, 1797.975
539.7050, 2000.212
540.8820, 2371.032
542.0590, 2910.314
543.2360, 3594.882
544.4130, 4122.155
545.5900, 4639.211
546.7660, 5076.913
547.9430, 5686.063
549.1190, 6507.994
550.2950, 7027.376
551.4710, 7569.670
552.6470, 7595.998
553.8220, 7330.880
554.9980, 6449.375
556.1730, 5219.176
557.3480, 3918.073
558.5230, 2828.111
559.6980, 1998.080
560.8730, 1600.243
562.0470, 1481.191
563.2220, 1306.505
564.3960, 1221.895
565.5700, 1023.852
566.7440, 911.6392
567.9170, 962.0708
569.0910, 921.3755
570.2640, 957.6016
571.4380, 929.8076
572.6110, 1110.992
573.7840, 1196.156
574.9570, 1329.298
576.1290, 1444.419
577.3020, 1634.519
578.4740, 1948.596
579.6460, 2579.651
580.8180, 3373.685
581.9900, 4666.696
583.1620, 6792.684
584.3330, 9656.649
585.5040, 13394.59
586.6760, 17255.51
587.8470, 19554.41
589.0180, 22308.28
590.1880, 27248.13
591.3590, 32834.95
592.5290, 39976.76
593.7000, 45779.53
594.8700, 48313.28
596.0400, 45202.01
597.2090, 36985.71
598.3790, 26183.40
599.5490, 16754.06
600.7180, 11930.73
601.8870, 7457.394
603.0560, 6329.074
604.2250, 5385.767
605.3940, 3702.469
606.5620, 3458.187
607.7300, 2664.894
608.8990, 1948.574
610.0670, 1765.229
611.2350, 1550.857
612.4020, 1228.457
613.5700, 1222.030
614.7370, 1086.576
615.9050, 917.0942
617.0720, 717.5850
618.2390, 711.0469
619.4060, 501.4814
620.5720, 492.8877
621.7390, 619.2656
622.9050, 542.6143
624.0710, 488.9346
625.2370, 394.2261
626.4030, 283.4907
627.5690, 323.7275
628.7340, 246.9380
629.9000, 268.1187
631.0650, 305.2720
632.2300, 203.3960
633.3950, 126.5020
634.5600, 159.5791
635.7240, 102.6333
636.8890, 196.8218
638.0530, 235.0420
639.2170, 115.0073
640.3810, 176.9404
641.5450, 139.7466
642.7080, 78.03613
643.8720, 193.3564
645.0350, 16.01221
646.1980, 123.2715
647.3610, 147.9395
648.5240, 89.59277
649.6870, 44.20703
650.8490, 145.7739
652.0120, 56.30371
653.1740, 76.86719
654.3360, 130.3105
655.4980, 96.71582
656.6600, 132.6470
657.8210, 150.9536
658.9830, 163.6982
660.1440, 172.9497
661.3050, 201.1631
662.4660, 167.3389
663.6270, 151.4771
664.7870, 181.2007
665.9480, 231.6338
667.1080, 221.6562
668.2680, 230.6416
669.4280, 234.5898
670.5880, 153.5005
671.7480, 121.3716
672.9070, 29.20117
674.0670, 38.96973
675.2260, 92.31836
676.3850, 15.26953
677.5440, 146.2090
678.7030, 200.8408
679.8610, 50.65381
681.0200, 153.5693
682.1780, 30.64111
683.3360, 73.80566
684.4940, 150.0845
685.6520, 160.5186
686.8090, 120.1128
687.9670, 132.8457
689.1240, 60.72412
690.2810, 75.69385
691.4380, 44.81201
692.5950, 86.01270
693.7520, 96.33301
694.9080, 117.7788
696.0650, 104.0190
697.2210, 91.07227
698.3770, 58.90430
699.5330, 62.84131
700.6880, 44.34863
701.8440, 19.24072
702.9990, 10.75537
704.1550, 74.46826
705.3100, 81.13721
706.4650, 139.5962
707.6190, 162.3560
708.7740, 234.9102
709.9290, 226.4292
711.0830, 268.1147
712.2370, 368.3613
713.3910, 400.7744
714.5450, 533.1533
715.6980, 671.4976
716.8520, 754.8071
718.0050, 837.0830
719.1580, 853.3242
720.3110, 1055.531
721.4640, 1213.705
722.6170, 1475.845
723.7700, 1461.951
724.9220, 1828.024
726.0740, 2048.065
727.2260, 2076.072
728.3780, 2374.048
729.5300, 2435.990
730.6810, 2704.900
731.8330, 2880.779
732.9840, 2905.625
734.1350, 2891.439
735.2860, 2960.223
736.4370, 2837.035
737.5880, 2790.666
738.7380, 2721.387
739.8880, 2380.046
741.0390, 2566.674
742.1890, 1953.451
743.3380, 1955.920
744.4880, 1726.378
745.6380, 1625.886
746.7870, 1509.363
747.9360, 1242.810
749.0850, 1136.227
750.2340, 1021.615
751.3830, 783.9727
752.5310, 725.3027
753.6800, 782.6035
754.8280, 556.8760
755.9760, 436.1201
757.1240, 539.3369
758.2720, 389.5317
759.4190, 430.6992
760.5670, 247.8394
761.7140, 336.9526
762.8610, 306.0391
764.0080, 190.1001
765.1550, 235.7178
766.3020, 174.1426
767.4480, 204.1255
768.5950, 166.0830
769.7410, 150.0161
770.8870, 77.92432
772.0330, 109.5205
773.1780, 84.22803
774.3240, 66.26123
775.4690, 6.659180
776.6140, 45.92188
777.7590, 52.95801
778.9040, 66.96582
780.0490, 22.87305
781.1940, 44.94824
782.3380, 69.26367
783.4820, 5.890625
784.6260, 107.8311
785.7700, 69.67480
786.9140, 79.42969
788.0580, 124.3730
789.2010, 65.38574
790.3450, 5.549805
791.4880, 132.0566
792.6310, 232.9434
793.7730, 138.6201
794.9160, 164.4814
796.0590, 271.4004
797.2010, 296.3564
798.3430, 309.3359
799.4850, 175.4170
800.6270, 218.3398
801.7690, 331.1836
802.9100, 218.1357
804.0520, 297.2588
805.1930, 370.3535
806.3340, 341.4502
807.4750, 325.5332
808.6160, 319.3057
809.7560, 530.9326
810.8970, 405.5908
812.0370, 485.6055
813.1770, 382.8418
814.3170, 403.7461
815.4570, 375.5420
816.5960, 485.8848
817.7360, 531.6357
818.8750, 636.9111
820.0140, 667.8926
821.1530, 840.1562
822.2920, 1049.628
823.4310, 1139.445
824.5690, 1203.805
825.7070, 1360.374
826.8460, 1419.483
827.9840, 1666.670
829.1220, 1986.815
830.2590, 2331.399
831.3970, 2707.360
832.5340, 2962.717
833.6710, 3084.552
834.8080, 3435.947
835.9450, 3625.404
837.0820, 3729.658
838.2190, 3995.121
839.3550, 4260.213
840.4910, 4211.222
841.6270, 4332.655
842.7630, 4442.254
843.8990, 4178.620
845.0350, 3959.268
846.1700, 3693.408
847.3060, 3505.564
848.4410, 3346.736
849.5760, 2943.924
850.7100, 2860.127
851.8450, 2690.348
852.9800, 2669.585
854.1140, 2536.840
855.2480, 2378.112
856.3820, 2474.402
857.5160, 2362.712
858.6500, 2374.040
859.7830, 2432.388
860.9170, 2615.754
862.0500, 2669.142
863.1830, 2877.549
864.3160, 3158.977
865.4480, 3383.975
866.5810, 3725.306
867.7130, 4077.389
868.8460, 4449.902
869.9780, 4977.439
871.1100, 5396.998
872.2410, 6126.583
873.3730, 6794.189
874.5050, 7599.820
875.6360, 8170.475
876.7670, 8508.156
877.8980, 9078.857
879.0290, 9120.623
880.1590, 9187.413
881.2900, 8935.191
882.4200, 8604.001
883.5500, 8132.834
884.6800, 7408.697
885.8100, 6840.586
886.9400, 5975.506
888.0690, 5399.580
889.1990, 4891.557
890.3280, 4594.559
891.4570, 4230.613
892.5860, 3942.676
893.7140, 3919.111
894.8430, 3828.566
895.9710, 3950.808
897.1000, 4039.458
898.2280, 4096.263
899.3560, 4025.908
900.4830, 4272.413
901.6110, 4357.747
902.7380, 4473.114
903.8660, 4400.572
904.9930, 4597.006
906.1200, 4398.487
907.2460, 4309.002
908.3730, 4004.554
909.5000, 3783.038
910.6260, 3657.650
911.7520, 3211.112
912.8780, 2651.836
914.0040, 2335.070
915.1290, 2101.532
916.2550, 1989.374
917.3800, 1770.758
918.5050, 1617.835
919.6300, 1335.248
920.7550, 1240.304
921.8800, 1191.377
923.0040, 1083.494
924.1290, 1073.669
925.2530, 890.8828
926.3770, 871.4570
927.5010, 885.4131
928.6250, 772.7822
929.7480, 886.1934
930.8720, 861.6641
931.9950, 850.1748
933.1180, 777.7285
934.2410, 854.3252
935.3640, 716.9629
936.4860, 775.6514
937.6090, 815.3994
938.7310, 853.1904
939.8530, 920.0850
940.9750, 962.9346
942.0970, 1039.881
943.2180, 1066.337
944.3400, 1108.598
945.4610, 1154.077
946.5820, 1117.265
947.7030, 1120.506
948.8240, 1203.834
949.9450, 1289.221
951.0650, 1167.709
952.1860, 1271.314
953.3060, 1296.001
954.4260, 1267.812
955.5460, 1247.694
956.6650, 1319.680
957.7850, 1225.781
958.9040, 1264.988
960.0230, 1115.312
961.1420, 1179.738
962.2610, 1119.262
963.3800, 1253.871
964.4990, 984.5566
965.6170, 941.3291
966.7350, 946.2012
967.8530, 1016.171
968.9710, 1008.235
970.0890, 790.3926
971.2070, 875.6309
972.3240, 728.0479
973.4410, 663.0625
974.5580, 586.8135
975.6750, 494.3457
976.7920, 534.9268
977.9090, 394.5762
979.0250, 392.2764
980.1410, 422.0234
981.2580, 303.8164
982.3740, 310.6338
983.4890, 215.5762
984.6050, 244.5254
985.7200, 177.5215
986.8360, 172.5605
987.9510, 63.64648
989.0660, 198.7783
990.1810, 85.95703
991.2950, 165.1816
992.4100, 228.4570
993.5240, 258.7812
994.6390, 119.1562
995.7530, 305.5781
996.8660, 129.0508
997.9800, 248.5713
999.0940, 233.1553
1000.207, 94.78516
1001.320, 228.4639
1002.433, 209.1904
1003.546, 202.9629
1004.659, 258.7812
1005.772, 117.6426
1006.884, 188.5498
1007.996, 122.5010
1009.108, 339.4971
1010.220, 171.5381
1011.332, 214.6270
1012.444, 3.237305
1013.555, 3.056641
1014.666, 128.1729
1015.777, 175.4707
1016.888, 111.8154
1017.999, 96.20410
1019.110, 91.95312
1020.220, 30.42871
1021.331, 18.04980
1022.441, 156.5127
1023.551, 58.12109
1024.661, 0.2285160
1025.770, 18.46484
1026.880, 97.78906
1027.989, 57.54688
1029.098, 1.398438
1030.207, 1.461914
1031.316, 15.88770
1032.425, 38.83203
1033.533, 63.81738
1034.642, 27.24023
1035.750, 127.3350
1036.858, 9.525391
1037.966, 285.6543
1039.073, 115.5176
1040.181, 98.77832
1041.288, 188.7363
1042.396, 148.7598
1043.503, 236.1416
1044.610, 254.5830
1045.716, 44.06543
1046.823, 45.41211
1047.929, 82.14453
1049.036, 113.7598
1050.142, 171.7285
1051.248, 287.4395
1052.353, 98.54590
1053.459, 176.2822
1054.564, 186.1533
1055.670, 222.5928
1056.775, 139.7930
1057.880, 209.7734
1058.985, 265.7568
1060.089, 191.8105
1061.194, 412.1104
1062.298, 314.2217
1063.402, 519.7490
1064.506, 257.9482
1065.610, 202.1807
1066.713, 187.4844
1067.817, 287.7842
1068.920, 283.7422
1070.023, 191.8105
1071.126, 304.2070
1072.229, 292.8828
1073.332, 400.4160
1074.435, 557.5166
1075.537, 516.8760
1076.639, 550.0400
1077.741, 487.8633
1078.843, 513.9346
1079.945, 438.5752
1081.046, 502.2451
1082.148, 541.9414
1083.249, 580.6660
1084.350, 481.4189
1085.451, 542.2549
1086.551, 594.7910
1087.652, 504.6221
1088.752, 707.6387
1089.853, 631.2061
1090.953, 611.1104
1092.053, 709.9121
1093.152, 663.1133
1094.252, 634.2109
1095.351, 585.3711
1096.451, 642.3838
1097.550, 485.4170
1098.649, 505.7861
1099.748, 567.0488
1100.846, 562.7275
1101.945, 440.9189
1103.043, 377.2148
1104.141, 149.3574
1105.239, 387.5186
1106.337, 322.7744
1107.434, 183.9658
1108.532, 361.1729
1109.629, 240.9941
1110.726, 302.8379
1111.823, 216.0879
1112.920, 224.3525
1114.017, 290.0713
1115.113, 227.3623
1116.210, 277.6641
1117.306, 329.9805
1118.402, 479.3066
1119.498, 363.6455
1120.593, 260.9961
1121.689, 385.4414
1122.784, 458.1270
1123.879, 397.3467
1124.974, 275.5361
1126.069, 321.9961
1127.164, 220.0586
1128.259, 222.5029
1129.353, 121.2383
1130.447, 120.1807
1131.541, 197.6289
1132.635, 169.9580
1133.729, 161.7998
1134.822, 129.5898
1135.916, 117.0674
1137.009, 67.55176
1138.102, 82.04199
1139.195, 94.53613
1140.288, 121.0371
1141.380, 105.9062
1142.473, 131.0801
1143.565, 93.83594
1144.657, 92.75586
1145.749, 121.4141
1146.841, 75.40039
1147.932, 55.68750
1149.024, 142.2178
1150.115, 10.24902
1151.206, 224.2822
1152.297, 71.33203
1153.388, 24.73828
1154.479, 57.63379
1155.569, 34.17090
1156.659, 33.68750
1157.750, 34.32617
1158.839, 15.43750
1159.929, 4.760742
1161.019, 121.7422
1162.108, 79.74512
1163.198, 87.75000
1164.287, 27.24414
1165.376, 32.84180
1166.465, 9.250000
1167.553, 96.66309
1168.642, 57.06934
1169.730, 73.46484
1170.818, 19.96289
1171.906, 10.34180
1172.994, 106.9287
1174.082, 126.4297
1175.170, 16.21680
1176.257, 41.48926
1177.344, 43.82227
1178.431, 57.76172
1179.518, 110.3506
1180.605, 2.663086
1181.691, 118.9648
1182.778, 3.260742
1183.864, 82.45605
1184.950, 30.77637
1186.036, 1.000000
1187.122, 31.79102
1188.207, 70.38965
1189.292, 77.43945
1190.378, 42.67676
1191.463, 13.15527
1192.548, 42.60352
1193.632, 45.31055
1194.717, 57.73242
1195.801, 59.76660
1196.886, 24.78906
1197.970, 86.79980
1199.054, 10.20117
1200.137, 45.22949
1201.221, 53.69727
1202.305, 18.38867
1203.388, 31.50586
1204.471, 14.33594
1205.554, 40.83984
1206.637, 11.06250
1207.719, 73.31738
1208.802, 22.36133
1209.884, 84.02246
1210.966, 116.6689
1212.048, 130.2432
1213.130, 76.92090
1214.212, 85.52637
1215.293, 14.11523
1216.374, 46.32129
1217.456, 154.1855
1218.536, 35.32227
1219.617, 10.88379
1220.698, 137.7236
1221.778, 43.89453
1222.859, 44.42969
1223.939, 30.20508
1225.019, 50.83691
1226.099, 98.20117
1227.178, 113.7188
1228.258, 2.017578
1229.337, 54.53125
1230.417, 41.19141
1231.496, 25.13965
1232.574, 100.6895
1233.653, 99.22070
1234.732, 130.2744
1235.810, 12.31152
1236.888, 111.3096
1237.966, 102.2939
1239.044, 19.74414
1240.122, 39.16309
1241.199, 95.04004
1242.277, 94.89941
1243.354, 21.25977
1244.431, 91.52246
1245.508, 125.2861
1246.585, 127.0352
1247.661, 252.7646
1248.738, 198.4756
1249.814, 155.1729
1250.890, 88.88867
1251.966, 76.69824
1253.042, 58.28223
1254.117, 60.82227
1255.193, 53.62402
1256.268, 68.17676
1257.343, 56.70312
1258.418, 85.51270
1259.493, 13.01465
1260.567, 178.3975
1261.642, 65.79004
1262.716, 73.20703
1263.790, 193.5420
