##NAMES=Chloritoid
##RRUFFID=R050334
##IDEAL CHEMISTRY=Fe^2+^Al_2_OSiO_4_(OH)_2_
##LOCALITY=Selçuk, Mugla Province, Turkey
##OWNER=RRUFF
##SOURCE=George Rossman
##DESCRIPTION=Dark greenish-black foliated cleavage fragments
##STATUS=The identification of this mineral is confirmed by single-crystal X-ray diffraction and chemical analysis.
##URL=rruff.info/R050334
##MEASURED CHEMISTRY=(Fe^2+^_1.84_Mg_0.12_Mn_0.04_)_Σ=2_(Al_3.95_Fe^3+^_0.05_)_Σ=4_Si_2.00_O_10_(OH)_4_ ; H not measured but estimated by difference and stoichiometry
##PIN_ID=M00213
##ORIENTATION=Laser parallel to a* (1 0 0). Fiducial mark perpendicular to laser is parallel to -b [0 -1 0]
89.77700, 0.0000000E+00
91.01200, 3.141113
92.24600, 210.8259
93.48000, 47.93701
94.71400, 3.518066
95.94800, 78.98584
97.18200, 110.5864
98.41600, 123.5583
99.64900, 133.4521
100.8830, 412.8352
102.1160, 819.7949
103.3490, 1327.119
104.5820, 1593.583
105.8150, 2172.398
107.0470, 2000.567
108.2800, 2006.966
109.5120, 1643.543
110.7440, 1597.478
111.9760, 1076.486
113.2080, 1210.817
114.4400, 889.6638
115.6710, 631.2224
116.9030, 368.9331
118.1340, 297.9316
119.3650, 380.8604
120.5960, 486.8821
121.8270, 358.9895
123.0580, 119.2285
124.2880, 41.16235
125.5190, 138.5554
126.7490, 218.0815
127.9790, 242.6465
129.2090, 118.2405
130.4390, 7.142334
131.6680, 76.50562
132.8980, 23.14673
134.1270, 18.81030
135.3560, 176.4827
136.5850, 136.1199
137.8140, 249.8403
139.0430, 82.51758
140.2710, 17.19092
141.5000, 44.14160
142.7280, 122.5210
143.9560, 142.1780
145.1840, 139.8289
146.4120, 83.47559
147.6390, 208.1177
148.8670, 452.7537
150.0940, 441.3840
151.3210, 353.0081
152.5490, 311.6289
153.7750, 200.4175
155.0020, 155.7195
156.2290, 100.7783
157.4550, 62.46021
158.6810, 132.5398
159.9080, 273.4146
161.1340, 458.7588
162.3590, 462.3796
163.5850, 561.8606
164.8110, 582.9448
166.0360, 616.4319
167.2610, 814.8872
168.4860, 794.3240
169.7110, 652.7417
170.9360, 547.1409
172.1610, 643.5215
173.3850, 518.8838
174.6100, 601.2241
175.8340, 565.5420
177.0580, 597.8376
178.2820, 592.1116
179.5050, 603.3660
180.7290, 640.5991
181.9520, 701.8130
183.1760, 826.0107
184.3990, 904.1440
185.6220, 953.2227
186.8450, 961.2878
188.0670, 1091.342
189.2900, 1179.363
190.5120, 1356.356
191.7340, 1322.343
192.9560, 1464.321
194.1780, 1575.294
195.4000, 1635.261
196.6220, 1814.222
197.8430, 1917.177
199.0640, 2052.125
200.2860, 2085.065
201.5070, 2258.997
202.7270, 2463.033
203.9480, 1091.952
205.1690, 872.8640
206.3890, 773.7700
207.6090, 753.6707
208.8290, 718.5659
210.0490, 711.4563
211.2690, 651.3423
212.4890, 556.2236
213.7080, 499.9417
214.9280, 397.2964
216.1470, 328.1375
217.3660, 230.3813
218.5850, 144.9709
219.8030, 130.5356
221.0220, 129.0085
222.2400, 152.2134
223.4590, 111.4746
224.6770, 21.98804
225.8950, 51.08521
227.1120, 20.07788
228.3300, 37.92505
229.5480, 27.92554
230.7650, 41.06836
231.9820, 44.04932
233.1990, 77.97046
234.4160, 29.87231
235.6330, 106.7720
236.8490, 157.7622
238.0660, 186.8252
239.2820, 261.1152
240.4980, 352.0076
241.7140, 378.1973
242.9300, 456.2954
244.1460, 396.5347
245.3610, 523.8015
246.5770, 445.0625
247.7920, 469.2971
249.0070, 467.5117
250.2220, 567.7046
251.4370, 464.8813
252.6510, 435.0461
253.8660, 483.1902
255.0800, 755.3284
256.2940, 734.4910
257.5080, 699.7478
258.7220, 865.3364
259.9360, 532.2759
261.1490, 504.2214
262.3630, 528.0957
263.5760, 640.9817
264.7890, 716.8779
266.0020, 953.7844
267.2150, 1232.702
268.4270, 1572.629
269.6400, 2170.545
270.8520, 2754.153
272.0640, 3110.101
273.2760, 3529.052
274.4880, 3828.007
275.7000, 3861.966
276.9120, 3774.944
278.1230, 3397.621
279.3340, 2891.230
280.5450, 2366.821
281.7560, 2070.800
282.9670, 1695.781
284.1780, 1350.767
285.3880, 1089.682
286.5980, 858.8735
287.8090, 816.4160
289.0190, 555.4175
290.2290, 521.4231
291.4380, 488.4326
292.6480, 407.4141
293.8570, 440.4321
295.0670, 413.4546
296.2760, 380.4814
297.4850, 385.2896
298.6930, 352.9539
299.9020, 346.5867
301.1110, 332.6272
302.3190, 287.6653
303.5270, 318.6033
304.7350, 261.6104
305.9430, 242.5405
307.1510, 225.4629
308.3580, 199.3792
309.5660, 81.29517
310.7730, 103.2114
311.9800, 92.12817
313.1870, 46.04590
314.3940, 102.8604
315.6010, 116.8835
316.8070, 187.8042
318.0130, 218.7258
319.2200, 264.6487
320.4260, 381.5732
321.6310, 543.4995
322.8370, 687.4272
324.0430, 754.3567
325.2480, 921.2883
326.4540, 894.2219
327.6590, 892.1575
328.8640, 769.0955
330.0680, 654.0359
331.2730, 468.9790
332.4780, 370.9250
333.6820, 270.8740
334.8860, 202.8259
336.0900, 116.7810
337.2940, 77.46265
338.4980, 10.70117
339.7010, 0.6652830
340.9050, 37.84766
342.1080, 57.41235
343.3110, 74.46851
344.5140, 65.54248
345.7170, 60.63159
346.9200, 206.7344
348.1220, 163.8899
349.3240, 177.0857
350.5270, 114.3259
351.7290, 115.3352
352.9310, 149.8884
354.1320, 89.21948
355.3340, 51.57129
356.5350, 22.93311
357.7370, 2.702148
358.9380, 15.34009
360.1390, 52.98047
361.3400, 55.60962
362.5400, 94.20020
363.7410, 81.75586
364.9410, 59.20557
366.1410, 139.5740
367.3410, 120.8826
368.5410, 130.0400
369.7410, 79.35742
370.9400, 103.2642
372.1400, 164.6038
373.3390, 188.5388
374.5380, 230.1550
375.7370, 338.0647
376.9360, 380.0212
378.1350, 392.1599
379.3330, 522.0435
380.5310, 550.3374
381.7300, 593.7021
382.9280, 525.0725
384.1260, 599.4470
385.3230, 567.8354
386.5210, 639.2329
387.7180, 611.6428
388.9160, 595.0684
390.1130, 665.5063
391.3100, 644.9651
392.5060, 604.4392
393.7030, 654.9338
394.9000, 656.4612
396.0960, 750.0193
397.2920, 878.6113
398.4880, 901.2095
399.6840, 1139.837
400.8800, 1313.490
402.0750, 1543.164
403.2710, 1782.879
404.4660, 2111.604
405.6610, 2330.366
406.8560, 2457.153
408.0510, 2573.956
409.2450, 2454.799
410.4400, 2423.677
411.6340, 2092.587
412.8280, 1984.505
414.0220, 1647.447
415.2160, 1523.417
416.4100, 1320.410
417.6030, 1207.425
418.7970, 1014.811
419.9900, 1029.681
421.1830, 1014.329
422.3760, 970.4087
423.5690, 812.1831
424.7610, 801.6260
425.9540, 731.8701
427.1460, 659.7397
428.3380, 669.9695
429.5300, 616.5283
430.7220, 582.6848
431.9140, 482.8589
433.1050, 450.0366
434.2970, 521.2188
435.4880, 541.4048
436.6790, 561.5952
437.8700, 540.7896
439.0610, 534.9883
440.2510, 586.1899
441.4420, 565.3962
442.6320, 579.6060
443.8220, 682.8196
445.0120, 574.0366
446.2020, 711.2576
447.3910, 683.4822
448.5810, 665.7109
449.7700, 833.9434
450.9600, 780.1797
452.1490, 774.4199
453.3370, 870.6646
454.5260, 957.9128
455.7150, 998.1646
456.9030, 1034.335
458.0910, 1031.594
459.2800, 1040.858
460.4670, 1132.125
461.6550, 1123.395
462.8430, 1168.669
464.0300, 1234.946
465.2180, 1271.227
466.4050, 1442.511
467.5920, 1444.798
468.7790, 1522.089
469.9650, 1589.383
471.1520, 1497.679
472.3380, 1504.979
473.5250, 1597.282
474.7110, 1489.588
475.8970, 1429.897
477.0820, 1385.208
478.2680, 1409.832
479.4540, 1450.744
480.6390, 1561.158
481.8240, 1658.305
483.0090, 1817.646
484.1940, 2017.604
485.3780, 2225.024
486.5630, 2601.714
487.7470, 2894.982
488.9320, 3256.582
490.1160, 3596.031
491.3000, 3669.190
492.4830, 3837.543
493.6670, 3741.857
494.8500, 3709.133
496.0340, 3428.313
497.2170, 3228.282
498.4000, 3071.641
499.5820, 2968.812
500.7650, 2856.226
501.9480, 2815.316
503.1300, 2734.841
504.3120, 2625.346
505.4940, 2619.945
506.6760, 2561.511
507.8580, 2357.108
509.0390, 2076.988
510.2210, 2109.947
511.4020, 1824.860
512.5830, 1761.643
513.7640, 1667.208
514.9450, 1595.777
516.1250, 1589.952
517.3060, 1623.871
518.4860, 1598.435
519.6660, 1668.042
520.8460, 1680.659
522.0260, 1827.553
523.2060, 1892.238
524.3850, 1862.014
525.5650, 1834.702
526.7440, 1645.944
527.9230, 1535.787
529.1020, 1537.901
530.2810, 1266.050
531.4590, 1193.354
532.6380, 1025.826
533.8160, 1018.827
534.9940, 1046.933
536.1720, 1044.215
537.3500, 1025.848
538.5270, 1237.157
539.7050, 1358.232
540.8820, 1614.374
542.0590, 1942.001
543.2360, 2290.110
544.4130, 2582.727
545.5900, 2760.485
546.7660, 2861.022
547.9430, 2644.296
549.1190, 2365.120
550.2950, 1916.907
551.4710, 1638.189
552.6470, 1500.911
553.8220, 1179.040
554.9980, 1090.831
556.1730, 906.3850
557.3480, 828.0093
558.5230, 847.0820
559.6980, 708.7935
560.8730, 767.8350
562.0470, 798.0742
563.2220, 781.2166
564.3960, 769.7744
565.5700, 828.2632
566.7440, 881.8069
567.9170, 956.3433
569.0910, 1169.873
570.2640, 1114.394
571.4380, 1375.908
572.6110, 1612.415
573.7840, 1764.914
574.9570, 2199.404
576.1290, 2706.887
577.3020, 3365.361
578.4740, 4504.829
579.6460, 6179.286
580.8180, 8792.736
581.9900, 13135.18
583.1620, 20734.61
584.3330, 31002.04
585.5040, 41112.45
586.6760, 47705.86
587.8470, 52594.25
589.0180, 53744.64
590.1880, 47711.03
591.3590, 37610.39
592.5290, 27708.75
593.7000, 20806.10
594.8700, 15644.45
596.0400, 11996.78
597.2090, 9216.102
598.3790, 6773.415
599.5490, 5078.718
600.7180, 3943.011
601.8870, 3167.295
603.0560, 2527.568
604.2250, 2125.832
605.3940, 1768.085
606.5620, 1534.328
607.7300, 1369.561
608.8990, 1125.783
610.0670, 1017.994
611.2350, 892.1948
612.4020, 773.3845
613.5700, 729.5635
614.7370, 645.7319
615.9050, 579.8889
617.0720, 469.0352
618.2390, 426.1704
619.4060, 449.2942
620.5720, 357.4072
621.7390, 332.5083
622.9050, 315.5991
624.0710, 442.6809
625.2370, 791.7627
626.4030, 802.8494
627.5690, 842.9458
628.7340, 931.3438
629.9000, 801.4526
631.0650, 834.6055
632.2300, 572.2590
633.3950, 407.9329
634.5600, 108.2502
635.7240, 56.82324
636.8890, 98.10938
638.0530, 240.4072
639.2170, 383.8860
640.3810, 258.5950
641.5450, 252.0747
642.7080, 43.03198
643.8720, 52.57715
645.0350, 34.01782
646.1980, 46.67114
647.3610, 44.23584
648.5240, 21.13623
649.6870, 16.02344
650.8490, 4.835693
652.0120, 29.31348
653.1740, 67.17505
654.3360, 71.21973
655.4980, 93.05615
656.6600, 90.64600
657.8210, 107.6812
658.9830, 77.70117
660.1440, 76.70605
661.3050, 32.69556
662.4660, 63.66602
663.6270, 45.62109
664.7870, 65.55835
665.9480, 2.520020
667.1080, 40.36963
668.2680, 0.2412110
669.4280, 15.91797
670.5880, 2.116455
671.7480, 36.34717
672.9070, 12.62842
674.0670, 29.94800
675.2260, 80.31494
676.3850, 69.75610
677.5440, 80.31885
678.7030, 30.14990
679.8610, 61.45483
681.0200, 53.12378
682.1780, 28.85327
683.3360, 100.6304
684.4940, 9.507324
685.6520, 83.38232
686.8090, 47.34863
687.9670, 8.371826
689.1240, 103.4324
690.2810, 79.57959
691.4380, 70.80078
692.5950, 25.90820
693.7520, 40.40381
694.9080, 52.76929
696.0650, 38.19482
697.2210, 29.67212
698.3770, 24.19653
699.5330, 29.76587
700.6880, 1.381592
701.8440, 32.02979
702.9990, 79.27441
704.1550, 10.56274
705.3100, 145.8259
706.4650, 98.07373
707.6190, 102.3066
708.7740, 162.5244
709.9290, 222.7268
711.0830, 299.9141
712.2370, 345.0867
713.3910, 422.2441
714.5450, 406.3867
715.6980, 515.5146
716.8520, 587.6279
718.0050, 703.7266
719.1580, 762.8105
720.3110, 909.8799
721.4640, 1062.935
722.6170, 1157.976
723.7700, 1272.002
724.9220, 1380.014
726.0740, 1429.012
727.2260, 1478.285
728.3780, 1528.594
729.5300, 1512.922
730.6810, 1548.865
731.8330, 1564.793
732.9840, 1484.708
734.1350, 1448.609
735.2860, 1315.497
736.4370, 1279.372
737.5880, 1183.233
738.7380, 982.0811
739.8880, 926.9158
741.0390, 955.7378
742.1890, 738.5466
743.3380, 730.3430
744.4880, 580.1265
745.6380, 462.8972
746.7870, 505.6555
747.9360, 403.4014
749.0850, 294.1348
750.2340, 274.8560
751.3830, 255.5654
752.5310, 235.8745
753.6800, 214.8311
754.8280, 232.6240
755.9760, 185.2883
757.1240, 127.9414
758.2720, 138.5896
759.4190, 139.2263
760.5670, 105.8523
761.7140, 109.4668
762.8610, 119.0706
764.0080, 136.6633
765.1550, 55.24536
766.3020, 16.18335
767.4480, 35.36377
768.5950, 47.90015
769.7410, 44.42554
770.8870, 81.93994
772.0330, 51.44775
773.1780, 1.055664
774.3240, 29.37939
775.4690, 13.84961
776.6140, 21.69141
777.7590, 2.742676
778.9040, 12.16577
780.0490, 14.57959
781.1940, 22.13916
782.3380, 20.84839
783.4820, 25.42285
784.6260, 24.46021
785.7700, 26.29614
786.9140, 18.57251
788.0580, 17.35815
789.2010, 20.81372
790.3450, 110.1409
791.4880, 21.68823
792.6310, 53.47412
793.7730, 20.68579
794.9160, 20.88916
796.0590, 51.08447
797.2010, 66.23633
798.3430, 59.37427
799.4850, 82.23535
800.6270, 118.3018
801.7690, 100.2759
802.9100, 34.33374
804.0520, 74.83472
805.1930, 73.73340
806.3340, 126.3579
807.4750, 57.94458
808.6160, 166.3745
809.7560, 103.6338
810.8970, 108.3616
812.0370, 199.9829
813.1770, 170.4248
814.3170, 116.5137
815.4570, 186.9258
816.5960, 290.5696
817.7360, 194.1436
818.8750, 258.2314
820.0140, 280.8359
821.1530, 277.9297
822.2920, 351.8652
823.4310, 415.0540
824.5690, 468.4875
825.7070, 583.3691
826.8460, 665.2878
827.9840, 700.7095
829.1220, 803.6899
830.2590, 918.2634
831.3970, 1040.173
832.5340, 1112.334
833.6710, 1177.865
834.8080, 1236.022
835.9450, 1267.010
837.0820, 1270.667
838.2190, 1313.125
839.3550, 1307.681
840.4910, 1312.820
841.6270, 1159.028
842.7630, 1264.181
843.8990, 1190.341
845.0350, 1255.508
846.1700, 1238.683
847.3060, 1200.865
848.4410, 1242.055
849.5760, 1341.253
850.7100, 1250.459
851.8450, 1344.674
852.9800, 1396.896
854.1140, 1420.127
855.2480, 1501.367
856.3820, 1514.616
857.5160, 1599.874
858.6500, 1774.142
859.7830, 1901.418
860.9170, 2129.704
862.0500, 2261.000
863.1830, 2652.306
864.3160, 2896.622
865.4480, 3458.948
866.5810, 3832.285
867.7130, 4483.632
868.8460, 4896.990
869.9780, 5517.360
871.1100, 6282.739
872.2410, 6690.130
873.3730, 7359.532
874.5050, 7685.947
875.6360, 7867.373
876.7670, 8057.811
877.8980, 7706.258
879.0290, 7140.721
880.1590, 6933.195
881.2900, 6407.681
882.4200, 5997.179
883.5500, 5322.691
884.6800, 4815.222
885.8100, 4479.767
886.9400, 4158.326
888.0690, 3802.897
889.1990, 3571.483
890.3280, 3413.589
891.4570, 3223.209
892.5860, 3194.842
893.7140, 3178.973
894.8430, 3155.638
895.9710, 3210.324
897.1000, 3324.024
898.2280, 3346.739
899.3560, 3422.468
900.4830, 3471.212
901.6110, 3462.971
902.7380, 3365.450
903.8660, 3272.248
904.9930, 3035.060
906.1200, 2773.889
907.2460, 2699.626
908.3730, 2513.490
909.5000, 2288.057
910.6260, 2208.954
911.7520, 2024.867
912.8780, 1932.434
914.0040, 1736.680
915.1290, 1632.992
916.2550, 1529.987
917.3800, 1460.725
918.5050, 1396.571
919.6300, 1313.216
920.7550, 1248.347
921.8800, 1174.635
923.0040, 1124.779
924.1290, 1074.946
925.2530, 1048.101
926.3770, 972.3159
927.5010, 1027.504
928.6250, 953.7566
929.7480, 928.0317
930.8720, 1057.326
931.9950, 1038.641
933.1180, 950.9766
934.2410, 1066.339
935.3640, 1052.728
936.4860, 1109.156
937.6090, 1195.604
938.7310, 1145.082
939.8530, 1107.604
940.9750, 1104.147
942.0970, 1227.718
943.2180, 1283.328
944.3400, 1245.967
945.4610, 1258.643
946.5820, 1265.351
947.7030, 1393.096
948.8240, 1355.891
949.9450, 1414.732
951.0650, 1477.626
952.1860, 1437.547
953.3060, 1395.671
954.4260, 1364.497
955.5460, 1305.301
956.6650, 1248.715
957.7850, 1166.884
958.9040, 1138.108
960.0230, 1023.377
961.1420, 1047.679
962.2610, 947.0371
963.3800, 883.4561
964.4990, 867.9238
965.6170, 845.4177
966.7350, 783.7346
967.8530, 803.5435
968.9710, 692.1731
970.0890, 625.8398
971.2070, 614.5425
972.3240, 631.2852
973.4410, 550.0574
974.5580, 614.8672
975.6750, 590.6980
976.7920, 444.5547
977.9090, 445.4326
979.0250, 381.3313
980.1410, 426.2527
981.2580, 366.1951
982.3740, 401.1584
983.4890, 334.1428
984.6050, 289.1477
985.7200, 466.1741
986.8360, 369.2214
987.9510, 343.2915
989.0660, 287.3828
990.1810, 271.5366
991.2950, 306.6331
992.4100, 247.7917
993.5240, 321.9758
994.6390, 274.1848
995.7530, 308.4148
996.8660, 285.6702
997.9800, 284.9465
999.0940, 277.2429
1000.207, 221.5603
1001.320, 211.8979
1002.433, 220.2561
1003.546, 289.6348
1004.659, 216.0337
1005.772, 213.4531
1006.884, 146.8926
1007.996, 168.3528
1009.108, 250.8325
1010.220, 124.3330
1011.332, 120.8535
1012.444, 180.3940
1013.555, 262.9543
1014.666, 189.8440
1015.777, 150.1355
1016.888, 63.75562
1017.999, 136.7378
1019.110, 73.86719
1020.220, 69.54712
1021.331, 11.24805
1022.441, 66.96899
1023.551, 37.29077
1024.661, 48.91089
1025.770, 4.685303
1026.880, 74.52173
1027.989, 47.82300
1029.098, 46.35474
1030.207, 27.19092
1031.316, 46.04590
1032.425, 17.94312
1033.533, 78.83496
1034.642, 11.74512
1035.750, 5.673828
1036.858, 23.26001
1037.966, 76.39404
1039.073, 10.38354
1040.181, 50.79419
1041.288, 21.22266
1042.396, 17.52783
1043.503, 48.58228
1044.610, 8.653809
1045.716, 84.25928
1046.823, 29.62769
1047.929, 25.41016
1049.036, 38.73096
1050.142, 6.961914
1051.248, 40.14258
1052.353, 0.4169920
1053.459, 21.01392
1054.564, 0.7087400
1055.670, 12.26343
1056.775, 14.52148
1057.880, 61.43311
1058.985, 38.01318
1060.089, 55.35229
1061.194, 105.7122
1062.298, 77.95630
1063.402, 55.34619
1064.506, 66.25342
1065.610, 127.7258
1066.713, 115.9302
1067.817, 114.5500
1068.920, 38.34644
1070.023, 124.8220
1071.126, 109.5688
1072.229, 70.64478
1073.332, 122.2778
1074.435, 99.80615
1075.537, 71.03613
1076.639, 206.5896
1077.741, 208.1553
1078.843, 211.7329
1079.945, 194.5581
1081.046, 232.1594
1082.148, 265.7720
1083.249, 315.8186
1084.350, 357.5867
1085.451, 386.9197
1086.551, 411.1204
1087.652, 432.2109
1088.752, 456.4185
1089.853, 448.3269
1090.953, 494.6892
1092.053, 471.3232
1093.152, 446.1201
1094.252, 466.8799
1095.351, 364.0542
1096.451, 327.9780
1097.550, 360.1675
1098.649, 311.3269
1099.748, 260.6313
1100.846, 280.4500
1101.945, 298.2190
1103.043, 243.1494
1104.141, 194.6128
1105.239, 255.3992
1106.337, 143.2573
1107.434, 223.0542
1108.532, 194.8562
1109.629, 76.66309
1110.726, 95.47461
1111.823, 72.64282
1112.920, 166.4148
1114.017, 97.23975
1115.113, 142.0691
1116.210, 168.9026
1117.306, 138.7397
1118.402, 165.6343
1119.498, 222.9080
1120.593, 188.7563
1121.689, 233.6082
1122.784, 172.6802
1123.879, 188.5403
1124.974, 172.3298
1126.069, 152.2244
1127.164, 153.0908
1128.259, 116.0266
1129.353, 106.5417
1130.447, 124.7710
1131.541, 76.64624
1132.635, 49.52319
1133.729, 46.40161
1134.822, 95.28198
1135.916, 100.1636
1137.009, 160.0461
1138.102, 92.93018
1139.195, 53.81543
1140.288, 94.70093
1141.380, 56.62134
1142.473, 26.50879
1143.565, 74.39648
1144.657, 17.28442
1145.749, 103.1729
1146.841, 53.06104
1147.932, 58.94946
1149.024, 28.16235
1150.115, 9.235352
1151.206, 36.71948
1152.297, 109.8616
1153.388, 62.68262
1154.479, 79.82520
1155.569, 27.79810
1156.659, 66.05518
1157.750, 11.90698
1158.839, 9.727051
1159.929, 31.88330
1161.019, 16.94360
1162.108, 96.76880
1163.198, 4.592285
1164.287, 128.4133
1165.376, 10.23242
1166.465, 120.0498
1167.553, 27.13525
1168.642, 1.662354
1169.730, 67.45508
1170.818, 10.75439
1171.906, 80.13672
1172.994, 8.6181998E-02
1174.082, 23.68481
1175.170, 9.452881
1176.257, 3.782471
1177.344, 38.97388
1178.431, 47.68286
1179.518, 54.70728
1180.605, 46.57422
1181.691, 25.11353
1182.778, 7.797607
1183.864, 16.53223
1184.950, 0.1298830
1186.036, 14.13403
1187.122, 0.4128420
1188.207, 9.040771
1189.292, 5.662354
1190.378, 67.27612
1191.463, 26.88525
1192.548, 4.510742
1193.632, 36.08008
1194.717, 2.665527
1195.801, 15.24048
1196.886, 18.19043
1197.970, 7.643311
1199.054, 58.11230
1200.137, 25.37573
1201.221, 24.14233
1202.305, 44.68604
1203.388, 16.73315
1204.471, 42.14502
1205.554, 13.44922
1206.637, 87.93530
1207.719, 46.31323
1208.802, 61.68701
1209.884, 16.05029
1210.966, 57.40674
1212.048, 41.75610
1213.130, 12.09888
1214.212, 1.569336
1215.293, 33.74536
1216.374, 0.9470210
1217.456, 6.656982
1218.536, 38.38770
1219.617, 33.15601
1220.698, 9.040771
1221.778, 4.223389
1222.859, 29.39038
1223.939, 32.83374
1225.019, 19.30078
1226.099, 25.82080
1227.178, 16.93286
1228.258, 1.967041
1229.337, 15.11255
1230.417, 4.474609
1231.496, 45.22974
1232.574, 30.27173
1233.653, 13.30469
1234.732, 78.32275
1235.810, 37.33325
1236.888, 112.3350
1237.966, 84.32935
1239.044, 64.31543
1240.122, 50.29370
1241.199, 27.26392
1242.277, 147.2229
1243.354, 106.1738
1244.431, 72.11646
1245.508, 102.0510
1246.585, 56.97705
1247.661, 43.89526
1248.738, 25.80420
1249.814, 76.70093
1250.890, 102.5935
1251.966, 6.477539
1253.042, 52.34229
1254.117, 13.19873
1255.193, 11.04175
1256.268, 112.8667
1257.343, 10.68359
1258.418, 55.48267
1259.493, 128.2727
1260.567, 118.0544
1261.642, 124.8276
1262.716, 133.5676
1263.790, 123.3486
