##NAMES=Chloritoid
##RRUFFID=R050334
##IDEAL CHEMISTRY=Fe^2+^Al_2_OSiO_4_(OH)_2_
##LOCALITY=Selçuk, Mugla Province, Turkey
##OWNER=RRUFF
##SOURCE=George Rossman
##DESCRIPTION=Dark greenish-black foliated cleavage fragments
##STATUS=The identification of this mineral is confirmed by single-crystal X-ray diffraction and chemical analysis.
##URL=rruff.info/R050334
##MEASURED CHEMISTRY=(Fe^2+^_1.84_Mg_0.12_Mn_0.04_)_Σ=2_(Al_3.95_Fe^3+^_0.05_)_Σ=4_Si_2.00_O_10_(OH)_4_ ; H not measured but estimated by difference and stoichiometry
##PIN_ID=M01491
##ORIENTATION=Laser parallel to (1 0 1). Fiducial mark perpendicular to laser is parallel to b [0 1 0]
168.3890, 0.0000000E+00
169.6170, 12.33789
170.8450, 22.55664
172.0730, 70.97021
173.3000, 4.832520
174.5280, 49.19336
175.7550, 28.03955
176.9820, 114.1978
178.2090, 212.1733
179.4350, 31.38379
180.6620, 9.012207
181.8880, 99.73926
183.1150, 100.1904
184.3410, 198.6748
185.5670, 249.6826
186.7920, 343.7251
188.0180, 360.9932
189.2430, 407.6055
190.4690, 463.0068
191.6940, 655.6699
192.9180, 654.9951
194.1430, 721.1519
195.3680, 826.3760
196.5920, 802.3101
197.8160, 977.4707
199.0400, 1082.374
200.2640, 1357.218
201.4880, 1424.860
202.7110, 1338.200
203.9350, 964.4795
205.1580, 861.0591
206.3810, 663.0933
207.6040, 560.1240
208.8270, 649.2422
210.0490, 521.4023
211.2710, 639.6060
212.4940, 610.9053
213.7160, 758.2339
214.9370, 450.8721
216.1590, 391.7524
217.3810, 366.4771
218.6020, 289.0601
219.8230, 298.5137
221.0440, 253.8447
222.2650, 260.0527
223.4860, 253.1411
224.7060, 168.1187
225.9260, 128.9961
227.1470, 67.78369
228.3670, 97.48926
229.5860, 61.87744
230.8060, 62.69092
232.0260, 84.79834
233.2450, 42.33887
234.4640, 35.92236
235.6830, 10.54492
236.9020, 11.19873
238.1200, 7.119141
239.3390, 43.58398
240.5570, 100.6948
241.7750, 89.98535
242.9930, 221.3638
244.2110, 304.0791
245.4290, 545.4644
246.6460, 952.2173
247.8630, 1109.634
249.0810, 1564.278
250.2980, 1848.949
251.5140, 2147.658
252.7310, 2329.397
253.9470, 2429.166
255.1640, 2570.961
256.3800, 2997.896
257.5960, 3801.526
258.8120, 4035.129
260.0270, 4138.518
261.2430, 4523.136
262.4580, 3687.835
263.6730, 3008.415
264.8880, 2156.008
266.1030, 1845.624
267.3170, 1398.263
268.5320, 1253.924
269.7460, 1172.604
270.9600, 1065.286
272.1740, 1143.927
273.3880, 1245.479
274.6010, 1570.138
275.8150, 1980.929
277.0280, 2513.549
278.2410, 3163.838
279.4540, 3849.162
280.6670, 4672.523
281.8790, 6061.923
283.0920, 6504.361
284.3040, 6506.839
285.5160, 6040.807
286.7280, 5595.755
287.9400, 5074.568
289.1510, 4481.858
290.3630, 3600.758
291.5740, 3091.994
292.7850, 2434.275
293.9960, 1770.486
295.2070, 1314.173
296.4170, 979.7378
297.6280, 927.6538
298.8380, 810.6138
300.0480, 844.6177
301.2580, 809.6665
302.4680, 803.7598
303.6770, 868.8970
304.8870, 895.0786
306.0960, 801.3022
307.3050, 711.5684
308.5140, 693.8779
309.7230, 611.2295
310.9310, 607.6226
312.1400, 475.0576
313.3480, 468.5342
314.5560, 397.2588
315.7640, 290.8975
316.9720, 202.4209
318.1790, 1057.823
319.3870, 75.06885
320.5940, 44.20605
321.8010, 784.2002
323.0080, 158.2515
324.2150, 30.24805
325.4210, 2.017090
326.6280, 185.7539
327.8340, 96.58887
329.0400, 215.3755
330.2460, 390.0972
331.4510, 533.7334
332.6570, 810.2837
333.8620, 1034.759
335.0680, 1111.173
336.2730, 1090.534
337.4780, 932.8486
338.6820, 702.1250
339.8870, 536.3662
341.0910, 168.5723
342.2950, 53.74072
343.5000, 43.16162
344.7030, 117.2646
345.9070, 112.6040
347.1110, 172.1938
348.3140, 130.9639
349.5170, 172.9009
350.7200, 126.8823
351.9230, 146.8711
353.1260, 114.8726
354.3290, 36.87744
355.5310, 24.86816
356.7330, 53.90381
357.9350, 136.2075
359.1370, 194.2734
360.3390, 255.3496
361.5400, 326.4370
362.7420, 470.5352
363.9430, 734.6436
365.1440, 893.7651
366.3450, 1073.777
367.5460, 1191.846
368.7460, 1193.914
369.9470, 1117.654
371.1470, 969.1162
372.3470, 919.8535
373.5470, 848.1025
374.7460, 771.3989
375.9460, 666.1616
377.1450, 691.9009
378.3450, 499.0278
379.5440, 499.6626
380.7430, 596.9990
381.9410, 716.4092
383.1400, 942.0542
384.3380, 1126.647
385.5370, 1455.443
386.7350, 1939.194
387.9320, 2331.674
389.1300, 2682.189
390.3280, 2662.721
391.5250, 2392.267
392.7220, 1891.824
393.9190, 1452.401
395.1160, 1081.028
396.3130, 991.6934
397.5100, 758.4087
398.7060, 694.1895
399.9020, 633.0000
401.0980, 571.8398
402.2940, 621.6680
403.4900, 739.4194
404.6860, 796.1094
405.8810, 820.7729
407.0760, 927.4966
408.2710, 1011.286
409.4660, 1211.141
410.6610, 1309.074
411.8550, 1675.075
413.0500, 1993.120
414.2440, 2368.229
415.4380, 2472.392
416.6320, 2517.626
417.8260, 2485.891
419.0190, 2061.207
420.2130, 1827.571
421.4060, 1371.979
422.5990, 1160.425
423.7920, 1018.898
424.9850, 877.4263
426.1770, 759.9883
427.3700, 758.5908
428.5620, 672.2236
429.7540, 635.8833
430.9460, 566.5688
432.1380, 523.4175
433.3290, 573.0024
434.5210, 431.7495
435.7120, 505.5151
436.9030, 442.3013
438.0940, 362.1060
439.2850, 364.9297
440.4750, 467.7720
441.6660, 365.6323
442.8560, 473.5117
444.0460, 500.4082
445.2360, 528.3223
446.4260, 610.2544
447.6160, 677.0620
448.8050, 697.2905
449.9940, 874.1494
451.1830, 856.1470
452.3720, 973.1597
453.5610, 1294.189
454.7500, 1299.233
455.9380, 1338.292
457.1260, 1359.366
458.3150, 1246.441
459.5020, 1210.109
460.6900, 1186.700
461.8780, 1084.677
463.0650, 1099.624
464.2530, 1202.449
465.4400, 1105.539
466.6270, 1253.634
467.8130, 1218.425
469.0000, 1358.079
470.1870, 1487.189
471.3730, 1516.294
472.5590, 1617.412
473.7450, 1825.535
474.9310, 1998.662
476.1160, 2209.793
477.3020, 2199.930
478.4870, 2242.071
479.6720, 2233.220
480.8570, 2164.371
482.0420, 2135.529
483.2270, 2038.692
484.4110, 2041.861
485.5960, 1983.918
486.7800, 2032.323
487.9640, 2105.234
489.1480, 2231.499
490.3310, 2541.091
491.5150, 2828.344
492.6980, 3232.039
493.8810, 3762.699
495.0640, 4399.182
496.2470, 5174.747
497.4300, 6335.812
498.6120, 7019.287
499.7950, 7700.689
500.9770, 8409.157
502.1590, 7271.604
503.3410, 6662.101
504.5220, 8311.507
505.7040, 5458.884
506.8850, 5229.420
508.0660, 5346.073
509.2470, 5682.743
510.4280, 5930.568
511.6090, 6219.345
512.7890, 6245.596
513.9700, 6201.920
515.1500, 5490.263
516.3300, 4803.738
517.5100, 3820.087
518.6900, 2921.511
519.8690, 2485.660
521.0490, 2211.407
522.2280, 1782.487
523.4070, 1687.418
524.5860, 1534.064
525.7640, 1447.729
526.9430, 1425.424
528.1210, 1640.127
529.3000, 1623.838
530.4780, 1611.553
531.6560, 1601.272
532.8330, 1633.996
534.0110, 1595.807
535.1880, 1522.842
536.3650, 1475.292
537.5430, 1504.574
538.7190, 1404.904
539.8960, 1481.914
541.0730, 1542.619
542.2490, 1641.633
543.4250, 1719.664
544.6020, 2008.711
545.7780, 2504.758
546.9530, 3085.254
548.1290, 3732.759
549.3040, 4671.382
550.4800, 6077.454
551.6550, 7660.111
552.8300, 9313.777
554.0040, 10342.18
555.1790, 9978.077
556.3540, 8387.605
557.5280, 6536.060
558.7020, 4591.578
559.8760, 3339.702
561.0500, 2494.110
562.2230, 1854.493
563.3970, 1552.474
564.5700, 1298.922
565.7430, 1042.885
566.9160, 950.1890
568.0890, 998.6738
569.2620, 837.1401
570.4340, 847.4932
571.6070, 649.2500
572.7790, 742.8022
573.9510, 776.3398
575.1230, 902.8638
576.2940, 920.3730
577.4660, 1019.867
578.6370, 1033.347
579.8080, 1302.812
580.9790, 1403.261
582.1500, 1689.695
583.3210, 2095.114
584.4910, 2838.516
585.6620, 3697.903
586.8320, 5003.274
588.0020, 6874.627
589.1720, 8992.965
590.3410, 12361.29
591.5110, 17818.59
592.6800, 26762.88
593.8500, 39485.15
595.0190, 53130.39
596.1880, 57070.63
597.3560, 51429.84
598.5250, 37901.04
599.6930, 24707.22
600.8620, 15809.38
602.0300, 10223.53
603.1970, 7109.652
604.3650, 5115.758
605.5330, 3947.848
606.7000, 3082.919
607.8680, 2301.898
609.0350, 2168.004
610.2020, 1721.021
611.3680, 1524.018
612.5350, 1477.997
613.7010, 1174.777
614.8680, 1222.895
616.0340, 848.8135
617.2000, 728.7129
618.3660, 632.5923
619.5310, 581.4517
620.6970, 543.2910
621.8620, 488.4834
623.0270, 503.1973
624.1920, 413.6851
625.3570, 489.4424
626.5220, 453.1792
627.6860, 328.3145
628.8500, 398.5098
630.0140, 284.3745
631.1780, 383.1333
632.3420, 295.9028
633.5060, 188.6929
634.6700, 176.4907
635.8330, 210.3018
636.9960, 159.7500
638.1590, 136.5498
639.3220, 107.3311
640.4850, 95.87061
641.6470, 104.0391
642.8100, 94.53467
643.9720, 119.2217
645.1340, 128.8843
646.2960, 93.52490
647.4570, 68.14014
648.6190, 10.72949
649.7800, 48.28125
650.9420, 55.80566
652.1030, 2.302734
653.2640, 1.756836
654.4240, 13.83350
655.5850, 21.52490
656.7450, 27.84863
657.9060, 26.13770
659.0660, 40.39355
660.2260, 97.61865
661.3850, 49.81738
662.5450, 16.98584
663.7040, 152.1162
664.8640, 259.2212
666.0230, 238.3008
667.1820, 193.3560
668.3410, 366.3857
669.4990, 323.3896
670.6580, 240.3677
671.8160, 254.3208
672.9740, 120.2480
674.1320, 70.14893
675.2900, 83.97900
676.4480, 33.20117
677.6050, 81.49121
678.7630, 139.8750
679.9200, 7.382813
681.0770, 59.94531
682.2340, 187.5903
683.3900, 44.38477
684.5470, 76.25391
685.7030, 131.2129
686.8590, 163.2935
688.0150, 117.5093
689.1710, 124.8384
690.3270, 166.2842
691.4830, 134.8677
692.6380, 35.57227
693.7930, 123.3462
694.9480, 70.23486
696.1030, 149.2095
697.2580, 8.687012
698.4130, 65.46094
699.5670, 54.69189
700.7210, 39.00049
701.8750, 17.37744
703.0290, 28.18896
704.1830, 82.27930
705.3370, 8.837891
706.4900, 28.44775
707.6430, 2.881836
708.7970, 24.16699
709.9490, 13.41846
711.1020, 120.6323
712.2550, 136.8218
713.4070, 137.9878
714.5600, 240.1299
715.7120, 330.2480
716.8640, 391.3428
718.0160, 518.4146
719.1670, 579.6841
720.3190, 688.4873
721.4700, 753.4897
722.6210, 847.4692
723.7720, 982.4258
724.9230, 1224.359
726.0740, 1225.271
727.2250, 1564.162
728.3750, 1709.029
729.5250, 1838.875
730.6750, 2114.699
731.8250, 2195.502
732.9750, 2366.284
734.1240, 2589.044
735.2740, 2503.783
736.4230, 2542.501
737.5720, 2359.199
738.7210, 2409.877
739.8700, 2176.534
741.0190, 2143.171
742.1670, 1962.788
743.3150, 1764.386
744.4630, 1625.963
745.6110, 1475.521
746.7590, 1357.061
747.9070, 1141.582
749.0540, 1065.083
750.2020, 869.5664
751.3490, 795.0308
752.4960, 704.4771
753.6430, 552.9058
754.7890, 413.3164
755.9360, 485.7095
757.0820, 359.0850
758.2280, 285.4453
759.3740, 317.7881
760.5200, 192.1147
761.6660, 261.4297
762.8120, 204.7334
763.9570, 98.02002
765.1020, 117.2959
766.2470, 107.5000
767.3920, 54.96289
768.5370, 53.90186
769.6810, 14.27441
770.8260, 14.50342
771.9700, 39.71680
773.1140, 48.91602
774.2580, 35.90088
775.4020, 129.2578
776.5460, 99.40137
777.6890, 166.4180
778.8320, 66.37354
779.9750, 25.34766
781.1180, 69.27148
782.2610, 228.2832
783.4040, 133.3213
784.5460, 216.1963
785.6890, 78.95117
786.8310, 183.6860
787.9730, 169.2627
789.1150, 190.8867
790.2560, 198.0337
791.3980, 178.1094
792.5390, 132.1694
793.6810, 252.0981
794.8220, 197.1841
795.9630, 317.1982
797.1030, 409.5244
798.2440, 372.2769
799.3840, 338.7188
800.5240, 467.3262
801.6650, 409.2329
802.8040, 418.1328
803.9440, 396.0259
805.0840, 405.9121
806.2230, 398.7925
807.3630, 391.6675
808.5020, 337.5366
809.6410, 399.4009
810.7790, 392.1763
811.9180, 441.7271
813.0570, 385.8623
814.1950, 365.1636
815.3330, 254.4165
816.4710, 330.9897
817.6090, 371.8677
818.7470, 370.4365
819.8840, 510.9873
821.0220, 551.5234
822.1590, 591.0586
823.2960, 700.1470
824.4330, 816.2280
825.5690, 899.1938
826.7060, 1016.714
827.8420, 1165.650
828.9790, 1367.581
830.1150, 1518.770
831.2510, 1827.478
832.3860, 2102.551
833.5220, 2324.703
834.6570, 2530.794
835.7930, 2966.280
836.9280, 3227.484
838.0630, 3617.719
839.1980, 3861.356
840.3320, 3937.530
841.4670, 4086.192
842.6010, 4168.516
843.7350, 4260.663
844.8690, 4055.830
846.0030, 3968.113
847.1370, 3709.996
848.2700, 3552.088
849.4040, 3376.197
850.5370, 3085.322
851.6700, 2858.466
852.8030, 2830.628
853.9360, 2640.808
855.0680, 2532.060
856.2000, 2527.103
857.3330, 2310.461
858.4650, 2248.717
859.5970, 2149.863
860.7290, 2224.288
861.8600, 2160.604
862.9920, 2235.940
864.1230, 2411.296
865.2540, 2624.673
866.3850, 2762.072
867.5160, 2918.491
868.6460, 3167.932
869.7770, 3679.395
870.9070, 4006.880
872.0370, 4576.387
873.1670, 5262.917
874.2970, 5778.470
875.4270, 6356.045
876.5570, 7229.647
877.6860, 7856.273
878.8150, 8420.922
879.9440, 8608.595
881.0730, 8804.294
882.2020, 8756.013
883.3300, 8228.761
884.4590, 7725.537
885.5870, 6961.341
886.7150, 6236.168
887.8430, 5579.021
888.9710, 4974.900
890.0990, 4514.505
891.2260, 4015.735
892.3530, 3775.693
893.4810, 3495.889
894.6080, 3237.900
895.7340, 3219.951
896.8610, 3150.081
897.9880, 3186.159
899.1140, 3384.281
900.2400, 3503.411
901.3660, 3639.586
902.4920, 3862.926
903.6180, 4111.484
904.7430, 4297.328
905.8690, 4331.337
906.9940, 4317.103
908.1190, 4205.056
909.2440, 3943.457
910.3690, 3605.643
911.4930, 3099.560
912.6180, 2882.769
913.7420, 2474.875
914.8660, 2102.452
915.9900, 2003.227
917.1140, 1778.888
918.2380, 1525.636
919.3610, 1379.986
920.4850, 1094.075
921.6080, 1033.879
922.7310, 883.7505
923.8540, 776.6548
924.9760, 719.5947
926.0990, 771.5767
927.2210, 707.6250
928.3440, 626.7197
929.4660, 603.8745
930.5880, 529.0654
931.7090, 556.2959
932.8310, 466.5918
933.9520, 485.9272
935.0740, 513.3086
936.1950, 560.7324
937.3160, 460.1890
938.4360, 557.6821
939.5570, 484.2451
940.6780, 517.8477
941.7980, 522.4824
942.9180, 445.1719
944.0380, 566.8945
945.1580, 599.6768
946.2780, 675.4980
947.3970, 769.3706
948.5170, 727.3110
949.6360, 861.3057
950.7550, 807.3730
951.8740, 885.5342
952.9930, 787.7422
954.1110, 896.0122
955.2300, 992.3784
956.3480, 998.8022
957.4660, 1085.297
958.5840, 1108.891
959.7020, 1069.574
960.8190, 1127.334
961.9370, 1039.176
963.0540, 1132.115
964.1710, 1085.145
965.2880, 1066.231
966.4050, 1010.407
967.5220, 1099.647
968.6380, 1061.972
969.7550, 885.3408
970.8710, 954.7729
971.9870, 805.2637
973.1030, 884.8105
974.2190, 861.4092
975.3340, 715.0503
976.4500, 659.7578
977.5650, 571.5122
978.6800, 840.3198
979.7950, 657.2905
980.9100, 656.0288
982.0250, 449.0200
983.1390, 548.9927
984.2530, 329.9980
985.3680, 394.0371
986.4820, 299.1084
987.5950, 380.2129
988.7090, 307.3521
989.8230, 337.5234
990.9360, 277.7280
992.0490, 270.9702
993.1620, 211.2437
994.2750, 354.5513
995.3880, 277.8906
996.5010, 533.2622
997.6130, 475.4873
998.7250, 608.7349
999.8370, 361.5713
1000.949, 733.6187
1002.061, 489.6099
1003.173, 307.1797
1004.284, 199.7817
1005.396, 255.4146
1006.507, 144.0786
1007.618, 252.7739
1008.729, 216.5000
1009.839, 181.8809
1010.950, 209.6694
1012.060, 147.4883
1013.171, 174.3374
1014.281, 195.2168
1015.391, 253.1270
1016.500, 275.1748
1017.610, 290.2578
1018.719, 371.2095
1019.829, 373.4673
1020.938, 475.5264
1022.047, 338.6143
1023.156, 46.73096
1024.264, 101.1479
1025.373, 28.86279
1026.481, 19.61475
1027.589, 59.70703
1028.697, 1.966309
1029.805, 61.74609
1030.913, 58.44043
1032.020, 84.88330
1033.128, 57.76514
1034.235, 87.60498
1035.342, 12.99805
1036.449, 103.5757
1037.556, 78.99072
1038.663, 114.5771
1039.769, 1.747559
1040.875, 69.64697
1041.981, 89.88574
1043.087, 69.79980
1044.193, 7.323730
1045.299, 11.34717
1046.404, 35.53857
1047.510, 70.02832
1048.615, 57.98682
1049.720, 45.46729
1050.825, 55.71143
1051.930, 107.9395
1053.034, 66.48975
1054.139, 56.92285
1055.243, 144.8018
1056.347, 174.1899
1057.451, 122.7148
1058.555, 177.8247
1059.658, 47.46240
1060.762, 79.14648
1061.865, 188.6123
1062.968, 141.2803
1064.071, 198.8320
1065.174, 223.0059
1066.277, 61.23145
1067.380, 214.2832
1068.482, 230.0571
1069.584, 61.16162
1070.686, 96.14893
1071.788, 203.8262
1072.890, 113.3154
1073.992, 249.4092
1075.093, 152.5410
1076.194, 253.6665
1077.295, 263.9951
1078.396, 257.3340
1079.497, 270.2246
1080.598, 255.4102
1081.698, 325.6104
1082.799, 361.9360
1083.899, 343.2827
1084.999, 281.7124
1086.099, 329.9956
1087.199, 374.2588
1088.298, 417.5342
1089.398, 451.5918
1090.497, 574.3306
1091.596, 521.6367
1092.695, 495.9536
1093.794, 535.4790
1094.892, 431.7954
1095.991, 499.9473
1097.089, 584.5264
1098.187, 442.2983
1099.285, 386.7041
1100.383, 383.0747
1101.481, 328.4507
1102.579, 258.8325
1103.676, 207.2197
1104.773, 234.7920
1105.870, 208.2627
1106.967, 196.7246
1108.064, 242.2261
1109.161, 185.6343
1110.257, 217.4629
1111.353, 243.1621
1112.449, 172.5796
1113.545, 258.9985
1114.641, 275.4199
1115.737, 231.8438
1116.832, 341.2681
1117.928, 369.6943
1119.023, 414.1226
1120.118, 417.9038
1121.213, 364.3325
1122.308, 344.1406
1123.402, 436.2012
1124.497, 261.6309
1125.591, 266.2134
1126.685, 299.6416
1127.779, 139.0698
1128.873, 137.4971
1129.967, 85.09961
1131.060, 72.52441
1132.153, 60.97607
1133.247, 63.85889
1134.340, 77.27783
1135.433, 76.32129
1136.525, 135.1079
1137.618, 86.51953
1138.710, 101.9277
1139.802, 97.33252
1140.895, 1.265625
1141.987, 52.26514
1143.078, 104.6523
1144.170, 26.03564
1145.261, 94.45361
1146.353, 41.82715
1147.444, 65.19727
1148.535, 13.43848
1149.626, 25.90820
1150.716, 28.80762
1151.807, 44.67383
1152.897, 67.00342
1153.988, 54.32617
1155.078, 54.64355
1156.168, 112.3125
1157.257, 21.61621
1158.347, 23.70117
1159.436, 64.98828
1160.526, 118.3589
1161.615, 131.7988
1162.704, 196.5288
1163.793, 117.1050
1164.881, 293.3730
1165.970, 147.4282
1167.058, 144.7124
1168.147, 22.61035
1169.235, 85.24268
1170.323, 96.72852
1171.410, 84.10254
1172.498, 83.05762
1173.585, 93.18457
1174.673, 55.08691
1175.760, 10.01758
1176.847, 33.89551
1177.934, 27.36865
1179.020, 67.60840
1180.107, 93.21436
1181.193, 0.8295900
1182.279, 101.1035
1183.365, 70.02637
1184.451, 25.06055
1185.537, 83.18457
1186.623, 71.62305
1187.708, 16.41943
1188.793, 104.1982
1189.878, 72.03418
1190.963, 70.66895
1192.048, 56.63965
1193.133, 108.9946
1194.217, 22.61670
1195.302, 81.77979
1196.386, 7.751953
1197.470, 8.742188
1198.554, 20.72949
1199.638, 64.18018
1200.721, 19.61816
1201.805, 104.9658
1202.888, 11.36328
1203.971, 132.6655
1205.054, 46.04541
1206.137, 77.18701
1207.219, 63.59473
1208.302, 19.55713
1209.384, 23.31592
1210.466, 65.76416
1211.548, 157.8301
1212.630, 23.88232
1213.712, 0.9091800
1214.794, 125.9019
1215.875, 65.88037
1216.956, 110.8438
1218.037, 91.79248
1219.118, 36.72705
1220.199, 30.36084
1221.280, 80.49756
1222.360, 86.34277
1223.441, 61.17285
1224.521, 10.98584
1225.601, 14.85596
1226.681, 62.51514
1227.760, 4.246094
1228.840, 75.94141
1229.919, 106.6191
1230.999, 103.4185
1232.078, 124.9268
1233.157, 113.5630
1234.236, 106.1807
1235.314, 64.78174
1236.393, 37.36475
1237.471, 129.9219
1238.549, 188.4634
1239.627, 62.98877
1240.705, 10.49414
1241.783, 134.9644
1242.860, 143.4194
1243.938, 117.8589
1245.015, 175.4395
1246.092, 134.6899
1247.169, 166.0850
1248.246, 152.4644
1249.323, 71.82715
1250.399, 117.1709
1251.475, 89.49902
1252.552, 49.80957
1253.628, 113.0977
1254.703, 86.36914
1255.779, 186.6235
1256.855, 136.8623
1257.930, 164.0840
1259.005, 87.28955
1260.080, 109.4780
1261.155, 100.6504
1262.230, 35.80615
1263.305, 152.9321
1264.379, 203.0430
1265.454, 206.1377
1266.528, 136.2158
1267.602, 128.2778
1268.676, 112.7788
1269.750, 145.1089
1270.823, 95.74463
1271.897, 197.7417
1272.970, 206.7227
1274.043, 106.6875
1275.116, 235.6357
1276.189, 198.5684
1277.261, 187.4854
1278.334, 155.9858
1279.406, 101.8716
1280.478, 183.7402
1281.550, 115.5938
1282.622, 163.4326
1283.694, 177.2554
1284.766, 84.06299
1285.837, 183.8535
1286.908, 153.5015
1287.979, 185.1719
1289.050, 103.9165
1290.121, 161.6450
1291.192, 177.0806
1292.262, 299.0815
1293.333, 233.7793
1294.403, 220.4668
1295.473, 188.1392
1296.543, 182.7974
1297.613, 228.2944
1298.682, 206.9404
1299.752, 180.5830
1300.821, 112.0723
1301.890, 196.7480
1302.959, 280.3511
1304.028, 161.5249
1305.096, 284.3809
1306.165, 251.9468
1307.233, 294.4087
1308.301, 270.5596
1309.370, 283.6362
1310.437, 390.4346
1311.505, 450.9941
1312.573, 466.4307
1313.640, 298.9858
1314.708, 360.1973
1315.775, 334.8848
1316.842, 305.0708
1317.908, 405.5557
1318.975, 261.0278
1320.042, 359.4312
1321.108, 358.0518
1322.174, 405.1562
1323.240, 357.9199
1324.306, 333.3105
1325.372, 407.9702
1326.438, 429.6729
1327.503, 371.4082
1328.568, 421.1914
1329.634, 278.4258
1330.699, 296.1035
1331.763, 393.5137
1332.828, 340.7305
