##NAMES=Chloritoid
##RRUFFID=R060292
##IDEAL CHEMISTRY=Fe^2+^Al_2_OSiO_4_(OH)_2_
##LOCALITY=Pech, Kunar Province, Afghanistan
##OWNER=RRUFF
##SOURCE=Herb Obodda
##DESCRIPTION=Black tabular crystal
##STATUS=The identification of this mineral has been confirmed by X-ray diffraction and chemical analysis
##URL=rruff.info/R060292
##MEASURED CHEMISTRY=(Fe^2+^_1.55_Mg_0.43_Mn_0.02_)_Σ=2_(Al_3.93_Fe^3+^_0.07_)_Σ=4_Si_2.00_O_10_(OH)_4_
##PIN_ID=M00356
##ORIENTATION=Laser parallel to b* (0 1 0). Fiducial mark perpendicular to laser is parallel to -c [0 0 -1]
89.77700, 0.0000000E+00
91.01200, 119.1875
92.24600, 95.45703
93.48000, 143.7773
94.71400, 176.7607
95.94800, 273.5908
97.18200, 320.4746
98.41600, 110.8232
99.64900, 14.78418
100.8830, 266.4219
102.1160, 863.1484
103.3490, 1690.354
104.5820, 3128.426
105.8150, 2519.259
107.0470, 4459.098
108.2800, 1795.519
109.5120, 1129.461
110.7440, 1290.428
111.9760, 1668.257
113.2080, 1986.350
114.4400, 1675.187
115.6710, 1611.926
116.9030, 1226.354
118.1340, 834.0117
119.3650, 701.9346
120.5960, 392.6816
121.8270, 455.7607
123.0580, 164.8555
124.2880, 137.9209
125.5190, 287.7148
126.7490, 375.8740
127.9790, 359.5400
129.2090, 228.3184
130.4390, 25.67383
131.6680, 76.15527
132.8980, 128.8340
134.1270, 324.7822
135.3560, 534.0654
136.5850, 476.7383
137.8140, 402.8496
139.0430, 141.4434
140.2710, 179.5557
141.5000, 65.23730
142.7280, 108.6660
143.9560, 162.7070
145.1840, 145.3652
146.4120, 32.33398
147.6390, 97.46680
148.8670, 534.7559
150.0940, 303.4141
151.3210, 250.1260
152.5490, 199.5830
153.7750, 32.18262
155.0020, 48.89355
156.2290, 23.49805
157.4550, 79.56543
158.6810, 110.3857
159.9080, 390.8994
161.1340, 477.9814
162.3590, 495.6191
163.5850, 623.8721
164.8110, 484.6406
166.0360, 494.1924
167.2610, 538.4756
168.4860, 593.0967
169.7110, 583.8486
170.9360, 421.1553
172.1610, 424.8994
173.3850, 631.7207
174.6100, 631.6133
175.8340, 420.5693
177.0580, 516.5811
178.2820, 435.6436
179.5050, 586.7480
180.7290, 460.8877
181.9520, 619.0566
183.1760, 581.2500
184.3990, 815.4531
185.6220, 695.6729
186.8450, 787.9072
188.0670, 877.1523
189.2900, 898.4033
190.5120, 1059.656
191.7340, 1049.473
192.9560, 1131.670
194.1780, 1197.706
195.4000, 1149.836
196.6220, 1305.877
197.8430, 1273.846
199.0640, 1611.818
200.2860, 1446.760
201.5070, 1038.686
202.7270, 622.5938
203.9480, 238.4824
205.1690, 244.3525
206.3890, 143.2041
207.6090, 7.958984
208.8290, 1.136719
210.0490, 153.6709
211.2690, 232.4658
212.4890, 119.2480
213.7080, 97.01855
214.9280, 169.7803
216.1470, 31.53125
217.3660, 59.72754
218.5850, 134.0059
219.8030, 57.73145
221.0220, 63.44727
222.2400, 53.12305
223.4590, 97.28516
224.6770, 28.70215
225.8950, 101.3408
227.1120, 109.5000
228.3300, 122.0771
229.5480, 51.65332
230.7650, 38.16992
231.9820, 46.29395
233.1990, 36.72461
234.4160, 14.13379
235.6330, 63.29883
236.8490, 49.54102
238.0660, 26.39746
239.2820, 25.81152
240.4980, 25.21094
241.7140, 56.64746
242.9300, 104.8818
244.1460, 129.6113
245.3610, 83.81543
246.5770, 77.00195
247.7920, 68.66992
249.0070, 35.57520
250.2220, 188.7588
251.4370, 89.87695
252.6510, 240.9307
253.8660, 497.9062
255.0800, 557.8076
256.2940, 618.2354
257.5080, 538.0781
258.7220, 510.0322
259.9360, 334.6328
261.1490, 293.1377
262.3630, 194.6299
263.5760, 176.0322
264.7890, 243.2783
266.0020, 290.4707
267.2150, 440.6133
268.4270, 398.6680
269.6400, 441.5117
270.8520, 617.2607
272.0640, 618.9561
273.2760, 638.5947
274.4880, 680.1768
275.7000, 551.6992
276.9120, 608.5859
278.1230, 613.7783
279.3340, 789.1191
280.5450, 678.4395
281.7560, 687.7158
282.9670, 707.9531
284.1780, 617.1543
285.3880, 663.2598
286.5980, 578.3936
287.8090, 424.9766
289.0190, 580.8193
290.2290, 207.8506
291.4380, 14.77539
292.6480, 118.3086
293.8570, 190.9551
295.0670, 147.8340
296.2760, 57.36523
297.4850, 89.39160
298.6930, 3.880859
299.9020, 85.86230
301.1110, 90.98730
302.3190, 42.33398
303.5270, 209.4854
304.7350, 117.4395
305.9430, 57.46875
307.1510, 29.47559
308.3580, 56.43848
309.5660, 40.00391
310.7730, 182.9551
311.9800, 143.6113
313.1870, 212.1855
314.3940, 421.7617
315.6010, 464.2832
316.8070, 511.8145
318.0130, 551.3574
319.2200, 891.9121
320.4260, 1021.479
321.6310, 1340.058
322.8370, 1553.646
324.0430, 1645.248
325.2480, 1513.860
326.4540, 1451.482
327.6590, 1311.117
328.8640, 1315.763
330.0680, 1457.419
331.2730, 1297.088
332.4780, 1482.767
333.6820, 1406.458
334.8860, 1535.160
336.0900, 1419.875
337.2940, 1144.598
338.4980, 1051.334
339.7010, 827.0557
340.9050, 627.7832
342.1080, 368.5254
343.3110, 452.2812
344.5140, 344.0498
345.7170, 454.8350
346.9200, 370.6328
348.1220, 253.4473
349.3240, 417.0889
350.5270, 228.7861
351.7290, 117.8945
352.9310, 25.16406
354.1320, 110.9746
355.3340, 161.3105
356.5350, 119.1230
357.7370, 48.22852
358.9380, 90.90137
360.1390, 23.25977
361.3400, 18.04980
362.5400, 42.86133
363.7410, 72.35645
364.9410, 73.80176
366.1410, 68.96094
367.3410, 1.4648000E-02
368.5410, 29.11621
369.7410, 36.33105
370.9400, 7.628906
372.1400, 99.18164
373.3390, 1.075195
374.5380, 120.5068
375.7370, 37.86523
376.9360, 130.8848
378.1350, 45.82422
379.3330, 260.8955
380.5310, 2.980469
381.7300, 210.0547
382.9280, 95.58594
384.1260, 202.1982
385.3230, 397.8906
386.5210, 328.6523
387.7180, 506.6572
388.9160, 499.9238
390.1130, 500.7900
391.3100, 562.6201
392.5060, 662.8564
393.7030, 588.1396
394.9000, 594.5205
396.0960, 444.5674
397.2920, 602.9902
398.4880, 513.4355
399.6840, 637.8994
400.8800, 633.3887
402.0750, 626.9307
403.2710, 576.5312
404.4660, 398.1621
405.6610, 597.8369
406.8560, 337.5312
408.0510, 413.2598
409.2450, 274.0127
410.4400, 471.7979
411.6340, 442.6084
412.8280, 411.4492
414.0220, 445.3125
415.2160, 556.2080
416.4100, 441.1309
417.6030, 591.0859
418.7970, 623.0625
419.9900, 493.0986
421.1830, 572.1592
422.3760, 453.2812
423.5690, 456.4355
424.7610, 448.6270
425.9540, 488.8398
427.1460, 441.0869
428.3380, 540.3545
429.5300, 407.6436
430.7220, 432.9570
431.9140, 435.2949
433.1050, 289.6562
434.2970, 289.0400
435.4880, 396.0391
436.6790, 441.4873
437.8700, 428.9619
439.0610, 453.4609
440.2510, 334.8076
441.4420, 348.3545
442.6320, 435.1982
443.8220, 319.8037
445.0120, 412.4639
446.2020, 432.1357
447.3910, 561.8604
448.5810, 485.6211
449.7700, 391.4082
450.9600, 601.2119
452.1490, 387.0566
453.3370, 677.9316
454.5260, 631.8359
455.7150, 602.7705
456.9030, 698.7354
458.0910, 634.7314
459.2800, 770.7578
460.4670, 868.8154
461.6550, 852.9043
462.8430, 859.0244
464.0300, 958.1758
465.2180, 1015.358
466.4050, 1044.571
467.5920, 1088.816
468.7790, 1190.090
469.9650, 1258.396
471.1520, 1258.735
472.3380, 1304.104
473.5250, 1294.503
474.7110, 1372.934
475.8970, 1488.396
477.0820, 1659.888
478.2680, 1648.412
479.4540, 1737.967
480.6390, 1896.554
481.8240, 1966.170
483.0090, 2111.817
484.1940, 2189.506
485.3780, 2567.226
486.5630, 2897.979
487.7470, 3459.771
488.9320, 4611.597
490.1160, 4861.477
491.3000, 4715.387
492.4830, 4783.328
493.6670, 4604.309
494.8500, 4765.324
496.0340, 4793.396
497.2170, 4891.520
498.4000, 5223.680
499.5820, 5281.869
500.7650, 5195.096
501.9480, 5131.958
503.1300, 4487.928
504.3120, 4595.178
505.4940, 3722.623
506.6760, 3078.121
507.8580, 2912.656
509.0390, 2575.637
510.2210, 2417.246
511.4020, 2373.953
512.5830, 2022.201
513.7640, 1713.046
514.9450, 1828.462
516.1250, 1529.439
517.3060, 1581.517
518.4860, 1659.165
519.6660, 1518.162
520.8460, 1419.400
522.0260, 1626.695
523.2060, 1614.014
524.3850, 1692.427
525.5650, 1655.893
526.7440, 1570.424
527.9230, 1682.008
529.1020, 1729.649
530.2810, 1574.339
531.4590, 1815.104
532.6380, 1872.900
533.8160, 1798.728
534.9940, 1833.880
536.1720, 1822.786
537.3500, 1925.917
538.5270, 2120.027
539.7050, 2207.916
540.8820, 2625.752
542.0590, 2991.946
543.2360, 3609.984
544.4130, 4174.794
545.5900, 4504.656
546.7660, 4528.438
547.9430, 4168.822
549.1190, 4041.420
550.2950, 3991.318
551.4710, 4023.967
552.6470, 4290.672
553.8220, 4507.547
554.9980, 4360.812
556.1730, 4019.266
557.3480, 3551.250
558.5230, 3096.164
559.6980, 2577.652
560.8730, 2257.537
562.0470, 2052.283
563.2220, 1974.282
564.3960, 2224.078
565.5700, 3972.163
566.7440, 4473.777
567.9170, 3056.988
569.0910, 2215.643
570.2640, 2040.314
571.4380, 2150.125
572.6110, 2386.836
573.7840, 2216.565
574.9570, 2660.312
576.1290, 2747.078
577.3020, 3032.866
578.4740, 3902.672
579.6460, 5520.495
580.8180, 7459.335
581.9900, 9354.215
583.1620, 14232.11
584.3330, 21747.02
585.5040, 32070.96
586.6760, 40934.91
587.8470, 41156.88
589.0180, 35840.86
590.1880, 30577.86
591.3590, 28392.88
592.5290, 29155.92
593.7000, 31642.96
594.8700, 35150.03
596.0400, 36707.11
597.2090, 34545.21
598.3790, 27975.31
599.5490, 19419.43
600.7180, 12814.57
601.8870, 8643.724
603.0560, 6224.891
604.2250, 4639.071
605.3940, 3946.267
606.5620, 2997.476
607.7300, 2617.698
608.8990, 2183.932
610.0670, 1890.181
611.2350, 1596.503
612.4020, 1421.716
613.5700, 1182.002
614.7370, 1072.301
615.9050, 1025.611
617.0720, 924.9316
618.2390, 834.2666
619.4060, 769.9121
620.5720, 713.8574
621.7390, 643.3359
622.9050, 623.7148
624.0710, 612.8574
625.2370, 542.2559
626.4030, 382.5195
627.5690, 907.1533
628.7340, 1106.043
629.9000, 1079.504
631.0650, 399.9521
632.2300, 311.4082
633.3950, 393.1816
634.5600, 214.9668
635.7240, 326.4482
636.8890, 300.9746
638.0530, 193.5752
639.2170, 240.1191
640.3810, 146.5498
641.5450, 62.14844
642.7080, 52.68359
643.8720, 6.493164
645.0350, 11.05664
646.1980, 45.90039
647.3610, 36.99121
648.5240, 16.81836
649.6870, 106.7441
650.8490, 84.64160
652.0120, 161.0215
653.1740, 4.597656
654.3360, 39.82422
655.4980, 108.7412
656.6600, 33.77148
657.8210, 116.9170
658.9830, 67.30859
660.1440, 109.6875
661.3050, 250.6299
662.4660, 140.2168
663.6270, 171.9756
664.7870, 93.72656
665.9480, 207.9473
667.1080, 156.9971
668.2680, 343.5781
669.4280, 253.6797
670.5880, 274.2568
671.7480, 208.8301
672.9070, 124.4004
674.0670, 12.62012
675.2260, 6.750000
676.3850, 44.01562
677.5440, 8.034180
678.7030, 32.35059
679.8610, 4.101563
681.0200, 34.78027
682.1780, 133.3760
683.3360, 162.0547
684.4940, 42.83008
685.6520, 91.64648
686.8090, 1.474609
687.9670, 52.23828
689.1240, 5.181641
690.2810, 34.14648
691.4380, 17.14941
692.5950, 19.18164
693.7520, 9.756836
694.9080, 27.32129
696.0650, 1.436523
697.2210, 33.57129
698.3770, 92.25293
699.5330, 133.9297
700.6880, 31.79980
701.8440, 134.4814
702.9990, 10.85254
704.1550, 32.25195
705.3100, 109.3096
706.4650, 16.13867
707.6190, 94.38281
708.7740, 150.8955
709.9290, 40.40039
711.0830, 177.8965
712.2370, 233.3848
713.3910, 360.8652
714.5450, 350.3359
715.6980, 405.8008
716.8520, 367.2549
718.0050, 478.6934
719.1580, 642.1426
720.3110, 650.5732
721.4640, 818.9951
722.6170, 825.4092
723.7700, 1162.815
724.9220, 1166.213
726.0740, 1098.600
727.2260, 1405.980
728.3780, 1449.352
729.5300, 1638.714
730.6810, 1721.067
731.8330, 1735.411
732.9840, 1872.748
734.1350, 2010.074
735.2860, 2195.394
736.4370, 2060.702
737.5880, 2075.004
738.7380, 1901.295
739.8880, 1684.578
741.0390, 1789.852
742.1890, 1634.116
743.3380, 1540.373
744.4880, 1262.620
745.6380, 1072.858
746.7870, 932.0879
747.9360, 880.3066
749.0850, 796.5186
750.2340, 777.7207
751.3830, 622.9150
752.5310, 509.0986
753.6800, 466.1641
754.8280, 326.4424
755.9760, 354.5996
757.1240, 300.7490
758.2720, 258.8877
759.4190, 207.0195
760.5670, 238.1406
761.7140, 0.2548830
762.8610, 140.3428
764.0080, 17.42090
765.1550, 9.482422
766.3020, 27.52246
767.4480, 56.45215
768.5950, 77.52246
769.7410, 167.4863
770.8870, 6.441406
772.0330, 31.37402
773.1780, 106.2959
774.3240, 45.20801
775.4690, 40.11133
776.6140, 44.00586
777.7590, 87.88965
778.9040, 132.7656
780.0490, 47.63379
781.1940, 149.5059
782.3380, 160.1543
783.4820, 48.08984
784.6260, 78.61914
785.7700, 63.67969
786.9140, 117.5820
788.0580, 23.22168
789.2010, 8.149414
790.3450, 50.45312
791.4880, 92.04785
792.6310, 57.16016
793.7730, 56.27734
794.9160, 11.25781
796.0590, 29.21973
797.2010, 60.73047
798.3430, 8.108398
799.4850, 66.13184
800.6270, 19.54590
801.7690, 18.95215
802.9100, 46.65137
804.0520, 8.707031
805.1930, 30.05469
806.3340, 46.60352
807.4750, 113.7012
808.6160, 65.00195
809.7560, 77.29688
810.8970, 47.41309
812.0370, 94.59180
813.1770, 97.87305
814.3170, 53.95312
815.4570, 151.9199
816.5960, 79.41504
817.7360, 7.173828
818.8750, 88.90039
820.0140, 150.1553
821.1530, 68.66211
822.2920, 103.1426
823.4310, 89.72949
824.5690, 8.261719
825.7070, 60.55859
826.8460, 199.1045
827.9840, 204.9248
829.1220, 181.7129
830.2590, 516.3564
831.3970, 179.6357
832.5340, 250.7529
833.6710, 441.3643
834.8080, 603.0703
835.9450, 567.4795
837.0820, 517.0186
838.2190, 608.9697
839.3550, 446.6953
840.4910, 719.6504
841.6270, 763.3398
842.7630, 741.5293
843.8990, 656.1455
845.0350, 784.3486
846.1700, 907.5586
847.3060, 1038.657
848.4410, 809.8818
849.5760, 918.1123
850.7100, 1025.353
851.8450, 1292.600
852.9800, 1349.854
854.1140, 1469.118
855.2480, 1548.391
856.3820, 1643.672
857.5160, 1699.962
858.6500, 1799.973
859.7830, 2091.571
860.9170, 2043.889
862.0500, 2268.218
863.1830, 2531.768
864.3160, 2899.906
865.4480, 3482.264
866.5810, 4028.635
867.7130, 4830.016
868.8460, 5119.404
869.9780, 6013.811
871.1100, 6557.227
872.2410, 7360.651
873.3730, 8100.092
874.5050, 8700.540
875.6360, 8964.004
876.7670, 9132.481
877.8980, 9340.967
879.0290, 9223.407
880.1590, 9027.983
881.2900, 8753.511
882.4200, 8335.053
883.5500, 7803.608
884.6800, 7278.178
885.8100, 6495.762
886.9400, 5900.360
888.0690, 5075.971
889.1990, 4541.600
890.3280, 3850.242
891.4570, 3387.099
892.5860, 3174.574
893.7140, 2637.262
894.8430, 2478.967
895.9710, 2299.688
897.1000, 2167.429
898.2280, 1885.436
899.3560, 1935.211
900.4830, 1720.151
901.6110, 1588.747
902.7380, 1579.115
903.8660, 1394.939
904.9930, 1338.803
906.1200, 1188.685
907.2460, 1264.278
908.3730, 1201.727
909.5000, 1161.826
910.6260, 1190.748
911.7520, 1199.623
912.8780, 1164.582
914.0040, 1046.600
915.1290, 1129.639
916.2550, 1013.698
917.3800, 1177.500
918.5050, 1220.602
919.6300, 1226.439
920.7550, 1135.591
921.8800, 1124.607
923.0040, 1037.823
924.1290, 946.7314
925.2530, 1146.200
926.3770, 1117.504
927.5010, 1096.832
928.6250, 1175.199
929.7480, 980.1270
930.8720, 1174.966
931.9950, 985.5908
933.1180, 1032.427
934.2410, 1095.426
935.3640, 1253.966
936.4860, 1293.361
937.6090, 1080.800
938.7310, 1298.803
939.8530, 1117.021
940.9750, 1342.752
942.0970, 1246.004
943.2180, 1422.816
944.3400, 1494.658
945.4610, 1439.529
946.5820, 1474.014
947.7030, 1406.945
948.8240, 1649.912
949.9450, 1691.922
951.0650, 1961.770
952.1860, 1741.855
953.3060, 1611.299
954.4260, 1699.465
955.5460, 1382.699
956.6650, 1651.012
957.7850, 1524.371
958.9040, 1430.799
960.0230, 1435.076
961.1420, 1275.588
962.2610, 1208.146
963.3800, 1123.754
964.4990, 1031.031
965.6170, 1020.342
966.7350, 877.8184
967.8530, 986.5918
968.9710, 903.4004
970.0890, 851.2598
971.2070, 835.1641
972.3240, 738.1426
973.4410, 729.1523
974.5580, 697.1152
975.6750, 726.3965
976.7920, 615.6035
977.9090, 451.8438
979.0250, 302.1289
980.1410, 417.4453
981.2580, 373.7949
982.3740, 445.1777
983.4890, 439.2715
984.6050, 410.0410
985.7200, 411.5215
986.8360, 227.0352
987.9510, 188.5820
989.0660, 182.1621
990.1810, 208.8047
991.2950, 312.4785
992.4100, 213.1875
993.5240, 243.9395
994.6390, 120.7266
995.7530, 329.5449
996.8660, 10.39844
997.9800, 147.2832
999.0940, 240.2031
1000.207, 88.15430
1001.320, 240.1582
1002.433, 45.19531
1003.546, 288.2656
1004.659, 22.36914
1005.772, 271.5098
1006.884, 147.6934
1007.996, 49.90625
1009.108, 271.1523
1010.220, 44.44922
1011.332, 103.7754
1012.444, 51.13672
1013.555, 179.5312
1014.666, 173.9570
1015.777, 156.4180
1016.888, 183.9121
1017.999, 183.4414
1019.110, 74.01562
1020.220, 183.6289
1021.331, 94.27344
1022.441, 206.9512
1023.551, 74.66406
1024.661, 34.41016
1025.770, 139.2246
1026.880, 257.0703
1027.989, 238.9512
1029.098, 123.8613
1030.207, 250.6289
1031.316, 151.6152
1032.425, 333.6406
1033.533, 355.6992
1034.642, 116.7949
1035.750, 95.93555
1036.858, 39.11328
1037.966, 16.96484
1039.073, 349.6094
1040.181, 189.9062
1041.288, 171.2422
1042.396, 464.6133
1043.503, 393.0156
1044.610, 273.4512
1045.716, 258.9199
1046.823, 324.4199
1047.929, 113.9531
1049.036, 186.5176
1050.142, 264.1152
1051.248, 206.7891
1052.353, 359.4707
1053.459, 222.2266
1054.564, 262.0137
1055.670, 362.8184
1056.775, 342.6934
1057.880, 181.9531
1058.985, 211.4375
1060.089, 101.4160
1061.194, 384.1523
1062.298, 255.1914
1063.402, 317.2793
1064.506, 427.6055
1065.610, 267.7754
1066.713, 338.9668
1067.817, 279.2578
1068.920, 279.5801
1070.023, 355.0977
1071.126, 390.0781
1072.229, 261.4590
1073.332, 301.1699
1074.435, 258.9727
1075.537, 391.2578
1076.639, 272.8164
1077.741, 219.4023
1078.843, 357.0156
1079.945, 353.6738
1081.046, 334.3574
1082.148, 256.0664
1083.249, 317.3730
1084.350, 319.0352
1085.451, 330.4316
1086.551, 464.2910
1087.652, 316.1738
1088.752, 496.0840
1089.853, 353.4785
1090.953, 391.6270
1092.053, 282.6094
1093.152, 448.6191
1094.252, 294.3477
1095.351, 238.4043
1096.451, 353.4844
1097.550, 260.5859
1098.649, 315.7129
1099.748, 265.8613
1100.846, 193.0312
1101.945, 289.2246
1103.043, 224.7891
1104.141, 350.0254
1105.239, 295.2852
1106.337, 208.5645
1107.434, 165.7852
1108.532, 233.1074
1109.629, 203.5586
1110.726, 307.9082
1111.823, 308.2910
1112.920, 274.6914
1114.017, 423.1094
1115.113, 511.5488
1116.210, 467.4258
1117.306, 120.5723
1118.402, 339.5781
1119.498, 388.0898
1120.593, 184.6211
1121.689, 316.9102
1122.784, 376.4766
1123.879, 267.2734
1124.974, 102.9629
1126.069, 244.3105
1127.164, 406.9434
1128.259, 192.5918
1129.353, 188.2598
1130.447, 240.1309
1131.541, 311.8301
1132.635, 268.8887
1133.729, 35.61523
1134.822, 180.3574
1135.916, 91.11523
1137.009, 189.8574
1138.102, 107.2461
1139.195, 104.0449
1140.288, 268.8574
1141.380, 222.9590
1142.473, 253.8008
1143.565, 141.6523
1144.657, 260.5195
1145.749, 74.39844
1146.841, 214.2891
1147.932, 93.65234
1149.024, 228.5684
1150.115, 85.36719
1151.206, 285.4160
1152.297, 155.3633
1153.388, 144.3242
1154.479, 173.2793
1155.569, 179.4512
1156.659, 117.7520
1157.750, 171.7520
1158.839, 80.76172
1159.929, 156.7812
1161.019, 34.87305
1162.108, 157.1562
1163.198, 130.1953
1164.287, 344.2422
1165.376, 156.2988
1166.465, 80.00391
1167.553, 141.0742
1168.642, 84.15625
1169.730, 85.24219
1170.818, 82.62695
1171.906, 50.43945
1172.994, 62.54688
1174.082, 47.66504
1175.170, 52.78809
1176.257, 9.916992
1177.344, 29.05176
1178.431, 31.11133
1179.518, 88.33594
1180.605, 12.48535
1181.691, 78.63965
1182.778, 29.20117
1183.864, 124.9512
1184.950, 196.1084
1186.036, 84.54785
1187.122, 88.58008
1188.207, 72.22754
1189.292, 15.12402
1190.378, 77.97656
1191.463, 39.91992
1192.548, 32.16895
1193.632, 102.2598
1194.717, 3.648438
1195.801, 58.43164
1196.886, 92.47070
1197.970, 65.93164
1199.054, 12.98730
1200.137, 38.95020
1201.221, 27.84082
1202.305, 84.81348
1203.388, 72.04883
1204.471, 55.20312
1205.554, 44.79883
1206.637, 23.09082
1207.719, 61.97754
1208.802, 144.8633
1209.884, 74.74609
1210.966, 42.66406
1212.048, 53.54395
1213.130, 122.4268
1214.212, 114.3047
1215.293, 125.1807
1216.374, 121.0537
1217.456, 19.92285
1218.536, 42.78809
1219.617, 4.650391
1220.698, 7.488281
1221.778, 56.35645
1222.859, 69.19824
1223.939, 13.96484
1225.019, 214.8535
1226.099, 55.66504
1227.178, 46.47168
1228.258, 61.27539
1229.337, 215.0732
1230.417, 129.8652
1231.496, 139.6523
1232.574, 36.56738
1233.653, 158.1797
1234.732, 51.91992
1235.810, 107.6543
1236.888, 107.6172
1237.966, 193.0371
1239.044, 31.82031
1240.122, 191.4600
1241.199, 80.09375
1242.277, 98.71973
1243.354, 88.34082
1244.431, 100.9531
1245.508, 39.56836
1246.585, 136.1738
1247.661, 25.83105
1248.738, 177.4160
1249.814, 105.9932
1250.890, 79.43652
1251.966, 123.0674
1253.042, 41.56250
1254.117, 2.946289
1255.193, 25.51855
1256.268, 84.96582
1257.343, 213.4062
1258.418, 216.8369
1259.493, 49.25879
1260.567, 115.6709
1261.642, 34.92578
1262.716, 248.4297
1263.790, 201.7744
1264.864, 114.1123
1265.938, 26.43945
1267.011, 12.74902
1268.085, 132.0342
1269.158, 254.3096
