##NAMES=Chloritoid
##RRUFFID=R050334
##IDEAL CHEMISTRY=Fe^2+^Al_2_OSiO_4_(OH)_2_
##LOCALITY=Selçuk, Mugla Province, Turkey
##OWNER=RRUFF
##SOURCE=George Rossman
##DESCRIPTION=Dark greenish-black foliated cleavage fragments
##STATUS=The identification of this mineral is confirmed by single-crystal X-ray diffraction and chemical analysis.
##URL=rruff.info/R050334
##MEASURED CHEMISTRY=(Fe^2+^_1.84_Mg_0.12_Mn_0.04_)_Σ=2_(Al_3.95_Fe^3+^_0.05_)_Σ=4_Si_2.00_O_10_(OH)_4_ ; H not measured but estimated by difference and stoichiometry
##PIN_ID=M01684
##ORIENTATION=Laser parallel to c* (0 0 1). Fiducial mark perpendicular to laser is parallel to a [1 0 0]
152.4080, 0.0000000E+00
153.6380, 20.72119
154.8690, 42.63135
156.0980, 22.38672
157.3280, 21.42236
158.5580, 7.321289
159.7870, 76.07520
161.0170, 51.07617
162.2460, 78.62207
163.4750, 108.0210
164.7030, 81.51709
165.9320, 135.6221
167.1600, 125.0312
168.3890, 111.6646
169.6170, 115.1079
170.8450, 90.58057
172.0730, 99.42041
173.3000, 45.56104
174.5280, 77.01709
175.7550, 49.52295
176.9820, 177.0229
178.2090, 122.5918
179.4350, 169.9512
180.6620, 75.38086
181.8880, 87.76855
183.1150, 52.10303
184.3410, 91.37793
185.5670, 134.5884
186.7920, 133.4863
188.0180, 238.8105
189.2430, 202.0020
190.4690, 234.1719
191.6940, 330.1045
192.9180, 397.0171
194.1430, 464.9067
195.3680, 356.4897
196.5920, 467.2334
197.8160, 382.3218
199.0400, 463.2295
200.2640, 474.9834
201.4880, 547.5972
202.7110, 526.0820
203.9350, 476.5801
205.1580, 344.2549
206.3810, 272.8140
207.6040, 218.2549
208.8270, 161.5845
210.0490, 218.8110
211.2710, 271.9399
212.4940, 309.9780
213.7160, 319.1323
214.9370, 410.8071
216.1590, 303.6094
217.3810, 280.3438
218.6020, 252.0151
219.8230, 288.6284
221.0440, 307.1875
222.2650, 197.6963
223.4860, 247.2139
224.7060, 158.1582
225.9260, 89.10205
227.1470, 140.6763
228.3670, 121.9570
229.5860, 99.42480
230.8060, 12.63184
232.0260, 51.31348
233.2450, 58.74121
234.4640, 89.91309
235.6830, 87.63623
236.9020, 30.01025
238.1200, 120.1606
239.3390, 105.3340
240.5570, 77.53027
241.7750, 104.7476
242.9930, 142.9854
244.2110, 137.2437
245.4290, 259.5205
246.6460, 294.8149
247.8630, 248.1245
249.0810, 500.4482
250.2980, 536.7871
251.5140, 551.1382
252.7310, 508.5029
253.9470, 402.8804
255.1640, 334.6626
256.3800, 417.1021
257.5960, 456.0537
258.8120, 871.2866
260.0270, 609.5698
261.2430, 758.7822
262.4580, 308.0518
263.6730, 260.3335
264.8880, 214.6279
266.1030, 190.8857
267.3170, 177.1509
268.5320, 169.4136
269.7460, 236.6841
270.9600, 309.9624
272.1740, 347.2500
273.3880, 341.5479
274.6010, 372.8560
275.8150, 567.1748
277.0280, 717.5049
278.2410, 789.8452
279.4540, 947.1953
280.6670, 1028.557
281.8790, 1036.931
283.0920, 893.3154
284.3040, 777.7148
285.5160, 493.1289
286.7280, 433.5581
287.9400, 285.0020
289.1510, 182.4619
290.3630, 198.9375
291.5740, 78.42920
292.7850, 74.93750
293.9960, 38.46143
295.2070, 60.00195
296.4170, 20.44092
297.6280, 12.87549
298.8380, 19.53467
300.0480, 10.39795
301.2580, 32.82031
302.4680, 36.37695
303.6770, 60.64307
304.8870, 32.80664
306.0960, 6.180664
307.3050, 18.65234
308.5140, 25.81592
309.7230, 70.69824
310.9310, 45.29932
312.1400, 64.90430
313.3480, 100.5200
314.5560, 78.15576
315.7640, 85.80762
316.9720, 69.47754
318.1790, 60.16162
319.3870, 47.86572
320.5940, 27.41895
321.8010, 58.70312
323.0080, 211.9858
324.2150, 228.2671
325.4210, 288.5474
326.6280, 316.8267
327.8340, 556.1055
329.0400, 744.3833
330.2460, 1036.661
331.4510, 1224.939
332.6570, 1292.218
333.8620, 1263.498
335.0680, 1116.777
336.2730, 856.0566
337.4780, 715.3330
338.6820, 555.5415
339.8870, 458.7432
341.0910, 397.9253
342.2950, 570.1006
343.5000, 662.8862
344.7030, 1024.441
345.9070, 907.6079
347.1110, 727.7729
348.3140, 439.9380
349.5170, 325.1016
350.7200, 201.2637
351.9230, 88.42578
353.1260, 66.58691
354.3290, 7.748535
355.5310, 92.08887
356.7330, 49.46436
357.9350, 79.81543
359.1370, 8.699707
360.3390, 2.582520
361.5400, 16.46338
362.7420, 2.656738
363.9430, 20.03174
365.1440, 66.90771
366.3450, 85.03955
367.5460, 71.17578
368.7460, 124.3169
369.9470, 117.5664
371.1470, 128.9712
372.3470, 115.6973
373.5470, 141.8311
374.7460, 102.9727
375.9460, 105.9038
377.1450, 99.02930
378.3450, 141.8022
379.5440, 102.7017
380.7430, 96.49951
381.9410, 124.4863
383.1400, 221.3906
384.3380, 226.3008
385.5370, 318.1157
386.7350, 281.0645
387.9320, 394.0288
389.1300, 479.0078
390.3280, 491.0020
391.5250, 785.0200
392.7220, 876.0527
393.9190, 891.0972
395.1160, 1285.167
396.3130, 1500.251
397.5100, 1413.348
398.7060, 1472.456
399.9020, 1317.528
401.0980, 1226.588
402.2940, 940.6562
403.4900, 888.7534
404.6860, 751.8818
405.8810, 591.0264
407.0760, 538.1963
408.2710, 514.3833
409.4660, 463.5845
410.6610, 418.8330
411.8550, 504.1060
413.0500, 505.4126
414.2440, 483.7700
415.4380, 395.1523
416.6320, 416.5591
417.8260, 442.9771
419.0190, 553.4082
420.2130, 463.8560
421.4060, 546.3159
422.5990, 428.7871
423.7920, 561.2715
424.9850, 568.7881
426.1770, 673.3340
427.3700, 585.8906
428.5620, 595.4595
429.7540, 593.0391
430.9460, 501.6299
432.1380, 538.2324
433.3290, 543.8452
434.5210, 453.4692
435.7120, 383.1045
436.9030, 493.7505
438.0940, 452.3804
439.2850, 480.0479
440.4750, 488.9702
441.6660, 489.4229
442.8560, 504.3667
444.0460, 427.6084
445.2360, 488.2905
446.4260, 507.0015
447.6160, 437.7236
448.8050, 477.4526
449.9940, 584.0815
451.1830, 471.4336
452.3720, 582.3638
453.5610, 575.5054
454.7500, 540.2695
455.9380, 491.8315
457.1260, 513.9854
458.3150, 538.9780
459.5020, 567.3174
460.6900, 597.8730
461.8780, 615.7241
463.0650, 648.5396
464.2530, 692.3711
465.4400, 684.2100
466.6270, 701.9087
467.8130, 691.9688
469.0000, 701.7764
470.1870, 686.6484
471.3730, 694.5278
472.5590, 759.4150
473.7450, 833.3105
474.9310, 831.2144
476.1160, 847.1255
477.3020, 865.6699
478.4870, 812.9717
479.6720, 861.9067
480.8570, 894.8496
482.0420, 876.7998
483.2270, 826.7588
484.4110, 1009.726
485.5960, 915.7012
486.7800, 1112.684
487.9640, 1335.675
489.1480, 1370.674
490.3310, 1535.712
491.5150, 1767.756
492.6980, 1947.819
493.8810, 2423.899
495.0640, 2685.986
496.2470, 3224.091
497.4300, 3679.204
498.6120, 3393.299
499.7950, 3250.125
500.9770, 2915.087
502.1590, 2788.050
503.3410, 2686.186
504.5220, 2544.930
505.7040, 2560.144
506.8850, 2340.260
508.0660, 2221.609
509.2470, 2013.859
510.4280, 1751.138
511.6090, 1675.438
512.7890, 1479.749
513.9700, 1307.127
515.1500, 1344.453
516.3300, 1288.241
517.5100, 1141.620
518.6900, 1322.376
519.8690, 1311.072
521.0490, 1286.482
522.2280, 1280.502
523.4070, 1443.929
524.5860, 1624.503
525.7640, 1762.335
526.9430, 1943.824
528.1210, 2048.749
529.3000, 2180.283
530.4780, 2099.404
531.6560, 1972.689
532.8330, 1741.867
534.0110, 1612.055
535.1880, 1345.679
536.3650, 1231.314
537.5430, 1010.584
538.7190, 965.1646
539.8960, 937.8906
541.0730, 874.4956
542.2490, 950.8184
543.4250, 910.4858
544.6020, 1078.117
545.7780, 1081.073
546.9530, 1256.427
548.1290, 1515.313
549.3040, 1942.700
550.4800, 2536.875
551.6550, 2855.855
552.8300, 2744.215
554.0040, 2389.549
555.1790, 1942.370
556.3540, 1585.948
557.5280, 1202.184
558.7020, 1031.839
559.8760, 792.5830
561.0500, 819.3857
562.2230, 709.0435
563.3970, 649.7012
564.5700, 669.6953
565.7430, 522.8911
566.9160, 546.5000
568.0890, 589.1582
569.2620, 605.8159
570.4340, 555.4731
571.6070, 671.1299
572.7790, 643.7847
573.9510, 712.4395
575.1230, 706.0928
576.2940, 850.7441
577.4660, 995.3945
578.6370, 1063.043
579.8080, 1326.690
580.9790, 1454.336
582.1500, 1934.988
583.3210, 2333.643
584.4910, 3095.297
585.6620, 4239.950
586.8320, 6089.601
588.0020, 8451.248
589.1720, 12179.89
590.3410, 18110.54
591.5110, 28090.18
592.6800, 40872.83
593.8500, 48236.47
595.0190, 44419.14
596.1880, 32988.81
597.3560, 22689.51
598.5250, 15713.23
599.6930, 11011.96
600.8620, 7947.717
602.0300, 5678.488
603.1970, 4308.273
604.3650, 3417.067
605.5330, 2882.857
606.7000, 2342.644
607.8680, 2129.425
609.0350, 1777.203
610.2020, 1604.977
611.3680, 1282.745
612.5350, 1122.508
613.7010, 1080.267
614.8680, 887.0215
616.0340, 816.7700
617.2000, 642.5137
618.3660, 650.2520
619.5310, 521.9858
620.6970, 425.7134
621.8620, 408.4365
623.0270, 381.1528
624.1920, 393.8638
625.3570, 333.4829
626.5220, 334.2676
627.6860, 255.9609
628.8500, 238.6484
630.0140, 271.1890
631.1780, 264.8633
632.3420, 198.7104
633.5060, 260.0000
634.6700, 131.6523
635.8330, 117.4609
636.9960, 190.0986
638.1590, 126.7285
639.3220, 114.1006
640.4850, 123.7930
641.6470, 102.4502
642.8100, 96.95410
643.9720, 143.5962
645.1340, 161.4453
646.2960, 67.07227
647.4570, 31.43652
648.6190, 78.75488
649.7800, 85.98096
650.9420, 70.59473
652.1030, 110.7417
653.2640, 19.30957
654.4240, 45.86670
655.5850, 2.586914
656.7450, 25.47461
657.9060, 30.97461
659.0660, 4.491699
660.2260, 49.55713
661.3850, 16.00293
662.5450, 54.40967
663.7040, 23.16748
664.8640, 29.79883
666.0230, 12.53467
667.1820, 70.15869
668.3410, 43.46436
669.4990, 5.757324
670.6580, 3.030762
671.8160, 25.11133
672.9740, 8.103516
674.1320, 39.30664
675.2900, 30.56689
676.4480, 8.573730
677.6050, 60.23975
678.7630, 37.34570
679.9200, 57.29150
681.0770, 11.51367
682.2340, 46.57031
683.3900, 42.38867
684.5470, 46.85498
685.7030, 13.08447
686.8590, 27.68604
688.0150, 15.18896
689.1710, 22.04199
690.3270, 108.1245
691.4830, 18.37695
692.6380, 49.66797
693.7930, 121.0142
694.9480, 21.45410
696.1030, 15.93506
697.2580, 70.54639
698.4130, 48.01318
699.5670, 7.464844
700.7210, 135.8911
701.8750, 127.3027
703.0290, 30.70068
704.1830, 46.92041
705.3370, 37.59473
706.4900, 110.6807
707.6430, 95.94238
708.7970, 223.1895
709.9490, 185.4219
711.1020, 232.6406
712.2550, 282.8452
713.4070, 263.0347
714.5600, 241.2104
715.7120, 203.3721
716.8640, 354.5190
718.0160, 488.6523
719.1670, 417.7710
720.3190, 663.8760
721.4700, 615.9658
722.6210, 632.0420
723.7720, 791.1045
724.9230, 869.1523
726.0740, 977.1855
727.2250, 1213.205
728.3750, 1175.210
729.5250, 1229.202
730.6750, 1522.179
731.8250, 1604.141
732.9750, 1578.090
734.1240, 1604.025
735.2740, 1541.946
736.4230, 1547.853
737.5720, 1598.746
738.7210, 1540.625
739.8700, 1561.488
741.0190, 1323.338
742.1670, 1334.173
743.3150, 1154.994
744.4630, 1017.801
745.6110, 871.5933
746.7590, 786.3711
747.9070, 706.1357
749.0540, 599.8853
750.2020, 556.6211
751.3490, 460.1089
752.4960, 400.0508
753.6430, 306.6836
754.7890, 273.9399
755.9360, 218.0903
757.0820, 215.7432
758.2280, 199.3813
759.3740, 107.0068
760.5200, 73.61865
761.6660, 181.2168
762.8120, 101.8022
763.9570, 130.3735
765.1020, 178.9316
766.2470, 159.4771
767.3920, 92.99072
768.5370, 81.46875
769.6810, 19.08447
770.8260, 10.67090
771.9700, 63.71436
773.1140, 19.91357
774.2580, 36.42578
775.4020, 38.75293
776.5460, 61.93262
777.6890, 3.672363
778.8320, 45.56445
779.9750, 65.21045
781.1180, 56.95947
782.2610, 9.117676
783.4040, 18.25977
784.5460, 1.610352
785.6890, 1.500977
786.8310, 64.41064
787.9730, 39.37451
789.1150, 0.3759770
790.2560, 57.60352
791.3980, 26.51367
792.5390, 80.47119
793.6810, 51.03613
794.8220, 94.84570
795.9630, 54.34766
797.1030, 39.07520
798.2440, 34.77295
799.3840, 58.01025
800.5240, 15.16016
801.6650, 103.5190
802.8040, 38.75146
803.9440, 87.93799
805.0840, 25.70801
806.2230, 91.69873
807.3630, 112.0684
808.5020, 47.68604
809.6410, 23.02051
810.7790, 2.583008
811.9180, 21.10107
813.0570, 81.84375
814.1950, 51.75488
815.3330, 52.16553
816.4710, 61.39648
817.6090, 114.0166
818.7470, 101.3809
819.8840, 42.89844
821.0220, 17.54785
822.1590, 97.67627
823.2960, 55.49609
824.4330, 136.7871
825.5690, 145.5703
826.7060, 213.5649
827.8420, 154.7539
828.9790, 393.5640
830.1150, 260.3989
831.2510, 383.7480
832.3860, 414.3394
833.5220, 443.2725
834.6570, 490.7866
835.7930, 561.2134
836.9280, 576.5811
838.0630, 566.0933
839.1980, 698.6060
840.3320, 829.7832
841.4670, 808.7603
842.6010, 871.3232
843.7350, 868.8369
844.8690, 934.3525
846.0030, 698.8696
847.1370, 711.3877
848.2700, 693.9082
849.4040, 672.4297
850.5370, 815.9536
851.6700, 826.4795
852.8030, 754.0083
853.9360, 883.5391
855.0680, 805.0723
856.2000, 856.6084
857.3330, 864.1484
858.4650, 881.6914
859.5970, 1017.237
860.7290, 903.7876
861.8600, 1078.342
862.9920, 1008.899
864.1230, 1258.461
865.2540, 1351.028
866.3850, 1355.601
867.5160, 1591.178
868.6460, 1855.768
869.7770, 2029.363
870.9070, 2378.964
872.0370, 2733.580
873.1670, 3082.202
874.2970, 3630.830
875.4270, 4126.464
876.5570, 4616.104
877.6860, 5056.750
878.8150, 5500.403
879.9440, 5562.064
881.0730, 5552.730
882.2020, 5384.404
883.3300, 5043.085
884.4590, 4502.774
885.5870, 4122.469
886.7150, 3600.182
887.8430, 3365.901
888.9710, 2928.629
890.0990, 2589.365
891.2260, 2434.109
892.3530, 2281.863
893.4810, 1941.631
894.6080, 1779.409
895.7340, 1711.195
896.8610, 1588.991
897.9880, 1526.796
899.1140, 1462.613
900.2400, 1392.438
901.3660, 1370.275
902.4920, 1316.121
903.6180, 1251.118
904.7430, 1108.985
905.8690, 1148.684
906.9940, 1095.653
908.1190, 1035.846
909.2440, 1086.596
910.3690, 1038.521
911.4930, 1015.458
912.6180, 1079.680
913.7420, 949.5967
914.8660, 1178.573
915.9900, 929.7080
917.1140, 1066.710
918.2380, 1027.513
919.3610, 1041.543
920.4850, 983.8403
921.6080, 986.0342
922.7310, 919.6338
923.8540, 982.7114
924.9760, 955.2603
926.0990, 995.3931
927.2210, 1010.550
928.3440, 977.7227
929.4660, 979.3311
930.5880, 949.5547
931.7090, 994.8198
932.8310, 956.4883
933.9520, 987.8169
935.0740, 1055.180
936.1950, 1001.560
937.3160, 1090.988
938.4360, 1146.448
939.5570, 1233.621
940.6780, 1279.200
941.7980, 1319.715
942.9180, 1367.167
944.0380, 1343.121
945.1580, 1369.713
946.2780, 1314.320
947.3970, 1256.009
948.5170, 1456.676
949.6360, 1391.842
950.7550, 1498.574
951.8740, 1278.327
952.9930, 1263.108
954.1110, 1410.914
955.2300, 1235.740
956.3480, 1255.062
957.4660, 1167.974
958.5840, 1063.598
959.7020, 968.5688
960.8190, 984.5630
961.9370, 907.5830
963.0540, 703.6626
964.1710, 741.7788
965.2880, 665.9365
966.4050, 638.1543
967.5220, 651.4062
968.6380, 678.6909
969.7550, 670.9976
970.8710, 537.3306
971.9870, 515.6899
973.1030, 363.0840
974.2190, 452.4990
975.3340, 327.9370
976.4500, 384.4170
977.5650, 298.9365
978.6800, 318.4854
979.7950, 213.0552
980.9100, 269.6470
982.0250, 249.2603
983.1390, 173.8960
984.2530, 155.5527
985.3680, 223.2319
986.4820, 201.9331
987.5950, 135.6562
988.7090, 214.4014
989.8230, 242.1694
990.9360, 160.9653
992.0490, 306.7856
993.1620, 368.6426
994.2750, 226.5215
995.3880, 295.4390
996.5010, 187.3804
997.6130, 275.3447
998.7250, 181.3374
999.8370, 292.5688
1000.949, 263.6162
1002.061, 250.4663
1003.173, 248.5581
1004.284, 334.6733
1005.396, 378.0786
1006.507, 390.2549
1007.618, 333.4531
1008.729, 248.6738
1009.839, 182.9170
1010.950, 216.1816
1012.060, 289.4692
1013.171, 278.7949
1014.281, 373.1431
1015.391, 315.5132
1016.500, 303.9058
1017.610, 322.3203
1018.719, 211.7568
1019.829, 221.7969
1020.938, 188.2793
1022.047, 170.2842
1023.156, 321.3125
1024.264, 148.8633
1025.373, 248.6582
1026.481, 189.3291
1027.589, 297.9453
1028.697, 156.5869
1029.805, 207.2490
1030.913, 211.9346
1032.020, 301.9199
1033.128, 277.6553
1034.235, 239.4180
1035.342, 316.2021
1036.449, 179.0078
1037.556, 203.8662
1038.663, 134.7451
1039.769, 232.6562
1040.875, 157.5977
1041.981, 236.5596
1043.087, 79.55273
1044.193, 246.5674
1045.299, 190.6045
1046.404, 231.6826
1047.510, 245.7871
1048.615, 226.9141
1049.720, 64.08301
1050.825, 156.2725
1051.930, 127.4854
1053.034, 191.7188
1054.139, 166.9775
1055.243, 178.2607
1056.347, 145.6543
1057.451, 152.2676
1058.555, 141.3965
1059.658, 155.5684
1060.762, 172.5381
1061.865, 180.8213
1062.968, 204.0762
1064.071, 230.7090
1065.174, 211.2275
1066.277, 261.3115
1067.380, 192.9102
1068.482, 166.3467
1069.584, 119.2744
1070.686, 113.3945
1071.788, 142.5527
1072.890, 138.2422
1073.992, 165.9492
1075.093, 213.6748
1076.194, 187.1123
1077.295, 73.59375
1078.396, 157.3838
1079.497, 115.1904
1080.598, 99.02051
1081.698, 139.0947
1082.799, 179.9697
1083.899, 159.9229
1084.999, 7.704102
1086.099, 190.6270
1087.199, 143.6211
1088.298, 191.5762
1089.398, 306.2744
1090.497, 176.2646
1091.596, 186.2793
1092.695, 47.31055
1093.794, 143.5293
1094.892, 133.3535
1095.991, 230.9688
1097.089, 82.05762
1098.187, 177.1611
1099.285, 82.27832
1100.383, 251.4082
1101.481, 99.55273
1102.579, 210.7031
1103.676, 216.8789
1104.773, 65.87500
1105.870, 145.0752
1106.967, 172.2881
1108.064, 106.5137
1109.161, 193.7520
1110.257, 245.6035
1111.353, 126.8652
1112.449, 73.13867
1113.545, 124.4238
1114.641, 119.7207
1115.737, 200.0283
1116.832, 206.3477
1117.928, 306.6953
1119.023, 284.5781
1120.118, 202.3877
1121.213, 275.7998
1122.308, 296.3623
1123.402, 343.4424
1124.497, 313.9248
1125.591, 246.3271
1126.685, 174.2988
1127.779, 84.30859
1128.873, 175.7412
1129.967, 88.47461
1131.060, 14.88379
1132.153, 176.5723
1133.247, 61.96289
1134.340, 187.4941
1135.433, 170.2227
1136.525, 71.30371
1137.618, 93.87305
1138.710, 5.436523
1139.802, 68.91211
1140.895, 46.39648
1141.987, 75.88672
1143.078, 18.38379
1144.170, 43.61816
1145.261, 144.1299
1146.353, 72.68262
1147.444, 75.20703
1148.535, 33.73828
1149.626, 46.27539
1150.716, 48.18066
1151.807, 2.352539
1152.897, 39.49316
1153.988, 122.0391
1155.078, 164.5908
1156.168, 10.85352
1157.257, 34.29492
1158.347, 161.2588
1159.436, 30.67676
1160.526, 82.24023
1161.615, 187.8086
1162.704, 11.15234
1163.793, 95.42090
1164.881, 56.22949
1165.970, 170.8105
1167.058, 92.39648
1168.147, 117.0977
1169.235, 40.69043
1170.323, 33.28613
1171.410, 4.885742
1172.498, 88.49023
1173.585, 52.09863
1174.673, 79.70996
1175.760, 20.32227
1176.847, 25.93848
1177.934, 91.55566
1179.020, 136.1738
1180.107, 35.79590
1181.193, 35.41895
1182.279, 77.04297
1183.365, 54.66895
1184.451, 97.29590
1185.537, 45.92480
1186.623, 57.44531
1187.708, 40.15625
1188.793, 20.75977
1189.878, 32.63672
1190.963, 6.951172
1192.048, 6.539063
1193.133, 19.87305
1194.217, 54.29785
1195.302, 90.25098
1196.386, 109.2021
1197.470, 34.71191
1198.554, 85.24121
1199.638, 80.18457
1200.721, 46.60938
1201.805, 15.03223
1202.888, 97.45508
1203.971, 24.87500
1205.054, 66.29395
1206.137, 65.71094
1207.219, 0.1279300
1208.302, 17.53711
1209.384, 83.94434
1210.466, 43.34961
1211.548, 80.24805
1212.630, 114.1074
1213.712, 11.45996
1214.794, 23.19141
1215.875, 85.13672
1216.956, 13.46387
1218.037, 117.7852
1219.118, 18.89551
1220.199, 98.40430
1221.280, 69.70117
1222.360, 32.99512
1223.441, 12.28516
1224.521, 0.4316410
1225.601, 4.139648
1226.681, 33.53027
1227.760, 53.36426
1228.840, 69.62012
1229.919, 130.8721
1230.999, 40.12012
1232.078, 1.636719
1233.157, 60.57422
1234.236, 31.20020
1235.314, 100.9971
1236.393, 109.1895
1237.471, 78.37695
1238.549, 63.55957
1239.627, 9.261719
1240.705, 130.8975
1241.783, 166.0537
1242.860, 178.2422
1243.938, 54.38672
1245.015, 61.52734
1246.092, 70.66211
1247.169, 32.79297
1248.246, 48.91699
1249.323, 65.03613
1250.399, 32.14941
1251.475, 1.257813
1252.552, 11.35547
1253.628, 28.65234
1254.703, 51.49609
1255.779, 35.45605
1256.855, 15.55469
1257.930, 112.5557
1259.005, 1.567383
1260.080, 12.43848
1261.155, 181.3232
1262.230, 155.2852
1263.305, 93.45996
1264.379, 26.41211
1265.454, 72.35254
1266.528, 37.97852
1267.602, 32.91895
1268.676, 60.80957
1269.750, 59.69531
1270.823, 54.57422
1271.897, 71.44727
1272.970, 36.68555
1274.043, 89.14355
1275.116, 39.96582
1276.189, 57.78223
1277.261, 139.5928
1278.334, 103.3965
1279.406, 68.19434
1280.478, 49.40527
1281.550, 17.18945
1282.622, 73.96289
1283.694, 137.7373
1284.766, 69.50488
1285.837, 49.04297
1286.908, 98.71973
1287.979, 11.46875
1289.050, 96.20312
1290.121, 98.93066
1291.192, 0.6523440
1292.262, 221.0830
1293.333, 4.778320
1294.403, 198.4570
1295.473, 237.1279
1296.543, 38.79297
1297.613, 267.4502
1298.682, 162.0996
1299.752, 254.7969
1300.821, 120.9346
1301.890, 167.5635
1302.959, 155.1865
1304.028, 205.8018
1305.096, 155.4092
1306.165, 175.0098
1307.233, 54.60449
1308.301, 175.1914
1309.370, 224.7705
1310.437, 246.3467
1311.505, 101.9170
1312.573, 147.5049
1313.640, 165.0615
1314.708, 79.60645
1315.775, 222.0742
1316.842, 82.60352
1317.908, 106.1260
