##NAMES=Chloritoid
##RRUFFID=R050334
##IDEAL CHEMISTRY=Fe^2+^Al_2_OSiO_4_(OH)_2_
##LOCALITY=Selçuk, Mugla Province, Turkey
##OWNER=RRUFF
##SOURCE=George Rossman
##DESCRIPTION=Dark greenish-black foliated cleavage fragments
##STATUS=The identification of this mineral is confirmed by single-crystal X-ray diffraction and chemical analysis.
##URL=rruff.info/R050334
##MEASURED CHEMISTRY=(Fe^2+^_1.84_Mg_0.12_Mn_0.04_)_Σ=2_(Al_3.95_Fe^3+^_0.05_)_Σ=4_Si_2.00_O_10_(OH)_4_ ; H not measured but estimated by difference and stoichiometry
##PIN_ID=M00213
##ORIENTATION=Laser parallel to a* (1 0 0). Fiducial mark perpendicular to laser is parallel to -b [0 -1 0]
89.77700, 0.0000000E+00
91.01200, 0.2802730
92.24600, 43.55371
93.48000, 101.6165
94.71400, 2.656128
95.94800, 34.39209
97.18200, 91.21350
98.41600, 157.8110
99.64900, 254.3877
100.8830, 390.6866
102.1160, 789.5184
103.3490, 1005.620
104.5820, 1542.918
105.8150, 1440.844
107.0470, 1342.848
108.2800, 1304.278
109.5120, 854.8190
110.7440, 812.1499
111.9760, 870.1470
113.2080, 981.1045
114.4400, 872.0634
115.6710, 679.5583
116.9030, 546.8530
118.1340, 419.6602
119.3650, 438.5161
120.5960, 327.5376
121.8270, 286.1797
123.0580, 107.3225
124.2880, 132.0914
125.5190, 122.7657
126.7490, 223.1169
127.9790, 199.3900
129.2090, 124.9061
130.4390, 61.50647
131.6680, 37.18396
132.8980, 130.9315
134.1270, 120.7422
135.3560, 141.6101
136.5850, 149.5880
137.8140, 208.4927
139.0430, 98.49585
140.2710, 95.53479
141.5000, 16.60498
142.7280, 22.70325
143.9560, 3.822021
145.1840, 64.95483
146.4120, 16.10059
147.6390, 0.2579350
148.8670, 138.4260
150.0940, 191.6042
151.3210, 79.79150
152.5490, 3.987427
153.7750, 1.191406
155.0020, 69.59705
156.2290, 42.37366
157.4550, 47.94763
158.6810, 25.69946
159.9080, 40.11377
161.1340, 39.36169
162.3590, 123.5696
163.5850, 117.7490
164.8110, 71.93323
166.0360, 84.12122
167.2610, 162.3121
168.4860, 147.5067
169.7110, 149.7034
170.9360, 120.9000
172.1610, 112.0946
173.3850, 115.2850
174.6100, 137.4688
175.8340, 134.6444
177.0580, 200.8107
178.2820, 186.9668
179.5050, 225.1106
180.7290, 221.2378
181.9520, 298.3438
183.1760, 389.4304
184.3990, 446.4905
185.6220, 474.5303
186.8450, 580.5542
188.0670, 698.5636
189.2900, 829.5542
190.5120, 1009.526
191.7340, 1144.481
192.9560, 1382.413
194.1780, 1601.336
195.4000, 1919.230
196.6220, 2248.024
197.8430, 2541.728
199.0640, 2881.408
200.2860, 3200.083
201.5070, 3297.752
202.7270, 3266.417
203.9480, 3426.079
205.1690, 3597.736
206.3890, 3677.391
207.6090, 3815.042
208.8290, 3825.691
210.0490, 3828.335
211.2690, 3748.978
212.4890, 3631.616
213.7080, 3425.252
214.9280, 3280.886
216.1470, 3183.517
217.3660, 2919.145
218.5850, 2745.771
219.8030, 2617.395
221.0220, 2466.066
222.2400, 2340.698
223.4590, 2265.006
224.6770, 2154.706
225.8950, 2134.911
227.1120, 2130.002
228.3300, 2117.738
229.5480, 2203.111
230.7650, 2242.093
231.9820, 2506.551
233.1990, 2687.812
234.4160, 3093.903
235.6330, 3557.993
236.8490, 4382.071
238.0660, 5460.422
239.2820, 6894.035
240.4980, 7816.646
241.7140, 8412.014
242.9300, 8658.602
244.1460, 8546.165
245.3610, 8440.708
246.5770, 8318.219
247.7920, 8263.703
249.0070, 8192.154
250.2220, 8096.574
251.4370, 7740.962
252.6510, 6813.317
253.8660, 5750.625
255.0800, 4499.885
256.2940, 3693.109
257.5080, 2958.273
258.7220, 1868.411
259.9360, 1308.526
261.1490, 1012.619
262.3630, 855.6736
263.5760, 806.6733
264.7890, 707.7010
266.0020, 738.6343
267.2150, 861.5579
268.4270, 1027.437
269.6400, 1266.210
270.8520, 1530.746
272.0640, 2021.248
273.2760, 2230.841
274.4880, 2366.436
275.7000, 2519.986
276.9120, 2615.240
278.1230, 2738.277
279.3340, 2903.888
280.5450, 2977.470
281.7560, 3025.094
282.9670, 2859.723
284.1780, 2672.356
285.3880, 2319.000
286.5980, 2017.533
287.8090, 1708.566
289.0190, 1443.291
290.2290, 1318.036
291.4380, 1130.780
292.6480, 1062.966
293.8570, 954.8004
295.0670, 989.5176
296.2760, 991.2512
297.4850, 1030.788
298.6930, 1030.578
299.9020, 1145.250
301.1110, 1213.514
302.3190, 1213.521
303.5270, 1214.207
304.7350, 1325.302
305.9430, 1355.688
307.1510, 1363.068
308.3580, 1362.738
309.5660, 1369.397
310.7730, 1401.940
311.9800, 1346.523
313.1870, 1330.187
314.3940, 1286.849
315.6010, 1303.510
316.8070, 1404.168
318.0130, 1515.826
319.2200, 1671.481
320.4260, 1912.135
321.6310, 2365.787
322.8370, 2768.438
324.0430, 3032.086
325.2480, 3145.733
326.4540, 3137.380
327.6590, 3041.023
328.8640, 3045.667
330.0680, 3018.309
331.2730, 2901.950
332.4780, 2987.590
333.6820, 2849.229
334.8860, 2630.866
336.0900, 2330.503
337.2940, 1918.140
338.4980, 1496.776
339.7010, 1106.410
340.9050, 890.0443
342.1080, 662.6782
343.3110, 561.3123
344.5140, 453.9469
345.7170, 361.5818
346.9200, 310.2170
348.1220, 227.8525
349.3240, 148.4884
350.5270, 59.12476
351.7290, 26.76147
352.9310, 25.39783
354.1320, 34.96606
355.3340, 15.34143
356.5350, 55.72302
357.7370, 96.12122
358.9380, 120.5458
360.1390, 87.00366
361.3400, 72.48608
362.5400, 77.98669
363.7410, 47.50867
364.9410, 86.04333
366.1410, 29.59729
367.3410, 10.15149
368.5410, 66.72559
369.7410, 11.64600
370.9400, 13.95593
372.1400, 25.22083
373.3390, 24.44739
374.5380, 56.99097
375.7370, 82.14014
376.9360, 122.0713
378.1350, 120.2769
379.3330, 144.4854
380.5310, 86.69714
381.7300, 206.9041
382.9280, 193.1088
384.1260, 229.3104
385.3230, 293.5090
386.5210, 291.7053
387.7180, 282.8987
388.9160, 390.0891
390.1130, 333.2765
391.3100, 375.4612
392.5060, 317.6433
393.7030, 356.8228
394.9000, 304.0033
396.0960, 289.1832
397.2920, 246.3798
398.4880, 238.5837
399.6840, 222.8013
400.8800, 140.0459
402.0750, 165.3015
403.2710, 69.57056
404.4660, 44.85791
405.6610, 64.16895
406.8560, 53.50085
408.0510, 28.84253
409.2450, 59.19971
410.4400, 59.57605
411.6340, 56.98096
412.8280, 8.414063
414.0220, 79.85925
415.2160, 73.30945
416.4100, 151.7727
417.6030, 95.24097
418.7970, 104.7120
419.9900, 108.1901
421.1830, 129.6722
422.3760, 81.15833
423.5690, 47.64490
424.7610, 96.13196
425.9540, 87.61951
427.1460, 145.1072
428.3380, 9.595093
429.5300, 35.08264
430.7220, 6.570679
431.9140, 15.93921
433.1050, 2.453979
434.2970, 5.966431
435.4880, 0.7746580
436.6790, 8.996582
437.8700, 21.48914
439.0610, 17.97424
440.2510, 33.45825
441.4420, 75.94250
442.6320, 100.4304
443.8220, 113.9225
445.0120, 94.43738
446.2020, 173.9675
447.3910, 123.5143
448.5810, 208.0717
449.7700, 222.6298
450.9600, 273.1884
452.1490, 256.7463
453.3370, 244.3037
454.5260, 327.8610
455.7150, 376.4177
456.9030, 402.9736
458.0910, 491.5288
459.2800, 547.0830
460.4670, 611.6362
461.6550, 743.4868
462.8430, 849.7401
464.0300, 1042.291
465.2180, 1193.840
466.4050, 1411.388
467.5920, 1542.260
468.7790, 1707.482
469.9650, 1834.026
471.1520, 1916.570
472.3380, 2087.113
473.5250, 2166.654
474.7110, 2214.194
475.8970, 2315.732
477.0820, 2300.269
478.2680, 2313.805
479.4540, 2347.339
480.6390, 2361.872
481.8240, 2369.403
483.0090, 2577.933
484.1940, 2610.463
485.3780, 2844.993
486.5630, 3037.521
487.7470, 3355.046
488.9320, 3618.571
490.1160, 3783.163
491.3000, 3937.623
492.4830, 4037.159
493.6670, 4222.649
494.8500, 4180.008
496.0340, 4326.367
497.2170, 4421.312
498.4000, 4540.501
499.5820, 4462.167
500.7650, 4321.463
501.9480, 4140.142
503.1300, 4055.939
504.3120, 3837.133
505.4940, 3856.600
506.6760, 3884.209
507.8580, 3925.047
509.0390, 4070.828
510.2210, 4144.451
511.4020, 4236.492
512.5830, 4713.221
513.7640, 4864.832
514.9450, 5359.632
516.1250, 6131.376
517.3060, 7141.995
518.4860, 8528.633
519.6660, 9836.228
520.8460, 11192.82
522.0260, 12590.41
523.2060, 13560.00
524.3850, 14401.59
525.5650, 14846.18
526.7440, 15203.76
527.9230, 15482.35
529.1020, 15682.94
530.2810, 15529.52
531.4590, 15408.11
532.6380, 14975.69
533.8160, 14581.29
534.9940, 14326.88
536.1720, 14949.15
537.3500, 16109.10
538.5270, 18637.91
539.7050, 22680.49
540.8820, 28753.53
542.0590, 36720.74
543.2360, 44438.01
544.4130, 49641.88
545.5900, 51888.89
546.7660, 52398.14
547.9430, 52304.73
549.1190, 51979.59
550.2950, 51969.81
551.4710, 51967.87
552.6470, 49625.11
553.8220, 43943.27
554.9980, 36076.43
556.1730, 27183.79
557.3480, 19514.87
558.5230, 13877.30
559.6980, 10375.17
560.8730, 7975.885
562.0470, 6163.812
563.2220, 4963.466
564.3960, 4123.951
565.5700, 3546.432
566.7440, 3094.905
567.9170, 2738.371
569.0910, 2569.831
570.2640, 2257.168
571.4380, 2310.606
572.6110, 2209.920
573.7840, 2241.670
574.9570, 2172.873
576.1290, 2427.979
577.3020, 2745.202
578.4740, 3151.203
579.6460, 4019.543
580.8180, 5389.863
581.9900, 7805.242
583.1620, 12031.62
584.3330, 18646.99
585.5040, 24931.35
586.6760, 29083.70
587.8470, 29441.05
589.0180, 29028.39
590.1880, 29042.72
591.3590, 28895.05
592.5290, 29515.36
593.7000, 30653.67
594.8700, 29574.97
596.0400, 25246.26
597.2090, 19197.55
598.3790, 13314.82
599.5490, 9056.091
600.7180, 6260.350
601.8870, 4741.602
603.0560, 3632.845
604.2250, 2936.080
605.3940, 2484.307
606.5620, 2112.526
607.7300, 1863.735
608.8990, 1522.938
610.0670, 1288.130
611.2350, 1237.315
612.4020, 1072.492
613.5700, 927.6506
614.7370, 809.8179
615.9050, 676.9683
617.0720, 622.1104
618.2390, 556.2434
619.4060, 481.3679
620.5720, 441.4836
621.7390, 482.5903
622.9050, 418.6887
624.0710, 402.3848
625.2370, 347.4648
626.4030, 282.5364
627.5690, 190.5991
628.7340, 232.6526
629.9000, 199.6970
631.0650, 146.8745
632.2300, 238.3569
633.3950, 124.4119
634.5600, 159.7944
635.7240, 80.66382
636.8890, 61.79907
638.0530, 98.04810
639.2170, 87.81201
640.3810, 35.57275
641.5450, 44.58618
642.7080, 45.53516
643.8720, 13.01001
645.0350, 39.17017
646.1980, 27.33862
647.3610, 4.136963
648.5240, 17.15430
649.6870, 7.266602
650.8490, 25.66089
652.0120, 33.35913
653.1740, 42.36548
654.3360, 33.35986
655.4980, 0.6149900
656.6600, 58.57227
657.8210, 57.51758
658.9830, 128.4514
660.1440, 143.3767
661.3050, 186.2920
662.4660, 224.1992
663.6270, 163.0955
664.7870, 228.9863
665.9480, 189.8782
667.1080, 161.7664
668.2680, 219.6602
669.4280, 200.5618
670.5880, 152.4624
671.7480, 140.3628
672.9070, 62.25806
674.0670, 113.1438
675.2260, 20.02368
676.3850, 33.88599
677.5440, 43.26733
678.7030, 7.468994
679.8610, 30.70093
681.0200, 80.97461
682.1780, 18.31738
683.3360, 27.69580
684.4940, 46.11499
685.6520, 65.58496
686.8090, 55.11523
687.9670, 11.70093
689.1240, 34.31885
690.2810, 46.98096
691.4380, 81.69336
692.5950, 80.47534
693.7520, 19.32544
694.9080, 14.78882
696.0650, 16.11621
697.2210, 11.94482
698.3770, 30.98608
699.5330, 5.012695
700.6880, 27.01636
701.8440, 41.00488
702.9990, 91.98096
704.1550, 106.9707
705.3100, 116.9021
706.4650, 168.8467
707.6190, 211.7810
708.7740, 264.7053
709.9290, 320.7249
711.0830, 429.5244
712.2370, 438.4192
713.3910, 520.3081
714.5450, 583.1882
715.6980, 738.0601
716.8520, 750.9233
718.0050, 925.7795
719.1580, 995.6262
720.3110, 1136.514
721.4640, 1256.292
722.6170, 1458.110
723.7700, 1516.919
724.9220, 1708.718
726.0740, 1864.509
727.2260, 1930.290
728.3780, 1998.062
729.5300, 2066.825
730.6810, 2100.545
731.8330, 2213.325
732.9840, 2142.062
734.1350, 2165.790
735.2860, 2144.510
736.4370, 2018.220
737.5880, 1924.922
738.7380, 1870.617
739.8880, 1704.302
741.0390, 1509.980
742.1890, 1357.649
743.3380, 1271.311
744.4880, 1099.965
745.6380, 988.6113
746.7870, 791.2500
747.9360, 670.8804
749.0850, 576.5034
750.2340, 549.1196
751.3830, 393.7278
752.5310, 422.3291
753.6800, 291.9231
754.8280, 293.5105
755.9760, 242.0906
757.1240, 127.6641
758.2720, 117.2310
759.4190, 57.79126
760.5670, 45.37793
761.7140, 6.892578
762.8610, 62.42700
764.0080, 54.95508
765.1550, 82.47729
766.3020, 35.99365
767.4480, 32.50391
768.5950, 20.99097
769.7410, 9.511963
770.8870, 23.94800
772.0330, 8.598633
773.1780, 0.1638180
774.3240, 17.25635
775.4690, 7.330078
776.6140, 1.065918
777.7590, 1.075928
778.9040, 53.66260
780.0490, 2.037354
781.1940, 7.250000
782.3380, 5.946777
783.4820, 40.76172
784.6260, 51.81445
785.7700, 33.52344
786.9140, 6.360840
788.0580, 17.62964
789.2010, 54.93701
790.3450, 32.78906
791.4880, 58.77515
792.6310, 6.617920
793.7730, 46.51147
794.9160, 53.66626
796.0590, 35.81104
797.2010, 62.47437
798.3430, 32.75464
799.4850, 123.5554
800.6270, 54.73633
801.7690, 117.1082
802.9100, 203.9778
804.0520, 173.7383
805.1930, 182.6704
806.3340, 198.1167
807.4750, 235.6025
808.6160, 312.0547
809.7560, 273.5195
810.8970, 325.9680
812.0370, 404.2451
813.1770, 410.7180
814.3170, 481.5046
815.4570, 479.4263
816.5960, 531.5845
817.7360, 599.2756
818.8750, 650.8037
820.0140, 771.2583
821.1530, 794.4448
822.2920, 861.8223
823.4310, 874.3008
824.5690, 996.4368
825.7070, 1058.300
826.8460, 1158.746
827.9840, 1268.401
829.1220, 1362.884
830.2590, 1447.452
831.3970, 1646.868
832.5340, 1700.221
833.6710, 1892.862
834.8080, 2086.139
835.9450, 2155.995
837.0820, 2347.970
838.2190, 2469.550
839.3550, 2674.843
840.4910, 2741.074
841.6270, 2970.312
842.7630, 3127.556
843.8990, 3396.808
845.0350, 3652.067
846.1700, 3794.334
847.3060, 4074.609
848.4410, 4263.892
849.5760, 4590.182
850.7100, 4964.481
851.8450, 5231.787
852.9800, 5542.103
854.1140, 5879.427
855.2480, 6349.761
856.3820, 6705.105
857.5160, 7322.455
858.6500, 7848.816
859.7830, 8515.187
860.9170, 9398.568
862.0500, 10143.96
863.1830, 11211.36
864.3160, 12587.77
865.4480, 13828.19
866.5810, 15472.62
867.7130, 17355.07
868.8460, 19069.52
869.9780, 21203.98
871.1100, 23249.46
872.2410, 24887.95
873.3730, 26465.45
874.5050, 27609.96
875.6360, 27825.49
876.7670, 27530.02
877.8980, 27229.57
879.0290, 26000.13
880.1590, 24713.70
881.2900, 23243.00
882.4200, 20371.89
883.5500, 19184.51
884.6800, 16698.13
885.8100, 13768.77
886.9400, 11911.43
888.0690, 10828.10
889.1990, 8967.779
890.3280, 7678.479
891.4570, 6593.190
892.5860, 5988.918
893.7140, 5210.660
894.8430, 4668.417
895.9710, 4332.190
897.1000, 3925.978
898.2280, 3638.174
899.3560, 3397.994
900.4830, 3057.830
901.6110, 2901.681
902.7380, 2637.549
903.8660, 2400.434
904.9930, 2266.194
906.1200, 2105.656
907.2460, 1815.554
908.3730, 1569.132
909.5000, 1439.233
910.6260, 1330.077
911.7520, 1174.828
912.8780, 1014.079
914.0040, 952.3594
915.1290, 795.4233
916.2550, 662.5947
917.3800, 596.2744
918.5050, 493.2976
919.6300, 454.3438
920.7550, 406.7832
921.8800, 302.3423
923.0040, 220.1982
924.1290, 201.4133
925.2530, 110.7007
926.3770, 106.0193
927.5010, 110.3604
928.6250, 50.45264
929.7480, 34.84937
930.8720, 73.27441
931.9950, 21.26733
933.1180, 4.783203
934.2410, 26.27051
935.3640, 11.26367
936.4860, 44.17920
937.6090, 82.61084
938.7310, 55.04370
939.8530, 107.4688
940.9750, 118.9036
942.0970, 74.35303
943.2180, 73.80029
944.3400, 48.24487
945.4610, 15.67310
946.5820, 43.08081
947.7030, 102.5247
948.8240, 77.15796
949.9450, 153.8171
951.0650, 149.5195
952.1860, 157.2559
953.3060, 250.0322
954.4260, 313.8623
955.5460, 308.7307
956.6650, 433.6387
957.7850, 520.5920
958.9040, 509.5947
960.0230, 548.6455
961.1420, 562.7319
962.2610, 596.8601
963.3800, 593.0347
964.4990, 613.7900
965.6170, 622.5483
966.7350, 620.8711
967.8530, 595.2236
968.9710, 560.6147
970.0890, 546.1292
971.2070, 563.4856
972.3240, 527.9678
973.4410, 516.4785
974.5580, 574.0166
975.6750, 496.5815
976.7920, 595.1733
977.9090, 453.7915
979.0250, 488.4419
980.1410, 489.1199
981.2580, 453.8245
982.3740, 483.5579
983.4890, 385.3181
984.6050, 501.1057
985.7200, 436.9207
986.8360, 538.7632
987.9510, 464.6328
989.0660, 496.5317
990.1810, 489.4587
991.2950, 524.4182
992.4100, 543.4119
993.5240, 542.1367
994.6390, 556.4819
995.7530, 549.5591
996.8660, 552.3857
997.9800, 524.8022
999.0940, 548.9661
1000.207, 556.1580
1001.320, 553.3772
1002.433, 506.6265
1003.546, 491.9033
1004.659, 458.2161
1005.772, 476.5569
1006.884, 478.9260
1007.996, 444.3232
1009.108, 464.7502
1010.220, 422.2095
1011.332, 482.7061
1012.444, 448.2336
1013.555, 394.7891
1014.666, 477.3804
1015.777, 504.0061
1016.888, 405.6602
1017.999, 530.3433
1019.110, 465.0676
1020.220, 461.8218
1021.331, 520.6104
1022.441, 485.4285
1023.551, 472.2764
1024.661, 400.1541
1025.770, 454.0613
1026.880, 534.9976
1027.989, 497.9624
1029.098, 495.9602
1030.207, 576.9905
1031.316, 555.0493
1032.425, 534.1399
1033.533, 491.2593
1034.642, 526.7456
1035.750, 567.5891
1036.858, 549.8015
1037.966, 639.0427
1039.073, 555.3276
1040.181, 551.6519
1041.288, 578.0081
1042.396, 603.4019
1043.503, 618.8291
1044.610, 624.2896
1045.716, 588.7847
1046.823, 631.3137
1047.929, 561.8755
1049.036, 744.4727
1050.142, 594.1104
1051.248, 731.7788
1052.353, 707.4829
1053.459, 785.2324
1054.564, 736.0317
1055.670, 749.8696
1056.775, 829.7388
1057.880, 823.1711
1058.985, 763.9497
1060.089, 885.9026
1061.194, 811.3599
1062.298, 897.6055
1063.402, 882.0146
1064.506, 880.4966
1065.610, 860.1187
1066.713, 912.8118
1067.817, 938.5845
1068.920, 933.7642
1070.023, 926.7773
1071.126, 1042.319
1072.229, 1103.998
1073.332, 1157.529
1074.435, 1176.571
1075.537, 1241.598
1076.639, 1244.689
1077.741, 1323.892
1078.843, 1428.015
1079.945, 1541.356
1081.046, 1709.839
1082.148, 1726.350
1083.249, 1915.887
1084.350, 2073.453
1085.451, 2140.047
1086.551, 2254.666
1087.652, 2232.523
1088.752, 2262.197
1089.853, 2229.897
1090.953, 2156.621
1092.053, 2087.372
1093.152, 1961.146
1094.252, 1812.952
1095.351, 1643.783
1096.451, 1511.704
1097.550, 1346.587
1098.649, 1207.494
1099.748, 946.4241
1100.846, 887.3779
1101.945, 827.3547
1103.043, 649.3547
1104.141, 622.3794
1105.239, 549.4285
1106.337, 460.5002
1107.434, 495.5947
1108.532, 467.7112
1109.629, 353.8501
1110.726, 384.2290
1111.823, 371.4146
1112.920, 363.6218
1114.017, 359.1941
1115.113, 340.4456
1116.210, 441.7234
1117.306, 417.0234
1118.402, 493.3472
1119.498, 478.6929
1120.593, 483.4338
1121.689, 475.8750
1122.784, 431.3193
1123.879, 362.2107
1124.974, 392.6641
1126.069, 365.1477
1127.164, 312.6436
1128.259, 221.7976
1129.353, 279.3350
1130.447, 263.8911
1131.541, 185.4673
1132.635, 243.0645
1133.729, 239.9099
1134.822, 203.5474
1135.916, 136.8750
1137.009, 136.8633
1138.102, 157.2456
1139.195, 119.9578
1140.288, 141.0029
1141.380, 178.5916
1142.473, 181.3042
1143.565, 223.6772
1144.657, 132.4917
1145.749, 149.8308
1146.841, 148.0618
1147.932, 173.9275
1149.024, 116.8250
1150.115, 86.75830
1151.206, 47.89624
1152.297, 170.1553
1153.388, 167.3230
1154.479, 122.4814
1155.569, 123.7405
1156.659, 114.9590
1157.750, 76.97339
1158.839, 170.0129
1159.929, 109.1179
1161.019, 171.9321
1162.108, 140.0063
1163.198, 69.09424
1164.287, 84.19556
1165.376, 122.6562
1166.465, 146.3931
1167.553, 58.19897
1168.642, 118.3533
1169.730, 66.80542
1170.818, 88.82617
1171.906, 61.60669
1172.994, 71.45312
1174.082, 34.66675
1175.170, 45.79004
1176.257, 44.02612
1177.344, 35.69775
1178.431, 65.95508
1179.518, 37.90332
1180.605, 38.88672
1181.691, 75.18652
1182.778, 35.89307
1183.864, 12.03931
1184.950, 1.793701
1186.036, 37.62573
1187.122, 20.14233
1188.207, 19.37061
1189.292, 50.02588
1190.378, 39.31030
1191.463, 17.34546
1192.548, 9.920166
1193.632, 38.54321
1194.717, 60.16333
1195.801, 51.19629
1196.886, 43.87280
1197.970, 34.34766
1199.054, 56.47266
1200.137, 13.79297
1201.221, 22.45264
1202.305, 69.69897
1203.388, 36.06250
1204.471, 104.4482
1205.554, 22.86792
1206.637, 64.53125
1207.719, 29.02808
1208.802, 45.55786
1209.884, 52.00586
1210.966, 68.79004
1212.048, 16.25220
1213.130, 34.77686
1214.212, 25.10303
1215.293, 30.57666
1216.374, 38.05371
1217.456, 6.135010
1218.536, 43.00562
1219.617, 26.55908
1220.698, 6.049072
1221.778, 21.79834
1222.859, 10.09253
1223.939, 11.06860
1225.019, 16.86377
1226.099, 0.6103520
1227.178, 8.138184
1228.258, 6.143311
1229.337, 10.75488
1230.417, 12.25659
1231.496, 11.75879
1232.574, 20.59082
1233.653, 16.75879
1234.732, 29.13477
1235.810, 18.66309
1236.888, 41.16748
1237.966, 55.67114
1239.044, 5.174561
1240.122, 22.32275
1241.199, 55.74561
1242.277, 47.30591
1243.354, 3.992188
1244.431, 38.49170
1245.508, 28.14673
1246.585, 57.86987
1247.661, 25.95239
1248.738, 27.03833
1249.814, 2.896484
1250.890, 4.571777
1251.966, 14.96338
1253.042, 22.26074
1254.117, 27.21606
1255.193, 8.677490
1256.268, 10.65137
1257.343, 5.868164
1258.418, 22.04248
1259.493, 12.51855
1260.567, 25.99536
1261.642, 63.85474
1262.716, 3.474365
1263.790, 78.35327
