##NAMES=Chloritoid
##RRUFFID=R050334
##IDEAL CHEMISTRY=Fe^2+^Al_2_OSiO_4_(OH)_2_
##LOCALITY=Selçuk, Mugla Province, Turkey
##OWNER=RRUFF
##SOURCE=George Rossman
##DESCRIPTION=Dark greenish-black foliated cleavage fragments
##STATUS=The identification of this mineral is confirmed by single-crystal X-ray diffraction and chemical analysis.
##URL=rruff.info/R050334
##MEASURED CHEMISTRY=(Fe^2+^_1.84_Mg_0.12_Mn_0.04_)_Σ=2_(Al_3.95_Fe^3+^_0.05_)_Σ=4_Si_2.00_O_10_(OH)_4_ ; H not measured but estimated by difference and stoichiometry
##PIN_ID=M01491
##ORIENTATION=Laser parallel to (1 0 1). Fiducial mark perpendicular to laser is parallel to b [0 1 0]
158.5580, 0.0000000E+00
159.7870, 2.428711
161.0170, 172.3799
162.2460, 232.7002
163.4750, 185.5166
164.7030, 222.6113
165.9320, 272.0361
167.1600, 169.7979
168.3890, 264.3398
169.6170, 337.7197
170.8450, 510.4170
172.0730, 321.9551
173.3000, 561.0225
174.5280, 422.2129
175.7550, 385.2236
176.9820, 200.0029
178.2090, 274.7568
179.4350, 109.8398
180.6620, 99.95898
181.8880, 122.0889
183.1150, 103.9619
184.3410, 202.0664
185.5670, 217.7285
186.7920, 332.0664
188.0180, 449.0908
189.2430, 442.1738
190.4690, 575.2598
191.6940, 470.4336
192.9180, 611.3525
194.1430, 665.5928
195.3680, 716.4023
196.5920, 667.9961
197.8160, 720.5791
199.0400, 1020.650
200.2640, 1023.121
201.4880, 1161.025
202.7110, 1126.541
203.9350, 838.4883
205.1580, 582.7930
206.3810, 518.5254
207.6040, 256.6621
208.8270, 235.5762
210.0490, 201.5039
211.2710, 361.2520
212.4940, 273.8086
213.7160, 482.1875
214.9370, 292.3965
216.1590, 262.4463
217.3810, 291.3428
218.6020, 259.0986
219.8230, 296.7246
221.0440, 223.2275
222.2650, 326.6182
223.4860, 256.9033
224.7060, 209.0918
225.9260, 279.1895
227.1470, 91.20508
228.3670, 133.1445
229.5860, 64.98633
230.8060, 6.753906
232.0260, 24.23145
233.2450, 29.45898
234.4640, 68.14453
235.6830, 32.84961
236.9020, 41.20996
238.1200, 21.05078
239.3390, 76.26758
240.5570, 28.13770
241.7750, 105.7402
242.9930, 112.4668
244.2110, 185.1279
245.4290, 157.7842
246.6460, 322.4883
247.8630, 483.2402
249.0810, 605.0361
250.2980, 609.8730
251.5140, 857.7461
252.7310, 1100.649
253.9470, 1093.579
255.1640, 993.5352
256.3800, 811.5879
257.5960, 808.5361
258.8120, 778.5049
260.0270, 729.4502
261.2430, 572.5049
262.4580, 546.4912
263.6730, 467.2871
264.8880, 385.9219
266.1030, 359.5742
267.3170, 358.6123
268.5320, 207.6328
269.7460, 200.6465
270.9600, 192.6074
272.1740, 299.5322
273.3880, 296.4375
274.6010, 360.3477
275.8150, 427.9277
277.0280, 519.2012
278.2410, 571.1475
279.4540, 726.1094
280.6670, 835.0879
281.8790, 894.0840
283.0920, 1028.098
284.3040, 835.1318
285.5160, 948.1865
286.7280, 739.2637
287.9400, 616.3643
289.1510, 375.4873
290.3630, 350.6338
291.5740, 398.8047
292.7850, 408.9990
293.9960, 379.2168
295.2070, 390.4590
296.4170, 264.7236
297.6280, 298.0127
298.8380, 321.3252
300.0480, 442.6611
301.2580, 431.0205
302.4680, 618.4033
303.6770, 585.8076
304.8870, 485.8770
306.0960, 614.4395
307.3050, 442.4902
308.5140, 236.6406
309.7230, 223.8643
310.9310, 63.14062
312.1400, 141.4580
313.3480, 7.272461
314.5560, 64.83301
315.7640, 112.4775
316.9720, 217.1523
318.1790, 141.8857
319.3870, 226.6631
320.5940, 167.5068
321.8010, 133.4004
323.0080, 122.3447
324.2150, 101.3418
325.4210, 23.60352
326.6280, 119.5254
327.8340, 65.42383
329.0400, 236.3018
330.2460, 233.1602
331.4510, 529.0010
332.6570, 721.8242
333.8620, 913.6338
335.0680, 879.4297
336.2730, 913.2119
337.4780, 1010.983
338.6820, 816.1240
339.8870, 777.4141
341.0910, 532.0596
342.2950, 337.6191
343.5000, 346.0850
344.7030, 523.4893
345.9070, 623.8369
347.1110, 797.1641
348.3140, 939.4814
349.5170, 742.7871
350.7200, 590.0850
351.9230, 299.3750
353.1260, 324.5576
354.3290, 194.9375
355.5310, 320.8418
356.7330, 100.4785
357.9350, 22.74414
359.1370, 60.99316
360.3390, 23.75000
361.5400, 26.51074
362.7420, 145.7197
363.9430, 135.9512
365.1440, 215.1836
366.3450, 233.4580
367.5460, 221.3828
368.7460, 194.8936
369.9470, 258.1436
371.1470, 187.3965
372.3470, 176.7227
373.5470, 67.92090
374.7460, 84.60742
375.9460, 96.98438
377.1450, 40.16504
378.3450, 149.3779
379.5440, 154.0166
380.7430, 106.9092
381.9410, 114.0244
383.1400, 133.5527
384.3380, 194.6445
385.5370, 223.2900
386.7350, 341.5146
387.9320, 449.8691
389.1300, 458.6084
390.3280, 524.2939
391.5250, 525.0674
392.7220, 541.8750
393.9190, 686.6992
395.1160, 954.5576
396.3130, 1032.480
397.5100, 1272.439
398.7060, 1355.435
399.9020, 1283.487
401.0980, 1388.563
402.2940, 1357.696
403.4900, 1247.872
404.6860, 1034.049
405.8810, 986.2607
407.0760, 938.5068
408.2710, 937.8096
409.4660, 881.1787
410.6610, 962.5762
411.8550, 966.0029
413.0500, 927.4746
414.2440, 990.9697
415.4380, 932.5000
416.6320, 814.0459
417.8260, 798.6191
419.0190, 800.2148
420.2130, 666.8262
421.4060, 729.4521
422.5990, 642.0908
423.7920, 653.7451
424.9850, 721.4141
426.1770, 866.0967
427.3700, 846.7949
428.5620, 693.5059
429.7540, 799.2305
430.9460, 756.9658
432.1380, 709.7148
433.3290, 671.4756
434.5210, 652.4287
435.7120, 626.5049
436.9030, 624.8311
438.0940, 594.6387
439.2850, 579.4590
440.4750, 556.2900
441.6660, 614.1309
442.8560, 439.9844
444.0460, 538.8486
445.2360, 522.7227
446.4260, 257.6084
447.6160, 487.5029
448.8050, 575.4014
449.9940, 476.3047
451.1830, 558.2129
452.3720, 498.1230
453.5610, 729.0352
454.7500, 609.8896
455.9380, 819.8066
457.1260, 751.5244
458.3150, 595.4268
459.5020, 698.5215
460.6900, 594.0635
461.8780, 716.3457
463.0650, 791.3262
464.2530, 767.8311
465.4400, 832.3477
466.6270, 823.5127
467.8130, 815.4502
469.0000, 886.1807
470.1870, 802.1279
471.3730, 951.0459
472.5590, 1118.002
473.7450, 895.9619
474.9310, 882.9258
476.1160, 965.8936
477.3020, 860.8662
478.4870, 1060.842
479.6720, 985.8223
480.8570, 1017.806
482.0420, 960.7939
483.2270, 1138.786
484.4110, 1176.782
485.5960, 1191.783
486.7800, 1237.789
487.9640, 1190.801
489.1480, 1312.817
490.3310, 1544.857
491.5150, 1543.903
492.6980, 1754.954
493.8810, 1865.035
495.0640, 2186.108
496.2470, 2573.188
497.4300, 2801.292
498.6120, 3094.400
499.7950, 3187.781
500.9770, 3274.799
502.1590, 3215.520
503.3410, 3094.053
504.5220, 2989.943
505.7040, 2842.183
506.8850, 2772.438
508.0660, 2616.821
509.2470, 2559.205
510.4280, 2466.475
511.6090, 2260.161
512.7890, 2120.470
513.9700, 2055.385
515.1500, 1811.979
516.3300, 1751.386
517.5100, 1798.139
518.6900, 1838.417
519.8690, 1637.604
521.0490, 1757.709
522.2280, 1816.055
523.4070, 1819.037
524.5860, 1955.220
525.7640, 2124.157
526.9430, 2388.100
528.1210, 2763.582
529.3000, 2982.317
530.4780, 3248.457
531.6560, 3397.514
532.8330, 3123.441
534.0110, 3034.125
535.1880, 2486.579
536.3650, 2319.936
537.5430, 1946.565
538.7190, 1681.998
539.8960, 1330.230
541.0730, 1327.168
542.2490, 1284.742
543.4250, 1156.425
544.6020, 1235.531
545.7780, 1244.950
546.9530, 1294.761
548.1290, 1471.823
549.3040, 1655.422
550.4800, 1924.049
551.6550, 2229.100
552.8300, 2586.928
554.0040, 2988.114
555.1790, 2759.313
556.3540, 2606.805
557.5280, 2151.995
558.7020, 1598.061
559.8760, 1145.496
561.0500, 946.4150
562.2230, 792.0068
563.3970, 733.6406
564.5700, 781.4170
565.7430, 570.0498
566.9160, 577.9990
568.0890, 413.7939
569.2620, 547.2520
570.4340, 392.7002
571.6070, 477.1357
572.7790, 564.5605
573.9510, 535.9707
575.1230, 645.3701
576.2940, 504.7578
577.4660, 892.1309
578.6370, 834.4932
579.8080, 1039.841
580.9790, 1384.175
582.1500, 1609.496
583.3210, 2169.803
584.4910, 2885.096
585.6620, 3991.375
586.8320, 5399.641
588.0020, 7411.889
589.1720, 9400.125
590.3410, 11594.34
591.5110, 15606.55
592.6800, 21394.74
593.8500, 30199.92
595.0190, 39228.07
596.1880, 44830.21
597.3560, 42963.34
598.5250, 34813.45
599.6930, 24241.57
600.8620, 15650.71
602.0300, 10427.89
603.1970, 7003.099
604.3650, 5163.354
605.5330, 4224.639
606.7000, 3301.944
607.8680, 2784.271
609.0350, 2383.609
610.2020, 2032.933
611.3680, 1715.929
612.5350, 1583.524
613.7010, 1252.794
614.8680, 1199.043
616.0340, 1058.274
617.2000, 1001.485
618.3660, 731.6787
619.5310, 694.8535
620.6970, 614.0078
621.8620, 580.1426
623.0270, 542.2578
624.1920, 553.3535
625.3570, 484.4287
626.5220, 483.6680
627.6860, 374.7568
628.8500, 433.7715
630.0140, 182.7910
631.1780, 296.9756
632.3420, 171.9258
633.5060, 110.9600
634.6700, 123.1875
635.8330, 172.5205
636.9960, 196.7783
638.1590, 292.6201
639.3220, 67.46191
640.4850, 239.2871
641.6470, 105.1221
642.8100, 21.46484
643.9720, 455.0371
645.1340, 204.4209
646.2960, 362.0771
647.4570, 125.7461
648.6190, 127.4346
649.7800, 196.5498
650.9420, 9.861328
652.1030, 152.0273
653.2640, 28.94336
654.4240, 99.11816
655.5850, 145.5781
656.7450, 75.04688
657.9060, 9.478516
659.0660, 20.90723
660.2260, 31.77930
661.3850, 16.39941
662.5450, 52.63867
663.7040, 31.84961
664.8640, 67.02637
666.0230, 68.33496
667.1820, 16.53418
668.3410, 123.6045
669.4990, 31.21094
670.6580, 56.76270
671.8160, 82.70215
672.9740, 38.39062
674.1320, 23.44727
675.2900, 30.37109
676.4480, 153.6963
677.6050, 37.86230
678.7630, 34.32520
679.9200, 123.3281
681.0770, 10.99805
682.2340, 114.6475
683.3900, 57.49219
684.5470, 30.39941
685.7030, 68.40918
686.8590, 28.51562
688.0150, 108.6963
689.1710, 144.9941
690.3270, 8.428711
691.4830, 4.927734
692.6380, 74.49121
693.7930, 25.84668
694.9480, 31.86426
696.1030, 78.34766
697.2580, 6.520508
698.4130, 18.63672
699.5670, 119.7012
700.7210, 194.7295
701.8750, 181.7246
703.0290, 144.6855
704.1830, 175.6094
705.3370, 96.49902
706.4900, 130.3516
707.6430, 291.1689
708.7970, 210.9521
709.9490, 219.7031
711.1020, 403.4209
712.2550, 266.1045
713.4070, 369.7559
714.5600, 222.3740
715.7120, 380.9590
716.8640, 399.5117
718.0160, 403.0322
719.1670, 590.5186
720.3190, 770.9717
721.4700, 747.3926
722.6210, 822.7803
723.7720, 868.1367
724.9230, 992.4590
726.0740, 1088.749
727.2250, 1307.007
728.3750, 1367.231
729.5250, 1468.424
730.6750, 1813.584
731.8250, 1652.711
732.9750, 2023.808
734.1240, 1927.870
735.2740, 1942.901
736.4230, 2029.899
737.5720, 1960.867
738.7210, 1813.803
739.8700, 1842.705
741.0190, 1687.575
742.1670, 1687.413
743.3150, 1480.218
744.4630, 1448.991
745.6110, 1207.729
746.7590, 1211.437
747.9070, 979.1113
749.0540, 861.7520
750.2020, 684.3604
751.3490, 565.9346
752.4960, 559.4775
753.6430, 584.9883
754.7890, 431.4678
755.9360, 275.9131
757.0820, 377.3271
758.2280, 323.7100
759.3740, 234.0605
760.5200, 254.3789
761.6660, 175.6357
762.8120, 188.9229
763.9570, 104.1475
765.1020, 133.3389
766.2470, 159.4980
767.3920, 35.37305
768.5370, 90.68848
769.6810, 139.7168
770.8260, 112.7139
771.9700, 10.34375
773.1140, 31.57031
774.2580, 44.54980
775.4020, 150.2598
776.5460, 7.960938
777.6890, 72.48828
778.8320, 6.159180
779.9750, 114.3682
781.1180, 39.40332
782.2610, 3.5156000E-02
783.4040, 16.56934
784.5460, 125.7744
785.6890, 100.9648
786.8310, 11.13086
787.9730, 146.3838
789.1150, 23.19434
790.2560, 38.64258
791.3980, 28.12402
792.5390, 133.6777
793.6810, 35.35645
794.8220, 36.75391
795.9630, 81.29102
797.1030, 30.59766
798.2440, 22.56055
799.3840, 63.47363
800.5240, 87.73926
801.6650, 114.7939
802.8040, 34.08496
803.9440, 49.35156
805.0840, 87.06641
806.2230, 30.51074
807.3630, 71.77344
808.5020, 80.62793
809.6410, 60.81348
810.7790, 49.23242
811.9180, 58.13770
813.0570, 244.4463
814.1950, 29.11328
815.3330, 17.39160
816.4710, 57.92188
817.6090, 138.0254
818.7470, 136.6807
819.8840, 74.45410
821.0220, 0.1435550
822.1590, 73.50293
823.2960, 159.4502
824.4330, 104.8760
825.5690, 217.2490
826.7060, 224.3340
827.8420, 226.9551
828.9790, 305.7930
830.1150, 317.2510
831.2510, 358.6787
832.3860, 563.7949
833.5220, 467.1963
834.6570, 625.7012
835.7930, 724.8184
836.9280, 767.4346
838.0630, 881.3584
839.1980, 1105.224
840.3320, 1187.928
841.4670, 1109.756
842.6010, 1347.250
843.7350, 1393.882
844.8690, 1353.831
846.0030, 1466.773
847.1370, 1328.712
848.2700, 1161.643
849.4040, 1176.566
850.5370, 1176.487
851.6700, 1160.402
852.8030, 1099.312
853.9360, 1099.219
855.0680, 985.1221
856.2000, 991.0205
857.3330, 1101.916
858.4650, 1034.809
859.5970, 1120.908
860.7290, 1182.585
861.8600, 1242.469
862.9920, 1210.352
864.1230, 1301.232
865.2540, 1241.111
866.3850, 1530.989
867.5160, 1637.865
868.6460, 1908.742
869.7770, 1904.618
870.9070, 2299.492
872.0370, 2398.369
873.1670, 2911.244
874.2970, 3438.122
875.4270, 3763.999
876.5570, 4128.879
877.6860, 4468.761
878.8150, 5252.645
879.9440, 5331.529
881.0730, 5433.417
882.2020, 5587.307
883.3300, 5439.201
884.4590, 5204.098
885.5870, 4836.998
886.7150, 4524.932
887.8430, 4157.871
888.9710, 3638.815
890.0990, 3528.764
891.2260, 3117.288
892.3530, 3036.675
893.4810, 2595.640
894.6080, 2501.609
895.7340, 2413.584
896.8610, 2277.566
897.9880, 2028.555
899.1140, 1916.548
900.2400, 1985.366
901.3660, 1974.320
902.4920, 2135.336
903.6180, 2013.075
904.7430, 1936.445
905.8690, 1835.199
906.9940, 1732.146
908.1190, 1665.893
909.2440, 1621.089
910.3690, 1628.208
911.4930, 1551.304
912.6180, 1427.389
913.7420, 1339.045
914.8660, 1581.541
915.9900, 1270.104
917.1140, 1382.432
918.2380, 1557.316
919.3610, 1196.237
920.4850, 1398.482
921.6080, 1358.742
922.7310, 1140.563
923.8540, 1255.913
924.9760, 1103.944
926.0990, 1129.937
927.2210, 967.6602
928.3440, 1086.086
929.4660, 1071.492
930.5880, 1097.881
931.7090, 1002.378
932.8310, 1141.372
933.9520, 1010.687
935.0740, 1196.206
936.1950, 1167.852
937.3160, 1118.520
938.4360, 1227.056
939.5570, 1066.709
940.6780, 1211.479
941.7980, 1242.158
942.9180, 1160.021
944.0380, 1274.904
945.1580, 1399.812
946.2780, 1293.757
947.3970, 1483.344
948.5170, 1585.410
949.6360, 1491.256
950.7550, 1600.366
951.8740, 1553.985
952.9930, 1501.238
954.1110, 1467.449
955.2300, 1371.805
956.3480, 1499.186
957.4660, 1312.637
958.5840, 1169.144
959.7020, 1243.695
960.8190, 1289.324
961.9370, 1073.027
963.0540, 1025.772
964.1710, 859.5596
965.2880, 886.4180
966.4050, 741.3105
967.5220, 711.2480
968.6380, 732.2129
969.7550, 571.2148
970.8710, 570.2832
971.9870, 557.3789
973.1030, 556.4980
974.2190, 568.6445
975.3340, 577.8164
976.4500, 443.0146
977.5650, 451.1309
978.6800, 380.4932
979.7950, 344.7695
980.9100, 370.0732
982.0250, 258.3838
983.1390, 328.9082
984.2530, 372.2842
985.3680, 389.9834
986.4820, 304.8682
987.5950, 352.5430
988.7090, 347.0430
989.8230, 339.3926
990.9360, 405.8359
992.0490, 335.7920
993.1620, 401.1240
994.2750, 412.4463
995.3880, 448.5342
996.5010, 431.0986
997.6130, 430.2080
998.7250, 482.8955
999.8370, 505.9805
1000.949, 377.7949
1002.061, 379.6660
1003.173, 481.5625
1004.284, 441.2363
1005.396, 337.4355
1006.507, 454.4141
1007.618, 354.4160
1008.729, 338.4473
1009.839, 564.6855
1010.950, 419.7695
1012.060, 473.8809
1013.171, 413.0273
1014.281, 438.2031
1015.391, 319.4043
1016.500, 261.6328
1017.610, 397.8887
1018.719, 691.1699
1019.829, 890.7285
1020.938, 481.0645
1022.047, 206.4727
1023.156, 409.8750
1024.264, 213.3047
1025.373, 271.7617
1026.481, 349.2441
1027.589, 280.7539
1028.697, 396.2871
1029.805, 181.8672
1030.913, 335.4746
1032.020, 215.1074
1033.128, 248.7656
1034.235, 272.4531
1035.342, 369.1660
1036.449, 476.0801
1037.556, 185.8633
1038.663, 279.6758
1039.769, 119.5137
1040.875, 282.4727
1041.981, 346.3711
1043.087, 327.3008
1044.193, 418.2754
1045.299, 376.5566
1046.404, 310.5918
1047.510, 301.6797
1048.615, 196.8008
1049.720, 246.3594
1050.825, 302.5605
1051.930, 213.3164
1053.034, 355.6094
1054.139, 338.4473
1055.243, 370.7891
1056.347, 192.2695
1057.451, 299.6621
1058.555, 271.0801
1059.658, 318.2441
1060.762, 318.7363
1061.865, 162.2520
1062.968, 271.8047
1064.071, 217.8867
1065.174, 317.4980
1066.277, 312.1445
1067.380, 269.8164
1068.482, 308.5039
1069.584, 196.4941
1070.686, 235.5234
1071.788, 141.6816
1072.890, 297.4590
1073.992, 337.0352
1075.093, 451.8516
1076.194, 372.6914
1077.295, 317.5469
1078.396, 365.4199
1079.497, 401.3555
1080.598, 426.2852
1081.698, 409.2070
1082.799, 391.5918
1083.899, 325.3887
1084.999, 311.2559
1086.099, 228.0293
1087.199, 183.1816
1088.298, 379.3477
1089.398, 141.5312
1090.497, 257.7324
1091.596, 421.9453
1092.695, 227.7422
1093.794, 256.9883
1094.892, 275.0293
1095.991, 187.2324
1097.089, 342.6992
1098.187, 202.0039
1099.285, 321.3223
1100.383, 499.6523
1101.481, 61.99609
1102.579, 330.8301
1103.676, 185.1973
1104.773, 269.5781
1105.870, 285.9727
1106.967, 164.3789
1108.064, 303.7969
1109.161, 265.2266
1110.257, 97.66797
1111.353, 202.6582
1112.449, 222.8125
1113.545, 193.0840
1114.641, 432.6250
1115.737, 362.8770
1116.832, 467.2461
1117.928, 616.2207
1119.023, 673.3457
1120.118, 847.5840
1121.213, 634.1270
1122.308, 633.6797
1123.402, 644.2871
1124.497, 640.8574
1125.591, 463.0176
1126.685, 448.6055
1127.779, 385.7871
1128.873, 283.6582
1129.967, 326.4102
1131.060, 120.9023
1132.153, 146.5273
1133.247, 45.15820
1134.340, 146.7949
1135.433, 156.4414
1136.525, 74.09180
1137.618, 104.7500
1138.710, 53.41211
1139.802, 227.0820
1140.895, 13.24023
1141.987, 164.4375
1143.078, 109.1211
1144.170, 73.99219
1145.261, 57.68750
1146.353, 154.3848
1147.444, 37.08789
1148.535, 229.7949
1149.626, 186.5078
1150.716, 158.7754
1151.807, 90.88086
1152.897, 2.460938
1153.988, 168.4570
1155.078, 67.12305
1156.168, 82.79102
1157.257, 138.4609
1158.347, 90.13672
1159.436, 21.81641
1160.526, 135.9395
1161.615, 71.02344
1162.704, 262.2676
1163.793, 106.9512
1164.881, 44.63672
1165.970, 157.3223
1167.058, 6.988281
1168.147, 6.697266
1169.235, 95.38281
1170.323, 10.07031
1171.410, 29.24414
1172.498, 103.4297
1173.585, 34.10547
1174.673, 16.78320
1175.760, 7.542969
1176.847, 58.12500
1177.934, 13.34570
1179.020, 195.4609
1180.107, 7.873047
1181.193, 89.21484
1182.279, 80.60156
1183.365, 33.96680
1184.451, 174.4668
1185.537, 149.0059
1186.623, 54.52539
1187.708, 37.91211
1188.793, 101.3477
1189.878, 9.220703
1190.963, 136.1973
1192.048, 20.61328
1193.133, 112.0234
1194.217, 149.6094
1195.302, 26.35938
1196.386, 126.1562
1197.470, 153.8867
1198.554, 106.3164
1199.638, 5.203125
1200.721, 32.28516
1201.805, 75.90430
1202.888, 87.83594
1203.971, 130.6621
1205.054, 29.71289
1206.137, 38.80859
1207.219, 117.1191
1208.302, 45.51367
1209.384, 20.20117
1210.466, 144.8398
1211.548, 186.4434
1212.630, 97.53711
1213.712, 180.2090
1214.794, 43.68164
1215.875, 6.939453
1216.956, 85.88281
1218.037, 179.8184
1219.118, 248.7480
1220.199, 59.66797
1221.280, 211.5820
1222.360, 19.51562
1223.441, 54.35742
1224.521, 106.2188
1225.601, 23.07617
1226.681, 33.06836
1227.760, 88.74805
1228.840, 132.5664
1229.919, 249.3789
1230.999, 49.17969
1232.078, 92.02734
1233.157, 80.68945
1234.236, 108.4004
1235.314, 81.09766
1236.393, 60.79102
1237.471, 148.4727
1238.549, 213.1465
1239.627, 161.4668
1240.705, 104.4609
1241.783, 93.10156
1242.860, 51.73438
1243.938, 50.35547
1245.015, 58.03320
1246.092, 15.51758
1247.169, 7.554688
1248.246, 87.53906
1249.323, 31.02344
1250.399, 63.99805
1251.475, 83.94141
1252.552, 24.38477
1253.628, 67.80664
1254.703, 38.22070
1255.779, 202.6172
1256.855, 144.0020
1257.930, 186.3750
1259.005, 197.7637
1260.080, 5.859375
1261.155, 139.4824
1262.230, 151.8164
1263.305, 319.1348
1264.379, 178.4434
1265.454, 226.7422
1266.528, 311.0293
1267.602, 205.3027
1268.676, 172.5645
1269.750, 149.8164
1270.823, 398.8750
1271.897, 141.1055
1272.970, 10.32812
1274.043, 288.5137
1275.116, 210.6895
1276.189, 132.8555
1277.261, 100.0078
1278.334, 115.1504
1279.406, 274.2812
1280.478, 126.6230
1281.550, 142.2598
1282.622, 8.695313
1283.694, 166.3613
1284.766, 220.4043
1285.837, 117.5000
1286.908, 161.3086
1287.979, 272.0469
1289.050, 25.47852
1290.121, 474.4668
1291.192, 267.4004
1292.262, 174.3184
1293.333, 273.2266
1294.403, 347.1191
1295.473, 303.0020
1296.543, 382.6973
1297.613, 347.5527
1298.682, 327.3984
1299.752, 474.2266
1300.821, 293.9492
1301.890, 347.7539
1302.959, 286.5449
1304.028, 375.3223
1305.096, 405.8086
1306.165, 455.5625
1307.233, 375.3027
1308.301, 589.0293
1309.370, 500.3672
1310.437, 356.0938
1311.505, 740.2852
1312.573, 599.9609
1313.640, 479.1074
1314.708, 544.7617
1315.775, 475.2891
1316.842, 514.9199
1317.908, 654.5625
1318.975, 505.4629
1320.042, 524.0605
1321.108, 424.6484
1322.174, 438.2246
1323.240, 339.2988
